Data from 2937858_Reflection_2.txt Node
Date: Wed Jul 15 15:33:07 EDT 2015
User: robert
Spectrometer: USB4E03001
Autoset integration time: false
Trigger mode: 4
Integration Time (sec): 1.000000E-1
Scans to average: 10
Electric dark correction enabled: true
Nonlinearity correction enabled: false
Boxcar width: 5
Stray light correction enabled: false
XAxis mode: Wavelengths
Stop averaging: false
Number of Pixels in Spectrum: 3648
>>>>>Begin Spectral Data<<<<<
177.566	47.15
177.785	28.22
178.005	86.78
178.225	125.56
178.445	22.48
178.665	115.36
178.885	-3460
179.105	277.92
179.324	80.83
179.544	129.67
179.764	96.3
179.984	128.69
180.204	107.84
180.423	141.86
180.643	120.84
180.863	94.22
181.083	125.99
181.302	138.36
181.522	107.45
181.742	99.35
181.961	109.74
182.181	146.74
182.401	123.39
182.621	105.75
182.84	141.25
183.06	143.28
183.279	158.74
183.499	121.95
183.719	140.95
183.938	177.31
184.158	146.98
184.377	135.4
184.597	81.06
184.816	102.41
185.036	121.05
185.256	131.5
185.475	174.31
185.695	81.93
185.914	194.27
186.134	43.57
186.353	1.29
186.572	-11.51
186.792	-12.33
187.011	-20.98
187.231	-57.83
187.45	-16.74
187.67	-35.18
187.889	-19.83
188.108	-19.53
188.328	16.89
188.547	46.09
188.766	63.1
188.986	76.62
189.205	95.17
189.424	99.09
189.644	157.18
189.863	137.26
190.082	121.03
190.302	210.23
190.521	-17.02
190.74	-63.93
190.959	-125.58
191.178	-110.96
191.398	-195.91
191.617	-278.2
191.836	-171.76
192.055	-114.16
192.274	-67.09
192.494	-15.21
192.713	-50.68
192.932	-61.44
193.151	-121.75
193.37	-129.59
193.589	-4263.64
193.808	-672.07
194.027	-1081.7
194.246	-484.77
194.465	-132.42
194.685	-236.18
194.904	-96.39
195.123	-5.76
195.342	27.39
195.561	94.24
195.78	44.76
195.999	44.4
196.218	58.21
196.436	76.93
196.655	89.57
196.874	76.33
197.093	85.42
197.312	92.72
197.531	123.52
197.75	118.22
197.969	82.51
198.188	103.98
198.407	121.26
198.625	119.62
198.844	137.38
199.063	132.22
199.282	162.92
199.501	97.38
199.719	96.24
199.938	36.1
200.157	27.36
200.376	51.32
200.594	29.92
200.813	-19.84
201.032	14.73
201.251	14.29
201.469	25.79
201.688	-5.1
201.907	-8.51
202.125	0.55
202.344	12.01
202.563	9.06
202.781	-342.73
203	-100.95
203.218	-49.55
203.437	2910
203.656	1341.91
203.874	-414.71
204.093	-230.18
204.311	-22.92
204.53	23.49
204.748	5.55
204.967	-14.66
205.185	13.18
205.404	11.29
205.622	33.83
205.841	13.12
206.059	40.08
206.278	39.6
206.496	46.65
206.715	40.25
206.933	42.2
207.151	46.7
207.37	50.95
207.588	50.62
207.806	39.94
208.025	36.02
208.243	35.03
208.461	48.88
208.68	63.73
208.898	54.83
209.116	57.38
209.335	50.52
209.553	43.92
209.771	54.43
209.989	44.27
210.208	29.85
210.426	5.63
210.644	-31.55
210.862	-9.54
211.081	-71.2
211.299	-59.46
211.517	-12.64
211.735	-1.53
211.953	-3.9
212.171	2.86
212.39	1.23
212.608	0.4
212.826	0.76
213.044	14.04
213.262	0.46
213.48	7.03
213.698	11.72
213.916	0.77
214.134	4.73
214.352	30.22
214.57	33.5
214.788	34.8
215.006	45.23
215.224	58.05
215.442	59.84
215.66	36.57
215.878	62.97
216.096	65.39
216.314	71.85
216.532	58.8
216.75	37.42
216.968	14.23
217.185	14.78
217.403	11.48
217.621	-19.3
217.839	-59.05
218.057	-25.93
218.275	-35.83
218.492	-37.09
218.71	-103
218.928	-289.51
219.146	-168.14
219.363	-92.7
219.581	-27.29
219.799	-7.83
220.017	3.84
220.234	0.27
220.452	-0.55
220.67	-5.63
220.887	-3.73
221.105	7.12
221.323	2.39
221.54	9.57
221.758	-14.41
221.976	-45.79
222.193	-30.09
222.411	-17.95
222.629	-7.3
222.846	-0.51
223.064	6.32
223.281	-2.5
223.499	-7.67
223.716	10.33
223.934	2.56
224.151	16.84
224.369	16.1
224.586	7.98
224.804	3.33
225.021	21.86
225.239	10.63
225.456	18.6
225.674	32.71
225.891	36.72
226.108	35.21
226.326	25.63
226.543	10.64
226.76	22.4
226.978	18.63
227.195	22.05
227.413	10.37
227.63	9.21
227.847	7.87
228.064	4.87
228.282	1.93
228.499	-0.04
228.716	3.63
228.934	8.63
229.151	9.1
229.368	11.12
229.585	12.3
229.802	12.57
230.02	15.38
230.237	12.26
230.454	12.66
230.671	12.25
230.888	13.64
231.105	13.84
231.323	9.05
231.54	3.75
231.757	0.45
231.974	-5.28
232.191	-4.58
232.408	-9.65
232.625	-4.24
232.842	0.14
233.059	3.99
233.276	2.25
233.493	7.05
233.71	13.54
233.927	14.32
234.144	12.51
234.361	14.51
234.578	15.46
234.795	17.1
235.012	15.27
235.229	13.34
235.446	14.13
235.663	15.78
235.879	14.46
236.096	13.55
236.313	15.97
236.53	14.97
236.747	19.07
236.964	19.8
237.181	16.57
237.397	18.92
237.614	17.33
237.831	16.15
238.048	14.8
238.264	11.32
238.481	12.58
238.698	15.18
238.915	17.76
239.131	13.61
239.348	13.94
239.565	15.43
239.781	16.07
239.998	15.51
240.215	13.08
240.431	14.84
240.648	15.54
240.865	17.1
241.081	15.21
241.298	15.53
241.514	14.1
241.731	14.75
241.947	15.74
242.164	14.24
242.38	13.09
242.597	13.93
242.814	13.25
243.03	13.31
243.246	13.02
243.463	13.11
243.679	12.88
243.896	14.01
244.112	14.39
244.329	12.51
244.545	14.79
244.762	16.07
244.978	15.25
245.194	15.34
245.411	15.39
245.627	12.3
245.843	13.16
246.06	14.21
246.276	13.98
246.492	13.69
246.709	13.74
246.925	12.47
247.141	12.55
247.357	13
247.574	12.65
247.79	12.51
248.006	13.86
248.222	13.36
248.439	12.3
248.655	11.55
248.871	11.74
249.087	11.28
249.303	10.92
249.519	10.43
249.736	10.92
249.952	11.46
250.168	12.56
250.384	11.42
250.6	10.57
250.816	10.26
251.032	10.57
251.248	6.7
251.464	8.19
251.68	8.36
251.896	7.15
252.112	5.82
252.328	6.59
252.544	6.83
252.76	7.14
252.976	8.19
253.192	9.9
253.408	10.53
253.624	11.1
253.84	11.09
254.056	11.81
254.272	13.71
254.487	16.76
254.703	13.99
254.919	10.83
255.135	11.2
255.351	9.72
255.567	8.97
255.782	6.48
255.998	5.01
256.214	5.91
256.43	7.66
256.646	8.61
256.861	7.06
257.077	7.98
257.293	9.66
257.508	8.23
257.724	8.96
257.94	7.97
258.155	8.04
258.371	8.88
258.587	8.63
258.802	8.72
259.018	6.65
259.234	7.05
259.449	8.16
259.665	7.14
259.88	8.22
260.096	8.94
260.312	9.63
260.527	9.82
260.743	9.83
260.958	9.64
261.174	9.03
261.389	10.45
261.605	10.19
261.82	8.86
262.036	10.25
262.251	8.74
262.466	7.22
262.682	7.38
262.897	7.69
263.113	9.64
263.328	9.14
263.543	10.17
263.759	9.46
263.974	9.48
264.189	9.28
264.405	8.77
264.62	9.96
264.835	10.2
265.051	7.89
265.266	8.65
265.481	7.67
265.696	8.91
265.912	8.32
266.127	8.58
266.342	8.4
266.557	8.96
266.773	10.02
266.988	9.58
267.203	10.64
267.418	11.38
267.633	10.67
267.848	9.82
268.064	9.18
268.279	9.53
268.494	9.96
268.709	11.95
268.924	12.71
269.139	12.21
269.354	11.92
269.569	12.16
269.784	10.74
269.999	10.84
270.214	11.3
270.429	11.26
270.644	11.62
270.859	9.88
271.074	9.09
271.289	8.02
271.504	7.65
271.719	7.76
271.934	6.83
272.149	7.73
272.363	6.98
272.578	6.74
272.793	6.64
273.008	5.94
273.223	6.63
273.438	6.19
273.653	7.2
273.867	7.82
274.082	8.54
274.297	8.63
274.512	9.39
274.726	9.84
274.941	10.37
275.156	11.6
275.371	11.68
275.585	11.97
275.8	10.94
276.015	11.72
276.229	11.01
276.444	10.34
276.659	10.57
276.873	10.17
277.088	10.54
277.302	7.73
277.517	5.68
277.732	6.18
277.946	5.9
278.161	6.73
278.375	7.15
278.59	6.91
278.804	6.49
279.019	7.2
279.233	8.44
279.448	8.59
279.662	10.03
279.877	11.43
280.091	11.4
280.306	11.65
280.52	11.05
280.735	9.58
280.949	9.28
281.163	10.12
281.378	9.87
281.592	8.49
281.806	8
282.021	9.02
282.235	9.02
282.449	8.57
282.664	7.63
282.878	8.4
283.092	8.15
283.307	8.07
283.521	7.26
283.735	5.81
283.949	5.72
284.164	6.73
284.378	5.95
284.592	6.02
284.806	6.48
285.02	8.21
285.234	7.79
285.449	8.11
285.663	8.69
285.877	9.55
286.091	10.66
286.305	11.12
286.519	11.16
286.733	12.27
286.947	12.45
287.161	12.11
287.375	12.06
287.589	12.34
287.803	12.58
288.017	13.14
288.231	12.95
288.445	12.13
288.659	12.31
288.873	10.87
289.087	9.89
289.301	10.43
289.515	11.34
289.729	10.84
289.943	9.45
290.157	10.27
290.371	9.87
290.584	9.22
290.798	9.35
291.012	8.42
291.226	9.49
291.44	9.29
291.654	9.27
291.867	8.14
292.081	8.27
292.295	10.21
292.509	9.29
292.722	9.05
292.936	10.17
293.15	9.67
293.364	11.51
293.577	10
293.791	10.86
294.005	10.89
294.218	10.7
294.432	10.83
294.645	10.34
294.859	10.34
295.073	10.5
295.286	11.41
295.5	12.95
295.713	11.73
295.927	13.28
296.14	13.17
296.354	11.97
296.568	12.06
296.781	12.08
296.994	12.15
297.208	12.42
297.421	11.81
297.635	10.96
297.848	10.68
298.062	10.32
298.275	8.99
298.489	9.1
298.702	10.03
298.915	10.04
299.129	9.49
299.342	9.73
299.555	10.27
299.769	10.96
299.982	11.37
300.195	11.64
300.409	12.23
300.622	13.06
300.835	13.38
301.048	13.09
301.262	13.12
301.475	14.31
301.688	13.58
301.901	12.97
302.115	12.82
302.328	13.02
302.541	12.16
302.754	12.19
302.967	12.66
303.18	11.35
303.393	10.7
303.607	9.74
303.82	8.4
304.033	9.6
304.246	9.02
304.459	8.5
304.672	8.3
304.885	9.07
305.098	8.86
305.311	8.95
305.524	10.33
305.737	10.31
305.95	10.44
306.163	11.6
306.376	11.98
306.589	12.95
306.802	13.9
307.015	13.49
307.228	12.24
307.44	11.22
307.653	10.54
307.866	11.34
308.079	11.4
308.292	12.21
308.505	11.13
308.718	9.07
308.93	9.34
309.143	9.45
309.356	9.02
309.569	9.03
309.781	9.61
309.994	10.53
310.207	9.72
310.42	10.28
310.632	11.06
310.845	11.71
311.058	12.54
311.27	12.53
311.483	12.74
311.696	13.07
311.908	12.98
312.121	13.36
312.333	12.85
312.546	11.92
312.759	11.07
312.971	9.88
313.184	8.78
313.396	8.38
313.609	8.26
313.821	7.79
314.034	8.59
314.246	9.46
314.459	10.21
314.671	9.63
314.884	11.52
315.096	12.03
315.309	11.83
315.521	12.35
315.733	13.24
315.946	12.14
316.158	12.77
316.371	12.76
316.583	12.66
316.795	11.23
317.008	12.69
317.22	13.18
317.432	11.78
317.644	13.07
317.857	13.55
318.069	14.3
318.281	14.21
318.494	13.95
318.706	13.03
318.918	12.85
319.13	12.66
319.342	10.63
319.555	9.94
319.767	11.62
319.979	11.43
320.191	11.77
320.403	8.52
320.615	9.57
320.827	8.25
321.039	8
321.252	9.13
321.464	9.27
321.676	12.05
321.888	12.24
322.1	12.09
322.312	10.54
322.524	9.91
322.736	10.68
322.948	10.93
323.16	11.49
323.372	12.48
323.584	11.28
323.796	10.62
324.007	8.8
324.219	7.14
324.431	6.6
324.643	8
324.855	8.44
325.067	9.45
325.279	8.98
325.491	9.25
325.702	9.63
325.914	10.52
326.126	12.45
326.338	13.09
326.55	13.28
326.761	14.38
326.973	14.39
327.185	14.49
327.396	14.46
327.608	13.58
327.82	13.97
328.032	12.89
328.243	12.92
328.455	11.05
328.666	10.65
328.878	10.65
329.09	10.01
329.301	9.76
329.513	10.25
329.725	10.8
329.936	11.56
330.148	11.35
330.359	11.69
330.571	11.63
330.782	11.95
330.994	12.77
331.205	13.3
331.417	12.67
331.628	12.77
331.84	12.51
332.051	11.48
332.262	10.82
332.474	11.24
332.685	11.97
332.897	12.6
333.108	15.28
333.319	13.62
333.531	14.53
333.742	14.89
333.953	15.24
334.165	15.14
334.376	15.93
334.587	16.46
334.799	16.32
335.01	16.22
335.221	15.14
335.432	14.41
335.644	14.85
335.855	13.65
336.066	14.57
336.277	13.46
336.488	13.51
336.7	14.01
336.911	14.66
337.122	15.18
337.333	14.5
337.544	14.94
337.755	13.93
337.966	14.99
338.177	15.7
338.388	15.75
338.599	17.48
338.811	17.87
339.022	17.74
339.233	17.47
339.444	16.58
339.655	16.91
339.866	17.2
340.076	16.89
340.287	16.85
340.498	16.23
340.709	15.24
340.92	13.98
341.131	14.44
341.342	14.57
341.553	13.66
341.764	13.54
341.975	13.48
342.185	13.2
342.396	13.21
342.607	12.34
342.818	13.4
343.029	14.02
343.239	15.27
343.45	14.87
343.661	14.13
343.872	14.79
344.082	14.58
344.293	14.42
344.504	13.74
344.714	14.25
344.925	15.58
345.136	14.95
345.346	15.25
345.557	14.55
345.768	14.32
345.978	14.32
346.189	15.04
346.399	15.8
346.61	15.97
346.821	16.93
347.031	17.31
347.242	16.82
347.452	17.4
347.663	17.14
347.873	17.23
348.084	16.25
348.294	16.05
348.504	16.64
348.715	15.82
348.925	15.31
349.136	15.38
349.346	14.94
349.557	14.09
349.767	13.3
349.977	13.83
350.188	14.29
350.398	14.4
350.608	14.7
350.819	13.62
351.029	13.43
351.239	13.58
351.449	13.73
351.66	13.91
351.87	13.98
352.08	14.92
352.29	14.44
352.501	13.55
352.711	14.25
352.921	14.55
353.131	14.57
353.341	14.32
353.552	14.74
353.762	14.06
353.972	14.59
354.182	14.04
354.392	13.35
354.602	13.55
354.812	13.13
355.022	12.77
355.232	12.37
355.442	12.12
355.652	12.24
355.862	11.7
356.072	11.15
356.282	10.28
356.492	10.67
356.702	10.57
356.912	9.81
357.122	10.84
357.332	10.62
357.542	11.23
357.752	11.41
357.962	12.16
358.171	12.4
358.381	12.76
358.591	13.31
358.801	13.21
359.011	13.92
359.221	13.95
359.43	13.84
359.64	14.03
359.85	13.87
360.06	14.22
360.269	14.14
360.479	14.24
360.689	14.48
360.899	14.08
361.108	14.14
361.318	14.59
361.528	15.02
361.737	14.6
361.947	14.81
362.156	15.2
362.366	14.45
362.576	15.11
362.785	14.69
362.995	14.85
363.204	15.14
363.414	15.66
363.623	14.89
363.833	14.76
364.042	14.72
364.252	14.41
364.461	13.45
364.671	12.98
364.88	12.3
365.09	12.95
365.299	12.96
365.509	13.14
365.718	12.89
365.927	12.99
366.137	12.94
366.346	12.85
366.555	13.9
366.765	13.77
366.974	14.66
367.183	14.4
367.393	14.2
367.602	13.85
367.811	14
368.021	14.3
368.23	13.89
368.439	14.28
368.648	13.86
368.857	12.99
369.067	13.49
369.276	13.42
369.485	12.44
369.694	11.82
369.903	11.63
370.112	11.31
370.321	10.51
370.531	11.14
370.74	10.77
370.949	11.17
371.158	10.52
371.367	10.17
371.576	10.16
371.785	10.56
371.994	10.99
372.203	10.92
372.412	10.49
372.621	10.66
372.83	10.25
373.039	9.8
373.248	9.83
373.457	10.1
373.666	9.73
373.874	10.04
374.083	10.62
374.292	11.06
374.501	10.55
374.71	9.95
374.919	9.52
375.128	9.59
375.336	10.17
375.545	9.91
375.754	9.92
375.963	9.75
376.171	9.93
376.38	10.03
376.589	9.65
376.798	9.66
377.006	9.81
377.215	9.41
377.424	9.6
377.632	9.48
377.841	9.52
378.05	9.42
378.258	9.72
378.467	9.33
378.675	9.06
378.884	9.36
379.093	10.09
379.301	10.56
379.51	11.37
379.718	11.03
379.927	10.79
380.135	11.32
380.344	11.35
380.552	11.26
380.761	11.49
380.969	11.19
381.177	10.71
381.386	10.68
381.594	10.29
381.803	10.67
382.011	11.11
382.219	11.15
382.428	10.12
382.636	9.58
382.845	9.71
383.053	9.67
383.261	9.86
383.469	10.1
383.678	9.42
383.886	9.58
384.094	9.1
384.302	8.31
384.511	8.55
384.719	9.13
384.927	9.65
385.135	10.11
385.343	10.03
385.552	9.94
385.76	9.49
385.968	9.84
386.176	9.4
386.384	9.5
386.592	10.01
386.8	9.98
387.008	9.75
387.216	10.15
387.424	9.84
387.633	9.21
387.841	9.07
388.049	9.46
388.257	9.34
388.465	9.31
388.672	9.33
388.88	8.91
389.088	8.51
389.296	8.61
389.504	8.12
389.712	7.8
389.92	8.11
390.128	8.44
390.336	8.38
390.544	8.8
390.751	9.23
390.959	8.99
391.167	9.38
391.375	9.28
391.583	9
391.79	9.05
391.998	8.97
392.206	9.06
392.414	8.67
392.621	8.63
392.829	8.47
393.037	8.55
393.244	8.78
393.452	8.38
393.66	8.74
393.867	8.83
394.075	8.74
394.283	8.95
394.49	8.83
394.698	8.86
394.905	8.86
395.113	8.65
395.32	8.55
395.528	8.39
395.735	8.54
395.943	8.38
396.15	8.84
396.358	9.12
396.565	8.89
396.773	8.93
396.98	9.2
397.188	9.05
397.395	9.03
397.602	9.04
397.81	8.76
398.017	9.02
398.225	8.9
398.432	8.62
398.639	8.48
398.847	8.41
399.054	8.51
399.261	8.18
399.468	8.16
399.676	8.11
399.883	8.14
400.09	7.89
400.297	7.82
400.505	7.71
400.712	7.53
400.919	7.59
401.126	7.75
401.333	7.7
401.54	7.82
401.748	7.9
401.955	7.99
402.162	8.08
402.369	8.13
402.576	8
402.783	7.98
402.99	8.05
403.197	7.63
403.404	7.68
403.611	7.69
403.818	7.55
404.025	7.5
404.232	7.54
404.439	7.32
404.646	7.57
404.853	7.55
405.06	7.48
405.267	7.45
405.474	7.94
405.681	8.01
405.887	8.03
406.094	8.06
406.301	8.16
406.508	8.08
406.715	8.14
406.922	8.42
407.128	8.26
407.335	8.34
407.542	8.09
407.749	7.68
407.955	7.49
408.162	7.24
408.369	7.44
408.575	7.67
408.782	7.6
408.989	7.49
409.195	7.31
409.402	7.55
409.609	7.72
409.815	8.39
410.022	8.41
410.228	8.56
410.435	8.68
410.642	8.6
410.848	8.71
411.055	8.92
411.261	9.01
411.468	8.92
411.674	8.69
411.881	8.59
412.087	8.33
412.294	8.29
412.5	8.45
412.706	8.72
412.913	8.9
413.119	8.78
413.326	8.73
413.532	8.49
413.738	8.54
413.945	9.03
414.151	9.17
414.357	9.3
414.564	9.49
414.77	9.23
414.976	8.71
415.182	8.54
415.389	8.4
415.595	8.52
415.801	8.64
416.007	8.67
416.214	8.16
416.42	8.07
416.626	7.46
416.832	7.19
417.038	7.23
417.244	7.21
417.45	7.32
417.657	7.13
417.863	6.89
418.069	6.88
418.275	6.88
418.481	7.01
418.687	7.09
418.893	7.56
419.099	7.72
419.305	7.85
419.511	7.99
419.717	7.99
419.923	8
420.129	8.08
420.335	8.05
420.541	8.02
420.746	8.05
420.952	7.91
421.158	7.61
421.364	7.6
421.57	7.4
421.776	7.45
421.982	7.27
422.187	7.21
422.393	7.11
422.599	7.12
422.805	7.01
423.01	6.97
423.216	7.05
423.422	7.15
423.628	7.16
423.833	7.2
424.039	7.18
424.245	7.22
424.45	7.44
424.656	7.57
424.862	7.56
425.067	7.79
425.273	7.77
425.478	7.87
425.684	7.93
425.889	8.07
426.095	8.08
426.301	8.08
426.506	8.1
426.712	7.9
426.917	7.92
427.123	8.02
427.328	7.91
427.533	8.02
427.739	7.92
427.944	8.02
428.15	8.01
428.355	8.15
428.561	8.22
428.766	8.18
428.971	8.44
429.177	8.52
429.382	8.42
429.587	8.2
429.793	8.06
429.998	8.01
430.203	7.72
430.408	7.66
430.614	7.66
430.819	7.61
431.024	7.52
431.229	7.13
431.434	7.02
431.64	7.17
431.845	7.3
432.05	7.28
432.255	7.31
432.46	7.5
432.665	7.23
432.87	7.07
433.076	7.17
433.281	7.31
433.486	7.69
433.691	7.62
433.896	7.7
434.101	7.79
434.306	7.96
434.511	7.81
434.716	7.79
434.921	7.94
435.126	7.99
435.331	7.89
435.535	7.98
435.74	7.79
435.945	7.93
436.15	7.74
436.355	7.58
436.56	7.33
436.765	7.52
436.97	7.5
437.174	7.57
437.379	7.79
437.584	7.68
437.789	7.54
437.993	7.45
438.198	7.09
438.403	7.02
438.608	7.13
438.812	7.22
439.017	7.16
439.222	7.12
439.426	7.07
439.631	7.03
439.836	7.06
440.04	7.22
440.245	7.29
440.45	7.45
440.654	7.52
440.859	7.57
441.063	7.67
441.268	7.62
441.472	7.58
441.677	7.53
441.881	7.38
442.086	7.37
442.29	7.37
442.495	7.27
442.699	7.25
442.904	7.2
443.108	7.2
443.312	7.2
443.517	7.31
443.721	7.37
443.925	7.37
444.13	7.39
444.334	7.48
444.538	7.52
444.743	7.6
444.947	7.47
445.151	7.45
445.356	7.26
445.56	7.1
445.764	7.04
445.968	7.11
446.173	7.04
446.377	7.01
446.581	6.92
446.785	6.88
446.989	6.96
447.193	7.08
447.398	7.15
447.602	7.31
447.806	7.33
448.01	7.39
448.214	7.37
448.418	7.55
448.622	7.6
448.826	7.64
449.03	7.52
449.234	7.48
449.438	7.64
449.642	7.5
449.846	7.37
450.05	7.45
450.254	7.27
450.458	7.38
450.662	7.31
450.866	7.27
451.069	7.41
451.273	7.29
451.477	7.3
451.681	6.99
451.885	7.14
452.089	7.09
452.292	7.01
452.496	7.29
452.7	7.17
452.904	7.05
453.107	7.14
453.311	6.97
453.515	7.01
453.719	6.98
453.922	7.28
454.126	7.21
454.33	7.27
454.533	7.45
454.737	7.22
454.94	7.15
455.144	7.18
455.348	7.14
455.551	7.31
455.755	7.17
455.958	6.97
456.162	6.64
456.365	6.52
456.569	6.68
456.772	6.58
456.976	6.55
457.179	6.8
457.383	6.87
457.586	6.63
457.79	6.66
457.993	7.06
458.196	7.09
458.4	7.3
458.603	7.34
458.807	7.36
459.01	7.33
459.213	7.4
459.417	7.28
459.62	7.2
459.823	7.35
460.026	7.21
460.23	7.15
460.433	7.23
460.636	7.21
460.839	7.26
461.042	7.21
461.246	7.25
461.449	7.26
461.652	7.11
461.855	7.23
462.058	7.25
462.261	7.43
462.464	7.43
462.668	7.38
462.871	7.41
463.074	7.59
463.277	7.37
463.48	7.21
463.683	7.12
463.886	7.16
464.089	7.14
464.292	7.31
464.495	7.19
