Data from 2937842_Reflection_3.txt Node
Date: Wed Jul 15 16:14:25 EDT 2015
User: robert
Spectrometer: USB4E03001
Autoset integration time: false
Trigger mode: 4
Integration Time (sec): 1.000000E-1
Scans to average: 10
Electric dark correction enabled: true
Nonlinearity correction enabled: false
Boxcar width: 5
Stray light correction enabled: false
XAxis mode: Wavelengths
Stop averaging: false
Number of Pixels in Spectrum: 3648
>>>>>Begin Spectral Data<<<<<
177.566	94.59
177.785	305.11
178.005	-183.96
178.225	-743.84
178.445	70.99
178.665	161.3
178.885	597.33
179.105	161.13
179.324	242.5
179.544	8121.87
179.764	-862.34
179.984	-385.89
180.204	-107.84
180.423	-48.04
180.643	-99.59
180.863	-60.46
181.083	-134.27
181.302	-27.66
181.522	-142.69
181.742	-134.55
181.961	-187.46
182.181	-14822.22
182.401	-546.99
182.621	-633.73
182.84	-6344.07
183.06	-349.72
183.279	-143.06
183.499	-131.2
183.719	-157.55
183.938	-79.96
184.158	-88.73
184.377	-77.42
184.597	-54.23
184.816	-80.74
185.036	-63.33
185.256	-78.66
185.475	-135.1
185.695	-89.84
185.914	-67.11
186.134	-186.73
186.353	-6908.86
186.572	-368.84
186.792	-98.56
187.011	-142.05
187.231	-476.48
187.45	-312.07
187.67	-253.62
187.889	-125.52
188.108	-179.31
188.328	-190.85
188.547	-269.72
188.766	-314.02
188.986	-480.26
189.205	713.95
189.424	450.29
189.644	555.45
189.863	683.04
190.082	464.69
190.302	261.58
190.521	374.58
190.74	281.81
190.959	309.61
191.178	824.07
191.398	278.98
191.617	-10259.09
191.836	5341.29
192.055	-328.84
192.274	-709.64
192.494	-1059.06
192.713	-3898.98
192.932	476.91
193.151	311.71
193.37	538.88
193.589	287.57
193.808	1809.25
194.027	275.43
194.246	249.43
194.465	280.64
194.685	-19690
194.904	-1308
195.123	1536.43
195.342	-3886.6
195.561	-186.41
195.78	-199.84
195.999	-269.64
196.218	14089.47
196.436	-102.44
196.655	-13.21
196.874	-402.08
197.093	-6348.15
197.312	81.82
197.531	59.37
197.75	131.22
197.969	131.73
198.188	99.47
198.407	88.05
198.625	52.29
198.844	26.29
199.063	25.82
199.282	31.62
199.501	11.91
199.719	16.19
199.938	9.3
200.157	-39.63
200.376	-110.2
200.594	-148.8
200.813	1117.41
201.032	321.72
201.251	301.29
201.469	1014.12
201.688	600.43
201.907	187.11
202.125	-1160.47
202.344	268.23
202.563	413.86
202.781	14136
203	360.4
203.218	575.04
203.437	571.29
203.656	256.33
203.874	212.03
204.093	279.38
204.311	231.4
204.53	203.53
204.748	520.96
204.967	5752.26
205.185	-573.16
205.404	-190.66
205.622	-107.27
205.841	-127.71
206.059	-90.21
206.278	-32.5
206.496	-66.32
206.715	-102.97
206.933	-165.31
207.151	-119.51
207.37	-101.64
207.588	-61.61
207.806	-93.29
208.025	-68.02
208.243	-51.71
208.461	-63.14
208.68	-21.52
208.898	7
209.116	28.54
209.335	40.25
209.553	38.72
209.771	28.61
209.989	14.13
210.208	12.33
210.426	-13.59
210.644	-19.73
210.862	18.78
211.081	-142.13
211.299	-158.21
211.517	-129.4
211.735	-1949.33
211.953	-3225.88
212.171	298.99
212.39	479.05
212.608	-4592.37
212.826	-2886.81
213.044	-246.18
213.262	-154.21
213.48	-269.79
213.698	2478.35
213.916	-340.59
214.134	-86.37
214.352	-181
214.57	-423.15
214.788	429.58
215.006	290.42
215.224	-666.67
215.442	-765.21
215.66	242.98
215.878	247.77
216.096	1997.63
216.314	345.4
216.532	286.46
216.75	655.77
216.968	-3653.15
217.185	-173.63
217.403	-256.62
217.621	1099.44
217.839	946.02
218.057	1002.76
218.275	-1672.95
218.492	-1789.91
218.71	-1412.25
218.928	-845.82
219.146	-183.62
219.363	-109.36
219.581	-221.05
219.799	-104.16
220.017	-93.64
220.234	-97.92
220.452	-52.01
220.67	-60.87
220.887	-45.56
221.105	-38.41
221.323	-47.29
221.54	-65.14
221.758	-131.67
221.976	-134.01
222.193	-224.38
222.411	-98.81
222.629	-82.42
222.846	-72.27
223.064	-44.8
223.281	-17.21
223.499	14.63
223.716	12.58
223.934	26.84
224.151	61.85
224.369	80.24
224.586	86.52
224.804	73.62
225.021	72.76
225.239	39.39
225.456	32.79
225.674	-1.54
225.891	-31.81
226.108	-33.14
226.326	-43.49
226.543	-23.26
226.76	-27.24
226.978	-31.13
227.195	-20.83
227.413	-16.36
227.63	-7.61
227.847	-3.06
228.064	-5.6
228.282	1.26
228.499	2.88
228.716	3.63
228.934	-0.88
229.151	2.58
229.368	0.03
229.585	-1.45
229.802	-0.2
230.02	0.65
230.237	-2.36
230.454	1.65
230.671	0.43
230.888	0.03
231.105	2.02
231.323	2.69
231.54	0.5
231.757	-0.9
231.974	-3.17
232.191	-1.89
232.408	2.27
232.625	6.51
232.842	3
233.059	-7.8
233.276	-10.86
233.493	-18.71
233.71	-6.13
233.927	-5.45
234.144	3.63
234.361	-0.6
234.578	-11.08
234.795	-14.97
235.012	-19.95
235.229	-10.87
235.446	-9.93
235.663	-6.44
235.879	-2.73
236.096	-3.24
236.313	-5.13
236.53	-0.62
236.747	-1.92
236.964	5.3
237.181	-0.35
237.397	0.52
237.614	-9.17
237.831	0.83
238.048	-5.48
238.264	-5.69
238.481	-8.02
238.698	-0.32
238.915	-0.17
239.131	16.92
239.348	20.56
239.565	20.01
239.781	19.1
239.998	21.89
240.215	20.96
240.431	25.24
240.648	22.54
240.865	17.05
241.081	12.74
241.298	10.69
241.514	5.23
241.731	4.95
241.947	5.34
242.164	5.45
242.38	3.33
242.597	0.71
242.814	-1.18
243.03	-0.2
243.246	2.97
243.463	3.24
243.679	3.41
243.896	4.86
244.112	2.92
244.329	3.71
244.545	5.8
244.762	7.38
244.978	8.27
245.194	9.45
245.411	8.51
245.627	8.92
245.843	10.07
246.06	10.74
246.276	10.7
246.492	11.13
246.709	11.16
246.925	10.41
247.141	10.2
247.357	10.78
247.574	9.98
247.79	10.13
248.006	9.3
248.222	9.33
248.439	9.8
248.655	9.59
248.871	9.16
249.087	8.05
249.303	9.41
249.519	9.16
249.736	10.39
249.952	9.96
250.168	10.89
250.384	8.77
250.6	7.11
250.816	4.47
251.032	5.05
251.248	4.86
251.464	7.35
251.68	3.92
251.896	3.84
252.112	-0.57
252.328	1.18
252.544	-2.12
252.76	-0.93
252.976	-0.11
253.192	0.33
253.408	-1.44
253.624	-4.15
253.84	-4.36
254.056	-1.59
254.272	-1.52
254.487	-0.24
254.703	0.38
254.919	4.57
255.135	6.69
255.351	3.77
255.567	2.74
255.782	5.85
255.998	8.7
256.214	4.63
256.43	2.42
256.646	1.89
256.861	3.66
257.077	4.75
257.293	3.88
257.508	2.61
257.724	4.84
257.94	7.63
258.155	6.97
258.371	8.5
258.587	8.63
258.802	8.46
259.018	7.43
259.234	7.67
259.449	8.42
259.665	8.86
259.88	9.22
260.096	9.54
260.312	9.03
260.527	9.38
260.743	9.44
260.958	9.99
261.174	10.43
261.389	11.83
261.605	12.49
261.82	11.55
262.036	11.65
262.251	11.54
262.466	11.45
262.682	9.68
262.897	8.14
263.113	7.32
263.328	5.46
263.543	6.19
263.759	5.39
263.974	3.56
264.189	4.12
264.405	3.51
264.62	4.54
264.835	3.37
265.051	4.43
265.266	3.14
265.481	2.61
265.696	3.41
265.912	0.15
266.127	-3.33
266.342	-2.39
266.557	-1.56
266.773	-1.9
266.988	-2.45
267.203	-2.03
267.418	-0.2
267.633	-0.44
267.848	-0.55
268.064	-0.59
268.279	-0.99
268.494	2.2
268.709	-0.04
268.924	-0.05
269.139	1.19
269.354	1.83
269.569	0.46
269.784	1.35
269.999	4.28
270.214	4.55
270.429	4.91
270.644	5.1
270.859	6.27
271.074	7.74
271.289	8.68
271.504	7.88
271.719	8.3
271.934	9.44
272.149	7.05
272.363	6.72
272.578	7.27
272.793	7.04
273.008	7.99
273.223	7.1
273.438	5.99
273.653	4.84
273.867	3.94
274.082	3.12
274.297	2.52
274.512	2.87
274.726	2.79
274.941	2.14
275.156	2.21
275.371	1.92
275.585	-0.52
275.8	0.97
276.015	1.08
276.229	2.54
276.444	1.76
276.659	2.87
276.873	2.66
277.088	2.49
277.302	1.45
277.517	2.75
277.732	1.75
277.946	3.83
278.161	3.97
278.375	3.87
278.59	2.99
278.804	2.06
279.019	-0.39
279.233	-0.85
279.448	-1.93
279.662	0.28
279.877	0.85
280.091	-0.26
280.306	-0.3
280.52	-0.29
280.735	-0.02
280.949	1.48
281.163	2.35
281.378	3.61
281.592	4.65
281.806	5.9
282.021	4.38
282.235	3.95
282.449	5.01
282.664	5.07
282.878	4.48
283.092	5.41
283.307	3.48
283.521	3.22
283.735	4.06
283.949	5.01
284.164	4.58
284.378	4.24
284.592	4.33
284.806	4.24
285.02	4.87
285.234	6.35
285.449	4.98
285.663	5.78
285.877	6.05
286.091	4.39
286.305	3.31
286.519	2.76
286.733	4.27
286.947	3.21
287.161	4.75
287.375	2.24
287.589	1.47
287.803	0.99
288.017	1.25
288.231	0.76
288.445	2.23
288.659	1.34
288.873	0.92
289.087	1.34
289.301	2.23
289.515	2.24
289.729	2.46
289.943	3.22
290.157	4.83
290.371	4.56
290.584	6.26
290.798	5.83
291.012	6.97
291.226	7.64
291.44	7.31
291.654	6.84
291.867	6.04
292.081	8.02
292.295	8.44
292.509	7.98
292.722	6.38
292.936	5.7
293.15	7.46
293.364	8.52
293.577	7.77
293.791	6.08
294.005	6.21
294.218	5.73
294.432	5.17
294.645	3.82
294.859	4.39
295.073	6.12
295.286	5
295.5	2.77
295.713	2.61
295.927	3.74
296.14	4.78
296.354	5.97
296.568	6.44
296.781	7.28
296.994	7.66
297.208	7.82
297.421	8.05
297.635	9.85
297.848	10.37
298.062	10.9
298.275	11.28
298.489	12.18
298.702	10.84
298.915	10.84
299.129	11.62
299.342	11.32
299.555	10.76
299.769	10.76
299.982	10.29
300.195	12.29
300.409	11.38
300.622	9.97
300.835	9.65
301.048	11.66
301.262	11.33
301.475	9.39
301.688	9.74
301.901	12.02
302.115	12.68
302.328	12.19
302.541	9.45
302.754	10.72
302.967	10.55
303.18	10.5
303.393	8.66
303.607	8.89
303.82	9.57
304.033	11.11
304.246	9.69
304.459	9.94
304.672	9.37
304.885	9.63
305.098	7.35
305.311	8.26
305.524	7.02
305.737	8.66
305.95	9.34
306.163	10.06
306.376	9.93
306.589	10.55
306.802	10.63
307.015	12.41
307.228	13.55
307.44	14.96
307.653	16.01
307.866	17.9
308.079	17.4
308.292	17.99
308.505	16.8
308.718	14.87
308.93	14.45
309.143	14.92
309.356	14.71
309.569	14.67
309.781	14.54
309.994	13.79
310.207	12.75
310.42	12.92
310.632	13.04
310.845	14.39
311.058	15.03
311.27	16.24
311.483	16.22
311.696	16.02
311.908	16.84
312.121	17.72
312.333	17.87
312.546	18.42
312.759	20.37
312.971	20.4
313.184	19.69
313.396	20.13
313.609	18.63
313.821	17.85
314.034	17.82
314.246	16.47
314.459	16.19
314.671	16.88
314.884	17.36
315.096	17.95
315.309	17.04
315.521	16.09
315.733	16.01
315.946	15.31
316.158	15
316.371	14.76
316.583	15.49
316.795	15.76
317.008	16.18
317.22	16.05
317.432	13.09
317.644	13.48
317.857	14.83
318.069	15.08
318.281	15.48
318.494	16.22
318.706	16.66
318.918	16.5
319.13	15.03
319.342	15.36
319.555	15.69
319.767	16.82
319.979	17.68
320.191	18.03
320.403	18.5
320.615	19.46
320.827	18.71
321.039	18.93
321.252	17.66
321.464	18.82
321.676	16.65
321.888	16.38
322.1	14.89
322.312	14.26
322.524	14.64
322.736	14.34
322.948	12.39
323.16	11.72
323.372	11.36
323.584	13.08
323.796	11.99
324.007	14.2
324.219	13.03
324.431	13.28
324.643	13.81
324.855	13.6
325.067	13.77
325.279	15.28
325.491	16.5
325.702	15.75
325.914	15.46
326.126	15.25
326.338	13.7
326.55	14.7
326.761	16.04
326.973	16.51
327.185	15.81
327.396	16.76
327.608	16.4
327.82	17.02
328.032	17.11
328.243	18.82
328.455	19.82
328.666	20.78
328.878	22.65
329.09	22.25
329.301	23.14
329.513	24.49
329.725	24.2
329.936	24.76
330.148	24.64
330.359	26.63
330.571	26.17
330.782	27.02
330.994	26.45
331.205	24.58
331.417	25.76
331.628	24.76
331.84	25.37
332.051	24.92
332.262	24.59
332.474	24.71
332.685	23.78
332.897	23.57
333.108	24.75
333.319	27.25
333.531	29.52
333.742	28.62
333.953	30.16
334.165	30.06
334.376	33.45
334.587	35.59
334.799	36.24
335.01	37.55
335.221	37.7
335.432	37.26
335.644	36.04
335.855	34.89
336.066	35.8
336.277	34.12
336.488	36
336.7	34.86
336.911	34.68
337.122	34.57
337.333	33.7
337.544	33.19
337.755	33.32
337.966	34.52
338.177	35.79
338.388	36.1
338.599	37.62
338.811	36.23
339.022	36.02
339.233	35.17
339.444	35.48
339.655	37.32
339.866	38.5
340.076	39.08
340.287	40.07
340.498	40
340.709	40.28
340.92	39.74
341.131	39.79
341.342	40.8
341.553	41.2
341.764	42.08
341.975	41.54
342.185	41.87
342.396	41.43
342.607	40.61
342.818	41.44
343.029	41.04
343.239	42.32
343.45	42.38
343.661	41.75
343.872	42.2
344.082	41.8
344.293	42.55
344.504	43.61
344.714	43.53
344.925	44.51
345.136	43.97
345.346	43.42
345.557	42.71
345.768	43.76
345.978	42.32
346.189	42.12
346.399	41.88
346.61	41.31
346.821	40.7
347.031	41.14
347.242	40.89
347.452	40.91
347.663	42.44
347.873	42.03
348.084	41.38
348.294	43.9
348.504	44.26
348.715	45.24
348.925	45.67
349.136	45.22
349.346	45.67
349.557	44.93
349.767	44.49
349.977	43.38
350.188	43.55
350.398	42.81
350.608	42.76
350.819	42.82
351.029	41.41
351.239	40.87
351.449	41.01
351.66	41.09
351.87	40.74
352.08	41
352.29	41.08
352.501	42.44
352.711	43.28
352.921	41.84
353.131	42
353.341	42.84
353.552	44.23
353.762	44.09
353.972	43.36
354.182	43.72
354.392	43.52
354.602	44
354.812	42.48
355.022	41.97
355.232	42.25
355.442	42.19
355.652	42.51
355.862	41.18
356.072	40.89
356.282	41.48
356.492	41.4
356.702	41.58
356.912	41.94
357.122	42.05
357.332	41.95
357.542	42.01
357.752	41.06
357.962	40.94
358.171	40.9
358.381	41.48
358.591	41.64
358.801	43.04
359.011	44.02
359.221	43.21
359.43	43.06
359.64	43.82
359.85	44.22
360.06	45.14
360.269	44.85
360.479	45.58
360.689	45.29
360.899	45.35
361.108	44.55
361.318	44.4
361.528	45.2
361.737	45.32
361.947	44.85
362.156	44.71
362.366	44.55
362.576	44.15
362.785	43.75
362.995	43.38
363.204	42.82
363.414	43.32
363.623	42.82
363.833	42
364.042	42.7
364.252	42.5
364.461	42.45
364.671	42.59
364.88	43.19
365.09	43.46
365.299	43.64
365.509	44.08
365.718	43.54
365.927	43.25
366.137	42.93
366.346	42.37
366.555	42.73
366.765	42.45
366.974	41.78
367.183	41.71
367.393	41.6
367.602	41.8
367.811	41.02
368.021	40.75
368.23	40.67
368.439	40.79
368.648	40.5
368.857	40.97
369.067	41.1
369.276	41
369.485	40.43
369.694	39.54
369.903	40.07
370.112	40.65
370.321	40.44
370.531	40.39
370.74	40.67
370.949	40.04
371.158	38.96
371.367	38.82
371.576	39.24
371.785	40
371.994	40.54
372.203	39.99
372.412	39.74
372.621	39.49
372.83	39.45
373.039	39.25
373.248	40.06
373.457	41
373.666	40.36
373.874	39.73
374.083	39.07
374.292	38.8
374.501	37.96
374.71	38.46
374.919	38.14
375.128	37.91
375.336	38.16
375.545	37.79
375.754	37.5
375.963	38.38
376.171	38.78
376.38	39.14
376.589	38.64
376.798	39.53
377.006	39.23
377.215	40.18
377.424	40.05
377.632	39.49
377.841	39.61
378.05	39.64
378.258	38.61
378.467	38.99
378.675	38.52
378.884	39.16
379.093	39.26
379.301	39.49
379.51	39.51
379.718	39.91
379.927	40.27
380.135	40.25
380.344	40.18
380.552	41.09
380.761	40.4
380.969	41.04
381.177	41.15
381.386	40.74
381.594	40.17
381.803	38.91
382.011	38.14
382.219	37.92
382.428	37.86
382.636	37.81
382.845	37.91
383.053	38.41
383.261	38.35
383.469	38.55
383.678	38.19
383.886	38.34
384.094	38.37
384.302	38.7
384.511	38.7
384.719	38.21
384.927	37.97
385.135	37.39
385.343	37.08
385.552	36.27
385.76	35.26
385.968	35.39
386.176	35.63
386.384	35.87
386.592	36.14
386.8	36.08
387.008	36.3
387.216	35.87
387.424	35.89
387.633	35.39
387.841	35.91
388.049	36.25
388.257	35.77
388.465	34.89
388.672	34.84
388.88	34.4
389.088	34.22
389.296	34.54
389.504	35
389.712	34.28
389.92	34.66
390.128	34.14
390.336	34.12
390.544	34.34
390.751	34.74
390.959	34.7
391.167	34.59
391.375	34.85
391.583	34.37
391.79	33.98
391.998	34.7
392.206	34.38
392.414	34.4
392.621	34.24
392.829	34.29
393.037	34.02
393.244	34.18
393.452	34.41
393.66	34.14
393.867	34.56
394.075	34.73
394.283	34.82
394.49	35.14
394.698	35.23
394.905	35.45
395.113	35.57
395.32	35.99
395.528	35.65
395.735	35.7
395.943	35.69
396.15	35.5
396.358	35.65
396.565	35.4
396.773	35.28
396.98	35.06
397.188	34.98
397.395	34.83
397.602	34.93
397.81	35.21
398.017	35.28
398.225	35.16
398.432	35.21
398.639	35.12
398.847	35.08
399.054	34.43
399.261	34.5
399.468	34.47
399.676	34.26
399.883	33.68
400.09	33.64
400.297	33.46
400.505	33.67
400.712	33.9
400.919	33.88
401.126	33.69
401.333	34.46
401.54	34.58
401.748	34.33
401.955	34.45
402.162	34.76
402.369	34.9
402.576	34.78
402.783	34.49
402.99	34.43
403.197	34.31
403.404	34.43
403.611	34
403.818	34.24
404.025	34.4
404.232	34.64
404.439	34.75
404.646	34.47
404.853	34.46
405.06	34.64
405.267	34.32
405.474	34.35
405.681	34.62
405.887	34.53
406.094	34.28
406.301	34.27
406.508	34.45
406.715	34.33
406.922	34.43
407.128	34.43
407.335	34.6
407.542	34.58
407.749	34.66
407.955	34.2
408.162	34.63
408.369	34.66
408.575	34.57
408.782	34.06
408.989	33.79
409.195	33.42
409.402	33.53
409.609	33.12
409.815	33.21
410.022	33.11
410.228	33.18
410.435	33.05
410.642	32.87
410.848	32.97
411.055	33.23
411.261	33.34
411.468	33.63
411.674	33.51
411.881	33.67
412.087	33.75
412.294	33.83
412.5	33.98
412.706	34.13
412.913	34.18
413.119	33.98
413.326	33.36
413.532	33.56
413.738	33.35
413.945	33.29
414.151	33.32
414.357	33.11
414.564	33.22
414.77	33.46
414.976	33.27
415.182	33.56
415.389	33.62
415.595	33.93
415.801	33.65
416.007	33.76
416.214	33.87
416.42	33.62
416.626	33.77
416.832	33.62
417.038	33.21
417.244	33.4
417.45	33.18
417.657	33.27
417.863	33.11
418.069	33.23
418.275	33.14
418.481	33.17
418.687	33.27
418.893	33.19
419.099	33.3
419.305	33.53
419.511	33.32
419.717	33.33
419.923	33.31
420.129	33.43
420.335	33.39
420.541	33.51
420.746	33.19
420.952	33.22
421.158	33.23
421.364	33.02
421.57	32.91
421.776	33.07
421.982	33.11
422.187	33.06
422.393	33
422.599	32.96
422.805	32.91
423.01	33.13
423.216	33.09
423.422	32.95
423.628	33.14
423.833	33.23
424.039	33.2
424.245	33.25
424.45	33.28
424.656	33.29
424.862	33.31
425.067	33.34
425.273	33.4
425.478	33.35
425.684	33.48
425.889	33.35
426.095	33.14
426.301	33.02
426.506	32.94
426.712	32.79
426.917	32.72
427.123	32.53
427.328	32.59
427.533	32.5
427.739	32.57
427.944	32.4
428.15	32.27
428.355	32.5
428.561	32.5
428.766	32.14
428.971	32.54
429.177	32.49
429.382	32.88
429.587	32.71
429.793	32.58
429.998	32.77
430.203	32.85
430.408	32.81
430.614	32.56
430.819	32.54
431.024	33.06
431.229	32.59
431.434	32.68
431.64	32.62
431.845	32.64
432.05	32.58
432.255	32.54
432.46	32.63
432.665	32.68
432.87	32.91
433.076	32.93
433.281	32.72
433.486	32.91
433.691	32.89
433.896	32.65
434.101	32.6
434.306	32.64
434.511	32.47
434.716	32.47
434.921	32.45
435.126	32.37
435.331	32.34
435.535	32.32
435.74	32.28
435.945	32.26
436.15	32.6
436.355	32.65
436.56	32.84
436.765	32.82
436.97	32.78
437.174	33.04
437.379	33.11
437.584	33.05
437.789	33.1
437.993	33.11
438.198	33.11
438.403	32.96
438.608	33.06
438.812	32.8
439.017	33.04
439.222	33.06
439.426	32.9
439.631	32.85
439.836	33
440.04	32.96
440.245	32.83
440.45	32.82
440.654	32.74
440.859	32.77
441.063	33.09
441.268	32.84
441.472	32.85
441.677	32.83
441.881	32.88
442.086	32.91
442.29	32.95
442.495	33.04
442.699	32.98
442.904	33
443.108	32.88
443.312	32.6
443.517	32.78
443.721	32.96
443.925	33.04
444.13	32.98
444.334	32.87
444.538	32.88
444.743	32.87
444.947	32.87
445.151	33.03
445.356	32.97
445.56	32.93
445.764	32.86
445.968	32.7
446.173	32.55
446.377	32.63
446.581	32.58
446.785	32.67
446.989	32.66
447.193	32.85
447.398	32.7
447.602	32.89
447.806	32.94
448.01	32.98
448.214	32.91
448.418	33.14
448.622	32.83
448.826	32.75
449.03	32.65
449.234	32.84
449.438	32.85
449.642	32.98
449.846	32.66
450.05	32.63
450.254	32.49
450.458	32.59
450.662	32.4
450.866	32.72
451.069	32.85
451.273	32.83
451.477	32.64
451.681	32.54
451.885	32.61
452.089	32.73
452.292	32.62
452.496	32.78
452.7	32.58
452.904	32.64
453.107	32.4
453.311	32.47
453.515	32.46
453.719	32.35
453.922	32.17
454.126	31.97
454.33	31.93
454.533	31.99
454.737	31.87
454.94	31.81
455.144	31.56
455.348	31.87
455.551	31.87
455.755	31.8
455.958	31.92
456.162	32.02
456.365	31.85
456.569	31.95
456.772	32.04
