Data from 2937869_Reflection_3.txt Node
Date: Wed Jul 15 15:03:12 EDT 2015
User: robert
Spectrometer: USB4E03001
Autoset integration time: false
Trigger mode: 4
Integration Time (sec): 1.000000E-1
Scans to average: 10
Electric dark correction enabled: true
Nonlinearity correction enabled: false
Boxcar width: 5
Stray light correction enabled: false
XAxis mode: Wavelengths
Stop averaging: false
Number of Pixels in Spectrum: 3648
>>>>>Begin Spectral Data<<<<<
177.566	-1064.53
177.785	-110.5
178.005	710.29
178.225	272.68
178.445	78.03
178.665	105.24
178.885	-30.85
179.105	1197.27
179.324	-171.12
179.544	-29.77
179.764	-86.96
179.984	-27.54
180.204	-9.79
180.423	-37.43
180.643	-31.75
180.863	-68.98
181.083	-78.47
181.302	-142.31
181.522	-18.51
181.742	-1.42
181.961	-443.64
182.181	-33.16
182.401	34.99
182.621	-0.12
182.84	-42.04
183.06	-30.4
183.279	-55.65
183.499	-39.02
183.719	-33.88
183.938	-7.88
184.158	-0.64
184.377	3.76
184.597	0.14
184.816	13.05
185.036	5.64
185.256	24.6
185.475	71.47
185.695	-590.54
185.914	-86.4
186.134	-21.91
186.353	-73.46
186.572	-122.31
186.792	-151.27
187.011	-98.04
187.231	-87.75
187.45	-158.78
187.67	-216.43
187.889	-175.32
188.108	-810.44
188.328	401.21
188.547	275.63
188.766	656.56
188.986	328.58
189.205	240
189.424	173.69
189.644	241.6
189.863	328.15
190.082	317.69
190.302	1800
190.521	407.4
190.74	80.7
190.959	57.91
191.178	39.4
191.398	-3.37
191.617	34.41
191.836	49.48
192.055	16.93
192.274	31.41
192.494	58.26
192.713	-20.19
192.932	-49.87
193.151	-62.48
193.37	-50.19
193.589	-362.43
193.808	-940.42
194.027	181.79
194.246	111.42
194.465	98.94
194.685	157.25
194.904	139.37
195.123	154.98
195.342	143.63
195.561	181.94
195.78	115.41
195.999	124.99
196.218	120.95
196.436	88.45
196.655	123.47
196.874	88.62
197.093	90.08
197.312	105.19
197.531	79.65
197.75	66.54
197.969	96.73
198.188	142.7
198.407	118.08
198.625	80.19
198.844	55.86
199.063	65.07
199.282	219.14
199.501	66.99
199.719	61.65
199.938	22.68
200.157	-28.81
200.376	-103.63
200.594	10.43
200.813	-65.85
201.032	391.99
201.251	911.58
201.469	10.85
201.688	-4.79
201.907	-12.91
202.125	-16.62
202.344	65.85
202.563	46.81
202.781	43.79
203	-14.05
203.218	-1.6
203.437	13.19
203.656	153.77
203.874	-159.81
204.093	-78.91
204.311	-36.72
204.53	-34
204.748	-42.74
204.967	-60.08
205.185	-54.35
205.404	-84
205.622	-126.09
205.841	-218.42
206.059	-700.1
206.278	11184.38
206.496	1835.81
206.715	1436.92
206.933	6911.65
207.151	2249.33
207.37	708.49
207.588	517.33
207.806	238.41
208.025	96.01
208.243	431.58
208.461	14.58
208.68	-39.86
208.898	-239.66
209.116	39.71
209.335	131.05
209.553	17.22
209.771	-108.15
209.989	167.29
210.208	60.88
210.426	1150
210.644	-165.6
210.862	254.52
211.081	-35.57
211.299	2090.59
211.517	425.6
211.735	161.97
211.953	136.11
212.171	114.75
212.39	108.4
212.608	212.3
212.826	308.39
213.044	2197.22
213.262	-419.47
213.48	2135.89
213.698	-285.52
213.916	-111.33
214.134	-109.99
214.352	-144.41
214.57	2.32
214.788	33.07
215.006	86.19
215.224	54.05
215.442	32.74
215.66	134.2
215.878	143.28
216.096	219.51
216.314	233.49
216.532	252.32
216.75	137.15
216.968	167.89
217.185	126.21
217.403	117.16
217.621	331.74
217.839	328.58
218.057	42.3
218.275	126.39
218.492	46.56
218.71	263.12
218.928	91.65
219.146	35.51
219.363	10.35
219.581	69.97
219.799	99.37
220.017	112.19
220.234	108.44
220.452	140.47
220.67	137.92
220.887	170.3
221.105	114.53
221.323	206.82
221.54	-244.73
221.758	-44.32
221.976	25.93
222.193	55.02
222.411	45.46
222.629	32.52
222.846	82.97
223.064	89.47
223.281	99.04
223.499	96.3
223.716	105.52
223.934	115.15
224.151	201.54
224.369	137.81
224.586	202.94
224.804	289.3
225.021	998.84
225.239	304.18
225.456	58.33
225.674	20.38
225.891	-35.56
226.108	-55.93
226.326	-101.15
226.543	-520.77
226.76	-507.45
226.978	-215.53
227.195	-81.37
227.413	-65.55
227.63	-26.08
227.847	-26.38
228.064	-4.8
228.282	-6.39
228.499	-1.74
228.716	-0.42
228.934	1.63
229.151	4.08
229.368	2.38
229.585	-2.2
229.802	-3.28
230.02	-7.86
230.237	-6.4
230.454	-10.88
230.671	-8.86
230.888	-8.52
231.105	-9.26
231.323	-11.55
231.54	-18.23
231.757	-16.38
231.974	-12.84
232.191	-12.71
232.408	-4.41
232.625	-12.91
232.842	-10.51
233.059	-12.23
233.276	-17.38
233.493	-9.72
233.71	6.45
233.927	10.12
234.144	10.41
234.361	15.47
234.578	23.84
234.795	22.98
235.012	23.32
235.229	25.91
235.446	30.26
235.663	27.91
235.879	23.68
236.096	16.32
236.313	16.42
236.53	15.9
236.747	13.05
236.964	5.14
237.181	0.81
237.397	5.95
237.614	-3.98
237.831	-6.48
238.048	-12.34
238.264	-23.74
238.481	-16.55
238.698	-10.45
238.915	-16.33
239.131	-5.41
239.348	4.78
239.565	5.93
239.781	1.92
239.998	7.02
240.215	0.82
240.431	1.13
240.648	4.71
240.865	7.42
241.081	4.11
241.298	6.47
241.514	2.87
241.731	1.97
241.947	2.75
242.164	3.45
242.38	1.81
242.597	5.83
242.814	5.35
243.03	8.93
243.246	6.24
243.463	6.38
243.679	6.58
243.896	7.83
244.112	8.25
244.329	10.33
244.545	10.9
244.762	14.83
244.978	10.41
245.194	12.63
245.411	7.39
245.627	9.16
245.843	9.43
246.06	7.19
246.276	5.62
246.492	3.71
246.709	2.39
246.925	2.6
247.141	1.59
247.357	2.62
247.574	2.77
247.79	3.26
248.006	2.99
248.222	1.49
248.439	1.22
248.655	0.74
248.871	0.72
249.087	1.2
249.303	0.03
249.519	-0.42
249.736	0.04
249.952	-1.53
250.168	-0.94
250.384	-3.54
250.6	-0.28
250.816	2.36
251.032	4.98
251.248	2.71
251.464	0.97
251.68	4.19
251.896	4.26
252.112	0.78
252.328	-1.24
252.544	-1.05
252.76	0.71
252.976	0.24
253.192	-1.25
253.408	0.01
253.624	5.69
253.84	5.96
254.056	3.66
254.272	2.6
254.487	4.38
254.703	9.01
254.919	8.9
255.135	10.31
255.351	12.21
255.567	11.05
255.782	6.1
255.998	2.06
256.214	0.57
256.43	-0.19
256.646	-0.57
256.861	-0.22
257.077	-3.05
257.293	-3.61
257.508	-5.53
257.724	-9.03
257.94	-6.35
258.155	-7.12
258.371	-6.51
258.587	-1.35
258.802	1.08
259.018	2.64
259.234	2.32
259.449	2.25
259.665	1.63
259.88	1.49
260.096	3.25
260.312	3.1
260.527	4.1
260.743	4.33
260.958	2.18
261.174	0.32
261.389	0.76
261.605	1.28
261.82	1.51
262.036	2.91
262.251	3.41
262.466	1.1
262.682	0.82
262.897	0.82
263.113	0.87
263.328	2.94
263.543	7.34
263.759	3.54
263.974	1.37
264.189	0.51
264.405	-2.95
264.62	-3.3
264.835	-2.11
265.051	-2.84
265.266	-4.67
265.481	-7.14
265.696	-7.23
265.912	-9.54
266.127	-5.46
266.342	-2.16
266.557	-2.64
266.773	-1.64
266.988	-1.83
267.203	-1.93
267.418	-1.3
267.633	0.48
267.848	2.05
268.064	1.41
268.279	1.7
268.494	0.34
268.709	-1.24
268.924	-0.62
269.139	-1.17
269.354	-1.1
269.569	-1.47
269.784	-0.35
269.999	0.9
270.214	-0.7
270.429	0.35
270.644	0.19
270.859	0.61
271.074	2.67
271.289	4.68
271.504	5.05
271.719	4.42
271.934	5.12
272.149	3.86
272.363	2.2
272.578	4.81
272.793	3.65
273.008	2.75
273.223	2.15
273.438	1.36
273.653	-1.33
273.867	-0.44
274.082	-0.21
274.297	-2.11
274.512	-1.29
274.726	-2.38
274.941	-5.32
275.156	-4.28
275.371	-3.82
275.585	-4.37
275.8	-4.72
276.015	-3.27
276.229	-4.26
276.444	-3.28
276.659	-3.09
276.873	-2.86
277.088	-1.29
277.302	-0.1
277.517	-0.36
277.732	0.62
277.946	2.21
278.161	1.77
278.375	3.27
278.59	4.47
278.804	2.45
279.019	3.17
279.233	3.36
279.448	1.79
279.662	1.75
279.877	1.31
280.091	2.59
280.306	2.59
280.52	2.21
280.735	0.74
280.949	1.15
281.163	3.23
281.378	3.46
281.592	1.43
281.806	4.44
282.021	5.3
282.235	5.62
282.449	4.66
282.664	5.72
282.878	5.03
283.092	4.47
283.307	3.4
283.521	1.53
283.735	2.93
283.949	4.35
284.164	1.86
284.378	0.17
284.592	1.41
284.806	-0.28
285.02	-1.13
285.234	0.4
285.449	1.75
285.663	2.72
285.877	3.29
286.091	1.73
286.305	2.64
286.519	3.12
286.733	3.97
286.947	2.53
287.161	3.99
287.375	2.74
287.589	1.51
287.803	1.55
288.017	0.73
288.231	-0.03
288.445	1.22
288.659	1.29
288.873	1.98
289.087	3.07
289.301	5.01
289.515	5.39
289.729	6.09
289.943	6.76
290.157	5.34
290.371	6.92
290.584	7.72
290.798	6.91
291.012	5.14
291.226	5.02
291.44	3.26
291.654	2.37
291.867	2.15
292.081	3.12
292.295	2.98
292.509	2.56
292.722	0.02
292.936	-0.25
293.15	-0.02
293.364	0.47
293.577	-0.53
293.791	1.16
294.005	1.42
294.218	1.47
294.432	2.38
294.645	3.43
294.859	4.75
295.073	4.04
295.286	4.89
295.5	4.99
295.713	4.48
295.927	4.9
296.14	4.63
296.354	3.74
296.568	3.9
296.781	4.87
296.994	4.58
297.208	4.34
297.421	4.45
297.635	2.94
297.848	3.8
298.062	4.09
298.275	4.97
298.489	4.02
298.702	4.18
298.915	4.28
299.129	2.65
299.342	1.31
299.555	2
299.769	2.43
299.982	5.65
300.195	4.79
300.409	6.43
300.622	5.34
300.835	4.58
301.048	3.24
301.262	2.42
301.475	2.75
301.688	4.29
301.901	4.41
302.115	3.45
302.328	2.15
302.541	2.04
302.754	-1.54
302.967	-1.21
303.18	1.98
303.393	5.75
303.607	5.12
303.82	5.33
304.033	6.5
304.246	5.56
304.459	7.57
304.672	7.55
304.885	8.1
305.098	11.04
305.311	10.6
305.524	7.97
305.737	6.2
305.95	6.88
306.163	7.04
306.376	6.41
306.589	5.85
306.802	5.32
307.015	4.43
307.228	4.07
307.44	4.67
307.653	7.44
307.866	8.9
308.079	8.21
308.292	6.96
308.505	7.65
308.718	6.5
308.93	9.52
309.143	10.41
309.356	12.17
309.569	11.98
309.781	12.11
309.994	12.58
310.207	12.49
310.42	12.94
310.632	14.01
310.845	13.6
311.058	14.31
311.27	11.74
311.483	8.6
311.696	7.45
311.908	7.7
312.121	6.82
312.333	5.3
312.546	5.42
312.759	4.51
312.971	5.35
313.184	2.68
313.396	1.98
313.609	2.72
313.821	5.54
314.034	5.04
314.246	3.84
314.459	4.34
314.671	1.81
314.884	0.87
315.096	2.74
315.309	1.81
315.521	5.18
315.733	3.95
315.946	5.78
316.158	6.18
316.371	8.98
316.583	9.8
316.795	8.98
317.008	10.05
317.22	9.75
317.432	10.56
317.644	12.63
317.857	11.7
318.069	11.6
318.281	9.13
318.494	11.66
318.706	9.82
318.918	11.83
319.13	12.14
319.342	12.76
319.555	12.19
319.767	7.84
319.979	4.63
320.191	4.05
320.403	5.28
320.615	3.89
320.827	2.27
321.039	3.14
321.252	2.57
321.464	3.3
321.676	5.37
321.888	5.27
322.1	8.85
322.312	11.15
322.524	10.83
322.736	10.87
322.948	15.1
323.16	13.47
323.372	12.12
323.584	10
323.796	11.48
324.007	9.67
324.219	12.58
324.431	12.87
324.643	12.14
324.855	12.56
325.067	12.87
325.279	12.73
325.491	13.54
325.702	14.55
325.914	18.38
326.126	16.22
326.338	16.55
326.55	16.7
326.761	16.62
326.973	16.49
327.185	16.98
327.396	18.25
327.608	18.55
327.82	18.95
328.032	21.01
328.243	19.85
328.455	22.27
328.666	23.64
328.878	22.25
329.09	23.42
329.301	25.07
329.513	26.28
329.725	25.71
329.936	23.75
330.148	24.97
330.359	23.17
330.571	21.51
330.782	19.34
330.994	19.92
331.205	21.26
331.417	20.45
331.628	17.72
331.84	19.25
332.051	20.45
332.262	21.58
332.474	21.75
332.685	22.71
332.897	25.5
333.108	26.9
333.319	26.02
333.531	27.07
333.742	28.57
333.953	29.77
334.165	29.2
334.376	29.33
334.587	30.51
334.799	28.7
335.01	29.18
335.221	28.64
335.432	30
335.644	30.14
335.855	30.18
336.066	29.86
336.277	31.03
336.488	31.7
336.7	30.82
336.911	30.45
337.122	32.31
337.333	33
337.544	33.13
337.755	32.69
337.966	32.98
338.177	32.47
338.388	32.13
338.599	32.57
338.811	30.65
339.022	30.99
339.233	32.1
339.444	31.78
339.655	31.61
339.866	31.43
340.076	31.74
340.287	32.36
340.498	32.78
340.709	31.65
340.92	30.98
341.131	32
341.342	32.11
341.553	31.16
341.764	32.94
341.975	31.52
342.185	30.77
342.396	31.12
342.607	32.18
342.818	32.27
343.029	35.15
343.239	36.98
343.45	38.04
343.661	38.57
343.872	39.07
344.082	38.85
344.293	39.29
344.504	40.1
344.714	39.93
344.925	39.25
345.136	39.43
345.346	37.79
345.557	36.09
345.768	35.27
345.978	35.18
346.189	35.38
346.399	35.36
346.61	35.42
346.821	35.99
347.031	36.71
347.242	37.47
347.452	35.84
347.663	36.09
347.873	37.87
348.084	38.1
348.294	39.17
348.504	39.49
348.715	37.15
348.925	37.72
349.136	38.24
349.346	37.53
349.557	36.5
349.767	37.27
349.977	38.23
350.188	36.34
350.398	36.63
350.608	37.15
350.819	36.67
351.029	37.95
351.239	38.55
351.449	36.08
351.66	34.76
351.87	34.49
352.08	36.47
352.29	37.09
352.501	37.45
352.711	37.12
352.921	37.02
353.131	37.14
353.341	37.9
353.552	37.65
353.762	38.76
353.972	39.91
354.182	41.3
354.392	40.45
354.602	40.04
354.812	39.96
355.022	41.59
355.232	40.48
355.442	40.85
355.652	40.23
355.862	39.93
356.072	40.84
356.282	40.39
356.492	38.4
356.702	38.53
356.912	37.78
357.122	37.72
357.332	37.39
357.542	38.25
357.752	37.34
357.962	37.55
358.171	39.1
358.381	38.31
358.591	38.4
358.801	39.85
359.011	40.44
359.221	41.18
359.43	41.92
359.64	41.13
359.85	40.58
360.06	41.04
360.269	40.82
360.479	39.85
360.689	39.98
360.899	40.05
361.108	39.99
361.318	39.18
361.528	39.42
361.737	39.57
361.947	39.31
362.156	39.23
362.366	39.23
362.576	39.12
362.785	39.76
362.995	39.82
363.204	39.63
363.414	39.15
363.623	40.54
363.833	39.45
364.042	39.56
364.252	39.8
364.461	39.73
364.671	40.19
364.88	40.62
365.09	39.62
365.299	40.08
365.509	40.19
365.718	40.26
365.927	38.26
366.137	38.76
366.346	37.85
366.555	38.17
366.765	38.53
366.974	38.76
367.183	38.5
367.393	38.32
367.602	38.23
367.811	38.58
368.021	39.18
368.23	39.86
368.439	39.49
368.648	39.58
368.857	40.39
369.067	40.35
369.276	39.83
369.485	39.49
369.694	39.68
369.903	38.66
370.112	38
370.321	36.86
370.531	36.95
370.74	36.68
370.949	37.29
371.158	36.71
371.367	36.61
371.576	36.65
371.785	37.3
371.994	37.7
372.203	37.79
372.412	38.37
372.621	38.72
372.83	38.39
373.039	38.71
373.248	37.36
373.457	36.92
373.666	37.27
373.874	37.22
374.083	35.96
374.292	35.27
374.501	34.69
374.71	34.12
374.919	34.06
375.128	34.59
375.336	34.56
375.545	35.34
375.754	34.62
375.963	33.82
376.171	33.75
376.38	34.66
376.589	34.15
376.798	34.76
377.006	35.04
377.215	34.57
377.424	33.9
377.632	33.74
377.841	33.73
378.05	34.41
378.258	34.77
378.467	34.86
378.675	33.73
378.884	34.82
379.093	35.06
379.301	35.07
379.51	34.9
379.718	34.89
379.927	34.56
380.135	34.39
380.344	33.92
380.552	33.32
380.761	33
380.969	33.81
381.177	33.44
381.386	33.29
381.594	32.84
381.803	32.97
382.011	32.71
382.219	32.59
382.428	32.54
382.636	32.32
382.845	32.04
383.053	31.99
383.261	31.3
383.469	30.94
383.678	31.05
383.886	31.34
384.094	31.5
384.302	31.47
384.511	32.17
384.719	31.95
384.927	32.29
385.135	33.25
385.343	33.4
385.552	33.46
385.76	33.44
385.968	32.85
386.176	32.8
386.384	32.34
386.592	32.49
386.8	32.37
387.008	32.28
387.216	32.16
387.424	31.52
387.633	31.12
387.841	30.75
388.049	30.44
388.257	30.69
388.465	30.33
388.672	31.01
388.88	31.19
389.088	31.02
389.296	30.83
389.504	30.84
389.712	31.49
389.92	31.75
390.128	32.36
390.336	32.41
390.544	32.4
390.751	32.94
390.959	32.51
391.167	32.55
391.375	32.41
391.583	32.62
391.79	32.76
391.998	32.31
392.206	32.18
392.414	32.09
392.621	32.04
392.829	31.84
393.037	31.71
393.244	32.26
393.452	32.07
393.66	31.77
393.867	32.32
394.075	32.16
394.283	31.98
394.49	31.89
394.698	32.06
394.905	31.88
395.113	32.15
395.32	32.06
395.528	31.77
395.735	32.07
395.943	32.7
396.15	32.58
396.358	32.51
396.565	32.46
396.773	32.72
396.98	32.64
397.188	33.4
397.395	33.61
397.602	33.62
397.81	33.67
398.017	33.43
398.225	33.63
398.432	33.47
398.639	33.34
398.847	33.66
399.054	33.75
399.261	33.63
399.468	33.66
399.676	33.71
399.883	33.77
400.09	33.88
400.297	33.98
400.505	33.65
400.712	33.62
400.919	34.15
401.126	34.16
401.333	34.19
401.54	34.29
401.748	34
401.955	33.54
402.162	33.45
402.369	33.56
402.576	33.82
402.783	34.33
402.99	34.25
403.197	34.18
403.404	34.67
403.611	34.51
403.818	34.69
404.025	34.74
404.232	35.5
404.439	35.62
404.646	35.67
404.853	35.61
405.06	35.61
405.267	35.83
405.474	36.05
405.681	35.97
405.887	36.1
406.094	36.36
406.301	36.4
406.508	35.89
406.715	35.96
406.922	35.74
407.128	35.65
407.335	35.6
407.542	35.49
407.749	35.48
407.955	35.04
408.162	34.66
408.369	34.49
408.575	34.86
408.782	34.9
408.989	35.05
409.195	35.43
409.402	35.44
409.609	35.09
409.815	35.04
410.022	34.84
410.228	34.89
410.435	35.34
410.642	35.1
410.848	34.65
411.055	34.85
411.261	34.45
411.468	34.27
411.674	34.16
411.881	33.96
412.087	34.09
412.294	33.9
412.5	33.86
412.706	33.85
412.913	33.84
413.119	34.07
413.326	33.76
413.532	33.84
413.738	33.76
413.945	34.31
414.151	34.44
414.357	34.23
414.564	34.78
414.77	34.9
414.976	34.59
415.182	34.71
415.389	34.54
415.595	34.65
415.801	34.45
416.007	34.36
416.214	33.63
416.42	33.81
416.626	33.85
416.832	33.67
417.038	33.6
417.244	33.56
417.45	33.41
417.657	33.32
417.863	33.3
418.069	33.56
418.275	33.4
418.481	33.65
418.687	33.61
418.893	33.64
419.099	33.54
419.305	33.5
419.511	33.38
419.717	33.59
419.923	33.7
420.129	33.64
420.335	33.71
420.541	33.67
420.746	33.52
420.952	33.35
421.158	33.24
421.364	33.28
421.57	33.29
421.776	33.53
421.982	33.32
422.187	33.1
422.393	33.25
422.599	33.1
422.805	33.24
423.01	33.22
423.216	33.25
423.422	33.3
423.628	33.12
423.833	33.19
424.039	33.19
424.245	33.06
424.45	33.2
424.656	33.09
424.862	32.96
425.067	32.78
425.273	32.87
425.478	32.89
425.684	32.89
425.889	32.88
426.095	32.82
426.301	32.62
426.506	32.78
426.712	32.66
426.917	32.66
427.123	32.82
427.328	32.98
427.533	32.95
427.739	32.9
427.944	32.76
428.15	32.98
428.355	32.89
428.561	33.17
428.766	33.2
428.971	33.13
429.177	33.05
429.382	32.9
429.587	32.83
429.793	32.78
429.998	32.83
430.203	32.86
430.408	32.55
430.614	32.81
430.819	32.67
431.024	32.56
431.229	32.32
431.434	32.25
431.64	32.29
431.845	32.45
432.05	32.64
432.255	32.57
432.46	32.42
432.665	32.36
432.87	32.04
433.076	31.95
433.281	32.24
433.486	32.59
433.691	32.72
433.896	32.66
434.101	32.49
434.306	32.32
434.511	32.23
434.716	32.27
434.921	32.4
435.126	32.47
435.331	32.31
435.535	32.08
435.74	32.09
435.945	31.79
436.15	31.69
436.355	31.64
436.56	31.75
436.765	31.9
436.97	32.12
437.174	32.13
437.379	32.25
437.584	32.4
437.789	32.16
437.993	32.3
438.198	32.58
438.403	32.8
438.608	33.01
438.812	33.03
439.017	33.03
439.222	32.97
439.426	33.04
439.631	32.96
439.836	32.89
440.04	32.89
440.245	32.83
440.45	32.88
440.654	32.64
440.859	32.53
441.063	32.45
441.268	32.3
441.472	32.17
441.677	32.09
441.881	32.01
442.086	32
442.29	32.19
442.495	32.22
442.699	32.13
442.904	32.25
443.108	32.32
443.312	32.15
443.517	32.26
443.721	32.39
443.925	32.44
444.13	32.66
444.334	32.72
444.538	32.67
444.743	32.44
444.947	32.52
445.151	32.52
445.356	32.47
445.56	32.54
445.764	32.55
445.968	32.53
446.173	32.51
446.377	32.39
446.581	32.47
446.785	32.33
446.989	32.38
447.193	32.17
447.398	32.15
447.602	32.06
447.806	32.02
448.01	31.99
448.214	31.88
448.418	31.89
448.622	31.84
448.826	31.47
449.03	31.46
449.234	31.31
449.438	31.24
449.642	31.19
449.846	31.08
450.05	30.99
450.254	30.76
450.458	30.73
450.662	30.68
450.866	30.43
451.069	30.8
451.273	31.13
451.477	31.14
451.681	31.27
451.885	31.33
452.089	31.35
452.292	31.22
452.496	31.38
452.7	31.34
452.904	31.35
453.107	31.46
453.311	31.35
453.515	31.05
453.719	30.91
453.922	30.75
454.126	30.77
454.33	30.91
454.533	31.02
454.737	31.13
454.94	31.3
455.144	31.33
455.348	31.35
455.551	31.15
455.755	31.26
455.958	31.6
456.162	31.8
456.365	31.72
456.569	31.46
456.772	31.46
456.976	31.57
457.179	31.4
457.383	31.26
457.586	31.44
457.79	31.52
457.993	31.5
458.196	31.34
458.4	31.26
458.603	31.34
458.807	31.42
