Data from 2937887_Reflection_2.txt Node
Date: Wed Jul 15 14:27:40 EDT 2015
User: robert
Spectrometer: USB4E03001
Autoset integration time: false
Trigger mode: 4
Integration Time (sec): 1.000000E-1
Scans to average: 10
Electric dark correction enabled: true
Nonlinearity correction enabled: false
Boxcar width: 5
Stray light correction enabled: false
XAxis mode: Wavelengths
Stop averaging: false
Number of Pixels in Spectrum: 3648
>>>>>Begin Spectral Data<<<<<
177.566	7371.11
177.785	-503.71
178.005	-26.65
178.225	3.84
178.445	57.8
178.665	106.45
178.885	547.14
179.105	-528.17
179.324	-1.83
179.544	432.81
179.764	189.37
179.984	119.07
180.204	114.14
180.423	99.96
180.643	83.02
180.863	98.2
181.083	105.34
181.302	112.7
181.522	83.87
181.742	60.34
181.961	49.84
182.181	78.84
182.401	77.18
182.621	63.97
182.84	67.73
183.06	95.42
183.279	82.88
183.499	75.49
183.719	66.71
183.938	81.56
184.158	70.55
184.377	64.29
184.597	50.14
184.816	39.39
185.036	39.66
185.256	30.37
185.475	21.42
185.695	9.67
185.914	25.45
186.134	26.44
186.353	22.03
186.572	25.19
186.792	18.75
187.011	16.88
187.231	15.66
187.45	-14.23
187.67	14.05
187.889	61.84
188.108	102.85
188.328	68.53
188.547	55
188.766	24.05
188.986	71.07
189.205	95.12
189.424	73.81
189.644	75.34
189.863	81.23
190.082	74.53
190.302	79.92
190.521	81.23
190.74	71.21
190.959	55.9
191.178	69.01
191.398	16.69
191.617	-30.87
191.836	-96.14
192.055	-110.38
192.274	-39.01
192.494	-1.25
192.713	-35.85
192.932	-74.58
193.151	-124.72
193.37	-35.15
193.589	-20.65
193.808	55.68
194.027	84.79
194.246	64.51
194.465	72.37
194.685	116.01
194.904	143.87
195.123	63.02
195.342	17.55
195.561	45.41
195.78	51.31
195.999	49.69
196.218	45.9
196.436	39.89
196.655	52.1
196.874	32.75
197.093	16.29
197.312	20.69
197.531	55.8
197.75	61.2
197.969	65.33
198.188	59.33
198.407	73.98
198.625	71.91
198.844	93.54
199.063	67.45
199.282	64.22
199.501	86
199.719	53.11
199.938	1.74
200.157	38.45
200.376	14.46
200.594	-65.4
200.813	-53.27
201.032	-133.07
201.251	-35.61
201.469	-93.45
201.688	1084.4
201.907	-395.27
202.125	-777.62
202.344	-21.86
202.563	23.26
202.781	34.93
203	-99.46
203.218	71.84
203.437	90.41
203.656	45750
203.874	-72.08
204.093	-247.31
204.311	-142.8
204.53	-394.11
204.748	-62.9
204.967	-55.79
205.185	-69.79
205.404	-80.29
205.622	-44.73
205.841	-69.22
206.059	-25.56
206.278	-22.47
206.496	-20.05
206.715	-3.23
206.933	31.51
207.151	36.57
207.37	45.81
207.588	79.91
207.806	32.94
208.025	48.22
208.243	48.6
208.461	22.55
208.68	64.11
208.898	63.27
209.116	17.66
209.335	32.65
209.553	54.78
209.771	34.55
209.989	29.83
210.208	81.31
210.426	189.49
210.644	228.93
210.862	384.56
211.081	145.3
211.299	114.2
211.517	96.04
211.735	157.76
211.953	304.01
212.171	401.81
212.39	437.97
212.608	95.26
212.826	48.54
213.044	62
213.262	45.21
213.48	98.75
213.698	243.62
213.916	95.74
214.134	69.57
214.352	38.63
214.57	9.07
214.788	23.44
215.006	25.58
215.224	-29.24
215.442	-238.34
215.66	-63.16
215.878	-34.74
216.096	-33.54
216.314	-631.99
216.532	456.24
216.75	190.98
216.968	159.41
217.185	73.41
217.403	232.53
217.621	82.82
217.839	-26.1
218.057	-24.67
218.275	219.51
218.492	41.37
218.71	83.67
218.928	90.12
219.146	123.22
219.363	162.49
219.581	52.01
219.799	33.06
220.017	-11.18
220.234	-117.95
220.452	-135.62
220.67	64.42
220.887	-245.99
221.105	231.83
221.323	155.11
221.54	136.09
221.758	143.9
221.976	268.21
222.193	276.72
222.411	261.22
222.629	260.1
222.846	273.79
223.064	427.6
223.281	496.98
223.499	-866.59
223.716	-624.7
223.934	-220.24
224.151	-90.18
224.369	-53.66
224.586	-30.95
224.804	-1.67
225.021	20.42
225.239	19.21
225.456	17.5
225.674	13.77
225.891	13.94
226.108	20.41
226.326	-0.06
226.543	-2.92
226.76	-2.75
226.978	0.98
227.195	-12.62
227.413	-14.69
227.63	-18.19
227.847	-20.22
228.064	-8.68
228.282	-2.5
228.499	2.4
228.716	8.15
228.934	10.42
229.151	12.13
229.368	11.43
229.585	13.73
229.802	11.88
230.02	11.48
230.237	14.64
230.454	12.65
230.671	14.1
230.888	12.95
231.105	13.82
231.323	11.11
231.54	7.92
231.757	5.86
231.974	4.78
232.191	0.54
232.408	2.32
232.625	0.34
232.842	2.29
233.059	-7.13
233.276	-6.99
233.493	-19.22
233.71	-22.06
233.927	-23.5
234.144	-26.13
234.361	-16.62
234.578	-7.95
234.795	-5.64
235.012	-10.92
235.229	-13.42
235.446	-7.29
235.663	-8.31
235.879	-5.09
236.096	-5.98
236.313	1.49
236.53	3.68
236.747	7.58
236.964	8.74
237.181	11.88
237.397	6.89
237.614	11.5
237.831	6.34
238.048	4.51
238.264	12.66
238.481	17.46
238.698	17.96
238.915	26.56
239.131	23.71
239.348	23.97
239.565	26.69
239.781	30.85
239.998	24.91
240.215	24.83
240.431	26.94
240.648	20.79
240.865	20.27
241.081	17.42
241.298	14.01
241.514	11.26
241.731	13.16
241.947	12.73
242.164	12.61
242.38	13.37
242.597	15.48
242.814	15.62
243.03	15.31
243.246	14.52
243.463	13.12
243.679	14.02
243.896	13.9
244.112	12.2
244.329	10.95
244.545	10.31
244.762	11.04
244.978	7.68
245.194	8.18
245.411	9.72
245.627	8.11
245.843	12.27
246.06	12.24
246.276	12.01
246.492	11.89
246.709	13.42
246.925	13.41
247.141	12.79
247.357	12.96
247.574	12.95
247.79	12.44
248.006	14.27
248.222	12.76
248.439	11.51
248.655	12.51
248.871	12.58
249.087	11.41
249.303	11.58
249.519	10.93
249.736	10.84
249.952	9.62
250.168	8.51
250.384	5.03
250.6	5.45
250.816	5.77
251.032	2.09
251.248	2.48
251.464	1.5
251.68	2.81
251.896	3.52
252.112	2.74
252.328	3.83
252.544	5.4
252.76	4.84
252.976	4.93
253.192	4.42
253.408	7.37
253.624	7.32
253.84	8.41
254.056	7.34
254.272	7.08
254.487	6.09
254.703	5.78
254.919	4.81
255.135	6.98
255.351	6.1
255.567	9.18
255.782	3.13
255.998	3.17
256.214	0.05
256.43	-2.46
256.646	-0.98
256.861	0.05
257.077	-0.99
257.293	0.97
257.508	1.36
257.724	3.2
257.94	4.76
258.155	6.4
258.371	6.82
258.587	8
258.802	9.5
259.018	10.92
259.234	12.33
259.449	12.36
259.665	11.76
259.88	11.91
260.096	11.71
260.312	11.16
260.527	11.9
260.743	12.4
260.958	12.36
261.174	12.6
261.389	11.91
261.605	10.64
261.82	9.69
262.036	10.22
262.251	8.95
262.466	9.02
262.682	8.77
262.897	9.14
263.113	7.58
263.328	7.01
263.543	5.4
263.759	4.78
263.974	5.09
264.189	5.33
264.405	2.94
264.62	4.99
264.835	3.39
265.051	1.4
265.266	2.09
265.481	1.06
265.696	2.43
265.912	3.62
266.127	2.14
266.342	2.62
266.557	2.92
266.773	3.53
266.988	2.19
267.203	2.28
267.418	4.33
267.633	2.94
267.848	3.5
268.064	2.15
268.279	3.45
268.494	5.19
268.709	5.59
268.924	6.28
269.139	7.81
269.354	9.88
269.569	8.71
269.784	7.89
269.999	8.08
270.214	9.07
270.429	10.04
270.644	8.24
270.859	8.07
271.074	7.67
271.289	8.61
271.504	9.4
271.719	7.93
271.934	9.85
272.149	8.7
272.363	7.47
272.578	6.92
272.793	7.35
273.008	8.3
273.223	8.43
273.438	9.38
273.653	8.74
273.867	7.24
274.082	7.59
274.297	7.47
274.512	9.8
274.726	9.67
274.941	10.56
275.156	10.4
275.371	9.83
275.585	10.3
275.8	9.71
276.015	9.34
276.229	10.29
276.444	7.93
276.659	8.11
276.873	6.18
277.088	8.07
277.302	8.57
277.517	8.74
277.732	8.51
277.946	6.73
278.161	7.69
278.375	8.09
278.59	8.08
278.804	9.07
279.019	8.53
279.233	9.78
279.448	8
279.662	7.35
279.877	7.27
280.091	6.47
280.306	5.07
280.52	4.28
280.735	5.79
280.949	5.18
281.163	6.1
281.378	6.27
281.592	6.38
281.806	6.91
282.021	4.88
282.235	4.04
282.449	5.52
282.664	7.63
282.878	7.27
283.092	5.93
283.307	6.34
283.521	6.63
283.735	7.16
283.949	7.1
284.164	7.98
284.378	8.13
284.592	7.86
284.806	6.28
285.02	5.31
285.234	6.86
285.449	6.54
285.663	6.04
285.877	5.32
286.091	5.33
286.305	5.36
286.519	5.35
286.733	6.32
286.947	6.72
287.161	7.79
287.375	8.71
287.589	7.77
287.803	7.39
288.017	7.85
288.231	7.64
288.445	7.71
288.659	8.81
288.873	9.09
289.087	8.36
289.301	9.37
289.515	9.2
289.729	9.51
289.943	10.04
290.157	12.03
290.371	11.03
290.584	13.77
290.798	14.22
291.012	13.68
291.226	12.95
291.44	13.72
291.654	13.36
291.867	12.99
292.081	12.55
292.295	11.77
292.509	9.71
292.722	11.11
292.936	9.1
293.15	8.31
293.364	7.84
293.577	7.8
293.791	8.85
294.005	8.27
294.218	8.72
294.432	8.47
294.645	8.66
294.859	9.36
295.073	9.2
295.286	9.69
295.5	9.3
295.713	8.5
295.927	9.5
296.14	7.97
296.354	8.7
296.568	9.48
296.781	10.2
296.994	10.21
297.208	11
297.421	11.86
297.635	12.07
297.848	11.78
298.062	13.14
298.275	12.87
298.489	13.31
298.702	13.53
298.915	13.12
299.129	12.31
299.342	11.7
299.555	10.7
299.769	9.44
299.982	9.67
300.195	10.79
300.409	9.47
300.622	8.56
300.835	9.91
301.048	9.33
301.262	10.29
301.475	11.98
301.688	13.02
301.901	13.65
302.115	13.68
302.328	12.87
302.541	11.14
302.754	12.03
302.967	13.41
303.18	12.93
303.393	13.68
303.607	13.18
303.82	12.39
304.033	12.93
304.246	13.43
304.459	14.53
304.672	14.61
304.885	17.11
305.098	17.29
305.311	17.35
305.524	15.72
305.737	15.47
305.95	15.52
306.163	14.93
306.376	16.35
306.589	15.44
306.802	15.02
307.015	14.42
307.228	12.77
307.44	12.67
307.653	12.6
307.866	13.07
308.079	13.89
308.292	14.2
308.505	15.56
308.718	13.34
308.93	13.78
309.143	13.26
309.356	14.96
309.569	16.18
309.781	15.94
309.994	16.23
310.207	17.51
310.42	16.87
310.632	17.26
310.845	17.04
311.058	17.28
311.27	18.1
311.483	18.62
311.696	18.2
311.908	17.81
312.121	17.18
312.333	17.12
312.546	17.74
312.759	18.46
312.971	18.94
313.184	19.33
313.396	19.28
313.609	18.35
313.821	18.88
314.034	17.92
314.246	16.67
314.459	17.3
314.671	16.16
314.884	14.44
315.096	13.76
315.309	12.47
315.521	11.45
315.733	11.88
315.946	10.92
316.158	10.74
316.371	11.19
316.583	11.3
316.795	12.76
317.008	14.06
317.22	14.97
317.432	15.75
317.644	16.55
317.857	17.09
318.069	17.06
318.281	17.31
318.494	17.65
318.706	18.05
318.918	20.24
319.13	19.5
319.342	17.83
319.555	18.05
319.767	17.17
319.979	16.07
320.191	15.81
320.403	15.96
320.615	17.35
320.827	16.04
321.039	17.12
321.252	15.67
321.464	16.28
321.676	18.25
321.888	17.88
322.1	18.79
322.312	19.08
322.524	20.5
322.736	21.56
322.948	21.88
323.16	22.84
323.372	21.38
323.584	20.79
323.796	21.92
324.007	21.01
324.219	20.07
324.431	19.36
324.643	20.12
324.855	19.4
325.067	18.14
325.279	15.87
325.491	15.31
325.702	14.97
325.914	16.13
326.126	13.54
326.338	14.48
326.55	15.22
326.761	16.47
326.973	15.08
327.185	14.93
327.396	15.97
327.608	17.98
327.82	18.56
328.032	19.42
328.243	18.03
328.455	19.22
328.666	18.21
328.878	18.41
329.09	17.68
329.301	17.76
329.513	19.13
329.725	18.8
329.936	18.63
330.148	18.62
330.359	20.44
330.571	22.45
330.782	23
330.994	23.94
331.205	23.31
331.417	23.07
331.628	22.99
331.84	21.35
332.051	21.78
332.262	22.97
332.474	23.04
332.685	20.53
332.897	20.44
333.108	20.51
333.319	20.46
333.531	21.33
333.742	21.62
333.953	22.13
334.165	21.69
334.376	20.83
334.587	19.56
334.799	19.94
335.01	21.11
335.221	19.17
335.432	17.93
335.644	18.01
335.855	17
336.066	15.57
336.277	16.33
336.488	17.25
336.7	17.33
336.911	16.62
337.122	14.89
337.333	14.25
337.544	15.33
337.755	16.81
337.966	16.24
338.177	17.32
338.388	18.83
338.599	18.33
338.811	17.47
339.022	17.8
339.233	19
339.444	19.99
339.655	19.23
339.866	19.64
340.076	19.05
340.287	19.18
340.498	18.67
340.709	16.8
340.92	15.77
341.131	16.98
341.342	17
341.553	17.45
341.764	17.66
341.975	19.02
342.185	18.92
342.396	19.05
342.607	19.39
342.818	19.58
343.029	20.89
343.239	22.2
343.45	22.58
343.661	23.19
343.872	22.08
344.082	22.03
344.293	22.06
344.504	22.56
344.714	22.24
344.925	22.14
345.136	22.84
345.346	23.52
345.557	23.4
345.768	23.04
345.978	22.19
346.189	22.24
346.399	22.35
346.61	21.4
346.821	20.69
347.031	21.67
347.242	21.45
347.452	20.33
347.663	19.37
347.873	18.68
348.084	17.59
348.294	18.24
348.504	18.25
348.715	18.08
348.925	18.75
349.136	17.96
349.346	16.68
349.557	16.43
349.767	15.81
349.977	15.03
350.188	15.59
350.398	16.45
350.608	15.6
350.819	16.58
351.029	16.29
351.239	16.23
351.449	17.4
351.66	17.26
351.87	17.23
352.08	17.62
352.29	17.71
352.501	16.37
352.711	16.26
352.921	16.62
353.131	15.23
353.341	15.76
353.552	15.53
353.762	15.02
353.972	15.21
354.182	16.6
354.392	16.99
354.602	17.89
354.812	18.54
355.022	18.84
355.232	18.13
355.442	18.56
355.652	17.97
355.862	18.37
356.072	18.11
356.282	17.55
356.492	17
356.702	16.24
356.912	17
357.122	17.87
357.332	17.73
357.542	17.94
357.752	18.75
357.962	18.64
358.171	18.01
358.381	18.34
358.591	19.51
358.801	19.07
359.011	19.6
359.221	18.62
359.43	18.02
359.64	17.75
359.85	17.9
360.06	16.96
360.269	16.6
360.479	16.65
360.689	16.36
360.899	16.27
361.108	16.9
361.318	17.04
361.528	17.11
361.737	17.41
361.947	16.93
362.156	16.7
362.366	16.12
362.576	15.95
362.785	16.46
362.995	17.06
363.204	16.42
363.414	16.17
363.623	16.7
363.833	16.55
364.042	15.91
364.252	15.98
364.461	15.88
364.671	16.25
364.88	16.13
365.09	15.28
365.299	14.29
365.509	14.71
365.718	14.19
365.927	13.55
366.137	13.62
366.346	13.38
366.555	13.67
366.765	14.05
366.974	14.38
367.183	14.54
367.393	14.61
367.602	14.51
367.811	14.14
368.021	14.25
368.23	14.58
368.439	14.08
368.648	14.56
368.857	14.1
369.067	14.33
369.276	14.8
369.485	15.46
369.694	15.89
369.903	15.8
370.112	15.76
370.321	15.39
370.531	14.82
370.74	14.61
370.949	14.92
371.158	15.17
371.367	14.87
371.576	13.56
371.785	13.82
371.994	13.21
372.203	14.08
372.412	14.04
372.621	14.22
372.83	14.37
373.039	14.82
373.248	14.74
373.457	14.38
373.666	14.18
373.874	14.81
374.083	14.23
374.292	14.96
374.501	14.6
374.71	14.59
374.919	15.27
375.128	14.99
375.336	15.11
375.545	15
375.754	15.06
375.963	15.17
376.171	15.74
376.38	15.7
376.589	15.76
376.798	15.85
377.006	15.54
377.215	15.58
377.424	16.02
377.632	16.18
377.841	16.04
378.05	16.9
378.258	17.02
378.467	16.69
378.675	16.68
378.884	15.74
379.093	15.12
379.301	14.96
379.51	14.46
379.718	13.63
379.927	13.1
380.135	12.94
380.344	12.31
380.552	11.89
380.761	11.38
380.969	11.42
381.177	11.3
381.386	11.35
381.594	11.94
381.803	11.27
382.011	11.75
382.219	11.56
382.428	11.45
382.636	11.23
382.845	10.98
383.053	11.75
383.261	11.98
383.469	12.34
383.678	12.55
383.886	12.14
384.094	12.5
384.302	12.22
384.511	11.88
384.719	11.53
384.927	11.63
385.135	12.01
385.343	11.47
385.552	11.26
385.76	11.45
385.968	11.1
386.176	11.13
386.384	10.65
386.592	10.51
386.8	10.93
387.008	11.16
387.216	10.78
387.424	10.39
387.633	9.82
387.841	9.46
388.049	9.52
388.257	9.26
388.465	9.68
388.672	9.97
388.88	10.06
389.088	9.77
389.296	9.9
389.504	9.97
389.712	10.52
389.92	10.81
390.128	10.93
390.336	10.29
390.544	11.1
390.751	10.67
390.959	10.93
391.167	10.85
391.375	11.19
391.583	10.98
391.79	11.24
391.998	10.93
392.206	10.96
392.414	11.02
392.621	11.38
392.829	10.98
393.037	10.92
393.244	11.15
393.452	11.13
393.66	10.73
393.867	11.04
394.075	10.92
394.283	10.68
394.49	10.57
394.698	10.55
394.905	10.52
395.113	10.66
395.32	10.78
395.528	10.03
395.735	10.01
395.943	10.03
396.15	9.82
396.358	9.79
396.565	9.96
396.773	10.41
396.98	10.58
397.188	10.35
397.395	10.29
397.602	10.3
397.81	10.14
398.017	10.17
398.225	10.31
398.432	10.07
398.639	10.09
398.847	10.06
399.054	9.59
399.261	9.06
399.468	8.95
399.676	8.89
399.883	8.93
400.09	9.43
400.297	9.7
400.505	10.16
400.712	10.24
400.919	10.1
401.126	9.8
401.333	10.09
401.54	10.64
401.748	10.87
401.955	10.86
402.162	10.49
402.369	10.19
402.576	10.23
402.783	9.88
402.99	9.76
403.197	9.79
403.404	10.11
403.611	10.22
403.818	9.82
404.025	9.76
404.232	9.73
404.439	9.92
404.646	9.92
404.853	9.77
405.06	9.99
405.267	10.32
405.474	10.37
405.681	10.21
405.887	10.2
406.094	10.31
406.301	10.43
406.508	10.04
406.715	9.9
406.922	10.04
407.128	9.72
407.335	9.25
407.542	8.66
407.749	8.56
407.955	8.7
408.162	8.56
408.369	8.32
408.575	8.15
408.782	8.23
408.989	8.23
409.195	7.84
409.402	8.05
409.609	7.96
409.815	8.32
410.022	8.34
410.228	8.31
410.435	8.21
410.642	8.37
410.848	8.42
411.055	8.94
411.261	9.06
411.468	9.16
411.674	9.35
411.881	9.46
412.087	9.36
412.294	9.08
412.5	9.06
412.706	9.05
412.913	9.23
413.119	9.1
413.326	8.7
413.532	8.54
413.738	8.82
413.945	8.47
414.151	8.53
414.357	8.72
414.564	8.94
414.77	8.85
414.976	8.84
415.182	8.65
415.389	8.95
415.595	9.14
415.801	9.31
416.007	9.34
416.214	9.44
416.42	9.4
416.626	9.24
416.832	9.15
417.038	9.48
417.244	9.61
417.45	9.7
417.657	9.41
417.863	9.4
418.069	9.39
418.275	9.22
418.481	9.48
418.687	9.4
418.893	9.45
419.099	9.56
419.305	9.43
419.511	9.32
419.717	9.28
419.923	9.46
420.129	9.49
420.335	9.46
420.541	9.4
420.746	9.14
420.952	9.24
421.158	9.09
421.364	8.99
421.57	9.1
421.776	9.29
421.982	9.22
422.187	9.09
422.393	8.96
422.599	8.91
422.805	9.08
423.01	9.15
423.216	9.2
423.422	9.35
423.628	9.49
423.833	9.37
424.039	9.17
424.245	9.27
424.45	9.37
424.656	9.52
424.862	9.52
425.067	9.4
425.273	9.36
425.478	9.33
425.684	9.23
425.889	9.07
426.095	9.18
426.301	9.16
426.506	9.09
426.712	9.04
426.917	8.94
427.123	8.88
427.328	9.02
427.533	8.94
427.739	8.93
427.944	8.88
428.15	9.02
428.355	8.87
428.561	8.74
428.766	8.72
428.971	8.81
429.177	8.84
429.382	9.02
429.587	8.97
429.793	9.03
429.998	9.08
430.203	9.21
430.408	9.04
430.614	9.12
430.819	9.34
431.024	9.37
431.229	9.21
431.434	9.09
431.64	9.05
431.845	9.09
432.05	9
432.255	8.95
432.46	8.99
432.665	9.01
432.87	8.81
433.076	8.83
433.281	8.95
433.486	9.11
433.691	9.08
433.896	8.95
434.101	8.78
434.306	8.97
434.511	8.89
434.716	8.97
434.921	9.18
435.126	9.15
435.331	9.09
435.535	9.01
435.74	8.97
435.945	9.13
436.15	9.35
436.355	9.67
436.56	9.45
436.765	9.52
436.97	9.27
437.174	9.03
437.379	8.96
437.584	8.94
437.789	8.9
437.993	8.8
438.198	8.66
438.403	8.5
438.608	8.13
438.812	8.3
439.017	8.34
439.222	8.43
439.426	8.51
439.631	8.71
439.836	8.76
440.04	8.74
440.245	8.64
440.45	8.69
440.654	8.73
440.859	9.02
441.063	8.98
441.268	8.98
441.472	8.92
441.677	8.97
441.881	9.01
442.086	8.95
442.29	8.96
442.495	9.05
442.699	9.08
442.904	9.12
443.108	9.11
443.312	9.29
443.517	9.27
443.721	9.33
443.925	9.22
444.13	9.3
444.334	9.38
444.538	9.44
444.743	9.46
444.947	9.42
445.151	9.28
445.356	9.21
445.56	9.16
445.764	9.03
445.968	9.08
446.173	9.24
446.377	9.04
446.581	9.04
446.785	8.99
446.989	8.97
447.193	9.08
447.398	9.2
447.602	9.17
447.806	9.12
448.01	9.27
448.214	9.23
448.418	9.14
448.622	9.16
448.826	9
449.03	8.99
449.234	9.04
449.438	8.94
449.642	8.98
449.846	9.09
450.05	8.82
450.254	8.64
450.458	8.57
450.662	8.43
450.866	8.53
451.069	8.75
451.273	8.7
451.477	8.62
451.681	8.7
451.885	8.6
452.089	8.28
452.292	8.46
452.496	8.58
452.7	8.6
452.904	8.71
453.107	8.79
453.311	8.68
453.515	8.83
453.719	8.78
453.922	8.6
454.126	8.77
454.33	9
454.533	9.1
454.737	9.06
454.94	9.3
455.144	9.39
455.348	9.29
455.551	9.14
455.755	9.11
455.958	9.1
456.162	9.01
456.365	8.84
456.569	8.75
456.772	8.61
456.976	8.77
457.179	8.53
457.383	8.45
457.586	8.57
457.79	8.6
457.993	8.6
458.196	8.6
458.4	8.66
458.603	8.73
458.807	8.7
459.01	8.63
459.213	8.65
459.417	8.75
459.62	8.83
459.823	8.81
460.026	8.85
460.23	8.81
460.433	8.7
460.636	8.69
460.839	8.79
461.042	8.89
461.246	8.97
461.449	8.89
461.652	8.83
461.855	8.62
462.058	8.37
462.261	8.39
462.464	8.52
462.668	8.71
462.871	8.72
463.074	8.73
463.277	8.71
