Data from 2937830_Reflection_3.txt Node
Date: Wed Jul 15 16:48:49 EDT 2015
User: robert
Spectrometer: USB4E03001
Autoset integration time: false
Trigger mode: 4
Integration Time (sec): 1.000000E-1
Scans to average: 10
Electric dark correction enabled: true
Nonlinearity correction enabled: false
Boxcar width: 5
Stray light correction enabled: false
XAxis mode: Wavelengths
Stop averaging: false
Number of Pixels in Spectrum: 3648
>>>>>Begin Spectral Data<<<<<
177.566	927.68
177.785	2100
178.005	68.75
178.225	64.95
178.445	229.72
178.665	185.02
178.885	39.53
179.105	87.67
179.324	116.69
179.544	102.87
179.764	10.88
179.984	-52.54
180.204	-6.98
180.423	-124.13
180.643	-70.61
180.863	-90.29
181.083	-332.26
181.302	1379.73
181.522	-1108.51
181.742	201.81
181.961	113.35
182.181	25.05
182.401	-11.43
182.621	-3.24
182.84	-26.98
183.06	9.77
183.279	-80.31
183.499	-300.99
183.719	217.46
183.938	228.69
184.158	150.71
184.377	121.22
184.597	83.13
184.816	106.94
185.036	71.13
185.256	66.15
185.475	64.69
185.695	106.04
185.914	90.65
186.134	74.58
186.353	69.43
186.572	70.14
186.792	66.65
187.011	169.95
187.231	135.34
187.45	147.3
187.67	181.78
187.889	229.26
188.108	147.49
188.328	197.46
188.547	123.29
188.766	114.16
188.986	89.85
189.205	106.06
189.424	66.5
189.644	42.08
189.863	27.41
190.082	42.99
190.302	43.02
190.521	49.01
190.74	5.3
190.959	-70.24
191.178	-132.27
191.398	0.34
191.617	20.98
191.836	24.3
192.055	38.42
192.274	3.5
192.494	23.99
192.713	55.03
192.932	61.31
193.151	145.53
193.37	157.65
193.589	128.65
193.808	132.87
194.027	129.72
194.246	105.58
194.465	119.86
194.685	142.52
194.904	139.51
195.123	103.42
195.342	88.76
195.561	83.82
195.78	112.99
195.999	131.46
196.218	111.01
196.436	90.04
196.655	76.23
196.874	73.33
197.093	82.19
197.312	64.75
197.531	52.08
197.75	34.64
197.969	17.93
198.188	-62.28
198.407	-100.64
198.625	-41.86
198.844	-142.92
199.063	38.21
199.282	102.63
199.501	111.05
199.719	127.78
199.938	194.41
200.157	923.4
200.376	362.41
200.594	270.28
200.813	331.71
201.032	433.65
201.251	271.42
201.469	255.35
201.688	178.72
201.907	113.47
202.125	114.2
202.344	94.1
202.563	76.57
202.781	66.04
203	56.55
203.218	56.21
203.437	54.77
203.656	45.26
203.874	-17.32
204.093	-63.53
204.311	-169.54
204.53	-166.58
204.748	-103.35
204.967	-137.39
205.185	-74.94
205.404	-167.86
205.622	-124.26
205.841	-191.2
206.059	-281.64
206.278	-159.29
206.496	-69.84
206.715	2.04
206.933	26.78
207.151	20.48
207.37	17.68
207.588	21.44
207.806	29.92
208.025	52.23
208.243	62.34
208.461	71.88
208.68	80.12
208.898	101
209.116	108.54
209.335	108.27
209.553	120.4
209.771	110.05
209.989	119.7
210.208	143.98
210.426	97.92
210.644	102.65
210.862	63.27
211.081	53.32
211.299	44.15
211.517	60.17
211.735	55.88
211.953	113.81
212.171	133.58
212.39	116.67
212.608	130.37
212.826	144.97
213.044	122.53
213.262	123.45
213.48	166.69
213.698	111.36
213.916	90.61
214.134	71.44
214.352	7.14
214.57	-27.02
214.788	-20.41
215.006	-52.76
215.224	-27.06
215.442	-15.18
215.66	-25.73
215.878	-16.07
216.096	-16.93
216.314	-10.79
216.532	4.8
216.75	36.02
216.968	45.9
217.185	51.86
217.403	82.13
217.621	70.16
217.839	82.97
218.057	88.24
218.275	68.33
218.492	75.35
218.71	82.57
218.928	97.77
219.146	77.68
219.363	65.57
219.581	61.17
219.799	56.26
220.017	62.41
220.234	41.16
220.452	30.83
220.67	32.98
220.887	39.36
221.105	54.51
221.323	68.68
221.54	73.95
221.758	114.5
221.976	111.68
222.193	302.19
222.411	599.03
222.629	366.49
222.846	256.36
223.064	135.46
223.281	136.39
223.499	83.6
223.716	55.32
223.934	66.72
224.151	56.74
224.369	58.17
224.586	48.15
224.804	43.61
225.021	52.99
225.239	63.52
225.456	58.99
225.674	64.97
225.891	55.92
226.108	63.22
226.326	53.17
226.543	37.13
226.76	32.63
226.978	17.86
227.195	10.94
227.413	8.15
227.63	3.91
227.847	6.92
228.064	6.12
228.282	11.66
228.499	8.95
228.716	9.83
228.934	11.25
229.151	8.86
229.368	8.84
229.585	12.36
229.802	13.98
230.02	13.6
230.237	13.43
230.454	13.7
230.671	13.13
230.888	13.1
231.105	8.72
231.323	12.06
231.54	17.37
231.757	24.62
231.974	20.21
232.191	20.99
232.408	24.79
232.625	20.21
232.842	24.02
233.059	20.67
233.276	23.95
233.493	26.27
233.71	23.5
233.927	22.24
234.144	22.56
234.361	24.77
234.578	24.81
234.795	25.26
235.012	28.13
235.229	25.63
235.446	25.51
235.663	21.43
235.879	21.79
236.096	20.89
236.313	23.02
236.53	17.09
236.747	14.23
236.964	4.39
237.181	5.67
237.397	6.51
237.614	7.26
237.831	6.36
238.048	5.85
238.264	1.71
238.481	2.69
238.698	0.48
238.915	0.07
239.131	3.24
239.348	16.82
239.565	14.26
239.781	19
239.998	22.9
240.215	21.21
240.431	23.57
240.648	23.05
240.865	18.26
241.081	20.52
241.298	21.11
241.514	18.47
241.731	16.69
241.947	12.61
242.164	10.16
242.38	9.42
242.597	10.53
242.814	8.75
243.03	10.11
243.246	14
243.463	11.34
243.679	11.72
243.896	11.24
244.112	10.17
244.329	14.26
244.545	13.24
244.762	13.25
244.978	12.59
245.194	14.37
245.411	14.53
245.627	12.75
245.843	13.89
246.06	13.8
246.276	14.3
246.492	15.01
246.709	14.2
246.925	14.5
247.141	13.17
247.357	13.56
247.574	12.72
247.79	11.43
248.006	11.63
248.222	11.79
248.439	11.8
248.655	12
248.871	11.2
249.087	11.74
249.303	12.4
249.519	13.61
249.736	15.13
249.952	13.03
250.168	15.9
250.384	15.12
250.6	14.4
250.816	10.55
251.032	11.24
251.248	13.04
251.464	10.93
251.68	11.03
251.896	10.29
252.112	7.9
252.328	9.88
252.544	10.6
252.76	9.86
252.976	9.16
253.192	11.96
253.408	11.2
253.624	10.8
253.84	12.9
254.056	13.13
254.272	14.67
254.487	14.89
254.703	18.04
254.919	15.3
255.135	16.52
255.351	17.07
255.567	17.24
255.782	15.92
255.998	16.02
256.214	16.61
256.43	14.79
256.646	11.21
256.861	8.83
257.077	7.96
257.293	7.79
257.508	6.74
257.724	5.79
257.94	4.6
258.155	6.28
258.371	4.26
258.587	2.2
258.802	3.4
259.018	4.55
259.234	6.85
259.449	5.92
259.665	7.58
259.88	7.97
260.096	7.5
260.312	7.14
260.527	6.65
260.743	7.75
260.958	7.76
261.174	7.75
261.389	7.04
261.605	7.18
261.82	7.92
262.036	7.27
262.251	7.41
262.466	8.9
262.682	8.92
262.897	9.95
263.113	7.6
263.328	9.87
263.543	8.55
263.759	11.57
263.974	11
264.189	11.1
264.405	9.44
264.62	8.56
264.835	7.49
265.051	6.19
265.266	5.48
265.481	8.48
265.696	5.92
265.912	6.61
266.127	5.87
266.342	4.38
266.557	3.18
266.773	2.97
266.988	2.61
267.203	2.5
267.418	2.45
267.633	2.86
267.848	1.71
268.064	2.09
268.279	1.27
268.494	1.42
268.709	1.6
268.924	1.84
269.139	0.32
269.354	2.01
269.569	3.75
269.784	6.24
269.999	5.46
270.214	6.45
270.429	8.62
270.644	10.65
270.859	9.51
271.074	9.74
271.289	9.39
271.504	12.17
271.719	11.62
271.934	9.56
272.149	8.43
272.363	8.78
272.578	8.87
272.793	7.55
273.008	7.06
273.223	7.25
273.438	8.38
273.653	9.61
273.867	8.22
274.082	6.78
274.297	7.88
274.512	8.92
274.726	8.8
274.941	9.3
275.156	9.13
275.371	7.98
275.585	9.74
275.8	8.44
276.015	7.65
276.229	6.95
276.444	8.48
276.659	8.3
276.873	6.52
277.088	4.95
277.302	2.41
277.517	1.96
277.732	3.26
277.946	1.52
278.161	0.17
278.375	-0.27
278.59	2.63
278.804	2.97
279.019	2.7
279.233	6.17
279.448	7.22
279.662	8.37
279.877	9.58
280.091	8.63
280.306	9.28
280.52	9.84
280.735	11.53
280.949	9.96
281.163	11.14
281.378	10.75
281.592	8.22
281.806	10.1
282.021	11.42
282.235	11.19
282.449	12.21
282.664	10.1
282.878	10.9
283.092	11.43
283.307	13.23
283.521	10.93
283.735	12.25
283.949	13.07
284.164	11.57
284.378	8.67
284.592	8.51
284.806	7.41
285.02	9.74
285.234	8.99
285.449	7.16
285.663	6.92
285.877	6.95
286.091	6.02
286.305	7.37
286.519	7.71
286.733	9.36
286.947	8.39
287.161	7.26
287.375	6.29
287.589	5.49
287.803	5.95
288.017	6.21
288.231	7.09
288.445	9.82
288.659	7.82
288.873	7.06
289.087	5.93
289.301	6.55
289.515	8.02
289.729	8.1
289.943	8.79
290.157	8.72
290.371	7.59
290.584	6.75
290.798	4.88
291.012	6.18
291.226	6.53
291.44	8.1
291.654	9.43
291.867	8.84
292.081	7.91
292.295	8.6
292.509	10.04
292.722	9.79
292.936	11.31
293.15	10.39
293.364	8.32
293.577	9.12
293.791	7.47
294.005	6.35
294.218	8.42
294.432	9.88
294.645	9.14
294.859	8.48
295.073	8.19
295.286	7.81
295.5	8.41
295.713	10.23
295.927	9.07
296.14	9.35
296.354	10.11
296.568	8.97
296.781	8.33
296.994	9.16
297.208	9.09
297.421	10.23
297.635	10.41
297.848	10
298.062	8.7
298.275	9.35
298.489	9.87
298.702	10.14
298.915	10.48
299.129	10.89
299.342	11.5
299.555	11.82
299.769	9.77
299.982	9.93
300.195	10.26
300.409	11.85
300.622	13.3
300.835	13.62
301.048	11.39
301.262	11.3
301.475	11.26
301.688	10.63
301.901	10.63
302.115	11.66
302.328	12.88
302.541	13.23
302.754	12.32
302.967	10.56
303.18	12.07
303.393	15.19
303.607	15.12
303.82	16.76
304.033	18.11
304.246	18.37
304.459	20.35
304.672	19.16
304.885	18.8
305.098	20.78
305.311	21.98
305.524	19.64
305.737	17.43
305.95	18.37
306.163	17.25
306.376	15.24
306.589	13.8
306.802	11.82
307.015	11.51
307.228	11.98
307.44	9.52
307.653	10.32
307.866	11
308.079	12.36
308.292	9.73
308.505	9.67
308.718	11.01
308.93	11.8
309.143	12.95
309.356	13.64
309.569	13.81
309.781	16.1
309.994	15.38
310.207	15.55
310.42	14.68
310.632	16.69
310.845	16.49
311.058	15.54
311.27	15.22
311.483	14
311.696	13.65
311.908	14.1
312.121	12.34
312.333	10.94
312.546	10.86
312.759	12.17
312.971	11.67
313.184	11.37
313.396	12.56
313.609	11.3
313.821	11.49
314.034	10.73
314.246	9.25
314.459	9.94
314.671	11.32
314.884	10.39
315.096	10.97
315.309	11.73
315.521	11.41
315.733	11.53
315.946	12.72
316.158	12.52
316.371	12.14
316.583	14.09
316.795	14.49
317.008	14.36
317.22	16.45
317.432	14.62
317.644	15.77
317.857	15.46
318.069	15.8
318.281	15.84
318.494	16.14
318.706	18.65
318.918	17.85
319.13	17.42
319.342	17.99
319.555	17.41
319.767	17.62
319.979	16.65
320.191	18.38
320.403	17.72
320.615	16.12
320.827	16.79
321.039	15.63
321.252	16.19
321.464	15.86
321.676	13.3
321.888	13.56
322.1	14.65
322.312	13.81
322.524	15.68
322.736	15.78
322.948	18.08
323.16	19.08
323.372	19.21
323.584	18.68
323.796	19.54
324.007	20.83
324.219	20.34
324.431	19.44
324.643	20.56
324.855	19.4
325.067	19.53
325.279	18.25
325.491	17.97
325.702	17.25
325.914	16.95
326.126	15.94
326.338	16.09
326.55	16.74
326.761	16.71
326.973	16.16
327.185	15.47
327.396	17.45
327.608	17.48
327.82	16.33
328.032	18.67
328.243	18.47
328.455	19.64
328.666	21.36
328.878	20.21
329.09	21.28
329.301	21.85
329.513	22.01
329.725	20.54
329.936	22.62
330.148	24.6
330.359	24.61
330.571	26.12
330.782	25.56
330.994	26.49
331.205	28.57
331.417	29.23
331.628	29.34
331.84	30.69
332.051	32.82
332.262	31.57
332.474	32.37
332.685	32.69
332.897	32.79
333.108	35.04
333.319	34.85
333.531	36.07
333.742	36.01
333.953	36.55
334.165	37.35
334.376	35.31
334.587	38.28
334.799	38.74
335.01	38.96
335.221	39.04
335.432	37.72
335.644	37.83
335.855	38.02
336.066	39.5
336.277	38.76
336.488	39.28
336.7	40.72
336.911	39.24
337.122	37.5
337.333	37.4
337.544	38.54
337.755	39.2
337.966	38.45
338.177	37.11
338.388	36.19
338.599	37.29
338.811	35.12
339.022	34.1
339.233	34.12
339.444	34.4
339.655	33.94
339.866	32.46
340.076	32.22
340.287	32.92
340.498	34.12
340.709	33.58
340.92	33.87
341.131	34.51
341.342	36.56
341.553	38.35
341.764	39.46
341.975	39.72
342.185	40.71
342.396	40.07
342.607	40.28
342.818	39.34
343.029	40.29
343.239	39.1
343.45	39.68
343.661	38.38
343.872	36.25
344.082	36.59
344.293	37.01
344.504	38.25
344.714	39.26
344.925	39.31
345.136	39.89
345.346	39.49
345.557	40.08
345.768	39.06
345.978	40.3
346.189	41.54
346.399	40.78
346.61	41.16
346.821	39.87
347.031	39.28
347.242	39.59
347.452	40.21
347.663	39.71
347.873	40.63
348.084	41.17
348.294	39.48
348.504	39.9
348.715	40.26
348.925	38.36
349.136	38
349.346	38.72
349.557	39.98
349.767	39.66
349.977	41.26
350.188	41.1
350.398	41.46
350.608	41.99
350.819	41.94
351.029	41.47
351.239	43.03
351.449	43.49
351.66	42.53
351.87	40.94
352.08	40.2
352.29	39.23
352.501	40.03
352.711	40.36
352.921	40.82
353.131	41.05
353.341	41.73
353.552	41.14
353.762	41.02
353.972	41.91
354.182	42.17
354.392	42.71
354.602	42.74
354.812	41.31
355.022	41.06
355.232	40.52
355.442	40.56
355.652	40.65
355.862	41.23
356.072	41.9
356.282	42
356.492	41.75
356.702	41.42
356.912	41.19
357.122	40.58
357.332	40.28
357.542	41.34
357.752	40.89
357.962	40.81
358.171	41.04
358.381	40.32
358.591	38.96
358.801	38.96
359.011	38.19
359.221	37.87
359.43	37.94
359.64	37.9
359.85	37.1
360.06	37.2
360.269	36.81
360.479	36.51
360.689	36.49
360.899	37.8
361.108	37.66
361.318	37.76
361.528	37.81
361.737	38.65
361.947	38.65
362.156	39.31
362.366	39.26
362.576	39.93
362.785	39.86
362.995	40.09
363.204	39.52
363.414	39.28
363.623	39.68
363.833	39.34
364.042	39.93
364.252	40.35
364.461	38.95
364.671	38.2
364.88	36.97
365.09	36.73
365.299	36.26
365.509	36.49
365.718	36.34
365.927	36.99
366.137	37.86
366.346	36.98
366.555	36.92
366.765	36.74
366.974	36.93
367.183	37.02
367.393	36.42
367.602	36.16
367.811	35.81
368.021	36.39
368.23	35.99
368.439	35.42
368.648	34.27
368.857	33.48
369.067	34.62
369.276	34.11
369.485	34.72
369.694	35.48
369.903	35.4
370.112	35.15
370.321	35.56
370.531	35.86
370.74	36.23
370.949	36.84
371.158	37.52
371.367	37.53
371.576	38.1
371.785	37.89
371.994	37.31
372.203	37.3
372.412	36.96
372.621	35.91
372.83	35.53
373.039	35.1
373.248	34.78
373.457	33.83
373.666	32.72
373.874	32.95
374.083	32.56
374.292	32.76
374.501	32.82
374.71	33.31
374.919	34
375.128	33.69
375.336	33.51
375.545	34.18
375.754	35.05
375.963	35.05
376.171	34.19
376.38	34.39
376.589	34.16
376.798	34.92
377.006	34.95
377.215	34.93
377.424	34.82
377.632	35.4
377.841	34.99
378.05	34.2
378.258	33.65
378.467	33.59
378.675	33.02
378.884	32.76
379.093	32.15
379.301	32.29
379.51	32
379.718	31.16
379.927	30.65
380.135	30.5
380.344	30.9
380.552	31.6
380.761	32.36
380.969	32.5
381.177	32.45
381.386	32.66
381.594	32.27
381.803	32.35
382.011	33.27
382.219	33.13
382.428	32.61
382.636	31.71
382.845	32.03
383.053	31.5
383.261	32.13
383.469	32.09
383.678	31.65
383.886	31.27
384.094	30.85
384.302	30.41
384.511	30.25
384.719	30.46
384.927	31.01
385.135	30.48
385.343	30.24
385.552	29.29
385.76	28.79
385.968	28.75
386.176	28.97
386.384	28.55
386.592	28.84
386.8	28.75
387.008	28.69
387.216	28.77
387.424	29.03
387.633	28.88
387.841	29.23
388.049	29.58
388.257	29.55
388.465	29.28
388.672	29.39
388.88	28.95
389.088	29.15
389.296	29.11
389.504	28.97
389.712	28.48
389.92	28.75
390.128	28.44
390.336	28.64
390.544	28.64
390.751	28.71
390.959	28.87
391.167	29.32
391.375	29.32
391.583	29.65
391.79	29.72
391.998	29.92
392.206	29.87
392.414	29.89
392.621	29.61
392.829	29.56
393.037	29.92
393.244	29.94
393.452	29.9
393.66	29.83
393.867	29.84
394.075	29.67
394.283	29.52
394.49	29.43
394.698	29.68
394.905	30.1
395.113	29.95
395.32	29.72
395.528	29.76
395.735	29.99
395.943	30.09
396.15	29.97
396.358	30.24
396.565	30.34
396.773	30.54
396.98	30.44
397.188	30.17
397.395	30.74
397.602	30.85
397.81	31.03
398.017	30.92
398.225	31.2
398.432	31.12
398.639	31.21
398.847	31.68
399.054	31.46
399.261	31.48
399.468	31.79
399.676	31.31
399.883	31.38
400.09	31.8
400.297	31.57
400.505	31.27
400.712	31.45
400.919	31.4
401.126	30.83
401.333	31.13
401.54	31.45
401.748	31.58
401.955	31.86
402.162	31.93
402.369	31.46
402.576	31.43
402.783	31.06
402.99	31.08
403.197	31.34
403.404	31.64
403.611	31.34
403.818	31.11
404.025	30.82
404.232	30.75
404.439	30.66
404.646	30.51
404.853	30.69
405.06	31.21
405.267	31.35
405.474	30.86
405.681	30.56
405.887	30.63
406.094	30.66
406.301	30.91
406.508	30.94
406.715	30.92
406.922	30.85
407.128	31.03
407.335	30.85
407.542	30.45
407.749	30.77
407.955	30.99
408.162	30.96
408.369	30.91
408.575	30.45
408.782	30.45
408.989	30.22
409.195	30.37
409.402	29.83
409.609	29.97
409.815	30.3
410.022	30.32
410.228	30.51
410.435	31.09
410.642	31.39
410.848	31.68
411.055	31.59
411.261	31.91
411.468	31.73
411.674	32.04
411.881	32.24
412.087	32.15
412.294	32.05
412.5	32.2
412.706	31.73
412.913	31.51
413.119	31.45
413.326	31.45
413.532	31.35
413.738	31.74
413.945	31.51
414.151	31.2
414.357	31.28
414.564	31.42
414.77	31.02
414.976	30.98
415.182	30.66
415.389	30.4
415.595	30.45
415.801	30.53
416.007	30.48
416.214	30.5
416.42	30.4
416.626	30.13
416.832	29.93
417.038	29.89
417.244	29.9
417.45	30.11
417.657	30.31
417.863	30.26
418.069	30.29
418.275	30.07
418.481	30.07
418.687	30.1
418.893	30.09
419.099	30.06
419.305	30.29
419.511	30.28
419.717	30.45
419.923	30.46
420.129	30.55
420.335	30.44
420.541	30.51
420.746	30.56
420.952	30.52
421.158	30.59
421.364	30.51
421.57	30.34
421.776	30.29
421.982	30
422.187	29.88
422.393	29.7
422.599	29.56
422.805	29.49
423.01	29.37
423.216	29.17
423.422	29.06
423.628	29.07
423.833	29
424.039	28.95
424.245	29.04
424.45	28.97
424.656	29.01
424.862	29.17
425.067	29.11
425.273	29.12
425.478	29.22
425.684	29.11
425.889	29.09
426.095	29.11
426.301	29.05
426.506	29.12
426.712	29.14
426.917	29.08
427.123	28.85
427.328	28.98
427.533	28.97
427.739	28.99
427.944	29.34
428.15	29.38
428.355	29.4
428.561	29.69
428.766	29.46
428.971	29.48
429.177	29.71
429.382	29.49
429.587	29.35
429.793	29.39
429.998	29.51
430.203	29.44
430.408	29.55
430.614	29.55
430.819	29.37
431.024	29.4
431.229	29.54
431.434	29.39
431.64	29.69
431.845	29.79
432.05	29.78
432.255	29.71
432.46	29.62
432.665	29.32
432.87	29.07
433.076	29.01
433.281	29.07
433.486	29.03
433.691	29.02
433.896	28.91
434.101	29.02
434.306	28.96
434.511	28.95
434.716	29.11
434.921	29.25
435.126	29.28
435.331	29.43
435.535	29.35
435.74	29.22
435.945	29.02
436.15	29.17
436.355	29.05
436.56	28.87
436.765	28.73
436.97	28.3
437.174	28.35
437.379	28.56
437.584	28.45
437.789	28.4
437.993	28.47
438.198	28.47
438.403	28.47
438.608	28.36
438.812	28.49
439.017	28.59
439.222	28.78
439.426	28.78
439.631	28.65
439.836	28.69
440.04	28.79
440.245	28.69
440.45	28.95
440.654	28.92
440.859	28.81
441.063	28.81
441.268	28.71
441.472	28.73
441.677	28.65
441.881	28.76
442.086	28.72
442.29	28.61
442.495	28.54
442.699	28.4
442.904	28.36
443.108	28.59
443.312	28.58
443.517	28.76
443.721	28.83
443.925	28.83
444.13	28.78
444.334	28.67
444.538	28.87
444.743	28.97
444.947	29
445.151	29.01
445.356	28.92
445.56	28.92
445.764	28.77
445.968	28.68
446.173	28.78
446.377	28.8
446.581	28.84
446.785	28.75
446.989	28.74
447.193	28.7
447.398	28.64
447.602	28.64
447.806	28.62
448.01	28.64
448.214	28.58
448.418	28.49
448.622	28.52
448.826	28.58
449.03	28.44
449.234	28.36
449.438	28.41
449.642	28.36
449.846	28.22
450.05	27.99
450.254	27.97
450.458	27.87
450.662	27.9
450.866	27.75
451.069	27.59
451.273	27.8
451.477	28.01
451.681	27.77
451.885	27.8
452.089	27.87
452.292	28.08
452.496	28.3
452.7	28.32
452.904	28.5
453.107	28.51
453.311	28.51
453.515	28.56
453.719	28.48
453.922	28.7
454.126	28.75
454.33	28.76
454.533	28.82
454.737	28.42
454.94	28.67
455.144	28.47
455.348	28.34
455.551	28.31
455.755	28.05
455.958	27.91
456.162	27.73
456.365	27.67
456.569	27.69
456.772	27.57
456.976	27.56
457.179	27.42
457.383	27.38
457.586	27.43
457.79	27.54
457.993	27.56
458.196	27.5
458.4	27.65
458.603	27.61
458.807	27.74
