Data from 2937888_Reflection_1.txt Node
Date: Wed Jul 15 14:25:35 EDT 2015
User: robert
Spectrometer: USB4E03001
Autoset integration time: false
Trigger mode: 4
Integration Time (sec): 1.000000E-1
Scans to average: 10
Electric dark correction enabled: true
Nonlinearity correction enabled: false
Boxcar width: 5
Stray light correction enabled: false
XAxis mode: Wavelengths
Stop averaging: false
Number of Pixels in Spectrum: 3648
>>>>>Begin Spectral Data<<<<<
177.566	6948.89
177.785	-420.78
178.005	-48.81
178.225	-22.86
178.445	-129.7
178.665	-68.79
178.885	-508.57
179.105	-521.13
179.324	-208.11
179.544	-2110.94
179.764	412.63
179.984	-113.92
180.204	-51.85
180.423	5.81
180.643	-0.82
180.863	2.52
181.083	-11.35
181.302	-18.82
181.522	-11.47
181.742	-29.03
181.961	-18.66
182.181	-35.58
182.401	-46.67
182.621	-32.54
182.84	-57.52
183.06	-55.95
183.279	-62.62
183.499	-48.61
183.719	-60.74
183.938	-26.84
184.158	-16.5
184.377	-24.66
184.597	-8.53
184.816	-13.23
185.036	-23.29
185.256	-17.84
185.475	-35.9
185.695	-46.24
185.914	-47.58
186.134	-51.09
186.353	-106.51
186.572	-119.87
186.792	-137.95
187.011	-188.54
187.231	-304.52
187.45	-321.9
187.67	-365.6
187.889	-147.63
188.108	-226.36
188.328	-198.1
188.547	-161.52
188.766	-109.13
188.986	-141.79
189.205	-143.33
189.424	-66.04
189.644	-38.29
189.863	-50.11
190.082	-76.27
190.302	-82.08
190.521	-34.36
190.74	-40.32
190.959	-67.02
191.178	-105.9
191.398	-105.24
191.617	-152.08
191.836	-324.63
192.055	-319.4
192.274	-140.67
192.494	-112.89
192.713	-180.75
192.932	-261.03
193.151	-348.29
193.37	-234.45
193.589	-193.32
193.808	-140.68
194.027	-127.16
194.246	-76.42
194.465	-67.35
194.685	-158.66
194.904	-185.05
195.123	-279.08
195.342	-194.72
195.561	-97.84
195.78	-90.62
195.999	-79.45
196.218	-74.18
196.436	-34.02
196.655	-24.13
196.874	-48.25
197.093	-22.84
197.312	-15.18
197.531	9.39
197.75	16.43
197.969	21.15
198.188	36.92
198.407	45.54
198.625	31.93
198.844	5.38
199.063	-29.94
199.282	-18.09
199.501	-0.51
199.719	16.93
199.938	-52.98
200.157	-130.71
200.376	-205.13
200.594	-416.24
200.813	-234.84
201.032	-314.31
201.251	-168.55
201.469	-945.85
201.688	-3548.23
201.907	2845.09
202.125	5031.9
202.344	988.62
202.563	737.35
202.781	670.97
203	588.83
203.218	648.87
203.437	-326
203.656	419800
203.874	-397.83
204.093	-578.23
204.311	-369.77
204.53	-617.5
204.748	-132.27
204.967	-116.92
205.185	-141.7
205.404	-156.59
205.622	-145.55
205.841	-191.97
206.059	-125.1
206.278	-120.75
206.496	-146.5
206.715	-119.53
206.933	-85.52
207.151	-144.87
207.37	-191.16
207.588	-192.46
207.806	-281.61
208.025	-119.09
208.243	-141.66
208.461	-176.24
208.68	-125.01
208.898	-66.41
209.116	-151.27
209.335	-160.33
209.553	-129.87
209.771	-203.71
209.989	-128.04
210.208	-70.96
210.426	-616.89
210.644	-1049.88
210.862	-480.88
211.081	-643.12
211.299	-579.92
211.517	-85.2
211.735	-123.26
211.953	-794.36
212.171	-688.1
212.39	-1497.57
212.608	-292.27
212.826	-197.38
213.044	-121.08
213.262	-119.38
213.48	-551.21
213.698	-927.77
213.916	-848.88
214.134	-169.71
214.352	-134.57
214.57	-115.71
214.788	-113.63
215.006	-253.15
215.224	-566.97
215.442	-1043.27
215.66	-426.65
215.878	-284.12
216.096	-384.49
216.314	-2870.71
216.532	1278.2
216.75	389.46
216.968	950.87
217.185	457.14
217.403	559.98
217.621	349.14
217.839	311.87
218.057	148.11
218.275	-86.93
218.492	-174.83
218.71	-100.45
218.928	-217.65
219.146	-141.55
219.363	-768.7
219.581	-276.9
219.799	-503.02
220.017	-804.98
220.234	-1125.11
220.452	-1620.62
220.67	532.74
220.887	1847.74
221.105	-642.33
221.323	-354.31
221.54	-331.33
221.758	-142.95
221.976	-213.09
222.193	-91.3
222.411	-17.38
222.629	-3.68
222.846	-0.77
223.064	-153.41
223.281	-134.02
223.499	244.32
223.716	12.78
223.934	69.33
224.151	72.85
224.369	80.21
224.586	98.63
224.804	80.47
225.021	70.74
225.239	72.54
225.456	71.97
225.674	56.29
225.891	63
226.108	75.59
226.326	65.09
226.543	52.93
226.76	44.85
226.978	33.92
227.195	29.88
227.413	28.7
227.63	28.35
227.847	29.49
228.064	33.07
228.282	32.64
228.499	31.16
228.716	31.47
228.934	30.95
229.151	29.15
229.368	31.57
229.585	33.29
229.802	33.26
230.02	34.18
230.237	34.33
230.454	32.74
230.671	33.47
230.888	31.81
231.105	31.04
231.323	32.64
231.54	30.78
231.757	23.72
231.974	23.56
232.191	26.54
232.408	20.92
232.625	12.82
232.842	21.11
233.059	19
233.276	18.35
233.493	13.11
233.71	10.4
233.927	16.05
234.144	24.88
234.361	20.35
234.578	17.59
234.795	15.35
235.012	14.14
235.229	9.45
235.446	11.91
235.663	15.2
235.879	18.46
236.096	13.62
236.313	15.63
236.53	14.42
236.747	22.5
236.964	20.77
237.181	27.89
237.397	26.59
237.614	33.53
237.831	28.34
238.048	24.1
238.264	28.53
238.481	33.08
238.698	34.71
238.915	36.15
239.131	30.6
239.348	32.51
239.565	26.94
239.781	27.51
239.998	31.39
240.215	32.43
240.431	33.95
240.648	27.52
240.865	25.72
241.081	25.99
241.298	22.32
241.514	21.29
241.731	20.77
241.947	19.96
242.164	19.49
242.38	16.79
242.597	17.08
242.814	17.49
243.03	16.96
243.246	19.44
243.463	17.87
243.679	20.53
243.896	21.03
244.112	20.95
244.329	21.93
244.545	22.22
244.762	21.75
244.978	21.1
245.194	21.32
245.411	23.59
245.627	18.77
245.843	19.23
246.06	16.65
246.276	15.27
246.492	14.06
246.709	14.42
246.925	15.02
247.141	14.94
247.357	14.87
247.574	14.52
247.79	13.55
248.006	14.64
248.222	13.61
248.439	13.74
248.655	14.19
248.871	14.01
249.087	13.99
249.303	13.97
249.519	13.42
249.736	15.85
249.952	15.52
250.168	15.41
250.384	15.24
250.6	16.18
250.816	17.03
251.032	15.28
251.248	16.8
251.464	16.82
251.68	15.92
251.896	14.89
252.112	12.26
252.328	11.55
252.544	13.7
252.76	11.73
252.976	12.56
253.192	13.08
253.408	14.57
253.624	14.45
253.84	14.49
254.056	13.92
254.272	15.43
254.487	15.58
254.703	18.73
254.919	19.03
255.135	20.72
255.351	22.15
255.567	22.73
255.782	20.9
255.998	20.91
256.214	19.25
256.43	18.84
256.646	18.71
256.861	20.46
257.077	19.43
257.293	22.27
257.508	22.74
257.724	19.08
257.94	17.52
258.155	18.57
258.371	17.36
258.587	18.63
258.802	19.08
259.018	18.12
259.234	17.02
259.449	15.27
259.665	13.45
259.88	12.55
260.096	12.92
260.312	12.5
260.527	12.06
260.743	11.61
260.958	10.73
261.174	9.9
261.389	10.38
261.605	9.27
261.82	9.59
262.036	10.85
262.251	11.97
262.466	12.42
262.682	13.27
262.897	15.11
263.113	15.77
263.328	16.05
263.543	17.44
263.759	16.75
263.974	16.82
264.189	17.72
264.405	16.35
264.62	16.01
264.835	13.61
265.051	9.47
265.266	10.11
265.481	13.28
265.696	14.23
265.912	13.51
266.127	11.99
266.342	13.52
266.557	14.05
266.773	13.31
266.988	13.15
267.203	14.16
267.418	17.13
267.633	15.49
267.848	14.55
268.064	14.25
268.279	15.26
268.494	15.21
268.709	14.39
268.924	13.73
269.139	14.3
269.354	15.41
269.569	15.21
269.784	13.65
269.999	12.94
270.214	12.07
270.429	12.35
270.644	9.77
270.859	11.56
271.074	11.78
271.289	12.77
271.504	13.98
271.719	12.75
271.934	13.22
272.149	13.34
272.363	13.51
272.578	13.87
272.793	13.49
273.008	15.25
273.223	15.14
273.438	15.52
273.653	16.16
273.867	14.55
274.082	15.7
274.297	15.47
274.512	16.97
274.726	16.09
274.941	17.05
275.156	18.18
275.371	17.63
275.585	17.62
275.8	17.65
276.015	16.03
276.229	16.31
276.444	15.59
276.659	15.74
276.873	14.21
277.088	16.44
277.302	16.57
277.517	15.53
277.732	15.9
277.946	15.97
278.161	16.27
278.375	16.26
278.59	16.34
278.804	15.41
279.019	16.5
279.233	17.68
279.448	17.27
279.662	17.23
279.877	17.51
280.091	16.85
280.306	15.19
280.52	14.41
280.735	15.16
280.949	15.6
281.163	15.81
281.378	14.99
281.592	13.84
281.806	12.78
282.021	11.53
282.235	10.37
282.449	12.13
282.664	12.92
282.878	12.47
283.092	12.36
283.307	12.45
283.521	11.48
283.735	12.37
283.949	13.32
284.164	14.12
284.378	14.28
284.592	14.45
284.806	13.13
285.02	12.58
285.234	13.25
285.449	12.72
285.663	11.7
285.877	12.1
286.091	11.87
286.305	11.7
286.519	11.62
286.733	11.35
286.947	11.34
287.161	11.8
287.375	11.57
287.589	10.84
287.803	9.97
288.017	11.55
288.231	11.12
288.445	11.09
288.659	11.6
288.873	11.03
289.087	10.49
289.301	11.42
289.515	11.27
289.729	11.63
289.943	12.61
290.157	14.09
290.371	12.67
290.584	14.3
290.798	14.78
291.012	13.83
291.226	13.91
291.44	14.54
291.654	13.77
291.867	13.29
292.081	13.31
292.295	12.48
292.509	10.29
292.722	10.17
292.936	9.38
293.15	8.78
293.364	8.12
293.577	9.05
293.791	10.51
294.005	11.51
294.218	11.9
294.432	11.59
294.645	12.39
294.859	14.26
295.073	14.54
295.286	14.27
295.5	13.59
295.713	14.02
295.927	13.59
296.14	12.77
296.354	12.64
296.568	11.08
296.781	10.86
296.994	10.94
297.208	10.13
297.421	10.31
297.635	10.74
297.848	10.66
298.062	10.97
298.275	11.37
298.489	11.44
298.702	11.97
298.915	13.48
299.129	14.42
299.342	14.4
299.555	14.54
299.769	14.28
299.982	14.6
300.195	14.65
300.409	13.96
300.622	13.25
300.835	12.19
301.048	10.15
301.262	9.77
301.475	10.15
301.688	9.8
301.901	10.71
302.115	11.37
302.328	11.24
302.541	10.66
302.754	12.03
302.967	11.32
303.18	11.84
303.393	13.19
303.607	13.05
303.82	12.32
304.033	13.41
304.246	12.89
304.459	12.98
304.672	12.77
304.885	14.96
305.098	15.61
305.311	16.82
305.524	16.55
305.737	16.16
305.95	16.43
306.163	16.93
306.376	15.32
306.589	15.1
306.802	14.96
307.015	15.12
307.228	13.91
307.44	12.68
307.653	12.5
307.866	11.51
308.079	12.4
308.292	13.13
308.505	13.8
308.718	15.56
308.93	16.17
309.143	15.17
309.356	15.87
309.569	16.54
309.781	16.06
309.994	16.74
310.207	18.36
310.42	17.94
310.632	17.63
310.845	17.28
311.058	16.22
311.27	16.58
311.483	17.55
311.696	16.77
311.908	16.41
312.121	15.96
312.333	14.79
312.546	14.57
312.759	15.05
312.971	14.92
313.184	15.16
313.396	15.1
313.609	14.21
313.821	13.85
314.034	13.82
314.246	13.95
314.459	16.04
314.671	17.16
314.884	16.41
315.096	15.3
315.309	15.72
315.521	13.92
315.733	13.96
315.946	14.65
316.158	13.32
316.371	13.58
316.583	12.69
316.795	11.71
317.008	10.7
317.22	11.7
317.432	12.66
317.644	12.82
317.857	13.53
318.069	13.7
318.281	13.55
318.494	17.13
318.706	17.33
318.918	17.53
319.13	16.41
319.342	17.8
319.555	19.53
319.767	19.48
319.979	18.76
320.191	20.59
320.403	21.52
320.615	21.7
320.827	18.99
321.039	19.27
321.252	18.77
321.464	19.78
321.676	19.33
321.888	17.47
322.1	17.46
322.312	19.01
322.524	18.61
322.736	18.07
322.948	18.27
323.16	17.71
323.372	16.03
323.584	16.02
323.796	17.04
324.007	16
324.219	15.38
324.431	14.6
324.643	13.09
324.855	11.65
325.067	11.1
325.279	10.24
325.491	11.51
325.702	11.59
325.914	12.32
326.126	10.32
326.338	11.88
326.55	12.85
326.761	13.14
326.973	14.04
327.185	15.41
327.396	14.92
327.608	15.42
327.82	15.77
328.032	15.54
328.243	15.65
328.455	17.51
328.666	17.1
328.878	16.61
329.09	16.23
329.301	13.82
329.513	13.89
329.725	15.9
329.936	15.51
330.148	14.92
330.359	16.86
330.571	17.41
330.782	16.51
330.994	15.85
331.205	15.63
331.417	16.79
331.628	18.8
331.84	18.78
332.051	18.33
332.262	20.57
332.474	20.1
332.685	18.89
332.897	18.42
333.108	18.19
333.319	18.02
333.531	18.8
333.742	18.78
333.953	17.39
334.165	16.93
334.376	17.45
334.587	15.13
334.799	15.36
335.01	15.2
335.221	14.3
335.432	14.23
335.644	14.35
335.855	13.86
336.066	12.56
336.277	13.29
336.488	13.55
336.7	12.17
336.911	14.4
337.122	14.22
337.333	14.89
337.544	16.29
337.755	16.36
337.966	15.93
338.177	15.58
338.388	15.58
338.599	16.38
338.811	15.31
339.022	15.31
339.233	14.29
339.444	14.18
339.655	12.95
339.866	11.37
340.076	11.55
340.287	11.73
340.498	12.75
340.709	11.1
340.92	9.54
341.131	10.14
341.342	10.04
341.553	9.53
341.764	9.67
341.975	10.88
342.185	10.74
342.396	10.77
342.607	11.25
342.818	10.76
343.029	14.07
343.239	15.05
343.45	15.68
343.661	16.77
343.872	16.33
344.082	15.54
344.293	14.85
344.504	15.5
344.714	15.72
344.925	15.24
345.136	15.34
345.346	15.01
345.557	14.44
345.768	13.93
345.978	12.95
346.189	13.96
346.399	13.98
346.61	13.93
346.821	13.93
347.031	13.64
347.242	13.45
347.452	13.25
347.663	13.15
347.873	12.93
348.084	13.42
348.294	14.03
348.504	12.92
348.715	14.23
348.925	15.04
349.136	15.47
349.346	14.99
349.557	14.56
349.767	14.42
349.977	13.55
350.188	14.3
350.398	14.19
350.608	13.52
350.819	13.64
351.029	12.6
351.239	12.23
351.449	11.4
351.66	11.66
351.87	11.57
352.08	10.76
352.29	10.43
352.501	10.54
352.711	9.37
352.921	9.95
353.131	9.82
353.341	11.14
353.552	10.75
353.762	10.22
353.972	9.75
354.182	10.98
354.392	11.01
354.602	12.59
354.812	12.25
355.022	13.69
355.232	12.81
355.442	13.72
355.652	12.77
355.862	12.97
356.072	12.94
356.282	13.16
356.492	13.28
356.702	13.28
356.912	12.3
357.122	12.51
357.332	12.11
357.542	12.49
357.752	12.02
357.962	12.07
358.171	12.18
358.381	12.46
358.591	13.18
358.801	12.75
359.011	13.32
359.221	12.74
359.43	12.62
359.64	12.89
359.85	12.27
360.06	11.39
360.269	10.64
360.479	10.79
360.689	10.57
360.899	9.96
361.108	9.69
361.318	9.55
361.528	9.21
361.737	9.24
361.947	8.24
362.156	8.69
362.366	9.34
362.576	9.58
362.785	9.59
362.995	9.76
363.204	9.64
363.414	9.94
363.623	10.03
363.833	10.08
364.042	10.07
364.252	10.44
364.461	10.46
364.671	10.03
364.88	9.99
365.09	9.53
365.299	9.6
365.509	9.99
365.718	10.43
365.927	10.01
366.137	10.81
366.346	10.73
366.555	11.03
366.765	11.18
366.974	10.68
367.183	10.95
367.393	10.96
367.602	11.15
367.811	10.57
368.021	9.82
368.23	9.8
368.439	8.93
368.648	8.74
368.857	8.3
369.067	8.81
369.276	9.89
369.485	10.11
369.694	10.65
369.903	10.41
370.112	10.61
370.321	11.11
370.531	11.24
370.74	11.52
370.949	11.36
371.158	11.42
371.367	10.84
371.576	9.99
371.785	9.8
371.994	9.58
372.203	10.14
372.412	10.3
372.621	9.45
372.83	9.62
373.039	10
373.248	10.3
373.457	9.81
373.666	9.43
373.874	10.31
374.083	10.45
374.292	10.47
374.501	9.8
374.71	9.76
374.919	11.38
375.128	10.52
375.336	10.35
375.545	9.97
375.754	10.54
375.963	10.54
376.171	10.31
376.38	10.07
376.589	10.17
376.798	9.74
377.006	9.32
377.215	8.33
377.424	9.11
377.632	9.14
377.841	9.29
378.05	9.96
378.258	10.13
378.467	10.46
378.675	10.93
378.884	10.46
379.093	10.52
379.301	10.55
379.51	10.62
379.718	10.22
379.927	9.97
380.135	9.8
380.344	9.29
380.552	9.26
380.761	7.99
380.969	7.59
381.177	6.98
381.386	7.8
381.594	8.37
381.803	7.57
382.011	7.48
382.219	7.3
382.428	6.96
382.636	6.73
382.845	6.53
383.053	7.32
383.261	7.39
383.469	8
383.678	7.41
383.886	7.14
384.094	7.4
384.302	7.33
384.511	7.41
384.719	7.82
384.927	7.55
385.135	7.65
385.343	7.23
385.552	7.25
385.76	7.08
385.968	7.06
386.176	7.06
386.384	6.97
386.592	6.97
386.8	7.3
387.008	7.2
387.216	7.04
387.424	6.86
387.633	7.07
387.841	6.75
388.049	7.25
388.257	6.81
388.465	6.72
388.672	6.96
388.88	7.22
389.088	7.03
389.296	6.99
389.504	7
389.712	7.51
389.92	7.48
390.128	7.82
390.336	7.27
390.544	7.9
390.751	7.65
390.959	8.07
391.167	7.9
391.375	7.89
391.583	8.1
391.79	8.47
391.998	8.03
392.206	8.01
392.414	7.74
392.621	7.94
392.829	7.57
393.037	7.74
393.244	7.39
393.452	7.36
393.66	6.92
393.867	6.64
394.075	6.59
394.283	6.5
394.49	6.11
394.698	6.42
394.905	6.09
395.113	6.71
395.32	6.72
395.528	6.28
395.735	6.25
395.943	6.56
396.15	6.57
396.358	6.32
396.565	6.55
396.773	6.97
396.98	6.64
397.188	6.97
397.395	6.59
397.602	6.6
397.81	6.62
398.017	6.71
398.225	6.77
398.432	6.8
398.639	6.93
398.847	6.69
399.054	6.42
399.261	6.14
399.468	5.88
399.676	5.78
399.883	5.94
400.09	6.13
400.297	5.94
400.505	6.19
400.712	6.32
400.919	6.38
401.126	6.27
401.333	6.51
401.54	6.74
401.748	6.77
401.955	6.45
402.162	6.17
402.369	6.37
402.576	6.72
402.783	6.39
402.99	6.35
403.197	6.26
403.404	6.4
403.611	6.41
403.818	6.2
404.025	6.16
404.232	6.34
404.439	6.58
404.646	6.44
404.853	6.27
405.06	6.49
405.267	6.58
405.474	6.46
405.681	6.28
405.887	6.3
406.094	6.53
406.301	6.69
406.508	6.33
406.715	5.96
406.922	5.99
407.128	5.93
407.335	5.5
407.542	4.98
407.749	5.02
407.955	5.21
408.162	4.99
408.369	4.8
408.575	4.78
408.782	5.11
408.989	5.3
409.195	5.29
409.402	5.31
409.609	5.28
409.815	5.6
410.022	5.62
410.228	5.81
410.435	5.75
410.642	6.27
410.848	6.02
411.055	6.2
411.261	6.09
411.468	5.94
411.674	5.88
411.881	6.04
412.087	6.01
412.294	5.95
412.5	5.71
412.706	5.7
412.913	5.14
413.119	5.31
413.326	4.97
413.532	5.2
413.738	5.46
413.945	5.46
414.151	5.33
414.357	5.4
414.564	5.35
414.77	5.46
414.976	5.57
415.182	5.44
415.389	5.68
415.595	6.06
415.801	5.89
416.007	5.85
416.214	6.05
416.42	6.09
416.626	5.91
416.832	5.93
417.038	5.99
417.244	5.84
417.45	5.99
417.657	5.66
417.863	5.54
418.069	5.58
418.275	5.51
418.481	5.42
418.687	5.37
418.893	5.64
419.099	5.65
419.305	5.59
419.511	5.6
419.717	5.64
419.923	5.82
420.129	5.81
420.335	5.77
420.541	5.79
420.746	5.7
420.952	5.82
421.158	5.49
421.364	5.49
421.57	5.54
421.776	5.68
421.982	5.59
422.187	5.41
422.393	5.27
422.599	5.21
422.805	5.33
423.01	5.34
423.216	5.23
423.422	5.33
423.628	5.25
423.833	5.18
424.039	5.2
424.245	5.49
424.45	5.62
424.656	5.69
424.862	5.77
425.067	5.63
425.273	5.61
425.478	5.78
425.684	5.81
425.889	5.76
426.095	5.94
426.301	5.8
426.506	5.51
426.712	5.3
426.917	5.45
427.123	5.43
427.328	5.35
427.533	5.33
427.739	5.11
427.944	5.11
428.15	5.19
428.355	4.88
428.561	4.85
428.766	4.75
428.971	4.97
429.177	4.79
429.382	4.75
429.587	4.79
429.793	4.87
429.998	5.06
430.203	5.14
430.408	5.21
430.614	5.33
430.819	5.63
431.024	5.68
431.229	5.6
431.434	5.64
431.64	5.67
431.845	5.68
432.05	5.67
432.255	5.25
432.46	5.24
432.665	5.23
432.87	5.13
433.076	4.97
433.281	5.08
433.486	5.01
433.691	5.02
433.896	4.78
434.101	4.73
434.306	4.77
434.511	5.17
434.716	5.41
434.921	5.61
435.126	5.61
435.331	5.58
435.535	5.53
435.74	5.71
435.945	5.74
436.15	6.07
436.355	6.3
436.56	6.19
436.765	6.13
436.97	6.04
437.174	5.88
437.379	5.84
437.584	5.9
437.789	6.03
437.993	6.08
438.198	6.04
438.403	5.81
438.608	5.65
438.812	5.67
439.017	5.6
439.222	5.39
439.426	5.52
439.631	5.56
439.836	5.52
440.04	5.33
440.245	5.24
440.45	5.25
440.654	5.42
440.859	5.51
441.063	5.6
441.268	5.35
441.472	5.34
441.677	5.32
441.881	5.32
442.086	5.31
442.29	5.31
442.495	5.26
442.699	5.15
442.904	5.04
443.108	4.94
443.312	4.97
443.517	5.24
443.721	5.11
443.925	4.95
444.13	5.12
444.334	5.16
444.538	5.23
444.743	5.18
444.947	5.3
445.151	5.15
445.356	5.21
445.56	5.34
445.764	5.13
445.968	5.22
446.173	5.24
446.377	5.13
446.581	5.14
446.785	5.16
446.989	5.21
447.193	5.23
447.398	5.39
447.602	5.35
447.806	5.17
448.01	5.47
448.214	5.46
448.418	5.42
448.622	5.43
448.826	5.26
449.03	5.21
449.234	5.33
449.438	5.24
449.642	5.09
449.846	5.1
450.05	4.86
450.254	4.6
450.458	4.81
450.662	4.78
450.866	4.6
451.069	4.71
451.273	4.59
451.477	4.46
451.681	4.49
451.885	4.5
452.089	4.35
452.292	4.46
452.496	4.52
452.7	4.43
452.904	4.56
453.107	4.82
453.311	4.84
453.515	5.09
453.719	5.24
453.922	5.26
454.126	5.38
454.33	5.56
454.533	5.72
454.737	5.72
454.94	5.86
455.144	5.82
455.348	5.68
455.551	5.54
455.755	5.4
455.958	5.17
456.162	5.13
456.365	5.18
456.569	5.1
456.772	4.94
456.976	4.94
457.179	4.59
457.383	4.77
457.586	4.86
457.79	4.89
457.993	5.02
458.196	5.06
458.4	5.15
458.603	5.03
458.807	5.1
459.01	5.04
