Data from 2937886_Reflection_1.txt Node
Date: Wed Jul 15 14:31:58 EDT 2015
User: robert
Spectrometer: USB4E03001
Autoset integration time: false
Trigger mode: 4
Integration Time (sec): 1.000000E-1
Scans to average: 10
Electric dark correction enabled: true
Nonlinearity correction enabled: false
Boxcar width: 5
Stray light correction enabled: false
XAxis mode: Wavelengths
Stop averaging: false
Number of Pixels in Spectrum: 3648
>>>>>Begin Spectral Data<<<<<
177.566	750
177.785	159.09
178.005	21.05
178.225	-23.52
178.445	-9.82
178.665	148.2
178.885	-683.56
179.105	129.55
179.324	141.49
179.544	-128.29
179.764	-188.5
179.984	-23.16
180.204	30.78
180.423	5.26
180.643	-30.95
180.863	-79.52
181.083	-13.04
181.302	-32.84
181.522	-15.32
181.742	16.53
181.961	-19.36
182.181	-54.06
182.401	-387.33
182.621	-618.24
182.84	-228.08
183.06	-102.76
183.279	-21.79
183.499	-59.74
183.719	-326.9
183.938	-127.5
184.158	-293.69
184.377	14.74
184.597	30.2
184.816	50.83
185.036	54.55
185.256	48.18
185.475	54.79
185.695	74.61
185.914	57.02
186.134	54.01
186.353	46
186.572	73.05
186.792	28.16
187.011	35.54
187.231	649.43
187.45	172.09
187.67	503.65
187.889	-657.79
188.108	-219.7
188.328	-785.18
188.547	-2211.11
188.766	-682.87
188.986	-960.17
189.205	-61.98
189.424	-17.93
189.644	-9.02
189.863	18.64
190.082	24.67
190.302	-7.59
190.521	14.4
190.74	10.97
190.959	45.59
191.178	57.43
191.398	39.77
191.617	32.76
191.836	23.97
192.055	6.75
192.274	8.8
192.494	37.6
192.713	42.8
192.932	4.52
193.151	-18.92
193.37	-111.78
193.589	-267.79
193.808	-182.82
194.027	255.71
194.246	267.48
194.465	239.56
194.685	207.85
194.904	194.84
195.123	179.17
195.342	152.16
195.561	135.21
195.78	129.26
195.999	121.7
196.218	126.84
196.436	30.07
196.655	-292.41
196.874	6226.03
197.093	-110.85
197.312	-196.76
197.531	-187.73
197.75	-182.33
197.969	-166.65
198.188	-293.55
198.407	-302.17
198.625	-242.48
198.844	233.87
199.063	70.99
199.282	100
199.501	68.92
199.719	-52.72
199.938	-124.01
200.157	-164.54
200.376	-143.88
200.594	-220.22
200.813	1798.52
201.032	-641.88
201.251	1858.29
201.469	-685.74
201.688	1279.76
201.907	317.53
202.125	289.51
202.344	301.82
202.563	248.47
202.781	397
203	-3579.46
203.218	-159.85
203.437	-382.96
203.656	-115.38
203.874	-124.94
204.093	-55.11
204.311	-61.04
204.53	-50.32
204.748	-20.87
204.967	-28.19
205.185	-13.08
205.404	-54.63
205.622	-65.59
205.841	-38.1
206.059	-21.49
206.278	-5.73
206.496	-5.38
206.715	0.52
206.933	-12.71
207.151	-39.55
207.37	-27.13
207.588	-23.03
207.806	-13.33
208.025	-4.93
208.243	-39.98
208.461	-13.37
208.68	-46.48
208.898	7.11
209.116	-0.24
209.335	237.05
209.553	63.91
209.771	42.18
209.989	63.67
210.208	50.57
210.426	63.18
210.644	42.82
210.862	28.14
211.081	2.94
211.299	-44.98
211.517	-90.19
211.735	-104.87
211.953	-142.13
212.171	-238.3
212.39	-659.73
212.608	-240.99
212.826	-168.84
213.044	-215.22
213.262	-120.06
213.48	-175.4
213.698	-101.5
213.916	-36.23
214.134	-1.12
214.352	42.19
214.57	55.12
214.788	38.39
215.006	31.87
215.224	12.54
215.442	22.42
215.66	27.92
215.878	45.53
216.096	51.55
216.314	16.26
216.532	-13.79
216.75	9.55
216.968	11.16
217.185	7.1
217.403	36.43
217.621	42.09
217.839	-13.1
218.057	-99.18
218.275	-109.63
218.492	-8.17
218.71	29.05
218.928	35.94
219.146	10.65
219.363	12.02
219.581	29.35
219.799	-2.83
220.017	-22.59
220.234	-11.61
220.452	-22.32
220.67	-61.46
220.887	-147.62
221.105	-108.52
221.323	-230.46
221.54	-289.63
221.758	-178.84
221.976	-296.78
222.193	-108.54
222.411	-33.09
222.629	-15.33
222.846	9.69
223.064	14.96
223.281	15.83
223.499	15.38
223.716	23.9
223.934	28.39
224.151	31.12
224.369	47.5
224.586	31.41
224.804	35.87
225.021	30.24
225.239	20.44
225.456	19.75
225.674	18.7
225.891	18.99
226.108	16.84
226.326	10.25
226.543	4.6
226.76	-12.34
226.978	10.61
227.195	7.37
227.413	2.44
227.63	8.08
227.847	11.64
228.064	14.78
228.282	17.46
228.499	17.38
228.716	17.06
228.934	20.36
229.151	21.84
229.368	21.21
229.585	20.48
229.802	21.33
230.02	21.91
230.237	20.71
230.454	20.73
230.671	20.15
230.888	22.29
231.105	22.05
231.323	22.27
231.54	16.59
231.757	15.49
231.974	16.87
232.191	17.64
232.408	16.22
232.625	11.17
232.842	11.35
233.059	12.13
233.276	6.83
233.493	10.48
233.71	1.07
233.927	5.22
234.144	-0.18
234.361	6.52
234.578	7.11
234.795	8.85
235.012	16.46
235.229	18.94
235.446	22.1
235.663	26.6
235.879	27.42
236.096	32.17
236.313	31.31
236.53	36.62
236.747	31.14
236.964	31.21
237.181	36.99
237.397	32.48
237.614	28.09
237.831	25.63
238.048	28.92
238.264	23.28
238.481	31.6
238.698	32.81
238.915	34.51
239.131	32.72
239.348	31.07
239.565	25.73
239.781	31.47
239.998	30.16
240.215	26.34
240.431	24.01
240.648	24.41
240.865	17.83
241.081	18.31
241.298	16.11
241.514	14.05
241.731	14.35
241.947	13.85
242.164	9.67
242.38	10.53
242.597	9.67
242.814	8.33
243.03	9.52
243.246	10.22
243.463	9.78
243.679	9.16
243.896	10.22
244.112	11.6
244.329	11.96
244.545	13.76
244.762	12.3
244.978	14.62
245.194	17.71
245.411	15.07
245.627	16.45
245.843	16.55
246.06	14.89
246.276	14.61
246.492	12.61
246.709	12.06
246.925	12.77
247.141	13.96
247.357	14.2
247.574	12.75
247.79	12.64
248.006	12.46
248.222	13.55
248.439	13.99
248.655	13.92
248.871	14.28
249.087	14.53
249.303	14.24
249.519	14.44
249.736	14.62
249.952	16.52
250.168	19.09
250.384	19.11
250.6	17.17
250.816	19.09
251.032	20.11
251.248	20.94
251.464	20.08
251.68	18.95
251.896	18.18
252.112	14.91
252.328	12.23
252.544	11.52
252.76	10.91
252.976	11.75
253.192	11.67
253.408	11.87
253.624	11.64
253.84	10.88
254.056	9.91
254.272	10.66
254.487	12.93
254.703	13.33
254.919	16.32
255.135	15.05
255.351	12.83
255.567	12.95
255.782	12.36
255.998	15.18
256.214	16.8
256.43	18.51
256.646	12.12
256.861	12.33
257.077	14.92
257.293	11.4
257.508	12.42
257.724	11.17
257.94	10.69
258.155	9.71
258.371	8.75
258.587	9.44
258.802	9.13
259.018	9.94
259.234	9.57
259.449	8.99
259.665	8.75
259.88	8.58
260.096	9.61
260.312	9.59
260.527	10.26
260.743	10.14
260.958	9.73
261.174	9.84
261.389	10.06
261.605	9.97
261.82	9.71
262.036	9.25
262.251	9.62
262.466	6.7
262.682	4.31
262.897	3.08
263.113	2.04
263.328	4.36
263.543	5.11
263.759	4.27
263.974	3.59
264.189	3.34
264.405	4.89
264.62	5.47
264.835	9.78
265.051	11.96
265.266	13.18
265.481	12.21
265.696	10.03
265.912	5.89
266.127	5.02
266.342	4.84
266.557	7.57
266.773	7.88
266.988	8.49
267.203	7.24
267.418	6.97
267.633	5.54
267.848	5.95
268.064	5.95
268.279	8.38
268.494	11.28
268.709	11.95
268.924	10.75
269.139	10.1
269.354	8.42
269.569	9.8
269.784	9.11
269.999	10.22
270.214	11.66
270.429	11.38
270.644	10.64
270.859	7.24
271.074	7.45
271.289	6.21
271.504	5.69
271.719	5.29
271.934	4.06
272.149	4.02
272.363	5.1
272.578	4.25
272.793	4.01
273.008	5.76
273.223	6.88
273.438	6.94
273.653	8.54
273.867	11.93
274.082	13.08
274.297	12.76
274.512	12.18
274.726	9.98
274.941	9.81
275.156	11.33
275.371	8.34
275.585	7.9
275.8	7.14
276.015	6.89
276.229	4.8
276.444	2.63
276.659	2.14
276.873	0.46
277.088	1.46
277.302	1.83
277.517	0.78
277.732	1.26
277.946	2.27
278.161	3.55
278.375	2.02
278.59	1.24
278.804	0.43
279.019	2.72
279.233	5.96
279.448	4.32
279.662	5.24
279.877	4.08
280.091	5.42
280.306	3.97
280.52	1.92
280.735	0.22
280.949	0.29
281.163	3.51
281.378	3.05
281.592	2.61
281.806	4.53
282.021	4.05
282.235	5.91
282.449	3.66
282.664	5.35
282.878	8.06
283.092	11.8
283.307	12.33
283.521	11.96
283.735	12.37
283.949	12.9
284.164	11.97
284.378	11.32
284.592	11.43
284.806	14.39
285.02	14.49
285.234	12.63
285.449	11.93
285.663	10.59
285.877	11.28
286.091	12.21
286.305	11.66
286.519	11.39
286.733	10.37
286.947	9.14
287.161	8.14
287.375	8.42
287.589	9.87
287.803	9.35
288.017	10.35
288.231	9.63
288.445	8.39
288.659	8.18
288.873	8.06
289.087	10.14
289.301	10.68
289.515	11.55
289.729	10.86
289.943	10.04
290.157	10.19
290.371	10.65
290.584	8.92
290.798	7.77
291.012	8.29
291.226	7.78
291.44	6.91
291.654	7.72
291.867	6.42
292.081	6.4
292.295	5.59
292.509	4.5
292.722	5.7
292.936	8.26
293.15	9.76
293.364	10.71
293.577	11.6
293.791	12.88
294.005	11.66
294.218	12.21
294.432	10.84
294.645	11.8
294.859	12.06
295.073	10.41
295.286	9.9
295.5	9.72
295.713	9.21
295.927	8.62
296.14	8.84
296.354	9.56
296.568	9.56
296.781	11.57
296.994	11.93
297.208	11.69
297.421	11.18
297.635	10.75
297.848	11.04
298.062	11.79
298.275	13.08
298.489	13.17
298.702	12.7
298.915	12.79
299.129	12.42
299.342	11.57
299.555	11.76
299.769	11.87
299.982	13.07
300.195	11.96
300.409	11.26
300.622	11.66
300.835	11.08
301.048	11.81
301.262	12.73
301.475	11.13
301.688	12.1
301.901	12.64
302.115	13.71
302.328	12.63
302.541	12.65
302.754	11.87
302.967	10.96
303.18	11.17
303.393	11.81
303.607	12.02
303.82	11.97
304.033	12.73
304.246	11.03
304.459	10.88
304.672	12.62
304.885	14.11
305.098	14.55
305.311	16.31
305.524	16
305.737	15
305.95	12.45
306.163	14.07
306.376	15.28
306.589	16.47
306.802	16.3
307.015	15.03
307.228	13.63
307.44	12.37
307.653	11.64
307.866	11.62
308.079	10.89
308.292	9.84
308.505	10.74
308.718	8.32
308.93	8.8
309.143	6.66
309.356	5.94
309.569	6.11
309.781	8.63
309.994	8.2
310.207	7.85
310.42	8.05
310.632	10.01
310.845	8.81
311.058	8.62
311.27	6.91
311.483	8.41
311.696	7.93
311.908	7.88
312.121	5.89
312.333	5.02
312.546	5.84
312.759	7.04
312.971	6.79
313.184	5.24
313.396	6.67
313.609	8.46
313.821	9.98
314.034	11.95
314.246	14.24
314.459	16.53
314.671	16.03
314.884	16.52
315.096	16.96
315.309	16.16
315.521	18.82
315.733	17.2
315.946	16.22
316.158	15.06
316.371	13.68
316.583	11.96
316.795	11.42
317.008	12
317.22	13.64
317.432	12.57
317.644	13.45
317.857	12.46
318.069	13.12
318.281	14.14
318.494	13.65
318.706	13.97
318.918	12.39
319.13	11.05
319.342	11.37
319.555	7.86
319.767	6.11
319.979	6.85
320.191	7.49
320.403	6.09
320.615	5.85
320.827	4.42
321.039	4.98
321.252	7.99
321.464	9.39
321.676	10.13
321.888	10.06
322.1	11.76
322.312	11.98
322.524	12.74
322.736	14.9
322.948	13.69
323.16	15.14
323.372	14.99
323.584	14.67
323.796	13.82
324.007	13.34
324.219	13.64
324.431	13.54
324.643	12.99
324.855	12.85
325.067	10.73
325.279	11.98
325.491	13.29
325.702	13.62
325.914	12.84
326.126	12.57
326.338	12.78
326.55	12.96
326.761	12.43
326.973	11.97
327.185	11.19
327.396	13.08
327.608	12.48
327.82	10.65
328.032	10.37
328.243	9.08
328.455	9.33
328.666	9.3
328.878	10.02
329.09	9.45
329.301	10.73
329.513	10.9
329.725	9.28
329.936	10.87
330.148	10.83
330.359	10.79
330.571	12.15
330.782	13.16
330.994	12.52
331.205	12.13
331.417	13.03
331.628	12
331.84	13.48
332.051	14.74
332.262	14.79
332.474	14.39
332.685	14.31
332.897	13.87
333.108	12.8
333.319	13.41
333.531	13.27
333.742	12.76
333.953	12.92
334.165	11.79
334.376	11.42
334.587	10.21
334.799	9.81
335.01	10.13
335.221	10.68
335.432	10.57
335.644	10.7
335.855	11.9
336.066	13.5
336.277	12.89
336.488	12.43
336.7	12.17
336.911	12.01
337.122	13.15
337.333	12.25
337.544	10.89
337.755	10.32
337.966	9.75
338.177	7.16
338.388	6.85
338.599	7.51
338.811	8.58
339.022	9.29
339.233	10.44
339.444	10.28
339.655	11.3
339.866	12.73
340.076	13.53
340.287	13.23
340.498	14.38
340.709	14.65
340.92	14.11
341.131	14.14
341.342	12.91
341.553	12.27
341.764	11.98
341.975	11.75
342.185	12.78
342.396	13.14
342.607	12.97
342.818	12.19
343.029	12.08
343.239	13.08
343.45	13.88
343.661	13.14
343.872	13.54
344.082	14.5
344.293	14.81
344.504	13.5
344.714	12.78
344.925	13.95
345.136	13.91
345.346	14.06
345.557	14.65
345.768	13.34
345.978	14.72
346.189	14.26
346.399	13.29
346.61	13.68
346.821	13.6
347.031	13.85
347.242	13.76
347.452	14.9
347.663	14.38
347.873	13.95
348.084	13.81
348.294	14.14
348.504	14.62
348.715	14.77
348.925	13.91
349.136	12.64
349.346	13.41
349.557	13.09
349.767	11.38
349.977	11.33
350.188	10.94
350.398	9.39
350.608	9.39
350.819	8.85
351.029	9.37
351.239	9.1
351.449	10.43
351.66	9.48
351.87	9.44
352.08	10.88
352.29	9.73
352.501	10.04
352.711	12.77
352.921	11.58
353.131	12
353.341	11.98
353.552	11.45
353.762	12.37
353.972	13.51
354.182	13.84
354.392	13.84
354.602	16.45
354.812	15.38
355.022	14.72
355.232	16.7
355.442	15.97
355.652	15.67
355.862	16.27
356.072	16.45
356.282	15.62
356.492	15.53
356.702	15.08
356.912	13.02
357.122	13.17
357.332	13.11
357.542	12.15
357.752	11.99
357.962	10.97
358.171	11.42
358.381	10.78
358.591	10.45
358.801	10.58
359.011	10.27
359.221	11
359.43	11.16
359.64	11.38
359.85	11.45
360.06	11.82
360.269	12.91
360.479	12.39
360.689	12.64
360.899	12.53
361.108	11.96
361.318	12.04
361.528	12.09
361.737	11
361.947	10.25
362.156	9.73
362.366	9.76
362.576	9.1
362.785	8.92
362.995	8.83
363.204	9.09
363.414	8.65
363.623	8.82
363.833	7.92
364.042	8.4
364.252	8.84
364.461	8.02
364.671	7.58
364.88	8.71
365.09	8.84
365.299	9.25
365.509	9.49
365.718	10.16
365.927	9.94
366.137	10.31
366.346	11.12
366.555	11.11
366.765	12.38
366.974	12.94
367.183	12.34
367.393	11.6
367.602	10.95
367.811	10.38
368.021	9.88
368.23	10.25
368.439	10.8
368.648	10.41
368.857	9.79
369.067	9.13
369.276	8.03
369.485	7.38
369.694	8.08
369.903	7.66
370.112	8.73
370.321	8.83
370.531	8.93
370.74	9.16
370.949	8.08
371.158	8.26
371.367	8.54
371.576	8.96
371.785	8.83
371.994	9.08
372.203	8.5
372.412	7.75
372.621	7.44
372.83	7.36
373.039	6.72
373.248	7.8
373.457	7.8
373.666	8.6
373.874	8.01
374.083	8.63
374.292	8.52
374.501	8.75
374.71	8.02
374.919	7.79
375.128	8.19
375.336	7.98
375.545	7.57
375.754	8.11
375.963	7.94
376.171	8.59
376.38	8.56
376.589	7.72
376.798	7.83
377.006	8.49
377.215	9.13
377.424	8.58
377.632	9.04
377.841	9.77
378.05	8.83
378.258	8.1
378.467	8.05
378.675	7.58
378.884	7.83
379.093	8.11
379.301	8.27
379.51	8.19
379.718	7.92
379.927	7.3
380.135	7.25
380.344	7.6
380.552	8.31
380.761	8.75
380.969	9.13
381.177	9.42
381.386	9.61
381.594	9.36
381.803	9.56
382.011	10.02
382.219	10.59
382.428	10.06
382.636	9.45
382.845	8.99
383.053	8.89
383.261	8.55
383.469	7.97
383.678	7.8
383.886	7.29
384.094	7.03
384.302	6.97
384.511	6.05
384.719	5.99
384.927	6.36
385.135	6.22
385.343	6.23
385.552	6.48
385.76	6.85
385.968	6.36
386.176	7.3
386.384	7.52
386.592	7.34
386.8	8.11
387.008	8.44
387.216	8.62
387.424	9.07
387.633	9.01
387.841	8.9
388.049	9.51
388.257	9.92
388.465	9.49
388.672	8.82
388.88	8.57
389.088	8.07
389.296	8.1
389.504	8.78
389.712	8.14
389.92	8.03
390.128	7.86
390.336	7.2
390.544	6.62
390.751	6.6
390.959	6.63
391.167	6.55
391.375	6.62
391.583	6.42
391.79	5.5
391.998	5.47
392.206	5.35
392.414	5.36
392.621	5.57
392.829	5.67
393.037	4.93
393.244	5.16
393.452	5.32
393.66	5.69
393.867	5.53
394.075	5.65
394.283	6.09
394.49	5.97
394.698	6.29
394.905	6.05
395.113	6.07
395.32	6.75
395.528	6.72
395.735	6.93
395.943	6.64
396.15	7
396.358	6.99
396.565	6.62
396.773	6.2
396.98	5.34
397.188	5.62
397.395	5.83
397.602	5.85
397.81	5.98
398.017	5.51
398.225	5.02
398.432	4.93
398.639	4.95
398.847	5.2
399.054	5.6
399.261	6.09
399.468	5.88
399.676	5.99
399.883	5.85
400.09	5.98
400.297	6.19
400.505	6.3
400.712	6.08
400.919	6.22
401.126	6.26
401.333	6.48
401.54	6.17
401.748	6.34
401.955	6.05
402.162	6.22
402.369	6.1
402.576	6.01
402.783	5.78
402.99	5.68
403.197	5.5
403.404	5.51
403.611	5.57
403.818	5.61
404.025	5.34
404.232	5.11
404.439	4.97
404.646	4.4
404.853	4.21
405.06	4.37
405.267	4.44
405.474	4.52
405.681	4.27
405.887	4.1
406.094	4.43
406.301	4.61
406.508	5.02
406.715	5.1
406.922	5.52
407.128	5.48
407.335	5.52
407.542	5.81
407.749	5.76
407.955	5.85
408.162	5.71
408.369	5.43
408.575	5.41
408.782	5.4
408.989	5.1
409.195	4.97
409.402	5.06
409.609	5.1
409.815	4.72
410.022	4.52
410.228	4.27
410.435	4.65
410.642	5.13
410.848	5.41
411.055	5.26
411.261	5.41
411.468	5.36
411.674	5.52
411.881	5.69
412.087	5.67
412.294	6.02
412.5	6.52
412.706	6.2
412.913	5.73
413.119	5.37
413.326	5.53
413.532	5.64
413.738	5.72
413.945	5.77
414.151	5.36
414.357	5.56
414.564	5.47
414.77	5.17
414.976	4.69
415.182	4.78
415.389	4.64
415.595	4.55
415.801	4.38
416.007	4.34
416.214	4.44
416.42	4.7
416.626	4.78
416.832	4.66
417.038	4.73
417.244	5.21
417.45	5.38
417.657	5.57
417.863	5.55
418.069	5.67
418.275	5.39
418.481	5.28
418.687	5.2
418.893	4.97
419.099	5.05
419.305	4.89
419.511	4.75
419.717	4.79
419.923	4.57
420.129	4.51
420.335	4.47
420.541	4.56
420.746	4.62
420.952	4.74
421.158	4.76
421.364	4.63
421.57	4.57
421.776	4.76
421.982	4.59
422.187	4.68
422.393	4.67
422.599	4.56
422.805	4.72
423.01	4.59
423.216	4.47
423.422	4.6
423.628	4.7
423.833	4.77
424.039	4.56
424.245	4.77
424.45	4.82
424.656	4.91
424.862	5.03
425.067	5.03
425.273	5.18
425.478	5.19
425.684	4.91
425.889	4.87
426.095	4.98
426.301	5.17
426.506	5.05
426.712	4.96
426.917	4.92
427.123	4.85
427.328	4.74
427.533	4.61
427.739	4.48
427.944	4.73
428.15	4.76
428.355	4.73
428.561	4.56
428.766	4.26
428.971	4.31
429.177	4.28
429.382	4.12
429.587	3.88
429.793	3.91
429.998	4.03
430.203	4.02
430.408	4.13
430.614	4.22
430.819	4.32
431.024	4.45
431.229	4.7
431.434	4.82
431.64	4.88
431.845	5.25
432.05	5.1
432.255	5
432.46	5.15
432.665	5.13
432.87	4.87
433.076	4.84
433.281	4.94
433.486	4.8
433.691	4.77
433.896	4.9
434.101	4.87
434.306	5.15
434.511	5.24
434.716	5.11
434.921	5.01
435.126	5.18
435.331	5.07
435.535	4.9
435.74	4.95
435.945	4.73
436.15	4.6
436.355	4.57
436.56	4.21
436.765	4.16
436.97	4.07
437.174	3.96
437.379	3.93
437.584	3.97
437.789	4.02
437.993	3.76
438.198	3.63
438.403	3.61
438.608	3.51
438.812	3.63
439.017	3.71
439.222	3.85
439.426	3.99
439.631	3.93
439.836	3.96
440.04	4.19
440.245	4.22
440.45	4.4
440.654	4.56
440.859	4.46
441.063	4.55
441.268	4.65
441.472	4.63
441.677	4.67
441.881	4.57
442.086	4.47
442.29	4.32
442.495	4.26
442.699	4.28
442.904	4.04
443.108	4.17
443.312	3.98
443.517	3.87
443.721	3.67
443.925	3.51
444.13	3.7
444.334	3.86
444.538	3.96
444.743	4.14
444.947	4.1
445.151	4.19
445.356	4.22
445.56	4.48
445.764	4.37
445.968	4.31
446.173	4.43
446.377	4.61
446.581	4.49
446.785	4.4
446.989	4.4
447.193	4.57
447.398	4.7
447.602	4.87
447.806	4.84
448.01	4.88
448.214	5.04
448.418	5.12
448.622	4.97
448.826	5.14
449.03	5.17
449.234	5.12
449.438	4.83
449.642	4.74
449.846	4.51
450.05	4.31
450.254	4.29
450.458	4.15
450.662	4.17
450.866	4.12
451.069	4.05
451.273	4
451.477	4.01
451.681	4.3
451.885	4.29
452.089	4.33
452.292	4.4
452.496	4.51
452.7	4.51
452.904	4.37
453.107	4.34
453.311	4.38
453.515	4.23
453.719	4.18
453.922	3.84
454.126	3.84
454.33	3.8
454.533	3.65
454.737	3.67
454.94	3.6
455.144	3.5
455.348	3.58
455.551	3.44
455.755	3.76
455.958	3.79
456.162	3.84
456.365	3.64
456.569	3.8
456.772	3.88
456.976	3.64
457.179	3.77
457.383	4.13
457.586	3.83
457.79	3.72
457.993	3.55
458.196	3.58
458.4	3.74
458.603	3.8
458.807	3.62
459.01	3.56
459.213	3.9
459.417	3.7
459.62	3.54
459.823	3.65
460.026	3.76
460.23	3.74
460.433	3.78
460.636	3.8
460.839	3.85
461.042	3.99
461.246	3.93
461.449	3.74
461.652	4.01
461.855	3.92
462.058	3.92
462.261	3.96
462.464	4.14
462.668	3.99
462.871	4.03
463.074	3.95
463.277	3.69
463.48	3.91
463.683	3.94
463.886	4.03
464.089	4.39
464.292	4.56
