Data from 2937834_Reflection_3.txt Node
Date: Wed Jul 15 16:36:41 EDT 2015
User: robert
Spectrometer: USB4E03001
Autoset integration time: false
Trigger mode: 4
Integration Time (sec): 1.000000E-1
Scans to average: 10
Electric dark correction enabled: true
Nonlinearity correction enabled: false
Boxcar width: 5
Stray light correction enabled: false
XAxis mode: Wavelengths
Stop averaging: false
Number of Pixels in Spectrum: 3648
>>>>>Begin Spectral Data<<<<<
177.566	284.07
177.785	331.6
178.005	-87.89
178.225	72.33
178.445	57.28
178.665	81.49
178.885	187.09
179.105	127.13
179.324	90.1
179.544	166.25
179.764	66.44
179.984	36.9
180.204	393.19
180.423	295.12
180.643	225.59
180.863	226.47
181.083	304.06
181.302	-1832.6
181.522	-1212.37
181.742	154.32
181.961	209.11
182.181	112.65
182.401	81.1
182.621	-441.31
182.84	24.13
183.06	40.08
183.279	26.74
183.499	44.19
183.719	40.91
183.938	44.76
184.158	75.3
184.377	69.51
184.597	36.56
184.816	52.96
185.036	74.03
185.256	63.49
185.475	94.94
185.695	88.11
185.914	75.3
186.134	85.51
186.353	116.88
186.572	105.18
186.792	111.85
187.011	127
187.231	109.58
187.45	140.36
187.67	141.04
187.889	118.29
188.108	137.33
188.328	151.83
188.547	218.38
188.766	149.86
188.986	118.98
189.205	120.42
189.424	126.32
189.644	131.25
189.863	116.4
190.082	131.92
190.302	133.61
190.521	165.96
190.74	152.44
190.959	147.67
191.178	220.7
191.398	525.09
191.617	306.17
191.836	230.02
192.055	381.19
192.274	294.06
192.494	179.59
192.713	126.74
192.932	80.38
193.151	192.69
193.37	122.69
193.589	72.8
193.808	68.74
194.027	52.84
194.246	51.59
194.465	37.08
194.685	22.83
194.904	38.68
195.123	57.2
195.342	66.82
195.561	56.16
195.78	39.2
195.999	62.81
196.218	91.67
196.436	433.58
196.655	156.54
196.874	114.05
197.093	-116.92
197.312	123.22
197.531	-18.02
197.75	574.73
197.969	349.02
198.188	426.84
198.407	-294.53
198.625	-79.75
198.844	-63.16
199.063	9.45
199.282	38.41
199.501	62.5
199.719	74.07
199.938	68.7
200.157	77.05
200.376	77.38
200.594	78.85
200.813	67.5
201.032	77.13
201.251	82.29
201.469	83.33
201.688	97.14
201.907	101.17
202.125	91.01
202.344	90.51
202.563	86.78
202.781	74.18
203	72.41
203.218	96.21
203.437	88.98
203.656	94.16
203.874	103.15
204.093	97.03
204.311	87.93
204.53	86.44
204.748	80.75
204.967	86.71
205.185	97.26
205.404	101.15
205.622	102.49
205.841	106.46
206.059	103.88
206.278	101.09
206.496	93.58
206.715	89.21
206.933	197.39
207.151	260.99
207.37	-3771.15
207.588	-214.74
207.806	292.31
208.025	218.03
208.243	183.34
208.461	331.68
208.68	365.82
208.898	474.33
209.116	477.21
209.335	221.04
209.553	330.92
209.771	286.25
209.989	256.46
210.208	164.46
210.426	129.92
210.644	133.51
210.862	108.24
211.081	92.05
211.299	71.74
211.517	65.44
211.735	58.19
211.953	60.33
212.171	47.21
212.39	49.02
212.608	48.66
212.826	71.14
213.044	81.46
213.262	78.84
213.48	71.8
213.698	81.42
213.916	72.32
214.134	66.45
214.352	76.91
214.57	86.31
214.788	79.36
215.006	112.31
215.224	82.74
215.442	67.7
215.66	66.48
215.878	65.66
216.096	73.68
216.314	83.12
216.532	91.95
216.75	64.54
216.968	58.56
217.185	62.35
217.403	42.59
217.621	60.48
217.839	45.56
218.057	55.69
218.275	72.62
218.492	59.63
218.71	59.23
218.928	51.85
219.146	69.04
219.363	70.77
219.581	58.5
219.799	49.41
220.017	71.55
220.234	68.45
220.452	65.79
220.67	57.88
220.887	72.25
221.105	72.49
221.323	64.34
221.54	71.12
221.758	72.07
221.976	90.34
222.193	105.59
222.411	77.56
222.629	99.14
222.846	79.89
223.064	72.84
223.281	38.66
223.499	28.32
223.716	40.08
223.934	28.99
224.151	20.62
224.369	6.3
224.586	8.36
224.804	12.18
225.021	14.01
225.239	23.33
225.456	23.89
225.674	36.81
225.891	39.33
226.108	33.37
226.326	23.74
226.543	18.71
226.76	20.7
226.978	17.78
227.195	17.3
227.413	13.97
227.63	11.64
227.847	11.09
228.064	8.62
228.282	8.44
228.499	12
228.716	11.85
228.934	14.83
229.151	14.4
229.368	13.02
229.585	13.23
229.802	10.53
230.02	11.35
230.237	8.21
230.454	6.97
230.671	8.75
230.888	6.16
231.105	8.28
231.323	9.35
231.54	7.5
231.757	7.37
231.974	1.46
232.191	3.39
232.408	3.41
232.625	8.26
232.842	14.3
233.059	12.41
233.276	18.37
233.493	18.38
233.71	10.14
233.927	13.42
234.144	16.01
234.361	18.5
234.578	22.81
234.795	23.78
235.012	25.98
235.229	22.15
235.446	22.4
235.663	19.61
235.879	21.13
236.096	25.94
236.313	27.8
236.53	29.74
236.747	33.25
236.964	34.1
237.181	31.56
237.397	31.79
237.614	25.83
237.831	27.13
238.048	25.55
238.264	23.36
238.481	24.26
238.698	22.14
238.915	19.7
239.131	19.4
239.348	14.52
239.565	14.88
239.781	14.71
239.998	18.36
240.215	18.2
240.431	19.42
240.648	22.66
240.865	21.8
241.081	22.07
241.298	21.09
241.514	18.47
241.731	19.56
241.947	18.26
242.164	16.05
242.38	18.19
242.597	18.01
242.814	18.92
243.03	16.94
243.246	16.2
243.463	16.74
243.679	17.02
243.896	18.01
244.112	19.65
244.329	21.63
244.545	22.9
244.762	22.33
244.978	17.98
245.194	14.93
245.411	15.43
245.627	14.93
245.843	14.26
246.06	11.95
246.276	11.95
246.492	11.5
246.709	11.05
246.925	9.98
247.141	10
247.357	11.08
247.574	11.41
247.79	11.28
248.006	11.03
248.222	10.09
248.439	10.1
248.655	9.71
248.871	9.01
249.087	8.65
249.303	8.31
249.519	6.62
249.736	8.66
249.952	8.65
250.168	7.36
250.384	7.17
250.6	7.99
250.816	9.37
251.032	7.92
251.248	7.98
251.464	8.39
251.68	11.49
251.896	13.95
252.112	13.09
252.328	12.54
252.544	11.77
252.76	9.68
252.976	8.68
253.192	9.91
253.408	10.25
253.624	10.1
253.84	10.24
254.056	7.97
254.272	6.82
254.487	6.05
254.703	6.11
254.919	9.07
255.135	13.22
255.351	14.28
255.567	14.07
255.782	16.18
255.998	14.68
256.214	9.81
256.43	11.49
256.646	10.71
256.861	8.45
257.077	9.1
257.293	7.39
257.508	5.53
257.724	7.22
257.94	7.26
258.155	7.39
258.371	7.87
258.587	11.39
258.802	10.16
259.018	10.14
259.234	10.47
259.449	9.68
259.665	10.02
259.88	9.48
260.096	8.77
260.312	8.35
260.527	7.35
260.743	7.4
260.958	6.28
261.174	5.8
261.389	6.18
261.605	6.65
261.82	6.69
262.036	6.52
262.251	8.58
262.466	7.94
262.682	7.53
262.897	8.62
263.113	6.69
263.328	8.75
263.543	9.8
263.759	6.65
263.974	5.81
264.189	7.32
264.405	4.89
264.62	3.06
264.835	4.9
265.051	6.12
265.266	8.61
265.481	11.67
265.696	10.81
265.912	11.34
266.127	12.67
266.342	10.59
266.557	9.01
266.773	10.82
266.988	10.28
267.203	10.03
267.418	9.69
267.633	7.98
267.848	8.69
268.064	8.44
268.279	9.23
268.494	8.98
268.709	10.32
268.924	10.31
269.139	9.52
269.354	10.74
269.569	10.36
269.784	9.56
269.999	9.15
270.214	6.42
270.429	6.57
270.644	5.88
270.859	5.74
271.074	4.47
271.289	5.7
271.504	6.85
271.719	6.86
271.934	6.47
272.149	5.97
272.363	7.17
272.578	8.65
272.793	8.69
273.008	8.86
273.223	9.63
273.438	10.31
273.653	9.93
273.867	9
274.082	7.89
274.297	9.27
274.512	11.13
274.726	10.41
274.941	9.54
275.156	10.07
275.371	9.79
275.585	10.51
275.8	10.3
276.015	11.03
276.229	11.53
276.444	12.93
276.659	12.38
276.873	12.3
277.088	11.74
277.302	10.81
277.517	9.99
277.732	8.93
277.946	6.97
278.161	7.75
278.375	4.9
278.59	4.37
278.804	3.05
279.019	3.43
279.233	3.42
279.448	3.66
279.662	5.12
279.877	7.12
280.091	7.63
280.306	8.26
280.52	9.42
280.735	9.16
280.949	10.97
281.163	12.19
281.378	12.59
281.592	12.61
281.806	12.32
282.021	11.9
282.235	10.03
282.449	10.72
282.664	11.71
282.878	11.66
283.092	13.92
283.307	13.85
283.521	14.04
283.735	13.02
283.949	11.41
284.164	11.52
284.378	12.52
284.592	12.37
284.806	11.86
285.02	9.95
285.234	8.89
285.449	8.26
285.663	7.48
285.877	7.71
286.091	7.26
286.305	8.05
286.519	7.26
286.733	5.99
286.947	6.53
287.161	7.09
287.375	7.77
287.589	7.46
287.803	7.95
288.017	7.66
288.231	7.51
288.445	9.26
288.659	10.2
288.873	11.84
289.087	13.44
289.301	12.58
289.515	11.68
289.729	11.99
289.943	12.81
290.157	12.77
290.371	13.65
290.584	13.47
290.798	12.75
291.012	11.19
291.226	10.44
291.44	9.25
291.654	9.47
291.867	9.24
292.081	11.01
292.295	11.63
292.509	10.98
292.722	10.96
292.936	10.45
293.15	12
293.364	13.82
293.577	14.87
293.791	15.71
294.005	16.38
294.218	17.24
294.432	16.2
294.645	15.96
294.859	16.68
295.073	16.92
295.286	17.49
295.5	15.68
295.713	14.93
295.927	14.2
296.14	13.21
296.354	12.53
296.568	13.9
296.781	14.05
296.994	14.25
297.208	14.12
297.421	13.3
297.635	13.03
297.848	13.45
298.062	14.02
298.275	15.04
298.489	15.14
298.702	15.12
298.915	14.11
299.129	12.82
299.342	13.58
299.555	12.42
299.769	13.7
299.982	13.34
300.195	14.92
300.409	14.27
300.622	12.8
300.835	14.86
301.048	16.34
301.262	16.79
301.475	18.43
301.688	17.79
301.901	18.61
302.115	18.67
302.328	18.76
302.541	17.69
302.754	18.67
302.967	20.18
303.18	18.96
303.393	18.38
303.607	18.29
303.82	17.89
304.033	16.14
304.246	16.24
304.459	15.74
304.672	14.93
304.885	15.95
305.098	14.18
305.311	13.02
305.524	13.12
305.737	13.73
305.95	13.96
306.163	15.28
306.376	18.29
306.589	18.84
306.802	18.01
307.015	21.89
307.228	21.56
307.44	22.6
307.653	23.85
307.866	24.84
308.079	25.41
308.292	25.3
308.505	25.61
308.718	23.72
308.93	22.93
309.143	23.64
309.356	23.28
309.569	22.88
309.781	23.03
309.994	22.16
310.207	20.13
310.42	19.13
310.632	19.18
310.845	17.72
311.058	18.95
311.27	18.74
311.483	18.17
311.696	17.04
311.908	16.77
312.121	16.39
312.333	17.26
312.546	19.48
312.759	19.18
312.971	18.63
313.184	17.35
313.396	16.95
313.609	18.53
313.821	18.49
314.034	18.81
314.246	19.21
314.459	18.74
314.671	18.38
314.884	16.37
315.096	17.34
315.309	17.38
315.521	19.4
315.733	19.26
315.946	18.62
316.158	20.26
316.371	19.84
316.583	19.2
316.795	20.42
317.008	19.74
317.22	20.85
317.432	19.2
317.644	20.29
317.857	19.7
318.069	19.39
318.281	19.36
318.494	17.86
318.706	16.85
318.918	18.01
319.13	16.4
319.342	16.34
319.555	16.25
319.767	17.79
319.979	17.5
320.191	17.61
320.403	17.55
320.615	16.46
320.827	17.79
321.039	18.4
321.252	18.42
321.464	18.97
321.676	19.5
321.888	20.71
322.1	21.49
322.312	21.67
322.524	22.09
322.736	24.7
322.948	25.61
323.16	25.76
323.372	26.88
323.584	26.13
323.796	26.97
324.007	27.19
324.219	27.1
324.431	26.72
324.643	25.93
324.855	24.07
325.067	22.14
325.279	23.53
325.491	22.76
325.702	20.67
325.914	22.25
326.126	22.86
326.338	22.58
326.55	22.75
326.761	22.85
326.973	24.23
327.185	26.1
327.396	25.01
327.608	25.17
327.82	26.81
328.032	27.91
328.243	27.2
328.455	27.76
328.666	28.96
328.878	29.41
329.09	31.33
329.301	31.17
329.513	30.95
329.725	32.36
329.936	31.42
330.148	30.06
330.359	32.26
330.571	33.54
330.782	33.28
330.994	34.14
331.205	34.87
331.417	33.38
331.628	34.94
331.84	38.12
332.051	39.85
332.262	42.05
332.474	43.77
332.685	43.78
332.897	42.2
333.108	44.75
333.319	44.26
333.531	44.73
333.742	47.2
333.953	46.78
334.165	46.38
334.376	45.15
334.587	45.6
334.799	45.86
335.01	46.83
335.221	48.79
335.432	48.46
335.644	48.88
335.855	47.84
336.066	47.35
336.277	47.46
336.488	47.68
336.7	48.96
336.911	49.14
337.122	50.49
337.333	51.21
337.544	50.15
337.755	49.5
337.966	49.74
338.177	50.04
338.388	51.34
338.599	52.31
338.811	51.45
339.022	51.47
339.233	50.78
339.444	50.98
339.655	51.27
339.866	51.83
340.076	51.17
340.287	51.61
340.498	53.78
340.709	52.26
340.92	52.67
341.131	54.88
341.342	54.91
341.553	56.35
341.764	55.35
341.975	54.39
342.185	55.54
342.396	58.6
342.607	59.68
342.818	58.89
343.029	58.89
343.239	58.78
343.45	57.2
343.661	56.95
343.872	56.37
344.082	56.53
344.293	56.47
344.504	55.95
344.714	54.28
344.925	54.31
345.136	54.41
345.346	55.24
345.557	55
345.768	54.93
345.978	56.57
346.189	55.69
346.399	55.88
346.61	56.46
346.821	56.79
347.031	55.65
347.242	54.41
347.452	52.46
347.663	53.06
347.873	54.03
348.084	56.26
348.294	54.67
348.504	54.76
348.715	54.33
348.925	53.56
349.136	53.97
349.346	54.69
349.557	55.94
349.767	58.25
349.977	55.94
350.188	55.87
350.398	54.47
350.608	55.4
350.819	54.88
351.029	55.9
351.239	56.54
351.449	55.37
351.66	54.86
351.87	54.41
352.08	53.7
352.29	55.53
352.501	53.97
352.711	54.88
352.921	55.85
353.131	56.47
353.341	56.77
353.552	56.65
353.762	59.12
353.972	60.57
354.182	60.53
354.392	60.69
354.602	60.52
354.812	61.53
355.022	60.53
355.232	59.53
355.442	60.52
355.652	60.5
355.862	60.83
356.072	59.46
356.282	58.94
356.492	58.9
356.702	59.38
356.912	58.74
357.122	58.62
357.332	60.02
357.542	59.9
357.752	59.57
357.962	58.42
358.171	57.88
358.381	57.51
358.591	58
358.801	58.23
359.011	57.06
359.221	56.73
359.43	56.59
359.64	55.2
359.85	54.64
360.06	54.11
360.269	54.34
360.479	54.68
360.689	55.2
360.899	54.87
361.108	53.62
361.318	54.93
361.528	55.9
361.737	56.17
361.947	56.23
362.156	56.37
362.366	56.93
362.576	56.36
362.785	56.29
362.995	55.33
363.204	55.8
363.414	56.46
363.623	55.61
363.833	54.71
364.042	54.05
364.252	53.65
364.461	53.83
364.671	53.77
364.88	54.09
365.09	54
365.299	54.37
365.509	53.77
365.718	53.98
365.927	54.6
366.137	54.55
366.346	54.94
366.555	54.17
366.765	54
366.974	53.15
367.183	53.5
367.393	53.28
367.602	53.4
367.811	53.31
368.021	53.02
368.23	52.63
368.439	52.62
368.648	52.2
368.857	52.78
369.067	51.27
369.276	50.63
369.485	51.31
369.694	50.72
369.903	50.54
370.112	49.96
370.321	49.75
370.531	48.95
370.74	48.56
370.949	48.24
371.158	47.64
371.367	48.75
371.576	49.63
371.785	48.64
371.994	48.83
372.203	48.2
372.412	47.62
372.621	47.24
372.83	47.32
373.039	47.37
373.248	47.16
373.457	47.29
373.666	47.18
373.874	46.66
374.083	46.57
374.292	46.49
374.501	46.31
374.71	46.48
374.919	46.06
375.128	45.72
375.336	45.22
375.545	45.17
375.754	44.94
375.963	44.81
376.171	44.41
376.38	43.88
376.589	43.66
376.798	43.82
377.006	43.7
377.215	43.61
377.424	43.86
377.632	44.07
377.841	43.82
378.05	44.25
378.258	43.1
378.467	42.34
378.675	42.68
378.884	42.12
379.093	41.85
379.301	41.97
379.51	41.58
379.718	40.9
379.927	40.21
380.135	40.12
380.344	39.6
380.552	39.93
380.761	40.24
380.969	40.12
381.177	39.94
381.386	39.77
381.594	38.94
381.803	39.12
382.011	39.3
382.219	39.66
382.428	38.96
382.636	38.37
382.845	38.26
383.053	38.2
383.261	37.6
383.469	38.07
383.678	37.51
383.886	37.93
384.094	37.92
384.302	37.02
384.511	36.69
384.719	37.34
384.927	37.2
385.135	36.75
385.343	37.08
385.552	36.71
385.76	36.43
385.968	35.99
386.176	35.41
386.384	35.27
386.592	35.43
386.8	35.12
387.008	34.47
387.216	34.57
387.424	34.9
387.633	34.26
387.841	34.3
388.049	33.69
388.257	34.46
388.465	34.23
388.672	33.57
388.88	33.5
389.088	33.7
389.296	33.29
389.504	32.88
389.712	32.12
389.92	31.59
390.128	30.78
390.336	30.89
390.544	30.57
390.751	30.64
390.959	30.39
391.167	29.83
391.375	29.56
391.583	29.66
391.79	29.88
391.998	30.17
392.206	29.92
392.414	30.36
392.621	30.09
392.829	29.84
393.037	29.39
393.244	29.56
393.452	29.69
393.66	29.27
393.867	29.65
394.075	29.37
394.283	29.26
394.49	29.55
394.698	29.25
394.905	29.42
395.113	28.97
395.32	29.21
395.528	29.08
395.735	28.89
395.943	29.08
396.15	28.59
396.358	28.99
396.565	28.82
396.773	28.83
396.98	29.2
397.188	28.9
397.395	28.84
397.602	28.85
397.81	28.8
398.017	28.72
398.225	28.68
398.432	28.64
398.639	27.97
398.847	27.57
399.054	27.26
399.261	26.72
399.468	26.82
399.676	27.03
399.883	26.73
400.09	26.78
400.297	26.57
400.505	26.15
400.712	26.2
400.919	26.33
401.126	26.69
401.333	26.91
401.54	27.07
401.748	27.04
401.955	27.11
402.162	27
402.369	26.91
402.576	27.17
402.783	27.64
402.99	27.67
403.197	27.48
403.404	27.38
403.611	27.3
403.818	27.29
404.025	27.44
404.232	27.56
404.439	27.86
404.646	27.9
404.853	27.86
405.06	27.59
405.267	27.7
405.474	27.82
405.681	27.85
405.887	27.88
406.094	28.06
406.301	28.01
406.508	27.92
406.715	27.64
406.922	27.49
407.128	27.72
407.335	27.57
407.542	26.9
407.749	26.75
407.955	26.61
408.162	26.62
408.369	26.51
408.575	26.27
408.782	26.01
408.989	26.18
409.195	26.26
409.402	26.34
409.609	26.36
409.815	26.54
410.022	26.47
410.228	26.71
410.435	26.8
410.642	26.55
410.848	26.46
411.055	26.5
411.261	26.2
411.468	25.88
411.674	25.85
411.881	25.96
412.087	25.84
412.294	25.83
412.5	25.88
412.706	25.72
412.913	25.72
413.119	25.48
413.326	25.35
413.532	25.47
413.738	25.61
413.945	25.43
414.151	25.49
414.357	25.76
414.564	25.71
414.77	25.35
414.976	24.84
415.182	24.67
415.389	24.75
415.595	24.85
415.801	24.92
416.007	24.89
416.214	24.5
416.42	24.37
416.626	24.22
416.832	24.11
417.038	24.19
417.244	24.47
417.45	24.46
417.657	24.42
417.863	24.5
418.069	24.34
418.275	24.34
418.481	24.65
418.687	24.8
418.893	24.66
419.099	24.5
419.305	24.41
419.511	24.26
419.717	24.38
419.923	24.51
420.129	24.43
420.335	24.36
420.541	24.37
420.746	24.26
420.952	24.33
421.158	24.46
421.364	24.67
421.57	24.72
421.776	24.83
421.982	24.78
422.187	24.74
422.393	24.78
422.599	24.68
422.805	24.68
423.01	24.62
423.216	24.39
423.422	24.25
423.628	24.2
423.833	24.07
424.039	23.96
424.245	23.99
424.45	24.14
424.656	23.99
424.862	24.23
425.067	24.13
425.273	24.06
425.478	24.24
425.684	24.34
425.889	24.32
426.095	24.47
426.301	24.44
426.506	24.31
426.712	24.01
426.917	23.94
427.123	23.84
427.328	24.12
427.533	24.44
427.739	24.23
427.944	24.33
428.15	24.56
428.355	24.35
428.561	24.64
428.766	24.7
428.971	24.64
429.177	24.7
429.382	24.73
429.587	24.59
429.793	24.37
429.998	24.46
430.203	24.17
430.408	23.82
430.614	23.87
430.819	23.61
431.024	23.33
431.229	23.46
431.434	23.63
431.64	23.75
431.845	23.46
432.05	23.35
432.255	23.09
432.46	23.23
432.665	23.43
432.87	23.36
433.076	23.37
433.281	23.62
433.486	23.74
433.691	23.7
433.896	23.7
434.101	23.81
434.306	23.86
434.511	24.05
434.716	24.02
434.921	23.84
435.126	23.95
435.331	23.91
435.535	23.83
435.74	23.77
435.945	23.65
436.15	23.35
436.355	23.28
436.56	23.44
436.765	23.5
436.97	23.55
437.174	23.66
437.379	23.75
437.584	23.74
437.789	23.76
437.993	23.59
438.198	23.65
438.403	23.86
438.608	23.98
438.812	23.85
439.017	23.78
439.222	23.58
439.426	23.54
439.631	23.31
439.836	23.4
440.04	23.54
440.245	23.51
440.45	23.53
440.654	23.33
440.859	23.37
441.063	23.36
441.268	23.38
441.472	23.49
441.677	23.49
441.881	23.63
442.086	23.52
442.29	23.42
442.495	23.48
442.699	23.31
442.904	23.47
443.108	23.31
443.312	23.25
443.517	23.21
443.721	23.09
443.925	23.08
444.13	23.03
444.334	23.08
444.538	23.11
444.743	23.2
444.947	23.41
445.151	23.34
445.356	23.37
445.56	23.33
445.764	23.3
445.968	23.35
446.173	23.27
446.377	23.28
446.581	23.44
446.785	23.22
446.989	23.3
447.193	23.26
447.398	23.33
447.602	23.25
447.806	23.25
448.01	23.24
448.214	23.11
448.418	22.97
448.622	22.94
448.826	22.69
449.03	22.95
449.234	22.79
449.438	22.63
449.642	22.66
449.846	22.63
450.05	22.61
450.254	22.6
450.458	22.8
450.662	22.96
450.866	23.04
451.069	23.07
451.273	22.87
451.477	22.86
451.681	23.07
451.885	22.98
452.089	23.31
452.292	23.09
452.496	23.12
452.7	22.99
452.904	23.14
453.107	23.19
453.311	23.26
453.515	23.33
453.719	23.26
453.922	23.08
454.126	23.02
454.33	22.79
454.533	22.98
454.737	22.91
454.94	22.87
455.144	22.83
455.348	22.83
455.551	22.85
455.755	22.83
455.958	22.93
456.162	22.92
456.365	22.81
456.569	22.93
456.772	22.81
456.976	22.91
457.179	22.92
457.383	22.72
457.586	22.55
457.79	22.51
457.993	22.49
458.196	22.51
