Data from 2937822_Reflection_1.txt Node
Date: Wed Jul 15 17:16:14 EDT 2015
User: robert
Spectrometer: USB4E03001
Autoset integration time: false
Trigger mode: 4
Integration Time (sec): 1.000000E-1
Scans to average: 10
Electric dark correction enabled: true
Nonlinearity correction enabled: false
Boxcar width: 5
Stray light correction enabled: false
XAxis mode: Wavelengths
Stop averaging: false
Number of Pixels in Spectrum: 3648
>>>>>Begin Spectral Data<<<<<
177.566	-77.06
177.785	-13.99
178.005	-80.3
178.225	2552.5
178.445	-99.29
178.665	-54.92
178.885	21.09
179.105	13.09
179.324	-179.53
179.544	-372.26
179.764	22.21
179.984	-141.77
180.204	-26.86
180.423	-124.28
180.643	-777.89
180.863	-134.2
181.083	-126.08
181.302	-311.62
181.522	-515.38
181.742	-88.45
181.961	-341.07
182.181	-720.3
182.401	6611.9
182.621	372.36
182.84	-252.66
183.06	-86.6
183.279	-44.31
183.499	-13.75
183.719	22.15
183.938	19.3
184.158	-30.67
184.377	11.93
184.597	42.55
184.816	45.63
185.036	48.41
185.256	15.55
185.475	14.66
185.695	-43.59
185.914	-67.67
186.134	-34.87
186.353	-11.77
186.572	2.04
186.792	29.53
187.011	-45.67
187.231	-21.16
187.45	-47.61
187.67	-33.35
187.889	-47.11
188.108	-170.28
188.328	-232.69
188.547	-776.83
188.766	333.68
188.986	386.64
189.205	425.81
189.424	-29.89
189.644	-113.56
189.863	-115.26
190.082	-57.65
190.302	-61.46
190.521	20.87
190.74	8.83
190.959	4.46
191.178	0.47
191.398	-4.2
191.617	-32.62
191.836	-50.08
192.055	-26.38
192.274	-23.22
192.494	-14.59
192.713	-11.22
192.932	-60.2
193.151	-8.52
193.37	-16.18
193.589	-1
193.808	-15.61
194.027	12.22
194.246	8.08
194.465	4.67
194.685	2.16
194.904	-25.35
195.123	-16.47
195.342	-48.52
195.561	-80.3
195.78	-63.99
195.999	-70.51
196.218	-69.32
196.436	-197.91
196.655	-164.26
196.874	-290.71
197.093	-226.54
197.312	-181.18
197.531	-459.68
197.75	-186.38
197.969	-226.64
198.188	-7727.06
198.407	324.84
198.625	330.86
198.844	358.06
199.063	283.4
199.282	346.85
199.501	236.05
199.719	215.25
199.938	130.23
200.157	184.91
200.376	230.16
200.594	239.7
200.813	1244.83
201.032	-618.78
201.251	-24390
201.469	-1477.28
201.688	-212.04
201.907	-166.85
202.125	-170.01
202.344	-54.08
202.563	-601.71
202.781	-224.4
203	-241.28
203.218	-45.71
203.437	-8.84
203.656	-45.78
203.874	-71.47
204.093	-61.35
204.311	-41.19
204.53	-16.49
204.748	-46.29
204.967	0.81
205.185	0.55
205.404	17.91
205.622	-5.36
205.841	-53.12
206.059	-31.56
206.278	-8.44
206.496	-18.04
206.715	-33.1
206.933	-112.67
207.151	-27.05
207.37	-25.24
207.588	36.1
207.806	36.88
208.025	18.28
208.243	39.96
208.461	191.3
208.68	57.8
208.898	101.52
209.116	38.26
209.335	-16.93
209.553	26.88
209.771	77.07
209.989	164.63
210.208	174.03
210.426	179.53
210.644	756.52
210.862	868.65
211.081	647.34
211.299	-63185.71
211.517	-129
211.735	-106.55
211.953	-54.41
212.171	-87.34
212.39	-233.07
212.608	-154.01
212.826	-150.64
213.044	-71.2
213.262	-77.61
213.48	-43.48
213.698	-39.66
213.916	-46.77
214.134	-57.08
214.352	-70.29
214.57	-53.2
214.788	-26.26
215.006	-18.36
215.224	-8.67
215.442	-17.76
215.66	-4.9
215.878	15.86
216.096	16
216.314	17.28
216.532	6.47
216.75	10.12
216.968	22.79
217.185	30.69
217.403	0.39
217.621	-68.43
217.839	-81.96
218.057	-250.54
218.275	-498.44
218.492	-180.98
218.71	-1888.25
218.928	416.46
219.146	204.49
219.363	148.59
219.581	164
219.799	216.82
220.017	154.49
220.234	82.47
220.452	239.13
220.67	484.43
220.887	292.59
221.105	298.17
221.323	350.35
221.54	352.26
221.758	257.75
221.976	217.21
222.193	331.06
222.411	399.51
222.629	200.48
222.846	108.05
223.064	127.82
223.281	104.56
223.499	119.37
223.716	161.39
223.934	165.55
224.151	145.21
224.369	136.72
224.586	76.1
224.804	81.95
225.021	108.41
225.239	140.74
225.456	78.19
225.674	107.08
225.891	81.49
226.108	69.3
226.326	56.16
226.543	39.03
226.76	43.57
226.978	44.15
227.195	38.62
227.413	30.44
227.63	29.46
227.847	35.03
228.064	23.99
228.282	15.55
228.499	14.75
228.716	11.8
228.934	15.76
229.151	16.25
229.368	16.67
229.585	15.41
229.802	17.73
230.02	18.04
230.237	16.64
230.454	20.16
230.671	24.94
230.888	26.37
231.105	25.87
231.323	23.61
231.54	18.14
231.757	16.34
231.974	21.35
232.191	17.93
232.408	21.46
232.625	17.61
232.842	14.07
233.059	0.85
233.276	3.18
233.493	18.11
233.71	16.19
233.927	33.75
234.144	42.1
234.361	43.94
234.578	49.16
234.795	47.1
235.012	48.22
235.229	54.06
235.446	60.32
235.663	52.47
235.879	44.76
236.096	50.65
236.313	46.41
236.53	43.58
236.747	35.97
236.964	36.98
237.181	36.18
237.397	32.61
237.614	26.98
237.831	31.75
238.048	35.72
238.264	38.11
238.481	38.15
238.698	33.46
238.915	34.4
239.131	37.32
239.348	32.19
239.565	34.26
239.781	32.39
239.998	31.1
240.215	24.97
240.431	25.69
240.648	25.12
240.865	22.85
241.081	22.77
241.298	21.17
241.514	19.74
241.731	18.08
241.947	16.33
242.164	17.29
242.38	19.48
242.597	19.48
242.814	18.07
243.03	16.04
243.246	16.34
243.463	16.05
243.679	17.63
243.896	17.38
244.112	19.18
244.329	18.8
244.545	19.4
244.762	17.47
244.978	19.76
245.194	17.58
245.411	18.48
245.627	20.21
245.843	21.35
246.06	17.99
246.276	18.39
246.492	17.83
246.709	17.55
246.925	16.36
247.141	15.66
247.357	14.77
247.574	15.13
247.79	15.3
248.006	14.3
248.222	13.35
248.439	14.3
248.655	13.02
248.871	11.67
249.087	11.45
249.303	13.16
249.519	12.77
249.736	12.04
249.952	13.05
250.168	14.69
250.384	14.67
250.6	14.93
250.816	13.57
251.032	18.21
251.248	19.04
251.464	20.01
251.68	18.99
251.896	18.29
252.112	19.03
252.328	18.61
252.544	16.42
252.76	16.72
252.976	15.99
253.192	18.35
253.408	16.14
253.624	16.17
253.84	17.36
254.056	18.13
254.272	19.11
254.487	20.16
254.703	17.56
254.919	17.14
255.135	16.9
255.351	20.53
255.567	13.76
255.782	15.34
255.998	16.87
256.214	11.94
256.43	10.36
256.646	11.76
256.861	7.71
257.077	12.39
257.293	9.97
257.508	9.87
257.724	7.69
257.94	9.34
258.155	7.13
258.371	5.67
258.587	7.49
258.802	8.24
259.018	8.49
259.234	9.75
259.449	8.81
259.665	10.75
259.88	11.15
260.096	11.06
260.312	11.26
260.527	11.7
260.743	12.37
260.958	11.86
261.174	11.13
261.389	10.9
261.605	10.39
261.82	11.64
262.036	10.78
262.251	10.1
262.466	11.25
262.682	11.39
262.897	12.1
263.113	13
263.328	14.21
263.543	13.37
263.759	11.4
263.974	12.75
264.189	11.37
264.405	10.45
264.62	12.41
264.835	11.28
265.051	9.89
265.266	11.35
265.481	9.92
265.696	8.58
265.912	10.34
266.127	11.85
266.342	10.93
266.557	12.19
266.773	14.59
266.988	13.21
267.203	13.23
267.418	13.84
267.633	12.41
267.848	14.14
268.064	14.39
268.279	14.72
268.494	14.41
268.709	14.66
268.924	12.99
269.139	11.42
269.354	10.17
269.569	10.76
269.784	11.12
269.999	10.69
270.214	8.25
270.429	6.22
270.644	6.57
270.859	7.24
271.074	6.56
271.289	7.07
271.504	7.4
271.719	7.98
271.934	7.16
272.149	6.77
272.363	7.04
272.578	7.33
272.793	9.28
273.008	8.87
273.223	9.26
273.438	10.13
273.653	9.22
273.867	9.36
274.082	10.75
274.297	11.41
274.512	12.03
274.726	12.05
274.941	12.05
275.156	11.19
275.371	9.99
275.585	9.76
275.8	9.06
276.015	11.11
276.229	10.63
276.444	8.51
276.659	8.68
276.873	9.19
277.088	8.87
277.302	9.61
277.517	8.24
277.732	8.41
277.946	9.58
278.161	9.3
278.375	8.3
278.59	7.4
278.804	9.59
279.019	8.34
279.233	9.52
279.448	9.92
279.662	9.46
279.877	12.01
280.091	13.76
280.306	11.89
280.52	10.38
280.735	11.11
280.949	10.5
281.163	8.32
281.378	8.39
281.592	8.55
281.806	8.56
282.021	8.09
282.235	8.23
282.449	7.29
282.664	8.15
282.878	9.7
283.092	9.28
283.307	11.03
283.521	12.44
283.735	11.86
283.949	10.22
284.164	8.6
284.378	9.2
284.592	8.83
284.806	9.02
285.02	7.86
285.234	8.36
285.449	8.35
285.663	8.99
285.877	7.84
286.091	10.08
286.305	9.99
286.519	10.15
286.733	9.68
286.947	9.01
287.161	9.81
287.375	10.38
287.589	10.48
287.803	11.52
288.017	9.73
288.231	9.77
288.445	8.81
288.659	8.79
288.873	11.34
289.087	10.32
289.301	11.48
289.515	10.1
289.729	11.03
289.943	11.73
290.157	11.82
290.371	13.55
290.584	14.65
290.798	15.01
291.012	15.36
291.226	13.22
291.44	13.76
291.654	14.11
291.867	16.17
292.081	16.55
292.295	15.51
292.509	14.9
292.722	13.69
292.936	13.95
293.15	13.93
293.364	14.98
293.577	15.04
293.791	17.53
294.005	15
294.218	12.9
294.432	11.47
294.645	13.01
294.859	13.51
295.073	13.94
295.286	12.97
295.5	12.95
295.713	12.04
295.927	13.02
296.14	11.72
296.354	13.55
296.568	13.66
296.781	13.72
296.994	13.59
297.208	12.99
297.421	12.77
297.635	12.32
297.848	12.49
298.062	12.75
298.275	13.32
298.489	13.26
298.702	12.27
298.915	12.41
299.129	13.05
299.342	13.27
299.555	13.16
299.769	13.15
299.982	13.86
300.195	13.99
300.409	13.73
300.622	12.18
300.835	11.63
301.048	13.29
301.262	12.75
301.475	12.79
301.688	12.64
301.901	11.64
302.115	11.28
302.328	11.08
302.541	9.69
302.754	9.77
302.967	9.52
303.18	9.89
303.393	8.62
303.607	8.85
303.82	7.19
304.033	5.83
304.246	7.92
304.459	7.06
304.672	8.66
304.885	10.76
305.098	10.33
305.311	10.96
305.524	11.47
305.737	11.06
305.95	11.86
306.163	14.47
306.376	15.05
306.589	14.14
306.802	15.5
307.015	14.2
307.228	12.02
307.44	9.08
307.653	8.89
307.866	7.63
308.079	8.15
308.292	6.86
308.505	6.13
308.718	7.25
308.93	6
309.143	6.79
309.356	8.17
309.569	8.81
309.781	11.05
309.994	12.42
310.207	13.06
310.42	12.8
310.632	12.95
310.845	12.32
311.058	11.25
311.27	12.34
311.483	12.04
311.696	10.78
311.908	10.65
312.121	11.76
312.333	11.54
312.546	11.69
312.759	11.95
312.971	13.3
313.184	13.6
313.396	14.19
313.609	13.3
313.821	14.21
314.034	14.17
314.246	13.2
314.459	13.84
314.671	14
314.884	15.28
315.096	14.91
315.309	14.11
315.521	14.71
315.733	15.48
315.946	14.44
316.158	13.94
316.371	16
316.583	16.11
316.795	14.3
317.008	14.24
317.22	13.64
317.432	15.55
317.644	15.69
317.857	16.06
318.069	16.29
318.281	18.3
318.494	18.43
318.706	17
318.918	18.28
319.13	17.34
319.342	15.28
319.555	15.33
319.767	13.55
319.979	13.22
320.191	13.03
320.403	10.63
320.615	11.19
320.827	10.11
321.039	10.56
321.252	8.51
321.464	10.52
321.676	12.16
321.888	11.36
322.1	12.74
322.312	11.7
322.524	11.8
322.736	13.34
322.948	13.74
323.16	15.32
323.372	14.41
323.584	15.68
323.796	16.51
324.007	15.53
324.219	15.42
324.431	13.39
324.643	13.69
324.855	12.64
325.067	11.97
325.279	11.36
325.491	10.76
325.702	11.25
325.914	11.55
326.126	10.79
326.338	11.06
326.55	11.29
326.761	11.03
326.973	10.85
327.185	11.8
327.396	13.1
327.608	12.95
327.82	13.32
328.032	14.03
328.243	12.64
328.455	11.63
328.666	11.27
328.878	12.07
329.09	14.39
329.301	14.82
329.513	16.07
329.725	14.3
329.936	15.97
330.148	15.21
330.359	14.03
330.571	15.74
330.782	16.35
330.994	16.95
331.205	16.32
331.417	15.44
331.628	16.83
331.84	15.01
332.051	15.93
332.262	14.49
332.474	14.87
332.685	16.34
332.897	16.25
333.108	16.59
333.319	16.78
333.531	16.88
333.742	18.45
333.953	17.77
334.165	16.67
334.376	17.26
334.587	16.96
334.799	16.67
335.01	15.58
335.221	16.55
335.432	18
335.644	18.86
335.855	19.27
336.066	18.63
336.277	18.82
336.488	20.01
336.7	19.14
336.911	20.09
337.122	21.03
337.333	21.77
337.544	21.74
337.755	20.98
337.966	20.95
338.177	21.29
338.388	22.04
338.599	23.58
338.811	22.82
339.022	22.32
339.233	21.29
339.444	19.82
339.655	18.36
339.866	17.49
340.076	17.46
340.287	17.5
340.498	16.3
340.709	15.12
340.92	14.08
341.131	15.48
341.342	15.87
341.553	16.98
341.764	17.56
341.975	18.64
342.185	19.24
342.396	19.86
342.607	20.3
342.818	20.87
343.029	20.46
343.239	19.95
343.45	18.95
343.661	19.99
343.872	18.26
344.082	19.28
344.293	20.15
344.504	19.65
344.714	18.14
344.925	17.49
345.136	18.67
345.346	18.6
345.557	18.19
345.768	18.73
345.978	17.76
346.189	19.13
346.399	18.42
346.61	17.91
346.821	17.86
347.031	18.24
347.242	17.87
347.452	16.77
347.663	16.93
347.873	16.72
348.084	16.66
348.294	17.04
348.504	17.75
348.715	17.16
348.925	17.4
349.136	17.67
349.346	18.39
349.557	17.03
349.767	15.65
349.977	16.93
350.188	17.62
350.398	18.29
350.608	18.14
350.819	16.48
351.029	16.89
351.239	16.46
351.449	16.13
351.66	15.32
351.87	16.53
352.08	17.19
352.29	16.68
352.501	17.86
352.711	18.22
352.921	19.93
353.131	21.24
353.341	20
353.552	19.76
353.762	18.75
353.972	18.42
354.182	18.47
354.392	19.53
354.602	19.66
354.812	18.28
355.022	16.37
355.232	14.82
355.442	14.32
355.652	14.1
355.862	13.8
356.072	14.87
356.282	15.35
356.492	15.75
356.702	15.1
356.912	15.31
357.122	15.09
357.332	15.91
357.542	16.02
357.752	16.83
357.962	17.85
358.171	18.03
358.381	17.88
358.591	18.03
358.801	17.64
359.011	16.79
359.221	16.13
359.43	15.73
359.64	16
359.85	15.38
360.06	13.8
360.269	13.59
360.479	13.46
360.689	12.94
360.899	12.44
361.108	11.85
361.318	12.98
361.528	13.44
361.737	13.3
361.947	12.82
362.156	13.19
362.366	14.5
362.576	14.06
362.785	14.28
362.995	14.2
363.204	13.51
363.414	14.32
363.623	13.78
363.833	13.53
364.042	14.55
364.252	14.49
364.461	14.21
364.671	13.05
364.88	13.87
365.09	14.09
365.299	13.66
365.509	14.94
365.718	14.5
365.927	14.19
366.137	13.39
366.346	12.42
366.555	12.05
366.765	11.52
366.974	11.93
367.183	11.51
367.393	9.7
367.602	10.65
367.811	11
368.021	11.01
368.23	11.28
368.439	12.36
368.648	13.03
368.857	13.44
369.067	13.82
369.276	14.53
369.485	14.22
369.694	16.25
369.903	15.98
370.112	15.35
370.321	15.55
370.531	16.42
370.74	15.86
370.949	15.26
371.158	15.16
371.367	15.66
371.576	14.42
371.785	15.28
371.994	13.99
372.203	14.11
372.412	13.46
372.621	12.61
372.83	11.54
373.039	11.23
373.248	11.74
373.457	11.56
373.666	10.83
373.874	10.41
374.083	9.55
374.292	9.69
374.501	9.59
374.71	9.53
374.919	9.38
375.128	8.67
375.336	9.18
375.545	8.53
375.754	8.6
375.963	8.17
376.171	8.68
376.38	8.85
376.589	8.76
376.798	8.75
377.006	9.63
377.215	10.03
377.424	10.54
377.632	10.14
377.841	10.28
378.05	10.07
378.258	11.26
378.467	11.38
378.675	11
378.884	11.55
379.093	11.47
379.301	10.78
379.51	10.8
379.718	10.92
379.927	10.9
380.135	11.24
380.344	11.02
380.552	10.75
380.761	10.09
380.969	10.18
381.177	9.93
381.386	10
381.594	10.36
381.803	10.88
382.011	10.53
382.219	10.05
382.428	10.08
382.636	10.44
382.845	10.09
383.053	10.47
383.261	10.82
383.469	10.77
383.678	10.38
383.886	10.24
384.094	9.18
384.302	9.31
384.511	9.56
384.719	9.03
384.927	9.46
385.135	9.58
385.343	9.7
385.552	9.45
385.76	9.29
385.968	9.15
386.176	8.86
386.384	9.48
386.592	9.42
386.8	9.5
387.008	9.84
387.216	9.45
387.424	9.06
387.633	9
387.841	9.17
388.049	9.34
388.257	9.77
388.465	9.27
388.672	9.02
388.88	9.2
389.088	8.97
389.296	8.54
389.504	8.74
389.712	9.16
389.92	9.15
390.128	8.98
390.336	8.3
390.544	8.19
390.751	8.88
390.959	8.96
391.167	9.02
391.375	8.95
391.583	8.97
391.79	8.35
391.998	7.98
392.206	7.48
392.414	7.38
392.621	7.85
392.829	7.55
393.037	7.82
393.244	7.88
393.452	7.68
393.66	7.78
393.867	7.91
394.075	8.34
394.283	8.31
394.49	8.65
394.698	9.06
394.905	9
395.113	9.28
395.32	8.78
395.528	8.83
395.735	8.56
395.943	8.64
396.15	8.16
396.358	8.03
396.565	7.95
396.773	7.88
396.98	7.46
397.188	7.17
397.395	6.75
397.602	6.93
397.81	6.59
398.017	6.71
398.225	6.54
398.432	6.97
398.639	7.27
398.847	7.23
399.054	7.57
399.261	7.38
399.468	8.01
399.676	8.67
399.883	8.07
400.09	8.24
400.297	8.41
400.505	8.43
400.712	8.49
400.919	8.31
401.126	8.52
401.333	8.06
401.54	8.23
401.748	7.87
401.955	7.68
402.162	8.21
402.369	8.09
402.576	7.94
402.783	7.83
402.99	7.45
403.197	7.3
403.404	7.29
403.611	7.53
403.818	7.49
404.025	7.32
404.232	6.86
404.439	6.6
404.646	6.45
404.853	6.55
405.06	6.53
405.267	6.47
405.474	6.67
405.681	6.63
405.887	6.44
406.094	6.43
406.301	6.57
406.508	6.84
406.715	7.14
406.922	7.56
407.128	7.31
407.335	6.86
407.542	6.89
407.749	5.95
407.955	6
408.162	5.89
408.369	6.16
408.575	5.78
408.782	5.91
408.989	5.55
409.195	5.36
409.402	5.26
409.609	5.97
409.815	6.26
410.022	6.82
410.228	6.75
410.435	6.72
410.642	6.3
410.848	6.58
411.055	6.7
411.261	7.28
411.468	7.23
411.674	7.67
411.881	7.34
412.087	6.95
412.294	7.02
412.5	6.96
412.706	7.16
412.913	7.41
413.119	7.54
413.326	7.17
413.532	6.97
413.738	7.06
413.945	6.91
414.151	7.11
414.357	7.6
414.564	7.78
414.77	7.64
414.976	7.61
415.182	7.65
415.389	7.73
415.595	7.85
415.801	7.5
416.007	7.33
416.214	7.43
416.42	7.34
416.626	7.31
416.832	7.16
417.038	7.09
417.244	7.18
417.45	7.16
417.657	7.01
417.863	6.87
418.069	6.96
418.275	6.87
418.481	6.82
418.687	6.87
418.893	6.9
419.099	6.89
419.305	7.06
419.511	6.95
419.717	6.92
419.923	7
420.129	7.14
420.335	7.18
420.541	7.35
420.746	7.45
420.952	7.44
421.158	7.41
421.364	7.39
421.57	7.34
421.776	7.3
421.982	7.41
422.187	7.32
422.393	7.21
422.599	7.26
422.805	7.2
423.01	7.07
423.216	7.05
423.422	6.94
423.628	6.97
423.833	6.98
424.039	6.96
424.245	6.93
424.45	6.92
424.656	7.07
424.862	6.92
425.067	6.82
425.273	6.88
425.478	6.88
425.684	6.82
425.889	6.83
426.095	6.81
426.301	6.93
426.506	6.67
426.712	6.56
426.917	6.56
427.123	6.56
427.328	6.64
427.533	6.67
427.739	6.69
427.944	6.64
428.15	6.45
428.355	6.39
428.561	6.52
428.766	6.57
428.971	6.65
429.177	6.35
429.382	6.38
429.587	6.46
429.793	6.18
429.998	6.14
430.203	6.31
430.408	6.68
430.614	6.92
430.819	6.47
431.024	6.46
431.229	6.57
431.434	6.79
431.64	6.72
431.845	6.91
432.05	7.01
432.255	7.07
432.46	7.17
432.665	6.81
432.87	6.65
433.076	6.9
433.281	6.99
433.486	7.01
433.691	7.01
433.896	7.17
434.101	6.99
434.306	6.81
434.511	6.61
434.716	6.63
434.921	6.72
435.126	6.58
435.331	6.4
435.535	6.63
435.74	6.78
435.945	6.49
436.15	6.42
436.355	6.49
436.56	6.6
436.765	6.84
436.97	6.93
437.174	7.07
437.379	7.22
437.584	7.58
437.789	7.48
437.993	7.37
438.198	7.54
438.403	7.58
438.608	7.47
438.812	7.54
439.017	7.42
439.222	7.23
439.426	7.31
439.631	7.32
439.836	7.15
440.04	7.09
440.245	7.11
440.45	7.15
440.654	7.09
440.859	7.17
441.063	7.24
441.268	7.41
441.472	7.43
441.677	7.26
441.881	7.29
442.086	7.31
442.29	7.36
442.495	7.33
442.699	7.31
442.904	7.37
443.108	7.42
443.312	7.22
443.517	7.1
443.721	7.17
443.925	7.24
444.13	7.21
444.334	7.22
444.538	7.03
444.743	7.13
444.947	7.11
445.151	6.97
445.356	6.74
445.56	6.64
445.764	6.59
445.968	6.8
446.173	6.71
446.377	6.77
446.581	6.8
446.785	6.82
446.989	6.64
447.193	6.52
447.398	6.72
447.602	6.81
447.806	6.93
448.01	6.91
448.214	6.93
448.418	6.94
448.622	6.96
448.826	6.76
449.03	6.83
449.234	6.97
449.438	7.14
449.642	6.95
449.846	6.92
450.05	6.96
450.254	6.86
450.458	6.35
450.662	6.46
450.866	6.47
451.069	6.72
451.273	6.72
451.477	6.55
451.681	6.56
451.885	6.66
452.089	6.74
452.292	6.66
452.496	6.93
452.7	7.21
452.904	7.02
453.107	7.01
453.311	6.83
453.515	6.85
453.719	6.93
453.922	6.71
454.126	6.65
454.33	6.63
454.533	6.74
454.737	6.57
454.94	6.42
455.144	6.67
455.348	6.49
455.551	6.65
455.755	6.47
455.958	6.29
456.162	6.47
456.365	6.38
456.569	6.37
456.772	6.33
456.976	6.43
457.179	6.47
457.383	6.59
457.586	6.67
457.79	6.57
457.993	6.65
458.196	6.77
458.4	6.79
458.603	6.8
458.807	6.78
459.01	6.82
459.213	6.72
459.417	6.76
459.62	6.66
459.823	6.6
460.026	6.61
460.23	6.62
460.433	6.54
460.636	6.68
460.839	6.65
461.042	6.79
461.246	6.83
461.449	6.92
