Data from 2937862_Reflection_3.txt Node
Date: Wed Jul 15 15:22:32 EDT 2015
User: robert
Spectrometer: USB4E03001
Autoset integration time: false
Trigger mode: 4
Integration Time (sec): 1.000000E-1
Scans to average: 10
Electric dark correction enabled: true
Nonlinearity correction enabled: false
Boxcar width: 5
Stray light correction enabled: false
XAxis mode: Wavelengths
Stop averaging: false
Number of Pixels in Spectrum: 3648
>>>>>Begin Spectral Data<<<<<
177.566	112.57
177.785	-20.33
178.005	595.15
178.225	-617.28
178.445	403.69
178.665	182.96
178.885	122.63
179.105	-5.94
179.324	59.25
179.544	79.2
179.764	92.73
179.984	98.14
180.204	51.3
180.423	326.41
180.643	24.56
180.863	-111.59
181.083	113.96
181.302	96.34
181.522	94.12
181.742	94.18
181.961	76.84
182.181	58.14
182.401	90.71
182.621	52.35
182.84	11.46
183.06	41.8
183.279	70.65
183.499	58.91
183.719	53.76
183.938	92.85
184.158	84.45
184.377	63.42
184.597	78.1
184.816	100.08
185.036	135.74
185.256	169.46
185.475	122.33
185.695	91.47
185.914	75.36
186.134	88.26
186.353	79.24
186.572	117.83
186.792	239.28
187.011	-197.23
187.231	-1072.6
187.45	126.94
187.67	104.31
187.889	141.19
188.108	173.8
188.328	211.67
188.547	163.57
188.766	137.65
188.986	107.9
189.205	82.62
189.424	79.34
189.644	76.75
189.863	78.86
190.082	63.96
190.302	22.45
190.521	41.4
190.74	43.7
190.959	34.01
191.178	29.05
191.398	44.47
191.617	23.54
191.836	2.6
192.055	-75.3
192.274	-1.4
192.494	-1022.33
192.713	-15.92
192.932	-162.45
193.151	-89.21
193.37	67.17
193.589	90.94
193.808	188.53
194.027	-128.67
194.246	-220.35
194.465	-14.62
194.685	-45.81
194.904	-46.99
195.123	-114.03
195.342	-67.97
195.561	-348.96
195.78	-161.3
195.999	-176.27
196.218	-313.4
196.436	-1243.42
196.655	-176.77
196.874	-111.77
197.093	68.63
197.312	130.33
197.531	98.4
197.75	131.66
197.969	105.97
198.188	92.63
198.407	112.2
198.625	140.52
198.844	166.55
199.063	304.61
199.282	19885
199.501	208.23
199.719	143.89
199.938	368.41
200.157	241.62
200.376	95.01
200.594	64.75
200.813	92.95
201.032	89.1
201.251	76.13
201.469	63.96
201.688	35.97
201.907	51.24
202.125	65.75
202.344	58.44
202.563	49.22
202.781	69.27
203	77.36
203.218	75.42
203.437	67.16
203.656	79.8
203.874	128.13
204.093	107.5
204.311	55.97
204.53	34.45
204.748	-37.92
204.967	13.11
205.185	-25.76
205.404	-28.9
205.622	-90.86
205.841	29.1
206.059	-28.72
206.278	-220.91
206.496	111.75
206.715	324.5
206.933	117.63
207.151	136.49
207.37	219.53
207.588	178.32
207.806	-223.74
208.025	10405.26
208.243	669.97
208.461	-86.44
208.68	27.04
208.898	-19.55
209.116	60
209.335	82.31
209.553	74.61
209.771	70.29
209.989	81.05
210.208	88.4
210.426	80.51
210.644	140.89
210.862	121.75
211.081	53.41
211.299	68.61
211.517	55.1
211.735	47.61
211.953	34.7
212.171	41.23
212.39	14.63
212.608	12.34
212.826	33.7
213.044	42.32
213.262	81.97
213.48	123.25
213.698	121.26
213.916	56.91
214.134	36.1
214.352	151.44
214.57	133.42
214.788	68.81
215.006	102.63
215.224	125.67
215.442	138.3
215.66	84.13
215.878	99.05
216.096	84.97
216.314	95.51
216.532	78.63
216.75	62.15
216.968	38.43
217.185	52.72
217.403	16.44
217.621	33.26
217.839	26.75
218.057	29.22
218.275	13.17
218.492	24.11
218.71	28.5
218.928	45.83
219.146	26.2
219.363	29.89
219.581	-0.91
219.799	-8.05
220.017	-31.03
220.234	-25.7
220.452	-46.15
220.67	-3.69
220.887	21.1
221.105	9.97
221.323	8.28
221.54	8.02
221.758	10.09
221.976	22.76
222.193	32.81
222.411	40.47
222.629	32.72
222.846	45.27
223.064	60.91
223.281	53.52
223.499	54.67
223.716	50.37
223.934	77.87
224.151	54.89
224.369	35.69
224.586	40.11
224.804	23.6
225.021	44.16
225.239	-9.74
225.456	0.82
225.674	-5.06
225.891	16.42
226.108	11.83
226.326	-3.83
226.543	11.7
226.76	23.61
226.978	14.52
227.195	-5.81
227.413	-15.49
227.63	-5.44
227.847	-2.53
228.064	1.75
228.282	-2.69
228.499	-6.49
228.716	0.1
228.934	2.01
229.151	3.29
229.368	4.55
229.585	9.5
229.802	11.86
230.02	11.54
230.237	11.2
230.454	11.34
230.671	16.41
230.888	18.26
231.105	16.3
231.323	14.19
231.54	9.33
231.757	7.25
231.974	11.03
232.191	11.06
232.408	11.46
232.625	4.68
232.842	6.28
233.059	2.83
233.276	7.22
233.493	-0.73
233.71	3.54
233.927	9.06
234.144	12.68
234.361	7.92
234.578	7.25
234.795	8.67
235.012	22.08
235.229	18.65
235.446	18.58
235.663	11.53
235.879	14.01
236.096	13.62
236.313	12.37
236.53	6.8
236.747	3.67
236.964	-0.25
237.181	-1.07
237.397	-10.15
237.614	-9.43
237.831	-2.86
238.048	8.23
238.264	14.38
238.481	11.47
238.698	14.31
238.915	16.02
239.131	13.25
239.348	11.56
239.565	14.4
239.781	12.24
239.998	6.12
240.215	3.72
240.431	-5.47
240.648	-5.65
240.865	-3.79
241.081	-0.55
241.298	-0
241.514	4.87
241.731	5.8
241.947	5.04
242.164	4.19
242.38	6.86
242.597	8.86
242.814	8.88
243.03	10.7
243.246	12.46
243.463	11.01
243.679	13.7
243.896	11.34
244.112	9.86
244.329	10.64
244.545	11.5
244.762	12.69
244.978	10.17
245.194	10.65
245.411	7.27
245.627	5.72
245.843	6.34
246.06	3.51
246.276	5.12
246.492	7.66
246.709	6.05
246.925	5.31
247.141	4.84
247.357	4.31
247.574	4.36
247.79	5.54
248.006	5.84
248.222	4.51
248.439	4.82
248.655	4.81
248.871	3.82
249.087	3.27
249.303	3.56
249.519	2.42
249.736	3.79
249.952	4.82
250.168	1.76
250.384	0.87
250.6	1.66
250.816	3.78
251.032	-0.16
251.248	0.37
251.464	1.43
251.68	2.59
251.896	1.73
252.112	0.21
252.328	-2.13
252.544	1.32
252.76	-0.4
252.976	0.19
253.192	-3.99
253.408	-2.46
253.624	-3.21
253.84	-2.13
254.056	-2.75
254.272	-0.06
254.487	0.37
254.703	4.21
254.919	1.08
255.135	6.14
255.351	8.62
255.567	12.9
255.782	13.9
255.998	17.98
256.214	17.76
256.43	15.67
256.646	18.31
256.861	15.72
257.077	16.92
257.293	15.72
257.508	13.4
257.724	11.07
257.94	9.96
258.155	8.84
258.371	5.41
258.587	5.1
258.802	4.69
259.018	2.95
259.234	2.58
259.449	1.33
259.665	1.59
259.88	1.33
260.096	1.63
260.312	1.46
260.527	2.09
260.743	2.14
260.958	2.83
261.174	2.96
261.389	2.85
261.605	1.09
261.82	0.91
262.036	1.18
262.251	0.13
262.466	1.13
262.682	0.01
262.897	-1.04
263.113	-1.99
263.328	-2.47
263.543	-2.01
263.759	-4.23
263.974	-0.2
264.189	0.35
264.405	-1.05
264.62	-0.56
264.835	-2.43
265.051	1.29
265.266	0.35
265.481	-0.48
265.696	-1.94
265.912	-1.86
266.127	-0.27
266.342	2.98
266.557	2.85
266.773	3.69
266.988	4.17
267.203	4.74
267.418	4.95
267.633	5.54
267.848	6.21
268.064	5.93
268.279	6.49
268.494	7.88
268.709	6.64
268.924	7.39
269.139	7.36
269.354	6.21
269.569	5.55
269.784	3.8
269.999	3.47
270.214	4.6
270.429	4.73
270.644	4.81
270.859	4.07
271.074	3.84
271.289	2.2
271.504	2.31
271.719	2.85
271.934	2.38
272.149	2.14
272.363	1.07
272.578	0.05
272.793	-0.12
273.008	-0.09
273.223	-1.01
273.438	-0.36
273.653	0.82
273.867	-0.49
274.082	0.03
274.297	2.15
274.512	1.47
274.726	3.65
274.941	5.34
275.156	5.46
275.371	6.36
275.585	7.24
275.8	4.55
276.015	2.3
276.229	4.18
276.444	4.44
276.659	2.76
276.873	1.88
277.088	1.16
277.302	0.6
277.517	1.67
277.732	0.03
277.946	2.15
278.161	5.17
278.375	7.87
278.59	7.9
278.804	8.72
279.019	9.03
279.233	10.55
279.448	10.29
279.662	8.47
279.877	7.37
280.091	7.87
280.306	4.91
280.52	3.96
280.735	4.06
280.949	3.71
281.163	3.78
281.378	3.76
281.592	4.68
281.806	4.99
282.021	5.93
282.235	6.21
282.449	5.05
282.664	5.79
282.878	5.68
283.092	4.63
283.307	6.08
283.521	4.08
283.735	3.27
283.949	2.79
284.164	2.64
284.378	2.84
284.592	3.44
284.806	3.97
285.02	3.65
285.234	4.64
285.449	4.37
285.663	4.75
285.877	4.96
286.091	4.89
286.305	3.97
286.519	4.91
286.733	5.29
286.947	3.67
287.161	4.39
287.375	5.72
287.589	5.27
287.803	5.44
288.017	5.05
288.231	5.01
288.445	5.36
288.659	5.88
288.873	5.16
289.087	3.53
289.301	5.32
289.515	5.48
289.729	4.54
289.943	5.48
290.157	4.92
290.371	4.09
290.584	5.36
290.798	4.09
291.012	3.97
291.226	3.97
291.44	4.24
291.654	4.69
291.867	4.88
292.081	6.51
292.295	5.58
292.509	6.11
292.722	6.94
292.936	6.61
293.15	8.76
293.364	9.41
293.577	8.76
293.791	9.89
294.005	9.49
294.218	9.89
294.432	8.91
294.645	9.26
294.859	9.61
295.073	8.61
295.286	8.42
295.5	7.68
295.713	6.79
295.927	6.31
296.14	6.75
296.354	6.65
296.568	6.7
296.781	5.68
296.994	5.47
297.208	4.79
297.421	4.16
297.635	3.43
297.848	3.29
298.062	4.39
298.275	4.48
298.489	4.79
298.702	4.29
298.915	3.43
299.129	3.62
299.342	2.24
299.555	2.59
299.769	2.8
299.982	4.44
300.195	5.25
300.409	5.95
300.622	7.84
300.835	7.7
301.048	7.67
301.262	9.31
301.475	9.05
301.688	8.96
301.901	10.11
302.115	11.41
302.328	10.57
302.541	10.14
302.754	8.91
302.967	8.45
303.18	7.73
303.393	8.32
303.607	7.71
303.82	8.93
304.033	10.14
304.246	9.36
304.459	8.37
304.672	8.03
304.885	8.35
305.098	8.76
305.311	7.08
305.524	7.29
305.737	8.67
305.95	6.98
306.163	6.08
306.376	6.88
306.589	6.58
306.802	7.06
307.015	8.25
307.228	8.17
307.44	9.84
307.653	11.39
307.866	10.1
308.079	8.69
308.292	8.84
308.505	10.92
308.718	10.65
308.93	10.07
309.143	9.64
309.356	9.49
309.569	10.12
309.781	8.78
309.994	8.2
310.207	8.47
310.42	7.57
310.632	7.47
310.845	6.31
311.058	5.19
311.27	6.27
311.483	5.78
311.696	4.61
311.908	3.61
312.121	3.02
312.333	2.23
312.546	1.99
312.759	4.16
312.971	4.16
313.184	5.46
313.396	6.31
313.609	4.84
313.821	6.5
314.034	7.56
314.246	10.29
314.459	11.61
314.671	13.35
314.884	15.42
315.096	13.99
315.309	13.82
315.521	13.33
315.733	14.03
315.946	13.72
316.158	13.34
316.371	15.16
316.583	13.69
316.795	11.51
317.008	12.29
317.22	11.58
317.432	13
317.644	13
317.857	12.17
318.069	10.78
318.281	12.95
318.494	14.54
318.706	12.43
318.918	11.07
319.13	13.35
319.342	12
319.555	12.65
319.767	10.94
319.979	11.26
320.191	12.81
320.403	13.21
320.615	13.89
320.827	12.16
321.039	13.65
321.252	13.13
321.464	12.85
321.676	13.53
321.888	12.24
322.1	12.74
322.312	11.99
322.524	9.51
322.736	10.88
322.948	10.86
323.16	12.02
323.372	11.96
323.584	12
323.796	11.98
324.007	13.95
324.219	14.47
324.431	15.46
324.643	17.47
324.855	18.31
325.067	17.19
325.279	16.13
325.491	16.11
325.702	15.18
325.914	16.25
326.126	16.28
326.338	14.85
326.55	14.61
326.761	14.54
326.973	14.61
327.185	15.82
327.396	17.72
327.608	18.46
327.82	19.12
328.032	20.95
328.243	21.22
328.455	23.04
328.666	23.85
328.878	25.82
329.09	26.18
329.301	27.05
329.513	26.37
329.725	25.85
329.936	25.37
330.148	25.35
330.359	23.89
330.571	25.16
330.782	24.29
330.994	23.34
331.205	22.39
331.417	22.22
331.628	22.1
331.84	22.86
332.051	24.44
332.262	26.11
332.474	25.95
332.685	26.55
332.897	27.77
333.108	28.19
333.319	29.13
333.531	29.37
333.742	30.01
333.953	30.5
334.165	31.57
334.376	31.37
334.587	32.41
334.799	32.54
335.01	33.06
335.221	31.03
335.432	31
335.644	30.8
335.855	31.69
336.066	31.93
336.277	30.46
336.488	31.14
336.7	30.13
336.911	30.42
337.122	31.33
337.333	32.57
337.544	33.85
337.755	34.79
337.966	35.44
338.177	34.84
338.388	35.22
338.599	37.2
338.811	36.22
339.022	36.75
339.233	37.75
339.444	37.22
339.655	37.29
339.866	38.46
340.076	38.5
340.287	40.3
340.498	41.48
340.709	41.28
340.92	41.81
341.131	41.56
341.342	42.59
341.553	39.99
341.764	40.24
341.975	40.3
342.185	39.2
342.396	39.22
342.607	39.14
342.818	38.19
343.029	38.54
343.239	38.48
343.45	40.04
343.661	40.99
343.872	42.44
344.082	43.38
344.293	43.03
344.504	42.72
344.714	42.74
344.925	41.39
345.136	41.53
345.346	42.83
345.557	42.74
345.768	42.25
345.978	41.95
346.189	43.42
346.399	43.15
346.61	43.22
346.821	44.06
347.031	45.21
347.242	45.69
347.452	45.59
347.663	44.49
347.873	43.94
348.084	43.63
348.294	43.15
348.504	42.27
348.715	42.61
348.925	43.47
349.136	42.68
349.346	41.05
349.557	41.12
349.767	42.06
349.977	41.92
350.188	42.18
350.398	42.37
350.608	41.68
350.819	41.23
351.029	41.02
351.239	40.8
351.449	42.11
351.66	42.03
351.87	42.77
352.08	43.3
352.29	43.28
352.501	42.74
352.711	44.28
352.921	44.59
353.131	45
353.341	44.24
353.552	43.77
353.762	43.59
353.972	43.51
354.182	42.43
354.392	42.7
354.602	42.31
354.812	43.48
355.022	42.44
355.232	43.53
355.442	43.56
355.652	43.74
355.862	43.43
356.072	43.75
356.282	45.21
356.492	45.09
356.702	43.95
356.912	45.01
357.122	44.06
357.332	43.65
357.542	44.33
357.752	44.21
357.962	44.21
358.171	44.72
358.381	44.5
358.591	44.37
358.801	44.84
359.011	45.28
359.221	44.38
359.43	45.57
359.64	46.38
359.85	44.79
360.06	44.86
360.269	45.39
360.479	45.43
360.689	45.73
360.899	44.7
361.108	44.32
361.318	44.55
361.528	44.58
361.737	44.14
361.947	43.63
362.156	44.27
362.366	43.91
362.576	43.59
362.785	43.17
362.995	43.06
363.204	43.05
363.414	43.21
363.623	43.54
363.833	43.88
364.042	43.71
364.252	43.92
364.461	43.33
364.671	43.81
364.88	43.61
365.09	44.62
365.299	44.04
365.509	43.93
365.718	44.63
365.927	43.61
366.137	43.23
366.346	42.91
366.555	42.32
366.765	42.27
366.974	42.03
367.183	42.56
367.393	42.02
367.602	41.99
367.811	41.88
368.021	40.65
368.23	41.09
368.439	41.37
368.648	41.48
368.857	41.23
369.067	40.76
369.276	41.01
369.485	40.75
369.694	40.46
369.903	40.99
370.112	41.76
370.321	42.26
370.531	42.27
370.74	41.85
370.949	41.32
371.158	40.87
371.367	41.18
371.576	40.67
371.785	39.76
371.994	39.59
372.203	39.81
372.412	39.39
372.621	38.85
372.83	39.21
373.039	39.8
373.248	40.32
373.457	40.69
373.666	40.65
373.874	40.92
374.083	41.77
374.292	42
374.501	40.62
374.71	41.18
374.919	41.54
375.128	40.61
375.336	40.08
375.545	39.98
375.754	39.61
375.963	40.28
376.171	39.83
376.38	39.17
376.589	39.13
376.798	39.03
377.006	38.19
377.215	37.87
377.424	38.03
377.632	38.64
377.841	38.64
378.05	39.31
378.258	38
378.467	38.19
378.675	38.25
378.884	38.27
379.093	38.59
379.301	38.97
379.51	38.9
379.718	38.34
379.927	37.07
380.135	36.64
380.344	35.89
380.552	36.69
380.761	36.07
380.969	36.2
381.177	36
381.386	35.8
381.594	35.47
381.803	35.2
382.011	35.37
382.219	35.96
382.428	35.94
382.636	36.19
382.845	36.26
383.053	36.24
383.261	35.62
383.469	35.3
383.678	35.18
383.886	35.1
384.094	35.18
384.302	35.29
384.511	35.01
384.719	34.91
384.927	34.63
385.135	34.32
385.343	34.31
385.552	34.96
385.76	34.83
385.968	34.92
386.176	34.64
386.384	34.83
386.592	34.63
386.8	34.23
387.008	33.95
387.216	33.84
387.424	33.68
387.633	34.03
387.841	33.41
388.049	33.14
388.257	32.8
388.465	32.69
388.672	31.97
388.88	31.76
389.088	31.98
389.296	31.81
389.504	32.27
389.712	32.33
389.92	32.38
390.128	32.37
390.336	32.85
390.544	32.91
390.751	32.97
390.959	32.95
391.167	32.73
391.375	32.85
391.583	32.97
391.79	32.6
391.998	32.19
392.206	32.08
392.414	32.27
392.621	32.1
392.829	32.08
393.037	32.24
393.244	32.34
393.452	32.88
393.66	32.34
393.867	32.46
394.075	32.46
394.283	32.81
394.49	32.68
394.698	32.58
394.905	32.45
395.113	32.4
395.32	32.55
395.528	32.51
395.735	32.29
395.943	32.98
396.15	33.33
396.358	33.57
396.565	33.52
396.773	33.55
396.98	33.64
397.188	34.07
397.395	34.43
397.602	34.4
397.81	35.03
398.017	35.13
398.225	35.22
398.432	35.23
398.639	35.29
398.847	35.07
399.054	35.19
399.261	35.35
399.468	35.06
399.676	34.76
399.883	34.85
400.09	34.51
400.297	34.33
400.505	34.19
400.712	33.88
400.919	33.62
401.126	34.12
401.333	34.12
401.54	34.14
401.748	34.12
401.955	34.41
402.162	34.1
402.369	34.52
402.576	34.61
402.783	34.68
402.99	34.81
403.197	34.61
403.404	34.73
403.611	34.79
403.818	35.02
404.025	35.06
404.232	34.95
404.439	35.33
404.646	35.3
404.853	35.18
405.06	35.01
405.267	35.05
405.474	35.41
405.681	35.46
405.887	35.34
406.094	35.06
406.301	35.2
406.508	35.06
406.715	35.03
406.922	35.02
407.128	35.3
407.335	35.49
407.542	35.43
407.749	35.58
407.955	35.23
408.162	35.05
408.369	35.09
408.575	34.75
408.782	35.09
408.989	34.75
409.195	34.77
409.402	34.76
409.609	34.44
409.815	34.56
410.022	34.51
410.228	34.64
410.435	35.02
410.642	35.08
410.848	35.3
411.055	35.2
411.261	35.4
411.468	35.31
411.674	35.22
411.881	35.66
412.087	35.53
412.294	35.73
412.5	35.97
412.706	35.77
412.913	35.83
413.119	35.71
413.326	35.67
413.532	35.43
413.738	35.36
413.945	35.16
414.151	35.12
414.357	35.12
414.564	34.88
414.77	34.7
414.976	34.75
415.182	34.8
415.389	34.92
415.595	35.06
415.801	35.34
416.007	35.32
416.214	35.72
416.42	35.52
416.626	35.47
416.832	35.38
417.038	35.3
417.244	35
417.45	34.83
417.657	35.02
417.863	34.86
418.069	34.89
418.275	34.84
418.481	34.49
418.687	34.33
418.893	34.15
419.099	34.3
419.305	34.12
419.511	34.37
419.717	34.44
419.923	34.2
420.129	34.12
420.335	33.99
420.541	33.81
420.746	33.93
420.952	34.07
421.158	34.2
421.364	34.15
421.57	34.28
421.776	34.12
421.982	34.09
422.187	34.16
422.393	34.09
422.599	34.05
422.805	34.27
423.01	34.26
423.216	34.22
423.422	34.12
423.628	33.99
423.833	33.95
424.039	33.86
424.245	33.77
424.45	33.58
424.656	33.68
424.862	33.69
425.067	33.69
425.273	33.62
425.478	33.47
425.684	33.34
425.889	33.29
426.095	33.21
426.301	33.27
426.506	33.1
426.712	33.27
426.917	33.25
427.123	33.08
427.328	32.86
427.533	32.7
427.739	32.75
427.944	32.82
428.15	32.75
428.355	32.59
428.561	32.86
428.766	33.04
428.971	33.13
429.177	33.08
429.382	33.13
429.587	33.18
429.793	33.16
429.998	33.24
430.203	33.44
430.408	33.57
430.614	33.54
430.819	33.27
431.024	33.44
431.229	33.26
431.434	33.33
431.64	33.26
431.845	33.1
432.05	33.18
432.255	33.08
432.46	32.97
432.665	33.03
432.87	33.26
433.076	33.33
433.281	33.21
433.486	33.33
433.691	33.25
433.896	33.22
434.101	33.26
434.306	33.19
434.511	33.34
434.716	33.48
434.921	33.34
435.126	33.27
435.331	33.23
435.535	33.26
435.74	32.97
435.945	32.97
436.15	33.02
436.355	33.17
436.56	33.45
436.765	33.32
436.97	33
437.174	32.96
437.379	32.73
437.584	32.54
437.789	32.44
437.993	32.76
438.198	32.81
438.403	33.05
438.608	33.01
438.812	32.78
439.017	32.65
439.222	32.79
439.426	32.72
439.631	32.88
439.836	32.95
440.04	33.01
440.245	32.94
440.45	32.86
440.654	32.74
440.859	32.8
441.063	32.88
441.268	32.89
441.472	32.95
441.677	33.13
441.881	32.93
442.086	33.06
442.29	32.93
442.495	32.78
442.699	32.6
442.904	32.46
443.108	32.36
443.312	32.24
443.517	32.33
443.721	32.23
443.925	32.13
444.13	32.27
444.334	32.15
444.538	32.14
444.743	32.15
444.947	32.41
445.151	32.6
445.356	32.46
445.56	32.57
445.764	32.48
445.968	32.56
446.173	32.55
446.377	32.45
446.581	32.46
446.785	32.58
446.989	32.64
447.193	32.53
447.398	32.35
447.602	32.38
447.806	32.25
448.01	32.28
448.214	32.19
448.418	32.12
448.622	32.21
448.826	32.17
449.03	31.92
449.234	31.97
449.438	31.89
449.642	31.72
449.846	31.76
450.05	31.93
450.254	31.94
450.458	32.09
450.662	32.25
450.866	32.21
451.069	32.2
451.273	32.14
451.477	32.14
451.681	32.35
451.885	32.56
452.089	32.56
452.292	32.42
452.496	32.56
452.7	32.46
452.904	32.18
453.107	32
453.311	32.07
453.515	32.26
453.719	32.1
453.922	31.93
454.126	31.8
454.33	31.7
454.533	31.74
454.737	31.54
454.94	31.38
455.144	31.65
455.348	31.89
455.551	32.05
455.755	31.97
455.958	31.93
456.162	31.86
456.365	31.9
456.569	31.83
456.772	31.78
456.976	31.86
457.179	31.92
457.383	31.78
457.586	31.73
457.79	31.71
457.993	31.82
458.196	31.86
458.4	32.05
458.603	32.04
458.807	31.95
459.01	31.98
459.213	31.91
459.417	31.83
459.62	31.83
459.823	31.83
460.026	31.81
460.23	31.85
