Data from 2937840_Reflection_1.txt Node
Date: Wed Jul 15 16:19:47 EDT 2015
User: robert
Spectrometer: USB4E03001
Autoset integration time: false
Trigger mode: 4
Integration Time (sec): 1.000000E-1
Scans to average: 10
Electric dark correction enabled: true
Nonlinearity correction enabled: false
Boxcar width: 5
Stray light correction enabled: false
XAxis mode: Wavelengths
Stop averaging: false
Number of Pixels in Spectrum: 3648
>>>>>Begin Spectral Data<<<<<
177.566	25.55
177.785	-83.12
178.005	197.3
178.225	477.17
178.445	368.24
178.665	520.67
178.885	75.96
179.105	-59.25
179.324	-116.79
179.544	-4860.94
179.764	825.41
179.984	434.29
180.204	211.51
180.423	138.73
180.643	162.14
180.863	336.72
181.083	510.54
181.302	416.22
181.522	382.62
181.742	291.81
181.961	416.91
182.181	21633.33
182.401	452.12
182.621	293.42
182.84	2239.83
183.06	231.01
183.279	73.7
183.499	63.63
183.719	9.6
183.938	39.54
184.158	35.78
184.377	30.28
184.597	20.24
184.816	14.64
185.036	12.93
185.256	14.46
185.475	-28.11
185.695	-42.04
185.914	-60.01
186.134	-21.83
186.353	-2907.59
186.572	-113.34
186.792	50.34
187.011	112.09
187.231	249.54
187.45	129.92
187.67	94.38
187.889	33.92
188.108	50.49
188.328	50.53
188.547	-19
188.766	-19.8
188.986	-73.32
189.205	364.01
189.424	285.49
189.644	409.32
189.863	359.22
190.082	293.74
190.302	169.69
190.521	188.86
190.74	124.06
190.959	99.89
191.178	72.76
191.398	82.9
191.617	1306.06
191.836	-1277.42
192.055	246.13
192.274	643.3
192.494	1014.17
192.713	1879.08
192.932	-92.52
193.151	-23.11
193.37	-122.19
193.589	-7.44
193.808	-1186.34
194.027	-83.76
194.246	-27.19
194.465	21.28
194.685	3942.5
194.904	491.52
195.123	-510.68
195.342	1345.45
195.561	140.08
195.78	129.43
195.999	191.13
196.218	-4663.16
196.436	141.61
196.655	166.33
196.874	483.7
197.093	9596.3
197.312	-263.02
197.531	82.47
197.75	107.17
197.969	127.95
198.188	132.83
198.407	87.61
198.625	60.96
198.844	48.48
199.063	47.5
199.282	67.4
199.501	80.59
199.719	67.25
199.938	73.88
200.157	58.28
200.376	62.31
200.594	108.32
200.813	-343.14
201.032	-101.88
201.251	-206.5
201.469	-412.27
201.688	-210.37
201.907	17.65
202.125	152.09
202.344	-20.17
202.563	-71.96
202.781	-5268
203	86.08
203.218	259.22
203.437	298.92
203.656	211.58
203.874	153.54
204.093	123.8
204.311	82.08
204.53	33.45
204.748	63.65
204.967	-245.81
205.185	73.03
205.404	38.72
205.622	69.19
205.841	90.93
206.059	89.61
206.278	76.63
206.496	79.27
206.715	50.7
206.933	57.85
207.151	67.43
207.37	82.98
207.588	53.41
207.806	60.44
208.025	47.34
208.243	6.86
208.461	0.07
208.68	5.62
208.898	30.95
209.116	33.5
209.335	15.5
209.553	2.93
209.771	-19.62
209.989	-34.94
210.208	-45.25
210.426	-44.74
210.644	-28.7
210.862	-37.73
211.081	-25.09
211.299	-54.47
211.517	-74.29
211.735	-822
211.953	-1182.94
212.171	60.6
212.39	9.33
212.608	697.46
212.826	-628.94
213.044	-8.94
213.262	-1.69
213.48	-180.75
213.698	2175.77
213.916	-219.34
214.134	-41.3
214.352	-76.84
214.57	-334.29
214.788	317.58
215.006	264.37
215.224	-577.85
215.442	-333.7
215.66	111.82
215.878	6.26
216.096	18.1
216.314	-85.45
216.532	-29.56
216.75	-15.75
216.968	1090.99
217.185	124.26
217.403	136.77
217.621	-126.19
217.839	62.49
218.057	57.62
218.275	15.86
218.492	696.49
218.71	278.92
218.928	203.99
219.146	160.64
219.363	139.84
219.581	99.06
219.799	82.54
220.017	91.12
220.234	95.57
220.452	80.25
220.67	51.63
220.887	24.16
221.105	48.55
221.323	41.51
221.54	25.94
221.758	-16.8
221.976	7.63
222.193	-35.84
222.411	40.88
222.629	24.11
222.846	37.3
223.064	82.79
223.281	112.06
223.499	48.22
223.716	47.7
223.934	61.26
224.151	63.76
224.369	99.12
224.586	106.45
224.804	101.59
225.021	93
225.239	73.33
225.456	51.38
225.674	44.38
225.891	59.08
226.108	45.74
226.326	20.27
226.543	28.82
226.76	14.38
226.978	2.63
227.195	5.73
227.413	12.94
227.63	17.84
227.847	23.52
228.064	23.79
228.282	29.04
228.499	27.33
228.716	27.21
228.934	23.96
229.151	26.28
229.368	25.11
229.585	25.32
229.802	27.31
230.02	28.44
230.237	25.94
230.454	24.26
230.671	20.56
230.888	21.37
231.105	21.38
231.323	20.12
231.54	20.45
231.757	23.61
231.974	21.71
232.191	18.21
232.408	15.31
232.625	19.36
232.842	22.21
233.059	23.71
233.276	22.03
233.493	22.74
233.71	33.3
233.927	29.64
234.144	28.8
234.361	25.93
234.578	24.23
234.795	28.31
235.012	27.08
235.229	30.21
235.446	24.04
235.663	22.64
235.879	24.45
236.096	25.96
236.313	25.5
236.53	29.33
236.747	30.23
236.964	34.82
237.181	35.15
237.397	35.8
237.614	32.89
237.831	41.65
238.048	41.07
238.264	43.27
238.481	38.07
238.698	39.36
238.915	33.75
239.131	37.08
239.348	37.58
239.565	37.95
239.781	31.52
239.998	29.55
240.215	26.93
240.431	28.99
240.648	27.72
240.865	27.86
241.081	26.45
241.298	26.25
241.514	25
241.731	23.14
241.947	20.45
242.164	20.49
242.38	18.26
242.597	17.2
242.814	16.87
243.03	18.03
243.246	17.39
243.463	17.05
243.679	16.62
243.896	16.96
244.112	17.87
244.329	17.01
244.545	19.21
244.762	22.44
244.978	22.76
245.194	21.05
245.411	16.51
245.627	18.57
245.843	18.34
246.06	19.55
246.276	19.36
246.492	17.2
246.709	18.06
246.925	17.13
247.141	16.47
247.357	16.8
247.574	16.52
247.79	16.37
248.006	15.32
248.222	15.46
248.439	16.53
248.655	15.58
248.871	16.35
249.087	15.45
249.303	15.52
249.519	14.81
249.736	14.39
249.952	14.79
250.168	16.28
250.384	15.67
250.6	16.74
250.816	12.99
251.032	12.69
251.248	13.08
251.464	14.7
251.68	14.97
251.896	14.16
252.112	12.93
252.328	13.12
252.544	13.92
252.76	14.43
252.976	14.8
253.192	14.87
253.408	14.85
253.624	14.94
253.84	17.19
254.056	19.56
254.272	19.7
254.487	20.6
254.703	23.39
254.919	24.4
255.135	24.59
255.351	20.81
255.567	19.58
255.782	22.83
255.998	20.46
256.214	17.68
256.43	14.8
256.646	14.65
256.861	15.81
257.077	16.13
257.293	15.45
257.508	15.86
257.724	16.52
257.94	18.84
258.155	18.05
258.371	18.31
258.587	17.14
258.802	16.02
259.018	17.09
259.234	16.7
259.449	15.85
259.665	14.56
259.88	14.73
260.096	14.42
260.312	13.25
260.527	12.46
260.743	13.14
260.958	13.22
261.174	12.93
261.389	12.66
261.605	13.05
261.82	12.11
262.036	14.51
262.251	13.54
262.466	15.43
262.682	16.05
262.897	16.93
263.113	15.29
263.328	16
263.543	17.65
263.759	18.14
263.974	16.38
264.189	17.8
264.405	14.55
264.62	15.7
264.835	14.51
265.051	13.73
265.266	12.02
265.481	12.01
265.696	11.89
265.912	11.26
266.127	9.56
266.342	11.08
266.557	9.15
266.773	9.16
266.988	8.46
267.203	7.41
267.418	7.96
267.633	6.47
267.848	6.16
268.064	5.18
268.279	5.01
268.494	7.28
268.709	5.06
268.924	7.49
269.139	7.34
269.354	9.07
269.569	7.82
269.784	7.88
269.999	10.29
270.214	10.31
270.429	11.95
270.644	10.61
270.859	11.17
271.074	12.13
271.289	11.93
271.504	12.09
271.719	12.16
271.934	12.76
272.149	13.47
272.363	12.87
272.578	12.76
272.793	11.57
273.008	12.75
273.223	12.37
273.438	12.57
273.653	12.34
273.867	12.74
274.082	11.67
274.297	12.28
274.512	11.02
274.726	12.83
274.941	12.4
275.156	12.25
275.371	11.67
275.585	10.25
275.8	10.39
276.015	9.84
276.229	9.97
276.444	8.68
276.659	9.86
276.873	10.92
277.088	9.33
277.302	10.35
277.517	11.2
277.732	11.27
277.946	10.83
278.161	12.31
278.375	13.38
278.59	12.78
278.804	11.89
279.019	8.44
279.233	6.95
279.448	8.16
279.662	9.3
279.877	10.61
280.091	10.33
280.306	11.13
280.52	8.79
280.735	7.99
280.949	7.46
281.163	10.13
281.378	12.78
281.592	13.87
281.806	13.31
282.021	11.98
282.235	11.02
282.449	10.14
282.664	9.56
282.878	8.95
283.092	9.01
283.307	9.65
283.521	9.22
283.735	8.45
283.949	8.3
284.164	9.7
284.378	11.17
284.592	10.46
284.806	11.66
285.02	12.45
285.234	13.35
285.449	14.31
285.663	15.91
285.877	15.27
286.091	14.75
286.305	15.33
286.519	14.8
286.733	15.03
286.947	15.46
287.161	15.06
287.375	14.56
287.589	14.51
287.803	13.08
288.017	11.06
288.231	11.05
288.445	10.53
288.659	9.93
288.873	8.74
289.087	9.2
289.301	9.44
289.515	10.18
289.729	8.38
289.943	9.7
290.157	10.51
290.371	11.54
290.584	12.3
290.798	12.79
291.012	11.72
291.226	12.62
291.44	11.14
291.654	12.15
291.867	12.23
292.081	14.49
292.295	15.26
292.509	15.93
292.722	15.44
292.936	15.06
293.15	16.07
293.364	17.94
293.577	16.84
293.791	16.89
294.005	15.25
294.218	13.14
294.432	13
294.645	10.42
294.859	9.31
295.073	8.77
295.286	7.94
295.5	6.55
295.713	5.43
295.927	5.2
296.14	5.44
296.354	6.92
296.568	8.92
296.781	8.61
296.994	9.81
297.208	11.42
297.421	11.39
297.635	12.74
297.848	13.45
298.062	14.16
298.275	15.65
298.489	15.27
298.702	14.38
298.915	13.9
299.129	15.46
299.342	15.01
299.555	13.37
299.769	13.25
299.982	12.77
300.195	13.52
300.409	14.52
300.622	13.12
300.835	14.31
301.048	15.2
301.262	14
301.475	12.03
301.688	11.19
301.901	12.57
302.115	14.15
302.328	13.89
302.541	12.23
302.754	11.96
302.967	14.58
303.18	12.91
303.393	10.99
303.607	11.2
303.82	12.23
304.033	13.57
304.246	13.08
304.459	12.85
304.672	12.29
304.885	13.48
305.098	12
305.311	11.06
305.524	10.81
305.737	12.74
305.95	12.69
306.163	12.59
306.376	12.58
306.589	12.78
306.802	13.01
307.015	14.04
307.228	13.04
307.44	12.75
307.653	11.23
307.866	11.94
308.079	10.76
308.292	12.85
308.505	12.16
308.718	11.76
308.93	11.03
309.143	10.64
309.356	10.73
309.569	10.99
309.781	10.41
309.994	10.97
310.207	10.89
310.42	12.2
310.632	12.63
310.845	14.11
311.058	13.42
311.27	15.17
311.483	16.47
311.696	17.18
311.908	17.14
312.121	18.75
312.333	18.23
312.546	18.7
312.759	17.86
312.971	17.35
313.184	15.24
313.396	16.77
313.609	14.03
313.821	13.1
314.034	11.38
314.246	12.43
314.459	12.08
314.671	13.72
314.884	14.8
315.096	16.44
315.309	16.75
315.521	16.92
315.733	16.02
315.946	17.48
316.158	15.36
316.371	16.66
316.583	16.73
316.795	15.68
317.008	13.68
317.22	13.04
317.432	11.47
317.644	9.98
317.857	10.61
318.069	10.2
318.281	11.32
318.494	13.42
318.706	11.92
318.918	11.76
319.13	10.68
319.342	12.92
319.555	13.84
319.767	13.31
319.979	16.94
320.191	18.97
320.403	18.71
320.615	17.73
320.827	16.06
321.039	17.44
321.252	15.35
321.464	17.35
321.676	15.1
321.888	15.43
322.1	15.16
322.312	12.12
322.524	9.14
322.736	10.41
322.948	7.64
323.16	6.37
323.372	5.43
323.584	6.38
323.796	5.42
324.007	7.46
324.219	5.56
324.431	5.44
324.643	4.81
324.855	5.88
325.067	6.11
325.279	8.52
325.491	10.02
325.702	10.44
325.914	10.77
326.126	11.45
326.338	11.04
326.55	12.67
326.761	14.09
326.973	15.22
327.185	15.15
327.396	15.23
327.608	14.61
327.82	15.73
328.032	15.24
328.243	15.81
328.455	15.67
328.666	15.24
328.878	15.36
329.09	14.78
329.301	15.18
329.513	16.21
329.725	15.78
329.936	16.56
330.148	16.59
330.359	17.79
330.571	18.27
330.782	19.76
330.994	18.6
331.205	16.75
331.417	17.59
331.628	16.1
331.84	15.15
332.051	14.96
332.262	16.08
332.474	15.08
332.685	13.64
332.897	13.07
333.108	13.55
333.319	14.48
333.531	16.17
333.742	16.13
333.953	17.43
334.165	17.58
334.376	19.04
334.587	17.75
334.799	17.67
335.01	19.05
335.221	19.49
335.432	18.36
335.644	19.66
335.855	19
336.066	17.71
336.277	15.96
336.488	16.92
336.7	17.18
336.911	18.22
337.122	17.98
337.333	16.93
337.544	16.62
337.755	16.66
337.966	15.79
338.177	16.82
338.388	17.73
338.599	19.4
338.811	19.77
339.022	18.75
339.233	18.1
339.444	18.52
339.655	19.29
339.866	19.99
340.076	19.56
340.287	20
340.498	19.47
340.709	19.84
340.92	19.69
341.131	17.73
341.342	18.09
341.553	18.09
341.764	19.34
341.975	19.57
342.185	17.65
342.396	18.18
342.607	17.76
342.818	18.11
343.029	18.98
343.239	19.17
343.45	18.78
343.661	17.74
343.872	18.56
344.082	17.42
344.293	17.19
344.504	18.76
344.714	18.89
344.925	19.18
345.136	18.72
345.346	17.9
345.557	17.83
345.768	18.79
345.978	18.68
346.189	17.05
346.399	17.34
346.61	16.88
346.821	16.75
347.031	16.41
347.242	16.64
347.452	16.86
347.663	16.03
347.873	15.93
348.084	16.1
348.294	17.43
348.504	19.1
348.715	18.78
348.925	19.47
349.136	19.57
349.346	18.79
349.557	19.52
349.767	18.39
349.977	18.17
350.188	17.43
350.398	16.67
350.608	16.94
350.819	15.89
351.029	15.67
351.239	15.22
351.449	15.52
351.66	16.17
351.87	15.18
352.08	15.53
352.29	15.37
352.501	16.44
352.711	17.1
352.921	15.56
353.131	16.75
353.341	16.73
353.552	17.25
353.762	16.71
353.972	17.25
354.182	16.97
354.392	18
354.602	18.63
354.812	17.41
355.022	17.2
355.232	17.72
355.442	17.28
355.652	17.55
355.862	18.02
356.072	17.71
356.282	17.05
356.492	18.31
356.702	16.85
356.912	15.68
357.122	16.42
357.332	16.7
357.542	17.15
357.752	15.89
357.962	16.16
358.171	15.93
358.381	15.25
358.591	15.88
358.801	14.51
359.011	16.16
359.221	16.72
359.43	16.14
359.64	16.19
359.85	15.73
360.06	17.07
360.269	17.14
360.479	16.85
360.689	17.27
360.899	16.64
361.108	16.24
361.318	15.67
361.528	16.22
361.737	16.46
361.947	16.21
362.156	16.39
362.366	15.54
362.576	14.99
362.785	14.99
362.995	14.75
363.204	15.03
363.414	16.03
363.623	16.28
363.833	16.21
364.042	16.44
364.252	16.09
364.461	16.03
364.671	16.41
364.88	16.29
365.09	15.83
365.299	16.38
365.509	16.73
365.718	16.92
365.927	15.25
366.137	15.25
366.346	14.35
366.555	14.57
366.765	14.26
366.974	13.74
367.183	13.75
367.393	13.81
367.602	13.23
367.811	12.74
368.021	11.65
368.23	12.32
368.439	11.79
368.648	12.06
368.857	11.65
369.067	11.69
369.276	11.75
369.485	11.86
369.694	11.58
369.903	12.75
370.112	12.99
370.321	13.91
370.531	14.73
370.74	14.62
370.949	15.61
371.158	15.13
371.367	14.78
371.576	15.18
371.785	15.68
371.994	15.32
372.203	14.68
372.412	14.19
372.621	13.34
372.83	12.64
373.039	12.97
373.248	12.07
373.457	12.88
373.666	13.05
373.874	12.85
374.083	12.24
374.292	12.83
374.501	12.14
374.71	12.54
374.919	12.58
375.128	12.53
375.336	12.27
375.545	12.21
375.754	12.56
375.963	12.54
376.171	12.21
376.38	12.63
376.589	12.1
376.798	12.75
377.006	12.27
377.215	12.6
377.424	12.29
377.632	12.4
377.841	12.16
378.05	11.64
378.258	11.56
378.467	12.25
378.675	12.34
378.884	12.7
379.093	12.88
379.301	13.22
379.51	13.03
379.718	12.67
379.927	12.85
380.135	12.86
380.344	12.77
380.552	13.02
380.761	12.23
380.969	11.65
381.177	11.64
381.386	11.46
381.594	11.48
381.803	10.92
382.011	11.18
382.219	10.8
382.428	11.26
382.636	11.47
382.845	11.55
383.053	11.85
383.261	12.24
383.469	12.23
383.678	11.71
383.886	11.45
384.094	12.1
384.302	12.47
384.511	12.25
384.719	11.2
384.927	11.06
385.135	10.55
385.343	10.6
385.552	9.75
385.76	9.34
385.968	9.45
386.176	9.48
386.384	8.84
386.592	8.68
386.8	8.66
387.008	9.67
387.216	9.84
387.424	9.89
387.633	9.21
387.841	9.87
388.049	10.17
388.257	9.63
388.465	9.7
388.672	9.92
388.88	9.94
389.088	9.98
389.296	9.87
389.504	9.32
389.712	9.33
389.92	9.77
390.128	9.66
390.336	9.49
390.544	9.54
390.751	9.23
390.959	9.33
391.167	9.27
391.375	9.26
391.583	8.74
391.79	8.96
391.998	9.11
392.206	9.06
392.414	8.82
392.621	8.6
392.829	9.18
393.037	9.02
393.244	9.09
393.452	8.77
393.66	8.56
393.867	8.81
394.075	8.5
394.283	8.37
394.49	8.37
394.698	8.14
394.905	8.44
395.113	8.09
395.32	8.38
395.528	8.01
395.735	8.2
395.943	8.28
396.15	8.16
396.358	8.02
396.565	7.9
396.773	7.93
396.98	8.02
397.188	7.81
397.395	7.56
397.602	7.34
397.81	7.36
398.017	7.56
398.225	7.32
398.432	7.52
398.639	8.09
398.847	8.34
399.054	8.09
399.261	8.07
399.468	7.84
399.676	7.86
399.883	7.68
400.09	7.79
400.297	7.66
400.505	7.87
400.712	7.93
400.919	8.16
401.126	8.17
401.333	8.38
401.54	8.66
401.748	8.92
401.955	8.94
402.162	9.13
402.369	9.02
402.576	8.87
402.783	8.73
402.99	8.75
403.197	7.99
403.404	7.36
403.611	7.27
403.818	7.11
404.025	7.05
404.232	7.47
404.439	7.59
404.646	7.3
404.853	7.32
405.06	7.68
405.267	7.43
405.474	7.56
405.681	8.05
405.887	7.91
406.094	7.96
406.301	7.82
406.508	7.77
406.715	7.38
406.922	7.94
407.128	7.81
407.335	7.8
407.542	7.94
407.749	8.03
407.955	7.76
408.162	7.93
408.369	7.95
408.575	8.09
408.782	7.73
408.989	8.18
409.195	7.82
409.402	8.05
409.609	7.64
409.815	7.35
410.022	7.63
410.228	7.69
410.435	7.82
410.642	7.68
410.848	7.81
411.055	7.48
411.261	7.26
411.468	7.25
411.674	6.89
411.881	7.04
412.087	7.36
412.294	7.3
412.5	7.2
412.706	7.24
412.913	7.42
413.119	7.13
413.326	7.14
413.532	7.15
413.738	7.14
413.945	7.14
414.151	7.13
414.357	7.09
414.564	6.64
414.77	6.74
414.976	6.49
415.182	6.27
415.389	6.47
415.595	6.74
415.801	6.77
416.007	6.87
416.214	7
416.42	6.7
416.626	6.56
416.832	6.57
417.038	6.6
417.244	6.62
417.45	6.78
417.657	6.75
417.863	6.76
418.069	6.76
418.275	6.69
418.481	6.55
418.687	6.73
418.893	6.48
419.099	6.71
419.305	6.69
419.511	6.72
419.717	6.76
419.923	6.68
420.129	6.55
420.335	6.44
420.541	6.51
420.746	6.51
420.952	6.62
421.158	6.95
421.364	6.76
421.57	6.71
421.776	6.7
421.982	6.71
422.187	6.68
422.393	6.83
422.599	6.88
422.805	6.81
423.01	7.01
423.216	6.75
423.422	6.53
423.628	6.68
423.833	6.79
424.039	6.76
424.245	6.77
424.45	6.87
424.656	6.83
424.862	6.78
425.067	6.76
425.273	6.61
425.478	6.71
425.684	6.73
425.889	6.57
426.095	6.5
426.301	6.51
426.506	6.46
426.712	6.44
426.917	6.3
427.123	6.35
427.328	6.33
427.533	6.44
427.739	6.49
427.944	6.55
428.15	6.71
428.355	6.84
428.561	6.77
428.766	6.64
428.971	6.74
429.177	6.89
429.382	7.17
429.587	7.33
429.793	7.19
429.998	7.38
430.203	7.26
430.408	7.09
430.614	6.65
430.819	6.64
431.024	6.7
431.229	6.47
431.434	6.45
431.64	6.14
431.845	6.22
432.05	5.95
432.255	5.64
432.46	5.84
432.665	5.91
432.87	6.14
433.076	6.3
433.281	6.37
433.486	6.17
433.691	6.17
433.896	6.06
434.101	5.98
434.306	6.41
434.511	6.55
434.716	6.45
434.921	6.39
435.126	6.4
435.331	6.26
435.535	6.21
435.74	6.37
435.945	6.4
436.15	6.82
436.355	6.68
436.56	6.48
436.765	6.47
436.97	6.42
437.174	6.56
437.379	6.47
437.584	6.4
437.789	6.29
437.993	6.42
438.198	6.27
438.403	5.94
438.608	6.23
438.812	6.17
439.017	6.2
439.222	6.38
439.426	6.25
439.631	6.21
439.836	6.19
440.04	6.31
440.245	6.3
440.45	6.38
440.654	6.46
440.859	6.36
441.063	6.59
441.268	6.53
441.472	6.35
441.677	6.45
441.881	6.56
442.086	6.63
442.29	6.47
442.495	6.32
442.699	6.27
442.904	6.4
443.108	6.23
443.312	6.19
443.517	6.26
443.721	6.31
443.925	6.25
444.13	6.17
444.334	6.18
444.538	6.34
444.743	6.36
444.947	6.29
445.151	6.19
445.356	6.29
445.56	6.14
445.764	6.18
445.968	6.1
446.173	6.14
446.377	6.3
446.581	6.36
446.785	6.36
446.989	6.46
447.193	6.59
447.398	6.45
447.602	6.41
447.806	6.39
448.01	6.27
448.214	6.37
448.418	6.39
448.622	6.28
448.826	6.2
449.03	6.16
449.234	6.06
449.438	6.2
449.642	6.48
449.846	6.53
450.05	6.47
450.254	6.57
450.458	6.52
450.662	6.47
450.866	6.57
451.069	6.55
451.273	6.53
451.477	6.64
451.681	6.5
451.885	6.31
452.089	6.13
452.292	6.25
452.496	6.29
452.7	6.34
452.904	6.24
453.107	5.93
453.311	5.84
453.515	5.77
453.719	5.72
453.922	5.65
454.126	5.56
454.33	5.6
454.533	5.63
454.737	5.53
454.94	5.35
455.144	5.54
455.348	5.75
455.551	5.71
455.755	5.64
455.958	5.74
456.162	5.55
456.365	5.55
456.569	5.52
456.772	5.47
456.976	5.6
457.179	5.74
457.383	5.64
457.586	5.47
457.79	5.51
457.993	5.66
458.196	5.46
458.4	5.65
458.603	5.82
458.807	6.01
459.01	6
459.213	5.85
459.417	6.02
459.62	6.05
459.823	6.16
460.026	6.24
460.23	6.16
460.433	6.28
460.636	6.31
460.839	6.22
461.042	6.21
461.246	6.24
