Data from 2937826_Reflection_2.txt Node
Date: Wed Jul 15 17:02:22 EDT 2015
User: robert
Spectrometer: USB4E03001
Autoset integration time: false
Trigger mode: 4
Integration Time (sec): 1.000000E-1
Scans to average: 10
Electric dark correction enabled: true
Nonlinearity correction enabled: false
Boxcar width: 5
Stray light correction enabled: false
XAxis mode: Wavelengths
Stop averaging: false
Number of Pixels in Spectrum: 3648
>>>>>Begin Spectral Data<<<<<
177.566	36.58
177.785	24
178.005	46.65
178.225	28.17
178.445	59.52
178.665	53.76
178.885	107.06
179.105	10.7
179.324	12.51
179.544	19.63
179.764	46.01
179.984	45.06
180.204	49.51
180.423	49.88
180.643	43.57
180.863	64.72
181.083	76.54
181.302	88.6
181.522	93.12
181.742	95.75
181.961	91.28
182.181	123.89
182.401	116.85
182.621	133.15
182.84	146.59
183.06	152.78
183.279	177.37
183.499	159.06
183.719	132.44
183.938	184.68
184.158	210
184.377	267.48
184.597	253.04
184.816	322.59
185.036	315.97
185.256	1238.41
185.475	788.41
185.695	471.76
185.914	932.18
186.134	841.24
186.353	573.28
186.572	444.61
186.792	378.11
187.011	284.76
187.231	209.86
187.45	191.3
187.67	136.45
187.889	127.03
188.108	121.33
188.328	99.32
188.547	119.88
188.766	55.31
188.986	66.09
189.205	79.96
189.424	69.64
189.644	64.25
189.863	66.89
190.082	43.94
190.302	75.43
190.521	57.46
190.74	118.03
190.959	83.28
191.178	129.54
191.398	107.87
191.617	108.46
191.836	138.12
192.055	178.52
192.274	183.17
192.494	132.36
192.713	106.81
192.932	96.59
193.151	97.38
193.37	107.13
193.589	110.39
193.808	135.49
194.027	143.55
194.246	106.53
194.465	99.47
194.685	96.04
194.904	81.72
195.123	118.77
195.342	154.17
195.561	242.03
195.78	703.83
195.999	234.68
196.218	358.85
196.436	870.11
196.655	-936.07
196.874	-2952.88
197.093	-654.15
197.312	-653.38
197.531	725.3
197.75	599.28
197.969	270.3
198.188	241.67
198.407	191.94
198.625	150.9
198.844	130.61
199.063	119.63
199.282	145.77
199.501	139.06
199.719	117.48
199.938	139.48
200.157	142.69
200.376	132.57
200.594	118.93
200.813	150.77
201.032	185.13
201.251	192.05
201.469	209.12
201.688	254.65
201.907	229.72
202.125	210.19
202.344	233.64
202.563	208.85
202.781	328.62
203	241.88
203.218	268.8
203.437	188.93
203.656	178.9
203.874	162.6
204.093	151.96
204.311	124.37
204.53	109.56
204.748	80.25
204.967	86.9
205.185	72.06
205.404	831.11
205.622	-935.78
205.841	9034.88
206.059	-377.95
206.278	1629.7
206.496	-237.85
206.715	-141.57
206.933	-200.71
207.151	-720.31
207.37	-576.57
207.588	453.32
207.806	198.42
208.025	209.49
208.243	178.65
208.461	131.5
208.68	108.84
208.898	120.52
209.116	108.3
209.335	99.68
209.553	106.67
209.771	113.68
209.989	127.09
210.208	141.57
210.426	118
210.644	110.63
210.862	94.7
211.081	107.7
211.299	77.69
211.517	73.05
211.735	84.87
211.953	69.14
212.171	50.94
212.39	53.73
212.608	59.23
212.826	61.4
213.044	64.14
213.262	110.11
213.48	97.78
213.698	299.75
213.916	-93.41
214.134	27.67
214.352	-108.76
214.57	187.06
214.788	95.75
215.006	174.68
215.224	36.89
215.442	66.87
215.66	61.94
215.878	4.69
216.096	84.63
216.314	70.2
216.532	61.33
216.75	17.83
216.968	68
217.185	80.95
217.403	67.5
217.621	27.28
217.839	29.76
218.057	31.94
218.275	59.08
218.492	61.08
218.71	53.49
218.928	73.35
219.146	96.33
219.363	127.83
219.581	122.19
219.799	171.18
220.017	285.71
220.234	313.24
220.452	681.25
220.67	-1299.78
220.887	-324.18
221.105	-218.14
221.323	-217.37
221.54	-79.86
221.758	-82.55
221.976	-193.13
222.193	-273.5
222.411	183.77
222.629	217.92
222.846	767.19
223.064	938.57
223.281	516.55
223.499	425.42
223.716	-455.58
223.934	2039.87
224.151	-406.16
224.369	-141.41
224.586	-132.22
224.804	-135.64
225.021	-182.83
225.239	-246.12
225.456	-405.32
225.674	-350.27
225.891	-347.72
226.108	3659.91
226.326	-6423.74
226.543	12474.39
226.76	-1102.83
226.978	-2328.23
227.195	-605.92
227.413	-455.84
227.63	-257.76
227.847	-113.61
228.064	-67.62
228.282	-37.01
228.499	-23.94
228.716	-17.96
228.934	-17.9
229.151	-14.35
229.368	-15.03
229.585	-9.07
229.802	-1.88
230.02	-2.1
230.237	-3.83
230.454	-6.59
230.671	-11.53
230.888	-15.54
231.105	-17.44
231.323	-16.06
231.54	-12.6
231.757	-2.96
231.974	-7.5
232.191	-20.87
232.408	-26.64
232.625	-30.32
232.842	-24.34
233.059	-18.4
233.276	-15.55
233.493	-11.54
233.71	-16.6
233.927	-30.31
234.144	-24.11
234.361	-21.95
234.578	-7.06
234.795	-1.89
235.012	-4.76
235.229	-16.3
235.446	-29.1
235.663	-31.54
235.879	-48.03
236.096	-56.93
236.313	-51.3
236.53	-76.19
236.747	-70.02
236.964	-82.64
237.181	-74.35
237.397	-62.28
237.614	-51.64
237.831	-51.76
238.048	-57.56
238.264	-38.9
238.481	-21.44
238.698	-13.8
238.915	0.38
239.131	-5.07
239.348	-3.6
239.565	-5.68
239.781	3.15
239.998	2.59
240.215	5.92
240.431	9.23
240.648	8.47
240.865	7.84
241.081	8.69
241.298	10.35
241.514	10.61
241.731	11.07
241.947	9.49
242.164	9.72
242.38	8.46
242.597	9.72
242.814	9.24
243.03	10.63
243.246	10.75
243.463	10.34
243.679	6.55
243.896	4.69
244.112	1.69
244.329	2.12
244.545	-1.71
244.762	-1.3
244.978	-2.04
245.194	-2
245.411	-1.78
245.627	-0.92
245.843	-2.14
246.06	3.58
246.276	8
246.492	9.65
246.709	10.43
246.925	11.95
247.141	11.55
247.357	10.37
247.574	9.23
247.79	8.15
248.006	8.53
248.222	8.43
248.439	6.26
248.655	4.23
248.871	4.67
249.087	4.22
249.303	1.56
249.519	0.83
249.736	0.47
249.952	-2.47
250.168	-0.98
250.384	-2.93
250.6	0.74
250.816	0.16
251.032	1.15
251.248	-2.52
251.464	-6.5
251.68	-5.5
251.896	-5.2
252.112	-5.66
252.328	-0.68
252.544	-1.49
252.76	-2.16
252.976	-4.91
253.192	-1.62
253.408	-1.43
253.624	1.43
253.84	5.02
254.056	6.13
254.272	8.74
254.487	8.64
254.703	9.16
254.919	7.66
255.135	8.66
255.351	8.27
255.567	0.82
255.782	2.32
255.998	-2.59
256.214	-0.35
256.43	-0.51
256.646	1.03
256.861	1.45
257.077	2.45
257.293	0.93
257.508	1.11
257.724	0.96
257.94	2.38
258.155	2
258.371	1.72
258.587	3.43
258.802	5.34
259.018	5.8
259.234	8.04
259.449	8.21
259.665	8.97
259.88	8.21
260.096	8.1
260.312	8.81
260.527	8.58
260.743	9.59
260.958	8.01
261.174	7.15
261.389	6.26
261.605	5.93
261.82	5.35
262.036	4.66
262.251	6
262.466	6.58
262.682	5.04
262.897	3.95
263.113	1.86
263.328	-0.12
263.543	-2.5
263.759	-2.58
263.974	-6.62
264.189	-7.96
264.405	-6.48
264.62	-5.61
264.835	-7.17
265.051	-4.92
265.266	-2.36
265.481	0.26
265.696	3.38
265.912	5.78
266.127	6.18
266.342	7.11
266.557	7.73
266.773	6.69
266.988	4.94
267.203	5.81
267.418	4.42
267.633	4.46
267.848	4.32
268.064	4.57
268.279	5.54
268.494	4.66
268.709	5.07
268.924	7.35
269.139	7.67
269.354	6.48
269.569	5.55
269.784	5.56
269.999	4.03
270.214	3.51
270.429	2
270.644	-0.02
270.859	0.32
271.074	1.99
271.289	1.42
271.504	2.03
271.719	3.34
271.934	3.69
272.149	4.81
272.363	4.75
272.578	5.8
272.793	6.43
273.008	6.97
273.223	6.83
273.438	4.32
273.653	1.61
273.867	1.18
274.082	-1.22
274.297	-0.79
274.512	-2.61
274.726	-1.64
274.941	-2.59
275.156	-1.54
275.371	-3.6
275.585	-1.62
275.8	0.83
276.015	2.02
276.229	-1.15
276.444	0.76
276.659	-1.51
276.873	1.15
277.088	-0.3
277.302	-1.1
277.517	-2.85
277.732	1.06
277.946	-0.72
278.161	-2.92
278.375	-2.68
278.59	1.77
278.804	0.76
279.019	2.18
279.233	0
279.448	1.4
279.662	2.3
279.877	0.99
280.091	-0.89
280.306	-2.54
280.52	-3.97
280.735	-3.28
280.949	-4.78
281.163	-1.81
281.378	-1.86
281.592	-0.48
281.806	0.05
282.021	2.77
282.235	5.2
282.449	5.45
282.664	5.29
282.878	7.77
283.092	7.9
283.307	9.35
283.521	8.76
283.735	9.39
283.949	9.1
284.164	9.9
284.378	7.85
284.592	7.95
284.806	8.27
285.02	9.42
285.234	9.26
285.449	9.45
285.663	7.89
285.877	8.7
286.091	7.68
286.305	8.07
286.519	7.94
286.733	6.29
286.947	6.38
287.161	5.22
287.375	6.69
287.589	6.48
287.803	6.82
288.017	7.74
288.231	5.94
288.445	7.31
288.659	7.2
288.873	5.82
289.087	8.3
289.301	7.12
289.515	8.66
289.729	6.14
289.943	7.84
290.157	8.76
290.371	9.56
290.584	10.06
290.798	10.75
291.012	9.87
291.226	11.05
291.44	10.56
291.654	12.82
291.867	11.81
292.081	11.8
292.295	12.09
292.509	8.77
292.722	7.93
292.936	8.66
293.15	8.44
293.364	7.77
293.577	7.68
293.791	5.67
294.005	3.53
294.218	5.11
294.432	3.95
294.645	0.74
294.859	2.04
295.073	1.21
295.286	0.5
295.5	-0.34
295.713	3.35
295.927	1.98
296.14	5.59
296.354	5.15
296.568	4.93
296.781	7.98
296.994	10.44
297.208	12.37
297.421	13.45
297.635	13.21
297.848	13.07
298.062	11.21
298.275	11.65
298.489	11.05
298.702	12.87
298.915	13.07
299.129	12.03
299.342	11.72
299.555	8.61
299.769	9.05
299.982	11.64
300.195	12.17
300.409	12.94
300.622	14.92
300.835	13.54
301.048	11.67
301.262	10.79
301.475	10.19
301.688	10.09
301.901	10.82
302.115	10.03
302.328	8.24
302.541	8.75
302.754	5.42
302.967	4.13
303.18	4.98
303.393	6.56
303.607	6.41
303.82	8.1
304.033	8.65
304.246	10.66
304.459	11.35
304.672	11.66
304.885	12.11
305.098	13.25
305.311	11.12
305.524	11.68
305.737	10.89
305.95	11.09
306.163	10.46
306.376	12.65
306.589	13.24
306.802	11.75
307.015	11.19
307.228	9.92
307.44	11.97
307.653	16.16
307.866	15.9
308.079	16.33
308.292	15.73
308.505	16.13
308.718	15.62
308.93	15
309.143	16.24
309.356	16.1
309.569	16.99
309.781	19.85
309.994	18.69
310.207	17.84
310.42	17.7
310.632	19.81
310.845	18.82
311.058	17.49
311.27	15.95
311.483	14.31
311.696	15.14
311.908	14.64
312.121	10.84
312.333	9.68
312.546	9.52
312.759	8.49
312.971	6.4
313.184	7.13
313.396	6.68
313.609	9.04
313.821	10.24
314.034	9.32
314.246	9.84
314.459	11.64
314.671	12.15
314.884	11.82
315.096	12.37
315.309	13.08
315.521	12.03
315.733	10.84
315.946	9.74
316.158	10.13
316.371	11.28
316.583	12.56
316.795	10.54
317.008	9.85
317.22	12.78
317.432	12.13
317.644	13.32
317.857	15.02
318.069	15.56
318.281	15.31
318.494	15
318.706	14.06
318.918	11.83
319.13	13.72
319.342	14.02
319.555	11.55
319.767	13.42
319.979	10.36
320.191	11.27
320.403	9.14
320.615	11
320.827	12.17
321.039	11.28
321.252	11.68
321.464	12.01
321.676	11.6
321.888	12.5
322.1	10.75
322.312	12.68
322.524	12.04
322.736	15.02
322.948	13.2
323.16	13.81
323.372	13.09
323.584	13.4
323.796	16.14
324.007	16.32
324.219	13.06
324.431	11.98
324.643	11.71
324.855	11.06
325.067	10.24
325.279	11.83
325.491	9.88
325.702	11.86
325.914	10.94
326.126	8.2
326.338	7.86
326.55	11.04
326.761	11.41
326.973	12.13
327.185	11.65
327.396	11.65
327.608	8.65
327.82	10.78
328.032	8.83
328.243	9.43
328.455	9.35
328.666	11.1
328.878	12.08
329.09	11.79
329.301	11.52
329.513	11.73
329.725	11.06
329.936	15.3
330.148	14.54
330.359	15.59
330.571	15.4
330.782	14.97
330.994	14.21
331.205	14.4
331.417	15.76
331.628	16.69
331.84	18.18
332.051	18.89
332.262	16.62
332.474	16.8
332.685	17.99
332.897	18.76
333.108	19.37
333.319	20.34
333.531	19.68
333.742	20.32
333.953	21.14
334.165	22.14
334.376	22.89
334.587	24.02
334.799	21.95
335.01	20.05
335.221	18.3
335.432	18.93
335.644	17.82
335.855	18.24
336.066	18.85
336.277	18.3
336.488	17.5
336.7	18.66
336.911	17.61
337.122	18.94
337.333	20.61
337.544	21.51
337.755	21.84
337.966	21.61
338.177	20.07
338.388	19.7
338.599	19.72
338.811	19.69
339.022	17.69
339.233	19.03
339.444	18.17
339.655	17.79
339.866	18.35
340.076	17.61
340.287	18.86
340.498	20.98
340.709	21.19
340.92	20.78
341.131	20.43
341.342	22.33
341.553	19.52
341.764	19.32
341.975	18.74
342.185	19.63
342.396	19.95
342.607	18.54
342.818	17.28
343.029	16.37
343.239	16.39
343.45	15.08
343.661	13.72
343.872	15.37
344.082	18.39
344.293	18.36
344.504	19.27
344.714	18.82
344.925	19.25
345.136	19.7
345.346	18.92
345.557	19.13
345.768	20.47
345.978	19.74
346.189	20.45
346.399	18.4
346.61	19.09
346.821	18.05
347.031	18.94
347.242	19.32
347.452	18.33
347.663	19.35
347.873	19.05
348.084	19.63
348.294	21.72
348.504	20.28
348.715	21.87
348.925	22.96
349.136	23.94
349.346	22.15
349.557	22.59
349.767	23.82
349.977	23.56
350.188	23.76
350.398	23.55
350.608	22.8
350.819	23.2
351.029	21.86
351.239	20.87
351.449	20.03
351.66	21.99
351.87	20.78
352.08	22.17
352.29	21.62
352.501	21.14
352.711	21.93
352.921	20.54
353.131	20.76
353.341	21.42
353.552	22.56
353.762	21.49
353.972	19.83
354.182	22.26
354.392	21.1
354.602	23.08
354.812	22.89
355.022	22.09
355.232	22.58
355.442	21.85
355.652	21.61
355.862	21.21
356.072	22.37
356.282	22.1
356.492	21.6
356.702	21.75
356.912	20.89
357.122	22.06
357.332	22.46
357.542	22.29
357.752	23.23
357.962	22.86
358.171	22.36
358.381	21.25
358.591	22.91
358.801	22.05
359.011	22.12
359.221	22.9
359.43	21.4
359.64	21.39
359.85	22.7
360.06	22.67
360.269	23.07
360.479	21.87
360.689	22.36
360.899	21.8
361.108	22
361.318	21.44
361.528	21.29
361.737	22.27
361.947	21.62
362.156	21.61
362.366	21.09
362.576	21.38
362.785	22.55
362.995	22.04
363.204	21.24
363.414	20.52
363.623	21.16
363.833	20.61
364.042	20.63
364.252	21.39
364.461	21.02
364.671	22.13
364.88	21.72
365.09	21.54
365.299	22.05
365.509	22.98
365.718	23.56
365.927	22.9
366.137	21.88
366.346	21.93
366.555	21.55
366.765	21.57
366.974	19.87
367.183	20.08
367.393	20.43
367.602	21.08
367.811	19.8
368.021	18.94
368.23	19.09
368.439	19.8
368.648	18.82
368.857	17.87
369.067	17.11
369.276	17.22
369.485	16.42
369.694	15.39
369.903	14.93
370.112	16.52
370.321	16.98
370.531	17.88
370.74	18.45
370.949	18.63
371.158	18.5
371.367	18.66
371.576	19.2
371.785	19.67
371.994	19.26
372.203	18.3
372.412	18.23
372.621	18.18
372.83	17.08
373.039	16.57
373.248	17.12
373.457	17.36
373.666	17.5
373.874	16.9
374.083	16.55
374.292	16.4
374.501	15.97
374.71	14.89
374.919	15.48
375.128	15.47
375.336	15.43
375.545	14.9
375.754	14.92
375.963	14.43
376.171	15.33
376.38	15.16
376.589	15.1
376.798	15.47
377.006	15.67
377.215	15.98
377.424	16.41
377.632	15.34
377.841	15.04
378.05	14.95
378.258	14.76
378.467	13.97
378.675	12.94
378.884	14.1
379.093	14.1
379.301	14.15
379.51	14
379.718	13.13
379.927	14.83
380.135	15.53
380.344	15.23
380.552	15.84
380.761	16.02
380.969	16.86
381.177	16.25
381.386	16.5
381.594	16.33
381.803	15.58
382.011	15.82
382.219	15.61
382.428	14.43
382.636	14.75
382.845	14.62
383.053	14.85
383.261	14.9
383.469	14.69
383.678	14.6
383.886	14.51
384.094	15.02
384.302	14.97
384.511	14.23
384.719	14.61
384.927	14.69
385.135	14.04
385.343	12.8
385.552	12.98
385.76	13.31
385.968	13.13
386.176	12.86
386.384	12.42
386.592	12.4
386.8	12.25
387.008	11.94
387.216	11.38
387.424	11.81
387.633	12.3
387.841	11.77
388.049	11.25
388.257	11.07
388.465	11.07
388.672	10.59
388.88	9.91
389.088	9.75
389.296	9.8
389.504	9.66
389.712	9.58
389.92	9.83
390.128	10.08
390.336	10.06
390.544	10.12
390.751	10.53
390.959	10.78
391.167	11.15
391.375	11.42
391.583	11.25
391.79	11.3
391.998	10.84
392.206	10.81
392.414	10.71
392.621	11.04
392.829	10.86
393.037	10.51
393.244	10.43
393.452	10.67
393.66	10.45
393.867	10.65
394.075	10.6
394.283	10.77
394.49	10.58
394.698	10.24
394.905	10.11
395.113	10.4
395.32	10.15
395.528	10.18
395.735	10.04
395.943	9.97
396.15	9.73
396.358	9.87
396.565	10.08
396.773	10.07
396.98	10.52
397.188	10.27
397.395	10.01
397.602	10.07
397.81	9.96
398.017	10.02
398.225	10.03
398.432	9.83
398.639	9.46
398.847	9.39
399.054	9.14
399.261	8.77
399.468	8.45
399.676	8.55
399.883	9.01
400.09	8.93
400.297	8.9
400.505	8.95
400.712	9.44
400.919	9.38
401.126	9.12
401.333	9.39
401.54	9.44
401.748	9.76
401.955	9.31
402.162	9.19
402.369	9.13
402.576	8.97
402.783	8.78
402.99	8.75
403.197	9.08
403.404	8.99
403.611	8.76
403.818	8.81
404.025	8.36
404.232	8.56
404.439	8.32
404.646	8.42
404.853	8.81
405.06	9.1
405.267	9.06
405.474	9.13
405.681	9.32
405.887	9.67
406.094	9.77
406.301	9.98
406.508	10.49
406.715	10.57
406.922	10.65
407.128	10.26
407.335	9.91
407.542	9.67
407.749	9.77
407.955	9.89
408.162	9.54
408.369	9.4
408.575	9.26
408.782	8.67
408.989	8.61
409.195	8.48
409.402	8.2
409.609	8.34
409.815	8.58
410.022	8.12
410.228	8.12
410.435	8.23
410.642	8.24
410.848	8.43
411.055	8.4
411.261	8.19
411.468	8.21
411.674	8.04
411.881	7.92
412.087	7.75
412.294	8.01
412.5	7.8
412.706	7.81
412.913	8.15
413.119	8.27
413.326	8.29
413.532	8.57
413.738	8.57
413.945	9.06
414.151	9.22
414.357	9.23
414.564	9.18
414.77	9.17
414.976	9.09
415.182	8.8
415.389	8.64
415.595	8.86
415.801	8.95
416.007	9.08
416.214	8.73
416.42	8.53
416.626	8.5
416.832	8.67
417.038	8.91
417.244	9
417.45	9.14
417.657	9.26
417.863	9.22
418.069	9.12
418.275	9.12
418.481	9.14
418.687	9.2
418.893	9.32
419.099	9.28
419.305	9.16
419.511	8.99
419.717	8.93
419.923	8.8
420.129	8.78
420.335	8.96
420.541	8.8
420.746	8.79
420.952	8.89
421.158	8.83
421.364	8.88
421.57	8.74
421.776	8.9
421.982	8.87
422.187	8.94
422.393	8.93
422.599	8.77
422.805	8.98
423.01	9.13
423.216	9.29
423.422	9.28
423.628	9.16
423.833	9.22
424.039	9.25
424.245	9.37
424.45	9.33
424.656	9.37
424.862	9.42
425.067	9.43
425.273	9.4
425.478	9.2
425.684	9.25
425.889	9.28
426.095	9.41
426.301	9.41
426.506	9.29
426.712	9.36
426.917	9.27
427.123	9.25
427.328	9.29
427.533	9.32
427.739	9.32
427.944	9.28
428.15	9.35
428.355	9.27
428.561	9.27
428.766	8.95
428.971	8.99
429.177	8.8
429.382	8.62
429.587	8.17
429.793	8.19
429.998	8.18
430.203	8.06
430.408	7.98
430.614	7.98
430.819	7.88
431.024	8.09
431.229	8.07
431.434	8.33
431.64	8.38
431.845	8.4
432.05	8.38
432.255	8.34
432.46	8.3
432.665	8.25
432.87	8.09
433.076	8.09
433.281	8.11
433.486	8.15
433.691	8.13
433.896	8.26
434.101	8.25
434.306	8.32
434.511	8.25
434.716	8.2
434.921	8.13
435.126	8.28
435.331	8.28
435.535	8.37
435.74	8.35
435.945	8.39
436.15	8.42
436.355	8.64
436.56	8.42
436.765	8.77
436.97	8.87
437.174	9.04
437.379	8.93
437.584	9
437.789	9.09
437.993	9.19
438.198	9.13
438.403	9.22
438.608	9.11
438.812	9.26
439.017	9.06
439.222	9.21
439.426	8.94
439.631	9.08
439.836	9.08
440.04	8.96
440.245	8.87
440.45	8.8
440.654	8.61
440.859	8.6
441.063	8.58
441.268	8.49
441.472	8.43
441.677	8.58
441.881	8.55
442.086	8.53
442.29	8.54
442.495	8.65
442.699	8.81
442.904	8.9
443.108	8.85
443.312	8.92
443.517	8.9
443.721	8.96
443.925	8.91
444.13	8.8
444.334	8.66
444.538	8.57
444.743	8.43
444.947	8.4
445.151	8.45
445.356	8.6
445.56	8.47
445.764	8.46
445.968	8.35
446.173	8.56
446.377	8.6
446.581	8.72
446.785	8.92
446.989	8.94
447.193	8.84
447.398	8.8
447.602	8.77
447.806	8.78
448.01	8.84
448.214	8.85
448.418	8.76
448.622	8.88
448.826	8.98
449.03	8.83
449.234	8.71
449.438	8.84
449.642	8.7
449.846	8.49
450.05	8.49
450.254	8.65
450.458	8.53
450.662	8.25
450.866	7.92
451.069	7.86
451.273	7.83
451.477	7.82
451.681	7.65
451.885	7.74
452.089	7.99
452.292	8.05
452.496	7.87
452.7	7.96
452.904	8.22
453.107	8.34
453.311	8.22
453.515	8.37
453.719	8.49
453.922	8.72
454.126	8.92
454.33	8.86
454.533	8.73
454.737	8.81
454.94	8.69
455.144	8.69
455.348	8.58
455.551	8.48
455.755	8.24
455.958	8.21
456.162	8.02
456.365	7.72
456.569	7.73
456.772	7.8
456.976	8
457.179	8.28
457.383	8.23
457.586	8.31
457.79	8.3
457.993	8.31
458.196	8.36
458.4	8.46
458.603	8.49
458.807	8.38
459.01	8.23
459.213	7.98
459.417	7.94
459.62	7.92
459.823	8
460.026	7.84
460.23	7.73
460.433	7.69
460.636	7.65
460.839	7.62
461.042	7.67
461.246	7.7
461.449	7.73
461.652	7.65
461.855	7.7
462.058	7.73
