Data from 2937829_Reflection_2.txt Node
Date: Wed Jul 15 16:53:12 EDT 2015
User: robert
Spectrometer: USB4E03001
Autoset integration time: false
Trigger mode: 4
Integration Time (sec): 1.000000E-1
Scans to average: 10
Electric dark correction enabled: true
Nonlinearity correction enabled: false
Boxcar width: 5
Stray light correction enabled: false
XAxis mode: Wavelengths
Stop averaging: false
Number of Pixels in Spectrum: 3648
>>>>>Begin Spectral Data<<<<<
177.566	-96.69
177.785	37.66
178.005	-30.03
178.225	3585.71
178.445	10766.67
178.665	114.26
178.885	577.85
179.105	-384.44
179.324	811.33
179.544	-78.71
179.764	-155.5
179.984	-850.19
180.204	-510.88
180.423	-689.7
180.643	-382.72
180.863	-420.27
181.083	-114.83
181.302	-296.04
181.522	-580.03
181.742	-194.57
181.961	-318.99
182.181	-124.96
182.401	-90.3
182.621	-77.7
182.84	-86.95
183.06	-196.86
183.279	-244.6
183.499	-273.54
183.719	-158.26
183.938	-84.56
184.158	5943.48
184.377	567.9
184.597	304.72
184.816	181.56
185.036	418.8
185.256	485.19
185.475	444.54
185.695	-452.32
185.914	-2560.83
186.134	-263.83
186.353	-161.33
186.572	-85.37
186.792	-32.35
187.011	-19.78
187.231	-26.83
187.45	-27.65
187.67	-15.85
187.889	-8.65
188.108	-30.88
188.328	-1.17
188.547	-16.78
188.766	-21.58
188.986	29.91
189.205	-41.34
189.424	-40.23
189.644	-690.52
189.863	24352.94
190.082	-280.38
190.302	-193.26
190.521	-527.26
190.74	-3971
190.959	-439.28
191.178	934.89
191.398	578.74
191.617	-392.52
191.836	-322.81
192.055	-88.27
192.274	-409.53
192.494	2614.22
192.713	769.16
192.932	-1109.56
193.151	-434.03
193.37	-257.2
193.589	-200.88
193.808	-257.44
194.027	-429.38
194.246	643.19
194.465	300.8
194.685	311.32
194.904	289.5
195.123	259
195.342	181.11
195.561	146.86
195.78	20
195.999	-207.87
196.218	-91.17
196.436	74.62
196.655	164.66
196.874	-16.12
197.093	35.09
197.312	43.72
197.531	-144.25
197.75	-160.55
197.969	-313.26
198.188	-507.21
198.407	-574.32
198.625	-404.51
198.844	-488.32
199.063	-3302.07
199.282	-969.58
199.501	-854.65
199.719	767.16
199.938	596.59
200.157	508.14
200.376	188.88
200.594	201.45
200.813	190.13
201.032	208.44
201.251	210.71
201.469	108.92
201.688	128.92
201.907	138.25
202.125	280.76
202.344	300.69
202.563	404.45
202.781	718.01
203	416.51
203.218	241.56
203.437	252.81
203.656	373.68
203.874	-1219.19
204.093	-1262.2
204.311	1266.98
204.53	4103.79
204.748	-359.27
204.967	-545.27
205.185	-548.43
205.404	959.35
205.622	2021.69
205.841	1056.51
206.059	516.29
206.278	437.1
206.496	247.68
206.715	566.76
206.933	395.13
207.151	99.6
207.37	83.78
207.588	82.24
207.806	71.72
208.025	27.21
208.243	-127.39
208.461	-70.99
208.68	-91.4
208.898	100.13
209.116	85.31
209.335	151.24
209.553	148.52
209.771	216.09
209.989	989.58
210.208	-6194.69
210.426	737.1
210.644	273.88
210.862	200.51
211.081	117.53
211.299	135.08
211.517	163.3
211.735	135.11
211.953	146.36
212.171	102.78
212.39	78.91
212.608	71.96
212.826	72.43
213.044	72.05
213.262	107.81
213.48	261.6
213.698	296.14
213.916	159.42
214.134	266.64
214.352	45.38
214.57	-68.83
214.788	-46.61
215.006	-37.41
215.224	-20.57
215.442	-85.62
215.66	-103.72
215.878	-303.24
216.096	825.31
216.314	-665.41
216.532	-577.83
216.75	281.51
216.968	239.07
217.185	311.79
217.403	161.91
217.621	292.99
217.839	466.7
218.057	-1788.02
218.275	-325.39
218.492	-41.32
218.71	-133.76
218.928	-172.02
219.146	-794.63
219.363	1362.57
219.581	1574.37
219.799	2259.18
220.017	183.51
220.234	243.08
220.452	108.45
220.67	147.35
220.887	154.83
221.105	257.51
221.323	258.75
221.54	309.65
221.758	252.07
221.976	169.9
222.193	211.74
222.411	217.8
222.629	218.79
222.846	195.46
223.064	185.49
223.281	184.35
223.499	138.45
223.716	145.97
223.934	149.86
224.151	173.54
224.369	186.7
224.586	150.94
224.804	136.8
225.021	101.1
225.239	138.79
225.456	107.01
225.674	135.79
225.891	163.37
226.108	121.64
226.326	152.93
226.543	105.49
226.76	116.02
226.978	77.3
227.195	76.66
227.413	57.25
227.63	47.36
227.847	32.68
228.064	28.98
228.282	26.19
228.499	20.9
228.716	18.36
228.934	26.79
229.151	22.29
229.368	23.24
229.585	18.66
229.802	19.23
230.02	20.15
230.237	19.08
230.454	17.93
230.671	21.31
230.888	20.5
231.105	18.21
231.323	13.14
231.54	15.33
231.757	15.32
231.974	24.66
232.191	23.01
232.408	27.32
232.625	25.61
232.842	23.97
233.059	22.65
233.276	22.35
233.493	25.79
233.71	26.45
233.927	25.93
234.144	24.61
234.361	5.01
234.578	9.45
234.795	-6.58
235.012	3.51
235.229	2.84
235.446	2.83
235.663	9.68
235.879	5.23
236.096	12.25
236.313	5.51
236.53	10.83
236.747	20.53
236.964	12.37
237.181	15.76
237.397	9.06
237.614	10.4
237.831	3.94
238.048	3.5
238.264	3.34
238.481	-3.43
238.698	-3.89
238.915	-4.6
239.131	-9.42
239.348	0.12
239.565	5.37
239.781	12.83
239.998	16.72
240.215	17.01
240.431	19.11
240.648	18.68
240.865	20.52
241.081	18.65
241.298	20.05
241.514	22.4
241.731	23.61
241.947	26.24
242.164	24.24
242.38	22.62
242.597	23.16
242.814	24.03
243.03	26.57
243.246	26.35
243.463	27.87
243.679	29.18
243.896	28.27
244.112	27.84
244.329	25.65
244.545	26.33
244.762	26.04
244.978	26.37
245.194	22.68
245.411	19.5
245.627	19.3
245.843	18.71
246.06	17.19
246.276	18.86
246.492	19.48
246.709	18.67
246.925	18.25
247.141	18.84
247.357	18.39
247.574	19.05
247.79	18.01
248.006	18.22
248.222	18.32
248.439	18.95
248.655	17.33
248.871	16.76
249.087	18.01
249.303	18.29
249.519	17.5
249.736	17.22
249.952	17.68
250.168	20.05
250.384	19.28
250.6	20.14
250.816	20.21
251.032	23.16
251.248	22.66
251.464	20.11
251.68	18.63
251.896	19.12
252.112	19.9
252.328	19.57
252.544	18.5
252.76	20.59
252.976	20.74
253.192	18.28
253.408	18.38
253.624	18.99
253.84	18.84
254.056	21.94
254.272	25.1
254.487	22.28
254.703	20.72
254.919	19.12
255.135	17.36
255.351	15.79
255.567	18.14
255.782	13.78
255.998	15.68
256.214	21.96
256.43	18
256.646	15.16
256.861	20.06
257.077	21.91
257.293	21.62
257.508	19.23
257.724	20.31
257.94	20.22
258.155	19.43
258.371	19.51
258.587	16.58
258.802	18.44
259.018	18.73
259.234	17.2
259.449	17.88
259.665	18.24
259.88	18.28
260.096	17.43
260.312	17.66
260.527	18.13
260.743	17.03
260.958	17.15
261.174	16.62
261.389	15.29
261.605	13.64
261.82	11.85
262.036	11.64
262.251	10.79
262.466	10.16
262.682	7.99
262.897	8.94
263.113	9.04
263.328	6.98
263.543	7.41
263.759	9.97
263.974	13.42
264.189	13.91
264.405	15.55
264.62	16.85
264.835	16.62
265.051	14.86
265.266	14.3
265.481	14.29
265.696	16.56
265.912	17.65
266.127	15.66
266.342	15.45
266.557	17.17
266.773	15.33
266.988	16.92
267.203	17.93
267.418	20.37
267.633	18.37
267.848	17.42
268.064	17.69
268.279	14.76
268.494	14.33
268.709	15.38
268.924	15.01
269.139	14.34
269.354	12.02
269.569	12.1
269.784	11.17
269.999	12.36
270.214	14.22
270.429	13.55
270.644	15.39
270.859	18.06
271.074	17.6
271.289	16.51
271.504	18.35
271.719	18.23
271.934	17.05
272.149	16.84
272.363	16.91
272.578	16.85
272.793	17.15
273.008	16.25
273.223	14.68
273.438	14.5
273.653	14.54
273.867	14.38
274.082	15.07
274.297	16.13
274.512	16.35
274.726	15.31
274.941	15.72
275.156	16.44
275.371	16.83
275.585	17.53
275.8	18.53
276.015	17.58
276.229	15.78
276.444	16.61
276.659	15.73
276.873	15.3
277.088	16.14
277.302	16.27
277.517	15
277.732	14.09
277.946	13.5
278.161	13.78
278.375	16.43
278.59	16.42
278.804	14.97
279.019	15.57
279.233	15.91
279.448	13.85
279.662	10.79
279.877	9.94
280.091	9.37
280.306	12.04
280.52	11.12
280.735	9.87
280.949	11.03
281.163	11.37
281.378	12.02
281.592	10.56
281.806	12.28
282.021	14.26
282.235	15.06
282.449	16.11
282.664	14.46
282.878	15.59
283.092	15.17
283.307	14.02
283.521	14.11
283.735	13.77
283.949	13.79
284.164	14.47
284.378	13.86
284.592	14.27
284.806	12.15
285.02	12.6
285.234	11.57
285.449	11.48
285.663	13.58
285.877	13.71
286.091	14.53
286.305	15.83
286.519	16.03
286.733	16.9
286.947	17.39
287.161	19.13
287.375	18.87
287.589	18.72
287.803	20.81
288.017	19.65
288.231	19.13
288.445	18.06
288.659	17.32
288.873	17.89
289.087	15.95
289.301	14.84
289.515	15.86
289.729	16.5
289.943	17.01
290.157	16.21
290.371	15.32
290.584	14.75
290.798	14.56
291.012	14.97
291.226	15.45
291.44	16.9
291.654	16.39
291.867	16.04
292.081	14.79
292.295	13.07
292.509	11.23
292.722	10.89
292.936	9.42
293.15	10.05
293.364	8.97
293.577	6.7
293.791	6.51
294.005	6.51
294.218	6.16
294.432	7.57
294.645	8.94
294.859	12.19
295.073	13.19
295.286	14.13
295.5	13.72
295.713	15.32
295.927	15.55
296.14	15.96
296.354	16.26
296.568	16.65
296.781	16.69
296.994	16.68
297.208	14.3
297.421	13.72
297.635	15.68
297.848	15.59
298.062	15.16
298.275	14.52
298.489	14.54
298.702	15.79
298.915	16.32
299.129	16.39
299.342	15.99
299.555	17.97
299.769	18.81
299.982	18.35
300.195	19.65
300.409	21.39
300.622	21.85
300.835	22.68
301.048	21.23
301.262	21.04
301.475	20.61
301.688	22.52
301.901	21.69
302.115	20.7
302.328	20.59
302.541	21.01
302.754	20.5
302.967	22.96
303.18	22.13
303.393	22
303.607	19.79
303.82	20.3
304.033	19.3
304.246	19.38
304.459	20.4
304.672	18.93
304.885	18.29
305.098	17.6
305.311	15.53
305.524	16.93
305.737	16.88
305.95	19.02
306.163	18.75
306.376	19.93
306.589	20.34
306.802	19.72
307.015	21.42
307.228	20.74
307.44	21.17
307.653	20.1
307.866	18.99
308.079	19.59
308.292	19.9
308.505	21.56
308.718	19.95
308.93	20.74
309.143	21.54
309.356	20.07
309.569	20.09
309.781	19.69
309.994	21.72
310.207	22.71
310.42	22.9
310.632	21.31
310.845	20.38
311.058	20.55
311.27	19.32
311.483	18.11
311.696	19.16
311.908	18.83
312.121	18.97
312.333	17.29
312.546	16.49
312.759	16.19
312.971	16.74
313.184	16.5
313.396	15.29
313.609	15.65
313.821	18.34
314.034	17.54
314.246	18.03
314.459	17.91
314.671	19.65
314.884	18.28
315.096	17.17
315.309	17.11
315.521	16.99
315.733	17.14
315.946	18
316.158	17.01
316.371	19.62
316.583	20.44
316.795	18.31
317.008	18.89
317.22	20.05
317.432	21.67
317.644	23.27
317.857	23.26
318.069	23
318.281	24.82
318.494	24.83
318.706	22.94
318.918	23.63
319.13	25.19
319.342	24.88
319.555	24.42
319.767	22.45
319.979	21.42
320.191	18.86
320.403	21.67
320.615	18.6
320.827	17.5
321.039	17.65
321.252	17.62
321.464	18.67
321.676	18.23
321.888	18.02
322.1	18.08
322.312	18.46
322.524	18.01
322.736	17.82
322.948	18.5
323.16	19.19
323.372	18.64
323.584	17.32
323.796	15.76
324.007	15.2
324.219	15.33
324.431	16.81
324.643	16.62
324.855	18.88
325.067	18.29
325.279	17.99
325.491	17.34
325.702	17.93
325.914	18.71
326.126	20.13
326.338	20.01
326.55	20.96
326.761	22.1
326.973	21.85
327.185	22.55
327.396	22.07
327.608	22.03
327.82	22.07
328.032	21.09
328.243	20.97
328.455	20.14
328.666	20.16
328.878	20.53
329.09	19.07
329.301	19.78
329.513	18.44
329.725	18.58
329.936	19.57
330.148	20.83
330.359	20.95
330.571	21.61
330.782	20.92
330.994	22.66
331.205	19.84
331.417	18.41
331.628	16.08
331.84	16.9
332.051	15.25
332.262	14.87
332.474	11.69
332.685	11.62
332.897	12.73
333.108	12.93
333.319	12.55
333.531	12.11
333.742	12.34
333.953	15.01
334.165	15.1
334.376	16.85
334.587	17.59
334.799	18.5
335.01	18.61
335.221	17
335.432	17.82
335.644	16.31
335.855	17.89
336.066	17.46
336.277	17.12
336.488	16.56
336.7	16.98
336.911	13.63
337.122	14.49
337.333	15.34
337.544	16.01
337.755	16.11
337.966	16.52
338.177	16.72
338.388	17.24
338.599	16.34
338.811	16.22
339.022	15.34
339.233	18.02
339.444	18.98
339.655	18.97
339.866	19.31
340.076	18.53
340.287	19.49
340.498	19.54
340.709	20.5
340.92	20.73
341.131	20.95
341.342	21.59
341.553	21.75
341.764	20.31
341.975	17.84
342.185	16.51
342.396	16.7
342.607	15.46
342.818	14.18
343.029	13.13
343.239	11.94
343.45	10.98
343.661	10.86
343.872	11.02
344.082	11.8
344.293	13.5
344.504	13.48
344.714	13.37
344.925	11.82
345.136	13.33
345.346	14.23
345.557	16.12
345.768	17.22
345.978	17.76
346.189	16.33
346.399	15.81
346.61	16.5
346.821	16.74
347.031	17.37
347.242	19.19
347.452	18.42
347.663	16.83
347.873	16.22
348.084	16.74
348.294	15.8
348.504	17.72
348.715	17.99
348.925	16.91
349.136	15.76
349.346	15.43
349.557	15.05
349.767	15.82
349.977	14.53
350.188	13.76
350.398	11.88
350.608	12.19
350.819	10.05
351.029	10.75
351.239	10.49
351.449	10.87
351.66	10.19
351.87	11.49
352.08	10.73
352.29	14.16
352.501	14.92
352.711	15.43
352.921	15.8
353.131	16.28
353.341	14.66
353.552	14.29
353.762	15.42
353.972	16.12
354.182	14.36
354.392	14.47
354.602	13.39
354.812	12.8
355.022	13.19
355.232	12.87
355.442	13.09
355.652	13.97
355.862	15.54
356.072	14.68
356.282	14.74
356.492	15.76
356.702	15.56
356.912	15.68
357.122	15.21
357.332	14.9
357.542	15
357.752	15.31
357.962	15.55
358.171	14.32
358.381	14.61
358.591	13.62
358.801	13.67
359.011	13.46
359.221	14.23
359.43	14.97
359.64	15.34
359.85	14.7
360.06	15.03
360.269	14.89
360.479	16.14
360.689	16.48
360.899	17.63
361.108	17.69
361.318	18.2
361.528	16.97
361.737	16.75
361.947	16.38
362.156	16.52
362.366	15.28
362.576	14.72
362.785	13.66
362.995	12.96
363.204	11.95
363.414	11.49
363.623	10.91
363.833	10.88
364.042	10.68
364.252	11.08
364.461	11.82
364.671	12.37
364.88	11.99
365.09	12.05
365.299	13.62
365.509	14.26
365.718	14.37
365.927	13.59
366.137	14.61
366.346	14.97
366.555	15.27
366.765	14.66
366.974	15.53
367.183	16.73
367.393	16.74
367.602	15.83
367.811	15.27
368.021	14.22
368.23	14.93
368.439	14.16
368.648	13.42
368.857	13.17
369.067	13.05
369.276	12.21
369.485	12.23
369.694	11.54
369.903	11.01
370.112	10.89
370.321	11.01
370.531	11.72
370.74	11.45
370.949	12.06
371.158	11.96
371.367	10.88
371.576	10.44
371.785	10.51
371.994	11.47
372.203	12
372.412	11.8
372.621	12.6
372.83	12.11
373.039	12.1
373.248	11.74
373.457	11.71
373.666	12.14
373.874	12.06
374.083	10.37
374.292	10.15
374.501	10.34
374.71	10.33
374.919	9.44
375.128	8.86
375.336	8.96
375.545	7.89
375.754	7.44
375.963	7.9
376.171	7.55
376.38	8.27
376.589	7.97
376.798	7.68
377.006	8.24
377.215	8.26
377.424	9.13
377.632	10.35
377.841	10.86
378.05	11.18
378.258	10.82
378.467	11.77
378.675	11.81
378.884	12.54
379.093	12.47
379.301	11.88
379.51	12.49
379.718	12.06
379.927	11.41
380.135	11.84
380.344	11.5
380.552	12.04
380.761	12.76
380.969	13.21
381.177	12.01
381.386	11.54
381.594	11.44
381.803	11.03
382.011	10.78
382.219	10.35
382.428	10.29
382.636	10.02
382.845	9.78
383.053	9.08
383.261	8.63
383.469	9.14
383.678	8.79
383.886	9.6
384.094	9.98
384.302	10.61
384.511	10.22
384.719	9.83
384.927	9.83
385.135	9.69
385.343	8.78
385.552	8.32
385.76	8.11
385.968	8.59
386.176	7.99
386.384	7.95
386.592	7.44
386.8	7.51
387.008	7.69
387.216	7.59
387.424	7.54
387.633	7.89
387.841	8.17
388.049	8.06
388.257	8.01
388.465	7.96
388.672	8.47
388.88	8.45
389.088	8.99
389.296	8.74
389.504	8.93
389.712	9.18
389.92	9.09
390.128	9.1
390.336	9.25
390.544	8.91
390.751	8.87
390.959	8.24
391.167	8.44
391.375	8.05
391.583	8.12
391.79	8
391.998	8.07
392.206	8.23
392.414	8.09
392.621	8.4
392.829	8.58
393.037	8.95
393.244	8.98
393.452	8.61
393.66	8.52
393.867	8.36
394.075	8.87
394.283	8.26
394.49	8.17
394.698	7.98
394.905	7.5
395.113	7.41
395.32	7.13
395.528	6.9
395.735	6.84
395.943	6.81
396.15	7.44
396.358	6.74
396.565	6.9
396.773	6.89
396.98	7.36
397.188	7.54
397.395	7.48
397.602	7.15
397.81	7.33
398.017	7.19
398.225	6.84
398.432	6.17
398.639	5.99
398.847	5.7
399.054	5.91
399.261	6.17
399.468	6.36
399.676	6.76
399.883	7.34
400.09	7.02
400.297	7.35
400.505	8.16
400.712	8.44
400.919	8.79
401.126	9.49
401.333	8.92
401.54	8.42
401.748	8.29
401.955	7.89
402.162	7.76
402.369	8.13
402.576	8.34
402.783	8.15
402.99	8.28
403.197	7.99
403.404	7.86
403.611	8.44
403.818	8.53
404.025	8.06
404.232	7.98
404.439	7.64
404.646	7.19
404.853	7.19
405.06	6.86
405.267	6.56
405.474	6.93
405.681	6.54
405.887	6.34
406.094	6.2
406.301	6.59
406.508	6.62
406.715	6.85
406.922	7.3
407.128	7.26
407.335	7.53
407.542	7.45
407.749	7.14
407.955	7.1
408.162	7.1
408.369	7.17
408.575	6.96
408.782	7.24
408.989	7.02
409.195	6.72
409.402	6.65
409.609	6.53
409.815	6.71
410.022	6.89
410.228	7.21
410.435	7.06
410.642	6.95
410.848	6.86
411.055	6.4
411.261	6.13
411.468	6.2
411.674	5.8
411.881	5.95
412.087	6
412.294	6.22
412.5	6.18
412.706	6.23
412.913	6.4
413.119	6.65
413.326	6.9
413.532	7.18
413.738	7.19
413.945	7.13
414.151	6.93
414.357	6.52
414.564	6.16
414.77	5.91
414.976	5.75
415.182	5.62
415.389	5.42
415.595	5.36
415.801	5.34
416.007	5.38
416.214	5.26
416.42	5.32
416.626	5.98
416.832	5.95
417.038	6.19
417.244	6.49
417.45	6.82
417.657	7.02
417.863	7.16
418.069	7.15
418.275	7.26
418.481	7.48
418.687	7.31
418.893	7.05
419.099	7.19
419.305	7.13
419.511	6.89
419.717	6.75
419.923	6.28
420.129	6.21
420.335	6.25
420.541	6.09
420.746	5.87
420.952	5.86
421.158	5.77
421.364	5.73
421.57	5.69
421.776	5.97
421.982	5.97
422.187	6.33
422.393	6.41
422.599	6.26
422.805	6.23
423.01	6.36
423.216	6.37
423.422	6.4
423.628	6.4
423.833	6.45
424.039	6.16
424.245	6.12
424.45	6.05
424.656	5.93
424.862	6.14
425.067	6.16
425.273	6.35
425.478	6.29
425.684	6.28
425.889	6.19
426.095	6.1
426.301	6.27
426.506	6.07
426.712	6.09
426.917	6.03
427.123	5.67
427.328	5.64
427.533	5.5
427.739	5.66
427.944	5.76
428.15	5.95
428.355	5.91
428.561	5.79
428.766	6.02
428.971	5.93
429.177	6.05
429.382	6.38
429.587	6.55
429.793	6.32
429.998	6.1
430.203	5.77
430.408	5.55
430.614	5.87
430.819	6.02
431.024	5.64
431.229	5.6
431.434	5.66
431.64	5.59
431.845	5.66
432.05	6.12
432.255	6.21
432.46	6.28
432.665	6.3
432.87	6.16
433.076	5.87
433.281	6.08
433.486	6.38
433.691	6.08
433.896	6
434.101	6
434.306	5.56
434.511	5.71
434.716	5.87
434.921	5.92
435.126	5.95
435.331	6.05
435.535	6.16
435.74	5.92
435.945	6.29
436.15	6.35
436.355	6.37
436.56	6.6
436.765	6.49
436.97	6.32
437.174	6.38
437.379	6.17
437.584	6.21
437.789	6.05
437.993	5.94
438.198	5.66
438.403	5.72
438.608	5.5
438.812	5.28
439.017	5.2
439.222	5.26
439.426	5.35
439.631	5.51
439.836	5.49
440.04	5.58
440.245	5.61
440.45	5.65
440.654	5.82
440.859	5.93
441.063	6.01
441.268	6.16
441.472	6.22
441.677	6.09
441.881	5.99
442.086	5.98
442.29	5.9
442.495	5.72
442.699	5.74
442.904	5.57
443.108	5.33
443.312	5.42
443.517	5.09
443.721	5.1
443.925	5.15
444.13	5.23
444.334	5.17
444.538	5.18
444.743	5.63
444.947	5.91
445.151	5.95
445.356	6.15
445.56	6.14
445.764	6.42
445.968	6.38
446.173	6.11
446.377	5.95
446.581	5.9
446.785	6.02
446.989	5.91
447.193	5.79
447.398	5.77
447.602	5.79
447.806	5.71
448.01	5.56
448.214	5.37
448.418	5.47
448.622	5.54
448.826	5.57
449.03	5.4
449.234	5.26
449.438	4.99
449.642	5.09
449.846	5.02
450.05	5.12
450.254	5.13
450.458	5.47
450.662	5.52
450.866	5.66
451.069	5.7
451.273	5.85
451.477	5.75
451.681	5.81
451.885	5.49
452.089	5.59
452.292	5.5
452.496	5.64
452.7	5.55
452.904	5.44
453.107	5.26
453.311	5.45
453.515	5.49
453.719	5.76
453.922	5.93
454.126	5.97
454.33	5.74
454.533	5.71
454.737	5.36
454.94	5.33
455.144	5.32
455.348	5.36
455.551	5.33
455.755	5.23
455.958	5.21
456.162	4.93
456.365	4.97
456.569	5.14
456.772	5.23
456.976	5.49
457.179	5.47
457.383	5.63
457.586	5.85
457.79	5.87
457.993	5.84
458.196	5.76
458.4	5.86
458.603	5.85
458.807	5.72
459.01	5.56
459.213	5.55
