Data from 2937816_Reflection_1.txt Node
Date: Wed Jul 15 17:32:02 EDT 2015
User: robert
Spectrometer: USB4E03001
Autoset integration time: false
Trigger mode: 4
Integration Time (sec): 1.000000E-1
Scans to average: 10
Electric dark correction enabled: true
Nonlinearity correction enabled: false
Boxcar width: 5
Stray light correction enabled: false
XAxis mode: Wavelengths
Stop averaging: false
Number of Pixels in Spectrum: 3648
>>>>>Begin Spectral Data<<<<<
177.566	25.08
177.785	29.52
178.005	-61.67
178.225	-353.04
178.445	486.44
178.665	278.46
178.885	27.42
179.105	-115.59
179.324	-490.78
179.544	789.9
179.764	-2343.17
179.984	216.13
180.204	212.17
180.423	235.18
180.643	177.17
180.863	157.19
181.083	157.2
181.302	118.19
181.522	134.65
181.742	131.38
181.961	121.73
182.181	118.53
182.401	158.7
182.621	175.7
182.84	149.46
183.06	186.69
183.279	122.52
183.499	84.84
183.719	85.24
183.938	39.2
184.158	6.65
184.377	-2.02
184.597	-25.4
184.816	-7.59
185.036	7.72
185.256	20.58
185.475	-8.78
185.695	7.28
185.914	27.8
186.134	43.39
186.353	74.08
186.572	66.76
186.792	99.8
187.011	84.16
187.231	75.02
187.45	59.39
187.67	53.38
187.889	60.32
188.108	57.16
188.328	51.34
188.547	42.41
188.766	-15.21
188.986	-11.32
189.205	-54.31
189.424	-5.77
189.644	6.19
189.863	18.39
190.082	3.53
190.302	37.26
190.521	55.26
190.74	104.31
190.959	119.87
191.178	860.37
191.398	-128.02
191.617	-1847.13
191.836	-96.81
192.055	-187.88
192.274	-62.74
192.494	-36.83
192.713	-58.87
192.932	-192.2
193.151	-4.85
193.37	-41.39
193.589	-9092.59
193.808	444.59
194.027	-55.98
194.246	-86.8
194.465	-364.26
194.685	143.12
194.904	14.75
195.123	9.49
195.342	61.91
195.561	-63.1
195.78	-156.97
195.999	-185
196.218	-132.07
196.436	-24.43
196.655	-7.32
196.874	-14.44
197.093	8.14
197.312	34.51
197.531	20.86
197.75	28.81
197.969	13.94
198.188	13.43
198.407	39.48
198.625	31.56
198.844	41.46
199.063	43.01
199.282	18.31
199.501	-37.42
199.719	-876.49
199.938	222.18
200.157	190.57
200.376	40.82
200.594	158.28
200.813	100.8
201.032	32.3
201.251	-193.71
201.469	-168.33
201.688	-748.24
201.907	198.26
202.125	304.4
202.344	3981.82
202.563	-63.9
202.781	-10.47
203	-0.99
203.218	-10.48
203.437	-85.14
203.656	693.1
203.874	456.87
204.093	137.55
204.311	231.61
204.53	417.56
204.748	536.52
204.967	171.2
205.185	216.38
205.404	273.48
205.622	198.63
205.841	169.11
206.059	499.35
206.278	396.75
206.496	450.92
206.715	358.36
206.933	278.27
207.151	208.93
207.37	295.05
207.588	130.4
207.806	58.2
208.025	147.54
208.243	179.2
208.461	183.58
208.68	24.6
208.898	194.58
209.116	-121
209.335	-25.07
209.553	200
209.771	72.32
209.989	-86.59
210.208	-468.73
210.426	-95.19
210.644	-89.12
210.862	-238.77
211.081	-396.86
211.299	-905
211.517	1162.85
211.735	8593.97
211.953	2433.47
212.171	9420.93
212.39	419.75
212.608	329.25
212.826	201.55
213.044	189.71
213.262	154.28
213.48	128.19
213.698	132.63
213.916	160.43
214.134	144.82
214.352	119.71
214.57	117.98
214.788	114.7
215.006	230.22
215.224	-515
215.442	1076.12
215.66	-720.42
215.878	-512.6
216.096	-640.72
216.314	-2060.23
216.532	496.75
216.75	-2015.91
216.968	535.95
217.185	296.01
217.403	273.44
217.621	158.89
217.839	274.27
218.057	268.52
218.275	178.43
218.492	108.49
218.71	56.6
218.928	48.53
219.146	96.36
219.363	154.89
219.581	153.18
219.799	145.09
220.017	68.67
220.234	15.41
220.452	2.45
220.67	80.38
220.887	83.1
221.105	128.2
221.323	111.58
221.54	89.21
221.758	62.76
221.976	90.13
222.193	68.88
222.411	74.86
222.629	79.48
222.846	74.04
223.064	72.85
223.281	73.72
223.499	82.2
223.716	81.29
223.934	66.82
224.151	86.08
224.369	56.25
224.586	69.74
224.804	74.39
225.021	46.04
225.239	54.57
225.456	36.15
225.674	37.23
225.891	43.98
226.108	36.51
226.326	53.18
226.543	33.64
226.76	33.03
226.978	32.38
227.195	27.94
227.413	38.38
227.63	37.95
227.847	34.23
228.064	30.79
228.282	28.35
228.499	31.58
228.716	22.9
228.934	25.67
229.151	30.45
229.368	29.3
229.585	28.32
229.802	22.97
230.02	20.49
230.237	22.25
230.454	23.15
230.671	21.7
230.888	18.07
231.105	16.56
231.323	18.65
231.54	7.55
231.757	5.67
231.974	3.48
232.191	4.4
232.408	7.28
232.625	4.93
232.842	6.47
233.059	9
233.276	16.6
233.493	19.12
233.71	9.15
233.927	14.49
234.144	13.7
234.361	13.2
234.578	19.66
234.795	19.5
235.012	18.22
235.229	17.16
235.446	22.53
235.663	20.9
235.879	25.82
236.096	27.87
236.313	27.28
236.53	26.2
236.747	28.99
236.964	27.26
237.181	33.24
237.397	33.9
237.614	37.52
237.831	37.4
238.048	38.58
238.264	34.41
238.481	37.66
238.698	35.28
238.915	38.33
239.131	34.84
239.348	32.7
239.565	26.37
239.781	27.28
239.998	26.88
240.215	18.16
240.431	11.47
240.648	16.77
240.865	17.65
241.081	19.13
241.298	18.9
241.514	20.33
241.731	21.76
241.947	20.73
242.164	18.94
242.38	17.19
242.597	17.22
242.814	18.94
243.03	18.07
243.246	17.9
243.463	16.91
243.679	16.78
243.896	15.78
244.112	15
244.329	14.11
244.545	16.39
244.762	15.05
244.978	17.72
245.194	16.44
245.411	16.55
245.627	18.94
245.843	17.67
246.06	19.73
246.276	19.26
246.492	18.05
246.709	18.31
246.925	17.41
247.141	18.63
247.357	17.35
247.574	17.16
247.79	15.66
248.006	15.02
248.222	15.77
248.439	14.07
248.655	12.58
248.871	12.11
249.087	10.44
249.303	9.77
249.519	8.13
249.736	7.59
249.952	8.48
250.168	11.21
250.384	8.81
250.6	8.72
250.816	10.85
251.032	11.59
251.248	10.14
251.464	12.42
251.68	11.32
251.896	11.53
252.112	10.42
252.328	9.35
252.544	8.37
252.76	7.01
252.976	5.73
253.192	4.29
253.408	3.99
253.624	8.58
253.84	7.83
254.056	9.09
254.272	8.73
254.487	8.51
254.703	8.3
254.919	8.72
255.135	8.81
255.351	9.5
255.567	9.49
255.782	13.42
255.998	11.13
256.214	12.38
256.43	11.59
256.646	10.22
256.861	15.04
257.077	11.93
257.293	11.14
257.508	10.73
257.724	10.09
257.94	9.77
258.155	8.07
258.371	7.2
258.587	7.35
258.802	8.57
259.018	9.58
259.234	10.28
259.449	11.6
259.665	11.24
259.88	11.65
260.096	12.16
260.312	12.13
260.527	12.53
260.743	13.53
260.958	13.4
261.174	12.03
261.389	11.25
261.605	9.82
261.82	8.95
262.036	8.72
262.251	10.03
262.466	9.66
262.682	10.68
262.897	9.18
263.113	6.66
263.328	5.92
263.543	8.37
263.759	8.09
263.974	8.96
264.189	10.1
264.405	11.96
264.62	11.24
264.835	12.18
265.051	9.78
265.266	14.18
265.481	15.2
265.696	18.69
265.912	18.4
266.127	19.03
266.342	17.24
266.557	17.27
266.773	15.55
266.988	14.29
267.203	11.46
267.418	12.81
267.633	10.31
267.848	10.89
268.064	9.17
268.279	7.32
268.494	5.2
268.709	4.86
268.924	2.92
269.139	3.09
269.354	3.39
269.569	5.29
269.784	5.94
269.999	5.75
270.214	3.71
270.429	1.3
270.644	2.81
270.859	4.96
271.074	6.37
271.289	6.1
271.504	5.59
271.719	4.67
271.934	5.34
272.149	4.97
272.363	6.26
272.578	6.3
272.793	7.27
273.008	7.05
273.223	6.11
273.438	5.73
273.653	7.32
273.867	7.2
274.082	7.86
274.297	6.42
274.512	6.21
274.726	5.91
274.941	5.87
275.156	7.2
275.371	7.59
275.585	7.93
275.8	8.32
276.015	7.4
276.229	8.4
276.444	7.5
276.659	9.71
276.873	9.54
277.088	8.28
277.302	9.61
277.517	9.25
277.732	8.82
277.946	8.69
278.161	8.21
278.375	7.68
278.59	8.8
278.804	10.25
279.019	8.32
279.233	7.77
279.448	5.9
279.662	4.76
279.877	5.46
280.091	4.59
280.306	6.65
280.52	5.3
280.735	5.45
280.949	3.72
281.163	3.94
281.378	4.69
281.592	3.39
281.806	5.13
282.021	4.18
282.235	4.2
282.449	5.56
282.664	6.11
282.878	7.82
283.092	8.15
283.307	9.76
283.521	9.42
283.735	9.75
283.949	11.37
284.164	12.12
284.378	13.47
284.592	12.69
284.806	12.76
285.02	11.4
285.234	10.28
285.449	9.27
285.663	9.33
285.877	10.21
286.091	9.92
286.305	9.95
286.519	9.73
286.733	9.58
286.947	9.83
287.161	9.62
287.375	9.98
287.589	9.8
287.803	10.22
288.017	8.64
288.231	6.5
288.445	5.62
288.659	5.39
288.873	5.28
289.087	4.64
289.301	4.78
289.515	5.87
289.729	5.21
289.943	6.13
290.157	8.61
290.371	9.28
290.584	9.95
290.798	11.2
291.012	10.54
291.226	10.81
291.44	11.05
291.654	12.13
291.867	10.43
292.081	11.4
292.295	11.19
292.509	9.56
292.722	10.37
292.936	10.96
293.15	12.45
293.364	14.1
293.577	15.36
293.791	15.8
294.005	14.17
294.218	14.1
294.432	14.09
294.645	14.06
294.859	14.91
295.073	15.53
295.286	15.4
295.5	12.63
295.713	11.92
295.927	11.36
296.14	12.04
296.354	12.37
296.568	12.45
296.781	11.82
296.994	13.1
297.208	13.29
297.421	11.86
297.635	11.71
297.848	11.9
298.062	12.28
298.275	13.31
298.489	13.51
298.702	11.83
298.915	11.45
299.129	12.6
299.342	10.43
299.555	10
299.769	9.7
299.982	10.23
300.195	11.61
300.409	12.17
300.622	8.96
300.835	9.16
301.048	11.39
301.262	11.74
301.475	10.44
301.688	10.44
301.901	10.64
302.115	11.44
302.328	10.38
302.541	9.02
302.754	8.69
302.967	11.22
303.18	10.55
303.393	12.4
303.607	13.64
303.82	14.51
304.033	16.44
304.246	16.21
304.459	16.44
304.672	16.68
304.885	17.57
305.098	15.52
305.311	12.95
305.524	11.8
305.737	8.82
305.95	9.09
306.163	7.94
306.376	7.89
306.589	7.1
306.802	4.37
307.015	5.66
307.228	5.16
307.44	6.52
307.653	9.09
307.866	10.25
308.079	12.43
308.292	11.67
308.505	11.55
308.718	11.65
308.93	10.72
309.143	13.23
309.356	12.1
309.569	10.84
309.781	10.86
309.994	10.15
310.207	9.09
310.42	8.91
310.632	8.18
310.845	8.84
311.058	8.16
311.27	8.63
311.483	8.5
311.696	8.96
311.908	9.95
312.121	8.88
312.333	9.26
312.546	8.67
312.759	7.57
312.971	8.41
313.184	7.25
313.396	6.02
313.609	5.41
313.821	5.48
314.034	6.28
314.246	6.65
314.459	8.06
314.671	8.13
314.884	9.14
315.096	9
315.309	10.21
315.521	12.45
315.733	14.2
315.946	15.74
316.158	16.34
316.371	15.08
316.583	12.98
316.795	12.78
317.008	13.25
317.22	13.91
317.432	14.92
317.644	15.24
317.857	14.21
318.069	14.5
318.281	13.58
318.494	9.68
318.706	9.51
318.918	11.31
319.13	10.96
319.342	8.47
319.555	9.73
319.767	10.18
319.979	7.44
320.191	5.28
320.403	5.02
320.615	3.35
320.827	7.19
321.039	8.02
321.252	7.54
321.464	8.31
321.676	10.65
321.888	9.91
322.1	8.23
322.312	9.23
322.524	11.45
322.736	12.18
322.948	12.73
323.16	11.88
323.372	11.05
323.584	11.07
323.796	10.26
324.007	9.01
324.219	9.85
324.431	9.97
324.643	10.72
324.855	10.3
325.067	8.68
325.279	8.55
325.491	8.11
325.702	8.91
325.914	10.03
326.126	9.93
326.338	10.43
326.55	9.62
326.761	9.18
326.973	9.34
327.185	9.05
327.396	10.45
327.608	11.55
327.82	12.39
328.032	11.92
328.243	10.93
328.455	12.09
328.666	11.91
328.878	12.89
329.09	13.57
329.301	13.69
329.513	14.35
329.725	12.97
329.936	13.9
330.148	14.62
330.359	16.23
330.571	16.56
330.782	16.96
330.994	17.98
331.205	16.22
331.417	17.55
331.628	16.14
331.84	16.8
332.051	18.51
332.262	18.81
332.474	18.55
332.685	15.99
332.897	15.18
333.108	14.39
333.319	14.47
333.531	14.91
333.742	12.42
333.953	12.29
334.165	12.34
334.376	10.94
334.587	10.49
334.799	9.77
335.01	10.8
335.221	10.99
335.432	10.19
335.644	9.75
335.855	10.81
336.066	13.05
336.277	14.29
336.488	14.38
336.7	15.01
336.911	15.65
337.122	16.58
337.333	17.61
337.544	19.31
337.755	19.89
337.966	19.54
338.177	17.88
338.388	18.31
338.599	18.43
338.811	17.04
339.022	17.38
339.233	15.34
339.444	13.53
339.655	12.92
339.866	12.13
340.076	11.22
340.287	13.06
340.498	14.29
340.709	14.05
340.92	13.43
341.131	14.76
341.342	13.97
341.553	16.03
341.764	16.79
341.975	15.83
342.185	15.73
342.396	16.49
342.607	15.32
342.818	15.45
343.029	14.63
343.239	14.77
343.45	15.73
343.661	17.36
343.872	15.12
344.082	15.49
344.293	16.51
344.504	16.78
344.714	16.52
344.925	16.34
345.136	15.09
345.346	14.82
345.557	14.06
345.768	13.52
345.978	11.4
346.189	12.21
346.399	11.17
346.61	11.18
346.821	10.54
347.031	10.77
347.242	10.9
347.452	12.85
347.663	13.76
347.873	14.37
348.084	13.91
348.294	15.03
348.504	14.92
348.715	16.93
348.925	15.65
349.136	16.04
349.346	16.18
349.557	15.82
349.767	14.41
349.977	13.15
350.188	12.75
350.398	12.66
350.608	12.44
350.819	12.34
351.029	10.36
351.239	11.51
351.449	11.45
351.66	11.44
351.87	11.41
352.08	11.34
352.29	12.49
352.501	14.32
352.711	14.92
352.921	14.84
353.131	14.65
353.341	14.95
353.552	15.44
353.762	14.35
353.972	15.62
354.182	15.83
354.392	16.39
354.602	16.18
354.812	15
355.022	13.62
355.232	13.28
355.442	13.16
355.652	14.8
355.862	13.06
356.072	13.79
356.282	12.64
356.492	12.62
356.702	13.6
356.912	13.28
357.122	13.39
357.332	14.36
357.542	14.94
357.752	15.5
357.962	13.7
358.171	14.29
358.381	14.96
358.591	15.01
358.801	14.7
359.011	13.85
359.221	14.29
359.43	14.26
359.64	13.8
359.85	13.85
360.06	13.61
360.269	13.9
360.479	14.01
360.689	13.41
360.899	13.01
361.108	13.65
361.318	13.89
361.528	13.83
361.737	14
361.947	13.99
362.156	12.96
362.366	13.86
362.576	14.19
362.785	13.83
362.995	14.03
363.204	14.45
363.414	14.62
363.623	14.81
363.833	14.57
364.042	13.85
364.252	14.28
364.461	14.76
364.671	14.57
364.88	15
365.09	15.34
365.299	15.36
365.509	15.02
365.718	14.9
365.927	14.06
366.137	14.42
366.346	15.31
366.555	15.36
366.765	16.09
366.974	15.2
367.183	15.3
367.393	15.33
367.602	15.04
367.811	15.39
368.021	14.15
368.23	13.58
368.439	12.06
368.648	10.73
368.857	10.07
369.067	9.75
369.276	9.87
369.485	9.39
369.694	9.61
369.903	8.47
370.112	8.23
370.321	8.37
370.531	9.74
370.74	10.31
370.949	10.39
371.158	10
371.367	8.93
371.576	9.76
371.785	9.78
371.994	9.18
372.203	9.88
372.412	9.41
372.621	10
372.83	8.98
373.039	9.17
373.248	9.5
373.457	9.88
373.666	9.92
373.874	9.8
374.083	9.64
374.292	10.21
374.501	10.69
374.71	11.51
374.919	12.03
375.128	12.67
375.336	13.58
375.545	13.52
375.754	13.2
375.963	13.81
376.171	12.93
376.38	12.59
376.589	12.62
376.798	12.2
377.006	11.62
377.215	11.07
377.424	10.71
377.632	10.31
377.841	10.32
378.05	10.51
378.258	10.75
378.467	11.45
378.675	11.69
378.884	11.18
379.093	11.34
379.301	11.28
379.51	11.18
379.718	11.54
379.927	11.74
380.135	11.81
380.344	11.57
380.552	11.53
380.761	10.45
380.969	10.22
381.177	10.51
381.386	10.6
381.594	10.79
381.803	10.38
382.011	10.02
382.219	9.32
382.428	8.78
382.636	9.04
382.845	8.4
383.053	8.62
383.261	8.62
383.469	8.41
383.678	8.34
383.886	8.38
384.094	8.8
384.302	9.12
384.511	9.41
384.719	9.78
384.927	9.57
385.135	9.88
385.343	9.94
385.552	10.41
385.76	10.39
385.968	10.24
386.176	10.25
386.384	10.46
386.592	9.81
386.8	9.96
387.008	9.69
387.216	9.52
387.424	9.82
387.633	9.59
387.841	8.8
388.049	8.86
388.257	8.79
388.465	8.68
388.672	8.17
388.88	8.28
389.088	7.92
389.296	7.72
389.504	7.94
389.712	7.46
389.92	7.32
390.128	7.47
390.336	7.43
390.544	7.95
390.751	8.09
390.959	8.25
391.167	8.59
391.375	8.62
391.583	9.15
391.79	8.88
391.998	8.88
392.206	8.9
392.414	9.11
392.621	9.21
392.829	9.02
393.037	8.79
393.244	8.93
393.452	8.72
393.66	8.66
393.867	8.39
394.075	8.53
394.283	8.52
394.49	8.53
394.698	8.61
394.905	8.61
395.113	8.12
395.32	8.36
395.528	8.36
395.735	7.93
395.943	8.08
396.15	7.81
396.358	7.99
396.565	8.05
396.773	8.29
396.98	8.29
397.188	8.07
397.395	8.09
397.602	8.23
397.81	7.82
398.017	8.54
398.225	8.51
398.432	8.75
398.639	8.48
398.847	8.59
399.054	8.42
399.261	7.71
399.468	8.04
399.676	8.16
399.883	7.81
400.09	7.98
400.297	7.78
400.505	7.7
400.712	7.56
400.919	7.84
401.126	7.66
401.333	7.56
401.54	7.96
401.748	7.47
401.955	7.38
402.162	7.01
402.369	7.16
402.576	7.17
402.783	7.14
402.99	7.53
403.197	7.18
403.404	7
403.611	7.17
403.818	6.98
404.025	6.98
404.232	7.01
404.439	7.25
404.646	6.95
404.853	6.9
405.06	7.04
405.267	7.01
405.474	7.21
405.681	7.41
405.887	7.2
406.094	7.23
406.301	7.27
406.508	7.38
406.715	7.69
406.922	8.03
407.128	7.9
407.335	7.38
407.542	7.3
407.749	7.31
407.955	7.37
408.162	7.5
408.369	7.85
408.575	7.98
408.782	7.96
408.989	7.39
409.195	7.17
409.402	7.35
409.609	7.33
409.815	7.14
410.022	7.14
410.228	7.05
410.435	7.01
410.642	6.87
410.848	6.71
411.055	6.54
411.261	6.61
411.468	6.71
411.674	6.81
411.881	7.02
412.087	7
412.294	7.14
412.5	7.09
412.706	7.08
412.913	6.86
413.119	7.06
413.326	7.09
413.532	7.34
413.738	7.32
413.945	7.01
414.151	6.97
414.357	7.04
414.564	6.89
414.77	7.17
414.976	7.11
415.182	6.92
415.389	7.03
415.595	7.28
415.801	7.14
416.007	6.91
416.214	7.11
416.42	7.34
416.626	7.26
416.832	7.14
417.038	6.61
417.244	6.83
417.45	7.25
417.657	7.16
417.863	6.99
418.069	7.13
418.275	7.26
418.481	7.19
418.687	6.98
418.893	7.05
419.099	7.15
419.305	7.42
419.511	7.44
419.717	7.35
419.923	7.34
420.129	7.46
420.335	7.55
420.541	7.54
420.746	7.45
420.952	7.52
421.158	7.51
421.364	7.48
421.57	7.51
421.776	7.58
421.982	7.57
422.187	7.59
422.393	7.44
422.599	7.42
422.805	7.52
423.01	7.58
423.216	7.56
423.422	7.63
423.628	7.76
423.833	7.74
424.039	7.59
424.245	7.53
424.45	7.41
424.656	7.53
424.862	7.33
425.067	7.23
425.273	7.27
425.478	7.18
425.684	7.07
425.889	6.83
426.095	6.91
426.301	7.04
426.506	6.87
426.712	6.91
426.917	6.84
427.123	6.87
427.328	6.81
427.533	6.67
427.739	6.86
427.944	6.93
428.15	6.86
428.355	6.62
428.561	6.6
428.766	7.03
428.971	7.14
429.177	7.11
429.382	7.15
429.587	7.23
429.793	7.32
429.998	7.41
430.203	7.38
430.408	7.51
430.614	7.44
430.819	7.35
431.024	7.43
431.229	7.5
431.434	7.62
431.64	7.75
431.845	7.76
432.05	7.63
432.255	7.48
432.46	7.63
432.665	7.58
432.87	7.66
433.076	7.6
433.281	7.34
433.486	7.29
433.691	7.27
433.896	7.27
434.101	7.24
434.306	7.24
434.511	7.17
434.716	7.04
434.921	6.95
435.126	7.04
435.331	7.12
435.535	7.27
435.74	7.08
435.945	6.93
436.15	6.8
436.355	6.75
436.56	6.86
436.765	6.76
436.97	7.07
437.174	7.46
437.379	7.18
437.584	7.01
437.789	6.84
437.993	7.09
438.198	7.18
438.403	7.2
438.608	7.11
438.812	7.1
439.017	7.42
439.222	7.14
439.426	6.88
439.631	7.01
439.836	7.09
440.04	7.27
440.245	7.4
440.45	7.39
440.654	7.35
440.859	7.46
441.063	7.41
441.268	7.33
441.472	7.25
441.677	7.38
441.881	7.45
442.086	7.5
442.29	7.25
442.495	7.09
442.699	7.1
442.904	7.19
443.108	7.17
443.312	7.14
443.517	7.02
443.721	7.08
443.925	6.97
444.13	6.92
444.334	6.65
444.538	6.82
444.743	6.74
444.947	6.85
445.151	6.78
445.356	6.88
445.56	6.93
445.764	7.04
445.968	7.2
446.173	7.18
446.377	7.14
446.581	7.35
446.785	7.3
446.989	7.14
447.193	7.01
447.398	7.11
447.602	7.07
447.806	7.05
448.01	6.97
448.214	6.89
448.418	7.01
448.622	7.03
448.826	6.88
449.03	6.95
449.234	7.16
449.438	7.17
449.642	7.05
449.846	6.99
450.05	6.87
450.254	6.84
450.458	6.88
450.662	6.7
450.866	6.66
451.069	6.84
451.273	6.51
451.477	6.63
451.681	6.57
451.885	6.71
452.089	6.69
452.292	6.8
452.496	6.88
452.7	6.79
452.904	6.95
453.107	7.04
453.311	7
453.515	7.23
453.719	7.04
453.922	7.08
454.126	6.94
454.33	6.75
454.533	6.69
454.737	6.63
454.94	6.7
455.144	6.73
455.348	6.68
455.551	6.64
455.755	6.63
455.958	6.8
456.162	6.69
456.365	6.73
456.569	7
456.772	7.04
456.976	7.17
457.179	7.15
457.383	7.19
457.586	7.14
457.79	7.03
457.993	7.15
458.196	6.97
458.4	7.17
458.603	7.1
458.807	6.92
459.01	7.08
459.213	6.95
459.417	7
459.62	6.9
459.823	6.82
460.026	6.92
460.23	6.85
460.433	7.03
460.636	6.99
460.839	6.97
461.042	7.11
461.246	6.92
461.449	6.88
461.652	6.63
461.855	6.6
462.058	6.67
462.261	6.52
462.464	6.38
462.668	6.35
462.871	6.2
463.074	6.24
463.277	6.59
463.48	6.56
463.683	6.61
463.886	6.8
464.089	6.74
464.292	6.81
