Data from 2937834_Reflection_1.txt Node
Date: Wed Jul 15 16:36:17 EDT 2015
User: robert
Spectrometer: USB4E03001
Autoset integration time: false
Trigger mode: 4
Integration Time (sec): 1.000000E-1
Scans to average: 10
Electric dark correction enabled: true
Nonlinearity correction enabled: false
Boxcar width: 5
Stray light correction enabled: false
XAxis mode: Wavelengths
Stop averaging: false
Number of Pixels in Spectrum: 3648
>>>>>Begin Spectral Data<<<<<
177.566	-28.78
177.785	-148.52
178.005	184.62
178.225	170.3
178.445	96.29
178.665	60.7
178.885	49.82
179.105	124.22
179.324	133.27
179.544	89.63
179.764	52.76
179.984	22.12
180.204	364.19
180.423	110.44
180.643	122.24
180.863	100.88
181.083	52.19
181.302	680.22
181.522	421.07
181.742	-6.02
181.961	-114.02
182.181	-68.52
182.401	-153.14
182.621	-1462.39
182.84	-93.54
183.06	-74.95
183.279	-53.32
183.499	-64.15
183.719	-10.96
183.938	-13.17
184.158	-7.9
184.377	33.67
184.597	10.03
184.816	39.18
185.036	50.47
185.256	38.35
185.475	57.42
185.695	89.02
185.914	84.99
186.134	81.5
186.353	102.12
186.572	70.77
186.792	40.49
187.011	69.4
187.231	64.2
187.45	58.48
187.67	62.18
187.889	65.07
188.108	54.93
188.328	69.31
188.547	64.7
188.766	49.28
188.986	60.36
189.205	65.81
189.424	71.65
189.644	69.02
189.863	71.18
190.082	79.02
190.302	80.8
190.521	91.79
190.74	67.1
190.959	97.16
191.178	100.62
191.398	159.96
191.617	103.73
191.836	39.89
192.055	108.49
192.274	19.58
192.494	5.58
192.713	21.26
192.932	-31.23
193.151	37.63
193.37	5.03
193.589	40.18
193.808	49.55
194.027	60.31
194.246	79.84
194.465	65.21
194.685	73.19
194.904	52.89
195.123	35.02
195.342	57.91
195.561	81.91
195.78	92.64
195.999	78.37
196.218	78.43
196.436	328.59
196.655	183.32
196.874	225.32
197.093	-4983.08
197.312	-376.11
197.531	591.99
197.75	-666.15
197.969	-208.32
198.188	-632.97
198.407	731.07
198.625	204.61
198.844	71.69
199.063	63.05
199.282	45.49
199.501	49.96
199.719	49.03
199.938	61.52
200.157	73.95
200.376	71.21
200.594	57.48
200.813	56.23
201.032	64.77
201.251	65.11
201.469	59.88
201.688	49.07
201.907	42.38
202.125	33.51
202.344	34.51
202.563	10.15
202.781	3.83
203	14.93
203.218	23.41
203.437	27.74
203.656	38.62
203.874	35.11
204.093	55.26
204.311	63.76
204.53	64.9
204.748	52.09
204.967	57.39
205.185	53.76
205.404	55.27
205.622	46.89
205.841	38.86
206.059	21.4
206.278	57.8
206.496	45.14
206.715	33.67
206.933	-3.68
207.151	46.95
207.37	1296.15
207.588	43.08
207.806	102.98
208.025	48.64
208.243	143.1
208.461	279.23
208.68	230.06
208.898	377.71
209.116	440.71
209.335	185.43
209.553	302.63
209.771	213.75
209.989	181.88
210.208	146.52
210.426	127.29
210.644	168.2
210.862	155.76
211.081	115.52
211.299	90.79
211.517	87.63
211.735	82.53
211.953	80.84
212.171	92.39
212.39	78.37
212.608	78.05
212.826	73.66
213.044	68.84
213.262	54.78
213.48	57.75
213.698	37.91
213.916	20.02
214.134	37.49
214.352	25.79
214.57	36.67
214.788	52
215.006	61.11
215.224	67.92
215.442	59.18
215.66	62.37
215.878	64.63
216.096	67.87
216.314	75.59
216.532	56
216.75	70.04
216.968	41.87
217.185	29.36
217.403	18.16
217.621	28.45
217.839	-4.27
218.057	-7.54
218.275	-0.32
218.492	33.64
218.71	11.45
218.928	12.23
219.146	-29.66
219.363	20.63
219.581	48.9
219.799	52.74
220.017	67.16
220.234	67.19
220.452	79.68
220.67	68.7
220.887	77.21
221.105	91.82
221.323	86.52
221.54	105.13
221.758	86.33
221.976	82.47
222.193	80.64
222.411	57.6
222.629	51.7
222.846	34.29
223.064	37.34
223.281	17.82
223.499	7.7
223.716	25.19
223.934	-7
224.151	-12.28
224.369	-2.61
224.586	-10.97
224.804	-2.97
225.021	11.05
225.239	20.02
225.456	4.13
225.674	8.1
225.891	11.41
226.108	-1.51
226.326	6.16
226.543	6.81
226.76	4.26
226.978	11.3
227.195	7.57
227.413	5.94
227.63	3.49
227.847	11.74
228.064	12.81
228.282	15.79
228.499	17.1
228.716	16.8
228.934	21.8
229.151	20.22
229.368	19.03
229.585	18.4
229.802	16.63
230.02	16.2
230.237	13
230.454	10.93
230.671	11.09
230.888	9.94
231.105	9.08
231.323	4.98
231.54	10.17
231.757	9.35
231.974	7.26
232.191	12.77
232.408	17.91
232.625	19.87
232.842	18.88
233.059	19.49
233.276	27.66
233.493	26.06
233.71	17.72
233.927	14.5
234.144	9.14
234.361	14.24
234.578	15.48
234.795	17.47
235.012	15.1
235.229	15.88
235.446	13.56
235.663	9.13
235.879	15.42
236.096	23.41
236.313	23.07
236.53	28
236.747	28.31
236.964	23.47
237.181	17.21
237.397	23.91
237.614	21.59
237.831	21.7
238.048	19.09
238.264	14.43
238.481	13.06
238.698	10.49
238.915	11.96
239.131	12.47
239.348	11.47
239.565	10.85
239.781	9.31
239.998	14.23
240.215	15.42
240.431	15.12
240.648	17.31
240.865	16.87
241.081	18.13
241.298	17.09
241.514	14
241.731	14.9
241.947	15.85
242.164	14.52
242.38	14.6
242.597	15.54
242.814	16.87
243.03	16.03
243.246	16.57
243.463	16.14
243.679	16
243.896	17.61
244.112	19.87
244.329	19
244.545	20.25
244.762	20.12
244.978	17.16
245.194	18.11
245.411	17.1
245.627	15.8
245.843	16.19
246.06	15.82
246.276	14.09
246.492	12.39
246.709	13.37
246.925	13.24
247.141	12.68
247.357	13.42
247.574	12.93
247.79	13.44
248.006	12.89
248.222	12.36
248.439	11.81
248.655	11.09
248.871	12.19
249.087	11.42
249.303	9.58
249.519	8.3
249.736	9.83
249.952	8.65
250.168	6.43
250.384	6.91
250.6	6.26
250.816	7.9
251.032	9.99
251.248	8.33
251.464	8.65
251.68	10.9
251.896	14
252.112	12.19
252.328	12.12
252.544	13
252.76	10.96
252.976	10.06
253.192	9.8
253.408	9.07
253.624	10.15
253.84	10.56
254.056	8.45
254.272	6.86
254.487	5.3
254.703	7.6
254.919	7.53
255.135	10.83
255.351	14.43
255.567	13.83
255.782	16.63
255.998	14.98
256.214	13.31
256.43	15.78
256.646	15.82
256.861	13.52
257.077	12.78
257.293	11.44
257.508	10.01
257.724	8.64
257.94	8.64
258.155	7.49
258.371	7.66
258.587	8.44
258.802	7.94
259.018	7.37
259.234	8.73
259.449	7.6
259.665	8.59
259.88	9.38
260.096	9.7
260.312	9.71
260.527	9.69
260.743	9
260.958	9.42
261.174	9.99
261.389	10.65
261.605	10.33
261.82	11.27
262.036	10.81
262.251	9.91
262.466	8.22
262.682	8.32
262.897	8.08
263.113	8.86
263.328	8.38
263.543	9.25
263.759	9.08
263.974	10.42
264.189	10.33
264.405	8.82
264.62	9.05
264.835	10.04
265.051	11
265.266	13.08
265.481	12.61
265.696	11.03
265.912	11.18
266.127	10.54
266.342	8.91
266.557	9.86
266.773	11.24
266.988	11.55
267.203	11.27
267.418	8.84
267.633	7.51
267.848	8.81
268.064	11.38
268.279	11.66
268.494	10.92
268.709	12.48
268.924	11.37
269.139	10.35
269.354	10.7
269.569	10.76
269.784	11.65
269.999	10.85
270.214	9.99
270.429	8.08
270.644	7.28
270.859	7.73
271.074	6.67
271.289	7.15
271.504	9.41
271.719	9.62
271.934	9.11
272.149	9.82
272.363	11.28
272.578	12.04
272.793	13.14
273.008	12.45
273.223	13.15
273.438	14.3
273.653	14.74
273.867	12.96
274.082	11.87
274.297	14.73
274.512	15.74
274.726	14.72
274.941	13.94
275.156	13.91
275.371	12.47
275.585	12.34
275.8	9.9
276.015	9.41
276.229	10.03
276.444	13.03
276.659	10.88
276.873	9.2
277.088	8.88
277.302	8.72
277.517	8.09
277.732	9.13
277.946	6.72
278.161	8.15
278.375	6.94
278.59	7.52
278.804	5.89
279.019	7.96
279.233	9.01
279.448	8.58
279.662	8.54
279.877	8.88
280.091	10.06
280.306	11.61
280.52	11.4
280.735	12.05
280.949	12.38
281.163	13
281.378	11.39
281.592	12.72
281.806	13.07
282.021	13.3
282.235	12.79
282.449	13.1
282.664	12.59
282.878	13.85
283.092	15
283.307	15.18
283.521	13.44
283.735	14.15
283.949	11.39
284.164	11.22
284.378	11.33
284.592	10.8
284.806	10.96
285.02	10.49
285.234	9.14
285.449	6.89
285.663	6.55
285.877	7.4
286.091	6.66
286.305	7.57
286.519	7.12
286.733	5.99
286.947	6.68
287.161	6.59
287.375	6.84
287.589	7.75
287.803	9.14
288.017	7.99
288.231	8.03
288.445	9.49
288.659	10.29
288.873	11.41
289.087	13.42
289.301	13.34
289.515	11.79
289.729	13.69
289.943	12.97
290.157	12.98
290.371	13.55
290.584	14.04
290.798	12.19
291.012	10.33
291.226	9.13
291.44	8.08
291.654	5.8
291.867	6.08
292.081	4.76
292.295	3.93
292.509	4.57
292.722	5.33
292.936	3.49
293.15	4.89
293.364	5.74
293.577	7.97
293.791	8.15
294.005	11.72
294.218	12.37
294.432	12.58
294.645	13.13
294.859	12.3
295.073	12.65
295.286	13.35
295.5	12.55
295.713	13.89
295.927	12.96
296.14	12.76
296.354	11.85
296.568	12.97
296.781	12.46
296.994	12.89
297.208	13.64
297.421	12.41
297.635	12.05
297.848	12.68
298.062	12.37
298.275	13.1
298.489	13.19
298.702	12.23
298.915	10.87
299.129	11.1
299.342	11.22
299.555	10.04
299.769	12.27
299.982	12.78
300.195	12.64
300.409	11.74
300.622	10.3
300.835	11.46
301.048	12
301.262	13.19
301.475	12.32
301.688	11.62
301.901	13.3
302.115	11.14
302.328	10.87
302.541	11.34
302.754	13.04
302.967	15.51
303.18	14.63
303.393	15.84
303.607	14.88
303.82	17.65
304.033	18.04
304.246	17.41
304.459	18.18
304.672	19.15
304.885	19.38
305.098	17.21
305.311	14.94
305.524	15.22
305.737	14.91
305.95	16.75
306.163	14.25
306.376	13.84
306.589	12.82
306.802	12.35
307.015	14.33
307.228	13.22
307.44	14.93
307.653	16.93
307.866	17.4
308.079	17.86
308.292	15.56
308.505	17.35
308.718	16.66
308.93	17.08
309.143	16.92
309.356	15.81
309.569	16.59
309.781	16.23
309.994	15.72
310.207	14.35
310.42	14.06
310.632	13.92
310.845	13.63
311.058	13.75
311.27	13.91
311.483	14.36
311.696	12.44
311.908	11.56
312.121	11.55
312.333	10.4
312.546	11.6
312.759	11.7
312.971	11.89
313.184	10.31
313.396	11.75
313.609	11.8
313.821	11.89
314.034	12.01
314.246	13.56
314.459	13.01
314.671	13.98
314.884	13.4
315.096	12.12
315.309	13.14
315.521	13.46
315.733	13
315.946	12.63
316.158	12.81
316.371	14.89
316.583	12.85
316.795	12.51
317.008	11.69
317.22	12.22
317.432	13.31
317.644	14.96
317.857	16
318.069	15.44
318.281	14.61
318.494	13.84
318.706	12.88
318.918	14.2
319.13	14.58
319.342	14.67
319.555	13.66
319.767	14.72
319.979	13.76
320.191	14.33
320.403	13.57
320.615	13.73
320.827	14.79
321.039	15.55
321.252	15.41
321.464	15.72
321.676	15.38
321.888	15.91
322.1	14.97
322.312	16.3
322.524	15.02
322.736	16.79
322.948	17.37
323.16	16.98
323.372	17.57
323.584	18.61
323.796	17.34
324.007	17.72
324.219	17.98
324.431	17.48
324.643	14.58
324.855	13.83
325.067	12.57
325.279	12.84
325.491	12.92
325.702	11.16
325.914	10.19
326.126	11.58
326.338	10.9
326.55	11.55
326.761	11.35
326.973	11.81
327.185	12.16
327.396	11.57
327.608	10.67
327.82	11.06
328.032	9.04
328.243	8.18
328.455	8.27
328.666	10.31
328.878	9.95
329.09	11.11
329.301	12.03
329.513	12.33
329.725	13.03
329.936	14.13
330.148	13.94
330.359	17.19
330.571	19.12
330.782	18.77
330.994	19.03
331.205	19.58
331.417	17.86
331.628	17.49
331.84	17.98
332.051	18.87
332.262	18.34
332.474	17.82
332.685	18.67
332.897	15.83
333.108	17.17
333.319	15.25
333.531	13.67
333.742	14.79
333.953	14.14
334.165	12.9
334.376	12.58
334.587	12.79
334.799	12.6
335.01	12.05
335.221	13.9
335.432	14.37
335.644	14.51
335.855	13.51
336.066	12.72
336.277	14.11
336.488	15.25
336.7	17.19
336.911	19.77
337.122	20.62
337.333	21.25
337.544	20.91
337.755	18.85
337.966	17.74
338.177	19.24
338.388	20.44
338.599	19.58
338.811	19.4
339.022	16.75
339.233	14.65
339.444	14.32
339.655	15.02
339.866	14.5
340.076	14.56
340.287	15.79
340.498	16.36
340.709	15.26
340.92	14.77
341.131	15.76
341.342	16.71
341.553	16.91
341.764	18.83
341.975	18.32
342.185	18.87
342.396	20.64
342.607	22.46
342.818	23.22
343.029	23.65
343.239	24.28
343.45	24.08
343.661	23.78
343.872	22.8
344.082	21.31
344.293	19.98
344.504	20.67
344.714	18.64
344.925	17.82
345.136	16.66
345.346	17.21
345.557	18.02
345.768	16.78
345.978	17.18
346.189	16.54
346.399	16.27
346.61	17.8
346.821	17.31
347.031	18.7
347.242	17.66
347.452	16.73
347.663	16.76
347.873	14.32
348.084	16.49
348.294	15.96
348.504	16.25
348.715	16.14
348.925	14.52
349.136	14.33
349.346	14.08
349.557	14.97
349.767	16.56
349.977	15.96
350.188	17.78
350.398	17.23
350.608	17.91
350.819	18.18
351.029	18.38
351.239	19.81
351.449	20.02
351.66	19.99
351.87	19.99
352.08	19.73
352.29	19.71
352.501	18.87
352.711	18.59
352.921	19.2
353.131	19.02
353.341	19.66
353.552	19.49
353.762	19.94
353.972	19.97
354.182	20.72
354.392	20.49
354.602	20.06
354.812	20.89
355.022	20.62
355.232	19.58
355.442	19.38
355.652	18.43
355.862	18.03
356.072	17.63
356.282	17.9
356.492	16.61
356.702	16.53
356.912	16.43
357.122	15.76
357.332	16.45
357.542	16.64
357.752	17.47
357.962	17.57
358.171	16.59
358.381	16.38
358.591	16.21
358.801	16.74
359.011	15.7
359.221	15.48
359.43	16.15
359.64	14.71
359.85	13.76
360.06	13.47
360.269	12.82
360.479	13.34
360.689	14.06
360.899	13.67
361.108	14.2
361.318	13.93
361.528	14.4
361.737	14.27
361.947	14.27
362.156	15.12
362.366	15.55
362.576	16.61
362.785	16.36
362.995	16.05
363.204	16.35
363.414	15.54
363.623	16.26
363.833	16.31
364.042	16.05
364.252	16.54
364.461	15.81
364.671	15.83
364.88	15.26
365.09	15.77
365.299	15.03
365.509	15.11
365.718	15.7
365.927	15.91
366.137	15.53
366.346	15.92
366.555	15.58
366.765	16.34
366.974	16.41
367.183	15.99
367.393	15.54
367.602	15.54
367.811	15
368.021	14.19
368.23	14.2
368.439	14.56
368.648	13.83
368.857	13.43
369.067	11.56
369.276	10.45
369.485	10.75
369.694	11.46
369.903	11.36
370.112	11.63
370.321	11.89
370.531	11.79
370.74	11.22
370.949	11.71
371.158	12.07
371.367	13.75
371.576	14.39
371.785	14.63
371.994	14.09
372.203	13.78
372.412	13.7
372.621	13.81
372.83	14.38
373.039	14.85
373.248	14.23
373.457	13.81
373.666	12.69
373.874	12.07
374.083	12.43
374.292	12.1
374.501	12.14
374.71	12.2
374.919	12.63
375.128	11.55
375.336	11.77
375.545	11.89
375.754	12.13
375.963	13.42
376.171	13.23
376.38	12.43
376.589	13.05
376.798	13.68
377.006	13.1
377.215	12.14
377.424	12.52
377.632	12.45
377.841	12.59
378.05	12.61
378.258	11.77
378.467	12.01
378.675	12.38
378.884	12.35
379.093	12.23
379.301	12.27
379.51	12.72
379.718	12.3
379.927	11.65
380.135	11.7
380.344	11.55
380.552	11.56
380.761	11.48
380.969	11.04
381.177	10.56
381.386	10.59
381.594	10.44
381.803	9.77
382.011	10.56
382.219	11.39
382.428	11.35
382.636	11.38
382.845	11.69
383.053	12.22
383.261	12.07
383.469	11.95
383.678	11.61
383.886	12.35
384.094	12.77
384.302	12.35
384.511	12.19
384.719	11.96
384.927	11.97
385.135	11.31
385.343	10.78
385.552	10.36
385.76	10.65
385.968	10.21
386.176	10.13
386.384	10.48
386.592	10.48
386.8	10.21
387.008	10.59
387.216	10.52
387.424	10.66
387.633	10.43
387.841	10.71
388.049	10.23
388.257	10.93
388.465	10.79
388.672	10.39
388.88	10.04
389.088	9.83
389.296	9.19
389.504	9.32
389.712	9.09
389.92	9.14
390.128	9.03
390.336	9.28
390.544	9.17
390.751	8.8
390.959	8.41
391.167	8.25
391.375	8.49
391.583	8.92
391.79	9.03
391.998	9.35
392.206	9.08
392.414	9.36
392.621	9.31
392.829	9.2
393.037	9.35
393.244	9.35
393.452	9.31
393.66	8.99
393.867	8.79
394.075	8.47
394.283	8.24
394.49	8.5
394.698	8.23
394.905	8.25
395.113	8.03
395.32	7.85
395.528	7.84
395.735	7.92
395.943	7.81
396.15	7.69
396.358	7.9
396.565	8.1
396.773	7.82
396.98	8.03
397.188	7.47
397.395	7.76
397.602	7.88
397.81	8.03
398.017	8.02
398.225	8.24
398.432	8.17
398.639	7.93
398.847	7.83
399.054	7.82
399.261	7.31
399.468	7.46
399.676	7.13
399.883	7.07
400.09	7.01
400.297	6.44
400.505	6.46
400.712	6.45
400.919	6.44
401.126	6.34
401.333	6.46
401.54	6.88
401.748	6.95
401.955	6.94
402.162	6.75
402.369	6.9
402.576	7.28
402.783	7.29
402.99	7.42
403.197	7.51
403.404	7.52
403.611	7.49
403.818	7.47
404.025	7.55
404.232	7.56
404.439	7.75
404.646	7.51
404.853	7.48
405.06	7.24
405.267	7.34
405.474	7.24
405.681	7.32
405.887	7.53
406.094	7.41
406.301	7.23
406.508	7.29
406.715	7.4
406.922	7.11
407.128	7.43
407.335	7.4
407.542	7.25
407.749	7.22
407.955	7.12
408.162	6.97
408.369	6.95
408.575	7.29
408.782	7.1
408.989	6.72
409.195	7.1
409.402	7.09
409.609	7.16
409.815	7.15
410.022	7.49
410.228	7.32
410.435	7.4
410.642	7.24
410.848	6.77
411.055	6.98
411.261	7.15
411.468	7.09
411.674	7.07
411.881	7.06
412.087	6.86
412.294	6.46
412.5	6.52
412.706	6.34
412.913	6.54
413.119	6.73
413.326	6.5
413.532	6.45
413.738	6.41
413.945	6.16
414.151	6.03
414.357	6.03
414.564	5.86
414.77	5.76
414.976	5.77
415.182	5.61
415.389	5.65
415.595	5.77
415.801	5.91
416.007	5.76
416.214	5.8
416.42	6
416.626	6.18
416.832	6.16
417.038	6.33
417.244	6.41
417.45	6.39
417.657	6.47
417.863	6.61
418.069	6.63
418.275	6.68
418.481	6.69
418.687	6.71
418.893	6.55
419.099	6.62
419.305	6.74
419.511	6.7
419.717	6.85
419.923	6.95
420.129	6.92
420.335	6.81
420.541	7.02
420.746	7.18
420.952	7.21
421.158	7.29
421.364	7.47
421.57	7.44
421.776	7.42
421.982	7.41
422.187	7.3
422.393	7.23
422.599	7.3
422.805	7.25
423.01	7.05
423.216	6.93
423.422	6.92
423.628	6.86
423.833	6.75
424.039	6.65
424.245	6.64
424.45	6.77
424.656	6.74
424.862	6.66
425.067	6.5
425.273	6.57
425.478	6.73
425.684	6.63
425.889	6.45
426.095	6.53
426.301	6.67
426.506	6.62
426.712	6.36
426.917	6.27
427.123	6.22
427.328	6.42
427.533	6.41
427.739	5.9
427.944	6.18
428.15	6.28
428.355	6.15
428.561	6.3
428.766	6.37
428.971	6.28
429.177	6.33
429.382	6.43
429.587	6.22
429.793	6.31
429.998	6.62
430.203	6.17
430.408	6.24
430.614	6.32
430.819	5.87
431.024	5.77
431.229	6.02
431.434	6.01
431.64	6.05
431.845	6.08
432.05	5.88
432.255	5.97
432.46	6.35
432.665	6.34
432.87	6.29
433.076	6.3
433.281	6.47
433.486	6.24
433.691	6.22
433.896	6.29
434.101	6.28
434.306	6.36
434.511	6.24
434.716	6.32
434.921	6.07
435.126	6.07
435.331	6.12
435.535	5.84
435.74	6.09
435.945	6.11
436.15	5.81
436.355	5.69
436.56	5.66
436.765	5.54
436.97	5.22
437.174	5.4
437.379	5.46
437.584	5.47
437.789	5.61
437.993	5.52
438.198	5.56
438.403	5.85
438.608	6.01
438.812	6.05
439.017	6.33
439.222	6.41
439.426	6.39
439.631	6.17
439.836	6.26
440.04	6.19
440.245	6.09
440.45	6.08
440.654	5.92
440.859	6.03
441.063	5.96
441.268	5.81
441.472	5.69
441.677	5.58
441.881	5.61
442.086	5.49
442.29	5.44
442.495	5.46
442.699	5.5
442.904	5.47
443.108	5.15
443.312	5.25
443.517	5.27
443.721	5.28
443.925	5.39
444.13	5.6
444.334	5.68
444.538	5.92
444.743	6.02
444.947	6.11
445.151	6.04
445.356	6.15
445.56	6
445.764	5.92
445.968	6.03
446.173	6.05
446.377	5.88
446.581	6.01
446.785	5.9
446.989	5.9
447.193	5.76
447.398	5.72
447.602	5.64
447.806	5.63
448.01	5.72
448.214	5.6
448.418	5.41
448.622	5.52
448.826	5.26
449.03	5.07
449.234	4.98
449.438	4.9
449.642	5.05
449.846	5.06
450.05	5.26
450.254	5.26
450.458	5.24
450.662	5.4
450.866	5.34
451.069	5.35
451.273	5.38
451.477	5.37
451.681	5.54
451.885	5.58
452.089	5.88
452.292	5.82
452.496	5.75
452.7	5.95
452.904	5.97
453.107	5.98
453.311	6.1
453.515	6.29
453.719	6.24
453.922	5.96
454.126	5.96
454.33	5.66
454.533	5.69
454.737	5.62
454.94	5.41
455.144	5.36
455.348	5.52
455.551	5.52
455.755	5.37
455.958	5.62
456.162	5.81
456.365	5.68
456.569	5.71
456.772	5.63
456.976	5.62
457.179	5.52
457.383	5.53
457.586	5.47
457.79	5.4
457.993	5.43
458.196	5.38
458.4	5.41
458.603	5.27
458.807	5.33
459.01	5.28
459.213	5.46
459.417	5.56
459.62	5.47
459.823	5.43
460.026	5.56
460.23	5.51
460.433	5.36
460.636	5.36
460.839	5.62
461.042	5.68
461.246	5.68
461.449	5.55
461.652	5.54
461.855	5.73
462.058	5.64
462.261	5.43
462.464	5.45
462.668	5.38
462.871	5.46
463.074	5.46
463.277	5.47
463.48	5.43
463.683	5.46
