Data from 2937828_Reflection_3.txt Node
Date: Wed Jul 15 16:56:33 EDT 2015
User: robert
Spectrometer: USB4E03001
Autoset integration time: false
Trigger mode: 4
Integration Time (sec): 1.000000E-1
Scans to average: 10
Electric dark correction enabled: true
Nonlinearity correction enabled: false
Boxcar width: 5
Stray light correction enabled: false
XAxis mode: Wavelengths
Stop averaging: false
Number of Pixels in Spectrum: 3648
>>>>>Begin Spectral Data<<<<<
177.566	-149.25
177.785	-55.7
178.005	-25.22
178.225	4961.9
178.445	-10266.67
178.665	32.07
178.885	70.25
179.105	-271.11
179.324	427.89
179.544	4.72
179.764	15.36
179.984	-40.5
180.204	-151.26
180.423	-19.64
180.643	114.38
180.863	56.89
181.083	71.11
181.302	54.63
181.522	76.24
181.742	93.34
181.961	119.86
182.181	84.89
182.401	65.12
182.621	100.58
182.84	97.29
183.06	125.68
183.279	109.08
183.499	80.78
183.719	56.2
183.938	119.28
184.158	-243.48
184.377	118.49
184.597	14.81
184.816	-13.85
185.036	-170.98
185.256	-89.26
185.475	-148.95
185.695	436.58
185.914	1101.84
186.134	220.7
186.353	158.16
186.572	126.29
186.792	137.05
187.011	82.96
187.231	59.75
187.45	38.31
187.67	42.12
187.889	46.24
188.108	18.02
188.328	46.84
188.547	47.53
188.766	9.68
188.986	5.73
189.205	-70.39
189.424	-21.51
189.644	-89.87
189.863	10941.18
190.082	-35.51
190.302	-103.3
190.521	-186.77
190.74	-1236
190.959	-59.58
191.178	194.03
191.398	229.88
191.617	-115.75
191.836	-96.87
192.055	-41.89
192.274	-187.23
192.494	1248.44
192.713	187.5
192.932	-106.68
193.151	-115.29
193.37	-8.75
193.589	-34.25
193.808	-20.75
194.027	-7.65
194.246	197.54
194.465	85.91
194.685	16.86
194.904	48.07
195.123	-3.46
195.342	0.92
195.561	-29.58
195.78	9.19
195.999	-122.06
196.218	-17.95
196.436	45.94
196.655	260.4
196.874	86.93
197.093	37.22
197.312	48.72
197.531	-216.74
197.75	-184.41
197.969	-203.05
198.188	-334.61
198.407	-333.18
198.625	-198.8
198.844	-222.55
199.063	-1172.28
199.282	-352.57
199.501	-167.72
199.719	199.39
199.938	-61.35
200.157	-160.24
200.376	-132.38
200.594	-274.86
200.813	-197.23
201.032	-181.69
201.251	-167.25
201.469	-45.88
201.688	-0.84
201.907	-4.39
202.125	-63.68
202.344	29.01
202.563	50.2
202.781	108.26
203	53.58
203.218	18.19
203.437	33.02
203.656	95.09
203.874	291.29
204.093	288.1
204.311	122.57
204.53	1143.45
204.748	25.13
204.967	-71.21
205.185	24.58
205.404	101.02
205.622	104.62
205.841	57.38
206.059	34.53
206.278	56.56
206.496	39.45
206.715	-30.44
206.933	-319.28
207.151	23.59
207.37	33.22
207.588	94.24
207.806	172.43
208.025	254.03
208.243	230.06
208.461	210.11
208.68	346.68
208.898	231.45
209.116	92.54
209.335	164.97
209.553	103.71
209.771	138.41
209.989	447.05
210.208	-1968.14
210.426	148.19
210.644	59.65
210.862	51.5
211.081	28.81
211.299	39.03
211.517	63.83
211.735	36.07
211.953	54.75
212.171	49.15
212.39	20.97
212.608	17.1
212.826	32.92
213.044	37.01
213.262	4.94
213.48	-21.5
213.698	-57.27
213.916	-1.39
214.134	-206.51
214.352	209.72
214.57	223.43
214.788	234.13
215.006	129.32
215.224	107.94
215.442	110.2
215.66	77.25
215.878	77.24
216.096	79.69
216.314	258.25
216.532	-8.87
216.75	200.92
216.968	293.8
217.185	339.05
217.403	191.42
217.621	302.78
217.839	440.4
218.057	-1767.74
218.275	-315.87
218.492	-108.68
218.71	-137.5
218.928	-217.3
219.146	-537.77
219.363	1399.12
219.581	1520.94
219.799	1229.93
220.017	83.45
220.234	104.53
220.452	87.48
220.67	18.59
220.887	82.9
221.105	127.3
221.323	111.62
221.54	141.54
221.758	68.85
221.976	90.62
222.193	122.85
222.411	108.35
222.629	89.35
222.846	39.18
223.064	82.46
223.281	53.55
223.499	40.91
223.716	41.32
223.934	32.15
224.151	47.97
224.369	10.41
224.586	14.7
224.804	38.01
225.021	38.98
225.239	106.34
225.456	84.73
225.674	89.96
225.891	94.23
226.108	70.69
226.326	47.79
226.543	17.71
226.76	4.45
226.978	1.31
227.195	5.27
227.413	-6.65
227.63	-16.19
227.847	-21.96
228.064	-11.15
228.282	-3.74
228.499	-6.12
228.716	-3.65
228.934	3.17
229.151	1.83
229.368	-2.21
229.585	-6.18
229.802	-2.67
230.02	1.14
230.237	0.07
230.454	-1.66
230.671	-0.34
230.888	-1.6
231.105	-3.78
231.323	-8.65
231.54	-7.84
231.757	-5
231.974	1.59
232.191	0.32
232.408	-2.04
232.625	1.78
232.842	0.64
233.059	-8.39
233.276	-14.46
233.493	-5.61
233.71	-0.56
233.927	-0.96
234.144	-12.15
234.361	-25.25
234.578	-28.03
234.795	-34.9
235.012	-35.09
235.229	-41.47
235.446	-29.63
235.663	-20.74
235.879	-30.56
236.096	-37.67
236.313	-32.64
236.53	-18.26
236.747	-5.33
236.964	-21.07
237.181	-14.34
237.397	-13.88
237.614	-9.07
237.831	-16.91
238.048	-27.08
238.264	-27.77
238.481	-18.95
238.698	-22.94
238.915	-19.47
239.131	-19.58
239.348	-9.9
239.565	-3.84
239.781	-4.8
239.998	-2.75
240.215	-5.61
240.431	-0.4
240.648	3.97
240.865	4.69
241.081	3.41
241.298	4.22
241.514	3.34
241.731	7.43
241.947	7.69
242.164	5.98
242.38	5.09
242.597	7.06
242.814	9.04
243.03	8.63
243.246	6.96
243.463	7.7
243.679	6.64
243.896	6.14
244.112	5.28
244.329	3.75
244.545	4.02
244.762	4.93
244.978	3.11
245.194	1.29
245.411	2.85
245.627	3.54
245.843	6.11
246.06	5.01
246.276	6.08
246.492	5.57
246.709	4.79
246.925	5.6
247.141	6.69
247.357	6.92
247.574	6.99
247.79	6.3
248.006	5.78
248.222	5.84
248.439	7.79
248.655	7.17
248.871	8.04
249.087	8.51
249.303	9.38
249.519	7.7
249.736	6.37
249.952	6.79
250.168	6.56
250.384	7.38
250.6	5.24
250.816	2.68
251.032	4.44
251.248	5.18
251.464	6.48
251.68	4.02
251.896	6.67
252.112	7.06
252.328	8.04
252.544	4.91
252.76	6.13
252.976	7.31
253.192	7.07
253.408	7.08
253.624	6.61
253.84	1.99
254.056	2.08
254.272	0.9
254.487	3.82
254.703	-1.19
254.919	0.62
255.135	1.47
255.351	-1.08
255.567	-1.7
255.782	-2.45
255.998	-3.86
256.214	1.62
256.43	0.9
256.646	1.61
256.861	-1.55
257.077	1.9
257.293	2.53
257.508	-2.49
257.724	2.05
257.94	4.59
258.155	1.93
258.371	1.96
258.587	2.42
258.802	2.59
259.018	2.8
259.234	5.21
259.449	5.57
259.665	6.22
259.88	7.35
260.096	6.39
260.312	5.84
260.527	6.09
260.743	6.88
260.958	6.38
261.174	7.53
261.389	7.25
261.605	5.41
261.82	4.62
262.036	5.15
262.251	4.27
262.466	2.67
262.682	2.04
262.897	2.98
263.113	1.33
263.328	-0.52
263.543	0.31
263.759	1.32
263.974	3.42
264.189	5.73
264.405	4.44
264.62	2.45
264.835	3.22
265.051	2.77
265.266	5.41
265.481	6.04
265.696	9.57
265.912	7.51
266.127	4.03
266.342	3.6
266.557	1.81
266.773	1.5
266.988	5.5
267.203	5.55
267.418	4.76
267.633	3.56
267.848	4.22
268.064	3.1
268.279	1.85
268.494	3.27
268.709	5.03
268.924	7.23
269.139	7.84
269.354	4.8
269.569	4.53
269.784	5.49
269.999	4.12
270.214	3.53
270.429	4.55
270.644	4.05
270.859	5.48
271.074	4.16
271.289	2.18
271.504	3.64
271.719	5.74
271.934	5.54
272.149	5.83
272.363	6.55
272.578	7.49
272.793	7.68
273.008	8.31
273.223	6.93
273.438	6.19
273.653	5.74
273.867	5.53
274.082	3.89
274.297	4.31
274.512	4.93
274.726	2.82
274.941	2.01
275.156	0.65
275.371	1.47
275.585	4.23
275.8	5.24
276.015	5.4
276.229	2.79
276.444	7.14
276.659	7.07
276.873	4.69
277.088	5.7
277.302	6.5
277.517	7.96
277.732	7.49
277.946	1.9
278.161	1.16
278.375	1.76
278.59	3.94
278.804	0.61
279.019	0.37
279.233	1.42
279.448	0.85
279.662	-1.17
279.877	-2.73
280.091	-3.94
280.306	0.2
280.52	0.36
280.735	1.52
280.949	0.54
281.163	1.08
281.378	2.24
281.592	1.47
281.806	2.53
282.021	2.52
282.235	3.13
282.449	3.3
282.664	4.47
282.878	4.06
283.092	2.98
283.307	4.03
283.521	2.52
283.735	1.87
283.949	1.31
284.164	1.5
284.378	0.31
284.592	0.29
284.806	-0.1
285.02	-1
285.234	0.14
285.449	1.06
285.663	1.58
285.877	2.67
286.091	4.29
286.305	6
286.519	7.29
286.733	8.83
286.947	8.94
287.161	10.28
287.375	9.33
287.589	10.22
287.803	10.03
288.017	8.52
288.231	7.02
288.445	6.15
288.659	5.63
288.873	5.15
289.087	4.45
289.301	4.31
289.515	4.68
289.729	6.16
289.943	4.49
290.157	4.49
290.371	3.5
290.584	4.42
290.798	2.55
291.012	2.8
291.226	2.86
291.44	2.92
291.654	0.99
291.867	1.49
292.081	0.84
292.295	1.14
292.509	-1.49
292.722	0.97
292.936	-0.78
293.15	2.16
293.364	0.52
293.577	-0.36
293.791	-0.51
294.005	0.72
294.218	0.3
294.432	0.92
294.645	0.15
294.859	2.83
295.073	1.61
295.286	2.11
295.5	2.27
295.713	4.57
295.927	4.58
296.14	4.51
296.354	5.88
296.568	5.6
296.781	6.73
296.994	8.34
297.208	7.18
297.421	6.96
297.635	8.61
297.848	7.24
298.062	6.61
298.275	6.15
298.489	7.88
298.702	7.83
298.915	7.46
299.129	4.7
299.342	2.99
299.555	4.49
299.769	5.01
299.982	6.09
300.195	7.67
300.409	9.58
300.622	10.81
300.835	9.47
301.048	9.18
301.262	10.07
301.475	11.85
301.688	14.26
301.901	12.52
302.115	12.6
302.328	10.94
302.541	11.01
302.754	9.75
302.967	10.87
303.18	10.28
303.393	10.45
303.607	10.18
303.82	10.85
304.033	9.34
304.246	11.43
304.459	13.61
304.672	12.18
304.885	13.74
305.098	12.45
305.311	11.96
305.524	13.68
305.737	14.09
305.95	15.26
306.163	15.36
306.376	16.52
306.589	15.84
306.802	15.66
307.015	17.41
307.228	15.63
307.44	17.66
307.653	16.33
307.866	14.65
308.079	13.96
308.292	12.2
308.505	13.77
308.718	11.42
308.93	12.78
309.143	11.36
309.356	11.12
309.569	11.23
309.781	11.65
309.994	12.61
310.207	14.07
310.42	14.9
310.632	14.95
310.845	14.41
311.058	15.78
311.27	14.46
311.483	13.62
311.696	14.26
311.908	14.43
312.121	14.39
312.333	14.27
312.546	13.31
312.759	12.18
312.971	11.78
313.184	11.06
313.396	11.57
313.609	11.55
313.821	14.78
314.034	12.36
314.246	12.23
314.459	10.64
314.671	10.92
314.884	9.64
315.096	9.73
315.309	9.19
315.521	9.26
315.733	7.4
315.946	6.94
316.158	5.58
316.371	8.32
316.583	7.99
316.795	6.31
317.008	6.56
317.22	6.18
317.432	8.42
317.644	11.53
317.857	10.39
318.069	12.28
318.281	13.71
318.494	13.78
318.706	13.76
318.918	15.8
319.13	18.69
319.342	19.19
319.555	21.8
319.767	20.67
319.979	19.89
320.191	20.04
320.403	21.42
320.615	19.16
320.827	18.68
321.039	19.24
321.252	17.58
321.464	18.38
321.676	16.36
321.888	16.32
322.1	15.59
322.312	15.45
322.524	16.29
322.736	15.13
322.948	17.46
323.16	17.46
323.372	16.4
323.584	16.25
323.796	15.07
324.007	15.34
324.219	15.27
324.431	16.39
324.643	16.92
324.855	18.1
325.067	18.48
325.279	18.01
325.491	18.66
325.702	19.6
325.914	20.15
326.126	20.63
326.338	21.99
326.55	22.46
326.761	23.5
326.973	24.36
327.185	24.49
327.396	23.54
327.608	24.86
327.82	24.07
328.032	23.48
328.243	23.97
328.455	23.32
328.666	24.01
328.878	25.52
329.09	24.69
329.301	23.92
329.513	23.21
329.725	24.29
329.936	25.33
330.148	27.87
330.359	29.26
330.571	31.91
330.782	31.83
330.994	32.21
331.205	30.02
331.417	30.33
331.628	31.64
331.84	33.86
332.051	35.81
332.262	36.85
332.474	35.28
332.685	36.57
332.897	36.99
333.108	39.12
333.319	40.37
333.531	40.61
333.742	42.22
333.953	41.86
334.165	41.99
334.376	42.08
334.587	42.6
334.799	43.14
335.01	42.33
335.221	42.18
335.432	42.35
335.644	42.61
335.855	44.47
336.066	43.92
336.277	44.73
336.488	44.42
336.7	44.73
336.911	43.91
337.122	44.68
337.333	45.22
337.544	46.34
337.755	47
337.966	47.23
338.177	48.53
338.388	48.01
338.599	48.58
338.811	49.38
339.022	48.85
339.233	48.32
339.444	48.19
339.655	50.59
339.866	50.09
340.076	49.39
340.287	49.59
340.498	49.12
340.709	49.8
340.92	48.56
341.131	49.79
341.342	51.36
341.553	52.02
341.764	52.06
341.975	49.73
342.185	49.38
342.396	48.89
342.607	48.8
342.818	47.92
343.029	49.35
343.239	50.01
343.45	48.7
343.661	48.74
343.872	48.75
344.082	49.41
344.293	50.83
344.504	51.55
344.714	53.17
344.925	52.63
345.136	53.75
345.346	53.5
345.557	53.98
345.768	53.55
345.978	53.94
346.189	55.12
346.399	54.55
346.61	54.05
346.821	53.55
347.031	53.25
347.242	54.17
347.452	53.54
347.663	53.91
347.873	54.79
348.084	55.7
348.294	54.93
348.504	54.79
348.715	55.95
348.925	56.49
349.136	57.13
349.346	55.79
349.557	55.2
349.767	55.02
349.977	53.46
350.188	52.58
350.398	52.99
350.608	52.09
350.819	50.87
351.029	50.3
351.239	50.16
351.449	48.82
351.66	50.76
351.87	52.29
352.08	52.85
352.29	56.15
352.501	57.41
352.711	56.82
352.921	57.08
353.131	58.06
353.341	57.88
353.552	57.33
353.762	58.38
353.972	58.17
354.182	55.14
354.392	55.46
354.602	53.36
354.812	52.76
355.022	51.83
355.232	52.24
355.442	53.59
355.652	55.18
355.862	55.83
356.072	55.89
356.282	55.54
356.492	58.12
356.702	58.03
356.912	57.06
357.122	57.35
357.332	57.8
357.542	58.02
357.752	55.87
357.962	55.17
358.171	55.09
358.381	55.54
358.591	54.99
358.801	54.7
359.011	53.5
359.221	54.97
359.43	55.86
359.64	56.57
359.85	56.33
360.06	56.96
360.269	57.48
360.479	57.19
360.689	56.89
360.899	56.78
361.108	57.28
361.318	58.2
361.528	58.05
361.737	57.43
361.947	57.29
362.156	56.54
362.366	56.44
362.576	55.97
362.785	56.02
362.995	55.83
363.204	56.17
363.414	55.7
363.623	55.74
363.833	55.87
364.042	55.23
364.252	55.46
364.461	56.33
364.671	56.22
364.88	56.01
365.09	56.18
365.299	55.59
365.509	55.5
365.718	55.72
365.927	55.48
366.137	55.25
366.346	56.7
366.555	55.92
366.765	55.82
366.974	56.99
367.183	56.85
367.393	56.85
367.602	56.92
367.811	56.62
368.021	55.98
368.23	55.84
368.439	55.5
368.648	54.33
368.857	55.03
369.067	55.06
369.276	54.61
369.485	54.84
369.694	54.41
369.903	54.58
370.112	55.26
370.321	54.76
370.531	55.03
370.74	54.97
370.949	55.56
371.158	55.39
371.367	54.55
371.576	53.58
371.785	53.73
371.994	53.66
372.203	53.09
372.412	52.87
372.621	53.17
372.83	52.43
373.039	52.5
373.248	51.54
373.457	50.71
373.666	50.79
373.874	50.03
374.083	49.19
374.292	47.85
374.501	47.71
374.71	47.97
374.919	47.22
375.128	46.18
375.336	45.08
375.545	44.79
375.754	44.85
375.963	45.59
376.171	46.34
376.38	46.82
376.589	47.99
376.798	48.08
377.006	47.91
377.215	48.46
377.424	49.91
377.632	51.31
377.841	50.71
378.05	51.44
378.258	50.58
378.467	50.31
378.675	49.66
378.884	49.81
379.093	49.72
379.301	49.84
379.51	50.15
379.718	49.55
379.927	48.64
380.135	49.51
380.344	48.8
380.552	49.5
380.761	49.55
380.969	50.44
381.177	49.74
381.386	49.94
381.594	48.97
381.803	48.31
382.011	48.27
382.219	48.28
382.428	48.03
382.636	47.97
382.845	47.28
383.053	47.46
383.261	46.72
383.469	46.88
383.678	46.99
383.886	47.66
384.094	47.55
384.302	48.11
384.511	47.63
384.719	47.2
384.927	46.71
385.135	47.04
385.343	46.34
385.552	45.63
385.76	45.38
385.968	45.16
386.176	44.41
386.384	44.55
386.592	43.79
386.8	43.64
387.008	43.4
387.216	43.43
387.424	43.22
387.633	43.29
387.841	43.51
388.049	43.39
388.257	42.88
388.465	43.23
388.672	42.89
388.88	42.9
389.088	43.28
389.296	43.51
389.504	43.65
389.712	43.56
389.92	43.47
390.128	43.79
390.336	43.69
390.544	43.55
390.751	43.36
390.959	43.52
391.167	43.48
391.375	43.6
391.583	43.64
391.79	43.48
391.998	43.46
392.206	43.33
392.414	43.14
392.621	42.92
392.829	42.75
393.037	42.81
393.244	42.26
393.452	42.05
393.66	41.49
393.867	41.35
394.075	41.52
394.283	41.29
394.49	41.5
394.698	41.78
394.905	41.92
395.113	42.52
395.32	42.34
395.528	42.81
395.735	42.82
395.943	43.13
396.15	42.7
396.358	42.39
396.565	42.07
396.773	41.84
396.98	41.76
397.188	41.68
397.395	41.39
397.602	41.41
397.81	41.27
398.017	40.95
398.225	40.86
398.432	40.95
398.639	40.8
398.847	40.88
399.054	40.97
399.261	41.15
399.468	41.2
399.676	41.19
399.883	41.27
400.09	41.22
400.297	41.83
400.505	41.86
400.712	42.62
400.919	43.02
401.126	43.68
401.333	43.89
401.54	43.84
401.748	44
401.955	44.08
402.162	44.01
402.369	43.99
402.576	43.6
402.783	43.59
402.99	43.25
403.197	42.77
403.404	42.47
403.611	42.58
403.818	42.26
404.025	42.13
404.232	42.31
404.439	42.65
404.646	43
404.853	43.06
405.06	42.8
405.267	42.92
405.474	43.22
405.681	43.07
405.887	43.12
406.094	43.17
406.301	43.1
406.508	42.87
406.715	42.38
406.922	42.02
407.128	42.16
407.335	42.23
407.542	42.14
407.749	41.92
407.955	41.95
408.162	41.58
408.369	41.73
408.575	41.61
408.782	41.54
408.989	41.79
409.195	41.69
409.402	41.83
409.609	41.63
409.815	41.38
410.022	41.58
410.228	41.46
410.435	41.42
410.642	41.06
410.848	41.26
411.055	41.19
411.261	40.78
411.468	40.49
411.674	40.51
411.881	40.85
412.087	40.96
412.294	40.55
412.5	40.81
412.706	40.89
412.913	40.88
413.119	40.92
413.326	41.36
413.532	41.54
413.738	41.51
413.945	40.9
414.151	40.31
414.357	40.27
414.564	40.29
414.77	40.59
414.976	40.34
415.182	40.38
415.389	40.37
415.595	40.03
415.801	40.02
416.007	40.2
416.214	40.4
416.42	40.6
416.626	40.79
416.832	41.26
417.038	40.77
417.244	41.12
417.45	41.14
417.657	41.3
417.863	41.65
418.069	41.78
418.275	41.78
418.481	41.97
418.687	41.97
418.893	41.93
419.099	41.87
419.305	42.06
419.511	41.88
419.717	41.96
419.923	41.64
420.129	41.4
420.335	41.37
420.541	41.41
420.746	41.22
420.952	41.45
421.158	41.39
421.364	41.23
421.57	41.1
421.776	41.37
421.982	41.32
422.187	41.57
422.393	41.57
422.599	41.46
422.805	41.46
423.01	41.37
423.216	41.03
423.422	41
423.628	41.09
423.833	41.17
424.039	40.97
424.245	40.86
424.45	40.78
424.656	40.69
424.862	40.84
425.067	40.82
425.273	40.94
425.478	40.9
425.684	40.82
425.889	40.87
426.095	40.79
426.301	40.67
426.506	40.71
426.712	40.56
426.917	40.44
427.123	40.19
427.328	40.01
427.533	39.93
427.739	40.25
427.944	40.17
428.15	40.1
428.355	40.34
428.561	40.36
428.766	40.63
428.971	40.57
429.177	40.75
429.382	40.94
429.587	40.89
429.793	41.02
429.998	40.85
430.203	40.64
430.408	40.47
430.614	40.28
430.819	40.21
431.024	39.99
431.229	39.88
431.434	39.74
431.64	39.58
431.845	39.99
432.05	39.97
432.255	40.02
432.46	40.2
432.665	40.13
432.87	40.1
433.076	40.21
433.281	40.32
433.486	40.62
433.691	40.93
433.896	40.73
434.101	40.6
434.306	40.65
434.511	40.83
434.716	40.85
434.921	40.85
435.126	40.72
435.331	40.5
435.535	40.28
435.74	40.11
435.945	39.99
436.15	40.02
436.355	40.25
436.56	40.14
436.765	39.86
436.97	39.76
437.174	40.11
437.379	40.21
437.584	40.25
437.789	40.44
437.993	40.34
438.198	40.23
438.403	40.36
438.608	39.83
438.812	39.92
439.017	39.84
439.222	40.07
439.426	40.14
439.631	40.15
439.836	40.38
440.04	40.22
440.245	40.28
440.45	40.35
440.654	40.47
440.859	40.51
441.063	40.38
441.268	40.57
441.472	40.4
441.677	40.11
441.881	39.95
442.086	39.72
442.29	39.63
442.495	39.62
442.699	39.57
442.904	39.47
443.108	39.52
443.312	39.53
443.517	39.33
443.721	39.2
443.925	39.1
444.13	39.2
444.334	39.33
444.538	39.49
444.743	39.49
444.947	39.48
445.151	39.39
445.356	39.62
445.56	39.59
445.764	39.74
445.968	39.98
446.173	39.98
446.377	39.98
446.581	40.03
446.785	39.86
446.989	40.01
447.193	40.05
447.398	40.1
447.602	39.86
447.806	39.9
448.01	39.78
448.214	39.5
448.418	39.58
448.622	39.49
448.826	39.21
449.03	39.26
449.234	39.05
449.438	38.66
449.642	38.53
449.846	38.69
450.05	38.5
450.254	38.34
450.458	38.38
450.662	38.27
450.866	38.3
451.069	38.33
451.273	38.31
451.477	38.14
451.681	38.36
451.885	38.12
452.089	37.79
452.292	37.8
452.496	37.94
452.7	38.05
452.904	37.94
453.107	37.8
453.311	38.05
453.515	38.09
453.719	38.17
453.922	38.16
454.126	38.19
454.33	38.12
454.533	38.19
454.737	38.15
454.94	38.15
455.144	38.15
455.348	38.14
455.551	37.86
455.755	37.65
455.958	37.53
456.162	37.46
456.365	37.63
456.569	37.76
456.772	37.76
456.976	37.8
457.179	37.82
457.383	37.74
457.586	37.98
457.79	38.2
457.993	38.35
458.196	38.58
458.4	38.73
458.603	38.82
