Data from 2937813_Reflection_3.txt Node
Date: Wed Jul 15 17:42:29 EDT 2015
User: robert
Spectrometer: USB4E03001
Autoset integration time: false
Trigger mode: 4
Integration Time (sec): 1.000000E-1
Scans to average: 10
Electric dark correction enabled: true
Nonlinearity correction enabled: false
Boxcar width: 5
Stray light correction enabled: false
XAxis mode: Wavelengths
Stop averaging: false
Number of Pixels in Spectrum: 3648
>>>>>Begin Spectral Data<<<<<
177.566	656.93
177.785	14875
178.005	127.55
178.225	170.46
178.445	134.93
178.665	270.86
178.885	86.04
179.105	-106.6
179.324	-848.42
179.544	346.48
179.764	323.93
179.984	762.79
180.204	-3000
180.423	1145.53
180.643	-8426.09
180.863	-3849.13
181.083	-1248.61
181.302	-486.74
181.522	-206.61
181.742	-163.39
181.961	-183.18
182.181	-60.74
182.401	-299.07
182.621	-145.34
182.84	1723.56
183.06	2832.74
183.279	-18.23
183.499	0.99
183.719	44.81
183.938	4.09
184.158	15.29
184.377	39.81
184.597	47.72
184.816	54.27
185.036	44.83
185.256	57.48
185.475	55.99
185.695	54.51
185.914	54.39
186.134	35.8
186.353	31.41
186.572	29.79
186.792	29.76
187.011	39.88
187.231	30.62
187.45	24.43
187.67	32.17
187.889	12.15
188.108	46.16
188.328	26.74
188.547	43.19
188.766	101.42
188.986	380
189.205	-196.54
189.424	-129.93
189.644	261.27
189.863	116.46
190.082	465.35
190.302	407.65
190.521	107.25
190.74	491.93
190.959	-376.12
191.178	662.44
191.398	-264.96
191.617	-49.56
191.836	-19.82
192.055	-98.83
192.274	2.22
192.494	-35.04
192.713	-1.91
192.932	31.89
193.151	-56.46
193.37	-342.22
193.589	-2.8
193.808	119.75
194.027	-83.54
194.246	206.74
194.465	139.73
194.685	-19.19
194.904	-36.33
195.123	232.72
195.342	293.47
195.561	-45.77
195.78	258.02
195.999	241.57
196.218	-458.92
196.436	-32.39
196.655	29.72
196.874	-26.81
197.093	-25.29
197.312	-1468.89
197.531	741.28
197.75	-60.97
197.969	24.64
198.188	46.73
198.407	45.83
198.625	268.6
198.844	982.98
199.063	-3108.33
199.282	-63.79
199.501	453.73
199.719	78.01
199.938	162.88
200.157	329.9
200.376	83.49
200.594	86.73
200.813	89.74
201.032	184.05
201.251	328.54
201.469	793.21
201.688	2557.87
201.907	-666.34
202.125	2416.67
202.344	-793.31
202.563	-436.77
202.781	-45.84
203	-8.84
203.218	24.12
203.437	48.28
203.656	18.28
203.874	20.25
204.093	17.35
204.311	14.89
204.53	35.65
204.748	49.85
204.967	49.06
205.185	35.02
205.404	66.81
205.622	95.24
205.841	-172.67
206.059	440.02
206.278	348.25
206.496	-289.91
206.715	-645.62
206.933	-293.61
207.151	-181.35
207.37	-7070.49
207.588	-742.11
207.806	422.47
208.025	152.24
208.243	288.51
208.461	529.62
208.68	691.81
208.898	21.27
209.116	211.28
209.335	191.71
209.553	1279.78
209.771	209.22
209.989	-298.75
210.208	-180.47
210.426	-99.81
210.644	-62.35
210.862	11.16
211.081	34.64
211.299	73.17
211.517	125.5
211.735	143.9
211.953	194.69
212.171	158.8
212.39	139.29
212.608	123.4
212.826	79.9
213.044	47.39
213.262	-219.19
213.48	-12.36
213.698	-54675
213.916	-113.55
214.134	-86.68
214.352	-788.02
214.57	-487.08
214.788	5216
215.006	-2081.03
215.224	690.09
215.442	1653.56
215.66	861.62
215.878	287.49
216.096	276.8
216.314	659.26
216.532	430.71
216.75	451.49
216.968	128.88
217.185	45.38
217.403	-19.74
217.621	-48.37
217.839	-122.94
218.057	-1166.73
218.275	370.53
218.492	165.13
218.71	197.9
218.928	146.56
219.146	118.38
219.363	147.65
219.581	129.92
219.799	100.45
220.017	63.62
220.234	44.29
220.452	60.27
220.67	136.1
220.887	-1.61
221.105	-128.93
221.323	-91.62
221.54	-285.87
221.758	435.31
221.976	503.36
222.193	-1366.57
222.411	797.28
222.629	672.59
222.846	1396.45
223.064	354.73
223.281	394.72
223.499	259.88
223.716	183.72
223.934	186.66
224.151	797.26
224.369	1480.17
224.586	325.07
224.804	-56.16
225.021	37.25
225.239	59.36
225.456	45.1
225.674	-44.17
225.891	-32.18
226.108	-78.58
226.326	-14.32
226.543	-53.08
226.76	-93.06
226.978	-66.01
227.195	-65.73
227.413	-37.16
227.63	-33.12
227.847	-14.35
228.064	-1.83
228.282	2.49
228.499	7.31
228.716	8.13
228.934	11.99
229.151	15
229.368	18.18
229.585	21.28
229.802	18.31
230.02	23.7
230.237	22.69
230.454	21.67
230.671	21.23
230.888	19.27
231.105	20.1
231.323	15.96
231.54	13.87
231.757	5.7
231.974	9.34
232.191	7.59
232.408	1.96
232.625	-4.38
232.842	-7.46
233.059	-12.62
233.276	-12.49
233.493	-15.05
233.71	-7.29
233.927	-2.74
234.144	0.01
234.361	-7.37
234.578	-8.61
234.795	-6.28
235.012	-2.91
235.229	-5.06
235.446	-0.21
235.663	0.39
235.879	-9.37
236.096	-11.55
236.313	-19.99
236.53	-14.21
236.747	-18.48
236.964	-17.01
237.181	-16.09
237.397	-10.39
237.614	-4.84
237.831	-15.78
238.048	-8.61
238.264	3.63
238.481	15.56
238.698	18.94
238.915	20.29
239.131	27.9
239.348	28.46
239.565	29.85
239.781	21.8
239.998	19.85
240.215	17.2
240.431	13.79
240.648	9.44
240.865	2.29
241.081	10.24
241.298	9.5
241.514	8.3
241.731	9.29
241.947	7.72
242.164	9.92
242.38	8.55
242.597	11.76
242.814	13.07
243.03	13.77
243.246	14.01
243.463	8.81
243.679	8.28
243.896	7.73
244.112	5.19
244.329	6.41
244.545	8.12
244.762	8.77
244.978	10.36
245.194	10.52
245.411	9.99
245.627	11.72
245.843	16.2
246.06	16.88
246.276	16.81
246.492	17.56
246.709	17.85
246.925	16.58
247.141	16.91
247.357	15.22
247.574	15.39
247.79	13.94
248.006	13.88
248.222	12.7
248.439	12.36
248.655	11.18
248.871	10.7
249.087	9.77
249.303	8.08
249.519	6.26
249.736	6.05
249.952	4.94
250.168	7.19
250.384	5.85
250.6	6.87
250.816	4.28
251.032	7.84
251.248	3.58
251.464	5.86
251.68	6.25
251.896	7.37
252.112	7.36
252.328	5.33
252.544	6.43
252.76	5.98
252.976	5.19
253.192	5.52
253.408	4.31
253.624	6.3
253.84	0.46
254.056	1.72
254.272	0.45
254.487	0.61
254.703	1.78
254.919	-1.32
255.135	0.66
255.351	2.8
255.567	4.26
255.782	6.51
255.998	7.5
256.214	13.49
256.43	14.99
256.646	12.94
256.861	7.75
257.077	5.96
257.293	9.6
257.508	6.83
257.724	7.63
257.94	8.09
258.155	7.74
258.371	7.12
258.587	4.54
258.802	4.75
259.018	6.06
259.234	8.03
259.449	9.8
259.665	8.45
259.88	9.17
260.096	8.35
260.312	7.61
260.527	7.75
260.743	8.3
260.958	8.85
261.174	8.45
261.389	9.45
261.605	9.7
261.82	8.25
262.036	9.14
262.251	8.53
262.466	8.78
262.682	10.21
262.897	9.43
263.113	8.19
263.328	9.65
263.543	11.53
263.759	7.43
263.974	7.29
264.189	7.56
264.405	7.11
264.62	7.49
264.835	8.74
265.051	7.13
265.266	9
265.481	8.21
265.696	6.22
265.912	3.33
266.127	5.7
266.342	5.45
266.557	5.12
266.773	5.57
266.988	7.47
267.203	7.07
267.418	5.97
267.633	5.07
267.848	6.43
268.064	5.28
268.279	4.54
268.494	5.67
268.709	7.25
268.924	8.84
269.139	7.83
269.354	6.81
269.569	6.87
269.784	7.51
269.999	7.2
270.214	7.54
270.429	9.46
270.644	10.81
270.859	11.24
271.074	11.35
271.289	8.32
271.504	8.27
271.719	7.31
271.934	5.99
272.149	6.56
272.363	7.44
272.578	7.31
272.793	6.19
273.008	6.52
273.223	5.6
273.438	4.23
273.653	5.62
273.867	7.16
274.082	7.98
274.297	8.71
274.512	9.14
274.726	9.21
274.941	10.29
275.156	12.27
275.371	10.78
275.585	7.98
275.8	6.29
276.015	7.08
276.229	3.41
276.444	2.58
276.659	3.48
276.873	2.16
277.088	1.52
277.302	-0.64
277.517	-4.79
277.732	-4.29
277.946	-3.35
278.161	-0.47
278.375	-0.34
278.59	1.37
278.804	-1.27
279.019	-3.38
279.233	-0.47
279.448	-4.21
279.662	-4.56
279.877	-1.04
280.091	-0.42
280.306	3.04
280.52	2.38
280.735	1.74
280.949	2.52
281.163	7.01
281.378	6.78
281.592	6.94
281.806	9.84
282.021	10.45
282.235	8.4
282.449	8.88
282.664	7.58
282.878	8.3
283.092	8.56
283.307	8.83
283.521	8.21
283.735	7.94
283.949	6.44
284.164	7.58
284.378	7.17
284.592	10.27
284.806	11.51
285.02	12.58
285.234	11.28
285.449	11.49
285.663	10.64
285.877	9.3
286.091	10.34
286.305	11.34
286.519	9.71
286.733	9.12
286.947	7.52
287.161	5.6
287.375	5.4
287.589	6.35
287.803	5.52
288.017	4.78
288.231	4.01
288.445	4.09
288.659	3.92
288.873	5.23
289.087	7.09
289.301	8.01
289.515	9.63
289.729	10.08
289.943	8.69
290.157	9.1
290.371	9.78
290.584	12.58
290.798	11.27
291.012	11.67
291.226	11.81
291.44	11.9
291.654	11.76
291.867	10.72
292.081	7.13
292.295	9.13
292.509	9.68
292.722	8.71
292.936	8.05
293.15	11.33
293.364	10.17
293.577	9.24
293.791	7.2
294.005	6.29
294.218	5.56
294.432	9.2
294.645	8.07
294.859	7.82
295.073	9.97
295.286	9.24
295.5	7.37
295.713	7.55
295.927	8.14
296.14	8.29
296.354	9.5
296.568	10.29
296.781	9.97
296.994	11.55
297.208	12.8
297.421	12.13
297.635	12.66
297.848	13.64
298.062	14.41
298.275	15.13
298.489	16.53
298.702	16.12
298.915	17.22
299.129	18.53
299.342	18.14
299.555	17.75
299.769	18.4
299.982	18.8
300.195	18.32
300.409	18.53
300.622	17.69
300.835	16.81
301.048	18.48
301.262	18.01
301.475	17.48
301.688	16.62
301.901	17.16
302.115	16.61
302.328	18.88
302.541	20.35
302.754	18.01
302.967	18.03
303.18	20.1
303.393	17.2
303.607	18.53
303.82	18.48
304.033	19.93
304.246	20.54
304.459	20.79
304.672	18.75
304.885	18.2
305.098	19.38
305.311	21.58
305.524	20.37
305.737	21.39
305.95	20.24
306.163	19.26
306.376	18.61
306.589	17.98
306.802	18.27
307.015	16.65
307.228	16.31
307.44	17.14
307.653	16.15
307.866	14.15
308.079	15.68
308.292	16.94
308.505	18.65
308.718	21.94
308.93	20.31
309.143	21.58
309.356	21.76
309.569	22.1
309.781	23.4
309.994	22.8
310.207	24.64
310.42	23.49
310.632	23.76
310.845	24.04
311.058	21.49
311.27	22.91
311.483	22.34
311.696	22.37
311.908	22.75
312.121	20.61
312.333	20.67
312.546	20.82
312.759	21.57
312.971	20.03
313.184	18.92
313.396	17.96
313.609	15.64
313.821	16.63
314.034	17.05
314.246	16.11
314.459	16.61
314.671	16.86
314.884	15.62
315.096	14.78
315.309	14.6
315.521	13.98
315.733	15.81
315.946	15.85
316.158	13.95
316.371	15.32
316.583	15.11
316.795	15.87
317.008	16.18
317.22	16.95
317.432	16.94
317.644	18.47
317.857	19.16
318.069	18.27
318.281	19.67
318.494	19.87
318.706	18.25
318.918	20.95
319.13	22.94
319.342	23.04
319.555	21.08
319.767	22.15
319.979	21.4
320.191	23.19
320.403	22.87
320.615	24.15
320.827	24.51
321.039	24.55
321.252	22
321.464	19.46
321.676	18.51
321.888	21.57
322.1	20.38
322.312	20.63
322.524	18.2
322.736	19.1
322.948	18.21
323.16	18.39
323.372	19.48
323.584	20.88
323.796	22.57
324.007	21.18
324.219	21.25
324.431	23.56
324.643	24.04
324.855	27.68
325.067	27.41
325.279	28.47
325.491	28.53
325.702	29.24
325.914	29.5
326.126	27.94
326.338	28.11
326.55	27.56
326.761	26.88
326.973	28.16
327.185	26.06
327.396	25.74
327.608	25.88
327.82	27.74
328.032	29.03
328.243	29.84
328.455	31.81
328.666	35.18
328.878	36.24
329.09	37.8
329.301	38.48
329.513	37.87
329.725	39.9
329.936	40.78
330.148	42.07
330.359	41.71
330.571	40.51
330.782	41.31
330.994	44.66
331.205	47.23
331.417	49.31
331.628	48.44
331.84	52.71
332.051	54.02
332.262	56.26
332.474	54.86
332.685	56.53
332.897	58.52
333.108	58.05
333.319	55
333.531	55.04
333.742	54.22
333.953	55.96
334.165	55.7
334.376	58.05
334.587	58.71
334.799	62.19
335.01	63.05
335.221	64.23
335.432	67.15
335.644	69.09
335.855	69.22
336.066	71.51
336.277	70.4
336.488	70.23
336.7	69.77
336.911	69.43
337.122	68.32
337.333	68.37
337.544	70.05
337.755	69.91
337.966	69.91
338.177	70.14
338.388	68.44
338.599	71.06
338.811	72.68
339.022	73.06
339.233	74.32
339.444	74.38
339.655	75.37
339.866	74.37
340.076	73.71
340.287	74.58
340.498	75.9
340.709	76.69
340.92	76.91
341.131	76.92
341.342	76.3
341.553	76.28
341.764	76.19
341.975	76.12
342.185	76.96
342.396	78.48
342.607	77.82
342.818	79.14
343.029	80.25
343.239	79.84
343.45	80.1
343.661	80.47
343.872	80.44
344.082	81.7
344.293	81
344.504	81.29
344.714	80.07
344.925	80.58
345.136	80.28
345.346	78.89
345.557	78.78
345.768	78.98
345.978	80.27
346.189	79.77
346.399	79.8
346.61	79.46
346.821	79.09
347.031	80.28
347.242	79.03
347.452	78.51
347.663	78.19
347.873	77.78
348.084	78.35
348.294	78.21
348.504	78.84
348.715	79.05
348.925	79.42
349.136	78.33
349.346	76.92
349.557	78.74
349.767	78.21
349.977	79.68
350.188	79.97
350.398	79.68
350.608	77.91
350.819	77.12
351.029	76.93
351.239	78.67
351.449	77.98
351.66	79.03
351.87	78.34
352.08	77.67
352.29	77.25
352.501	78.47
352.711	78.37
352.921	79.73
353.131	80.41
353.341	79.27
353.552	78.25
353.762	78.44
353.972	78.46
354.182	78.55
354.392	79.78
354.602	80.4
354.812	78.25
355.022	78.46
355.232	79.43
355.442	79.29
355.652	79.1
355.862	78.4
356.072	79
356.282	78
356.492	77.82
356.702	76.7
356.912	76.85
357.122	78.32
357.332	78.35
357.542	77.58
357.752	77.64
357.962	78.66
358.171	79.25
358.381	79.8
358.591	79.93
358.801	80.88
359.011	81.63
359.221	80.75
359.43	79.79
359.64	79.44
359.85	78.6
360.06	77.9
360.269	77.22
360.479	76.29
360.689	75.58
360.899	75.29
361.108	75.08
361.318	74.66
361.528	74.43
361.737	74.46
361.947	73.19
362.156	72.8
362.366	73.08
362.576	72.46
362.785	72.88
362.995	72.76
363.204	72.32
363.414	71.66
363.623	71.42
363.833	71.07
364.042	70.82
364.252	71.93
364.461	71.23
364.671	70.87
364.88	70.95
365.09	70.47
365.299	70.47
365.509	70.87
365.718	70.98
365.927	71.63
366.137	71.77
366.346	71.8
366.555	70.97
366.765	71.29
366.974	71.36
367.183	71.5
367.393	71.37
367.602	71.32
367.811	71.23
368.021	71.38
368.23	69.94
368.439	69.53
368.648	68.72
368.857	68.29
369.067	67.96
369.276	67.73
369.485	67.33
369.694	67.06
369.903	66.16
370.112	66.52
370.321	65.34
370.531	65.29
370.74	65.61
370.949	65.64
371.158	65.5
371.367	65.68
371.576	64.95
371.785	64.25
371.994	63.62
372.203	63.11
372.412	62.48
372.621	61.81
372.83	60.73
373.039	59.6
373.248	59.38
373.457	58.95
373.666	58.51
373.874	58.7
374.083	58.23
374.292	57.97
374.501	57.99
374.71	57.33
374.919	58.29
375.128	58.78
375.336	58.92
375.545	59.16
375.754	59
375.963	59
376.171	58.02
376.38	59.05
376.589	59.06
376.798	58.49
377.006	57.49
377.215	56.62
377.424	56.34
377.632	55.89
377.841	54.75
378.05	54.79
378.258	54.61
378.467	54.49
378.675	53.42
378.884	52.93
379.093	53.24
379.301	53.59
379.51	53.14
379.718	52.9
379.927	53.33
380.135	53.51
380.344	53.32
380.552	53.21
380.761	53.26
380.969	53.82
381.177	53.71
381.386	52.88
381.594	52.53
381.803	52.73
382.011	52.81
382.219	52.06
382.428	51.67
382.636	50.36
382.845	49.55
383.053	49.17
383.261	47.88
383.469	47.54
383.678	47.67
383.886	47.39
384.094	46.34
384.302	45.56
384.511	44.83
384.719	44.29
384.927	44.72
385.135	44.54
385.343	43.82
385.552	43.28
385.76	42.44
385.968	41.85
386.176	41.41
386.384	41.31
386.592	41.16
386.8	41.34
387.008	41.25
387.216	40.86
387.424	40.31
387.633	40.04
387.841	39.74
388.049	40.14
388.257	39.62
388.465	39.42
388.672	39.5
388.88	38.84
389.088	38.43
389.296	38
389.504	37.42
389.712	37.09
389.92	37.01
390.128	36.97
390.336	36.68
390.544	36.78
390.751	36.93
390.959	36.43
391.167	36.19
391.375	35.59
391.583	35.73
391.79	35.62
391.998	35.14
392.206	34.82
392.414	34.44
392.621	34.2
392.829	33.79
393.037	33.69
393.244	33.36
393.452	33.34
393.66	33.53
393.867	33.33
394.075	33.49
394.283	33.53
394.49	33.6
394.698	33.6
394.905	33.33
395.113	33.33
395.32	32.69
395.528	32.87
395.735	32.67
395.943	32.31
396.15	32.24
396.358	32.1
396.565	32.09
396.773	32.33
396.98	32.31
397.188	31.98
397.395	31.7
397.602	31.35
397.81	31.19
398.017	31.05
398.225	31.37
398.432	31.02
398.639	30.82
398.847	30.91
399.054	30.29
399.261	30.11
399.468	30.41
399.676	30.67
399.883	31.08
400.09	30.77
400.297	30.74
400.505	30.59
400.712	30.42
400.919	30.4
401.126	30.19
401.333	30.59
401.54	30.86
401.748	30.78
401.955	30.77
402.162	30.7
402.369	30.88
402.576	31.05
402.783	30.72
402.99	30.56
403.197	30.43
403.404	30.53
403.611	30.44
403.818	30.38
404.025	30.33
404.232	30.16
404.439	30.06
404.646	29.9
404.853	29.75
405.06	29.66
405.267	29.89
405.474	29.76
405.681	29.75
405.887	29.58
406.094	29.38
406.301	29.44
406.508	29.17
406.715	29.32
406.922	29.16
407.128	29.25
407.335	29.44
407.542	28.99
407.749	28.56
407.955	28.24
408.162	28.13
408.369	28.19
408.575	27.93
408.782	28.01
408.989	28.04
409.195	28.31
409.402	28.12
409.609	28.2
409.815	28.32
410.022	28.91
410.228	29.24
410.435	29.15
410.642	29.29
410.848	29.11
411.055	29.17
411.261	28.89
411.468	28.73
411.674	28.7
411.881	28.24
412.087	28.28
412.294	28.07
412.5	27.8
412.706	27.67
412.913	27.3
413.119	27.15
413.326	26.94
413.532	26.86
413.738	26.59
413.945	26.8
414.151	26.98
414.357	26.79
414.564	26.74
414.77	27.1
414.976	27.17
415.182	27.05
415.389	27.09
415.595	27.2
415.801	27.45
416.007	27.66
416.214	27.33
416.42	27.35
416.626	27.63
416.832	27.93
417.038	27.58
417.244	27.67
417.45	27.88
417.657	27.7
417.863	27.54
418.069	27.37
418.275	27.37
418.481	27.14
418.687	27.14
418.893	26.69
419.099	26.29
419.305	26.15
419.511	26.03
419.717	25.99
419.923	26.16
420.129	26.15
420.335	26.22
420.541	26.14
420.746	26.42
420.952	26.35
421.158	26.58
421.364	26.6
421.57	26.65
421.776	26.54
421.982	26.45
422.187	26.47
422.393	26.57
422.599	26.45
422.805	26.25
423.01	26.15
423.216	26.27
423.422	26.19
423.628	26.11
423.833	26.14
424.039	26.25
424.245	26.26
424.45	26.11
424.656	26.02
424.862	25.92
425.067	26.15
425.273	25.99
425.478	25.88
425.684	25.75
425.889	25.76
426.095	25.57
426.301	25.57
426.506	25.43
426.712	25.64
426.917	25.64
427.123	25.68
427.328	25.66
427.533	25.65
427.739	25.69
427.944	25.82
428.15	25.99
428.355	25.99
428.561	25.7
428.766	25.82
428.971	25.33
429.177	25.3
429.382	25.26
429.587	24.99
429.793	25.13
429.998	24.96
430.203	24.76
430.408	24.58
430.614	24.95
430.819	25.3
431.024	25.05
431.229	25.36
431.434	25.16
431.64	25.17
431.845	25.22
432.05	25.14
432.255	25
432.46	25.21
432.665	25.24
432.87	25.15
433.076	24.97
433.281	25.18
433.486	25.13
433.691	25.23
433.896	25.15
434.101	25.28
434.306	25.39
434.511	25.45
434.716	25.4
434.921	25.34
435.126	25.18
435.331	25.3
435.535	25.31
435.74	25.24
435.945	25.24
436.15	25.39
436.355	25.32
436.56	25.46
436.765	25.46
436.97	25.35
437.174	25.68
437.379	25.74
437.584	25.53
437.789	25.62
437.993	25.71
438.198	25.95
438.403	25.73
438.608	25.67
438.812	25.47
439.017	25.52
439.222	25.73
439.426	25.42
439.631	25.38
439.836	25.39
440.04	25.35
440.245	25.32
440.45	24.97
440.654	24.96
440.859	25.02
441.063	25.11
441.268	25.17
441.472	25.09
441.677	25.19
441.881	25.21
442.086	25.3
442.29	25.13
442.495	25.17
442.699	25.38
442.904	25.23
443.108	25.2
443.312	25.11
443.517	24.91
443.721	24.75
443.925	24.63
444.13	24.66
444.334	24.62
444.538	24.35
444.743	24.29
444.947	24.25
445.151	24.48
445.356	24.47
445.56	24.33
445.764	24.36
445.968	24.5
446.173	24.55
446.377	24.45
446.581	24.48
446.785	24.74
446.989	24.74
447.193	24.69
447.398	24.7
447.602	24.68
447.806	24.85
448.01	24.78
448.214	24.68
448.418	24.64
448.622	24.71
448.826	24.52
449.03	24.37
449.234	24.29
449.438	24.17
449.642	24.35
449.846	24.37
450.05	24.03
450.254	24
450.458	23.94
450.662	23.86
450.866	23.68
451.069	23.66
451.273	23.73
451.477	23.73
451.681	23.94
451.885	23.68
452.089	23.56
452.292	23.68
452.496	23.77
452.7	23.84
452.904	23.78
453.107	23.77
453.311	23.84
453.515	23.78
453.719	23.66
453.922	23.5
454.126	23.45
454.33	23.31
454.533	23.33
454.737	23.25
454.94	23.23
455.144	23.33
455.348	23.39
455.551	23.28
455.755	23.25
455.958	23.32
456.162	23.37
456.365	23.34
456.569	23.44
456.772	23.54
456.976	23.34
