Data from 2937811_Reflection_3.txt Node
Date: Wed Jul 15 17:47:20 EDT 2015
User: robert
Spectrometer: USB4E03001
Autoset integration time: false
Trigger mode: 4
Integration Time (sec): 1.000000E-1
Scans to average: 10
Electric dark correction enabled: true
Nonlinearity correction enabled: false
Boxcar width: 5
Stray light correction enabled: false
XAxis mode: Wavelengths
Stop averaging: false
Number of Pixels in Spectrum: 3648
>>>>>Begin Spectral Data<<<<<
177.566	282.47
177.785	3016.67
178.005	25.75
178.225	7.23
178.445	66.27
178.665	174.32
178.885	145.2
179.105	114.24
179.324	-55.06
179.544	162.51
179.764	77.58
179.984	263.66
180.204	-454.42
180.423	290.46
180.643	-760.87
180.863	-1227.75
181.083	-172.4
181.302	-128.22
181.522	50.35
181.742	20.5
181.961	-34.2
182.181	-81.63
182.401	-174.12
182.621	-148.15
182.84	23.04
183.06	61.95
183.279	69.64
183.499	11.5
183.719	23.49
183.938	-0.53
184.158	26.08
184.377	14.29
184.597	21.41
184.816	44.5
185.036	38.07
185.256	18.75
185.475	-6.16
185.695	-19.8
185.914	-21.36
186.134	-22.64
186.353	-34.06
186.572	-48.32
186.792	-36.5
187.011	-45.21
187.231	-69.61
187.45	-78.44
187.67	-93.24
187.889	-70.31
188.108	-153.41
188.328	-104.85
188.547	-91
188.766	-81.58
188.986	216.34
189.205	60.79
189.424	-49.47
189.644	-205.78
189.863	-162.81
190.082	-1214.59
190.302	-322.7
190.521	14.82
190.74	194.17
190.959	292.86
191.178	-631.47
191.398	740.14
191.617	69.51
191.836	116.94
192.055	46.99
192.274	8.03
192.494	25.25
192.713	72.53
192.932	93.99
193.151	213.66
193.37	792.22
193.589	90.12
193.808	137.73
194.027	-27.83
194.246	106.57
194.465	130.36
194.685	175.61
194.904	-423.43
195.123	1037.87
195.342	862.42
195.561	653.69
195.78	-285.49
195.999	-186.89
196.218	275.5
196.436	107.21
196.655	167.09
196.874	174.3
197.093	196.41
197.312	159.56
197.531	487.21
197.75	65.92
197.969	86.37
198.188	57.26
198.407	44.11
198.625	111.25
198.844	243.47
199.063	-125
199.282	-43.35
199.501	985.82
199.719	89.04
199.938	220.67
200.157	495.85
200.376	24.62
200.594	-30.07
200.813	5.42
201.032	-2.92
201.251	-6.51
201.469	187.68
201.688	1171.35
201.907	-334.8
202.125	875.49
202.344	-255.41
202.563	-76.37
202.781	57.75
203	12.63
203.218	16.32
203.437	19.05
203.656	13.89
203.874	46.91
204.093	38.78
204.311	29.56
204.53	33.64
204.748	42.23
204.967	9.39
205.185	15.3
205.404	45.41
205.622	118.32
205.841	85.23
206.059	108
206.278	-0.37
206.496	1.57
206.715	-7.62
206.933	29.78
207.151	30.4
207.37	-695.08
207.588	67.18
207.806	96.32
208.025	100.89
208.243	165.72
208.461	305.97
208.68	456.61
208.898	-288.47
209.116	-164.13
209.335	14.58
209.553	389.89
209.771	126.93
209.989	115.02
210.208	74.8
210.426	-72.9
210.644	-11.85
210.862	36.53
211.081	45.84
211.299	69.33
211.517	94.56
211.735	111.73
211.953	128.78
212.171	176.47
212.39	152.28
212.608	155.24
212.826	142.5
213.044	149.5
213.262	295.83
213.48	182.48
213.698	-8900
213.916	-4.91
214.134	-39.57
214.352	13.07
214.57	-338.04
214.788	4139
215.006	-1270.34
215.224	616.28
215.442	1345.76
215.66	873.99
215.878	259.57
216.096	166.97
216.314	360.95
216.532	276.64
216.75	321.83
216.968	101.07
217.185	71.13
217.403	0.17
217.621	-11.06
217.839	-54.61
218.057	-795.27
218.275	258.99
218.492	97.92
218.71	110.24
218.928	124.09
219.146	65.99
219.363	90.13
219.581	100.06
219.799	60.26
220.017	37.8
220.234	37.84
220.452	56.45
220.67	22.45
220.887	158.06
221.105	135.84
221.323	84.18
221.54	19.75
221.758	-37.38
221.976	-152.9
222.193	312.39
222.411	49.14
222.629	-22.72
222.846	-243.34
223.064	31.51
223.281	123.27
223.499	170.6
223.716	174.36
223.934	219.11
224.151	1816.11
224.369	5056.2
224.586	1902.82
224.804	-671.38
225.021	-364.63
225.239	-155.91
225.456	-98.82
225.674	-38.94
225.891	4.07
226.108	28.34
226.326	26.87
226.543	75.99
226.76	65.36
226.978	60.42
227.195	42.74
227.413	32.06
227.63	4.5
227.847	12.3
228.064	7.86
228.282	9.87
228.499	10.16
228.716	13.3
228.934	6.13
229.151	11.61
229.368	15.52
229.585	15.34
229.802	19.01
230.02	23.65
230.237	20.74
230.454	19.5
230.671	15.31
230.888	10.51
231.105	12.78
231.323	14.3
231.54	11.38
231.757	3.58
231.974	6.57
232.191	-6.17
232.408	-6.48
232.625	-3.8
232.842	-3.65
233.059	3.86
233.276	13.24
233.493	5.66
233.71	9.98
233.927	4.29
234.144	3.3
234.361	-2.57
234.578	1.14
234.795	9.51
235.012	9.08
235.229	13.97
235.446	13.49
235.663	12.7
235.879	10.35
236.096	10
236.313	7.55
236.53	9.71
236.747	7.17
236.964	9.61
237.181	-0.83
237.397	-7.74
237.614	-17.84
237.831	-24.26
238.048	-26.03
238.264	-26.33
238.481	-22.97
238.698	-21.12
238.915	-19.08
239.131	-8.86
239.348	-1
239.565	-1.52
239.781	-4.64
239.998	0.66
240.215	7.19
240.431	1.79
240.648	6.58
240.865	4.69
241.081	12.19
241.298	13.29
241.514	10.55
241.731	12.27
241.947	13
242.164	11.08
242.38	7.41
242.597	8.7
242.814	10.52
243.03	10.76
243.246	11.74
243.463	10.04
243.679	7.54
243.896	8.38
244.112	7.12
244.329	4.8
244.545	8.73
244.762	10.03
244.978	9.04
245.194	13.61
245.411	11.97
245.627	13.08
245.843	12.9
246.06	12.09
246.276	10.39
246.492	9.73
246.709	10.48
246.925	9.21
247.141	10.6
247.357	8.25
247.574	7.69
247.79	7.36
248.006	7.47
248.222	6.73
248.439	8.2
248.655	7.96
248.871	7.79
249.087	7.34
249.303	8.21
249.519	5.98
249.736	7.08
249.952	6.18
250.168	6.47
250.384	4.93
250.6	6.53
250.816	3.62
251.032	4.31
251.248	2.53
251.464	4.81
251.68	0.58
251.896	3.48
252.112	4.69
252.328	2.79
252.544	2.64
252.76	0.1
252.976	0.81
253.192	0.29
253.408	1.59
253.624	2.24
253.84	-0.11
254.056	4.33
254.272	1.84
254.487	4.09
254.703	7.1
254.919	8.83
255.135	14.54
255.351	13.58
255.567	11.96
255.782	11.19
255.998	14.01
256.214	13.54
256.43	14.45
256.646	13.91
256.861	8.58
257.077	6.3
257.293	7.25
257.508	5.05
257.724	5.47
257.94	7.14
258.155	6.35
258.371	3.49
258.587	3.04
258.802	2.96
259.018	3.74
259.234	5.99
259.449	6.28
259.665	5.86
259.88	7.32
260.096	5.87
260.312	6.7
260.527	6.37
260.743	6.46
260.958	6.66
261.174	6.47
261.389	6.59
261.605	5.63
261.82	5.01
262.036	4.85
262.251	3.38
262.466	4.78
262.682	2.95
262.897	3.3
263.113	3.79
263.328	3.42
263.543	5.47
263.759	5.91
263.974	6.87
264.189	8.99
264.405	9.17
264.62	7.29
264.835	7.7
265.051	9.22
265.266	10.17
265.481	8.35
265.696	11.3
265.912	9.64
266.127	10.85
266.342	9.93
266.557	8.1
266.773	8.01
266.988	10.16
267.203	9.58
267.418	8.37
267.633	7.97
267.848	9.12
268.064	9.01
268.279	7.25
268.494	5.74
268.709	5.88
268.924	7.46
269.139	6.82
269.354	6.22
269.569	4.17
269.784	2.64
269.999	3.18
270.214	2.73
270.429	1.41
270.644	1.1
270.859	2.99
271.074	3.75
271.289	3.4
271.504	3.41
271.719	3.25
271.934	5.72
272.149	7.48
272.363	6.89
272.578	7.91
272.793	8.5
273.008	9.01
273.223	8.11
273.438	8.18
273.653	7.49
273.867	9.19
274.082	9.78
274.297	9.23
274.512	8.87
274.726	8.87
274.941	8.35
275.156	7.45
275.371	6.51
275.585	5.98
275.8	5.2
276.015	4.81
276.229	1.5
276.444	1.72
276.659	1.91
276.873	2.15
277.088	1.58
277.302	0.81
277.517	-0.69
277.732	0.06
277.946	-0.86
278.161	-0.69
278.375	0.82
278.59	2.66
278.804	-0.45
279.019	-3.99
279.233	-3.5
279.448	-3.8
279.662	-3.19
279.877	-1.4
280.091	-0.48
280.306	2.25
280.52	2.77
280.735	2.1
280.949	2.8
281.163	5.72
281.378	5.73
281.592	5.85
281.806	8.73
282.021	9.02
282.235	8.09
282.449	9.58
282.664	7.68
282.878	9.89
283.092	12.37
283.307	11.39
283.521	11.2
283.735	11.77
283.949	11
284.164	9.3
284.378	8.78
284.592	9.98
284.806	10.39
285.02	12.82
285.234	11.05
285.449	8.47
285.663	8.57
285.877	8.48
286.091	9.19
286.305	9.65
286.519	9.12
286.733	8.73
286.947	7.04
287.161	5.69
287.375	4.6
287.589	4.06
287.803	4.22
288.017	5.21
288.231	3.69
288.445	4.69
288.659	5.48
288.873	5.45
289.087	6.59
289.301	8.05
289.515	10.65
289.729	11.37
289.943	9.76
290.157	10.69
290.371	10.77
290.584	13.18
290.798	12.15
291.012	10.33
291.226	11.54
291.44	11.41
291.654	12.23
291.867	10.85
292.081	8.33
292.295	11.63
292.509	13.89
292.722	13.84
292.936	12.99
293.15	13.77
293.364	15.52
293.577	14.39
293.791	14.02
294.005	14.3
294.218	10.3
294.432	12.69
294.645	12.53
294.859	10.42
295.073	10.12
295.286	8.35
295.5	8.27
295.713	8.7
295.927	10.31
296.14	10.08
296.354	8.5
296.568	10.28
296.781	10.31
296.994	10.06
297.208	10.6
297.421	10.72
297.635	10.95
297.848	9.34
298.062	9.09
298.275	7.78
298.489	9.38
298.702	10.5
298.915	11.4
299.129	10.44
299.342	10.22
299.555	10.64
299.769	10.38
299.982	10.9
300.195	13.18
300.409	12.78
300.622	12.95
300.835	11.73
301.048	10.99
301.262	11.63
301.475	12.87
301.688	11.87
301.901	11.13
302.115	10.79
302.328	11.43
302.541	12.52
302.754	13.33
302.967	15.3
303.18	16.26
303.393	15.21
303.607	15.22
303.82	15.1
304.033	14.94
304.246	15.33
304.459	14.58
304.672	14.15
304.885	13.54
305.098	13.11
305.311	11.97
305.524	12.07
305.737	13.67
305.95	13.85
306.163	12.29
306.376	14.18
306.589	12.06
306.802	12.31
307.015	11.42
307.228	10.96
307.44	12.8
307.653	15.11
307.866	11.83
308.079	13.14
308.292	12.87
308.505	14.51
308.718	15.09
308.93	15.99
309.143	18.44
309.356	19.89
309.569	19.34
309.781	18.97
309.994	17.17
310.207	19.2
310.42	18.18
310.632	18.16
310.845	19.24
311.058	18.03
311.27	19.72
311.483	18.84
311.696	19.3
311.908	20.43
312.121	19.31
312.333	21.58
312.546	21.65
312.759	22.26
312.971	22.4
313.184	21.26
313.396	21.04
313.609	19.1
313.821	20.58
314.034	19.56
314.246	18.38
314.459	21.2
314.671	20.21
314.884	20.46
315.096	20.92
315.309	20.24
315.521	20.12
315.733	21.52
315.946	20.64
316.158	19.55
316.371	22.48
316.583	23.83
316.795	22.97
317.008	23.38
317.22	24.09
317.432	24.33
317.644	23.65
317.857	21.9
318.069	22.07
318.281	23.01
318.494	23.43
318.706	21.63
318.918	21.84
319.13	21.13
319.342	21.82
319.555	19.59
319.767	21.13
319.979	21.3
320.191	23.43
320.403	21.99
320.615	22.62
320.827	20.78
321.039	20.81
321.252	19.75
321.464	20.4
321.676	20.78
321.888	23.89
322.1	22.16
322.312	22.54
322.524	22.31
322.736	24.05
322.948	24.39
323.16	24.57
323.372	24.66
323.584	25.79
323.796	25.03
324.007	23.52
324.219	21.51
324.431	22.54
324.643	22.85
324.855	24.23
325.067	24.69
325.279	25.3
325.491	27.27
325.702	28.72
325.914	29.53
326.126	30.12
326.338	30.34
326.55	33.34
326.761	33.56
326.973	35.62
327.185	36.12
327.396	36.86
327.608	36.86
327.82	38.68
328.032	37.29
328.243	37.62
328.455	39.43
328.666	40.21
328.878	38.91
329.09	39
329.301	38.48
329.513	38.79
329.725	38.99
329.936	39.99
330.148	39.93
330.359	42.06
330.571	43.55
330.782	44.13
330.994	47.25
331.205	48.32
331.417	49.56
331.628	51.29
331.84	52.44
332.051	55.06
332.262	58.02
332.474	57.52
332.685	57.73
332.897	57.5
333.108	56.75
333.319	53.76
333.531	54.41
333.742	56.35
333.953	57.64
334.165	58.28
334.376	59.24
334.587	58.97
334.799	61.15
335.01	62.49
335.221	63.66
335.432	65.31
335.644	67.28
335.855	67.2
336.066	68.27
336.277	67.79
336.488	68.76
336.7	67.97
336.911	69.29
337.122	68.45
337.333	68.38
337.544	69.46
337.755	68.82
337.966	70.12
338.177	71.04
338.388	70.71
338.599	72.15
338.811	72.35
339.022	71.74
339.233	70.1
339.444	70.55
339.655	70.97
339.866	68.77
340.076	70.9
340.287	70.85
340.498	71.1
340.709	70.88
340.92	70.21
341.131	70.14
341.342	70.33
341.553	70.72
341.764	70.56
341.975	69.98
342.185	71.54
342.396	72.3
342.607	71.8
342.818	73.1
343.029	74.49
343.239	74.15
343.45	72.26
343.661	72.12
343.872	72.92
344.082	74.2
344.293	73.91
344.504	74.6
344.714	72.33
344.925	72.46
345.136	71.95
345.346	70.63
345.557	72.21
345.768	72.99
345.978	74.29
346.189	72.93
346.399	72.41
346.61	72.51
346.821	71.75
347.031	72.45
347.242	72.89
347.452	71.91
347.663	73.77
347.873	71.97
348.084	74.07
348.294	73.97
348.504	74.63
348.715	74.99
348.925	75.58
349.136	75.54
349.346	75.17
349.557	75.5
349.767	75.59
349.977	73.69
350.188	74.91
350.398	73.69
350.608	71.5
350.819	72.11
351.029	71.95
351.239	72.97
351.449	73.77
351.66	74.84
351.87	74.55
352.08	75.1
352.29	75.43
352.501	75.7
352.711	77.56
352.921	82.42
353.131	82.35
353.341	81.95
353.552	81.83
353.762	80.39
353.972	79.62
354.182	79.12
354.392	79.1
354.602	79.84
354.812	78.41
355.022	77.35
355.232	75.12
355.442	75.08
355.652	74.93
355.862	74.68
356.072	75.83
356.282	75.96
356.492	75.61
356.702	75.53
356.912	75.12
357.122	75.74
357.332	75.93
357.542	75.39
357.752	76.46
357.962	77.63
358.171	77.75
358.381	78.38
358.591	78.51
358.801	79.24
359.011	79.11
359.221	78.42
359.43	78.07
359.64	77.66
359.85	77.89
360.06	76.22
360.269	75.85
360.479	75.54
360.689	74.74
360.899	73.65
361.108	73.98
361.318	74.39
361.528	73.99
361.737	74.4
361.947	73.3
362.156	72.68
362.366	73.34
362.576	73.37
362.785	73.09
362.995	72.84
363.204	74.08
363.414	73.11
363.623	72.4
363.833	72.37
364.042	72.22
364.252	73.81
364.461	72.98
364.671	72.93
364.88	70.9
365.09	70.43
365.299	70.51
365.509	68.87
365.718	69.46
365.927	69.7
366.137	70.17
366.346	69.82
366.555	68.36
366.765	68.89
366.974	67.76
367.183	68.36
367.393	69.16
367.602	68.12
367.811	67.78
368.021	66.91
368.23	65.86
368.439	65.02
368.648	65.11
368.857	65.35
369.067	64.4
369.276	64.67
369.485	64.12
369.694	63.23
369.903	63.51
370.112	64.41
370.321	63.81
370.531	63.4
370.74	62.31
370.949	62.05
371.158	60.99
371.367	61.97
371.576	61.57
371.785	61.54
371.994	60.68
372.203	59.92
372.412	59.45
372.621	59.45
372.83	59.88
373.039	60.56
373.248	59.29
373.457	59.7
373.666	58.2
373.874	57.85
374.083	57.55
374.292	58
374.501	57.91
374.71	56.92
374.919	56.25
375.128	56.14
375.336	56.47
375.545	56.23
375.754	55.31
375.963	55.45
376.171	54.96
376.38	55.26
376.589	54.41
376.798	53.56
377.006	53.32
377.215	53.3
377.424	52.56
377.632	51.67
377.841	52.12
378.05	52.47
378.258	52.01
378.467	51.8
378.675	50.8
378.884	50.42
379.093	50.88
379.301	51.17
379.51	51.18
379.718	51.44
379.927	51.75
380.135	50.82
380.344	51.15
380.552	51.99
380.761	51.65
380.969	52.37
381.177	53.21
381.386	52.66
381.594	52.02
381.803	52.19
382.011	51.25
382.219	50.28
382.428	50.24
382.636	49.3
382.845	48.59
383.053	48.54
383.261	47.26
383.469	46.71
383.678	46.11
383.886	45.95
384.094	44.77
384.302	44.62
384.511	43.93
384.719	43.26
384.927	42.96
385.135	42.91
385.343	42.82
385.552	42.72
385.76	41.71
385.968	41.44
386.176	40.95
386.384	40.69
386.592	40.54
386.8	41.01
387.008	40.73
387.216	40.32
387.424	39.87
387.633	39.24
387.841	38.85
388.049	38.56
388.257	38.52
388.465	38.19
388.672	38.35
388.88	38.14
389.088	37.35
389.296	37.46
389.504	37.03
389.712	36.74
389.92	36.41
390.128	36.2
390.336	36.35
390.544	36.16
390.751	36.28
390.959	35.86
391.167	35.38
391.375	35.21
391.583	35.45
391.79	35.08
391.998	34.4
392.206	34.51
392.414	34.47
392.621	34.05
392.829	33.76
393.037	33.8
393.244	33.63
393.452	33.75
393.66	33.69
393.867	32.99
394.075	33.17
394.283	33.46
394.49	33.34
394.698	32.98
394.905	32.82
395.113	32.82
395.32	32.49
395.528	32.35
395.735	32.03
395.943	32.07
396.15	32.24
396.358	32.28
396.565	32
396.773	31.86
396.98	31.77
397.188	32.3
397.395	32.41
397.602	31.89
397.81	31.77
398.017	31.64
398.225	31.58
398.432	31.41
398.639	31.32
398.847	31.51
399.054	31.46
399.261	31.74
399.468	31.33
399.676	31.2
399.883	31.42
400.09	31.64
400.297	31.75
400.505	31.84
400.712	31.71
400.919	31.55
401.126	31.4
401.333	31.47
401.54	31.43
401.748	31.58
401.955	31.72
402.162	31.84
402.369	31.72
402.576	31.65
402.783	31.08
402.99	30.78
403.197	30.84
403.404	30.84
403.611	30.46
403.818	30.48
404.025	30.18
404.232	30.01
404.439	30.17
404.646	30.28
404.853	30.33
405.06	30.39
405.267	30.81
405.474	30.93
405.681	30.94
405.887	31.35
406.094	31.27
406.301	31.58
406.508	31.18
406.715	31.12
406.922	30.79
407.128	30.75
407.335	31.03
407.542	30.82
407.749	30.14
407.955	30.2
408.162	30.13
408.369	30.25
408.575	30.1
408.782	30.41
408.989	30.46
409.195	30.7
409.402	30.44
409.609	30.29
409.815	29.99
410.022	30.69
410.228	30.56
410.435	30.41
410.642	30.23
410.848	30.02
411.055	30.16
411.261	29.64
411.468	29.34
411.674	29.33
411.881	29.01
412.087	29.23
412.294	28.6
412.5	28.57
412.706	28.15
412.913	28.04
413.119	27.92
413.326	27.61
413.532	27.71
413.738	27.79
413.945	27.85
414.151	27.92
414.357	27.68
414.564	28.1
414.77	28.04
414.976	28.36
415.182	28.31
415.389	28.34
415.595	28.45
415.801	28.56
416.007	28.48
416.214	28.43
416.42	28.83
416.626	28.9
416.832	28.6
417.038	28.64
417.244	28.66
417.45	28.48
417.657	28.46
417.863	28.35
418.069	28.38
418.275	28.34
418.481	28.3
418.687	28.15
418.893	28.06
419.099	28.12
419.305	28
419.511	27.95
419.717	28.12
419.923	28.22
420.129	28.24
420.335	28.27
420.541	28.27
420.746	28.22
420.952	28.11
421.158	28.05
421.364	27.98
421.57	28.01
421.776	27.91
421.982	27.83
422.187	27.7
422.393	27.67
422.599	27.51
422.805	27.43
423.01	27.44
423.216	27.47
423.422	27.51
423.628	27.62
423.833	27.61
424.039	27.67
424.245	27.7
424.45	27.55
424.656	27.47
424.862	27.46
425.067	27.55
425.273	27.59
425.478	27.46
425.684	27.4
425.889	27.24
426.095	26.96
426.301	26.84
426.506	26.71
426.712	26.87
426.917	26.98
427.123	26.97
427.328	26.8
427.533	26.76
427.739	26.99
427.944	26.71
428.15	26.78
428.355	26.95
428.561	26.74
428.766	26.54
428.971	26.28
429.177	26.23
429.382	26.03
429.587	25.89
429.793	25.7
429.998	25.34
430.203	25.38
430.408	25.21
430.614	25.23
430.819	25.42
431.024	25.62
431.229	25.65
431.434	25.53
431.64	25.66
431.845	25.92
432.05	25.99
432.255	26.17
432.46	26.31
432.665	26.33
432.87	26.38
433.076	26.51
433.281	26.5
433.486	26.6
433.691	26.64
433.896	26.62
434.101	26.63
434.306	26.73
434.511	26.57
434.716	26.67
434.921	26.7
435.126	26.62
435.331	26.39
435.535	26.5
435.74	26.46
435.945	26.57
436.15	26.53
436.355	26.31
436.56	26.33
436.765	26.59
436.97	26.3
437.174	26.42
437.379	26.47
437.584	26.6
437.789	26.49
437.993	26.58
438.198	26.39
438.403	26.27
438.608	26.43
438.812	26.24
439.017	26.3
439.222	26.54
439.426	26.47
439.631	26.48
439.836	26.52
440.04	26.46
440.245	26.35
440.45	26.32
440.654	26.4
440.859	26.35
441.063	26.45
441.268	26.3
441.472	26.35
441.677	26.39
441.881	26.33
442.086	26.29
442.29	26.32
442.495	26.4
442.699	26.57
442.904	26.45
443.108	26.64
443.312	26.54
443.517	26.49
443.721	26.2
443.925	26.32
444.13	26.41
444.334	26.38
444.538	26.14
444.743	26.06
444.947	25.81
445.151	25.83
445.356	25.65
445.56	25.54
445.764	25.52
445.968	25.44
446.173	25.32
446.377	25.21
446.581	25.3
446.785	25.46
446.989	25.57
447.193	25.59
447.398	25.64
447.602	25.61
447.806	25.9
448.01	26
448.214	26.12
448.418	26.22
448.622	26.29
448.826	26
449.03	25.84
449.234	25.65
449.438	25.75
449.642	25.96
449.846	25.98
450.05	25.79
450.254	25.59
450.458	25.64
450.662	25.33
450.866	25.22
451.069	25.44
451.273	25.56
451.477	25.71
451.681	25.57
451.885	25.28
452.089	25.31
452.292	25.39
452.496	25.47
452.7	25.6
452.904	25.59
453.107	25.55
453.311	25.41
453.515	25.42
453.719	25.25
453.922	25.25
454.126	25.28
454.33	25.08
454.533	24.98
454.737	24.88
454.94	24.74
455.144	24.84
455.348	24.76
455.551	24.66
455.755	24.59
455.958	24.59
456.162	24.78
456.365	24.76
456.569	24.71
456.772	24.79
456.976	24.77
457.179	24.99
457.383	24.91
457.586	24.93
457.79	24.91
457.993	25.09
458.196	25
