Data from 2937830_Reflection_2.txt Node
Date: Wed Jul 15 16:48:14 EDT 2015
User: robert
Spectrometer: USB4E03001
Autoset integration time: false
Trigger mode: 4
Integration Time (sec): 1.000000E-1
Scans to average: 10
Electric dark correction enabled: true
Nonlinearity correction enabled: false
Boxcar width: 5
Stray light correction enabled: false
XAxis mode: Wavelengths
Stop averaging: false
Number of Pixels in Spectrum: 3648
>>>>>Begin Spectral Data<<<<<
177.566	-3633.93
177.785	-6429.82
178.005	359.74
178.225	425.45
178.445	493.4
178.665	152.56
178.885	239.92
179.105	684.25
179.324	-600.99
179.544	-262.75
179.764	-160.18
179.984	-270.33
180.204	-184.25
180.423	-288.04
180.643	-291.21
180.863	-93.75
181.083	-222.06
181.302	1260.27
181.522	-1145.39
181.742	203.73
181.961	209.35
182.181	230.93
182.401	262.62
182.621	117.72
182.84	130.16
183.06	241.56
183.279	585.97
183.499	654.49
183.719	-75.58
183.938	-78.09
184.158	-21.66
184.377	-23.11
184.597	-22.09
184.816	14.65
185.036	-7.3
185.256	-6.38
185.475	17.98
185.695	46.63
185.914	59.17
186.134	52.41
186.353	76.54
186.572	82.53
186.792	74.59
187.011	176.27
187.231	45.06
187.45	56.81
187.67	28.02
187.889	61.18
188.108	22.55
188.328	-11.52
188.547	-0.52
188.766	-33.71
188.986	-90.73
189.205	-90.25
189.424	-118.88
189.644	-96.08
189.863	-182.74
190.082	-92.38
190.302	-148.37
190.521	-64.22
190.74	-72.24
190.959	-213.24
191.178	-404.12
191.398	-110.76
191.617	-66.12
191.836	-66.57
192.055	-23.31
192.274	-28.84
192.494	10.83
192.713	21.05
192.932	21.54
193.151	103.48
193.37	127.05
193.589	126.08
193.808	141.93
194.027	103.21
194.246	80.53
194.465	86.18
194.685	103.9
194.904	37.22
195.123	30.55
195.342	19.55
195.561	20.82
195.78	31.67
195.999	55.93
196.218	37.36
196.436	37.97
196.655	55.75
196.874	37.06
197.093	35.14
197.312	50.63
197.531	33.72
197.75	8.32
197.969	13.39
198.188	-48.69
198.407	-153
198.625	-344
198.844	-328.92
199.063	-204.96
199.282	-77.04
199.501	-62.62
199.719	-96.43
199.938	-35.48
200.157	-22.06
200.376	-97.54
200.594	-40.88
200.813	-150.9
201.032	-196.57
201.251	-38.24
201.469	-25.59
201.688	-22.35
201.907	-30.17
202.125	-49.71
202.344	-64.17
202.563	-55.26
202.781	-77.24
203	-65.86
203.218	-68.38
203.437	-53.09
203.656	-74.04
203.874	-150.45
204.093	-262.4
204.311	-416.27
204.53	-342.44
204.748	-255.82
204.967	-336.62
205.185	-199.36
205.404	-483.2
205.622	-318.28
205.841	-410.9
206.059	-675.97
206.278	-445.63
206.496	-181.2
206.715	-82.03
206.933	-65.09
207.151	-17.09
207.37	16.79
207.588	20
207.806	41.74
208.025	41.48
208.243	45.99
208.461	31.81
208.68	51.56
208.898	44.58
209.116	36.49
209.335	38.55
209.553	22.2
209.771	-0.57
209.989	-33.98
210.208	-79.38
210.426	-58.41
210.644	-76.43
210.862	-55.43
211.081	-66.89
211.299	-81.08
211.517	-110.45
211.735	-49.31
211.953	-73.61
212.171	21.37
212.39	50.47
212.608	78.84
212.826	84.31
213.044	22.96
213.262	46.83
213.48	73.97
213.698	62.23
213.916	64.51
214.134	57.29
214.352	48.36
214.57	-10.7
214.788	-21.3
215.006	-53.83
215.224	-40.98
215.442	-27.14
215.66	-26.68
215.878	-14.91
216.096	-27.58
216.314	-17.48
216.532	2.49
216.75	19.86
216.968	15.33
217.185	7.68
217.403	15.02
217.621	10.69
217.839	17.66
218.057	26.37
218.275	11.4
218.492	30.3
218.71	25.19
218.928	23.96
219.146	21.58
219.363	45.38
219.581	53.04
219.799	66.26
220.017	62.06
220.234	63.63
220.452	67.84
220.67	99.32
220.887	95.5
221.105	85.69
221.323	67.27
221.54	71.06
221.758	78.33
221.976	75.85
222.193	35.78
222.411	157.33
222.629	98.33
222.846	56.02
223.064	28.28
223.281	5.42
223.499	23.7
223.716	13.03
223.934	-7.8
224.151	-23.96
224.369	-2.2
224.586	22.04
224.804	17.95
225.021	19.64
225.239	32.05
225.456	29.81
225.674	24.18
225.891	14.68
226.108	22.41
226.326	25.11
226.543	14.57
226.76	14.82
226.978	5.13
227.195	8.55
227.413	9.87
227.63	5.1
227.847	7.65
228.064	15.43
228.282	16.98
228.499	17.98
228.716	17.79
228.934	22.25
229.151	17.88
229.368	16.64
229.585	17.26
229.802	17.58
230.02	17.98
230.237	16.22
230.454	12.55
230.671	12.59
230.888	12.3
231.105	10.36
231.323	7.31
231.54	11.21
231.757	7.77
231.974	9.12
232.191	5.52
232.408	8.4
232.625	6.55
232.842	7.34
233.059	6.05
233.276	6.99
233.493	8.83
233.71	14.66
233.927	21.53
234.144	29.98
234.361	28.4
234.578	30.57
234.795	29.05
235.012	30.97
235.229	27.66
235.446	26.8
235.663	25.41
235.879	22.71
236.096	15.27
236.313	8.55
236.53	9.55
236.747	7.26
236.964	-0.54
237.181	-5.68
237.397	-3.54
237.614	-0.15
237.831	3.78
238.048	1.56
238.264	-1.38
238.481	-0.03
238.698	-9.7
238.915	-15.53
239.131	-8.77
239.348	4.55
239.565	10.89
239.781	8.23
239.998	9.42
240.215	8.82
240.431	10.46
240.648	8.33
240.865	11.79
241.081	19.63
241.298	22.13
241.514	19.71
241.731	17.48
241.947	16.56
242.164	15.01
242.38	18.12
242.597	18.56
242.814	17.28
243.03	19.55
243.246	21.01
243.463	17.21
243.679	15.46
243.896	15.44
244.112	14.95
244.329	13.14
244.545	11.67
244.762	5.83
244.978	4.4
245.194	6.22
245.411	7.36
245.627	6.32
245.843	9.88
246.06	10.82
246.276	11.18
246.492	11.16
246.709	12.99
246.925	14.59
247.141	14.96
247.357	15.02
247.574	14.4
247.79	13.82
248.006	13.77
248.222	12.84
248.439	13.13
248.655	13.55
248.871	13.39
249.087	12.07
249.303	12.01
249.519	12.85
249.736	14.15
249.952	13.78
250.168	15.73
250.384	14.83
250.6	15.54
250.816	13.69
251.032	11.89
251.248	12.96
251.464	12.85
251.68	14.12
251.896	13.93
252.112	12.53
252.328	13.1
252.544	13.43
252.76	11.78
252.976	11.33
253.192	8.32
253.408	10.77
253.624	10.04
253.84	11.16
254.056	8.23
254.272	5.97
254.487	3.46
254.703	2.68
254.919	-5.73
255.135	-3.07
255.351	-4.62
255.567	-1.02
255.782	-7.65
255.998	-6.89
256.214	-8.48
256.43	-7
256.646	-4.5
256.861	-5.17
257.077	-1.48
257.293	1.46
257.508	-0.42
257.724	2.09
257.94	1.12
258.155	2.41
258.371	3.4
258.587	3.15
258.802	4.2
259.018	5.38
259.234	7.3
259.449	7.36
259.665	7.86
259.88	8.98
260.096	9.44
260.312	9.39
260.527	9.75
260.743	10.24
260.958	11.12
261.174	10.89
261.389	10.57
261.605	10.25
261.82	9.28
262.036	9.5
262.251	10.71
262.466	10.17
262.682	11.95
262.897	12.29
263.113	9.47
263.328	9.51
263.543	9.55
263.759	8.94
263.974	7.86
264.189	7.51
264.405	7.33
264.62	6.08
264.835	7.75
265.051	5.93
265.266	6.26
265.481	9.71
265.696	11.63
265.912	11.67
266.127	13.46
266.342	12.65
266.557	12.31
266.773	11.98
266.988	10.2
267.203	7.35
267.418	6.22
267.633	4.6
267.848	5.3
268.064	2.85
268.279	1.82
268.494	2.01
268.709	3.12
268.924	2.53
269.139	1.29
269.354	1.66
269.569	1.94
269.784	3.62
269.999	4.84
270.214	3.91
270.429	7.03
270.644	8.78
270.859	7.98
271.074	7.99
271.289	8.83
271.504	11.45
271.719	10.87
271.934	11.22
272.149	11.45
272.363	11.47
272.578	11.38
272.793	9.95
273.008	9.31
273.223	8.43
273.438	9.35
273.653	9.9
273.867	8.67
274.082	10.24
274.297	10.64
274.512	10.55
274.726	9.21
274.941	8.2
275.156	8.84
275.371	8.74
275.585	10.86
275.8	8.69
276.015	9.07
276.229	9.73
276.444	9.71
276.659	8.26
276.873	8.28
277.088	10.32
277.302	8.81
277.517	6.63
277.732	6.52
277.946	4.56
278.161	5.34
278.375	4.65
278.59	2.79
278.804	1.39
279.019	2.02
279.233	3.23
279.448	2.87
279.662	5.16
279.877	6.37
280.091	6.42
280.306	6.96
280.52	6.75
280.735	7.45
280.949	8.14
281.163	9.81
281.378	11.16
281.592	8.83
281.806	9.08
282.021	10.52
282.235	9.6
282.449	11.4
282.664	10.04
282.878	11.06
283.092	11.39
283.307	11.38
283.521	10.06
283.735	11.77
283.949	12.96
284.164	12.94
284.378	10.54
284.592	12.58
284.806	11.39
285.02	14.45
285.234	14.84
285.449	13.17
285.663	12.92
285.877	12.7
286.091	10.4
286.305	11.64
286.519	11.16
286.733	11.9
286.947	10.25
287.161	10.47
287.375	9.22
287.589	7.71
287.803	7.08
288.017	7.01
288.231	6.76
288.445	8.47
288.659	7.29
288.873	8.37
289.087	7.79
289.301	8.12
289.515	8.7
289.729	8.02
289.943	8.7
290.157	9.5
290.371	9.78
290.584	10.29
290.798	8.8
291.012	9.22
291.226	7.8
291.44	9.19
291.654	8.8
291.867	6.7
292.081	5.94
292.295	6.06
292.509	7.56
292.722	7.55
292.936	6.73
293.15	5.33
293.364	4.44
293.577	4.1
293.791	4.55
294.005	4.92
294.218	5.89
294.432	7.94
294.645	8.6
294.859	8.26
295.073	8.46
295.286	8.5
295.5	10.34
295.713	11.12
295.927	13.26
296.14	12.19
296.354	13.16
296.568	13.07
296.781	12.07
296.994	11.1
297.208	10.62
297.421	10.66
297.635	11.22
297.848	10.71
298.062	9.46
298.275	8.77
298.489	9.95
298.702	9.7
298.915	10.4
299.129	11.19
299.342	13.3
299.555	13.47
299.769	13.02
299.982	12.39
300.195	11.53
300.409	13.28
300.622	12.71
300.835	11.97
301.048	11.12
301.262	10.93
301.475	11.68
301.688	10.11
301.901	10.65
302.115	10.88
302.328	11.61
302.541	12.72
302.754	10.96
302.967	11.69
303.18	11.88
303.393	13.05
303.607	11.71
303.82	9.95
304.033	9.42
304.246	9.06
304.459	11.72
304.672	12.71
304.885	11
305.098	10.77
305.311	9.27
305.524	7.62
305.737	5.71
305.95	6.75
306.163	9.01
306.376	8.75
306.589	9.02
306.802	6.57
307.015	4.25
307.228	5.76
307.44	5.94
307.653	7.34
307.866	7.61
308.079	10.71
308.292	8.47
308.505	6.62
308.718	8.32
308.93	7.05
309.143	8.56
309.356	9.23
309.569	10.34
309.781	11.98
309.994	12.01
310.207	13.59
310.42	10.52
310.632	12.44
310.845	12.36
311.058	10.62
311.27	11.17
311.483	9.51
311.696	9.24
311.908	9.49
312.121	8.43
312.333	8.27
312.546	7.16
312.759	9.31
312.971	9
313.184	8.52
313.396	9.85
313.609	8.86
313.821	9.36
314.034	9.8
314.246	8.54
314.459	9.47
314.671	9.02
314.884	8.15
315.096	7.03
315.309	6.29
315.521	7.88
315.733	7.8
315.946	7.81
316.158	6.63
316.371	5.07
316.583	5.16
316.795	4.38
317.008	4.79
317.22	6.65
317.432	4.81
317.644	6.81
317.857	5.41
318.069	6.57
318.281	8.06
318.494	9.04
318.706	10.32
318.918	9.7
319.13	10.44
319.342	9.98
319.555	10.34
319.767	11.4
319.979	10.32
320.191	8.86
320.403	7.34
320.615	7.63
320.827	7.31
321.039	6.22
321.252	7.31
321.464	6.34
321.676	5.25
321.888	4.69
322.1	5.07
322.312	7.12
322.524	9.96
322.736	9.19
322.948	9.2
323.16	9.55
323.372	10.81
323.584	10.67
323.796	12.06
324.007	13.19
324.219	13.21
324.431	13.59
324.643	12.46
324.855	12.46
325.067	12.06
325.279	11.38
325.491	11.31
325.702	10.31
325.914	10.09
326.126	10.21
326.338	10.61
326.55	10.08
326.761	10.33
326.973	9.58
327.185	8.53
327.396	9.47
327.608	9.49
327.82	9.84
328.032	11.95
328.243	11.08
328.455	10.71
328.666	10.89
328.878	9.01
329.09	9.12
329.301	9.31
329.513	9.43
329.725	10.53
329.936	10.25
330.148	11.95
330.359	10.62
330.571	11.16
330.782	10.39
330.994	10.88
331.205	13.54
331.417	14.78
331.628	15.16
331.84	15.44
332.051	15.76
332.262	15.3
332.474	14
332.685	14.7
332.897	15.34
333.108	17.54
333.319	17.15
333.531	17.41
333.742	16.81
333.953	16.62
334.165	16.75
334.376	16.58
334.587	16.3
334.799	16.17
335.01	16.56
335.221	16.72
335.432	15.46
335.644	14.05
335.855	13.29
336.066	13.49
336.277	13.07
336.488	12.62
336.7	10.65
336.911	11.41
337.122	11.32
337.333	10.64
337.544	10.46
337.755	10.15
337.966	11.67
338.177	12.78
338.388	12.59
338.599	12.66
338.811	12.77
339.022	12.38
339.233	11.74
339.444	10.1
339.655	10.04
339.866	10.23
340.076	9.39
340.287	10.02
340.498	8.51
340.709	6.89
340.92	7.54
341.131	7.98
341.342	10.56
341.553	13.18
341.764	13.94
341.975	13.43
342.185	12.91
342.396	14.79
342.607	14.18
342.818	15.08
343.029	16.41
343.239	16.05
343.45	14.49
343.661	13.9
343.872	11.85
344.082	13.16
344.293	13.72
344.504	14.82
344.714	15
344.925	15.14
345.136	15.71
345.346	16.25
345.557	16.92
345.768	16.68
345.978	16.4
346.189	16.45
346.399	15.4
346.61	16.65
346.821	16.39
347.031	15.37
347.242	15.22
347.452	14.26
347.663	13.59
347.873	14.53
348.084	14.47
348.294	13.77
348.504	14.15
348.715	14.73
348.925	14.01
349.136	13.66
349.346	13.95
349.557	14.76
349.767	14.92
349.977	14.23
350.188	13.33
350.398	15.5
350.608	16.63
350.819	16.73
351.029	16.47
351.239	15.74
351.449	15.6
351.66	13.89
351.87	12.79
352.08	13
352.29	12.93
352.501	12.94
352.711	12.28
352.921	10.82
353.131	12.27
353.341	11.74
353.552	11.76
353.762	10.82
353.972	11.99
354.182	11.51
354.392	12.05
354.602	12.72
354.812	12.02
355.022	11.93
355.232	13.83
355.442	13.34
355.652	14.09
355.862	14.18
356.072	14.5
356.282	14.44
356.492	15.33
356.702	14.81
356.912	14.55
357.122	13.92
357.332	14.82
357.542	14.72
357.752	14.66
357.962	14.79
358.171	15.03
358.381	14.79
358.591	14.31
358.801	14.37
359.011	14.34
359.221	14.52
359.43	14.46
359.64	13.09
359.85	11.99
360.06	11.64
360.269	11.12
360.479	11.28
360.689	11.95
360.899	12.81
361.108	12.19
361.318	11.44
361.528	10.53
361.737	10.8
361.947	11.18
362.156	11.85
362.366	12.03
362.576	12.24
362.785	11.59
362.995	11.38
363.204	11.29
363.414	11.51
363.623	12.59
363.833	12.3
364.042	12.58
364.252	12.91
364.461	12.16
364.671	12.14
364.88	11.7
365.09	12.25
365.299	11.39
365.509	10.63
365.718	10.73
365.927	10.54
366.137	11.77
366.346	11.9
366.555	11.69
366.765	11.41
366.974	10.74
367.183	10.53
367.393	9.39
367.602	10.61
367.811	11.69
368.021	11.98
368.23	11.94
368.439	10.97
368.648	10.38
368.857	9.27
369.067	9.74
369.276	10.31
369.485	10.28
369.694	11.53
369.903	10.79
370.112	9.74
370.321	9.96
370.531	9.49
370.74	10.43
370.949	10.6
371.158	11.87
371.367	12.58
371.576	12.6
371.785	13.02
371.994	12.61
372.203	12.81
372.412	13.07
372.621	11.7
372.83	11.46
373.039	11.3
373.248	11.38
373.457	10.8
373.666	9.9
373.874	9.7
374.083	9.48
374.292	9.32
374.501	9.9
374.71	9.56
374.919	9.93
375.128	10.13
375.336	9.88
375.545	9.86
375.754	10.09
375.963	10.19
376.171	10.12
376.38	10.25
376.589	10.02
376.798	10.36
377.006	10.22
377.215	11.13
377.424	10.89
377.632	11.4
377.841	11.22
378.05	10.85
378.258	11.11
378.467	10.98
378.675	10.86
378.884	11.04
379.093	10.48
379.301	11.44
379.51	10.71
379.718	10.32
379.927	9.59
380.135	9.2
380.344	9.05
380.552	8.76
380.761	9.02
380.969	9.1
381.177	9.14
381.386	8.32
381.594	7.73
381.803	7.97
382.011	8.56
382.219	8.22
382.428	8.41
382.636	8.37
382.845	8.36
383.053	8.09
383.261	8.32
383.469	8.41
383.678	8.66
383.886	8.87
384.094	8.73
384.302	8.77
384.511	9.74
384.719	9.25
384.927	9.72
385.135	9.48
385.343	9.46
385.552	8.71
385.76	8.36
385.968	8.35
386.176	8.01
386.384	7.58
386.592	7.47
386.8	6.67
387.008	6.86
387.216	6.47
387.424	6.75
387.633	6.82
387.841	7.37
388.049	7.73
388.257	7.98
388.465	8.07
388.672	8.15
388.88	8.28
389.088	9.1
389.296	9.06
389.504	8.98
389.712	8.61
389.92	8.41
390.128	8.32
390.336	7.69
390.544	7.53
390.751	7.18
390.959	6.97
391.167	6.66
391.375	5.93
391.583	6.49
391.79	6.55
391.998	6.77
392.206	6.62
392.414	6.26
392.621	6.38
392.829	6.53
393.037	6.71
393.244	7.24
393.452	7.4
393.66	7.54
393.867	7.22
394.075	7.21
394.283	7.22
394.49	7.21
394.698	7.53
394.905	7.51
395.113	7.59
395.32	7.24
395.528	6.95
395.735	7.06
395.943	7.07
396.15	7.22
396.358	7.5
396.565	7.16
396.773	7.37
396.98	7.46
397.188	7.71
397.395	7.8
397.602	8.27
397.81	8.15
398.017	8.14
398.225	8.01
398.432	7.75
398.639	7.59
398.847	7.98
399.054	7.6
399.261	7.53
399.468	7.37
399.676	6.96
399.883	6.77
400.09	6.97
400.297	6.96
400.505	7.02
400.712	7.37
400.919	7.5
401.126	7.4
401.333	7.35
401.54	7.45
401.748	7.56
401.955	7.5
402.162	7.48
402.369	7.25
402.576	6.78
402.783	6.71
402.99	6.53
403.197	6.38
403.404	6.2
403.611	6.1
403.818	6.22
404.025	6.38
404.232	6.29
404.439	6.25
404.646	6.49
404.853	6.87
405.06	7.09
405.267	7.31
405.474	7.22
405.681	7.21
405.887	7.79
406.094	7.72
406.301	7.67
406.508	7.76
406.715	7.72
406.922	7.72
407.128	7.81
407.335	7.64
407.542	7.67
407.749	7.93
407.955	8.01
408.162	7.65
408.369	7.35
408.575	6.88
408.782	6.85
408.989	7.1
409.195	7.18
409.402	6.58
409.609	6.85
409.815	6.41
410.022	6.47
410.228	6.6
410.435	6.66
410.642	6.57
410.848	6.79
411.055	7.02
411.261	7.21
411.468	6.87
411.674	7.26
411.881	7.47
412.087	7.56
412.294	7.14
412.5	7.2
412.706	7.62
412.913	7.61
413.119	7.57
413.326	7.44
413.532	6.91
413.738	7.05
413.945	7.1
414.151	6.81
414.357	6.73
414.564	6.94
414.77	6.89
414.976	6.63
415.182	6.91
415.389	6.87
415.595	6.65
415.801	7.21
416.007	7.4
416.214	7.29
416.42	7.15
416.626	7.36
416.832	7.36
417.038	7.09
417.244	6.99
417.45	7.04
417.657	7.15
417.863	7.26
418.069	6.76
418.275	6.49
418.481	6.4
418.687	6.47
418.893	6.44
419.099	6.32
419.305	6.48
419.511	6.53
419.717	6.52
419.923	6.53
420.129	6.41
420.335	6.46
420.541	6.48
420.746	6.47
420.952	6.38
421.158	6.39
421.364	6.36
421.57	6.37
421.776	6.37
421.982	6.28
422.187	6.28
422.393	6.32
422.599	6.37
422.805	6.39
423.01	6.48
423.216	6.43
423.422	6.43
423.628	6.46
423.833	6.46
424.039	6.22
424.245	6.24
424.45	6.13
424.656	6.22
424.862	6.18
425.067	6.33
425.273	6.32
425.478	6.34
425.684	6.18
425.889	6.27
426.095	6.28
426.301	6.48
426.506	6.44
426.712	6.53
426.917	6.48
427.123	6.29
427.328	6.22
427.533	6.05
427.739	6.15
427.944	6.2
428.15	6.06
428.355	6.05
428.561	6.15
428.766	6.19
428.971	6.21
429.177	6.04
429.382	6.18
429.587	6.02
429.793	6.32
429.998	6.36
430.203	6.39
430.408	6.39
430.614	6.11
430.819	6.06
431.024	6.08
431.229	6.02
431.434	6.42
431.64	6.53
431.845	6.58
432.05	6.41
432.255	6.38
432.46	6.25
432.665	6.08
432.87	6.26
433.076	6.17
433.281	6.21
433.486	6.18
433.691	5.9
433.896	5.88
434.101	5.85
434.306	5.95
434.511	5.9
434.716	6.23
434.921	6.54
435.126	6.67
435.331	6.74
435.535	6.52
435.74	6.45
435.945	6.56
436.15	6.61
436.355	6.64
436.56	6.54
436.765	6.52
436.97	6.17
437.174	6.04
437.379	5.75
437.584	5.75
437.789	5.76
437.993	6.02
438.198	5.96
438.403	6.09
438.608	6.01
438.812	5.83
439.017	5.89
439.222	6.07
439.426	6.01
439.631	6.02
439.836	5.92
440.04	6.07
440.245	5.91
440.45	5.95
440.654	5.89
440.859	5.75
441.063	5.9
441.268	5.85
441.472	5.79
441.677	5.83
441.881	6.02
442.086	5.97
442.29	6.03
442.495	6.03
442.699	6.02
442.904	5.87
443.108	6.13
443.312	6.07
443.517	6.14
443.721	5.96
443.925	5.97
444.13	5.75
444.334	5.89
444.538	5.87
444.743	5.9
444.947	5.86
445.151	5.99
445.356	6.07
445.56	6.18
445.764	6.23
445.968	6.3
446.173	6.36
446.377	6.39
446.581	6.29
446.785	6.32
446.989	6.29
447.193	6.38
447.398	6.28
447.602	6.11
447.806	6.12
448.01	6.04
448.214	6.05
448.418	5.95
448.622	5.93
448.826	6.01
449.03	5.91
449.234	5.98
449.438	6.01
449.642	6.11
449.846	5.98
450.05	5.67
450.254	5.66
450.458	5.65
450.662	5.96
450.866	6.13
451.069	6.22
451.273	6.27
451.477	6.14
451.681	6.04
451.885	5.96
452.089	6
452.292	6.16
452.496	6.18
452.7	6
452.904	5.71
453.107	5.71
453.311	5.54
453.515	5.53
453.719	5.56
453.922	5.63
454.126	5.66
454.33	5.98
454.533	6.07
454.737	6
454.94	6.29
455.144	6.32
455.348	6.13
455.551	6.15
455.755	6
455.958	6.14
456.162	6
456.365	5.98
456.569	5.97
456.772	5.84
456.976	5.85
457.179	5.91
457.383	5.8
457.586	5.85
457.79	6.02
457.993	5.91
458.196	5.65
458.4	5.67
458.603	5.81
458.807	5.8
459.01	5.8
459.213	5.69
459.417	5.56
459.62	5.69
459.823	5.69
460.026	5.59
460.23	5.72
460.433	6.07
460.636	5.99
460.839	5.79
461.042	5.68
461.246	5.83
461.449	5.96
461.652	5.97
461.855	6.03
462.058	6.15
462.261	6.2
462.464	6.09
462.668	5.67
462.871	5.83
463.074	6.1
463.277	6.24
463.48	6.03
463.683	6.22
463.886	6.27
464.089	6.08
464.292	5.88
464.495	5.71
464.698	5.99
