Data from 2937852_Reflection_1.txt Node
Date: Wed Jul 15 15:52:40 EDT 2015
User: robert
Spectrometer: USB4E03001
Autoset integration time: false
Trigger mode: 4
Integration Time (sec): 1.000000E-1
Scans to average: 10
Electric dark correction enabled: true
Nonlinearity correction enabled: false
Boxcar width: 5
Stray light correction enabled: false
XAxis mode: Wavelengths
Stop averaging: false
Number of Pixels in Spectrum: 3648
>>>>>Begin Spectral Data<<<<<
177.566	29.96
177.785	10.8
178.005	-67.28
178.225	-116.22
178.445	-654.64
178.665	100.28
178.885	103.4
179.105	205.45
179.324	127.04
179.544	55.1
179.764	39.95
179.984	5.46
180.204	49.67
180.423	15.6
180.643	5.15
180.863	-21.22
181.083	176.66
181.302	111.48
181.522	104.86
181.742	383.93
181.961	300.21
182.181	493.98
182.401	-963.98
182.621	-306.31
182.84	-623.33
183.06	3320.28
183.279	-616.4
183.499	139.08
183.719	4774.36
183.938	-545.19
184.158	35.27
184.377	11.64
184.597	25.42
184.816	25.93
185.036	17.73
185.256	33.62
185.475	3.37
185.695	20.94
185.914	34.22
186.134	48.77
186.353	55.02
186.572	63.74
186.792	57.79
187.011	15.95
187.231	-82.85
187.45	63.86
187.67	-175.06
187.889	169.03
188.108	93.16
188.328	19.37
188.547	-48.34
188.766	-41.47
188.986	-6.68
189.205	6.76
189.424	43.57
189.644	93.71
189.863	30.08
190.082	159.87
190.302	63.24
190.521	692.31
190.74	181.56
190.959	192.07
191.178	218.28
191.398	247.83
191.617	318.47
191.836	398.41
192.055	154.23
192.274	160.01
192.494	116.7
192.713	94.28
192.932	7192.31
193.151	360.18
193.37	401.51
193.589	380.39
193.808	1026.13
194.027	-646.31
194.246	-553.97
194.465	1819.93
194.685	939.73
194.904	3170.33
195.123	2158.4
195.342	-448.74
195.561	-442.45
195.78	-4.59
195.999	116.04
196.218	123.67
196.436	-64.38
196.655	-231.43
196.874	-176.92
197.093	696.92
197.312	218.57
197.531	149.75
197.75	829.23
197.969	334.62
198.188	23.65
198.407	187.91
198.625	-202.75
198.844	-67.1
199.063	-78.44
199.282	-43.39
199.501	214.39
199.719	97.83
199.938	67.92
200.157	83.64
200.376	91.83
200.594	-0.81
200.813	-49.53
201.032	-116.74
201.251	1374.73
201.469	-104.43
201.688	-522.27
201.907	-314.05
202.125	-261.54
202.344	121.77
202.563	467.37
202.781	56.55
203	77.16
203.218	51.13
203.437	91.45
203.656	81.18
203.874	107.82
204.093	156.74
204.311	103.45
204.53	86.76
204.748	83.24
204.967	28.77
205.185	-48.47
205.404	-195.85
205.622	-216.78
205.841	-287.67
206.059	3482.42
206.278	249.8
206.496	6025.64
206.715	125.71
206.933	452.59
207.151	715.38
207.37	45.37
207.588	30.68
207.806	50.96
208.025	48.87
208.243	58.74
208.461	81.91
208.68	7.05
208.898	8.38
209.116	7.21
209.335	-10.17
209.553	46.72
209.771	-233.46
209.989	-38.88
210.208	-75.88
210.426	315.08
210.644	439.86
210.862	226.3
211.081	118.49
211.299	53.46
211.517	115.82
211.735	123.34
211.953	247.93
212.171	348.53
212.39	334.19
212.608	231.61
212.826	364.41
213.044	615.38
213.262	79.93
213.48	55.83
213.698	238.76
213.916	-55.69
214.134	-52.84
214.352	36.69
214.57	90.01
214.788	68.35
215.006	55.2
215.224	52.02
215.442	43.64
215.66	40.09
215.878	22.34
216.096	38.72
216.314	53.26
216.532	57.64
216.75	45.38
216.968	67
217.185	118.82
217.403	121.79
217.621	220.21
217.839	153.87
218.057	185.66
218.275	145.13
218.492	89.43
218.71	60.28
218.928	51.6
219.146	32.2
219.363	-76.92
219.581	-86.18
219.799	-61.33
220.017	-47.9
220.234	-545.56
220.452	-70.88
220.67	-24.75
220.887	103.58
221.105	-85.12
221.323	-26.21
221.54	-137.16
221.758	-96.46
221.976	-36.79
222.193	-27.13
222.411	-76.37
222.629	-189.63
222.846	-77.02
223.064	-33.41
223.281	-274.44
223.499	-129.94
223.716	-208.31
223.934	5.98
224.151	146.41
224.369	689.86
224.586	162.82
224.804	79.07
225.021	47.76
225.239	40.59
225.456	12.02
225.674	30.97
225.891	47.82
226.108	68.49
226.326	54.67
226.543	49.5
226.76	1.25
226.978	-3.69
227.195	-29.49
227.413	3.43
227.63	6.59
227.847	7.71
228.064	5.47
228.282	8.79
228.499	3.99
228.716	5.45
228.934	7.68
229.151	15.36
229.368	16.31
229.585	16.93
229.802	13.58
230.02	12.67
230.237	17.37
230.454	11.22
230.671	8.09
230.888	9.69
231.105	11.62
231.323	10.84
231.54	6.74
231.757	7.34
231.974	2.56
232.191	3.27
232.408	5.68
232.625	-4.88
232.842	4.49
233.059	9.02
233.276	4.18
233.493	3.1
233.71	-3.52
233.927	0.28
234.144	0.6
234.361	-3.16
234.578	-4.03
234.795	-7.85
235.012	-3.46
235.229	-1.36
235.446	-7.17
235.663	-3.9
235.879	-4.84
236.096	-3.53
236.313	-12.92
236.53	-12.7
236.747	-10.72
236.964	-1.5
237.181	2.55
237.397	3.38
237.614	6.9
237.831	10.66
238.048	11.64
238.264	11.85
238.481	12.25
238.698	17.48
238.915	17.98
239.131	16.56
239.348	20.95
239.565	20.97
239.781	18.32
239.998	16.59
240.215	12.54
240.431	12
240.648	11.09
240.865	9.26
241.081	10.63
241.298	10.06
241.514	13.66
241.731	10.13
241.947	12.23
242.164	15.48
242.38	13.94
242.597	14.07
242.814	15.24
243.03	14.34
243.246	15.81
243.463	16.04
243.679	17.13
243.896	18.53
244.112	19.55
244.329	19.9
244.545	18.72
244.762	18.46
244.978	19.95
245.194	18.36
245.411	20.59
245.627	19.07
245.843	20.09
246.06	18.45
246.276	16.76
246.492	17.04
246.709	17.2
246.925	16.6
247.141	17.28
247.357	16.66
247.574	17.14
247.79	16.55
248.006	17.66
248.222	16.84
248.439	17.02
248.655	16.74
248.871	15.93
249.087	14.64
249.303	13.15
249.519	12.82
249.736	13.64
249.952	13.51
250.168	14.41
250.384	14.81
250.6	15.5
250.816	16.96
251.032	16.32
251.248	18.02
251.464	17.87
251.68	20.09
251.896	19.55
252.112	16.83
252.328	15.6
252.544	14.18
252.76	13.74
252.976	13.27
253.192	10.78
253.408	12.38
253.624	11.96
253.84	11.65
254.056	11.42
254.272	9.94
254.487	13.97
254.703	13.17
254.919	17.16
255.135	15.52
255.351	14.43
255.567	18.84
255.782	18.74
255.998	21.01
256.214	19.07
256.43	15.14
256.646	14.13
256.861	12.08
257.077	10.62
257.293	7.22
257.508	5.32
257.724	5.43
257.94	2.13
258.155	0.49
258.371	-1.19
258.587	1.4
258.802	5.66
259.018	6.56
259.234	6.71
259.449	8.2
259.665	8.58
259.88	9.92
260.096	10.66
260.312	11.72
260.527	12.44
260.743	12.87
260.958	12.23
261.174	11.82
261.389	12.44
261.605	13.56
261.82	13.18
262.036	14.14
262.251	13.57
262.466	12.41
262.682	10.56
262.897	10.46
263.113	10.1
263.328	11.82
263.543	13.85
263.759	12.94
263.974	11.45
264.189	12.33
264.405	9.37
264.62	8.48
264.835	10.22
265.051	14.26
265.266	15.08
265.481	14.47
265.696	14.51
265.912	10.88
266.127	10.69
266.342	9.72
266.557	9.65
266.773	10.47
266.988	12.34
267.203	12.47
267.418	9.98
267.633	10.67
267.848	10.88
268.064	11.86
268.279	12.4
268.494	12.5
268.709	11.42
268.924	10.47
269.139	9.84
269.354	8.9
269.569	5.86
269.784	5.1
269.999	4.81
270.214	6.9
270.429	4.77
270.644	3.75
270.859	4.43
271.074	7.42
271.289	9.01
271.504	9.91
271.719	9
271.934	10.68
272.149	12.06
272.363	11.66
272.578	11.96
272.793	11.49
273.008	12.57
273.223	12.47
273.438	12.15
273.653	10.71
273.867	12.36
274.082	13.36
274.297	14.07
274.512	13.56
274.726	15.42
274.941	12.83
275.156	12.05
275.371	10.21
275.585	11.28
275.8	12.3
276.015	14.31
276.229	12.02
276.444	11.71
276.659	9.66
276.873	8.49
277.088	7.61
277.302	8.91
277.517	11.58
277.732	14.79
277.946	14.59
278.161	12.82
278.375	12.93
278.59	12.67
278.804	11.89
279.019	13.78
279.233	15.58
279.448	14.84
279.662	15.38
279.877	14.91
280.091	13.57
280.306	14.32
280.52	13.77
280.735	11.92
280.949	12.48
281.163	12.6
281.378	11.45
281.592	11.34
281.806	10.56
282.021	9.93
282.235	8.08
282.449	7
282.664	4.95
282.878	5.66
283.092	5.95
283.307	7.32
283.521	7.2
283.735	9.24
283.949	9.36
284.164	9.38
284.378	10.39
284.592	11.4
284.806	12.05
285.02	13.5
285.234	13.67
285.449	13.54
285.663	12.05
285.877	13.33
286.091	11.84
286.305	11.31
286.519	10.86
286.733	9.19
286.947	9.37
287.161	8.8
287.375	8.66
287.589	8.95
287.803	8.41
288.017	9.01
288.231	9.52
288.445	9.95
288.659	10.89
288.873	12.41
289.087	13.68
289.301	14.75
289.515	15.43
289.729	14.1
289.943	13.57
290.157	14.62
290.371	13.83
290.584	11.69
290.798	11.53
291.012	11.05
291.226	10.56
291.44	9.08
291.654	7.39
291.867	7.08
292.081	6.33
292.295	6.86
292.509	6.96
292.722	7.01
292.936	6.73
293.15	7.33
293.364	6.93
293.577	8.16
293.791	7.82
294.005	8.97
294.218	8.89
294.432	10.68
294.645	11.88
294.859	11.71
295.073	12.81
295.286	12.02
295.5	10.98
295.713	10.98
295.927	9.6
296.14	10.86
296.354	10.22
296.568	10.24
296.781	9.34
296.994	8.14
297.208	8.72
297.421	8.49
297.635	9.59
297.848	10.12
298.062	9.53
298.275	10.03
298.489	10.38
298.702	10.89
298.915	10.17
299.129	11.51
299.342	11.86
299.555	11.88
299.769	12.68
299.982	13.93
300.195	14.45
300.409	16.26
300.622	16.13
300.835	15.11
301.048	16.43
301.262	18.16
301.475	18.02
301.688	16.88
301.901	16.27
302.115	15.72
302.328	14.49
302.541	13.47
302.754	13.42
302.967	13.87
303.18	14.01
303.393	12.07
303.607	11.1
303.82	9.46
304.033	9.75
304.246	10.74
304.459	10.79
304.672	12.52
304.885	13.19
305.098	11.89
305.311	12.41
305.524	12.81
305.737	11.99
305.95	13.87
306.163	15.87
306.376	16.75
306.589	15.28
306.802	13.11
307.015	12.31
307.228	12.83
307.44	12.13
307.653	11.41
307.866	11.83
308.079	12.57
308.292	11.96
308.505	13.66
308.718	14.8
308.93	14.42
309.143	15.32
309.356	14.48
309.569	14.57
309.781	15.5
309.994	14.91
310.207	14.92
310.42	15.07
310.632	15.4
310.845	14
311.058	13.26
311.27	14.52
311.483	15.83
311.696	15.64
311.908	14.63
312.121	14.16
312.333	15.07
312.546	14.47
312.759	14.83
312.971	13.32
313.184	12.83
313.396	11.03
313.609	8.96
313.821	8.91
314.034	10.6
314.246	11.21
314.459	10.71
314.671	10.46
314.884	10
315.096	9.51
315.309	10.04
315.521	10.15
315.733	13.07
315.946	14.04
316.158	13.66
316.371	12.63
316.583	11.24
316.795	12.1
317.008	12.96
317.22	15.44
317.432	15.94
317.644	16.64
317.857	17.22
318.069	15.37
318.281	16.06
318.494	13.68
318.706	15.21
318.918	16.32
319.13	15.33
319.342	14.12
319.555	13.4
319.767	13.38
319.979	13.28
320.191	13.35
320.403	14.68
320.615	14.16
320.827	14.24
321.039	11.96
321.252	10.76
321.464	12.93
321.676	13.58
321.888	13.19
322.1	14.01
322.312	12.05
322.524	10.82
322.736	8.53
322.948	7.87
323.16	10.52
323.372	11.25
323.584	12.89
323.796	12.41
324.007	13.28
324.219	13.42
324.431	12.22
324.643	13.63
324.855	14.73
325.067	16.59
325.279	16.57
325.491	14.31
325.702	13.68
325.914	11.74
326.126	12.52
326.338	10.53
326.55	10.92
326.761	10.12
326.973	10.63
327.185	8.87
327.396	7.87
327.608	8.5
327.82	9.54
328.032	9.7
328.243	12.59
328.455	11.97
328.666	13.98
328.878	14.23
329.09	14.93
329.301	12.11
329.513	13.5
329.725	14.29
329.936	15.02
330.148	13.74
330.359	12.8
330.571	12.33
330.782	11.15
330.994	10.69
331.205	11.94
331.417	11.94
331.628	13.85
331.84	14.06
332.051	12.14
332.262	12.33
332.474	13.72
332.685	13.86
332.897	12.87
333.108	13.44
333.319	12.36
333.531	10.83
333.742	11.77
333.953	12.66
334.165	12.31
334.376	13.54
334.587	14.35
334.799	14.68
335.01	15.48
335.221	16
335.432	16.53
335.644	17.02
335.855	17.95
336.066	17.22
336.277	17.21
336.488	18.34
336.7	19.39
336.911	18.85
337.122	18.38
337.333	17.71
337.544	16.84
337.755	16.55
337.966	16.71
338.177	15.34
338.388	16.73
338.599	15.18
338.811	13.79
339.022	11.44
339.233	11.05
339.444	12.16
339.655	12.5
339.866	11.8
340.076	11.76
340.287	11.23
340.498	11.21
340.709	11.45
340.92	14.81
341.131	13.94
341.342	14.91
341.553	15.02
341.764	14.76
341.975	15.11
342.185	16.72
342.396	17.73
342.607	19.26
342.818	18.97
343.029	17.82
343.239	16.65
343.45	18.53
343.661	19.78
343.872	19.68
344.082	18.85
344.293	19.42
344.504	18.43
344.714	17.46
344.925	16.39
345.136	16.84
345.346	16.98
345.557	16.5
345.768	16.03
345.978	16.39
346.189	15.54
346.399	15.43
346.61	14.67
346.821	15.24
347.031	15.06
347.242	14.94
347.452	14.64
347.663	14.8
347.873	15.17
348.084	14.72
348.294	13.53
348.504	13.67
348.715	15.02
348.925	15
349.136	13.9
349.346	13.9
349.557	15.26
349.767	15.59
349.977	14.48
350.188	14.48
350.398	14.68
350.608	14.84
350.819	14.61
351.029	14.13
351.239	14.86
351.449	15.62
351.66	15.02
351.87	13.98
352.08	14.51
352.29	17
352.501	16.66
352.711	17.53
352.921	18.45
353.131	19.57
353.341	18.02
353.552	17.17
353.762	18.16
353.972	19.31
354.182	19.17
354.392	18.45
354.602	18.12
354.812	18.99
355.022	18.19
355.232	16.62
355.442	16.27
355.652	18.14
355.862	20.25
356.072	19.75
356.282	18.81
356.492	18.57
356.702	18.54
356.912	17.63
357.122	15.54
357.332	14.76
357.542	13.9
357.752	14.65
357.962	14.66
358.171	11.98
358.381	12.49
358.591	12.98
358.801	12.44
359.011	13.34
359.221	14.09
359.43	15.7
359.64	15.36
359.85	16.52
360.06	15.89
360.269	15.82
360.479	16.23
360.689	15.32
360.899	14.84
361.108	14.89
361.318	13.98
361.528	12.81
361.737	12.11
361.947	12.35
362.156	12.34
362.366	11.94
362.576	11.25
362.785	11.73
362.995	11.99
363.204	12.17
363.414	12.96
363.623	13.64
363.833	14.29
364.042	14.31
364.252	14.63
364.461	14.67
364.671	14.48
364.88	14.29
365.09	14.8
365.299	13.94
365.509	12.92
365.718	11.73
365.927	11.27
366.137	11.06
366.346	10.67
366.555	10.55
366.765	10.22
366.974	11.52
367.183	11.01
367.393	9.53
367.602	9.66
367.811	10.55
368.021	11.21
368.23	10.57
368.439	10.58
368.648	11.39
368.857	11.94
369.067	12.28
369.276	11.82
369.485	12.67
369.694	13.08
369.903	13.18
370.112	13.65
370.321	13.52
370.531	13.62
370.74	14.13
370.949	13.27
371.158	13.13
371.367	12.91
371.576	12.67
371.785	12.62
371.994	12.62
372.203	13.13
372.412	12.68
372.621	12.53
372.83	11.9
373.039	11.36
373.248	10.98
373.457	10.33
373.666	10.64
373.874	10.4
374.083	10.53
374.292	10.86
374.501	9.95
374.71	9.95
374.919	10.03
375.128	10.47
375.336	10.04
375.545	11.02
375.754	11.37
375.963	10.27
376.171	9.96
376.38	10.63
376.589	10.46
376.798	10.43
377.006	9.84
377.215	9.82
377.424	10.36
377.632	10.87
377.841	11.15
378.05	11.32
378.258	12.58
378.467	12.83
378.675	12.1
378.884	11.7
379.093	12.33
379.301	12.81
379.51	12.94
379.718	12.75
379.927	12.23
380.135	12.22
380.344	12.41
380.552	11.68
380.761	11.84
380.969	11.56
381.177	11.64
381.386	11.5
381.594	11.43
381.803	11.19
382.011	11.17
382.219	11.5
382.428	11.31
382.636	10.7
382.845	10.93
383.053	10.25
383.261	10.42
383.469	10.44
383.678	10.67
383.886	10.83
384.094	10.57
384.302	10.55
384.511	10.38
384.719	10.37
384.927	10.54
385.135	9.94
385.343	9.8
385.552	9.68
385.76	9.72
385.968	9.16
386.176	9.47
386.384	9.17
386.592	8.51
386.8	8.49
387.008	8.15
387.216	8.23
387.424	8.66
387.633	9.26
387.841	9.37
388.049	9.18
388.257	9.53
388.465	8.69
388.672	9.14
388.88	9.37
389.088	9.43
389.296	9.61
389.504	9.04
389.712	8.61
389.92	8.47
390.128	8.49
390.336	8.35
390.544	8.04
390.751	8.37
390.959	7.95
391.167	7.91
391.375	7.69
391.583	7.38
391.79	7.63
391.998	7.81
392.206	7.78
392.414	7.88
392.621	7.91
392.829	8.1
393.037	7.89
393.244	8.44
393.452	8.7
393.66	8.57
393.867	8.64
394.075	8.75
394.283	8.83
394.49	8.77
394.698	8.56
394.905	8.51
395.113	8.05
395.32	8.24
395.528	8.47
395.735	8.05
395.943	8.25
396.15	8.05
396.358	7.93
396.565	7.77
396.773	7.66
396.98	7.53
397.188	7.5
397.395	7.96
397.602	7.75
397.81	7.23
398.017	7.49
398.225	7.08
398.432	7.1
398.639	6.83
398.847	7.01
399.054	6.89
399.261	6.98
399.468	7.08
399.676	6.97
399.883	7.37
400.09	6.92
400.297	6.93
400.505	7.15
400.712	7.18
400.919	7.36
401.126	7.42
401.333	7.44
401.54	7.47
401.748	7.58
401.955	7.71
402.162	7.06
402.369	7.35
402.576	7.37
402.783	7.71
402.99	7.93
403.197	7.91
403.404	7.52
403.611	7.58
403.818	7.3
404.025	6.8
404.232	6.78
404.439	6.9
404.646	6.82
404.853	6.89
405.06	6.72
405.267	6.7
405.474	6.74
405.681	6.86
405.887	6.99
406.094	7.46
406.301	7.89
406.508	7.84
406.715	8.03
406.922	8.29
407.128	8.37
407.335	7.94
407.542	7.99
407.749	8.04
407.955	7.68
408.162	7.36
408.369	6.95
408.575	6.74
408.782	6.75
408.989	6.93
409.195	6.89
409.402	6.57
409.609	6.7
409.815	6.37
410.022	6.41
410.228	6.81
410.435	7.1
410.642	7.38
410.848	7.59
411.055	7.45
411.261	7.12
411.468	6.92
411.674	7.1
411.881	7.29
412.087	7.31
412.294	7.13
412.5	6.86
412.706	6.63
412.913	6.43
413.119	6.47
413.326	6.35
413.532	6.29
413.738	6.61
413.945	6.77
414.151	6.43
414.357	6.76
414.564	6.96
414.77	6.89
414.976	6.84
415.182	6.72
415.389	6.51
415.595	6.36
415.801	6.72
416.007	6.59
416.214	6.26
416.42	6.79
416.626	6.59
416.832	6.87
417.038	7.28
417.244	7.27
417.45	7.3
417.657	7.4
417.863	7.7
418.069	7.6
418.275	7.89
418.481	7.78
418.687	7.6
418.893	7.48
419.099	7.03
419.305	6.87
419.511	7.02
419.717	6.99
419.923	7.01
420.129	6.86
420.335	6.81
420.541	6.62
420.746	6.74
420.952	6.6
421.158	6.66
421.364	6.58
421.57	6.63
421.776	6.56
421.982	6.7
422.187	6.66
422.393	6.59
422.599	6.4
422.805	6.43
423.01	6.51
423.216	6.55
423.422	6.55
423.628	6.73
423.833	6.69
424.039	6.55
424.245	6.48
424.45	6.41
424.656	6.78
424.862	6.91
425.067	6.76
425.273	6.59
425.478	6.62
425.684	6.5
425.889	6.52
426.095	6.57
426.301	6.58
426.506	6.42
426.712	6.34
426.917	6.1
427.123	6.19
427.328	6.01
427.533	6.27
427.739	6.55
427.944	6.66
428.15	6.65
428.355	6.48
428.561	6.68
428.766	6.8
428.971	7.15
429.177	7.29
429.382	7.25
429.587	7.55
429.793	7.35
429.998	7.15
430.203	7.22
430.408	7.08
430.614	7.06
430.819	6.97
431.024	7.2
431.229	7.01
431.434	6.79
431.64	6.65
431.845	6.67
432.05	6.76
432.255	6.85
432.46	6.73
432.665	6.91
432.87	7.05
433.076	7.1
433.281	7.05
433.486	7.18
433.691	7.11
433.896	7.3
434.101	7.39
434.306	7.21
434.511	7.04
434.716	7.23
434.921	7.14
435.126	7.1
435.331	7.08
435.535	6.88
435.74	6.63
435.945	6.81
436.15	6.58
436.355	6.3
436.56	6.39
436.765	6.29
436.97	6.14
437.174	6.04
437.379	6.01
437.584	6.05
437.789	6.01
437.993	6.16
438.198	6.05
438.403	5.96
438.608	5.83
438.812	5.91
439.017	6.09
439.222	6.15
439.426	5.99
439.631	6.14
439.836	6.23
440.04	6.23
440.245	6.16
440.45	6.11
440.654	6.24
440.859	6.31
441.063	6.24
441.268	6.13
441.472	6.19
441.677	6.35
441.881	6.16
442.086	5.9
442.29	6.01
442.495	6.08
442.699	6.09
442.904	6.13
443.108	6.36
443.312	6.24
443.517	6.38
443.721	6.37
443.925	6.31
444.13	6.55
444.334	6.71
444.538	6.58
444.743	6.51
444.947	6.6
445.151	6.52
445.356	6.4
445.56	6.51
445.764	6.39
445.968	6.28
446.173	6.35
446.377	6.29
446.581	6.41
446.785	6.46
446.989	6.5
447.193	6.48
447.398	6.49
447.602	6.6
447.806	6.56
448.01	6.6
448.214	6.6
448.418	6.59
448.622	6.33
448.826	6.14
449.03	6.15
449.234	6.04
449.438	6.05
449.642	6.19
449.846	6.07
450.05	6.14
450.254	6
450.458	6.04
450.662	5.94
450.866	6.01
451.069	5.9
451.273	6.03
451.477	5.78
451.681	5.63
451.885	5.52
452.089	5.51
452.292	5.64
452.496	5.57
452.7	5.63
452.904	5.78
453.107	5.95
453.311	6.1
453.515	5.8
453.719	6.15
453.922	6.14
454.126	5.98
454.33	6.05
454.533	6.03
454.737	6.2
454.94	6.3
455.144	6.25
455.348	6.24
455.551	6.25
455.755	6.69
455.958	6.62
456.162	6.62
456.365	6.82
456.569	6.77
456.772	6.63
456.976	6.72
457.179	6.37
457.383	6.43
457.586	6.29
457.79	6.2
457.993	5.83
458.196	5.65
458.4	5.62
458.603	5.49
458.807	5.37
459.01	5.4
459.213	5.39
459.417	5.53
459.62	5.57
459.823	5.66
460.026	5.76
460.23	5.73
460.433	5.86
460.636	5.9
460.839	6.04
461.042	6.08
461.246	6.16
461.449	6.03
461.652	5.91
