Data from 2937853_Reflection_1.txt Node
Date: Wed Jul 15 15:49:29 EDT 2015
User: robert
Spectrometer: USB4E03001
Autoset integration time: false
Trigger mode: 4
Integration Time (sec): 1.000000E-1
Scans to average: 10
Electric dark correction enabled: true
Nonlinearity correction enabled: false
Boxcar width: 5
Stray light correction enabled: false
XAxis mode: Wavelengths
Stop averaging: false
Number of Pixels in Spectrum: 3648
>>>>>Begin Spectral Data<<<<<
177.566	14.45
177.785	40.76
178.005	-38.23
178.225	-192.4
178.445	-561.27
178.665	182.95
178.885	65.48
179.105	168.59
179.324	129.63
179.544	22.28
179.764	0.92
179.984	18.21
180.204	63.15
180.423	32.87
180.643	-21
180.863	-63.58
181.083	-222.29
181.302	-17.7
181.522	18.72
181.742	-142.02
181.961	29.22
182.181	71.4
182.401	32.08
182.621	-47.53
182.84	-286.6
183.06	1953.15
183.279	-836.44
183.499	271.71
183.719	11294.87
183.938	-2267.79
184.158	164.06
184.377	143.14
184.597	102.77
184.816	63.24
185.036	41.83
185.256	21.5
185.475	29.64
185.695	24.34
185.914	7.88
186.134	24.59
186.353	5.74
186.572	-45.09
186.792	-26.99
187.011	48.31
187.231	163.67
187.45	14.04
187.67	387.41
187.889	254.86
188.108	47.69
188.328	79.29
188.547	61.72
188.766	86.57
188.986	79
189.205	74.73
189.424	28.52
189.644	54.46
189.863	45.12
190.082	2.21
190.302	17.84
190.521	358.46
190.74	-14.84
190.959	-26.85
191.178	-70.31
191.398	12.2
191.617	43.55
191.836	82.74
192.055	-7.91
192.274	70.16
192.494	67.91
192.713	551.68
192.932	6471.79
193.151	242.87
193.37	147.14
193.589	104.18
193.808	367.87
194.027	-173.42
194.246	-180.96
194.465	727.62
194.685	513.12
194.904	1843.59
195.123	1407.98
195.342	-466.48
195.561	-693.13
195.78	-124.95
195.999	-66.56
196.218	-556.8
196.436	195.24
196.655	346.82
196.874	-42.57
197.093	703.38
197.312	202.53
197.531	195.14
197.75	1550.99
197.969	741.21
198.188	-588.6
198.407	-848.13
198.625	1563.74
198.844	392.92
199.063	561.89
199.282	158.14
199.501	-223.79
199.719	-65.67
199.938	12.24
200.157	-145.8
200.376	-120.22
200.594	-74.49
200.813	-146.25
201.032	-193.94
201.251	2269.23
201.469	-135.41
201.688	-620.24
201.907	-286.29
202.125	-405.64
202.344	278.4
202.563	369.23
202.781	80.94
203	92.41
203.218	78.57
203.437	60.33
203.656	76.5
203.874	82.1
204.093	88.28
204.311	93.95
204.53	76.56
204.748	70.2
204.967	49.36
205.185	42.34
205.404	-6.03
205.622	65.79
205.841	104.63
206.059	-297.8
206.278	63.93
206.496	438.46
206.715	152.92
206.933	318.68
207.151	726.3
207.37	-51.69
207.588	-72.55
207.806	-148.7
208.025	-175.47
208.243	-355.82
208.461	-339.72
208.68	-167.49
208.898	-135.83
209.116	-49
209.335	-124.6
209.553	-51.89
209.771	-650.19
209.989	-329.56
210.208	-209.58
210.426	1428.62
210.644	1123.43
210.862	295
211.081	177.74
211.299	351.44
211.517	176.8
211.735	291.18
211.953	225.14
212.171	263.28
212.39	192.39
212.608	122.87
212.826	172.88
213.044	511.71
213.262	-97.49
213.48	204.71
213.698	-291.86
213.916	125.13
214.134	-4.48
214.352	57.02
214.57	104.82
214.788	113.03
215.006	115.43
215.224	67.12
215.442	77.35
215.66	43.49
215.878	-0.24
216.096	-3.34
216.314	9.14
216.532	10.46
216.75	-4.83
216.968	-22.99
217.185	-42.01
217.403	-18.8
217.621	-12.99
217.839	17.04
218.057	27.04
218.275	167.7
218.492	127.78
218.71	135.38
218.928	168.93
219.146	229.51
219.363	596.04
219.581	681.4
219.799	544.49
220.017	336.38
220.234	1794.48
220.452	1468.68
220.67	436.79
220.887	-255.47
221.105	-452.69
221.323	-148.82
221.54	-213.15
221.758	-53.87
221.976	-15.16
222.193	1.86
222.411	-2.48
222.629	-67
222.846	-50.36
223.064	-34.28
223.281	-83.71
223.499	61.28
223.716	-15.79
223.934	22.31
224.151	-80.94
224.369	123.43
224.586	-65.29
224.804	-3.31
225.021	24.25
225.239	34.08
225.456	26.11
225.674	13.56
225.891	24.47
226.108	41.29
226.326	37.36
226.543	30.33
226.76	-5.13
226.978	29.74
227.195	13.44
227.413	26.07
227.63	28.02
227.847	21.97
228.064	24.03
228.282	23.87
228.499	17.44
228.716	17.53
228.934	23.07
229.151	25.8
229.368	22.35
229.585	22.54
229.802	15.87
230.02	11.27
230.237	13.17
230.454	10.83
230.671	5.52
230.888	12.17
231.105	14.62
231.323	7.48
231.54	4.41
231.757	6.23
231.974	5.92
232.191	12.81
232.408	18.33
232.625	21.21
232.842	25.7
233.059	31.47
233.276	27.37
233.493	23.78
233.71	17.61
233.927	19.17
234.144	18.17
234.361	20.57
234.578	20.29
234.795	16.68
235.012	15.16
235.229	16.36
235.446	10.64
235.663	8.52
235.879	13.02
236.096	20.87
236.313	14.22
236.53	17.62
236.747	17.57
236.964	15.07
237.181	20.25
237.397	16.41
237.614	14.39
237.831	21.49
238.048	29.22
238.264	27.12
238.481	25.67
238.698	27.41
238.915	21.61
239.131	18.56
239.348	24.34
239.565	21.7
239.781	24.5
239.998	19.34
240.215	11.93
240.431	12.52
240.648	8.72
240.865	6.68
241.081	7.43
241.298	10.83
241.514	10.14
241.731	7.43
241.947	9.59
242.164	11.71
242.38	12.54
242.597	14.25
242.814	14.76
243.03	15.47
243.246	17.03
243.463	17.12
243.679	17.45
243.896	21.84
244.112	23.19
244.329	21.99
244.545	21.56
244.762	24.15
244.978	23.41
245.194	20.34
245.411	19.79
245.627	18.39
245.843	20.91
246.06	19.43
246.276	17.32
246.492	17.72
246.709	18.45
246.925	17.65
247.141	17.04
247.357	17.28
247.574	18.48
247.79	18.73
248.006	19.2
248.222	19.03
248.439	17.79
248.655	17.16
248.871	17.18
249.087	15.46
249.303	14.61
249.519	14.95
249.736	15.52
249.952	13.86
250.168	13.68
250.384	16.14
250.6	13.86
250.816	16.82
251.032	18.09
251.248	17.28
251.464	17.85
251.68	20.11
251.896	18.33
252.112	18.18
252.328	18.7
252.544	17.87
252.76	15.16
252.976	16.54
253.192	17.01
253.408	15
253.624	17.21
253.84	17.14
254.056	14.15
254.272	14.92
254.487	12.5
254.703	10.94
254.919	14.78
255.135	14.94
255.351	10.52
255.567	12.25
255.782	13.75
255.998	9.46
256.214	11.48
256.43	11.89
256.646	9.03
256.861	10.82
257.077	13.24
257.293	8.49
257.508	5.51
257.724	9.07
257.94	7.66
258.155	5.75
258.371	7.87
258.587	5.62
258.802	9.4
259.018	10.99
259.234	10.98
259.449	11.49
259.665	12.49
259.88	13.92
260.096	14.05
260.312	13.7
260.527	14.09
260.743	13.74
260.958	14.39
261.174	14.25
261.389	14.55
261.605	14.44
261.82	13.87
262.036	13.15
262.251	14.4
262.466	12.68
262.682	13.14
262.897	15.28
263.113	16.2
263.328	19.8
263.543	18.59
263.759	16.94
263.974	16.44
264.189	15.45
264.405	16.5
264.62	12.21
264.835	15.24
265.051	15.78
265.266	14.87
265.481	14.53
265.696	13.56
265.912	13.45
266.127	14.2
266.342	15.13
266.557	15.58
266.773	15.32
266.988	17.13
267.203	16.98
267.418	16.01
267.633	16.15
267.848	15.94
268.064	16.48
268.279	16.18
268.494	14.73
268.709	13.94
268.924	14.36
269.139	13.45
269.354	13.06
269.569	11.35
269.784	10.32
269.999	9.48
270.214	10.24
270.429	7.41
270.644	6.37
270.859	8.01
271.074	10.67
271.289	10.48
271.504	10.73
271.719	8.77
271.934	8.53
272.149	10.03
272.363	10.5
272.578	10.37
272.793	10.04
273.008	11.29
273.223	11.85
273.438	10.84
273.653	9.25
273.867	10.78
274.082	12.53
274.297	12.89
274.512	12.51
274.726	12.43
274.941	11.56
275.156	12.64
275.371	11.02
275.585	12.42
275.8	13.06
276.015	14.8
276.229	12.59
276.444	12.8
276.659	12.67
276.873	12.68
277.088	13.23
277.302	13.2
277.517	13.57
277.732	15.82
277.946	14.18
278.161	11.68
278.375	11.71
278.59	13.68
278.804	13.96
279.019	16.72
279.233	17.23
279.448	16.75
279.662	16.62
279.877	16.74
280.091	15.93
280.306	17.13
280.52	17.23
280.735	15.87
280.949	15.26
281.163	14.09
281.378	10.07
281.592	8.69
281.806	8.44
282.021	8.02
282.235	6.26
282.449	5.48
282.664	4.45
282.878	5.75
283.092	5.95
283.307	6.62
283.521	6.83
283.735	8.26
283.949	8.97
284.164	8.85
284.378	10.26
284.592	11.62
284.806	10.53
285.02	12.13
285.234	10.91
285.449	11.95
285.663	12.32
285.877	13.31
286.091	14.7
286.305	14.38
286.519	14.18
286.733	14.16
286.947	14.05
287.161	15.35
287.375	14.95
287.589	16.84
287.803	15.96
288.017	14.47
288.231	13.32
288.445	11.08
288.659	11.83
288.873	12.88
289.087	12.12
289.301	13.36
289.515	13.58
289.729	12.43
289.943	11.31
290.157	11.46
290.371	11.9
290.584	11.87
290.798	12.67
291.012	13.43
291.226	13.77
291.44	13.61
291.654	12.67
291.867	12.11
292.081	12.58
292.295	11.64
292.509	13.37
292.722	13.95
292.936	13.63
293.15	14.07
293.364	13.82
293.577	13.39
293.791	10.86
294.005	12.02
294.218	12.05
294.432	12.26
294.645	15.89
294.859	13.72
295.073	14.63
295.286	13.64
295.5	13.65
295.713	13.35
295.927	13.01
296.14	16.2
296.354	14.72
296.568	15.23
296.781	14.13
296.994	12.55
297.208	13.1
297.421	12.89
297.635	14.08
297.848	13.7
298.062	13.87
298.275	14.21
298.489	12.91
298.702	13.75
298.915	12.54
299.129	12.82
299.342	13.36
299.555	13.92
299.769	12.57
299.982	12.39
300.195	12.26
300.409	12.53
300.622	12.59
300.835	14.17
301.048	14.84
301.262	17.05
301.475	17.18
301.688	16
301.901	15.39
302.115	16.6
302.328	16.97
302.541	17.99
302.754	16.96
302.967	18.12
303.18	15.6
303.393	14.51
303.607	13.59
303.82	14.67
304.033	15.91
304.246	17.3
304.459	17.36
304.672	19.05
304.885	19.19
305.098	19.14
305.311	17.99
305.524	19.97
305.737	20.01
305.95	21.39
306.163	22.15
306.376	20.74
306.589	19.61
306.802	19.94
307.015	17.69
307.228	18.32
307.44	16.21
307.653	16.89
307.866	18.31
308.079	17.79
308.292	16.89
308.505	17.41
308.718	18.16
308.93	17.72
309.143	17.12
309.356	18.97
309.569	17.66
309.781	19.2
309.994	17.5
310.207	14.73
310.42	15.16
310.632	15.76
310.845	13.56
311.058	13.43
311.27	15.16
311.483	15.16
311.696	13.73
311.908	13.33
312.121	13.23
312.333	14.98
312.546	16.36
312.759	15.65
312.971	14.56
313.184	14.96
313.396	15.24
313.609	13.44
313.821	12.47
314.034	11.83
314.246	12.82
314.459	13.49
314.671	11.87
314.884	11.85
315.096	12.95
315.309	14.33
315.521	15.44
315.733	14.95
315.946	15.74
316.158	16.64
316.371	16.78
316.583	16.62
316.795	16.11
317.008	15.98
317.22	16.1
317.432	15.09
317.644	14.68
317.857	15.01
318.069	15.88
318.281	15.54
318.494	14.27
318.706	14.68
318.918	13.89
319.13	12.92
319.342	13.72
319.555	13.5
319.767	13.81
319.979	11.83
320.191	12.34
320.403	12.51
320.615	12.59
320.827	13.02
321.039	13.83
321.252	15.43
321.464	16.51
321.676	15.1
321.888	16.02
322.1	16.42
322.312	17.05
322.524	16.64
322.736	14.98
322.948	14.99
323.16	15.65
323.372	16.34
323.584	15.78
323.796	16.2
324.007	16.93
324.219	16.4
324.431	16.5
324.643	17.71
324.855	17.7
325.067	17.52
325.279	16.78
325.491	16.43
325.702	16.57
325.914	16.42
326.126	17.65
326.338	16.72
326.55	16.7
326.761	15.33
326.973	14.3
327.185	12.25
327.396	13.61
327.608	15.08
327.82	15.43
328.032	14.42
328.243	14.14
328.455	13.37
328.666	17.23
328.878	17.19
329.09	18.04
329.301	17.68
329.513	19.01
329.725	18.62
329.936	17.1
330.148	16.59
330.359	16.17
330.571	15.33
330.782	14.08
330.994	13.11
331.205	13.39
331.417	14.18
331.628	14.99
331.84	16.35
332.051	14.25
332.262	15.51
332.474	15.66
332.685	14.7
332.897	15.2
333.108	16.47
333.319	14.87
333.531	13.54
333.742	13.29
333.953	13.98
334.165	11.97
334.376	13.25
334.587	12.93
334.799	13.29
335.01	16.43
335.221	16.87
335.432	15.09
335.644	16.71
335.855	16.34
336.066	16.56
336.277	15.32
336.488	17.2
336.7	17.9
336.911	18.59
337.122	18.82
337.333	16.22
337.544	16.51
337.755	16.53
337.966	15.97
338.177	16.77
338.388	18.2
338.599	17.86
338.811	15.95
339.022	15.54
339.233	13.96
339.444	14.29
339.655	15.17
339.866	14.81
340.076	16.36
340.287	15.69
340.498	15.06
340.709	14.41
340.92	16.96
341.131	18.67
341.342	18.27
341.553	20.11
341.764	20.74
341.975	19.23
342.185	19.73
342.396	18.89
342.607	17.45
342.818	18.5
343.029	17.73
343.239	16.86
343.45	17.06
343.661	17.57
343.872	15.81
344.082	15.5
344.293	18.46
344.504	17.21
344.714	17.03
344.925	17.88
345.136	16.82
345.346	16.69
345.557	16.96
345.768	17.01
345.978	17.73
346.189	17.98
346.399	17.22
346.61	16.23
346.821	17.54
347.031	17.86
347.242	18.63
347.452	19.5
347.663	20.58
347.873	19.49
348.084	18.82
348.294	17.27
348.504	18.54
348.715	18.46
348.925	17.96
349.136	16.06
349.346	16.55
349.557	16.68
349.767	16.67
349.977	15.83
350.188	16.16
350.398	16.58
350.608	17.16
350.819	17.34
351.029	18.11
351.239	19.29
351.449	19.94
351.66	19.81
351.87	17.69
352.08	17.72
352.29	18.94
352.501	19.06
352.711	19.09
352.921	19.62
353.131	19.11
353.341	18.25
353.552	16.45
353.762	16.91
353.972	16.94
354.182	18.02
354.392	16.86
354.602	16.16
354.812	15.76
355.022	15.38
355.232	15.19
355.442	14.39
355.652	15.69
355.862	16.74
356.072	16.52
356.282	16.61
356.492	16.88
356.702	17.7
356.912	17.92
357.122	17.73
357.332	17.38
357.542	16.31
357.752	17.77
357.962	17.84
358.171	16.04
358.381	16.45
358.591	16.47
358.801	17.07
359.011	17.27
359.221	16.32
359.43	17.31
359.64	17.28
359.85	18.23
360.06	17.62
360.269	16.74
360.479	17.22
360.689	17.64
360.899	17.31
361.108	16.87
361.318	17
361.528	16.84
361.737	16.01
361.947	15.88
362.156	15.41
362.366	14.93
362.576	14.51
362.785	15.23
362.995	14.93
363.204	16.02
363.414	16.54
363.623	16.86
363.833	16.88
364.042	17.82
364.252	17.62
364.461	18.28
364.671	17.82
364.88	18.29
365.09	18.58
365.299	17.52
365.509	16.06
365.718	15.28
365.927	14.83
366.137	15.65
366.346	14.9
366.555	14.29
366.765	13.6
366.974	14.2
367.183	14.21
367.393	12.55
367.602	13.04
367.811	12.5
368.021	12.45
368.23	11.55
368.439	10.93
368.648	11.23
368.857	12.78
369.067	12.49
369.276	12.88
369.485	12.98
369.694	13.5
369.903	13.85
370.112	14.85
370.321	14.69
370.531	15.23
370.74	15.92
370.949	15.8
371.158	15.5
371.367	16.17
371.576	15.2
371.785	16.54
371.994	17.2
372.203	16.86
372.412	15.86
372.621	16.03
372.83	15.45
373.039	14.86
373.248	14.01
373.457	13.66
373.666	13.66
373.874	14.7
374.083	12.71
374.292	12.83
374.501	12.31
374.71	13.16
374.919	13.56
375.128	13.91
375.336	13.91
375.545	15.61
375.754	16.72
375.963	16.65
376.171	16.38
376.38	16.96
376.589	17.16
376.798	16.71
377.006	16.08
377.215	15.82
377.424	16.02
377.632	16.23
377.841	15.05
378.05	14.19
378.258	13.82
378.467	13.46
378.675	13.2
378.884	12.71
379.093	12.76
379.301	12.78
379.51	12.38
379.718	12.31
379.927	11.29
380.135	11.67
380.344	11.7
380.552	11.6
380.761	11.99
380.969	11.88
381.177	11.42
381.386	11.61
381.594	11.34
381.803	11.12
382.011	11.27
382.219	11.9
382.428	11.33
382.636	11.17
382.845	11.22
383.053	10.44
383.261	10.45
383.469	10.81
383.678	10.72
383.886	10.83
384.094	11.01
384.302	10.94
384.511	10.87
384.719	11.45
384.927	11.79
385.135	11.83
385.343	11.89
385.552	11.43
385.76	11.14
385.968	11.54
386.176	11.4
386.384	10.95
386.592	10.4
386.8	10.53
387.008	10.06
387.216	9.61
387.424	9.27
387.633	9.37
387.841	9.39
388.049	9.01
388.257	8.73
388.465	9.06
388.672	9.34
388.88	8.96
389.088	9.4
389.296	9.39
389.504	9.12
389.712	8.92
389.92	9.2
390.128	9.1
390.336	9.11
390.544	9.35
390.751	9.35
390.959	9.15
391.167	9.3
391.375	8.69
391.583	8.51
391.79	8.59
391.998	8.73
392.206	8.8
392.414	9.13
392.621	9.51
392.829	9.26
393.037	9.13
393.244	9.37
393.452	9.59
393.66	9.11
393.867	9.13
394.075	9.31
394.283	9.5
394.49	9.15
394.698	9.2
394.905	9.57
395.113	9.26
395.32	9.38
395.528	9.6
395.735	9.28
395.943	9.78
396.15	9.83
396.358	9.57
396.565	9.72
396.773	9.55
396.98	9.4
397.188	8.67
397.395	9.49
397.602	9.03
397.81	8.97
398.017	9.36
398.225	9.1
398.432	9.07
398.639	8.95
398.847	8.59
399.054	8.99
399.261	8.83
399.468	8.64
399.676	8.13
399.883	8.45
400.09	7.81
400.297	7.98
400.505	8.1
400.712	8.15
400.919	8.08
401.126	8.12
401.333	7.77
401.54	8.2
401.748	8.66
401.955	9.06
402.162	8.57
402.369	8.88
402.576	8.82
402.783	8.65
402.99	8.66
403.197	8.99
403.404	8.98
403.611	9.03
403.818	8.83
404.025	8.52
404.232	8.49
404.439	8.77
404.646	8.89
404.853	9
405.06	9.25
405.267	9.44
405.474	9.36
405.681	9.69
405.887	9.71
406.094	9.91
406.301	10.02
406.508	9.8
406.715	9.74
406.922	9.63
407.128	9.67
407.335	9.53
407.542	9.48
407.749	9.32
407.955	8.72
408.162	8.79
408.369	8.25
408.575	8.1
408.782	7.88
408.989	8.15
409.195	8.01
409.402	7.93
409.609	7.63
409.815	7.29
410.022	7.69
410.228	7.83
410.435	7.71
410.642	7.75
410.848	8.01
411.055	8.31
411.261	8.1
411.468	8.15
411.674	7.79
411.881	8.16
412.087	8.71
412.294	8.5
412.5	8.22
412.706	8.21
412.913	8.12
413.119	7.95
413.326	7.98
413.532	8.23
413.738	8.43
413.945	8.76
414.151	8.34
414.357	8.08
414.564	8.11
414.77	8.53
414.976	8.34
415.182	8.41
415.389	8.31
415.595	8.12
415.801	8.16
416.007	8.24
416.214	8
416.42	8.3
416.626	8.04
416.832	8.39
417.038	8.33
417.244	8.43
417.45	8.3
417.657	8.53
417.863	8.74
418.069	8.72
418.275	8.89
418.481	8.85
418.687	8.72
418.893	8.83
419.099	8.46
419.305	8.61
419.511	8.69
419.717	8.71
419.923	8.63
420.129	8.57
420.335	8.56
420.541	8.5
420.746	8.61
420.952	8.62
421.158	8.75
421.364	8.84
421.57	8.77
421.776	8.82
421.982	8.9
422.187	8.94
422.393	8.78
422.599	8.67
422.805	8.64
423.01	8.61
423.216	8.77
423.422	8.58
423.628	8.41
423.833	8.23
424.039	8.15
424.245	8.24
424.45	8.19
424.656	8.38
424.862	8.57
425.067	8.55
425.273	8.37
425.478	8.38
425.684	8.45
425.889	8.74
426.095	8.86
426.301	8.78
426.506	8.69
426.712	8.59
426.917	8.64
427.123	8.49
427.328	8.39
427.533	8.8
427.739	8.76
427.944	8.62
428.15	8.21
428.355	8.36
428.561	8.52
428.766	8.59
428.971	8.91
429.177	8.81
429.382	8.97
429.587	9.11
429.793	9.08
429.998	9.02
430.203	9.26
430.408	9.53
430.614	9.42
430.819	9.4
431.024	9.58
431.229	9.24
431.434	9.24
431.64	8.92
431.845	8.72
432.05	8.67
432.255	8.73
432.46	8.61
432.665	8.58
432.87	8.5
433.076	8.41
433.281	8.49
433.486	8.62
433.691	8.53
433.896	8.6
434.101	8.68
434.306	8.65
434.511	8.66
434.716	8.64
434.921	8.96
435.126	8.99
435.331	9.07
435.535	8.74
435.74	8.56
435.945	8.62
436.15	8.63
436.355	8.57
436.56	8.41
436.765	8.3
436.97	8.26
437.174	8
437.379	8.04
437.584	8.08
437.789	8.01
437.993	8.17
438.198	8.03
438.403	7.87
438.608	7.7
438.812	7.87
439.017	7.88
439.222	7.85
439.426	7.62
439.631	7.88
439.836	7.91
440.04	7.84
440.245	7.84
440.45	7.82
440.654	8.09
440.859	8.16
441.063	8.2
441.268	8.16
441.472	8.03
441.677	8.21
441.881	7.99
442.086	7.59
442.29	7.84
442.495	7.8
442.699	7.78
442.904	7.49
443.108	7.47
443.312	7.31
443.517	7.22
443.721	7.53
443.925	7.52
444.13	7.53
444.334	7.88
444.538	7.69
444.743	7.79
444.947	7.88
445.151	7.93
445.356	7.93
445.56	7.96
445.764	7.92
445.968	7.73
446.173	7.65
446.377	7.64
446.581	7.75
446.785	7.84
446.989	7.82
447.193	7.77
447.398	7.72
447.602	7.67
447.806	7.67
448.01	7.86
448.214	7.87
448.418	7.95
448.622	7.8
448.826	7.6
449.03	7.52
449.234	7.52
449.438	7.76
449.642	7.99
449.846	8.03
450.05	8.03
450.254	7.67
450.458	7.7
450.662	7.64
450.866	8.05
451.069	7.93
451.273	7.95
451.477	7.84
451.681	7.56
451.885	7.44
452.089	7.53
452.292	7.56
452.496	7.7
452.7	7.71
452.904	7.86
453.107	7.54
453.311	7.71
453.515	7.62
453.719	7.62
453.922	7.64
454.126	7.62
454.33	7.63
454.533	7.48
454.737	7.64
454.94	7.83
455.144	7.75
455.348	7.86
455.551	7.99
455.755	8.39
455.958	8.35
456.162	8.47
456.365	8.33
456.569	8.36
456.772	8.43
456.976	8.39
457.179	8.23
457.383	8.19
457.586	8.16
457.79	8
457.993	7.85
458.196	7.77
458.4	7.81
458.603	7.83
458.807	7.88
459.01	7.82
459.213	7.81
459.417	7.79
459.62	7.89
459.823	7.89
460.026	7.74
460.23	7.66
