Data from 2937825_Reflection_3.txt Node
Date: Wed Jul 15 17:04:54 EDT 2015
User: robert
Spectrometer: USB4E03001
Autoset integration time: false
Trigger mode: 4
Integration Time (sec): 1.000000E-1
Scans to average: 10
Electric dark correction enabled: true
Nonlinearity correction enabled: false
Boxcar width: 5
Stray light correction enabled: false
XAxis mode: Wavelengths
Stop averaging: false
Number of Pixels in Spectrum: 3648
>>>>>Begin Spectral Data<<<<<
177.566	72.98
177.785	67.3
178.005	65.24
178.225	83.55
178.445	81.77
178.665	89.2
178.885	-95.17
179.105	71.98
179.324	64.24
179.544	69.66
179.764	75.59
179.984	49.85
180.204	36.66
180.423	22.86
180.643	40.86
180.863	30.28
181.083	30.16
181.302	15.62
181.522	-18.22
181.742	-5.88
181.961	-17.33
182.181	-27.14
182.401	9.73
182.621	14.85
182.84	39.99
183.06	6.62
183.279	-1.87
183.499	2.89
183.719	-10.03
183.938	-14.25
184.158	-5.75
184.377	27.58
184.597	7.67
184.816	-57.81
185.036	-84.36
185.256	-507.87
185.475	-76.97
185.695	-43.67
185.914	-86.48
186.134	-39.69
186.353	59
186.572	63.37
186.792	94.75
187.011	96.04
187.231	83.47
187.45	84.29
187.67	58.81
187.889	44.98
188.108	69.05
188.328	51.61
188.547	86.76
188.766	48.19
188.986	48.08
189.205	11.28
189.424	-2.82
189.644	-1.42
189.863	-6.9
190.082	-5.35
190.302	26.98
190.521	42.24
190.74	51.26
190.959	19.08
191.178	38.82
191.398	26.06
191.617	37.01
191.836	55.67
192.055	84.75
192.274	90.21
192.494	65.58
192.713	40.56
192.932	13.59
193.151	21.46
193.37	33.31
193.589	17.96
193.808	28.54
194.027	29.67
194.246	4.52
194.465	-8.86
194.685	1.88
194.904	1.57
195.123	10.57
195.342	39.5
195.561	41.78
195.78	-20.35
195.999	65.56
196.218	57.3
196.436	173.27
196.655	-123.93
196.874	-984.82
197.093	-337.94
197.312	-323.01
197.531	441.6
197.75	411.1
197.969	181.22
198.188	178.02
198.407	111.92
198.625	101.54
198.844	85.14
199.063	78.04
199.282	67.41
199.501	66.54
199.719	26.2
199.938	13.33
200.157	2.38
200.376	10.1
200.594	7.77
200.813	19.43
201.032	-8.45
201.251	5.41
201.469	21.15
201.688	85.76
201.907	73.05
202.125	102.89
202.344	133.14
202.563	99.05
202.781	152.16
203	113.58
203.218	81.67
203.437	105.28
203.656	66.71
203.874	47.1
204.093	21.41
204.311	4.91
204.53	-14.47
204.748	-15.03
204.967	-31.55
205.185	-167.35
205.404	-2197.33
205.622	1646.08
205.841	-7869.77
206.059	625.34
206.278	-2373.93
206.496	475.4
206.715	254.31
206.933	300.6
207.151	762.68
207.37	797.43
207.588	-309.22
207.806	-109.62
208.025	-152.07
208.243	-91.76
208.461	3.42
208.68	18.12
208.898	13.06
209.116	10.1
209.335	12.22
209.553	7.38
209.771	27.67
209.989	40
210.208	26.6
210.426	30.7
210.644	10.66
210.862	20.91
211.081	26.02
211.299	21.47
211.517	20.1
211.735	6.18
211.953	14.14
212.171	-1.51
212.39	-16.93
212.608	4.63
212.826	-2.48
213.044	16.16
213.262	-111.38
213.48	-61.43
213.698	-806.09
213.916	396.1
214.134	387.5
214.352	459.42
214.57	-881.91
214.788	739.3
215.006	404.74
215.224	-321.26
215.442	-300.26
215.66	-122.2
215.878	-266.16
216.096	-51.07
216.314	-11.25
216.532	-6.19
216.75	-15.52
216.968	7.71
217.185	18.89
217.403	-25.57
217.621	-65.39
217.839	-57.18
218.057	-37.61
218.275	14.19
218.492	-6.91
218.71	-10.15
218.928	0.78
219.146	30.37
219.363	49.33
219.581	30.7
219.799	45.57
220.017	89.14
220.234	122.69
220.452	276.18
220.67	-446.47
220.887	-151.56
221.105	-91.93
221.323	-104.15
221.54	24.63
221.758	74.27
221.976	75.04
222.193	47.13
222.411	-42.89
222.629	-103.73
222.846	-188.71
223.064	-496.07
223.281	-243.47
223.499	-261.6
223.716	105.03
223.934	-79.43
224.151	66.17
224.369	77.14
224.586	0.99
224.804	-20.9
225.021	-22.08
225.239	11.94
225.456	-18.91
225.674	-36.82
225.891	-68.11
226.108	2070.75
226.326	-3504.32
226.543	5813.41
226.76	-654.06
226.978	-1250.1
227.195	-273.5
227.413	-190.69
227.63	-128.82
227.847	-55.91
228.064	-14.02
228.282	-4.41
228.499	8.53
228.716	13.35
228.934	9.2
229.151	12.93
229.368	15.14
229.585	14.73
229.802	15.33
230.02	12.23
230.237	9.72
230.454	1.52
230.671	1.05
230.888	1.29
231.105	-3.24
231.323	-0.93
231.54	-5.13
231.757	0.09
231.974	0.59
232.191	-2.09
232.408	-2.51
232.625	3.85
232.842	9.96
233.059	12.19
233.276	12.56
233.493	16.55
233.71	19.74
233.927	12.44
234.144	17.38
234.361	12.93
234.578	15.71
234.795	16.82
235.012	8.68
235.229	3.61
235.446	4.12
235.663	-2.97
235.879	-12.43
236.096	-28.38
236.313	-15.74
236.53	-35.36
236.747	-24.45
236.964	-28.85
237.181	-24.73
237.397	-15.71
237.614	-8.73
237.831	-22.9
238.048	-17.41
238.264	-21.36
238.481	-4.23
238.698	-7.06
238.915	-1.42
239.131	-12.37
239.348	-14.56
239.565	-12.19
239.781	-3.04
239.998	-7.98
240.215	-4.63
240.431	-3.96
240.648	6.12
240.865	1.99
241.081	6.13
241.298	8.81
241.514	10.75
241.731	10.66
241.947	6.93
242.164	3.86
242.38	5.15
242.597	7.46
242.814	6.39
243.03	4.72
243.246	6.05
243.463	4.34
243.679	3.2
243.896	3.43
244.112	2.7
244.329	5.06
244.545	3.44
244.762	5.04
244.978	3.41
245.194	6.88
245.411	8.6
245.627	5.58
245.843	3.81
246.06	4.21
246.276	4.33
246.492	3.97
246.709	3.43
246.925	3.76
247.141	3.15
247.357	2.23
247.574	0.55
247.79	-1.39
248.006	-1.07
248.222	-0.27
248.439	-2.3
248.655	-3.38
248.871	-3.57
249.087	-2.58
249.303	-3.93
249.519	-4.86
249.736	-5.94
249.952	-7.46
250.168	-4.27
250.384	-2.76
250.6	-3.29
250.816	0.83
251.032	1.29
251.248	2.4
251.464	-1.66
251.68	-0.74
251.896	-2.58
252.112	-1.23
252.328	2.88
252.544	0.59
252.76	0.42
252.976	2.5
253.192	1.4
253.408	1.81
253.624	0.48
253.84	2.05
254.056	2.68
254.272	4.31
254.487	5.77
254.703	2.67
254.919	2.85
255.135	7.11
255.351	3.36
255.567	0.69
255.782	3.76
255.998	4.96
256.214	7.91
256.43	9.83
256.646	14.57
256.861	13.97
257.077	16.02
257.293	16.32
257.508	10.74
257.724	12.88
257.94	13.65
258.155	9.95
258.371	5.96
258.587	6.64
258.802	6.73
259.018	6.04
259.234	5.97
259.449	6.03
259.665	6.55
259.88	5.98
260.096	4.6
260.312	4.89
260.527	4.22
260.743	5.54
260.958	4.42
261.174	3.93
261.389	4.08
261.605	4.87
261.82	3.87
262.036	1.65
262.251	3.6
262.466	6.09
262.682	4.05
262.897	6.03
263.113	4.5
263.328	5.03
263.543	4.31
263.759	2.57
263.974	-0.39
264.189	0.55
264.405	2.5
264.62	4.09
264.835	0.53
265.051	3.34
265.266	5.61
265.481	8.25
265.696	7.61
265.912	7.44
266.127	10.1
266.342	10.24
266.557	8.94
266.773	6.26
266.988	3.01
267.203	2.12
267.418	3.16
267.633	3.56
267.848	3.54
268.064	3.64
268.279	4.39
268.494	0.47
268.709	-1.66
268.924	0.57
269.139	2.97
269.354	4.71
269.569	3.77
269.784	1.32
269.999	-0.32
270.214	-0.59
270.429	-0.41
270.644	-0.97
270.859	0.69
271.074	3.26
271.289	3.83
271.504	5.68
271.719	6.46
271.934	9.64
272.149	8.71
272.363	7.99
272.578	8.33
272.793	7.89
273.008	9.34
273.223	9.84
273.438	9.24
273.653	5.4
273.867	3.35
274.082	0.9
274.297	-1.2
274.512	0.15
274.726	1.45
274.941	2.55
275.156	4.43
275.371	2.07
275.585	1.72
275.8	3.2
276.015	5.04
276.229	6
276.444	5.66
276.659	7.19
276.873	8.32
277.088	6.85
277.302	5.05
277.517	4.27
277.732	4.66
277.946	3.71
278.161	1.23
278.375	2.05
278.59	0.23
278.804	0.2
279.019	-2.78
279.233	-4.27
279.448	-2.76
279.662	-2.44
279.877	-5.71
280.091	-6.61
280.306	-4.58
280.52	-5.72
280.735	-5.4
280.949	-4.08
281.163	-0.97
281.378	1.23
281.592	-0.63
281.806	-0.7
282.021	0.38
282.235	3.49
282.449	3.7
282.664	1.7
282.878	3.87
283.092	4
283.307	4.34
283.521	3.93
283.735	4.31
283.949	6
284.164	6.28
284.378	7.53
284.592	7.28
284.806	7.23
285.02	7.32
285.234	6.7
285.449	8.37
285.663	8.31
285.877	8.27
286.091	5.83
286.305	5.77
286.519	5.35
286.733	4.19
286.947	3.94
287.161	4.53
287.375	4.5
287.589	5.08
287.803	1.75
288.017	2.55
288.231	0.38
288.445	1.73
288.659	0.94
288.873	0.79
289.087	0
289.301	0.61
289.515	2.42
289.729	1.38
289.943	3.05
290.157	5.44
290.371	4.88
290.584	6.06
290.798	6.51
291.012	7.69
291.226	7.41
291.44	6.4
291.654	6.93
291.867	4.85
292.081	5.73
292.295	5.6
292.509	4.26
292.722	5.49
292.936	4.75
293.15	3.59
293.364	0.93
293.577	3.92
293.791	3.55
294.005	1.59
294.218	2.55
294.432	2.67
294.645	-1.27
294.859	-1.54
295.073	-3.22
295.286	-3.01
295.5	-0.47
295.713	1.74
295.927	-0.61
296.14	1.98
296.354	3.12
296.568	4.22
296.781	7.14
296.994	9.76
297.208	11.64
297.421	11.88
297.635	11.58
297.848	11.12
298.062	11.06
298.275	10.85
298.489	10.31
298.702	10.04
298.915	10.39
299.129	10.67
299.342	9.55
299.555	7.51
299.769	7.29
299.982	8.57
300.195	8.19
300.409	8.46
300.622	8.42
300.835	6.78
301.048	7.98
301.262	6.74
301.475	3.9
301.688	6.33
301.901	8.5
302.115	7.58
302.328	7.44
302.541	8.55
302.754	6.01
302.967	7.51
303.18	10.87
303.393	9.64
303.607	8.21
303.82	9.66
304.033	8.93
304.246	8.14
304.459	7.54
304.672	7.99
304.885	6.01
305.098	6.68
305.311	5.05
305.524	5.45
305.737	5.88
305.95	6.67
306.163	8.16
306.376	7.79
306.589	8.35
306.802	10.17
307.015	9.88
307.228	9.6
307.44	9.44
307.653	11.26
307.866	9.42
308.079	8.11
308.292	8.65
308.505	5.78
308.718	6.25
308.93	7.07
309.143	7.85
309.356	8.19
309.569	10.16
309.781	11.73
309.994	11.73
310.207	11.59
310.42	12.55
310.632	13.39
310.845	13.95
311.058	13.32
311.27	12.4
311.483	11.47
311.696	11.74
311.908	10.94
312.121	9.98
312.333	10.6
312.546	9.61
312.759	9
312.971	8.47
313.184	7.3
313.396	8.13
313.609	9.92
313.821	10.31
314.034	8.8
314.246	9.22
314.459	11.47
314.671	12.8
314.884	14.35
315.096	15.67
315.309	16.81
315.521	17.18
315.733	16.36
315.946	14.71
316.158	13.79
316.371	15.78
316.583	15.87
316.795	15.14
317.008	12.75
317.22	12.38
317.432	11.66
317.644	10.83
317.857	11.45
318.069	10.36
318.281	10.56
318.494	12.97
318.706	12.76
318.918	12.28
319.13	12.58
319.342	12.46
319.555	14.2
319.767	15.62
319.979	14.41
320.191	14.88
320.403	17.43
320.615	17.62
320.827	15.71
321.039	15.44
321.252	16.32
321.464	17.1
321.676	15.98
321.888	15.66
322.1	12.54
322.312	13.23
322.524	13.94
322.736	11.3
322.948	10.83
323.16	13.35
323.372	13.08
323.584	12.77
323.796	13.73
324.007	14.8
324.219	13.29
324.431	14.24
324.643	13.95
324.855	13.35
325.067	15.9
325.279	15.64
325.491	14.9
325.702	16.24
325.914	17.36
326.126	16.47
326.338	17.75
326.55	19.67
326.761	20.18
326.973	20.34
327.185	20.65
327.396	20.22
327.608	21.06
327.82	23.36
328.032	22.07
328.243	21.53
328.455	22.84
328.666	23.11
328.878	23.27
329.09	24.37
329.301	25.44
329.513	25.54
329.725	26.21
329.936	28.32
330.148	27.91
330.359	29.29
330.571	29.23
330.782	27.99
330.994	27.93
331.205	29.09
331.417	28.52
331.628	28.45
331.84	29.25
332.051	31.27
332.262	31.71
332.474	31.49
332.685	32.14
332.897	34.67
333.108	36.19
333.319	36.82
333.531	35.71
333.742	36.59
333.953	37.33
334.165	38.87
334.376	39.23
334.587	37.96
334.799	36.85
335.01	36.12
335.221	35.02
335.432	34.85
335.644	35.2
335.855	36.65
336.066	38.11
336.277	40.65
336.488	41.22
336.7	39.35
336.911	40.43
337.122	41.99
337.333	42.35
337.544	42.5
337.755	42.71
337.966	41.26
338.177	40.26
338.388	38.62
338.599	36.94
338.811	36.15
339.022	36.28
339.233	35.51
339.444	34.71
339.655	36.45
339.866	35.25
340.076	34.19
340.287	35.87
340.498	37.62
340.709	40.63
340.92	41.97
341.131	42.72
341.342	44.24
341.553	44.42
341.764	44.71
341.975	43.33
342.185	45.05
342.396	45.76
342.607	45.95
342.818	43.95
343.029	43.4
343.239	42.89
343.45	41.4
343.661	40.21
343.872	40.6
344.082	41.82
344.293	42.27
344.504	42.94
344.714	43.31
344.925	42.38
345.136	42.76
345.346	40.69
345.557	40.5
345.768	42.27
345.978	41.2
346.189	40.95
346.399	40.05
346.61	39.63
346.821	38.34
347.031	38.76
347.242	38.87
347.452	38.88
347.663	38.67
347.873	38.57
348.084	37.72
348.294	39.75
348.504	39.26
348.715	40.28
348.925	40.91
349.136	42.72
349.346	40.44
349.557	41.69
349.767	42.33
349.977	43.73
350.188	45.62
350.398	45.33
350.608	46.1
350.819	48.05
351.029	46.68
351.239	46.76
351.449	47.4
351.66	49.45
351.87	48.83
352.08	48.81
352.29	49.05
352.501	46.94
352.711	47.74
352.921	45.06
353.131	43.64
353.341	44.72
353.552	44.57
353.762	43.21
353.972	43.56
354.182	43.74
354.392	43.86
354.602	44.09
354.812	44.62
355.022	45.14
355.232	47.63
355.442	48.05
355.652	47.68
355.862	49.59
356.072	49.6
356.282	49.15
356.492	49.31
356.702	50.47
356.912	49.33
357.122	47.96
357.332	47.36
357.542	45.74
357.752	46.54
357.962	46.28
358.171	44.76
358.381	44.33
358.591	44.94
358.801	45.3
359.011	43.85
359.221	44.19
359.43	45.04
359.64	44.9
359.85	46.6
360.06	45.69
360.269	46.13
360.479	45.08
360.689	45.75
360.899	45.23
361.108	45.84
361.318	45.73
361.528	46.02
361.737	45.64
361.947	45.35
362.156	44.36
362.366	43.4
362.576	43
362.785	43.61
362.995	43.04
363.204	42.7
363.414	41.43
363.623	42.65
363.833	42.6
364.042	42.7
364.252	42.4
364.461	42.76
364.671	44.25
364.88	45.18
365.09	44.67
365.299	45.43
365.509	45.69
365.718	45.75
365.927	44.51
366.137	44.88
366.346	44.6
366.555	45.59
366.765	45.18
366.974	44.58
367.183	43.83
367.393	44.19
367.602	43.6
367.811	43.91
368.021	43.94
368.23	44.2
368.439	44.27
368.648	43.7
368.857	42.97
369.067	43.43
369.276	42.98
369.485	42.86
369.694	43.14
369.903	43.54
370.112	43.02
370.321	43.11
370.531	43.88
370.74	42.96
370.949	43.05
371.158	42.63
371.367	42.01
371.576	42.94
371.785	43.05
371.994	42.06
372.203	40.79
372.412	40.35
372.621	39.77
372.83	39.55
373.039	39.47
373.248	40.03
373.457	39.81
373.666	40.6
373.874	40.57
374.083	39.48
374.292	40.06
374.501	40.28
374.71	40.73
374.919	41.34
375.128	41.07
375.336	40.95
375.545	40.49
375.754	41.26
375.963	40.99
376.171	40.63
376.38	40.57
376.589	40.2
376.798	39.85
377.006	39.11
377.215	39.21
377.424	39.04
377.632	38.43
377.841	38.23
378.05	37.39
378.258	37.16
378.467	36.43
378.675	36.51
378.884	36.94
379.093	37.62
379.301	37.8
379.51	37.59
379.718	37.56
379.927	38.25
380.135	38.93
380.344	39.26
380.552	39.99
380.761	40.32
380.969	40.95
381.177	40.72
381.386	41.03
381.594	40.52
381.803	40.14
382.011	39.32
382.219	38.48
382.428	37.57
382.636	37.69
382.845	36.59
383.053	36.12
383.261	35.92
383.469	35.91
383.678	34.71
383.886	34.67
384.094	34.66
384.302	34.24
384.511	34.52
384.719	34.37
384.927	33.84
385.135	33.85
385.343	33.35
385.552	33.12
385.76	32.36
385.968	32.11
386.176	31.85
386.384	31.44
386.592	31.5
386.8	31.36
387.008	31.68
387.216	31.45
387.424	31.37
387.633	31.59
387.841	31.47
388.049	31.39
388.257	31.58
388.465	31.95
388.672	31.91
388.88	31.63
389.088	31.54
389.296	31.01
389.504	30.99
389.712	30.92
389.92	30.99
390.128	31.08
390.336	31.21
390.544	31.02
390.751	30.77
390.959	30.73
391.167	30.99
391.375	31.11
391.583	31.24
391.79	31.09
391.998	30.76
392.206	30.81
392.414	30.2
392.621	30.48
392.829	30.85
393.037	30.35
393.244	30.49
393.452	30.52
393.66	30.29
393.867	30.13
394.075	30.06
394.283	30.3
394.49	30.23
394.698	30.51
394.905	30.1
395.113	29.85
395.32	30.28
395.528	29.81
395.735	29.96
395.943	29.94
396.15	30.18
396.358	30.49
396.565	30.43
396.773	30.3
396.98	30.38
397.188	30.48
397.395	30.24
397.602	30.12
397.81	30.4
398.017	30.36
398.225	30.27
398.432	29.98
398.639	29.87
398.847	29.65
399.054	29.82
399.261	29.84
399.468	29.89
399.676	30.25
399.883	30.42
400.09	30.24
400.297	30.46
400.505	30.56
400.712	31.11
400.919	31.09
401.126	31.28
401.333	31.59
401.54	31.34
401.748	31.73
401.955	31.81
402.162	32.28
402.369	32.39
402.576	31.92
402.783	32.09
402.99	32.08
403.197	32.18
403.404	32.06
403.611	31.76
403.818	32.16
404.025	31.88
404.232	31.74
404.439	31.19
404.646	31.21
404.853	31.57
405.06	31.65
405.267	31.67
405.474	31.67
405.681	31.87
405.887	32.15
406.094	31.91
406.301	31.57
406.508	31.59
406.715	31.82
406.922	31.56
407.128	31.29
407.335	30.97
407.542	30.97
407.749	31.07
407.955	30.99
408.162	30.6
408.369	30.66
408.575	30.97
408.782	30.98
408.989	31.02
409.195	31.43
409.402	31.24
409.609	31.28
409.815	31.27
410.022	30.86
410.228	30.97
410.435	31.21
410.642	31.31
410.848	31.3
411.055	31.48
411.261	31.33
411.468	31.29
411.674	31.52
411.881	31.11
412.087	30.88
412.294	31.14
412.5	30.85
412.706	30.76
412.913	30.69
413.119	30.35
413.326	30.16
413.532	30.23
413.738	30.39
413.945	30.55
414.151	30.89
414.357	31.04
414.564	30.99
414.77	31.15
414.976	31.07
415.182	30.86
415.389	30.93
415.595	30.78
415.801	30.87
416.007	30.79
416.214	30.3
416.42	30.14
416.626	29.89
416.832	29.91
417.038	29.78
417.244	29.81
417.45	29.69
417.657	29.76
417.863	29.87
418.069	29.61
418.275	29.45
418.481	29.55
418.687	29.57
418.893	29.73
419.099	29.76
419.305	29.78
419.511	29.55
419.717	29.71
419.923	29.79
420.129	29.7
420.335	29.8
420.541	29.65
420.746	29.59
420.952	29.53
421.158	29.37
421.364	29.29
421.57	29.21
421.776	29.28
421.982	29.28
422.187	29.23
422.393	29.24
422.599	29.13
422.805	29.21
423.01	29.15
423.216	29.23
423.422	29.19
423.628	29.08
423.833	28.99
424.039	29
424.245	28.95
424.45	28.77
424.656	28.74
424.862	28.74
425.067	28.81
425.273	28.84
425.478	28.8
425.684	28.73
425.889	28.77
426.095	28.82
426.301	28.78
426.506	28.72
426.712	28.76
426.917	28.64
427.123	28.61
427.328	28.44
427.533	28.31
427.739	28.27
427.944	28.34
428.15	28.31
428.355	28.16
428.561	28.01
428.766	27.65
428.971	27.78
429.177	27.67
429.382	27.62
429.587	27.6
429.793	27.91
429.998	27.98
430.203	27.92
430.408	27.86
430.614	28.02
430.819	28.1
431.024	28.42
431.229	28.48
431.434	28.74
431.64	28.63
431.845	28.78
432.05	28.59
432.255	28.38
432.46	28.4
432.665	28.52
432.87	28.34
433.076	28.35
433.281	28.21
433.486	28.24
433.691	28.38
433.896	28.46
434.101	28.32
434.306	28.35
434.511	28.46
434.716	28.51
434.921	28.49
435.126	28.7
435.331	28.57
435.535	28.6
435.74	28.37
435.945	28.25
436.15	28.3
436.355	28.36
436.56	28.36
436.765	28.68
436.97	28.55
437.174	28.36
437.379	28.17
437.584	28.34
437.789	28.39
437.993	28.43
438.198	28.26
438.403	28.2
438.608	28.28
438.812	28.33
439.017	28.09
439.222	28.21
439.426	28.12
439.631	28.33
439.836	28.38
440.04	28.36
440.245	28.35
440.45	28.42
440.654	28.52
440.859	28.51
441.063	28.42
441.268	28.34
441.472	28.41
441.677	28.43
441.881	28.32
442.086	28.04
442.29	28.26
442.495	28.28
442.699	28.22
442.904	28.23
443.108	28.04
443.312	28.09
443.517	28.21
443.721	28.11
443.925	28.11
444.13	28.06
444.334	28.16
444.538	27.94
444.743	27.96
444.947	27.97
445.151	27.93
445.356	27.99
445.56	27.93
445.764	27.73
445.968	27.73
446.173	27.92
446.377	27.94
446.581	27.94
446.785	27.96
446.989	28.02
447.193	28.07
447.398	27.9
447.602	27.88
447.806	27.89
448.01	27.99
448.214	28.01
448.418	27.88
448.622	28.05
448.826	28.12
449.03	27.95
449.234	27.76
449.438	27.63
449.642	27.62
449.846	27.45
450.05	27.31
450.254	27.54
450.458	27.42
450.662	27.37
450.866	27.17
451.069	27.14
451.273	27.03
451.477	27.07
451.681	26.88
451.885	27.07
452.089	27.16
452.292	27.24
452.496	26.99
452.7	26.88
452.904	27.07
453.107	27.03
453.311	27.16
453.515	27.37
453.719	27.38
453.922	27.68
454.126	27.61
454.33	27.91
454.533	27.99
454.737	28.04
454.94	28.1
455.144	28.02
455.348	27.91
455.551	27.65
455.755	27.65
455.958	27.64
456.162	27.52
456.365	27.59
456.569	27.39
456.772	27.29
456.976	27.32
457.179	27.33
457.383	27.19
457.586	27.2
457.79	27.16
457.993	27.1
458.196	26.95
458.4	26.98
458.603	26.95
458.807	27.09
459.01	27.07
459.213	27.06
