Data from 2937855_Reflection_1.txt Node
Date: Wed Jul 15 15:43:23 EDT 2015
User: robert
Spectrometer: USB4E03001
Autoset integration time: false
Trigger mode: 4
Integration Time (sec): 1.000000E-1
Scans to average: 10
Electric dark correction enabled: true
Nonlinearity correction enabled: false
Boxcar width: 5
Stray light correction enabled: false
XAxis mode: Wavelengths
Stop averaging: false
Number of Pixels in Spectrum: 3648
>>>>>Begin Spectral Data<<<<<
177.566	-163.61
177.785	-2682.86
178.005	221.37
178.225	191.01
178.445	395.92
178.665	354.12
178.885	-17.75
179.105	-431.47
179.324	1523.46
179.544	-765.85
179.764	-3305
179.984	478.19
180.204	519.21
180.423	137.35
180.643	146.9
180.863	173.21
181.083	167.56
181.302	146.52
181.522	177.9
181.742	196.67
181.961	156.15
182.181	108.46
182.401	145.46
182.621	100.61
182.84	122.76
183.06	121.74
183.279	118.85
183.499	120.96
183.719	100.55
183.938	58.63
184.158	55.81
184.377	82.09
184.597	289.04
184.816	203.12
185.036	169.82
185.256	366.3
185.475	259.99
185.695	250.44
185.914	322.07
186.134	257.84
186.353	455.93
186.572	1516.16
186.792	439.84
187.011	392.73
187.231	226.99
187.45	261.95
187.67	359.1
187.889	428.7
188.108	642.41
188.328	431.27
188.547	698.45
188.766	44718.18
188.986	1131.91
189.205	412.14
189.424	246.27
189.644	304.37
189.863	419.94
190.082	370.7
190.302	452.23
190.521	238.08
190.74	266.62
190.959	222.99
191.178	125.63
191.398	118.02
191.617	178.95
191.836	388.05
192.055	-262.46
192.274	-179.32
192.494	547.57
192.713	148.55
192.932	105.1
193.151	81.79
193.37	92.41
193.589	109.59
193.808	111.93
194.027	57.66
194.246	58.47
194.465	67.48
194.685	56.81
194.904	97.83
195.123	500.55
195.342	-582
195.561	-140.17
195.78	-65.5
195.999	-9.06
196.218	69.13
196.436	35.83
196.655	-4570.59
196.874	48.98
197.093	52.21
197.312	55.53
197.531	150.48
197.75	31.82
197.969	-56.32
198.188	-84.14
198.407	-41.3
198.625	7.9
198.844	-19.05
199.063	-6.95
199.282	-5.2
199.501	-64.55
199.719	-79.65
199.938	-145.43
200.157	-110.87
200.376	-22.38
200.594	-31.48
200.813	-119.3
201.032	215.85
201.251	271.9
201.469	7374.32
201.688	431.57
201.907	416.15
202.125	156.17
202.344	157.92
202.563	133.96
202.781	76.68
203	164.84
203.218	130.64
203.437	1550.23
203.656	845.51
203.874	86.56
204.093	74.88
204.311	187.66
204.53	378.64
204.748	213.51
204.967	119.26
205.185	81.3
205.404	72.89
205.622	76
205.841	51.41
206.059	47.55
206.278	54.18
206.496	78.2
206.715	27.78
206.933	-8.25
207.151	66.08
207.37	-32.57
207.588	-164.27
207.806	-131.92
208.025	-198.68
208.243	-218.57
208.461	992.44
208.68	454.28
208.898	-1266.14
209.116	-339.49
209.335	320.65
209.553	236.09
209.771	222.88
209.989	410.93
210.208	669.61
210.426	-2921.01
210.644	-209.64
210.862	-126.13
211.081	-288.62
211.299	-985.75
211.517	-419.67
211.735	-159.48
211.953	-30.31
212.171	-5.28
212.39	8.35
212.608	-15.73
212.826	-70.2
213.044	-317.94
213.262	1531.41
213.48	-56.42
213.698	-210.32
213.916	-1760.56
214.134	-469.66
214.352	-5347.93
214.57	759.85
214.788	765.4
215.006	795.86
215.224	-1305.03
215.442	160.05
215.66	98.72
215.878	99.17
216.096	57.6
216.314	984.06
216.532	81.72
216.75	98.65
216.968	108.84
217.185	117.65
217.403	148.51
217.621	107.28
217.839	123.31
218.057	144.34
218.275	136.56
218.492	155.98
218.71	123.26
218.928	92.68
219.146	125.68
219.363	90.55
219.581	43.85
219.799	103.91
220.017	-1973.91
220.234	-22.96
220.452	-64.37
220.67	-677.82
220.887	-680.64
221.105	-2956.72
221.323	-426.96
221.54	811.6
221.758	543.83
221.976	341.17
222.193	287.41
222.411	228.54
222.629	152.28
222.846	84.01
223.064	77.1
223.281	77.37
223.499	57.07
223.716	37.26
223.934	24.89
224.151	54.61
224.369	46.34
224.586	31.12
224.804	12.13
225.021	4.05
225.239	52.7
225.456	31.87
225.674	15.65
225.891	96.67
226.108	107.22
226.326	46.61
226.543	22.95
226.76	5.79
226.978	2.31
227.195	10.43
227.413	12.64
227.63	21.13
227.847	27.32
228.064	34.38
228.282	32.28
228.499	36.08
228.716	28.52
228.934	25.36
229.151	26.87
229.368	26.84
229.585	28.02
229.802	29.48
230.02	23.63
230.237	21.37
230.454	19.38
230.671	22.32
230.888	21.45
231.105	23.06
231.323	22.98
231.54	19.78
231.757	23.43
231.974	24.53
232.191	23
232.408	29.79
232.625	32.35
232.842	31.14
233.059	33.03
233.276	33.81
233.493	33.37
233.71	41.79
233.927	42.58
234.144	42.61
234.361	36.74
234.578	38.65
234.795	39.55
235.012	39.7
235.229	38.73
235.446	35.84
235.663	35.86
235.879	42.31
236.096	35.96
236.313	38.96
236.53	33.23
236.747	35.14
236.964	30.51
237.181	30.17
237.397	24.61
237.614	25.83
237.831	31.08
238.048	26.91
238.264	21.69
238.481	24.59
238.698	22.82
238.915	27.98
239.131	32.22
239.348	35.15
239.565	31.95
239.781	31.89
239.998	34.46
240.215	30.23
240.431	30.03
240.648	30.04
240.865	25.95
241.081	26.54
241.298	23.36
241.514	23.54
241.731	24.7
241.947	22.23
242.164	20.78
242.38	20.63
242.597	23.29
242.814	22.49
243.03	23.17
243.246	24.32
243.463	24.04
243.679	24.27
243.896	23.82
244.112	22.73
244.329	25.04
244.545	28.68
244.762	27.83
244.978	25.72
245.194	25.56
245.411	23.68
245.627	22.67
245.843	23.2
246.06	23.02
246.276	22
246.492	22.22
246.709	22.9
246.925	21.46
247.141	20.87
247.357	20.1
247.574	20.05
247.79	19.94
248.006	19.74
248.222	19.16
248.439	19.26
248.655	19.27
248.871	17.23
249.087	17.2
249.303	15.92
249.519	16.03
249.736	17.59
249.952	16.7
250.168	18.2
250.384	18.12
250.6	20.29
250.816	19.1
251.032	19.46
251.248	23.54
251.464	22.74
251.68	24.68
251.896	25.29
252.112	22.78
252.328	24.47
252.544	23.18
252.76	23.65
252.976	23.65
253.192	24.77
253.408	25.91
253.624	26.29
253.84	25.43
254.056	25.35
254.272	24.71
254.487	24.88
254.703	23.16
254.919	21.24
255.135	19.81
255.351	14.2
255.567	13.66
255.782	13.38
255.998	10.01
256.214	8.78
256.43	11.57
256.646	14.33
256.861	17.27
257.077	17.91
257.293	19.08
257.508	20.7
257.724	20.99
257.94	20.3
258.155	18.01
258.371	16.79
258.587	16.01
258.802	13.96
259.018	12.81
259.234	12.22
259.449	12.8
259.665	13.2
259.88	13.76
260.096	14.14
260.312	13.15
260.527	13.25
260.743	13.83
260.958	14.46
261.174	15.84
261.389	15.39
261.605	15.9
261.82	16.18
262.036	15.59
262.251	15.21
262.466	14.91
262.682	17.42
262.897	18.85
263.113	19.19
263.328	20.07
263.543	17.45
263.759	19.39
263.974	18.89
264.189	19.42
264.405	20.06
264.62	21.38
264.835	20.35
265.051	18.72
265.266	16.22
265.481	16.94
265.696	17.12
265.912	18.66
266.127	17.79
266.342	16.19
266.557	16.36
266.773	16.46
266.988	14.74
267.203	15.02
267.418	15.01
267.633	15.72
267.848	15.05
268.064	13.2
268.279	14.36
268.494	15.08
268.709	15.19
268.924	13.39
269.139	15.38
269.354	14.43
269.569	15.97
269.784	16.47
269.999	16.22
270.214	17.77
270.429	18.76
270.644	16.9
270.859	15.88
271.074	17.09
271.289	18.14
271.504	16.88
271.719	18.22
271.934	16.44
272.149	15.71
272.363	15.76
272.578	14.77
272.793	15.31
273.008	15.51
273.223	16.07
273.438	16.58
273.653	15.82
273.867	15.27
274.082	15.01
274.297	16.54
274.512	18.32
274.726	18.62
274.941	16.51
275.156	16.25
275.371	16.95
275.585	18.2
275.8	18.15
276.015	18.07
276.229	17.03
276.444	16.67
276.659	17.12
276.873	15.59
277.088	15.69
277.302	18.72
277.517	17.66
277.732	17.79
277.946	17.78
278.161	16.18
278.375	16.63
278.59	18.55
278.804	17.75
279.019	14.72
279.233	14.78
279.448	15.62
279.662	14.13
279.877	13.1
280.091	13.5
280.306	12.96
280.52	12.34
280.735	12.77
280.949	12.17
281.163	13.14
281.378	14.73
281.592	14.62
281.806	12.97
282.021	13.46
282.235	14.69
282.449	13.78
282.664	13.05
282.878	14.78
283.092	15.58
283.307	17.4
283.521	17.6
283.735	18.11
283.949	18.03
284.164	19.85
284.378	19.39
284.592	19.32
284.806	18.92
285.02	20.81
285.234	19.71
285.449	17.51
285.663	16.1
285.877	15.87
286.091	15.92
286.305	16.46
286.519	15.41
286.733	16.17
286.947	17.07
287.161	18.49
287.375	17.07
287.589	17.81
287.803	19.44
288.017	20.08
288.231	20.34
288.445	20.51
288.659	20.74
288.873	22.09
289.087	20.83
289.301	19.83
289.515	19.96
289.729	20.22
289.943	19.62
290.157	19.35
290.371	19.23
290.584	19.01
290.798	18.2
291.012	18.81
291.226	17.24
291.44	18.11
291.654	18.88
291.867	19.42
292.081	18.43
292.295	19.09
292.509	19.11
292.722	19.87
292.936	20.06
293.15	19.82
293.364	18.73
293.577	19.02
293.791	19
294.005	19.45
294.218	17.12
294.432	19.32
294.645	19.49
294.859	18.92
295.073	19.04
295.286	18.72
295.5	19.45
295.713	20.63
295.927	20.86
296.14	20.58
296.354	20.09
296.568	21.31
296.781	19.62
296.994	19.34
297.208	20.78
297.421	19.23
297.635	19.93
297.848	19.19
298.062	18.91
298.275	19.26
298.489	19.82
298.702	19.35
298.915	18.3
299.129	19.45
299.342	19.26
299.555	18.11
299.769	19.39
299.982	20.96
300.195	22.35
300.409	22.02
300.622	20.74
300.835	21.55
301.048	22.46
301.262	24.25
301.475	23.99
301.688	26.37
301.901	27.36
302.115	27.27
302.328	25.13
302.541	26.08
302.754	25.35
302.967	26.15
303.18	26.31
303.393	25.14
303.607	24.56
303.82	24.31
304.033	23.3
304.246	23.47
304.459	24.92
304.672	25.12
304.885	23.61
305.098	24.39
305.311	25.51
305.524	24.67
305.737	24.37
305.95	24.25
306.163	24.35
306.376	23.33
306.589	23.09
306.802	22.78
307.015	23.04
307.228	24.41
307.44	24.31
307.653	24.83
307.866	24.59
308.079	26.18
308.292	24.8
308.505	24.72
308.718	23.88
308.93	23.17
309.143	22.52
309.356	22.18
309.569	21.47
309.781	21.68
309.994	20.13
310.207	19.97
310.42	19.99
310.632	20.08
310.845	19.85
311.058	22.01
311.27	22.24
311.483	22.66
311.696	22.93
311.908	23.08
312.121	22.89
312.333	24.99
312.546	25.73
312.759	25.06
312.971	26.41
313.184	25.46
313.396	22.78
313.609	22.51
313.821	22.31
314.034	22.14
314.246	21.83
314.459	22.05
314.671	21.91
314.884	20.17
315.096	21.72
315.309	21.98
315.521	22.51
315.733	24.05
315.946	24.72
316.158	24.06
316.371	24.3
316.583	25.83
316.795	25.43
317.008	24.71
317.22	26.1
317.432	24.93
317.644	24.23
317.857	23.2
318.069	21.84
318.281	20.79
318.494	22.4
318.706	22.7
318.918	20.02
319.13	20.72
319.342	19.68
319.555	19.4
319.767	19.57
319.979	18.79
320.191	21.01
320.403	22.54
320.615	22.73
320.827	20.46
321.039	20.43
321.252	21.19
321.464	22.44
321.676	23.6
321.888	22.62
322.1	21.39
322.312	21.19
322.524	20.5
322.736	21.56
322.948	22.25
323.16	21.97
323.372	20.9
323.584	21.81
323.796	21.95
324.007	20.5
324.219	21.48
324.431	22.36
324.643	23.19
324.855	22.65
325.067	22.22
325.279	22.04
325.491	22.05
325.702	21.79
325.914	21.41
326.126	19.52
326.338	21.25
326.55	21.1
326.761	19.34
326.973	19.64
327.185	20.38
327.396	20.41
327.608	21.34
327.82	21.7
328.032	23.15
328.243	23.29
328.455	23.25
328.666	22.13
328.878	21.87
329.09	23.8
329.301	22.8
329.513	22.69
329.725	23.73
329.936	22.44
330.148	23.29
330.359	21.74
330.571	21.68
330.782	23.2
330.994	23.45
331.205	22.76
331.417	23.08
331.628	24.39
331.84	25.54
332.051	24.51
332.262	24.81
332.474	24.13
332.685	25.75
332.897	25.71
333.108	25.04
333.319	24.75
333.531	25.81
333.742	25.81
333.953	24.67
334.165	23.6
334.376	23.67
334.587	22.35
334.799	23.71
335.01	22.82
335.221	22.19
335.432	21.79
335.644	21.22
335.855	21.52
336.066	23.31
336.277	23.3
336.488	24.07
336.7	23.92
336.911	23.86
337.122	21.83
337.333	23.08
337.544	24.88
337.755	24.08
337.966	23.52
338.177	22.51
338.388	21.3
338.599	22.43
338.811	21.56
339.022	21.2
339.233	22.28
339.444	23.73
339.655	23.22
339.866	21.95
340.076	23.38
340.287	24.2
340.498	25.56
340.709	24.92
340.92	23.56
341.131	23.55
341.342	23.03
341.553	23.91
341.764	23.64
341.975	23.91
342.185	23.81
342.396	23.92
342.607	23.95
342.818	23.85
343.029	23.9
343.239	24.18
343.45	24.21
343.661	24.85
343.872	25.38
344.082	25.84
344.293	24.73
344.504	23.81
344.714	23.5
344.925	24.43
345.136	23.69
345.346	23.19
345.557	23.09
345.768	23.18
345.978	22.89
346.189	20.97
346.399	21.66
346.61	21.68
346.821	23.13
347.031	22.18
347.242	22.42
347.452	22.43
347.663	22.63
347.873	24.35
348.084	25.01
348.294	25.26
348.504	24.86
348.715	23.71
348.925	24.52
349.136	24.1
349.346	24.03
349.557	22.3
349.767	23.21
349.977	23.89
350.188	23.09
350.398	22.19
350.608	22.62
350.819	23.18
351.029	22.19
351.239	21.71
351.449	21.47
351.66	22.6
351.87	23.05
352.08	22.83
352.29	22.98
352.501	21.05
352.711	21.52
352.921	21.24
353.131	21.22
353.341	22.68
353.552	21.89
353.762	22.36
353.972	21.99
354.182	21.45
354.392	20.9
354.602	21.88
354.812	22.54
355.022	22.67
355.232	23.03
355.442	24.37
355.652	22.91
355.862	23.12
356.072	22.2
356.282	22.33
356.492	23.22
356.702	22.46
356.912	21.11
357.122	22.09
357.332	22.12
357.542	22.04
357.752	20.86
357.962	20.66
358.171	20.98
358.381	20.63
358.591	20.17
358.801	19.99
359.011	20.43
359.221	20.67
359.43	20.14
359.64	19.82
359.85	19.02
360.06	18.66
360.269	19.02
360.479	19.14
360.689	19.47
360.899	20.43
361.108	19.84
361.318	20.05
361.528	20.36
361.737	19.58
361.947	19.91
362.156	19.87
362.366	20.07
362.576	20.02
362.785	20.23
362.995	19.88
363.204	19.02
363.414	18.42
363.623	18.31
363.833	17.61
364.042	18
364.252	17.44
364.461	17.71
364.671	18.71
364.88	18.92
365.09	18.95
365.299	19.82
365.509	20.33
365.718	20.72
365.927	20.51
366.137	19.91
366.346	20.54
366.555	19.8
366.765	19.19
366.974	19.19
367.183	18.35
367.393	17.31
367.602	16.36
367.811	16.22
368.021	16.36
368.23	16.49
368.439	16.7
368.648	15.91
368.857	16.44
369.067	17.05
369.276	15.8
369.485	16.99
369.694	16.58
369.903	17.03
370.112	16.06
370.321	15.9
370.531	14.83
370.74	14.53
370.949	14.55
371.158	14.69
371.367	14.31
371.576	14.69
371.785	13.98
371.994	14.9
372.203	14.98
372.412	15.41
372.621	16.17
372.83	17.51
373.039	17.42
373.248	16.97
373.457	16.26
373.666	15.66
373.874	15.7
374.083	16.49
374.292	16.15
374.501	16.72
374.71	16.52
374.919	16.29
375.128	15.79
375.336	15.84
375.545	15.84
375.754	16.21
375.963	17.07
376.171	17.29
376.38	17.19
376.589	16.66
376.798	15.92
377.006	16.14
377.215	15.91
377.424	16.19
377.632	16.42
377.841	16.12
378.05	15.99
378.258	15.39
378.467	15.44
378.675	14.62
378.884	15.16
379.093	14.75
379.301	14.42
379.51	14.01
379.718	13.84
379.927	13.34
380.135	13.89
380.344	14.33
380.552	14.65
380.761	14.3
380.969	14.8
381.177	14.33
381.386	14.91
381.594	14.83
381.803	15.19
382.011	14.29
382.219	14.68
382.428	14.85
382.636	14.53
382.845	14.41
383.053	13.9
383.261	13.52
383.469	13.74
383.678	13.54
383.886	13.91
384.094	14.15
384.302	14.2
384.511	13.87
384.719	13.4
384.927	13.52
385.135	13.41
385.343	13.63
385.552	13.72
385.76	13.31
385.968	13.06
386.176	12.63
386.384	12.01
386.592	12.48
386.8	12.34
387.008	12.12
387.216	11.83
387.424	11.65
387.633	11.52
387.841	11.65
388.049	11.76
388.257	11.67
388.465	11.51
388.672	11.56
388.88	11.53
389.088	11.68
389.296	11.77
389.504	11.52
389.712	11.33
389.92	10.8
390.128	10.19
390.336	10.15
390.544	10.25
390.751	10.4
390.959	10.39
391.167	10.14
391.375	10.08
391.583	10.18
391.79	10.19
391.998	10.28
392.206	10.62
392.414	10.85
392.621	10.8
392.829	10.73
393.037	10.62
393.244	10.79
393.452	10.99
393.66	10.91
393.867	10.68
394.075	10.64
394.283	10.6
394.49	10.57
394.698	10.6
394.905	10.72
395.113	10.64
395.32	10.41
395.528	10.27
395.735	9.84
395.943	9.74
396.15	10.03
396.358	10.09
396.565	9.97
396.773	9.94
396.98	10.01
397.188	9.65
397.395	9.74
397.602	10.11
397.81	9.99
398.017	10.62
398.225	10.83
398.432	10.35
398.639	10.43
398.847	10.54
399.054	10.56
399.261	10.22
399.468	10.36
399.676	10.26
399.883	10.04
400.09	10.26
400.297	9.45
400.505	9.37
400.712	9.71
400.919	9.71
401.126	10.01
401.333	9.87
401.54	10.29
401.748	10.12
401.955	10.17
402.162	10.1
402.369	9.66
402.576	10.3
402.783	10.33
402.99	10.19
403.197	9.95
403.404	9.66
403.611	9.54
403.818	9.48
404.025	9.47
404.232	9.45
404.439	9.49
404.646	9.85
404.853	9.53
405.06	9.36
405.267	9.33
405.474	9.51
405.681	9.5
405.887	9.5
406.094	9.21
406.301	9.41
406.508	9.52
406.715	9.58
406.922	9.4
407.128	9.2
407.335	9
407.542	8.91
407.749	8.76
407.955	8.48
408.162	8.88
408.369	8.84
408.575	8.5
408.782	8.4
408.989	8.6
409.195	8.45
409.402	8.68
409.609	8.88
409.815	8.88
410.022	8.95
410.228	9.14
410.435	8.77
410.642	8.92
410.848	9.32
411.055	9.46
411.261	9.32
411.468	9.31
411.674	9.26
411.881	9.35
412.087	9.5
412.294	9.62
412.5	9.66
412.706	9.52
412.913	9.61
413.119	9.33
413.326	9.48
413.532	9.54
413.738	9.68
413.945	9.81
414.151	9.79
414.357	9.68
414.564	9.28
414.77	9.35
414.976	9.63
415.182	9.5
415.389	9.68
415.595	9.25
415.801	9.12
416.007	9.06
416.214	8.76
416.42	8.67
416.626	8.85
416.832	9.12
417.038	9.14
417.244	9.19
417.45	9.44
417.657	9.31
417.863	9.35
418.069	9.55
418.275	9.25
418.481	9.39
418.687	9.54
418.893	9.29
419.099	9.26
419.305	9.25
419.511	9.1
419.717	8.88
419.923	8.9
420.129	8.82
420.335	8.65
420.541	8.84
420.746	8.83
420.952	8.87
421.158	8.99
421.364	8.96
421.57	8.81
421.776	8.84
421.982	8.91
422.187	8.99
422.393	9.04
422.599	9.11
422.805	9.22
423.01	9.2
423.216	9.05
423.422	9.08
423.628	9.09
423.833	9.24
424.039	9.23
424.245	9.14
424.45	9.02
424.656	9.06
424.862	8.95
425.067	8.82
425.273	8.71
425.478	8.63
425.684	8.49
425.889	8.41
426.095	8.29
426.301	8.25
426.506	8.36
426.712	8.49
426.917	8.46
427.123	8.51
427.328	8.51
427.533	8.69
427.739	8.79
427.944	8.83
428.15	8.98
428.355	9.01
428.561	9.28
428.766	9.16
428.971	8.89
429.177	8.99
429.382	9.02
429.587	9.09
429.793	8.95
429.998	9.08
430.203	9.2
430.408	9.1
430.614	9.19
430.819	9.01
431.024	8.86
431.229	9.07
431.434	9.08
431.64	8.88
431.845	8.58
432.05	8.69
432.255	8.78
432.46	8.76
432.665	8.88
432.87	8.66
433.076	8.71
433.281	8.82
433.486	8.93
433.691	8.75
433.896	8.83
434.101	9.02
434.306	8.94
434.511	8.94
434.716	9.02
434.921	9
435.126	8.92
435.331	8.84
435.535	8.74
435.74	8.74
435.945	8.78
436.15	8.8
436.355	8.72
436.56	8.84
436.765	8.61
436.97	8.58
437.174	8.51
437.379	8.84
437.584	8.78
437.789	8.83
437.993	8.7
438.198	8.64
438.403	8.62
438.608	8.76
438.812	8.81
439.017	8.76
439.222	8.75
439.426	8.6
439.631	8.43
439.836	8.46
440.04	8.52
440.245	8.49
440.45	8.56
440.654	8.53
440.859	8.39
441.063	8.22
441.268	8.33
441.472	8.32
441.677	8.5
441.881	8.56
442.086	8.7
442.29	8.73
442.495	8.68
442.699	8.47
442.904	8.44
443.108	8.6
443.312	8.81
443.517	8.71
443.721	8.61
443.925	8.47
444.13	8.39
444.334	8.21
444.538	8.23
444.743	8.22
444.947	8.35
445.151	8.41
445.356	8.39
445.56	8.2
445.764	8.17
445.968	8.22
446.173	8.24
446.377	8.44
446.581	8.43
446.785	8.36
446.989	8.36
447.193	8.43
447.398	8.41
447.602	8.2
447.806	8.37
448.01	8.39
448.214	8.44
448.418	8.57
448.622	8.54
448.826	8.78
449.03	8.75
449.234	8.9
449.438	9.01
449.642	8.98
449.846	9.35
450.05	9.22
450.254	9.26
450.458	9.29
450.662	9.13
450.866	9.01
451.069	8.81
451.273	8.77
451.477	8.55
451.681	8.44
451.885	8.67
452.089	8.61
452.292	8.64
452.496	8.65
452.7	8.66
452.904	8.71
453.107	8.72
453.311	8.63
453.515	8.86
453.719	9.11
453.922	9.04
454.126	8.98
454.33	8.98
454.533	9.19
454.737	9.13
454.94	9.05
455.144	9.1
455.348	9
455.551	8.89
455.755	8.86
455.958	8.87
456.162	8.87
456.365	9
456.569	9.1
456.772	8.61
456.976	8.69
457.179	8.6
457.383	8.55
457.586	8.57
457.79	8.78
457.993	8.59
458.196	8.49
458.4	8.51
