Data from 2937812_Reflection_1.txt Node
Date: Wed Jul 15 17:44:19 EDT 2015
User: robert
Spectrometer: USB4E03001
Autoset integration time: false
Trigger mode: 4
Integration Time (sec): 1.000000E-1
Scans to average: 10
Electric dark correction enabled: true
Nonlinearity correction enabled: false
Boxcar width: 5
Stray light correction enabled: false
XAxis mode: Wavelengths
Stop averaging: false
Number of Pixels in Spectrum: 3648
>>>>>Begin Spectral Data<<<<<
177.566	-213.19
177.785	-18066.67
178.005	-60.58
178.225	-106.45
178.445	-61.56
178.665	12.96
178.885	121.35
179.105	449.31
179.324	1045.25
179.544	-140.12
179.764	-18.59
179.984	-124.59
180.204	1282.99
180.423	-248.31
180.643	3468.12
180.863	68.21
181.083	-218.75
181.302	-128.85
181.522	-98.94
181.742	-134.1
181.961	-166.43
182.181	-151.46
182.401	-508.59
182.621	-240.34
182.84	1122.51
183.06	2610.62
183.279	-54.8
183.499	-21.71
183.719	-2.58
183.938	25.09
184.158	51.45
184.377	102.47
184.597	100.15
184.816	94.24
185.036	80.17
185.256	68.05
185.475	64.48
185.695	70.76
185.914	61.15
186.134	38.96
186.353	38.82
186.572	35.57
186.792	27.93
187.011	33.21
187.231	34.35
187.45	31.72
187.67	15.41
187.889	14.57
188.108	41.18
188.328	35.02
188.547	82.5
188.766	141.99
188.986	491.89
189.205	-460.63
189.424	-556.34
189.644	1338.15
189.863	130.38
190.082	454.71
190.302	386.25
190.521	114.42
190.74	886.32
190.959	-546.73
191.178	980.2
191.398	-364.08
191.617	-56.25
191.836	-47.02
192.055	-83.23
192.274	-3.39
192.494	-7.5
192.713	68.25
192.932	96.16
193.151	156.11
193.37	422.22
193.589	152.14
193.808	256.6
194.027	-80.71
194.246	314.82
194.465	257.14
194.685	78.93
194.904	-124.07
195.123	797.01
195.342	902.71
195.561	724.3
195.78	-297.99
195.999	-291.13
196.218	753.26
196.436	207.29
196.655	220.31
196.874	230.87
197.093	260.63
197.312	1716.44
197.531	-184.11
197.75	131.17
197.969	65.59
198.188	33.86
198.407	-14.53
198.625	-134.33
198.844	-584.5
199.063	3302.08
199.282	182.43
199.501	-1241.04
199.719	51.08
199.938	143.57
200.157	207.48
200.376	46.92
200.594	-84.16
200.813	-56
201.032	-33.12
201.251	-58.96
201.469	84.04
201.688	-1103.37
201.907	748.46
202.125	-1631.86
202.344	561.15
202.563	418.8
202.781	227.89
203	136.16
203.218	141.18
203.437	128.29
203.656	156.56
203.874	162.23
204.093	84.2
204.311	74.26
204.53	64.28
204.748	50.9
204.967	23.92
205.185	54.52
205.404	102.29
205.622	81.75
205.841	-375.04
206.059	-140.14
206.278	-79.3
206.496	35.55
206.715	88.1
206.933	114.57
207.151	58.11
207.37	381.97
207.588	203.1
207.806	23.01
208.025	34.35
208.243	143.49
208.461	192.09
208.68	310.06
208.898	-64.81
209.116	32.83
209.335	108.34
209.553	1029.21
209.771	86.6
209.989	101.39
210.208	41.29
210.426	54.77
210.644	-31.76
210.862	39.89
211.081	39.84
211.299	53.66
211.517	85.98
211.735	126.8
211.953	177.77
212.171	165.62
212.39	104.73
212.608	58.88
212.826	112.82
213.044	150.96
213.262	410.57
213.48	288.69
213.698	97850
213.916	143.26
214.134	140.66
214.352	648.8
214.57	424.64
214.788	-3654
215.006	1869.66
215.224	-576.93
215.442	-1666.1
215.66	-628.6
215.878	-171.05
216.096	-44.44
216.314	-148.68
216.532	-4.8
216.75	6.59
216.968	-1.32
217.185	-50.54
217.403	-23.49
217.621	-42.48
217.839	-125.77
218.057	-1192.06
218.275	299.38
218.492	156.84
218.71	183.23
218.928	153.43
219.146	135.27
219.363	125.65
219.581	108.86
219.799	105.05
220.017	74.36
220.234	47.65
220.452	59.54
220.67	98.46
220.887	6.31
221.105	-66.63
221.323	16.05
221.54	-182.39
221.758	555.47
221.976	526.45
222.193	-329.97
222.411	187.9
222.629	248.6
222.846	154.88
223.064	142.57
223.281	205.28
223.499	195.17
223.716	199.16
223.934	72.95
224.151	-256.53
224.369	280.17
224.586	992.68
224.804	-496.26
225.021	-259.35
225.239	-93.74
225.456	-31.35
225.674	-5.62
225.891	30.1
226.108	27.24
226.326	15.74
226.543	17.99
226.76	31.45
226.978	24.02
227.195	20.8
227.413	39.88
227.63	20.24
227.847	34.19
228.064	34.7
228.282	30.61
228.499	29.02
228.716	29.79
228.934	24.22
229.151	24.57
229.368	24.81
229.585	25.1
229.802	23.98
230.02	25.67
230.237	22.43
230.454	25.15
230.671	22.09
230.888	20.72
231.105	21.46
231.323	26.65
231.54	26.04
231.757	28.78
231.974	29.36
232.191	27.57
232.408	23.39
232.625	17.21
232.842	11.2
233.059	19.94
233.276	25.11
233.493	18.27
233.71	13.61
233.927	18.02
234.144	12.6
234.361	5.59
234.578	1.7
234.795	5.15
235.012	2.35
235.229	3.98
235.446	-0.76
235.663	-10.7
235.879	-15.53
236.096	-15.98
236.313	-30.24
236.53	-22.72
236.747	-14.6
236.964	-11.58
237.181	-17.03
237.397	-14.19
237.614	-13.8
237.831	-18.1
238.048	-1.72
238.264	13.05
238.481	17.78
238.698	21.75
238.915	25.03
239.131	21.04
239.348	16.84
239.565	22.1
239.781	16.45
239.998	12.85
240.215	15.47
240.431	2.42
240.648	1.72
240.865	-5.99
241.081	1.08
241.298	-1.89
241.514	1.35
241.731	3.02
241.947	5.38
242.164	7.52
242.38	7
242.597	12.11
242.814	15.57
243.03	14.41
243.246	17.85
243.463	15.83
243.679	15.81
243.896	12.81
244.112	12.63
244.329	12.1
244.545	15.02
244.762	15.43
244.978	10.87
245.194	10.94
245.411	11.2
245.627	13.66
245.843	16.66
246.06	17.93
246.276	20.32
246.492	21.37
246.709	19.37
246.925	17.24
247.141	17.76
247.357	18.06
247.574	18.47
247.79	17.56
248.006	17.47
248.222	16.24
248.439	17.22
248.655	15.66
248.871	13.53
249.087	13.75
249.303	12.45
249.519	10.39
249.736	9.43
249.952	7
250.168	6.15
250.384	1.56
250.6	2.22
250.816	-2.92
251.032	1.06
251.248	0.32
251.464	2.93
251.68	5.36
251.896	7.07
252.112	7.12
252.328	7.16
252.544	8.19
252.76	7.21
252.976	8.37
253.192	8.69
253.408	6.95
253.624	8
253.84	3.91
254.056	3.65
254.272	1.47
254.487	0.68
254.703	-0.45
254.919	0.1
255.135	4.51
255.351	0.42
255.567	2.23
255.782	2.32
255.998	6.97
256.214	8.83
256.43	5.78
256.646	2.65
256.861	-1.16
257.077	-2.9
257.293	-2.01
257.508	-3.94
257.724	-3.18
257.94	-0.29
258.155	-0.47
258.371	-1.55
258.587	0.36
258.802	4.56
259.018	6.78
259.234	9.71
259.449	10.75
259.665	12.31
259.88	13
260.096	13.17
260.312	11.7
260.527	12.79
260.743	12.92
260.958	12.66
261.174	11.29
261.389	12.11
261.605	11.12
261.82	10.47
262.036	9.27
262.251	7.43
262.466	6.5
262.682	7.45
262.897	6.01
263.113	4.73
263.328	3.48
263.543	4.49
263.759	4.26
263.974	5.04
264.189	6.69
264.405	5.99
264.62	5.9
264.835	7.16
265.051	6.66
265.266	7.37
265.481	6.58
265.696	9.6
265.912	10.19
266.127	8.5
266.342	7.52
266.557	5.65
266.773	5.14
266.988	6.73
267.203	7.3
267.418	6.37
267.633	5.57
267.848	6.27
268.064	4.09
268.279	3.81
268.494	4.61
268.709	5.36
268.924	7.14
269.139	7.29
269.354	6.29
269.569	4.28
269.784	4.92
269.999	6.23
270.214	6.77
270.429	6.72
270.644	5.35
270.859	6.16
271.074	8.14
271.289	6.39
271.504	6.87
271.719	7.78
271.934	9.62
272.149	10.33
272.363	9.61
272.578	9.16
272.793	9.83
273.008	11.28
273.223	11.5
273.438	9.73
273.653	11.26
273.867	11.53
274.082	12.62
274.297	11.61
274.512	11.11
274.726	10.14
274.941	10.89
275.156	10.61
275.371	10.32
275.585	8.16
275.8	6.92
276.015	7.38
276.229	5.73
276.444	4.32
276.659	4.11
276.873	3.8
277.088	2.48
277.302	1.91
277.517	0.5
277.732	-2.65
277.946	-2.47
278.161	2.66
278.375	1.29
278.59	2.77
278.804	-0.84
279.019	-3.34
279.233	-2.71
279.448	-0.33
279.662	-0.08
279.877	0.94
280.091	3.91
280.306	5.55
280.52	1.82
280.735	1.43
280.949	0.21
281.163	4.15
281.378	6.2
281.592	8.08
281.806	8.84
282.021	9.06
282.235	9.53
282.449	9.83
282.664	8.85
282.878	9.69
283.092	10.85
283.307	11.43
283.521	12.08
283.735	11.01
283.949	8.6
284.164	9.41
284.378	9.08
284.592	9.57
284.806	10.09
285.02	10.95
285.234	10.39
285.449	10.44
285.663	9.27
285.877	7.54
286.091	7.83
286.305	8.78
286.519	7.67
286.733	7.95
286.947	7.17
287.161	6.32
287.375	6.14
287.589	6.31
287.803	5.77
288.017	7.18
288.231	6.41
288.445	7.87
288.659	9.11
288.873	10.76
289.087	11.27
289.301	12.12
289.515	13.82
289.729	13.83
289.943	12.21
290.157	12.93
290.371	11.09
290.584	14.85
290.798	13.14
291.012	12.48
291.226	12.28
291.44	11.63
291.654	11.28
291.867	10.68
292.081	9.36
292.295	12.09
292.509	12.25
292.722	14.2
292.936	10.77
293.15	13.4
293.364	12.73
293.577	12.13
293.791	11.7
294.005	10.57
294.218	7.44
294.432	9.2
294.645	8
294.859	7.34
295.073	8.07
295.286	8.9
295.5	8.68
295.713	8.83
295.927	8.2
296.14	8.04
296.354	9.03
296.568	10.95
296.781	10.98
296.994	10.91
297.208	11.32
297.421	10.73
297.635	9.74
297.848	8.82
298.062	8.66
298.275	8.96
298.489	10.99
298.702	10.89
298.915	10.9
299.129	11.49
299.342	12.85
299.555	13.13
299.769	13.53
299.982	15.43
300.195	15.63
300.409	15.27
300.622	14.3
300.835	13.12
301.048	13.1
301.262	13.48
301.475	11.74
301.688	10.48
301.901	9.58
302.115	10
302.328	10.69
302.541	12.72
302.754	14.74
302.967	14.7
303.18	14.96
303.393	14.6
303.607	15.11
303.82	18.2
304.033	18.28
304.246	17.72
304.459	16.63
304.672	15.29
304.885	14.48
305.098	13.24
305.311	14.15
305.524	13.8
305.737	14.1
305.95	12.77
306.163	10.16
306.376	10.95
306.589	11
306.802	10.51
307.015	10.78
307.228	9.93
307.44	9.56
307.653	11.53
307.866	9.79
308.079	11.33
308.292	11.02
308.505	12.13
308.718	12.33
308.93	10.75
309.143	12.43
309.356	12.43
309.569	11.82
309.781	13.11
309.994	10.9
310.207	12.39
310.42	11.03
310.632	11.37
310.845	10.99
311.058	9.61
311.27	11.84
311.483	12.13
311.696	11.38
311.908	12.51
312.121	11.37
312.333	10.54
312.546	9.37
312.759	9.58
312.971	10.15
313.184	10.27
313.396	12.23
313.609	10.24
313.821	9.54
314.034	10.53
314.246	7.55
314.459	6.78
314.671	8.73
314.884	10.66
315.096	10.79
315.309	7.33
315.521	7.27
315.733	6.94
315.946	7.04
316.158	6.38
316.371	7.06
316.583	10.45
316.795	10.7
317.008	9.92
317.22	9.22
317.432	8.17
317.644	11.37
317.857	9.85
318.069	8.33
318.281	7.53
318.494	6.37
318.706	6.94
318.918	7.21
319.13	7
319.342	8.19
319.555	5.96
319.767	7.91
319.979	6.81
320.191	7.88
320.403	6.14
320.615	9.65
320.827	9.5
321.039	9.37
321.252	10.05
321.464	12.49
321.676	11.28
321.888	14.13
322.1	11.57
322.312	10.42
322.524	9.87
322.736	12.52
322.948	9.92
323.16	11.16
323.372	8.02
323.584	7.8
323.796	5.63
324.007	6.27
324.219	4.29
324.431	6.69
324.643	8.11
324.855	10.37
325.067	10.45
325.279	11.6
325.491	12.14
325.702	14.11
325.914	13.66
326.126	15.08
326.338	14.42
326.55	15.61
326.761	14.21
326.973	14.01
327.185	12.19
327.396	10.77
327.608	13.48
327.82	14
328.032	12.45
328.243	12.84
328.455	11.96
328.666	12.34
328.878	12.67
329.09	12.9
329.301	10.95
329.513	9.08
329.725	9.85
329.936	8.23
330.148	8.38
330.359	9.7
330.571	8.34
330.782	8.47
330.994	10.79
331.205	10.76
331.417	11.15
331.628	12.41
331.84	15.08
332.051	15.86
332.262	14.85
332.474	13.28
332.685	13.74
332.897	13.5
333.108	12.84
333.319	11.02
333.531	11.32
333.742	12.21
333.953	14.24
334.165	13.76
334.376	14.61
334.587	14.42
334.799	16.75
335.01	16.77
335.221	17.79
335.432	18.04
335.644	18
335.855	16.15
336.066	15.2
336.277	13.33
336.488	14.19
336.7	14.15
336.911	16.29
337.122	15.3
337.333	15.91
337.544	15.47
337.755	16.65
337.966	16.71
338.177	17.9
338.388	17.71
338.599	18.44
338.811	16.95
339.022	16.46
339.233	14.25
339.444	12.94
339.655	12.01
339.866	12.9
340.076	13.48
340.287	13.22
340.498	12.17
340.709	12.04
340.92	11.37
341.131	11.95
341.342	11.55
341.553	12.54
341.764	12.31
341.975	11.86
342.185	12.05
342.396	10.54
342.607	12.26
342.818	13.64
343.029	14.53
343.239	14.25
343.45	13.62
343.661	12.74
343.872	12.84
344.082	14.72
344.293	14.4
344.504	14.94
344.714	15.1
344.925	14.22
345.136	14.86
345.346	14.64
345.557	16.41
345.768	15.91
345.978	17.57
346.189	16.42
346.399	14.87
346.61	14.9
346.821	14.13
347.031	14.64
347.242	13.47
347.452	13.06
347.663	14.5
347.873	12.77
348.084	14.91
348.294	13.94
348.504	14.58
348.715	16.18
348.925	17.36
349.136	17.78
349.346	15.73
349.557	16.81
349.767	16.22
349.977	14.54
350.188	15.75
350.398	14.85
350.608	13.85
350.819	12.58
351.029	11.64
351.239	11.99
351.449	11
351.66	11.26
351.87	10.94
352.08	9.88
352.29	8.63
352.501	7.92
352.711	7.84
352.921	7.8
353.131	8.66
353.341	8.79
353.552	8.07
353.762	8.66
353.972	10.49
354.182	10.27
354.392	14.03
354.602	15.44
354.812	14.77
355.022	15.73
355.232	16.24
355.442	16.57
355.652	16.33
355.862	15.96
356.072	15.64
356.282	15.56
356.492	15.41
356.702	13.05
356.912	12.47
357.122	13.28
357.332	12.9
357.542	13.57
357.752	14.25
357.962	14.17
358.171	13.81
358.381	13.63
358.591	13.41
358.801	13.76
359.011	13.4
359.221	14.16
359.43	14.63
359.64	14.74
359.85	14.67
360.06	13.36
360.269	13.94
360.479	13.29
360.689	13.22
360.899	12.56
361.108	12.6
361.318	12.85
361.528	11.98
361.737	12
361.947	11.74
362.156	11.05
362.366	11.71
362.576	10.77
362.785	10.61
362.995	11.34
363.204	11.2
363.414	10.87
363.623	10.58
363.833	11.19
364.042	11.71
364.252	12.48
364.461	12.91
364.671	13.62
364.88	14.29
365.09	15.45
365.299	14.09
365.509	14.75
365.718	15.39
365.927	16.32
366.137	16.36
366.346	14.61
366.555	12.99
366.765	13.38
366.974	12.16
367.183	11.55
367.393	11.95
367.602	11.17
367.811	11.05
368.021	10.21
368.23	8.76
368.439	8.1
368.648	8.71
368.857	8.78
369.067	7.72
369.276	7.26
369.485	8.21
369.694	7.08
369.903	8.31
370.112	8.57
370.321	9.05
370.531	9.62
370.74	10.58
370.949	10.25
371.158	10.55
371.367	9.97
371.576	11.12
371.785	10.47
371.994	10.42
372.203	10.59
372.412	10.47
372.621	10.88
372.83	10.51
373.039	9.95
373.248	9.88
373.457	9.59
373.666	10.78
373.874	10.35
374.083	9.9
374.292	9.7
374.501	9.24
374.71	8.83
374.919	7.62
375.128	7.53
375.336	7.99
375.545	8.17
375.754	7.74
375.963	7.23
376.171	6.5
376.38	7.13
376.589	7.41
376.798	7.48
377.006	7.49
377.215	8.18
377.424	8.71
377.632	7.98
377.841	8.33
378.05	8.88
378.258	9.39
378.467	9.56
378.675	9.53
378.884	9.17
379.093	9.42
379.301	9.46
379.51	9.93
379.718	10.5
379.927	11.17
380.135	10.68
380.344	10.9
380.552	11.34
380.761	11.81
380.969	11.79
381.177	11.94
381.386	11.71
381.594	11.17
381.803	11.55
382.011	11.11
382.219	11.65
382.428	11.63
382.636	11.57
382.845	10.75
383.053	10.54
383.261	10.34
383.469	10.81
383.678	11.01
383.886	10.94
384.094	10.09
384.302	10.01
384.511	9.07
384.719	9.34
384.927	9.56
385.135	9.34
385.343	9.47
385.552	9.42
385.76	9.04
385.968	8.48
386.176	8.71
386.384	8.45
386.592	8.11
386.8	8.04
387.008	7.61
387.216	7.32
387.424	7.26
387.633	6.76
387.841	6.8
388.049	7.2
388.257	7.45
388.465	7.72
388.672	7.72
388.88	7.9
389.088	8.06
389.296	8.01
389.504	7.73
389.712	8.19
389.92	8.66
390.128	8.71
390.336	8.58
390.544	8.67
390.751	8.83
390.959	8.67
391.167	8.22
391.375	8.2
391.583	8.58
391.79	8.56
391.998	7.98
392.206	7.45
392.414	7.06
392.621	6.66
392.829	6.54
393.037	6.33
393.244	6.07
393.452	6.62
393.66	6.5
393.867	6.48
394.075	6.36
394.283	6.5
394.49	6.78
394.698	6.91
394.905	6.97
395.113	7.06
395.32	6.85
395.528	7.29
395.735	7.11
395.943	6.71
396.15	6.22
396.358	6.44
396.565	6.36
396.773	6.21
396.98	5.99
397.188	6.13
397.395	6.15
397.602	5.9
397.81	5.88
398.017	5.38
398.225	5.81
398.432	5.77
398.639	5.63
398.847	5.61
399.054	5.6
399.261	5.92
399.468	5.73
399.676	5.4
399.883	5.93
400.09	6.04
400.297	6.2
400.505	6.2
400.712	6.45
400.919	6.65
401.126	6.81
401.333	6.98
401.54	6.92
401.748	7.41
401.955	7.92
402.162	7.37
402.369	7.06
402.576	7.33
402.783	6.88
402.99	6.7
403.197	6.41
403.404	6.62
403.611	6.38
403.818	6.38
404.025	6.1
404.232	6.18
404.439	6.56
404.646	6.78
404.853	6.61
405.06	6.72
405.267	6.93
405.474	6.99
405.681	6.62
405.887	6.69
406.094	6.65
406.301	6.71
406.508	6.42
406.715	6.13
406.922	5.62
407.128	5.69
407.335	5.89
407.542	5.46
407.749	5.09
407.955	5.27
408.162	5.29
408.369	5.29
408.575	4.95
408.782	4.73
408.989	4.94
409.195	5.14
409.402	5.09
409.609	5.21
409.815	5.21
410.022	5.54
410.228	5.71
410.435	6
410.642	6.23
410.848	6.39
411.055	6.74
411.261	6.56
411.468	6.73
411.674	6.52
411.881	6.29
412.087	6.69
412.294	6.59
412.5	6.37
412.706	6
412.913	5.68
413.119	5.6
413.326	5.43
413.532	5.43
413.738	5.29
413.945	5.62
414.151	5.45
414.357	5.04
414.564	5.25
414.77	5.34
414.976	5.58
415.182	5.58
415.389	5.73
415.595	5.48
415.801	5.71
416.007	5.78
416.214	5.65
416.42	5.87
416.626	6.29
416.832	6.42
417.038	6.41
417.244	6.28
417.45	6.49
417.657	6.3
417.863	6.44
418.069	6.32
418.275	6.19
418.481	6.08
418.687	6.12
418.893	5.92
419.099	5.76
419.305	5.47
419.511	5.48
419.717	5.42
419.923	5.55
420.129	5.51
420.335	5.73
420.541	5.81
420.746	6
420.952	6.04
421.158	6.05
421.364	6.14
421.57	6.41
421.776	6.52
421.982	6.52
422.187	6.45
422.393	6.58
422.599	6.37
422.805	6.34
423.01	6.24
423.216	6.17
423.422	6.22
423.628	6.25
423.833	6.15
424.039	6.15
424.245	6.28
424.45	6.33
424.656	6.2
424.862	6.23
425.067	6.35
425.273	6.35
425.478	6.34
425.684	6.43
425.889	6.33
426.095	6.25
426.301	6.14
426.506	5.88
426.712	5.97
426.917	5.97
427.123	6.03
427.328	5.78
427.533	5.76
427.739	5.99
427.944	5.86
428.15	5.9
428.355	5.92
428.561	5.82
428.766	5.8
428.971	5.62
429.177	5.73
429.382	5.58
429.587	5.54
429.793	5.52
429.998	5.11
430.203	4.93
430.408	4.75
430.614	5.03
430.819	5.34
431.024	5.27
431.229	5.49
431.434	5.59
431.64	5.6
431.845	5.89
432.05	5.97
432.255	6.12
432.46	6.14
432.665	6.29
432.87	6.29
433.076	6.22
433.281	6.23
433.486	5.86
433.691	5.67
433.896	5.76
434.101	5.87
434.306	5.95
434.511	5.88
434.716	5.95
434.921	5.87
435.126	5.85
435.331	5.71
435.535	6.07
435.74	6.35
435.945	6.59
436.15	6.49
436.355	6.15
436.56	6.22
436.765	6.38
436.97	6.17
437.174	6.23
437.379	5.99
437.584	6.1
437.789	5.94
437.993	5.93
438.198	5.79
438.403	5.7
438.608	5.68
438.812	5.41
439.017	5.45
439.222	5.77
439.426	5.74
439.631	5.87
439.836	5.78
440.04	5.71
440.245	5.69
440.45	5.69
440.654	5.81
440.859	5.93
441.063	6.07
441.268	6
441.472	5.97
441.677	5.81
441.881	5.88
442.086	5.9
442.29	6.07
442.495	6.05
442.699	6.14
442.904	6.03
443.108	6.21
443.312	6.05
443.517	5.98
443.721	5.85
443.925	6.16
444.13	6.04
444.334	5.92
444.538	5.5
444.743	5.55
444.947	5.44
445.151	5.47
445.356	5.25
445.56	5.32
445.764	5.34
445.968	5.31
446.173	5.31
446.377	5.32
446.581	5.44
446.785	5.68
446.989	5.72
447.193	5.61
447.398	5.66
447.602	5.74
447.806	5.95
448.01	5.93
448.214	6.05
448.418	6.11
448.622	6.14
448.826	5.97
449.03	5.97
449.234	5.87
449.438	6.05
449.642	6.35
449.846	6.41
450.05	6.09
450.254	6.2
450.458	6.35
450.662	6.13
450.866	6.18
451.069	6.23
451.273	6.21
451.477	6.25
451.681	6.18
451.885	5.67
452.089	5.53
452.292	5.72
452.496	5.72
452.7	5.53
452.904	5.51
453.107	5.33
453.311	5.36
453.515	5.35
453.719	5.19
453.922	4.89
454.126	5.13
454.33	5.12
454.533	5.05
454.737	5.02
454.94	5.15
455.144	5.21
455.348	5.47
455.551	5.44
455.755	5.38
455.958	5.48
456.162	5.93
456.365	5.79
456.569	5.88
456.772	5.82
456.976	5.73
457.179	5.59
457.383	5.67
457.586	5.56
457.79	5.54
457.993	5.48
458.196	5.48
458.4	5.41
458.603	5.47
458.807	5.4
459.01	5.5
459.213	5.55
459.417	5.51
459.62	5.42
459.823	5.27
460.026	5.39
460.23	5.58
460.433	5.65
460.636	5.56
460.839	5.54
461.042	5.54
461.246	5.52
461.449	5.5
461.652	5.48
461.855	5.57
462.058	5.78
462.261	5.69
462.464	5.55
462.668	5.41
462.871	5.53
463.074	5.56
463.277	5.62
463.48	5.41
463.683	5.41
