Data from 2937857_Reflection_3.txt Node
Date: Wed Jul 15 15:36:43 EDT 2015
User: robert
Spectrometer: USB4E03001
Autoset integration time: false
Trigger mode: 4
Integration Time (sec): 1.000000E-1
Scans to average: 10
Electric dark correction enabled: true
Nonlinearity correction enabled: false
Boxcar width: 5
Stray light correction enabled: false
XAxis mode: Wavelengths
Stop averaging: false
Number of Pixels in Spectrum: 3648
>>>>>Begin Spectral Data<<<<<
177.566	167.19
177.785	1437.14
178.005	-15.11
178.225	-30.74
178.445	22.41
178.665	-75.88
178.885	118.1
179.105	528.93
179.324	-980.66
179.544	735.63
179.764	1213.13
179.984	-98.38
180.204	-58.95
180.423	34.75
180.643	41.04
180.863	68.1
181.083	34.92
181.302	43.13
181.522	67.11
181.742	52.93
181.961	48.7
182.181	39.55
182.401	44.84
182.621	49.17
182.84	35.67
183.06	19.34
183.279	-22.06
183.499	7.21
183.719	9.4
183.938	-7.25
184.158	-24.53
184.377	-108.57
184.597	-750.17
184.816	-244.01
185.036	-160.52
185.256	-395.4
185.475	-209.46
185.695	-156.82
185.914	-292.29
186.134	-207.78
186.353	-223.31
186.572	-690.07
186.792	-79.86
187.011	-68.14
187.231	-69.18
187.45	-115.73
187.67	-33.38
187.889	80.87
188.108	168.2
188.328	202.59
188.547	303.45
188.766	19540.91
188.986	505.59
189.205	155.14
189.424	95.46
189.644	164.33
189.863	207.86
190.082	164.72
190.302	179.04
190.521	88.3
190.74	19.97
190.959	-35.14
191.178	-11.15
191.398	-2.73
191.617	35.33
191.836	-7.54
192.055	187.22
192.274	201.96
192.494	-366.13
192.713	-150.63
192.932	-60.35
193.151	-46.34
193.37	-26.09
193.589	2.14
193.808	-38.29
194.027	-46.23
194.246	-17.1
194.465	15.56
194.685	13.88
194.904	59.86
195.123	31.77
195.342	400.2
195.561	131.21
195.78	137.31
195.999	65.88
196.218	53.01
196.436	52.89
196.655	-129.41
196.874	77.07
197.093	315.97
197.312	144.87
197.531	190.45
197.75	123.19
197.969	118.39
198.188	169.93
198.407	191.68
198.625	131.26
198.844	119.1
199.063	122.09
199.282	124.35
199.501	120.79
199.719	193.72
199.938	215.87
200.157	128.68
200.376	68.48
200.594	92.32
200.813	71.19
201.032	110.44
201.251	144.39
201.469	3262.16
201.688	209.57
201.907	223.43
202.125	166.09
202.344	127.41
202.563	66.41
202.781	44.36
203	86.03
203.218	169.59
203.437	1370.05
203.656	333.71
203.874	90.68
204.093	85.2
204.311	52.48
204.53	-13.29
204.748	-27.44
204.967	42.61
205.185	15.4
205.404	5.04
205.622	17.87
205.841	-12.72
206.059	-4.43
206.278	-66.13
206.496	-37.52
206.715	7.16
206.933	-46.19
207.151	-16.41
207.37	113.2
207.588	45.76
207.806	34.68
208.025	28.02
208.243	35.46
208.461	-115.87
208.68	-239.25
208.898	494.94
209.116	217.89
209.335	-55.21
209.553	22.33
209.771	11.99
209.989	4.67
210.208	93.73
210.426	192.86
210.644	49.02
210.862	6.81
211.081	-107.25
211.299	-392.22
211.517	-144.69
211.735	37.01
211.953	45.93
212.171	26.27
212.39	52.91
212.608	133.28
212.826	143.67
213.044	212.11
213.262	-158.5
213.48	193.38
213.698	112.99
213.916	-116.06
214.134	-84.17
214.352	-705.79
214.57	36.78
214.788	261.59
215.006	669.19
215.224	-1239.2
215.442	303.38
215.66	250.98
215.878	170.78
216.096	182.12
216.314	-4289.86
216.532	469.21
216.75	151.43
216.968	149.73
217.185	85.21
217.403	93.72
217.621	90.92
217.839	55.35
218.057	41.35
218.275	34.6
218.492	18.66
218.71	-3.39
218.928	-44.88
219.146	-65.09
219.363	-86.62
219.581	-53.27
219.799	-183.38
220.017	4546.38
220.234	256.41
220.452	152.16
220.67	627.09
220.887	420.96
221.105	478.36
221.323	-97
221.54	343.98
221.758	231.56
221.976	52.3
222.193	25.22
222.411	65.57
222.629	70.47
222.846	42.85
223.064	63.08
223.281	42.45
223.499	32.69
223.716	-2.11
223.934	-45.9
224.151	-126.14
224.369	-67.3
224.586	-53.04
224.804	-111.14
225.021	-247.95
225.239	-1010.22
225.456	875.14
225.674	-3743.48
225.891	761.92
226.108	1011.47
226.326	-263.1
226.543	-51.3
226.76	-54.73
226.978	-52.56
227.195	-24.57
227.413	-14.18
227.63	-8.35
227.847	0.19
228.064	6.91
228.282	0.33
228.499	-1.6
228.716	-3.56
228.934	-7.21
229.151	-4.76
229.368	0.43
229.585	-1.14
229.802	0.71
230.02	-0.68
230.237	-1.79
230.454	-3.27
230.671	1.8
230.888	2.46
231.105	3.01
231.323	2.81
231.54	3.64
231.757	4.19
231.974	5.07
232.191	2.2
232.408	4.02
232.625	4.72
232.842	5.66
233.059	2.62
233.276	8.03
233.493	11.85
233.71	19.82
233.927	13
234.144	8.53
234.361	3.88
234.578	9.44
234.795	9.92
235.012	6.93
235.229	7.21
235.446	5.72
235.663	4.56
235.879	6.31
236.096	-5.75
236.313	2.33
236.53	7.53
236.747	8.68
236.964	1.92
237.181	3.95
237.397	4.72
237.614	4.37
237.831	13.98
238.048	12.91
238.264	8.35
238.481	13.87
238.698	9.66
238.915	7.56
239.131	14.98
239.348	18.52
239.565	19.21
239.781	19.46
239.998	15.25
240.215	12.69
240.431	10.48
240.648	9.05
240.865	7.89
241.081	8.47
241.298	7.13
241.514	6.83
241.731	5.47
241.947	2.43
242.164	0.99
242.38	3.28
242.597	4.93
242.814	4.39
243.03	5.74
243.246	5.61
243.463	4.77
243.679	5.13
243.896	3.7
244.112	4.91
244.329	5.84
244.545	8.02
244.762	5.09
244.978	1.1
245.194	0.99
245.411	0.68
245.627	0.81
245.843	1.63
246.06	1.43
246.276	1.08
246.492	1.59
246.709	2.71
246.925	1.9
247.141	3.01
247.357	3.95
247.574	4.28
247.79	4.33
248.006	3.49
248.222	3.93
248.439	3.37
248.655	3.55
248.871	2.47
249.087	2.25
249.303	1.18
249.519	1.32
249.736	0.64
249.952	-0.37
250.168	-1.18
250.384	0.22
250.6	0.76
250.816	2.7
251.032	3.29
251.248	3.68
251.464	2.92
251.68	6
251.896	6.24
252.112	3.7
252.328	4.7
252.544	4.84
252.76	4.69
252.976	3.63
253.192	4.15
253.408	5.33
253.624	6.3
253.84	5.68
254.056	4.74
254.272	6.06
254.487	8.6
254.703	8.63
254.919	8.49
255.135	6.7
255.351	7.61
255.567	4.36
255.782	4.9
255.998	0.97
256.214	2.91
256.43	1.27
256.646	0.24
256.861	3.02
257.077	4.09
257.293	4.16
257.508	6.86
257.724	5
257.94	6.92
258.155	4.05
258.371	5.32
258.587	5.74
258.802	5.68
259.018	5.16
259.234	5.07
259.449	4.63
259.665	4.58
259.88	4.72
260.096	4.67
260.312	3.52
260.527	3.19
260.743	3.74
260.958	3.03
261.174	3.72
261.389	2.83
261.605	2.31
261.82	1.43
262.036	2.19
262.251	1.91
262.466	2.31
262.682	4.09
262.897	5.08
263.113	4.08
263.328	5.44
263.543	4.61
263.759	7.75
263.974	5.98
264.189	7.3
264.405	4.81
264.62	5.1
264.835	6.08
265.051	4.83
265.266	5.48
265.481	5.04
265.696	5.72
265.912	5.83
266.127	5.67
266.342	6.31
266.557	5.95
266.773	6.1
266.988	5.79
267.203	4.74
267.418	3.7
267.633	2.68
267.848	2.68
268.064	0.27
268.279	1.14
268.494	1.42
268.709	1.65
268.924	0.71
269.139	2.01
269.354	1.88
269.569	3.4
269.784	5.51
269.999	5.91
270.214	6.33
270.429	7.25
270.644	6.33
270.859	3.88
271.074	5
271.289	6.28
271.504	6.08
271.719	6.44
271.934	5.61
272.149	4.1
272.363	4.73
272.578	5.72
272.793	5.55
273.008	5.18
273.223	6.82
273.438	6.59
273.653	5.37
273.867	3.67
274.082	3.1
274.297	2.95
274.512	5.03
274.726	4.88
274.941	3.13
275.156	4.15
275.371	5.37
275.585	5
275.8	5.47
276.015	6.63
276.229	6.15
276.444	6.24
276.659	6.66
276.873	4.56
277.088	3.66
277.302	4.44
277.517	3.07
277.732	1.86
277.946	1.58
278.161	-0.32
278.375	-0.71
278.59	1.72
278.804	1.26
279.019	0.39
279.233	0.48
279.448	2.11
279.662	0.82
279.877	1.99
280.091	3.6
280.306	4.14
280.52	4.3
280.735	4.69
280.949	4.72
281.163	3.7
281.378	3.88
281.592	3.9
281.806	3.24
282.021	4.35
282.235	3.85
282.449	2.81
282.664	1.05
282.878	1.91
283.092	2.64
283.307	2.42
283.521	3.35
283.735	3.4
283.949	3.57
284.164	3.71
284.378	4.09
284.592	5.19
284.806	4.64
285.02	6.39
285.234	5.15
285.449	4.08
285.663	4.46
285.877	4.57
286.091	4.66
286.305	4.84
286.519	4.27
286.733	3.74
286.947	2.69
287.161	2.66
287.375	2.1
287.589	3.35
287.803	5.56
288.017	5.18
288.231	5.83
288.445	5.89
288.659	5.25
288.873	6.13
289.087	5.47
289.301	5.86
289.515	6.38
289.729	5.98
289.943	6.05
290.157	4.7
290.371	5.8
290.584	5.18
290.798	5.2
291.012	7.6
291.226	7.66
291.44	8.27
291.654	9.38
291.867	10.38
292.081	10.46
292.295	9.96
292.509	10.39
292.722	9.81
292.936	8.53
293.15	8.65
293.364	6.67
293.577	6.77
293.791	7.68
294.005	9.05
294.218	7.38
294.432	9.59
294.645	10.51
294.859	10.42
295.073	10.35
295.286	11.51
295.5	11.18
295.713	11.46
295.927	10.78
296.14	10.03
296.354	7.98
296.568	9.07
296.781	7.52
296.994	6.4
297.208	5.87
297.421	5.61
297.635	6.28
297.848	5.84
298.062	5.99
298.275	5.7
298.489	5.88
298.702	5.76
298.915	4.99
299.129	4.95
299.342	6.27
299.555	6.19
299.769	5.12
299.982	4.4
300.195	5.48
300.409	4.89
300.622	5.16
300.835	5.22
301.048	4.94
301.262	5.67
301.475	6.18
301.688	5.96
301.901	7.56
302.115	8.24
302.328	8.44
302.541	8.41
302.754	8.69
302.967	9.98
303.18	9.04
303.393	7.65
303.607	7.86
303.82	7.61
304.033	7.27
304.246	6.37
304.459	7.4
304.672	7.77
304.885	7.61
305.098	7.01
305.311	7.11
305.524	8.31
305.737	9.68
305.95	9.62
306.163	10.02
306.376	8.71
306.589	9.64
306.802	8.65
307.015	8.84
307.228	9.4
307.44	10.47
307.653	9.5
307.866	8.78
308.079	9.66
308.292	9.97
308.505	10.14
308.718	11.46
308.93	10.83
309.143	11.27
309.356	10.98
309.569	10.95
309.781	11.09
309.994	11.5
310.207	12.2
310.42	13.14
310.632	12.13
310.845	11.56
311.058	11.66
311.27	11.25
311.483	12.31
311.696	12.67
311.908	12.43
312.121	12.18
312.333	12.51
312.546	11.69
312.759	10.67
312.971	11.75
313.184	12.42
313.396	11.99
313.609	11.05
313.821	10.58
314.034	10
314.246	9.64
314.459	10.46
314.671	10.62
314.884	10.87
315.096	12.09
315.309	12.56
315.521	11.97
315.733	13.18
315.946	14.43
316.158	13.36
316.371	12.52
316.583	14.1
316.795	13.28
317.008	13.57
317.22	15.4
317.432	15.12
317.644	13.34
317.857	13.12
318.069	12.4
318.281	12.02
318.494	14.03
318.706	15.68
318.918	12.72
319.13	12.56
319.342	12.08
319.555	12.44
319.767	12.48
319.979	13.88
320.191	15.42
320.403	17.04
320.615	19.11
320.827	16.93
321.039	16.94
321.252	19.96
321.464	21.38
321.676	21.3
321.888	21.09
322.1	20.13
322.312	20.21
322.524	19.87
322.736	19.04
322.948	17.75
323.16	18.3
323.372	17.42
323.584	18.29
323.796	18.09
324.007	17.63
324.219	17.91
324.431	18.38
324.643	18.63
324.855	17.91
325.067	16.88
325.279	16.85
325.491	16.98
325.702	16.81
325.914	15.78
326.126	15.52
326.338	17.02
326.55	16.62
326.761	16.33
326.973	17.3
327.185	18.74
327.396	20.43
327.608	21.73
327.82	22.95
328.032	24.53
328.243	24.3
328.455	24.87
328.666	24.87
328.878	26.07
329.09	26.58
329.301	25.91
329.513	25.48
329.725	25.69
329.936	26.48
330.148	27.52
330.359	27.91
330.571	29.43
330.782	29.88
330.994	30.57
331.205	31.68
331.417	32.8
331.628	33.13
331.84	33.9
332.051	33.77
332.262	34.08
332.474	33.12
332.685	34.79
332.897	35.22
333.108	34.99
333.319	35.89
333.531	35.08
333.742	36.05
333.953	37.11
334.165	36.99
334.376	39.11
334.587	39.01
334.799	39.4
335.01	39.16
335.221	39.03
335.432	39.65
335.644	39.96
335.855	40.64
336.066	40.98
336.277	40.05
336.488	41.27
336.7	39.76
336.911	39.47
337.122	38.61
337.333	37.93
337.544	39.95
337.755	40.94
337.966	38.85
338.177	38.1
338.388	38.66
338.599	41.03
338.811	40.82
339.022	40.93
339.233	42.07
339.444	43.64
339.655	45.06
339.866	44.12
340.076	43.51
340.287	45.93
340.498	47.51
340.709	46.5
340.92	46.5
341.131	47.3
341.342	48.36
341.553	48.18
341.764	47.78
341.975	47.74
342.185	46.95
342.396	48.43
342.607	47.25
342.818	46.96
343.029	47.96
343.239	47.09
343.45	46.15
343.661	46.65
343.872	46.84
344.082	47.2
344.293	47.58
344.504	47.98
344.714	46.62
344.925	47.83
345.136	46.81
345.346	45.81
345.557	45.83
345.768	46.09
345.978	44.85
346.189	45.16
346.399	45.45
346.61	44.39
346.821	45.07
347.031	44.43
347.242	43.92
347.452	44.29
347.663	43.8
347.873	44.2
348.084	44.06
348.294	44.56
348.504	44.59
348.715	43.66
348.925	43.81
349.136	42.37
349.346	42.63
349.557	41.95
349.767	42.39
349.977	43.69
350.188	43.59
350.398	44.82
350.608	45.76
350.819	45
351.029	45.55
351.239	46.49
351.449	47.16
351.66	47.47
351.87	48.03
352.08	48.57
352.29	48.25
352.501	48.66
352.711	48.03
352.921	47.05
353.131	46.79
353.341	47.31
353.552	45.73
353.762	46.15
353.972	45.95
354.182	45.94
354.392	45.1
354.602	45.49
354.812	44.7
355.022	44.84
355.232	45.07
355.442	45.86
355.652	44.59
355.862	45.36
356.072	45.07
356.282	45.86
356.492	47.01
356.702	47.25
356.912	47.2
357.122	48.2
357.332	47.1
357.542	47.85
357.752	46.91
357.962	47.33
358.171	47.7
358.381	46.71
358.591	47.15
358.801	46.39
359.011	46.66
359.221	46.18
359.43	45.73
359.64	46.24
359.85	45.55
360.06	45.41
360.269	45.67
360.479	45.34
360.689	46.82
360.899	46.55
361.108	46.72
361.318	46.46
361.528	47.06
361.737	46.61
361.947	46.66
362.156	46.01
362.366	46.59
362.576	47.27
362.785	47.17
362.995	46.5
363.204	45.92
363.414	45.44
363.623	45.42
363.833	45
364.042	45.41
364.252	45.23
364.461	46.5
364.671	46.72
364.88	46.45
365.09	47.06
365.299	47.47
365.509	48.46
365.718	48.4
365.927	48.31
366.137	48.4
366.346	47.63
366.555	47.13
366.765	46.14
366.974	45.5
367.183	44.78
367.393	43.87
367.602	43.36
367.811	43.14
368.021	43.32
368.23	42.75
368.439	41.94
368.648	42.07
368.857	42.83
369.067	43.28
369.276	43.18
369.485	43.68
369.694	43
369.903	42.89
370.112	41.34
370.321	40.86
370.531	40.71
370.74	40.82
370.949	41.08
371.158	40.73
371.367	40.46
371.576	40.66
371.785	40.41
371.994	41.2
372.203	41.02
372.412	41.34
372.621	41.69
372.83	42.78
373.039	43.13
373.248	42.98
373.457	42.32
373.666	41.51
373.874	41.09
374.083	41.07
374.292	40.71
374.501	41.02
374.71	41.22
374.919	40.63
375.128	39.68
375.336	39.11
375.545	39.19
375.754	39.35
375.963	40.25
376.171	40.41
376.38	40.6
376.589	39.92
376.798	39.98
377.006	39.92
377.215	40.66
377.424	41.42
377.632	41.16
377.841	40.46
378.05	40.7
378.258	40.08
378.467	40.2
378.675	39.17
378.884	40.02
379.093	39.42
379.301	39.4
379.51	38.4
379.718	37.82
379.927	37.71
380.135	37.92
380.344	37.57
380.552	37.62
380.761	37.4
380.969	38.09
381.177	37.59
381.386	37.71
381.594	37.57
381.803	37.84
382.011	37.15
382.219	37.23
382.428	37.12
382.636	37.3
382.845	37.33
383.053	36.82
383.261	36.52
383.469	36.04
383.678	36.25
383.886	36.32
384.094	36.38
384.302	36.67
384.511	36.59
384.719	36.42
384.927	36.6
385.135	36.34
385.343	36.18
385.552	35.93
385.76	35.66
385.968	35.16
386.176	34.93
386.384	34.45
386.592	34.27
386.8	34.1
387.008	34.22
387.216	33.47
387.424	33.69
387.633	33.66
387.841	33.23
388.049	33.35
388.257	33.29
388.465	33.1
388.672	32.84
388.88	32.96
389.088	33.13
389.296	32.76
389.504	33.03
389.712	32.54
389.92	32.68
390.128	33.07
390.336	33.19
390.544	33.53
390.751	33.22
390.959	33.59
391.167	33.36
391.375	33.21
391.583	33.14
391.79	32.82
391.998	32.95
392.206	32.73
392.414	32.78
392.621	32.53
392.829	31.87
393.037	32.01
393.244	31.66
393.452	31.73
393.66	31.59
393.867	31.76
394.075	31.76
394.283	31.77
394.49	31.73
394.698	31.91
394.905	32.17
395.113	32.35
395.32	32.29
395.528	32.04
395.735	31.55
395.943	31.76
396.15	31.72
396.358	31.8
396.565	31.94
396.773	32.25
396.98	31.95
397.188	31.78
397.395	32.02
397.602	32.13
397.81	32.18
398.017	32.73
398.225	32.61
398.432	32.37
398.639	32.3
398.847	32.29
399.054	32.17
399.261	32.13
399.468	32.21
399.676	31.97
399.883	32.23
400.09	32.76
400.297	32.39
400.505	32.48
400.712	32.63
400.919	32.83
401.126	32.72
401.333	32.7
401.54	32.63
401.748	33.19
401.955	33.27
402.162	32.9
402.369	32.44
402.576	32.45
402.783	32.52
402.99	32.6
403.197	32.66
403.404	32.49
403.611	32.24
403.818	32.33
404.025	31.97
404.232	32.01
404.439	32.03
404.646	32.35
404.853	32.58
405.06	32.42
405.267	32.44
405.474	32.26
405.681	32.38
405.887	32.61
406.094	32.46
406.301	32.27
406.508	32.22
406.715	32.33
406.922	32.48
407.128	32.41
407.335	32.32
407.542	32.16
407.749	32.23
407.955	32.08
408.162	32.14
408.369	32.23
408.575	32.21
408.782	32.5
408.989	32.47
409.195	32.23
409.402	32.3
409.609	32.33
409.815	32.43
410.022	32.55
410.228	32.83
410.435	32.51
410.642	32.54
410.848	32.83
411.055	32.77
411.261	32.63
411.468	32.52
411.674	32.21
411.881	32.17
412.087	32.11
412.294	32.04
412.5	31.87
412.706	32.06
412.913	32.12
413.119	31.78
413.326	31.87
413.532	31.97
413.738	32.12
413.945	32.5
414.151	32.55
414.357	32.49
414.564	32.16
414.77	32.14
414.976	32.38
415.182	32.02
415.389	32.09
415.595	31.9
415.801	31.91
416.007	31.76
416.214	31.7
416.42	31.56
416.626	31.76
416.832	32
417.038	31.8
417.244	31.49
417.45	31.93
417.657	31.79
417.863	31.6
418.069	31.58
418.275	31.35
418.481	31.24
418.687	31.46
418.893	31.18
419.099	31.14
419.305	31.08
419.511	31.15
419.717	30.8
419.923	30.87
420.129	30.95
420.335	30.98
420.541	31.1
420.746	31.12
420.952	31.04
421.158	31.16
421.364	31.12
421.57	31.12
421.776	31.11
421.982	31.16
422.187	31.1
422.393	31.08
422.599	31.09
422.805	30.97
423.01	30.89
423.216	30.82
423.422	30.73
423.628	30.74
423.833	30.68
424.039	30.5
424.245	30.51
424.45	30.6
424.656	30.63
424.862	30.42
425.067	30.51
425.273	30.49
425.478	30.28
425.684	30.22
425.889	30.2
426.095	30.24
426.301	30.34
426.506	30.3
426.712	30.29
426.917	30.11
427.123	30.09
427.328	30.03
427.533	29.9
427.739	30.02
427.944	29.95
428.15	29.82
428.355	29.58
428.561	29.72
428.766	29.74
428.971	29.53
429.177	29.63
429.382	29.79
429.587	29.98
429.793	30.19
429.998	30.4
430.203	30.48
430.408	30.45
430.614	30.83
430.819	30.78
431.024	30.89
431.229	31.04
431.434	31.02
431.64	30.97
431.845	30.87
432.05	30.74
432.255	30.75
432.46	30.88
432.665	30.98
432.87	30.9
433.076	30.87
433.281	30.89
433.486	30.92
433.691	30.89
433.896	30.9
434.101	31
434.306	31.05
434.511	31.08
434.716	31.07
434.921	31.14
435.126	31.27
435.331	31.18
435.535	31.01
435.74	30.96
435.945	30.92
436.15	30.93
436.355	30.99
436.56	31.11
436.765	31.14
436.97	31.21
437.174	31.33
437.379	31.31
437.584	31.53
437.789	31.66
437.993	31.64
438.198	31.48
438.403	31.46
438.608	31.57
438.812	31.62
439.017	31.56
439.222	31.6
439.426	31.41
439.631	31.44
439.836	31.24
440.04	31.13
440.245	31.06
440.45	31.26
440.654	31.26
440.859	31.04
441.063	30.9
441.268	30.92
441.472	30.87
441.677	30.92
441.881	30.88
442.086	31.04
442.29	31.12
442.495	31.15
442.699	31
442.904	30.98
443.108	31.05
443.312	31.14
443.517	30.98
443.721	30.86
443.925	30.87
444.13	30.77
444.334	30.71
444.538	30.61
444.743	30.66
444.947	30.63
445.151	30.78
445.356	30.95
445.56	30.9
445.764	30.99
445.968	31.07
446.173	31.1
446.377	31.19
446.581	31.11
446.785	31.31
446.989	31.31
447.193	31.44
447.398	31.42
447.602	31.17
447.806	31.27
448.01	31.32
448.214	31.32
448.418	31.04
448.622	31.08
448.826	31.14
449.03	31
449.234	31.05
449.438	31.09
449.642	31
449.846	31.12
450.05	31.1
450.254	31.01
450.458	31
450.662	31.37
450.866	31.29
451.069	31.43
451.273	31.4
451.477	31.36
451.681	31.53
451.885	31.52
452.089	31.63
452.292	31.55
452.496	31.48
452.7	31.33
452.904	31.27
453.107	31.36
453.311	31.29
453.515	31.37
453.719	31.4
453.922	31.17
454.126	31.06
454.33	30.89
454.533	30.96
454.737	30.92
454.94	31.1
455.144	31.05
455.348	31.05
455.551	30.98
455.755	30.95
455.958	31.06
456.162	31.14
456.365	31.23
456.569	31.49
456.772	31.25
456.976	31.4
457.179	31.26
457.383	31.27
457.586	30.96
457.79	31.09
457.993	31.15
458.196	31
458.4	31
458.603	30.98
458.807	30.85
459.01	30.98
459.213	30.91
459.417	31.03
459.62	30.94
459.823	31.04
460.026	31.02
