Data from 2937859_Reflection_1.txt Node
Date: Wed Jul 15 15:29:59 EDT 2015
User: robert
Spectrometer: USB4E03001
Autoset integration time: false
Trigger mode: 4
Integration Time (sec): 1.000000E-1
Scans to average: 10
Electric dark correction enabled: true
Nonlinearity correction enabled: false
Boxcar width: 5
Stray light correction enabled: false
XAxis mode: Wavelengths
Stop averaging: false
Number of Pixels in Spectrum: 3648
>>>>>Begin Spectral Data<<<<<
177.566	-56.18
177.785	-24.3
178.005	-6.61
178.225	1.81
178.445	-108.87
178.665	-259.22
178.885	-2213.33
179.105	671.43
179.324	199.59
179.544	65.53
179.764	54.56
179.984	94.95
180.204	96.83
180.423	181.85
180.643	190.84
180.863	169.92
181.083	178.79
181.302	185.26
181.522	180.25
181.742	167.47
181.961	197.17
182.181	239.76
182.401	231.4
182.621	198.61
182.84	231.76
183.06	189.36
183.279	208.85
183.499	199.44
183.719	250.39
183.938	349.29
184.158	237.25
184.377	171.25
184.597	138.01
184.816	129.94
185.036	147.73
185.256	77.46
185.475	124.25
185.695	53.51
185.914	-4.06
186.134	85.48
186.353	69.4
186.572	107.71
186.792	138.45
187.011	93.91
187.231	82.51
187.45	86.03
187.67	121
187.889	98.15
188.108	148.21
188.328	147.81
188.547	129.77
188.766	99.64
188.986	117.92
189.205	129.1
189.424	180.49
189.644	288.33
189.863	284.68
190.082	222.52
190.302	-56.74
190.521	6.74
190.74	-3.69
190.959	-141.65
191.178	-43.63
191.398	-77.12
191.617	-123.61
191.836	-133.97
192.055	-105.52
192.274	-67.05
192.494	4.35
192.713	28.14
192.932	4.34
193.151	28.23
193.37	135.58
193.589	3597.27
193.808	809.86
194.027	1063.17
194.246	304.19
194.465	161.61
194.685	267.7
194.904	167.68
195.123	128.66
195.342	194.24
195.561	184.03
195.78	150.82
195.999	73.53
196.218	83.14
196.436	74.97
196.655	92.37
196.874	99.72
197.093	99.47
197.312	99.25
197.531	132.31
197.75	133.19
197.969	135.92
198.188	121.34
198.407	143.4
198.625	135.85
198.844	177.87
199.063	302.59
199.282	215.62
199.501	175.57
199.719	370.25
199.938	153.69
200.157	100.75
200.376	85.59
200.594	92.56
200.813	105.61
201.032	107.7
201.251	102.19
201.469	121.02
201.688	122.93
201.907	128.09
202.125	75.73
202.344	55.07
202.563	59.97
202.781	52.68
203	30.83
203.218	43.32
203.437	7125
203.656	780.08
203.874	-265.73
204.093	-190.21
204.311	-22.87
204.53	-85.26
204.748	11.83
204.967	11.24
205.185	18.02
205.404	20.85
205.622	48.84
205.841	64.84
206.059	76.84
206.278	71.62
206.496	108.15
206.715	131.2
206.933	133.93
207.151	170.37
207.37	148.66
207.588	180.69
207.806	152.35
208.025	113.07
208.243	95.22
208.461	88.62
208.68	85.19
208.898	64.41
209.116	64.65
209.335	65.35
209.553	55.95
209.771	63.31
209.989	42.89
210.208	40.56
210.426	24.48
210.644	61.37
210.862	52.99
211.081	64.34
211.299	58.09
211.517	46.34
211.735	42.99
211.953	37.34
212.171	53.1
212.39	65.91
212.608	56.28
212.826	60.67
213.044	48.19
213.262	46.01
213.48	43.74
213.698	70.98
213.916	77.54
214.134	80
214.352	101.09
214.57	115.23
214.788	88.46
215.006	105.27
215.224	120.79
215.442	118.47
215.66	123.08
215.878	143.92
216.096	115.03
216.314	133.69
216.532	120.06
216.75	125.45
216.968	93.6
217.185	100.44
217.403	109.3
217.621	95.57
217.839	74.88
218.057	84.32
218.275	70.65
218.492	77.18
218.71	57.76
218.928	4.27
219.146	-29.63
219.363	13.68
219.581	37.87
219.799	68.11
220.017	74.79
220.234	80.12
220.452	72.36
220.67	64.83
220.887	58.39
221.105	58.8
221.323	50.19
221.54	65.68
221.758	69.81
221.976	76.5
222.193	49.37
222.411	49.96
222.629	50.15
222.846	54.8
223.064	52.03
223.281	61.05
223.499	60.81
223.716	65.78
223.934	67.28
224.151	66.13
224.369	54.37
224.586	59.55
224.804	54.02
225.021	61.85
225.239	61.54
225.456	72.5
225.674	57.9
225.891	50.71
226.108	50.53
226.326	38.79
226.543	45.99
226.76	51.28
226.978	38.83
227.195	42.26
227.413	33.47
227.63	26.53
227.847	21.01
228.064	21.12
228.282	19.03
228.499	19.12
228.716	19.73
228.934	15.84
229.151	17.56
229.368	19.5
229.585	19.22
229.802	20.98
230.02	21.01
230.237	19.56
230.454	18.41
230.671	17.41
230.888	16.77
231.105	17.3
231.323	14.55
231.54	11.56
231.757	4.03
231.974	-3.83
232.191	-3.74
232.408	-2.14
232.625	1.65
232.842	3.33
233.059	9.31
233.276	10.09
233.493	9.47
233.71	10.48
233.927	8.87
234.144	16.51
234.361	16.89
234.578	14.62
234.795	15.33
235.012	15.52
235.229	12.52
235.446	8.8
235.663	13.46
235.879	18.75
236.096	22.4
236.313	23.5
236.53	23.3
236.747	25.6
236.964	26.9
237.181	26.7
237.397	24.28
237.614	28.23
237.831	30.04
238.048	26.78
238.264	22.27
238.481	21.81
238.698	25.93
238.915	25.29
239.131	23.47
239.348	25.95
239.565	26.79
239.781	28.14
239.998	23.65
240.215	19.35
240.431	18.83
240.648	19.34
240.865	19.61
241.081	17.43
241.298	18.22
241.514	20.1
241.731	19.96
241.947	17.6
242.164	18.19
242.38	18.19
242.597	19.62
242.814	20.64
243.03	20.75
243.246	21.53
243.463	22.22
243.679	21.9
243.896	21
244.112	20.04
244.329	21.63
244.545	21.79
244.762	21.8
244.978	20.8
245.194	21.06
245.411	21.46
245.627	18.84
245.843	17.46
246.06	17.84
246.276	17.98
246.492	17.43
246.709	16.22
246.925	15.36
247.141	15.47
247.357	15.59
247.574	14.83
247.79	14.42
248.006	14.93
248.222	15.26
248.439	13.71
248.655	12.83
248.871	12.66
249.087	13.33
249.303	13.09
249.519	13
249.736	13.15
249.952	11.79
250.168	12.03
250.384	11.82
250.6	9.08
250.816	11.23
251.032	13.18
251.248	12.56
251.464	12.63
251.68	11.83
251.896	11.6
252.112	11.1
252.328	13.94
252.544	13.09
252.76	12.96
252.976	14.58
253.192	14.39
253.408	14.44
253.624	13.9
253.84	12.92
254.056	13.56
254.272	13.82
254.487	15.17
254.703	10.17
254.919	9.42
255.135	11.27
255.351	9.77
255.567	10.57
255.782	8.1
255.998	9.55
256.214	12.54
256.43	15.96
256.646	17.3
256.861	16.23
257.077	17.66
257.293	19.15
257.508	15.6
257.724	15.15
257.94	14.25
258.155	12.88
258.371	12.88
258.587	12.11
258.802	10.04
259.018	8.96
259.234	8.54
259.449	9.04
259.665	8.72
259.88	9.22
260.096	9.97
260.312	10.33
260.527	10.62
260.743	10.4
260.958	10.22
261.174	10.26
261.389	11.16
261.605	10.91
261.82	10.65
262.036	10.61
262.251	9.63
262.466	8.42
262.682	7.57
262.897	7.1
263.113	7.1
263.328	5.86
263.543	7.9
263.759	6.79
263.974	8.08
264.189	6.2
264.405	4.9
264.62	7.87
264.835	8.52
265.051	7.32
265.266	9.26
265.481	9.02
265.696	10.47
265.912	8.77
266.127	10.67
266.342	9.64
266.557	11.89
266.773	12.4
266.988	11.48
267.203	11.64
267.418	12.56
267.633	10.77
267.848	9.92
268.064	10.86
268.279	10.89
268.494	9.53
268.709	10.83
268.924	10.73
269.139	11.39
269.354	11.03
269.569	11.24
269.784	10.79
269.999	11.2
270.214	12.08
270.429	10.71
270.644	10
270.859	9.11
271.074	8.29
271.289	7.56
271.504	6.95
271.719	6.97
271.934	5.78
272.149	6.23
272.363	6.42
272.578	5.99
272.793	6.05
273.008	7.4
273.223	8.37
273.438	8.37
273.653	9.73
273.867	11.4
274.082	11.74
274.297	12.1
274.512	12.61
274.726	12.72
274.941	12.71
275.156	14.77
275.371	13.59
275.585	13.91
275.8	14.55
276.015	13.19
276.229	12.28
276.444	12.05
276.659	12.46
276.873	12.5
277.088	11.4
277.302	11.38
277.517	9.51
277.732	10.78
277.946	10.04
278.161	11.32
278.375	12.34
278.59	12.64
278.804	12.03
279.019	12.82
279.233	12.96
279.448	15.05
279.662	13.38
279.877	12.52
280.091	12.9
280.306	12.42
280.52	9.63
280.735	9.37
280.949	9.12
281.163	10.02
281.378	10.49
281.592	9.97
281.806	9.19
282.021	11.1
282.235	11.88
282.449	10.94
282.664	11.57
282.878	12.49
283.092	13.34
283.307	13.33
283.521	13.27
283.735	11.83
283.949	12.63
284.164	12.98
284.378	12.02
284.592	10.9
284.806	10.23
285.02	12.28
285.234	11.94
285.449	11.1
285.663	10.7
285.877	10.54
286.091	10.94
286.305	10.06
286.519	9.08
286.733	10.79
286.947	11.71
287.161	12.34
287.375	10.63
287.589	10.36
287.803	10.27
288.017	11.26
288.231	11.18
288.445	11.26
288.659	12.11
288.873	12.86
289.087	10.94
289.301	11.24
289.515	11.29
289.729	11.13
289.943	10.42
290.157	11.65
290.371	10.54
290.584	10.43
290.798	10.24
291.012	9.35
291.226	8.73
291.44	8.42
291.654	7.69
291.867	7.18
292.081	6.45
292.295	7.13
292.509	5.82
292.722	5.77
292.936	5.26
293.15	5.09
293.364	5.44
293.577	6.03
293.791	7.41
294.005	6.85
294.218	6.71
294.432	8.07
294.645	7.24
294.859	7.24
295.073	7.98
295.286	9.97
295.5	11.29
295.713	11.22
295.927	11.95
296.14	12.14
296.354	11.93
296.568	12.21
296.781	12.13
296.994	13.42
297.208	14
297.421	14.08
297.635	13.51
297.848	13.44
298.062	13.31
298.275	12.34
298.489	11.93
298.702	13.01
298.915	12.96
299.129	12.56
299.342	12.99
299.555	11.98
299.769	12.27
299.982	12.16
300.195	11.71
300.409	11.97
300.622	12.54
300.835	13.84
301.048	15.06
301.262	15.59
301.475	16.42
301.688	14.8
301.901	15.7
302.115	14.66
302.328	14.17
302.541	14.34
302.754	14.95
302.967	15.39
303.18	14.84
303.393	13.14
303.607	11.82
303.82	11.16
304.033	12.18
304.246	9.65
304.459	9.08
304.672	10.69
304.885	11.42
305.098	11.3
305.311	11.65
305.524	11.63
305.737	11.04
305.95	11.26
306.163	12.05
306.376	13.33
306.589	16.22
306.802	16.72
307.015	15.69
307.228	14.33
307.44	12.67
307.653	13.22
307.866	13.44
308.079	13.89
308.292	14.38
308.505	12.3
308.718	11.95
308.93	13
309.143	14.36
309.356	15.57
309.569	16.67
309.781	16.8
309.994	16.63
310.207	16.82
310.42	16.56
310.632	17.05
310.845	18.73
311.058	18.19
311.27	16.85
311.483	16.59
311.696	15.46
311.908	13.97
312.121	14.21
312.333	13.09
312.546	12.2
312.759	12.05
312.971	11.12
313.184	9.62
313.396	10.02
313.609	10.58
313.821	9.72
314.034	10.89
314.246	12.98
314.459	14.07
314.671	14.82
314.884	16.47
315.096	17.02
315.309	18.12
315.521	19.02
315.733	18.39
315.946	17.9
316.158	18.3
316.371	18.02
316.583	17.28
316.795	17.07
317.008	17.64
317.22	16.38
317.432	14.94
317.644	14.26
317.857	14.11
318.069	14.65
318.281	14.1
318.494	14.79
318.706	14.76
318.918	14.35
319.13	14.08
319.342	12.56
319.555	13.03
319.767	14.27
319.979	15.89
320.191	16.08
320.403	14.1
320.615	15.11
320.827	14.32
321.039	13.27
321.252	12.98
321.464	13.94
321.676	15.08
321.888	14.62
322.1	13.89
322.312	12.01
322.524	10.94
322.736	13.69
322.948	13.13
323.16	12.31
323.372	12.67
323.584	11.93
323.796	10.5
324.007	10.12
324.219	10.27
324.431	10.88
324.643	11.5
324.855	11.91
325.067	10.85
325.279	11.2
325.491	11.5
325.702	12.17
325.914	13.42
326.126	15.19
326.338	15.22
326.55	14.66
326.761	14.74
326.973	14.7
327.185	15.06
327.396	14.4
327.608	14.23
327.82	14.18
328.032	13.26
328.243	12.02
328.455	9.57
328.666	9.27
328.878	8.59
329.09	8.53
329.301	7.46
329.513	7.45
329.725	9.5
329.936	10.46
330.148	11.23
330.359	10.23
330.571	11.29
330.782	13.43
330.994	14.63
331.205	16.91
331.417	16.63
331.628	16.7
331.84	15.42
332.051	14.3
332.262	13.49
332.474	13.3
332.685	13.99
332.897	14.7
333.108	14.25
333.319	13.07
333.531	12.26
333.742	13.76
333.953	14.02
334.165	15.18
334.376	14.72
334.587	14.36
334.799	14.15
335.01	15.14
335.221	14.42
335.432	15
335.644	15.25
335.855	14.19
336.066	13.08
336.277	12.23
336.488	12.07
336.7	13.29
336.911	13.98
337.122	14.11
337.333	13.81
337.544	14.03
337.755	11.83
337.966	12.35
338.177	13.26
338.388	14.01
338.599	15.42
338.811	14.96
339.022	14.12
339.233	13.68
339.444	13.67
339.655	14.65
339.866	15.29
340.076	16.28
340.287	16.04
340.498	15.64
340.709	15.18
340.92	15.42
341.131	16.46
341.342	16.92
341.553	16.02
341.764	16.65
341.975	14.86
342.185	14.33
342.396	14.4
342.607	14.49
342.818	16.02
343.029	16.21
343.239	15.71
343.45	15.68
343.661	16.13
343.872	17.2
344.082	16.46
344.293	17.7
344.504	16.73
344.714	17.11
344.925	17.91
345.136	17.21
345.346	16.86
345.557	16.1
345.768	15.39
345.978	14.33
346.189	14.34
346.399	14.93
346.61	14.83
346.821	15.71
347.031	16.31
347.242	15.75
347.452	15.13
347.663	15.25
347.873	17.37
348.084	17.17
348.294	18.19
348.504	19.22
348.715	18.73
348.925	18.4
349.136	18.32
349.346	17.1
349.557	16.41
349.767	15.28
349.977	15.69
350.188	14.71
350.398	15.41
350.608	14.92
350.819	13.38
351.029	13.2
351.239	12.26
351.449	11.99
351.66	12.48
351.87	13.42
352.08	15.07
352.29	13.93
352.501	14.08
352.711	14.22
352.921	14.17
353.131	14.18
353.341	14.07
353.552	15.2
353.762	14.81
353.972	14.61
354.182	13.57
354.392	12.23
354.602	12.57
354.812	12.18
355.022	11.82
355.232	11.97
355.442	11.82
355.652	12.11
355.862	11.19
356.072	11.51
356.282	11.5
356.492	11.35
356.702	12.56
356.912	12.47
357.122	12.27
357.332	12.17
357.542	12.25
357.752	12.83
357.962	12.71
358.171	13.59
358.381	13.24
358.591	13.39
358.801	13.39
359.011	13.77
359.221	13.87
359.43	14.16
359.64	14.71
359.85	14.13
360.06	13.6
360.269	13.95
360.479	13.3
360.689	13.58
360.899	13.89
361.108	14.17
361.318	13.93
361.528	14.07
361.737	13.99
361.947	13.67
362.156	14.1
362.366	14.62
362.576	14.2
362.785	13.92
362.995	13.67
363.204	13.41
363.414	13.61
363.623	13.29
363.833	12.94
364.042	13.38
364.252	13.32
364.461	13.24
364.671	12.65
364.88	12.88
365.09	13.46
365.299	13.73
365.509	14.57
365.718	14.27
365.927	14.4
366.137	14.92
366.346	14.36
366.555	14.86
366.765	14.17
366.974	14.15
367.183	13.82
367.393	14.02
367.602	13.85
367.811	12.66
368.021	13.43
368.23	13.22
368.439	13.09
368.648	12.52
368.857	12.1
369.067	12.07
369.276	12.31
369.485	11.57
369.694	10.52
369.903	10.32
370.112	10.17
370.321	9.27
370.531	9.59
370.74	9.87
370.949	10.55
371.158	10.03
371.367	10.27
371.576	9.99
371.785	10.86
371.994	11.31
372.203	11.57
372.412	11.92
372.621	12.42
372.83	11.62
373.039	11.04
373.248	11.09
373.457	11.22
373.666	11.02
373.874	10.79
374.083	10.88
374.292	11.37
374.501	11.16
374.71	10.91
374.919	10.45
375.128	10.58
375.336	10.69
375.545	10.22
375.754	10.24
375.963	10.07
376.171	10.43
376.38	11.14
376.589	10.64
376.798	10.54
377.006	10.76
377.215	10.52
377.424	10.9
377.632	10.78
377.841	10.91
378.05	10.69
378.258	11.29
378.467	11.26
378.675	10.39
378.884	11.11
379.093	11.19
379.301	10.85
379.51	11.2
379.718	10.96
379.927	10.99
380.135	11.22
380.344	11.54
380.552	11.22
380.761	10.81
380.969	10.72
381.177	9.53
381.386	9.68
381.594	9.06
381.803	8.75
382.011	9.08
382.219	9.17
382.428	8.31
382.636	8.08
382.845	7.72
383.053	7.99
383.261	8.16
383.469	8.89
383.678	8.49
383.886	8.9
384.094	9.24
384.302	8.66
384.511	8.91
384.719	9.29
384.927	9.47
385.135	9.78
385.343	9.63
385.552	9.51
385.76	8.99
385.968	8.86
386.176	8.54
386.384	7.96
386.592	8.52
386.8	8.49
387.008	8.42
387.216	8.24
387.424	8.34
387.633	8.28
387.841	8.79
388.049	8.96
388.257	8.73
388.465	8.76
388.672	9.28
388.88	8.51
389.088	7.94
389.296	8.12
389.504	7.89
389.712	7.49
389.92	7.54
390.128	6.66
390.336	6.73
390.544	7.45
390.751	7.63
390.959	6.98
391.167	7.56
391.375	7.47
391.583	6.96
391.79	6.95
391.998	6.95
392.206	6.88
392.414	7.29
392.621	7.11
392.829	7.01
393.037	7.13
393.244	7.77
393.452	7.44
393.66	7.82
393.867	7.91
394.075	8.11
394.283	8.33
394.49	8.36
394.698	7.96
394.905	7.83
395.113	7.53
395.32	7.38
395.528	6.81
395.735	6.9
395.943	6.95
396.15	7.02
396.358	6.72
396.565	6.45
396.773	6.48
396.98	6.45
397.188	6.72
397.395	6.8
397.602	6.82
397.81	6.71
398.017	6.79
398.225	6.42
398.432	6.54
398.639	6.61
398.847	6.52
399.054	6.23
399.261	6.62
399.468	6.22
399.676	6
399.883	6.11
400.09	6.26
400.297	6.06
400.505	5.97
400.712	5.9
400.919	5.63
401.126	5.71
401.333	5.87
401.54	5.61
401.748	5.7
401.955	5.62
402.162	5.55
402.369	5.34
402.576	5.28
402.783	5.41
402.99	5.35
403.197	5.57
403.404	5.48
403.611	5.69
403.818	5.88
404.025	5.93
404.232	6.02
404.439	5.8
404.646	6.03
404.853	6.09
405.06	6.09
405.267	6.16
405.474	6.25
405.681	6.27
405.887	6.34
406.094	6
406.301	5.94
406.508	6.05
406.715	6.23
406.922	6.39
407.128	6.51
407.335	6.64
407.542	6.36
407.749	6.39
407.955	6.51
408.162	6.12
408.369	6.29
408.575	6.48
408.782	6.54
408.989	6.24
409.195	6.04
409.402	6.13
409.609	5.87
409.815	6.39
410.022	6.3
410.228	6.39
410.435	6.22
410.642	6.31
410.848	6.24
411.055	6.17
411.261	6.32
411.468	6.43
411.674	6.1
411.881	6.16
412.087	6.15
412.294	6.03
412.5	5.93
412.706	6.43
412.913	6.5
413.119	6.69
413.326	6.9
413.532	7
413.738	7.01
413.945	7.28
414.151	7.51
414.357	7.24
414.564	7.45
414.77	7.28
414.976	6.93
415.182	6.65
415.389	6.17
415.595	5.91
415.801	5.89
416.007	5.63
416.214	5.33
416.42	5.13
416.626	4.83
416.832	4.82
417.038	4.98
417.244	4.8
417.45	4.98
417.657	4.99
417.863	4.89
418.069	4.98
418.275	5.1
418.481	5.13
418.687	5.12
418.893	5.43
419.099	5.22
419.305	5.07
419.511	5.24
419.717	5.1
419.923	5.13
420.129	5.08
420.335	4.93
420.541	4.91
420.746	5.01
420.952	4.94
421.158	4.77
421.364	4.81
421.57	4.88
421.776	4.94
421.982	4.85
422.187	4.87
422.393	4.87
422.599	4.91
422.805	4.74
423.01	4.52
423.216	4.59
423.422	4.54
423.628	4.63
423.833	4.56
424.039	4.49
424.245	4.56
424.45	4.65
424.656	4.7
424.862	4.78
425.067	5.02
425.273	5.07
425.478	5.07
425.684	5.2
425.889	5.14
426.095	5.19
426.301	5.11
426.506	5.12
426.712	5.11
426.917	5.26
427.123	5.14
427.328	5.11
427.533	5.11
427.739	5.02
427.944	5.05
428.15	5.1
428.355	5.12
428.561	5.29
428.766	5.24
428.971	5.15
429.177	5.12
429.382	5.05
429.587	4.89
429.793	5
429.998	4.87
430.203	4.77
430.408	4.67
430.614	4.8
430.819	4.82
431.024	4.99
431.229	4.74
431.434	4.64
431.64	4.72
431.845	4.71
432.05	4.65
432.255	4.95
432.46	4.99
432.665	4.97
432.87	4.83
433.076	4.85
433.281	4.76
433.486	4.87
433.691	5.01
433.896	5.07
434.101	5.19
434.306	5.32
434.511	5.24
434.716	5.29
434.921	5.3
435.126	5.24
435.331	5.08
435.535	5.24
435.74	5.43
435.945	5.29
436.15	5.21
436.355	5.11
436.56	4.87
436.765	4.88
436.97	4.9
437.174	5.12
437.379	5.29
437.584	5.22
437.789	5.17
437.993	5.07
438.198	4.81
438.403	4.77
438.608	4.64
438.812	4.68
439.017	4.64
439.222	4.6
439.426	4.39
439.631	4.35
439.836	4.25
440.04	4.17
440.245	4.14
440.45	4.35
440.654	4.54
440.859	4.69
441.063	4.75
441.268	4.79
441.472	4.76
441.677	4.71
441.881	4.69
442.086	4.88
442.29	4.93
442.495	4.96
442.699	4.95
442.904	4.55
443.108	4.63
443.312	4.8
443.517	4.68
443.721	4.68
443.925	4.85
444.13	4.81
444.334	4.8
444.538	4.79
444.743	4.8
444.947	4.75
445.151	4.87
445.356	4.61
445.56	4.5
445.764	4.61
445.968	4.62
446.173	4.52
446.377	4.58
446.581	4.62
446.785	4.61
446.989	4.58
447.193	4.59
447.398	4.75
447.602	5.02
447.806	4.94
448.01	4.9
448.214	4.94
448.418	5.11
448.622	5.04
448.826	4.9
449.03	4.78
449.234	4.76
449.438	4.86
449.642	4.67
449.846	4.45
450.05	4.46
450.254	4.28
450.458	4.4
450.662	4.41
450.866	4.37
451.069	4.67
451.273	4.72
451.477	4.86
451.681	4.73
451.885	4.8
452.089	4.62
452.292	4.71
452.496	4.86
452.7	4.62
452.904	4.52
453.107	4.67
453.311	4.47
453.515	4.52
453.719	4.52
453.922	4.64
454.126	4.74
454.33	4.9
454.533	4.73
454.737	4.83
454.94	5.13
455.144	5.21
455.348	5.06
455.551	5.1
455.755	5.06
455.958	4.88
456.162	4.67
456.365	4.63
456.569	4.78
456.772	4.91
456.976	4.77
457.179	4.65
457.383	4.59
457.586	4.55
457.79	4.72
457.993	4.89
458.196	5
458.4	5.12
458.603	4.94
458.807	4.88
459.01	4.81
459.213	4.82
459.417	4.72
459.62	4.72
459.823	4.8
460.026	4.63
460.23	4.57
460.433	4.63
460.636	4.67
460.839	4.68
461.042	4.81
461.246	4.97
461.449	4.99
461.652	4.89
461.855	4.87
462.058	4.82
462.261	4.87
462.464	4.89
462.668	4.76
462.871	4.76
