Data from 2937866_Reflection_3.txt Node
Date: Wed Jul 15 15:10:58 EDT 2015
User: robert
Spectrometer: USB4E03001
Autoset integration time: false
Trigger mode: 4
Integration Time (sec): 1.000000E-1
Scans to average: 10
Electric dark correction enabled: true
Nonlinearity correction enabled: false
Boxcar width: 5
Stray light correction enabled: false
XAxis mode: Wavelengths
Stop averaging: false
Number of Pixels in Spectrum: 3648
>>>>>Begin Spectral Data<<<<<
177.566	-220.93
177.785	98.71
178.005	-323.04
178.225	63.39
178.445	73.66
178.665	174.52
178.885	149.73
179.105	-40.91
179.324	12.45
179.544	10.9
179.764	-22.89
179.984	-38.42
180.204	-25.28
180.423	-53.58
180.643	-34.27
180.863	-99.22
181.083	-127.62
181.302	-226.65
181.522	-68.99
181.742	-127.16
181.961	-684.43
182.181	-249.74
182.401	224.37
182.621	61
182.84	28.67
183.06	58.97
183.279	50.03
183.499	99.27
183.719	72.33
183.938	99.83
184.158	138.05
184.377	148.24
184.597	155.22
184.816	217.32
185.036	536.66
185.256	479.38
185.475	389.01
185.695	-2513.81
185.914	-590.6
186.134	-204.9
186.353	-311.23
186.572	-427.82
186.792	-331.57
187.011	-245.84
187.231	-175.8
187.45	-178.35
187.67	-225.17
187.889	-167.08
188.108	-928.9
188.328	390.17
188.547	307.29
188.766	712.34
188.986	364.66
189.205	302.93
189.424	193.72
189.644	290.37
189.863	543.93
190.082	437.4
190.302	-30928.57
190.521	-1058.08
190.74	-48.37
190.959	-138.66
191.178	-42.58
191.398	-70.18
191.617	-25.63
191.836	-25.29
192.055	-68.03
192.274	-132.75
192.494	-130.34
192.713	-226.49
192.932	-114.68
193.151	-225.71
193.37	-190.18
193.589	-1114.94
193.808	-2958.19
194.027	313.72
194.246	122.43
194.465	124.39
194.685	151.73
194.904	185.01
195.123	197.86
195.342	175.5
195.561	204.17
195.78	178.93
195.999	206.83
196.218	149.66
196.436	131.44
196.655	221.19
196.874	162.87
197.093	177.79
197.312	176.61
197.531	159.28
197.75	147.69
197.969	167.02
198.188	206.29
198.407	179.84
198.625	221.2
198.844	281.15
199.063	189.53
199.282	940
199.501	207.84
199.719	175.93
199.938	198.53
200.157	863.48
200.376	368.59
200.594	269.99
200.813	563.06
201.032	2415.13
201.251	4537.84
201.469	-1272.2
201.688	530.86
201.907	595.24
202.125	715.24
202.344	795.91
202.563	563.6
202.781	505.37
203	497.3
203.218	787.11
203.437	552.76
203.656	3105.36
203.874	-2585.87
204.093	-661.93
204.311	-355.32
204.53	-268.15
204.748	-246.93
204.967	-244.83
205.185	-215.91
205.404	-244.19
205.622	-263.21
205.841	-310.58
206.059	-1086.21
206.278	16190.63
206.496	2363.91
206.715	1089.41
206.933	4140.78
207.151	1121.48
207.37	124.84
207.588	146.52
207.806	-5.87
208.025	141.49
208.243	-945.93
208.461	-568.8
208.68	-39.5
208.898	-568.65
209.116	-398.54
209.335	322.45
209.553	455.64
209.771	3275.54
209.989	497.05
210.208	625.06
210.426	4998.89
210.644	-624.16
210.862	1372.87
211.081	404.99
211.299	-1950.59
211.517	-479.82
211.735	-75.43
211.953	-42.72
212.171	2.41
212.39	-41.55
212.608	-92.15
212.826	-256.77
213.044	-3575.69
213.262	475.35
213.48	-1393.78
213.698	310.89
213.916	95.9
214.134	83.98
214.352	258.56
214.57	154.89
214.788	133.47
215.006	233.87
215.224	143.75
215.442	174.9
215.66	442.76
215.878	230.11
216.096	402.15
216.314	364.21
216.532	381.42
216.75	211.04
216.968	250.38
217.185	208.02
217.403	202.08
217.621	582.77
217.839	620.8
218.057	492.65
218.275	-160.95
218.492	-832.16
218.71	-459.6
218.928	-262.12
219.146	-71.1
219.363	-104.43
219.581	-62.72
219.799	-9.43
220.017	-14.95
220.234	-18.08
220.452	17.6
220.67	55.55
220.887	92.43
221.105	111.97
221.323	334.59
221.54	-154.81
221.758	4.13
221.976	3.83
222.193	52.18
222.411	67.44
222.629	53.55
222.846	95.44
223.064	113.11
223.281	85.79
223.499	129.34
223.716	152.03
223.934	153.44
224.151	281.27
224.369	252.44
224.586	310.88
224.804	458.89
225.021	1402.18
225.239	623.43
225.456	209.88
225.674	310.57
225.891	322.39
226.108	248.39
226.326	177.2
226.543	210.84
226.76	-47.21
226.978	-41.18
227.195	-19.89
227.413	-16.88
227.63	-1.37
227.847	-48.1
228.064	-26.55
228.282	-22.4
228.499	-10.65
228.716	-10.21
228.934	-4.23
229.151	2.44
229.368	1.41
229.585	-1.93
229.802	-6.83
230.02	-9.38
230.237	-4.53
230.454	-11.48
230.671	-9.63
230.888	-11.15
231.105	-8.88
231.323	-9.82
231.54	-16.29
231.757	-6.84
231.974	-8.22
232.191	2.6
232.408	3.63
232.625	2.95
232.842	8.99
233.059	9.53
233.276	5.34
233.493	2.87
233.71	18.38
233.927	13.32
234.144	3.71
234.361	15.38
234.578	19.65
234.795	22.01
235.012	22.9
235.229	25.12
235.446	27.25
235.663	36.22
235.879	37.85
236.096	31.82
236.313	36.25
236.53	46.57
236.747	48.56
236.964	46.55
237.181	50.57
237.397	57.51
237.614	56.67
237.831	43.94
238.048	39.09
238.264	33.29
238.481	32.03
238.698	22.72
238.915	26.32
239.131	27.29
239.348	25.75
239.565	22.77
239.781	19.58
239.998	12.92
240.215	14.69
240.431	9.88
240.648	11.19
240.865	14.87
241.081	13.37
241.298	7.54
241.514	3.97
241.731	4.43
241.947	6.02
242.164	5.68
242.38	7.43
242.597	10.39
242.814	9.8
243.03	10.96
243.246	6.81
243.463	8.66
243.679	9.97
243.896	10.11
244.112	8.17
244.329	9.01
244.545	9.39
244.762	9.26
244.978	5.1
245.194	8.09
245.411	4.86
245.627	10.02
245.843	9.65
246.06	8.19
246.276	8.31
246.492	8.09
246.709	6.95
246.925	6.52
247.141	7.05
247.357	7.65
247.574	6.59
247.79	7.09
248.006	6.3
248.222	5.33
248.439	4.77
248.655	4.18
248.871	4.06
249.087	5.24
249.303	4.09
249.519	4.35
249.736	5.82
249.952	5.66
250.168	6.55
250.384	4.5
250.6	5.49
250.816	6.24
251.032	7.41
251.248	8.5
251.464	6.17
251.68	5.2
251.896	3.88
252.112	1.98
252.328	1.45
252.544	0.61
252.76	4.55
252.976	3.67
253.192	4.66
253.408	6.45
253.624	9.83
253.84	11.47
254.056	11.71
254.272	10.77
254.487	12.83
254.703	17.45
254.919	21.17
255.135	17.28
255.351	25.14
255.567	24.68
255.782	22.76
255.998	17.58
256.214	14.68
256.43	17.66
256.646	19.26
256.861	13.84
257.077	8.47
257.293	3.74
257.508	1.66
257.724	-5.55
257.94	-5.35
258.155	-6.53
258.371	-6.19
258.587	-3.28
258.802	-0.72
259.018	-0.21
259.234	1.84
259.449	3.42
259.665	3.61
259.88	4.3
260.096	4.63
260.312	5.47
260.527	6.53
260.743	6.43
260.958	5.13
261.174	3.1
261.389	3.3
261.605	3.01
261.82	2.57
262.036	2.76
262.251	3.37
262.466	3.32
262.682	1.78
262.897	0.77
263.113	2.02
263.328	5.35
263.543	9.44
263.759	10.22
263.974	10.41
264.189	8.78
264.405	5
264.62	3.14
264.835	3.56
265.051	3.43
265.266	0.93
265.481	-0.23
265.696	-3.91
265.912	-4.06
266.127	-4.06
266.342	-0.57
266.557	1.02
266.773	4.72
266.988	5.15
267.203	3.5
267.418	5.06
267.633	6.93
267.848	8.68
268.064	9.16
268.279	7.66
268.494	5.95
268.709	3.53
268.924	3.21
269.139	2.6
269.354	2.07
269.569	3.64
269.784	5.1
269.999	4.96
270.214	3.36
270.429	3.63
270.644	4.25
270.859	4.43
271.074	4.56
271.289	5.34
271.504	4.42
271.719	3.84
271.934	3.69
272.149	1.12
272.363	1.57
272.578	2.6
272.793	2.96
273.008	3.28
273.223	3.84
273.438	4.32
273.653	3.09
273.867	3.63
274.082	4.57
274.297	4.58
274.512	6.13
274.726	5.38
274.941	4.84
275.156	5.53
275.371	3.86
275.585	2.95
275.8	3.4
276.015	3.44
276.229	4.18
276.444	3.8
276.659	2.4
276.873	1.28
277.088	1.99
277.302	0.61
277.517	0.34
277.732	4.25
277.946	4
278.161	3.19
278.375	3.43
278.59	4.55
278.804	3.98
279.019	5.55
279.233	7.09
279.448	6.8
279.662	7.05
279.877	7.93
280.091	6.46
280.306	6.78
280.52	5.95
280.735	6.82
280.949	5.92
281.163	8.03
281.378	7.11
281.592	5.1
281.806	6.29
282.021	5.29
282.235	3.26
282.449	3.53
282.664	5.93
282.878	6.85
283.092	5.95
283.307	6.27
283.521	4.38
283.735	6.64
283.949	7.02
284.164	5.97
284.378	7.7
284.592	9.58
284.806	6.82
285.02	4.72
285.234	5.43
285.449	4.88
285.663	4.84
285.877	4.9
286.091	3.27
286.305	4.57
286.519	4.13
286.733	3.64
286.947	2.47
287.161	3.93
287.375	4.46
287.589	3.32
287.803	4.04
288.017	4.83
288.231	2.57
288.445	4.23
288.659	4.06
288.873	4.49
289.087	4.77
289.301	6.52
289.515	6
289.729	5.67
289.943	5.53
290.157	6.42
290.371	5.28
290.584	9.02
290.798	7.63
291.012	6.96
291.226	7.55
291.44	7.53
291.654	5.9
291.867	5.23
292.081	7.01
292.295	7.46
292.509	6.17
292.722	5.52
292.936	4.28
293.15	4.44
293.364	6.26
293.577	5.89
293.791	5.83
294.005	5.87
294.218	8.55
294.432	8.72
294.645	8.4
294.859	8.97
295.073	9.14
295.286	8.2
295.5	8.35
295.713	6.3
295.927	5.65
296.14	4.67
296.354	4.69
296.568	4.42
296.781	4.53
296.994	4.27
297.208	3.39
297.421	3.16
297.635	2.85
297.848	2.64
298.062	3.24
298.275	5
298.489	6.09
298.702	7.42
298.915	8.63
299.129	7.46
299.342	7.69
299.555	8.74
299.769	8.35
299.982	10.16
300.195	9.59
300.409	9.43
300.622	7.42
300.835	5.92
301.048	3.37
301.262	1.41
301.475	2.44
301.688	2.82
301.901	3.27
302.115	5.26
302.328	4.83
302.541	6.52
302.754	5.81
302.967	7.25
303.18	8.65
303.393	10.2
303.607	8.69
303.82	6.8
304.033	7.69
304.246	7.92
304.459	8.61
304.672	8.73
304.885	10.2
305.098	12.05
305.311	10.43
305.524	11.88
305.737	10.66
305.95	13.7
306.163	16.19
306.376	15.78
306.589	13.44
306.802	11.43
307.015	11.28
307.228	8.56
307.44	8.86
307.653	10.67
307.866	8.36
308.079	8.63
308.292	6.61
308.505	6.26
308.718	7.83
308.93	12.05
309.143	13.76
309.356	14.35
309.569	14.09
309.781	13.12
309.994	11.77
310.207	11.79
310.42	13.56
310.632	14.28
310.845	14.51
311.058	13.08
311.27	10.6
311.483	9.03
311.696	8.04
311.908	8.58
312.121	8.68
312.333	9.35
312.546	10.93
312.759	9.95
312.971	9.26
313.184	7.02
313.396	9.61
313.609	10.63
313.821	11.19
314.034	10.41
314.246	8.84
314.459	8.5
314.671	7.96
314.884	5.86
315.096	5.94
315.309	7.33
315.521	9.47
315.733	7.18
315.946	8.39
316.158	9.91
316.371	11.25
316.583	14.18
316.795	13.1
317.008	13.85
317.22	14.78
317.432	13.78
317.644	14.23
317.857	13.76
318.069	11.35
318.281	10.16
318.494	12.02
318.706	12.67
318.918	11.34
319.13	10.9
319.342	10.56
319.555	10.2
319.767	9.21
319.979	7.29
320.191	7.87
320.403	10.49
320.615	8.07
320.827	5.6
321.039	5.84
321.252	6.11
321.464	6.21
321.676	7.23
321.888	5.95
322.1	8.05
322.312	10.02
322.524	10.43
322.736	8.39
322.948	11.29
323.16	11.67
323.372	11.8
323.584	10.65
323.796	11.47
324.007	12.04
324.219	13
324.431	14.37
324.643	13.78
324.855	14.42
325.067	16.02
325.279	17.18
325.491	17.52
325.702	18.87
325.914	21.58
326.126	22
326.338	21.08
326.55	21.7
326.761	21.44
326.973	21.5
327.185	22.27
327.396	22.4
327.608	22.34
327.82	22.64
328.032	22.61
328.243	22.77
328.455	24.95
328.666	24.68
328.878	26.39
329.09	28.09
329.301	29.7
329.513	29.21
329.725	32.99
329.936	32.66
330.148	32.56
330.359	31.93
330.571	31.49
330.782	30.34
330.994	33
331.205	33.05
331.417	32.59
331.628	31.59
331.84	32.97
332.051	30.35
332.262	31.38
332.474	31.09
332.685	31.6
332.897	33.41
333.108	36.14
333.319	35.01
333.531	36.15
333.742	37.44
333.953	37.96
334.165	37.85
334.376	39.01
334.587	38.04
334.799	39.73
335.01	40.17
335.221	40.08
335.432	40.61
335.644	42.52
335.855	42.21
336.066	40.2
336.277	42.44
336.488	43.05
336.7	43.1
336.911	44.18
337.122	44.54
337.333	44.67
337.544	44.45
337.755	43.52
337.966	42.98
338.177	43.45
338.388	45.06
338.599	44.53
338.811	44.91
339.022	45.13
339.233	45.42
339.444	46.26
339.655	46.79
339.866	47.66
340.076	47.43
340.287	48.04
340.498	48.92
340.709	48.15
340.92	48.34
341.131	47.94
341.342	49.47
341.553	49.42
341.764	48.2
341.975	47.07
342.185	46.65
342.396	46.18
342.607	46.13
342.818	44.49
343.029	44.77
343.239	44.85
343.45	43.99
343.661	42.68
343.872	42.59
344.082	42.77
344.293	44.25
344.504	45.21
344.714	46.59
344.925	47.2
345.136	48.03
345.346	48.46
345.557	49.05
345.768	49.27
345.978	49.36
346.189	49.79
346.399	50.89
346.61	51.01
346.821	50.46
347.031	50.67
347.242	51.19
347.452	50.45
347.663	49.39
347.873	47.9
348.084	49.47
348.294	49.35
348.504	48.91
348.715	47.15
348.925	47.56
349.136	47.35
349.346	46.02
349.557	45.86
349.767	47.69
349.977	48.52
350.188	49.95
350.398	48.4
350.608	49.95
350.819	49.79
351.029	51.84
351.239	51.84
351.449	50.76
351.66	51.42
351.87	49.42
352.08	48.83
352.29	50.06
352.501	48.94
352.711	48.99
352.921	48.21
353.131	49.95
353.341	49.47
353.552	49.76
353.762	51.31
353.972	51.36
354.182	52.25
354.392	51.95
354.602	51.63
354.812	51.86
355.022	53.45
355.232	52.51
355.442	51.16
355.652	51.68
355.862	51.18
356.072	50.77
356.282	50.65
356.492	50.21
356.702	50.35
356.912	49.39
357.122	48.41
357.332	47.9
357.542	47.78
357.752	47.88
357.962	47.09
358.171	47.82
358.381	47.95
358.591	48.06
358.801	48.2
359.011	49.34
359.221	49.18
359.43	50.48
359.64	49.07
359.85	49.4
360.06	49.25
360.269	48.42
360.479	47.9
360.689	47.56
360.899	47.58
361.108	48.47
361.318	47.49
361.528	48.67
361.737	47.59
361.947	48
362.156	48.3
362.366	48.44
362.576	48.92
362.785	49.39
362.995	49.95
363.204	49.71
363.414	49.45
363.623	49.86
363.833	48.8
364.042	50.38
364.252	50.79
364.461	51.22
364.671	51.43
364.88	51.94
365.09	50.83
365.299	50.51
365.509	50.53
365.718	50.56
365.927	50.07
366.137	51.2
366.346	50.34
366.555	50.32
366.765	49.47
366.974	49.52
367.183	49.11
367.393	48.78
367.602	49.05
367.811	49.36
368.021	49.06
368.23	49.81
368.439	48.85
368.648	48.32
368.857	48.44
369.067	49.01
369.276	48.28
369.485	47.04
369.694	48.18
369.903	47.58
370.112	46.6
370.321	45.77
370.531	45.09
370.74	45.44
370.949	46.39
371.158	46.05
371.367	45.63
371.576	45.78
371.785	47.32
371.994	45.95
372.203	45.59
372.412	45.56
372.621	46.12
372.83	46.07
373.039	45.89
373.248	45.3
373.457	45.25
373.666	44.8
373.874	44.22
374.083	43.33
374.292	43.92
374.501	44.37
374.71	44.31
374.919	43.67
375.128	43.39
375.336	42.77
375.545	42.13
375.754	41.74
375.963	41.97
376.171	42.44
376.38	42.31
376.589	41.94
376.798	41.73
377.006	42.3
377.215	42.38
377.424	42.22
377.632	41.98
377.841	42.16
378.05	42.48
378.258	42.36
378.467	42.3
378.675	42.13
378.884	42.46
379.093	42.4
379.301	42.12
379.51	41.42
379.718	41.28
379.927	41.49
380.135	41.62
380.344	41.27
380.552	40.99
380.761	40.97
380.969	41.52
381.177	41.33
381.386	41.06
381.594	41.03
381.803	41.42
382.011	41.86
382.219	41.5
382.428	41.22
382.636	40.84
382.845	40.77
383.053	40.79
383.261	39.94
383.469	39.18
383.678	39.38
383.886	39.51
384.094	39.5
384.302	39.04
384.511	39.32
384.719	38.99
384.927	39.45
385.135	39.66
385.343	39.14
385.552	39.34
385.76	39.35
385.968	39.13
386.176	38.84
386.384	38.58
386.592	38.48
386.8	38.56
387.008	38.66
387.216	38.31
387.424	37.71
387.633	38.34
387.841	37.93
388.049	37.83
388.257	37.84
388.465	37.69
388.672	37.78
388.88	37.29
389.088	37
389.296	37.04
389.504	37.53
389.712	37.17
389.92	36.57
390.128	36.69
390.336	36.91
390.544	36.66
390.751	36.77
390.959	36.48
391.167	37.04
391.375	36.94
391.583	36.71
391.79	36.13
391.998	36.59
392.206	36.77
392.414	36.55
392.621	36.52
392.829	36.33
393.037	36.59
393.244	36.74
393.452	36.97
393.66	36.89
393.867	37.13
394.075	37.13
394.283	37.04
394.49	37.23
394.698	37.62
394.905	37.39
395.113	37.65
395.32	37.11
395.528	37.22
395.735	36.91
395.943	37.29
396.15	37.3
396.358	37.7
396.565	37.75
396.773	37.53
396.98	37.62
397.188	37.76
397.395	37.97
397.602	37.97
397.81	37.71
398.017	37.85
398.225	37.78
398.432	37.62
398.639	37.11
398.847	37.21
399.054	36.89
399.261	36.43
399.468	36.68
399.676	36.94
399.883	37.48
400.09	37.99
400.297	37.96
400.505	38.09
400.712	38.45
400.919	38.97
401.126	39.02
401.333	39.56
401.54	39.94
401.748	40.03
401.955	39.75
402.162	39.62
402.369	39.33
402.576	39.42
402.783	39.62
402.99	39.42
403.197	39.51
403.404	39.81
403.611	39.57
403.818	39.48
404.025	39.24
404.232	39.37
404.439	39.58
404.646	39.83
404.853	39.93
405.06	40.01
405.267	40.13
405.474	40.1
405.681	39.81
405.887	39.87
406.094	39.85
406.301	39.9
406.508	39.72
406.715	39.4
406.922	39.57
407.128	39.28
407.335	39.07
407.542	39.1
407.749	38.94
407.955	39.15
408.162	39.01
408.369	39.37
408.575	39.88
408.782	40.24
408.989	40.32
409.195	39.91
409.402	39.93
409.609	40.08
409.815	39.99
410.022	40.46
410.228	40.42
410.435	40.43
410.642	40.31
410.848	39.77
411.055	39.49
411.261	39.56
411.468	39.68
411.674	39.91
411.881	39.55
412.087	39.41
412.294	39.15
412.5	38.74
412.706	38.99
412.913	38.55
413.119	38.9
413.326	38.62
413.532	38.24
413.738	38.17
413.945	38.16
414.151	38.25
414.357	38.31
414.564	38.15
414.77	38.26
414.976	38.02
415.182	38.49
415.389	38.27
415.595	38.3
415.801	38.27
416.007	38.29
416.214	37.7
416.42	37.65
416.626	37.67
416.832	37.61
417.038	37.87
417.244	37.88
417.45	37.89
417.657	37.93
417.863	37.94
418.069	38.4
418.275	38.48
418.481	38.58
418.687	38.52
418.893	38.71
419.099	38.62
419.305	38.35
419.511	38.22
419.717	38.22
419.923	38.24
420.129	38.26
420.335	38.01
420.541	37.76
420.746	37.92
420.952	37.74
421.158	37.5
421.364	37.44
421.57	37.44
421.776	37.5
421.982	37.18
422.187	37.11
422.393	37.13
422.599	36.9
422.805	37.13
423.01	36.93
423.216	36.9
423.422	36.72
423.628	36.76
423.833	36.76
424.039	36.77
424.245	36.91
424.45	36.88
424.656	36.77
424.862	36.86
425.067	36.65
425.273	36.77
425.478	36.84
425.684	36.96
425.889	36.79
426.095	36.94
426.301	36.84
426.506	36.78
426.712	36.85
426.917	36.84
427.123	36.95
427.328	36.93
427.533	36.9
427.739	37.1
427.944	37.09
428.15	37.43
428.355	37.25
428.561	37.48
428.766	37.62
428.971	37.35
429.177	37.35
429.382	37.23
429.587	37.37
429.793	37.31
429.998	36.99
430.203	36.83
430.408	36.8
430.614	36.85
430.819	36.78
431.024	36.72
431.229	36.8
431.434	36.66
431.64	36.62
431.845	36.47
432.05	36.54
432.255	36.73
432.46	36.92
432.665	36.72
432.87	36.59
433.076	36.53
433.281	36.48
433.486	36.62
433.691	36.76
433.896	36.72
434.101	36.71
434.306	36.49
434.511	36.47
434.716	36.51
434.921	36.66
435.126	36.63
435.331	36.72
435.535	36.79
435.74	36.65
435.945	36.51
436.15	36.58
436.355	36.64
436.56	36.92
436.765	37.07
436.97	37.15
437.174	37.07
437.379	37.35
437.584	37.09
437.789	36.72
437.993	36.65
438.198	36.77
438.403	36.92
438.608	37.15
438.812	36.95
439.017	36.74
439.222	36.55
439.426	36.49
439.631	36.42
439.836	36.51
440.04	36.74
440.245	36.93
440.45	36.89
440.654	36.73
440.859	36.51
441.063	36.35
441.268	36.36
441.472	36.25
441.677	36.31
441.881	36.23
442.086	36.25
442.29	36.35
442.495	36.15
442.699	36.12
442.904	36.29
443.108	36.19
443.312	36.25
443.517	36.17
443.721	36.39
443.925	36.34
444.13	36.5
444.334	36.4
444.538	36.28
444.743	36.36
444.947	36.3
445.151	36.05
445.356	36.09
445.56	36.18
445.764	36.22
445.968	36.16
446.173	36.05
446.377	35.9
446.581	35.86
446.785	35.86
446.989	35.78
447.193	35.69
447.398	35.73
447.602	35.62
447.806	35.71
448.01	35.68
448.214	35.53
448.418	35.57
448.622	35.51
448.826	35.36
449.03	35.24
449.234	35.13
449.438	35.11
449.642	35.26
449.846	35.35
450.05	35.23
450.254	35.06
450.458	35.11
450.662	35.12
450.866	35.08
451.069	35.41
451.273	35.67
451.477	35.83
451.681	36.14
451.885	35.98
452.089	36.04
452.292	35.74
452.496	35.97
452.7	35.97
452.904	35.98
453.107	35.88
453.311	35.82
453.515	35.66
453.719	35.76
453.922	35.51
454.126	35.56
454.33	35.59
454.533	35.71
454.737	35.83
454.94	36.01
455.144	36.02
455.348	36.02
455.551	35.85
455.755	35.8
455.958	35.71
456.162	35.86
456.365	35.79
456.569	35.73
456.772	36.05
456.976	35.92
457.179	35.55
457.383	35.47
457.586	35.63
