Data from 2937856_Reflection_3.txt Node
Date: Wed Jul 15 15:39:59 EDT 2015
User: robert
Spectrometer: USB4E03001
Autoset integration time: false
Trigger mode: 4
Integration Time (sec): 1.000000E-1
Scans to average: 10
Electric dark correction enabled: true
Nonlinearity correction enabled: false
Boxcar width: 5
Stray light correction enabled: false
XAxis mode: Wavelengths
Stop averaging: false
Number of Pixels in Spectrum: 3648
>>>>>Begin Spectral Data<<<<<
177.566	-270.99
177.785	-2431.43
178.005	227.4
178.225	150.92
178.445	196.96
178.665	239.85
178.885	20.3
179.105	-302.03
179.324	709.05
179.544	-388.21
179.764	-1393.75
179.984	221.18
180.204	164.19
180.423	60.42
180.643	90.18
180.863	80.52
181.083	97.5
181.302	86.52
181.522	90.12
181.742	124.43
181.961	111.7
182.181	121
182.401	147.24
182.621	134.05
182.84	127.47
183.06	87.25
183.279	102.46
183.499	57.21
183.719	53.08
183.938	31
184.158	16.09
184.377	-17.49
184.597	-321.57
184.816	-158.12
185.036	-108.57
185.256	-85.48
185.475	-51.48
185.695	-4.8
185.914	45.54
186.134	43.25
186.353	113.43
186.572	565.82
186.792	184.27
187.011	180.88
187.231	174.15
187.45	289.92
187.67	322.8
187.889	445.45
188.108	599.49
188.328	430.67
188.547	617.49
188.766	49431.82
188.986	1208.23
189.205	516.73
189.424	271.83
189.644	355.89
189.863	338.85
190.082	342.18
190.302	421.01
190.521	303.02
190.74	317.67
190.959	285.94
191.178	127.31
191.398	102.08
191.617	169
191.836	469.03
192.055	-232.11
192.274	-329.68
192.494	961.62
192.713	315.99
192.932	144.44
193.151	96.29
193.37	133.48
193.589	147.72
193.808	99.94
194.027	50.41
194.246	45.37
194.465	37.01
194.685	61.82
194.904	59.79
195.123	277.49
195.342	-230.33
195.561	-25.85
195.78	53.9
195.999	33.9
196.218	6.59
196.436	10.18
196.655	-13041.18
196.874	385.48
197.093	32.9
197.312	90.83
197.531	149.38
197.75	31.45
197.969	-20.7
198.188	-86.39
198.407	-10.89
198.625	22.17
198.844	19.41
199.063	33.58
199.282	32.38
199.501	-8.65
199.719	-64.61
199.938	-117.54
200.157	-139.95
200.376	-46.63
200.594	-120.58
200.813	-280.76
201.032	301.64
201.251	456.93
201.469	10971.62
201.688	566
201.907	613.13
202.125	217.37
202.344	208.98
202.563	156.28
202.781	105.57
203	169.01
203.218	217.49
203.437	1357.14
203.656	894.94
203.874	132.74
204.093	196.62
204.311	317.42
204.53	407.21
204.748	298.03
204.967	187.01
205.185	180.35
205.404	143.73
205.622	122.07
205.841	142.44
206.059	152.69
206.278	171.06
206.496	133.55
206.715	131.29
206.933	241.77
207.151	343.73
207.37	-148.9
207.588	-267.29
207.806	-268.14
208.025	-331.09
208.243	-368.41
208.461	1471.59
208.68	856.99
208.898	-2330.7
209.116	-517.15
209.335	571.27
209.553	436.84
209.771	262.03
209.989	424.75
210.208	664.15
210.426	-3154.62
210.644	-274.84
210.862	-191.71
211.081	-345.04
211.299	-1319.79
211.517	-736.64
211.735	-183.17
211.953	-21.61
212.171	-55.19
212.39	-51.71
212.608	-67.9
212.826	7.64
213.044	52.61
213.262	204.32
213.48	228.17
213.698	227.19
213.916	258.03
214.134	-180.17
214.352	-3680.17
214.57	649.25
214.788	722.84
215.006	842.16
215.224	-2374.87
215.442	450.31
215.66	420.55
215.878	312.72
216.096	436.03
216.314	-11031.88
216.532	917.41
216.75	237.33
216.968	228.06
217.185	212.01
217.403	279.58
217.621	190.55
217.839	172.85
218.057	184.36
218.275	174.62
218.492	197.45
218.71	154.51
218.928	146.86
219.146	207.92
219.363	162.12
219.581	292.79
219.799	313.29
220.017	-3571.01
220.234	-25.17
220.452	5.87
220.67	-183.27
220.887	-278.33
221.105	-1508.96
221.323	-195.33
221.54	349.28
221.758	429.85
221.976	276.93
222.193	238.7
222.411	201.12
222.629	158.49
222.846	127.76
223.064	145.47
223.281	137.1
223.499	115.81
223.716	72.57
223.934	86.03
224.151	107.68
224.369	100.46
224.586	66.45
224.804	55.85
225.021	40.45
225.239	52.26
225.456	-83.27
225.674	432.61
225.891	50.33
226.108	-35.98
226.326	78.65
226.543	22.5
226.76	-9.56
226.978	1.84
227.195	8.65
227.413	13.88
227.63	21.37
227.847	12.45
228.064	13.69
228.282	12.62
228.499	11.27
228.716	3.26
228.934	6.4
229.151	5.64
229.368	8.3
229.585	8.96
229.802	10.42
230.02	5.08
230.237	5.14
230.454	5.79
230.671	10.56
230.888	14.33
231.105	18.77
231.323	20.21
231.54	26.75
231.757	26.15
231.974	26.83
232.191	26.75
232.408	33.62
232.625	40.99
232.842	41.78
233.059	44.08
233.276	48.4
233.493	52.4
233.71	49.86
233.927	41.59
234.144	42.67
234.361	40.16
234.578	39.51
234.795	36.31
235.012	33.05
235.229	36.97
235.446	32.6
235.663	29.75
235.879	29.98
236.096	27.7
236.313	33.87
236.53	31.76
236.747	33.01
236.964	32.66
237.181	31.61
237.397	23.9
237.614	15.93
237.831	23.7
238.048	21.96
238.264	19.07
238.481	19.71
238.698	19.01
238.915	26.06
239.131	27.7
239.348	28.4
239.565	28.83
239.781	27.15
239.998	27.85
240.215	22.86
240.431	20.63
240.648	18.85
240.865	19.31
241.081	15.38
241.298	11.83
241.514	11.63
241.731	12.2
241.947	10.73
242.164	7.51
242.38	8.57
242.597	10.07
242.814	9.76
243.03	9.91
243.246	9.42
243.463	11.58
243.679	13.34
243.896	13.32
244.112	12.47
244.329	13.84
244.545	17.48
244.762	16.33
244.978	14.83
245.194	16.1
245.411	17.23
245.627	15.9
245.843	14.64
246.06	12.79
246.276	13.29
246.492	14.04
246.709	14.54
246.925	14.63
247.141	15.01
247.357	14.69
247.574	14.05
247.79	14.29
248.006	15
248.222	15.27
248.439	14.58
248.655	14.05
248.871	13.05
249.087	13.13
249.303	12.23
249.519	12.13
249.736	13.52
249.952	15.82
250.168	15.72
250.384	13.92
250.6	14.75
250.816	17.22
251.032	17.87
251.248	18.7
251.464	16.77
251.68	18.4
251.896	19.68
252.112	17.27
252.328	14.16
252.544	15.35
252.76	16.59
252.976	17.17
253.192	17.26
253.408	18.66
253.624	20.57
253.84	19.43
254.056	18.56
254.272	18.96
254.487	21.43
254.703	24.41
254.919	22.84
255.135	19.86
255.351	15.04
255.567	14.2
255.782	13.44
255.998	9.66
256.214	12.42
256.43	13.66
256.646	14.12
256.861	14.58
257.077	12.91
257.293	12.78
257.508	15.11
257.724	14.41
257.94	14.52
258.155	12.79
258.371	12.08
258.587	11.19
258.802	10.9
259.018	9.44
259.234	8.18
259.449	9.01
259.665	9.46
259.88	9.32
260.096	10.2
260.312	10.13
260.527	9.85
260.743	10.7
260.958	10.69
261.174	10.77
261.389	9.92
261.605	10.02
261.82	9.77
262.036	9.06
262.251	8.45
262.466	7.69
262.682	5.97
262.897	6.66
263.113	6.48
263.328	6.56
263.543	7.05
263.759	8.17
263.974	6.92
264.189	6.26
264.405	6.4
264.62	5.96
264.835	8.47
265.051	8.65
265.266	10.2
265.481	7.7
265.696	7.98
265.912	9.72
266.127	10.6
266.342	11.98
266.557	12.36
266.773	13.24
266.988	15.51
267.203	13.95
267.418	13.78
267.633	12.39
267.848	13.77
268.064	12.6
268.279	12.82
268.494	13.05
268.709	12.97
268.924	11.96
269.139	13.2
269.354	11.75
269.569	12.51
269.784	13.63
269.999	14.08
270.214	13.13
270.429	15.26
270.644	13.53
270.859	13.81
271.074	14.71
271.289	14.71
271.504	12.71
271.719	12.5
271.934	11.64
272.149	11.02
272.363	11.27
272.578	12.67
272.793	12.09
273.008	11.7
273.223	11.56
273.438	11.35
273.653	10.87
273.867	10.8
274.082	12.07
274.297	12.51
274.512	14.35
274.726	13.54
274.941	11.23
275.156	11.87
275.371	12.72
275.585	13.18
275.8	14.11
276.015	16.79
276.229	15.18
276.444	14.55
276.659	15.8
276.873	13
277.088	13.54
277.302	15.24
277.517	13.64
277.732	13.41
277.946	12.61
278.161	11.8
278.375	9.56
278.59	13.26
278.804	12.77
279.019	11.61
279.233	12.7
279.448	13.78
279.662	13.45
279.877	13.06
280.091	11.85
280.306	13.33
280.52	12
280.735	13.4
280.949	11.53
281.163	11.74
281.378	12.22
281.592	11.5
281.806	11.04
282.021	10.7
282.235	10.79
282.449	11.26
282.664	10.36
282.878	11.71
283.092	10.61
283.307	10.84
283.521	11.1
283.735	11.24
283.949	11.63
284.164	11.55
284.378	12.05
284.592	13.51
284.806	12.3
285.02	12.61
285.234	10.82
285.449	10.73
285.663	11.55
285.877	10.37
286.091	9.63
286.305	9.46
286.519	9.25
286.733	8.27
286.947	7.42
287.161	8.25
287.375	7.63
287.589	9.8
287.803	10.39
288.017	9.8
288.231	11.99
288.445	11.67
288.659	12.89
288.873	13.28
289.087	12.47
289.301	12.45
289.515	12.71
289.729	12.88
289.943	10.87
290.157	10.21
290.371	11.39
290.584	10.02
290.798	10.64
291.012	11.01
291.226	11.81
291.44	13.14
291.654	12.69
291.867	13.19
292.081	12.24
292.295	13.98
292.509	15.27
292.722	14.88
292.936	15.55
293.15	15.95
293.364	16.11
293.577	14.63
293.791	16.16
294.005	19.31
294.218	19.37
294.432	21.9
294.645	22.47
294.859	21.18
295.073	20.11
295.286	19.71
295.5	18.62
295.713	18.62
295.927	17.88
296.14	17.65
296.354	15.81
296.568	15.92
296.781	14.6
296.994	13.47
297.208	13.52
297.421	14.99
297.635	15.3
297.848	16.54
298.062	16.16
298.275	16.21
298.489	15.73
298.702	15.48
298.915	14.5
299.129	14.81
299.342	15.88
299.555	16.8
299.769	14.97
299.982	15.96
300.195	16.41
300.409	16.58
300.622	17.94
300.835	17.73
301.048	19.99
301.262	21.85
301.475	22.16
301.688	22.35
301.901	22.72
302.115	23.36
302.328	22.59
302.541	21.55
302.754	21.52
302.967	21.47
303.18	21.65
303.393	19.85
303.607	20.82
303.82	21.41
304.033	21.65
304.246	20.91
304.459	20.67
304.672	19.62
304.885	19.63
305.098	19
305.311	20.11
305.524	19.69
305.737	18.72
305.95	17.05
306.163	16.11
306.376	15.39
306.589	17.06
306.802	17.38
307.015	19.55
307.228	21.09
307.44	22.31
307.653	20.63
307.866	21.72
308.079	22.56
308.292	23.09
308.505	23.07
308.718	23.19
308.93	23.19
309.143	23.51
309.356	23.14
309.569	23.51
309.781	23.33
309.994	24.33
310.207	23.77
310.42	24.14
310.632	24.16
310.845	24.51
311.058	24.67
311.27	23.41
311.483	23.76
311.696	22.23
311.908	21.01
312.121	21.34
312.333	21.88
312.546	22.31
312.759	21.42
312.971	20.4
313.184	21.21
313.396	19.77
313.609	20.04
313.821	20.55
314.034	21.87
314.246	22.42
314.459	22.08
314.671	21.59
314.884	19.96
315.096	21.8
315.309	22.58
315.521	21.04
315.733	21.77
315.946	23.91
316.158	24.29
316.371	24.95
316.583	24.73
316.795	24.91
317.008	23.81
317.22	25.91
317.432	25.71
317.644	26.93
317.857	26.46
318.069	27.63
318.281	25.16
318.494	25.03
318.706	24.96
318.918	24.01
319.13	24.9
319.342	24.57
319.555	24.17
319.767	23.8
319.979	22.92
320.191	24.44
320.403	24.2
320.615	25.73
320.827	23.74
321.039	24.19
321.252	25.6
321.464	26.34
321.676	26.63
321.888	27.38
322.1	27.51
322.312	27.82
322.524	27.26
322.736	28.67
322.948	28.63
323.16	29.48
323.372	29.09
323.584	30.94
323.796	30.71
324.007	31.48
324.219	31.63
324.431	32.85
324.643	34.26
324.855	35.11
325.067	34.03
325.279	34.52
325.491	35.12
325.702	36.4
325.914	35.69
326.126	36.91
326.338	38.4
326.55	38.83
326.761	38.79
326.973	39.07
327.185	39.67
327.396	40.88
327.608	42.36
327.82	43.34
328.032	43.88
328.243	43.8
328.455	43.46
328.666	44.3
328.878	45.08
329.09	46.38
329.301	46.47
329.513	47.48
329.725	50.17
329.936	50.85
330.148	52.32
330.359	51.53
330.571	54.55
330.782	55.94
330.994	56.33
331.205	58.35
331.417	60.08
331.628	61.98
331.84	62.78
332.051	61.99
332.262	61.89
332.474	62.71
332.685	65.02
332.897	64.93
333.108	65.18
333.319	66.41
333.531	67.46
333.742	68.79
333.953	69.36
334.165	69.76
334.376	70.56
334.587	71.95
334.799	72.68
335.01	72.54
335.221	73.28
335.432	74.8
335.644	74.46
335.855	74.57
336.066	73.16
336.277	73.31
336.488	74.34
336.7	74.66
336.911	76.1
337.122	75.67
337.333	77.74
337.544	79.52
337.755	80.72
337.966	81.42
338.177	81.97
338.388	82.24
338.599	83.86
338.811	83.28
339.022	84.88
339.233	84
339.444	83.65
339.655	83.71
339.866	81.22
340.076	79.89
340.287	80.39
340.498	80.23
340.709	81.31
340.92	81.28
341.131	83.02
341.342	82.15
341.553	82.88
341.764	84.37
341.975	83.65
342.185	85.69
342.396	87.24
342.607	87.41
342.818	88.78
343.029	89.82
343.239	89.51
343.45	89.31
343.661	90.55
343.872	91.58
344.082	91.16
344.293	91.57
344.504	90.41
344.714	90
344.925	89.72
345.136	89.07
345.346	88.55
345.557	88.85
345.768	87.8
345.978	86.7
346.189	86.1
346.399	85.92
346.61	85.67
346.821	87.32
347.031	86.48
347.242	86.14
347.452	86.27
347.663	84.85
347.873	84.99
348.084	86.15
348.294	85.03
348.504	84.51
348.715	85.41
348.925	85.71
349.136	84.61
349.346	84.19
349.557	84.07
349.767	83.07
349.977	84.55
350.188	84.3
350.398	83.83
350.608	84.74
350.819	85.24
351.029	83.89
351.239	83.65
351.449	82.76
351.66	82.9
351.87	84.19
352.08	85.03
352.29	84.5
352.501	84.8
352.711	84.83
352.921	85.48
353.131	84.89
353.341	86.86
353.552	86.69
353.762	87.06
353.972	88.35
354.182	88.53
354.392	87.44
354.602	87.45
354.812	85.64
355.022	86.2
355.232	86.31
355.442	85.91
355.652	83.99
355.862	83.72
356.072	84.13
356.282	82.8
356.492	82.53
356.702	82.82
356.912	83.15
357.122	85.35
357.332	83.48
357.542	83.54
357.752	83.54
357.962	83.6
358.171	83.41
358.381	82.92
358.591	84.65
358.801	84.12
359.011	84.53
359.221	83.97
359.43	83.05
359.64	84
359.85	83.61
360.06	83.35
360.269	84.53
360.479	85.03
360.689	84.82
360.899	83.49
361.108	83.88
361.318	83.43
361.528	83.99
361.737	83.61
361.947	83.09
362.156	81.57
362.366	81.44
362.576	80.79
362.785	80.66
362.995	80.52
363.204	80.12
363.414	78.97
363.623	78.75
363.833	77.55
364.042	77.7
364.252	76.9
364.461	78.28
364.671	78.22
364.88	78.14
365.09	78.53
365.299	79.23
365.509	79.35
365.718	79.14
365.927	78.36
366.137	78.13
366.346	77.57
366.555	77.56
366.765	76.34
366.974	76.27
367.183	75.62
367.393	73.71
367.602	72.41
367.811	72.45
368.021	73.52
368.23	73.9
368.439	74.2
368.648	73.42
368.857	74.07
369.067	74.48
369.276	73.85
369.485	73.35
369.694	72.7
369.903	72.68
370.112	71.94
370.321	71.15
370.531	70.8
370.74	69.51
370.949	69.68
371.158	69.37
371.367	69.05
371.576	68.86
371.785	68.99
371.994	70.15
372.203	69.94
372.412	69.38
372.621	69.01
372.83	69.47
373.039	69.4
373.248	68.3
373.457	67.57
373.666	66.83
373.874	66.24
374.083	65.67
374.292	64.45
374.501	64.37
374.71	64
374.919	62.94
375.128	61.49
375.336	61.53
375.545	61.82
375.754	61.86
375.963	62.44
376.171	62.99
376.38	62.97
376.589	63.32
376.798	63.18
377.006	63.45
377.215	64.09
377.424	64.85
377.632	64.66
377.841	64.13
378.05	64.14
378.258	63.24
378.467	62.86
378.675	62.41
378.884	61.59
379.093	61.16
379.301	60.61
379.51	59.91
379.718	59.16
379.927	58.59
380.135	59.03
380.344	58.51
380.552	58.5
380.761	57.75
380.969	57.77
381.177	58.28
381.386	58.18
381.594	58.29
381.803	57.81
382.011	57.12
382.219	57.23
382.428	56.39
382.636	56
382.845	55.74
383.053	55.44
383.261	55.14
383.469	54.81
383.678	54.37
383.886	53.77
384.094	53.32
384.302	52.81
384.511	52.01
384.719	51.74
384.927	51.7
385.135	51.49
385.343	51.5
385.552	50.8
385.76	50.05
385.968	49.47
386.176	49.11
386.384	48.65
386.592	48.42
386.8	48.07
387.008	47.81
387.216	47.12
387.424	46.55
387.633	45.85
387.841	45.87
388.049	45.81
388.257	45.21
388.465	44.93
388.672	44.38
388.88	44.17
389.088	43.81
389.296	43.31
389.504	42.81
389.712	42.16
389.92	42.39
390.128	42.21
390.336	42.1
390.544	42.17
390.751	41.76
390.959	41.79
391.167	41.9
391.375	41.81
391.583	41.73
391.79	41.78
391.998	42.06
392.206	41.75
392.414	41.33
392.621	40.81
392.829	40.25
393.037	40.37
393.244	40.42
393.452	40.25
393.66	40.2
393.867	39.89
394.075	39.91
394.283	39.63
394.49	39.45
394.698	39.4
394.905	39.24
395.113	39.54
395.32	39.04
395.528	38.89
395.735	38.24
395.943	38.13
396.15	37.92
396.358	37.51
396.565	37.6
396.773	37.4
396.98	37.25
397.188	36.93
397.395	36.87
397.602	36.91
397.81	36.51
398.017	36.75
398.225	36.42
398.432	36.5
398.639	36.66
398.847	36.44
399.054	36.42
399.261	36.07
399.468	36.19
399.676	35.93
399.883	35.95
400.09	36.12
400.297	35.94
400.505	36.17
400.712	36.2
400.919	36.12
401.126	36.13
401.333	35.81
401.54	35.96
401.748	35.94
401.955	36.18
402.162	36.01
402.369	35.81
402.576	35.63
402.783	35.4
402.99	35.35
403.197	35.08
403.404	34.91
403.611	34.67
403.818	34.78
404.025	34.7
404.232	34.54
404.439	34.58
404.646	34.57
404.853	34.66
405.06	34.63
405.267	34.59
405.474	34.73
405.681	34.65
405.887	35
406.094	34.67
406.301	34.53
406.508	34.28
406.715	34.12
406.922	34.29
407.128	34.17
407.335	33.99
407.542	33.73
407.749	33.27
407.955	33.14
408.162	32.88
408.369	33.2
408.575	33.17
408.782	33.28
408.989	33.31
409.195	33
409.402	32.99
409.609	32.93
409.815	33.14
410.022	33.28
410.228	33.67
410.435	33.27
410.642	33.24
410.848	33.35
411.055	33.16
411.261	32.98
411.468	32.74
411.674	32.48
411.881	32.44
412.087	32.18
412.294	32.16
412.5	31.9
412.706	32.21
412.913	32.16
413.119	32.09
413.326	32.35
413.532	32.42
413.738	32.66
413.945	32.95
414.151	32.99
414.357	32.93
414.564	32.43
414.77	32.46
414.976	32.31
415.182	32.01
415.389	32.18
415.595	32.07
415.801	32.01
416.007	32.05
416.214	31.6
416.42	31.58
416.626	31.68
416.832	32.07
417.038	31.79
417.244	31.74
417.45	31.75
417.657	31.4
417.863	31.34
418.069	31.24
418.275	30.93
418.481	30.96
418.687	31.09
418.893	30.86
419.099	30.82
419.305	30.71
419.511	30.64
419.717	30.54
419.923	30.53
420.129	30.41
420.335	30.29
420.541	30.26
420.746	30.34
420.952	30.2
421.158	30.23
421.364	30.05
421.57	30.06
421.776	30.06
421.982	30.07
422.187	29.98
422.393	30.02
422.599	30.11
422.805	30.12
423.01	30.09
423.216	30.02
423.422	29.9
423.628	29.95
423.833	29.88
424.039	29.75
424.245	29.64
424.45	29.51
424.656	29.36
424.862	29.19
425.067	29.15
425.273	29
425.478	28.82
425.684	28.85
425.889	28.83
426.095	28.72
426.301	28.75
426.506	28.85
426.712	28.93
426.917	28.82
427.123	28.82
427.328	28.82
427.533	28.85
427.739	28.88
427.944	29.04
428.15	28.9
428.355	28.94
428.561	29.1
428.766	29.08
428.971	29.07
429.177	29.29
429.382	29.33
429.587	29.29
429.793	29.44
429.998	29.48
430.203	29.19
430.408	29.21
430.614	29.28
430.819	29.25
431.024	28.89
431.229	29
431.434	28.96
431.64	28.98
431.845	28.93
432.05	28.87
432.255	28.89
432.46	28.94
432.665	28.89
432.87	28.78
433.076	28.76
433.281	28.86
433.486	28.86
433.691	28.75
433.896	28.6
434.101	28.5
434.306	28.35
434.511	28.41
434.716	28.7
434.921	28.94
435.126	28.94
435.331	28.77
435.535	28.85
435.74	28.98
435.945	28.93
436.15	29.09
436.355	29.11
436.56	29.16
436.765	29.15
436.97	28.86
437.174	28.64
437.379	28.61
437.584	28.64
437.789	28.69
437.993	28.52
438.198	28.57
438.403	28.41
438.608	28.64
438.812	28.56
439.017	28.53
439.222	28.42
439.426	28.27
439.631	28.22
439.836	28.33
440.04	28.16
440.245	28.08
440.45	28.16
440.654	28.24
440.859	28.05
441.063	28.14
441.268	28.18
441.472	28.27
441.677	28.41
441.881	28.55
442.086	28.45
442.29	28.56
442.495	28.61
442.699	28.47
442.904	28.4
443.108	28.52
443.312	28.45
443.517	28.36
443.721	28.3
443.925	28.21
444.13	28.09
444.334	27.87
444.538	27.89
444.743	27.75
444.947	27.75
445.151	27.78
445.356	27.79
445.56	27.89
445.764	27.8
445.968	27.76
446.173	27.76
446.377	27.83
446.581	27.88
446.785	27.89
446.989	28.02
447.193	28.04
447.398	28.15
447.602	27.91
447.806	27.8
448.01	27.82
448.214	27.88
448.418	27.77
448.622	27.69
448.826	27.92
449.03	27.78
449.234	27.73
449.438	27.72
449.642	27.37
449.846	27.64
450.05	27.7
450.254	27.79
450.458	27.77
450.662	28.02
450.866	27.84
451.069	27.72
451.273	27.68
451.477	27.66
451.681	27.58
451.885	27.69
452.089	27.88
452.292	27.91
452.496	27.83
452.7	27.68
452.904	27.5
453.107	27.6
453.311	27.49
453.515	27.53
453.719	27.36
453.922	27.39
454.126	27.53
454.33	27.21
454.533	27.13
454.737	27.06
454.94	27.12
455.144	27.2
455.348	27.27
