Data from 2937819_Reflection_1.txt Node
Date: Wed Jul 15 17:24:13 EDT 2015
User: robert
Spectrometer: USB4E03001
Autoset integration time: false
Trigger mode: 4
Integration Time (sec): 1.000000E-1
Scans to average: 10
Electric dark correction enabled: true
Nonlinearity correction enabled: false
Boxcar width: 5
Stray light correction enabled: false
XAxis mode: Wavelengths
Stop averaging: false
Number of Pixels in Spectrum: 3648
>>>>>Begin Spectral Data<<<<<
177.566	81.17
177.785	88.87
178.005	187.67
178.225	219.12
178.445	496.62
178.665	-138.2
178.885	254.21
179.105	215.71
179.324	283.59
179.544	139.94
179.764	99.84
179.984	103.19
180.204	161.64
180.423	737.38
180.643	303.04
180.863	216.18
181.083	828.33
181.302	221.59
181.522	170.83
181.742	206.22
181.961	112.65
182.181	177.96
182.401	84.43
182.621	49.76
182.84	58.46
183.06	77.77
183.279	103.06
183.499	114.64
183.719	152.11
183.938	396.69
184.158	203.98
184.377	346.6
184.597	247.58
184.816	344.99
185.036	-695.5
185.256	-24.08
185.475	15.36
185.695	18.57
185.914	-33.85
186.134	-35.53
186.353	-58.67
186.572	-70.47
186.792	-66.12
187.011	-83.58
187.231	-102.75
187.45	-1252.17
187.67	3160.32
187.889	272.06
188.108	240.69
188.328	193.23
188.547	155.96
188.766	140.74
188.986	154.74
189.205	116.97
189.424	126.63
189.644	141.92
189.863	249.26
190.082	318.97
190.302	-5513.7
190.521	316.87
190.74	141.07
190.959	201.64
191.178	63.58
191.398	48.83
191.617	-155.95
191.836	64.14
192.055	158.5
192.274	-706.18
192.494	-2.52
192.713	11.39
192.932	164.94
193.151	108.12
193.37	201.51
193.589	642.86
193.808	-600.82
194.027	-7.86
194.246	32.24
194.465	930.59
194.685	260.92
194.904	768.3
195.123	-969.38
195.342	-745.54
195.561	495.02
195.78	-21.68
195.999	-9.24
196.218	297.22
196.436	-2168.18
196.655	-1169.79
196.874	-82.89
197.093	-696.2
197.312	24.41
197.531	10.18
197.75	2.1
197.969	57.89
198.188	93.05
198.407	75.25
198.625	94.3
198.844	131.4
199.063	140.09
199.282	361.89
199.501	306.33
199.719	130.45
199.938	436.14
200.157	255.1
200.376	685.66
200.594	162.46
200.813	373.23
201.032	522.77
201.251	3531.03
201.469	-237.85
201.688	1353.42
201.907	-458.42
202.125	-40.96
202.344	-30.52
202.563	-5.41
202.781	-23.01
203	-5.7
203.218	63.72
203.437	94.76
203.656	80.97
203.874	96.84
204.093	68.83
204.311	38.76
204.53	-100.86
204.748	-76.34
204.967	-221.19
205.185	199.84
205.404	-197.15
205.622	-124.01
205.841	-136.94
206.059	-6508.08
206.278	726.54
206.496	579.55
206.715	-698.91
206.933	-5264.38
207.151	381.13
207.37	-847.85
207.588	-153.09
207.806	-504.82
208.025	-644.8
208.243	14.97
208.461	-127.14
208.68	-691.15
208.898	495.88
209.116	3595.07
209.335	921.3
209.553	443.68
209.771	1179.43
209.989	-868.33
210.208	-1348.09
210.426	-372.32
210.644	6756.16
210.862	1061.17
211.081	175.31
211.299	22.69
211.517	97.37
211.735	353.49
211.953	98.05
212.171	68.81
212.39	48.48
212.608	182.82
212.826	230.83
213.044	27.79
213.262	67.78
213.48	28.05
213.698	-7.27
213.916	-130.11
214.134	-138.16
214.352	-69.58
214.57	-3.17
214.788	-10.36
215.006	-22.66
215.224	-55.3
215.442	-22.56
215.66	10.7
215.878	-10.89
216.096	-9.41
216.314	-36.81
216.532	-24.1
216.75	-7.95
216.968	-62.83
217.185	-12.65
217.403	23.01
217.621	54.69
217.839	-6.31
218.057	-304.92
218.275	843.14
218.492	134.63
218.71	60.59
218.928	-270.49
219.146	789.84
219.363	143.16
219.581	37.39
219.799	-12.61
220.017	-30.7
220.234	-128.59
220.452	-88.81
220.67	-1.81
220.887	33.81
221.105	34.26
221.323	-43.97
221.54	2267.55
221.758	138.46
221.976	136.76
222.193	66.36
222.411	11.64
222.629	-103.9
222.846	-247.63
223.064	25.5
223.281	-113.43
223.499	22.11
223.716	46.09
223.934	61.02
224.151	34.85
224.369	34.58
224.586	42.36
224.804	27.89
225.021	39.12
225.239	21.83
225.456	15.81
225.674	20.49
225.891	22.19
226.108	14.02
226.326	4.23
226.543	21.98
226.76	26.83
226.978	20.57
227.195	18
227.413	13.45
227.63	18.67
227.847	16.61
228.064	19.03
228.282	15.53
228.499	16.05
228.716	17.17
228.934	12.73
229.151	13.05
229.368	14.68
229.585	19.86
229.802	23.13
230.02	25.37
230.237	26.29
230.454	22.62
230.671	26.45
230.888	29.23
231.105	33.31
231.323	36.21
231.54	37.19
231.757	38.73
231.974	32.56
232.191	27.65
232.408	25.02
232.625	27.59
232.842	31.64
233.059	25.27
233.276	25.62
233.493	28.5
233.71	28.43
233.927	20.56
234.144	17.45
234.361	21.98
234.578	21.48
234.795	18.26
235.012	12.55
235.229	18.87
235.446	20.99
235.663	13.96
235.879	11.28
236.096	9.71
236.313	13.33
236.53	13.89
236.747	11.72
236.964	13.59
237.181	20.96
237.397	19.38
237.614	19.52
237.831	12.85
238.048	13.42
238.264	18.18
238.481	19.46
238.698	21.68
238.915	21.32
239.131	23.22
239.348	27.82
239.565	21.1
239.781	24.75
239.998	19.51
240.215	24.35
240.431	26.81
240.648	22.04
240.865	22.71
241.081	21.25
241.298	21.12
241.514	22.18
241.731	21.02
241.947	22.56
242.164	23.09
242.38	22.89
242.597	23.64
242.814	22.67
243.03	21.2
243.246	21.79
243.463	20.04
243.679	21.13
243.896	22.26
244.112	22.03
244.329	19.71
244.545	18.31
244.762	17.42
244.978	16.44
245.194	16.52
245.411	16.74
245.627	17.38
245.843	19.62
246.06	18.8
246.276	18.25
246.492	17.4
246.709	18.26
246.925	17.33
247.141	18.32
247.357	16.81
247.574	16.37
247.79	16.45
248.006	15.47
248.222	14.33
248.439	14.02
248.655	12.6
248.871	12.91
249.087	12.23
249.303	12.08
249.519	12.91
249.736	13.98
249.952	13.38
250.168	14.1
250.384	12.91
250.6	14.23
250.816	13.37
251.032	14.98
251.248	14.7
251.464	13.64
251.68	17.09
251.896	14.35
252.112	13.45
252.328	14.32
252.544	12.27
252.76	12.61
252.976	15.1
253.192	14.65
253.408	15.02
253.624	14.05
253.84	18.07
254.056	14.36
254.272	15.96
254.487	16.79
254.703	14.25
254.919	17.05
255.135	18.33
255.351	14.03
255.567	13.73
255.782	13.77
255.998	17.39
256.214	14.27
256.43	17.34
256.646	16.24
256.861	14.15
257.077	16.56
257.293	14.13
257.508	14.5
257.724	13.68
257.94	15.09
258.155	13.14
258.371	11.08
258.587	10.65
258.802	9.08
259.018	9.09
259.234	10.49
259.449	10.06
259.665	10.31
259.88	10.15
260.096	11.26
260.312	11.4
260.527	11.52
260.743	12.04
260.958	11.64
261.174	12.09
261.389	12.87
261.605	12.6
261.82	12.06
262.036	12.6
262.251	12.83
262.466	12.44
262.682	13.14
262.897	13.66
263.113	13.79
263.328	15.78
263.543	16.7
263.759	15
263.974	15.48
264.189	16.87
264.405	17.76
264.62	17.58
264.835	17.33
265.051	14.62
265.266	12.09
265.481	11.43
265.696	10.26
265.912	9.77
266.127	9.17
266.342	8.28
266.557	7.79
266.773	5.82
266.988	4.93
267.203	2.47
267.418	4.23
267.633	4.96
267.848	4.29
268.064	3.93
268.279	3.59
268.494	3.29
268.709	3.02
268.924	2.84
269.139	4.33
269.354	5.86
269.569	7.46
269.784	5.08
269.999	6.97
270.214	7.94
270.429	8.16
270.644	8.94
270.859	9.7
271.074	9.52
271.289	10.64
271.504	10.25
271.719	9.95
271.934	9.74
272.149	11.63
272.363	11.43
272.578	11.79
272.793	12.02
273.008	11.1
273.223	10.89
273.438	11.24
273.653	11.5
273.867	10.77
274.082	9.69
274.297	9.19
274.512	8.72
274.726	7.82
274.941	6.39
275.156	7.27
275.371	7.87
275.585	7.77
275.8	9.02
276.015	8.55
276.229	10.37
276.444	11.56
276.659	12.63
276.873	11.04
277.088	11.22
277.302	11.24
277.517	8.8
277.732	6.97
277.946	6.84
278.161	5.68
278.375	6.82
278.59	5.96
278.804	5.51
279.019	4.97
279.233	4.42
279.448	4.53
279.662	5.74
279.877	7.93
280.091	9.62
280.306	9.52
280.52	10.33
280.735	8.83
280.949	10.98
281.163	11.58
281.378	13.15
281.592	16.23
281.806	17.16
282.021	17.77
282.235	16.57
282.449	17.12
282.664	17.75
282.878	17.52
283.092	18.05
283.307	16.4
283.521	17.19
283.735	18.45
283.949	16.12
284.164	14.02
284.378	12.3
284.592	12.64
284.806	11.88
285.02	11.7
285.234	11.41
285.449	10.94
285.663	11.65
285.877	11.14
286.091	10.07
286.305	11
286.519	11.4
286.733	11.71
286.947	11.93
287.161	11.71
287.375	11.88
287.589	12.03
287.803	12.87
288.017	12.56
288.231	11.14
288.445	10.67
288.659	10.84
288.873	10.83
289.087	10.43
289.301	10.66
289.515	11.4
289.729	11.41
289.943	12.03
290.157	11.98
290.371	11.37
290.584	12.56
290.798	12.61
291.012	12.38
291.226	12.49
291.44	12.26
291.654	13
291.867	12.44
292.081	13.94
292.295	13.56
292.509	12.08
292.722	13.61
292.936	12.22
293.15	12.91
293.364	12.31
293.577	13.33
293.791	14.83
294.005	14.52
294.218	14.39
294.432	11.17
294.645	10.72
294.859	12.21
295.073	10.58
295.286	12.5
295.5	13.23
295.713	14.16
295.927	14.6
296.14	14.37
296.354	14.23
296.568	15.76
296.781	16.22
296.994	16.55
297.208	16.43
297.421	17.55
297.635	16.61
297.848	15.89
298.062	15.68
298.275	15.37
298.489	14.52
298.702	14.33
298.915	12.75
299.129	13.53
299.342	14.13
299.555	15.32
299.769	14.71
299.982	13.27
300.195	13.09
300.409	12.5
300.622	14.13
300.835	14.3
301.048	14.47
301.262	14.88
301.475	14.55
301.688	14.04
301.901	12.52
302.115	12.17
302.328	13.81
302.541	13.68
302.754	13.38
302.967	11.39
303.18	12.18
303.393	12.04
303.607	13.91
303.82	14.44
304.033	13.81
304.246	13.61
304.459	14.58
304.672	15.05
304.885	15.09
305.098	16.38
305.311	16.66
305.524	17.79
305.737	18.95
305.95	17.18
306.163	17.85
306.376	17.21
306.589	16.34
306.802	15.74
307.015	15.44
307.228	15.3
307.44	15.16
307.653	14.51
307.866	13.95
308.079	12.45
308.292	12.96
308.505	12.65
308.718	12.69
308.93	13.75
309.143	14.37
309.356	14.13
309.569	13.64
309.781	12.58
309.994	12.79
310.207	12.47
310.42	12.12
310.632	10.76
310.845	10.32
311.058	11.39
311.27	10.89
311.483	10.39
311.696	10.64
311.908	11.1
312.121	11.53
312.333	10.52
312.546	11
312.759	10.09
312.971	9.77
313.184	9.85
313.396	9.68
313.609	9.4
313.821	9.97
314.034	9.77
314.246	10.05
314.459	9.12
314.671	11.86
314.884	10.65
315.096	11.57
315.309	13.1
315.521	12.04
315.733	11.68
315.946	10.64
316.158	10.71
316.371	11.53
316.583	11.18
316.795	12.08
317.008	10.55
317.22	10.16
317.432	11.62
317.644	12.47
317.857	12.41
318.069	12.35
318.281	14.99
318.494	15.56
318.706	14.81
318.918	15.21
319.13	14.38
319.342	14.19
319.555	16.73
319.767	15.33
319.979	14.88
320.191	14.44
320.403	13.96
320.615	12.94
320.827	9.86
321.039	10.71
321.252	10.78
321.464	12.12
321.676	12.48
321.888	10.15
322.1	11.36
322.312	10.33
322.524	10.8
322.736	10.8
322.948	10.83
323.16	13.2
323.372	13.45
323.584	13.42
323.796	12.32
324.007	13.82
324.219	14.19
324.431	13.96
324.643	14.73
324.855	14.76
325.067	14.31
325.279	14.65
325.491	14.21
325.702	13.87
325.914	14.07
326.126	14.38
326.338	12.42
326.55	12.81
326.761	12.5
326.973	13.12
327.185	14.33
327.396	14.88
327.608	12.79
327.82	11.64
328.032	12.2
328.243	12.88
328.455	12.67
328.666	13.08
328.878	13.64
329.09	14.63
329.301	13.81
329.513	11.9
329.725	10.2
329.936	13.62
330.148	14
330.359	13.31
330.571	12.67
330.782	13.12
330.994	13.9
331.205	12.45
331.417	11.79
331.628	12.63
331.84	13.73
332.051	15.99
332.262	13.92
332.474	13.91
332.685	14.75
332.897	14.79
333.108	14.57
333.319	13.86
333.531	13.94
333.742	13.95
333.953	13.43
334.165	15.18
334.376	15.7
334.587	17.11
334.799	17.63
335.01	16
335.221	14.58
335.432	14.29
335.644	14.76
335.855	14.3
336.066	14.59
336.277	14.62
336.488	13.05
336.7	11.38
336.911	11.02
337.122	11.6
337.333	13.1
337.544	13.71
337.755	14.17
337.966	14.11
338.177	15.65
338.388	15.77
338.599	15.83
338.811	15.33
339.022	17.58
339.233	17.34
339.444	17.3
339.655	17.13
339.866	16.46
340.076	16.62
340.287	17.38
340.498	15.95
340.709	15.93
340.92	16.62
341.131	17.84
341.342	16.96
341.553	18.74
341.764	18.24
341.975	16.37
342.185	17.47
342.396	17.94
342.607	17.59
342.818	18.43
343.029	18.19
343.239	17.25
343.45	16.73
343.661	16.87
343.872	15.14
344.082	14.62
344.293	14.66
344.504	14.31
344.714	12.83
344.925	13.43
345.136	13.07
345.346	12.97
345.557	13.08
345.768	12.77
345.978	12.22
346.189	13.08
346.399	13.17
346.61	13.77
346.821	13.25
347.031	14.45
347.242	14.38
347.452	14.93
347.663	14.72
347.873	14.81
348.084	13.91
348.294	13.42
348.504	12.86
348.715	12.87
348.925	13.33
349.136	14.16
349.346	13.86
349.557	13.02
349.767	12.15
349.977	13.4
350.188	12.58
350.398	13.72
350.608	13.25
350.819	12.19
351.029	12.04
351.239	12.11
351.449	11.58
351.66	11.85
351.87	10.69
352.08	9.96
352.29	8
352.501	7.21
352.711	8.48
352.921	9
353.131	9.83
353.341	9.89
353.552	9.42
353.762	8.62
353.972	8.69
354.182	10.47
354.392	12.07
354.602	12.41
354.812	13.78
355.022	13.5
355.232	12.73
355.442	12.28
355.652	11.71
355.862	12.44
356.072	13.25
356.282	13.59
356.492	12.91
356.702	12.49
356.912	11.97
357.122	11.94
357.332	10.89
357.542	12.26
357.752	11.93
357.962	12.97
358.171	13.11
358.381	12.76
358.591	12.44
358.801	11.8
359.011	11.04
359.221	11.02
359.43	10.98
359.64	11.24
359.85	10.58
360.06	11.93
360.269	11.31
360.479	10.25
360.689	10.04
360.899	10.27
361.108	10.46
361.318	11.58
361.528	12.5
361.737	12.44
361.947	12.1
362.156	12.26
362.366	11.51
362.576	11.67
362.785	12.13
362.995	12.46
363.204	11.55
363.414	11.47
363.623	10.77
363.833	10.02
364.042	10.07
364.252	10.4
364.461	10.06
364.671	10.08
364.88	9.57
365.09	9.57
365.299	9.92
365.509	10.63
365.718	10.97
365.927	10.9
366.137	11.23
366.346	11.74
366.555	11.32
366.765	11.13
366.974	11.32
367.183	12.08
367.393	11.39
367.602	10.56
367.811	9.79
368.021	10.32
368.23	9.73
368.439	8.87
368.648	8.23
368.857	7.89
369.067	8.26
369.276	7.63
369.485	6.69
369.694	6.73
369.903	7.22
370.112	7.89
370.321	7.07
370.531	6.42
370.74	7.06
370.949	6.75
371.158	6.69
371.367	6.8
371.576	6.84
371.785	6.94
371.994	7.45
372.203	7.84
372.412	7.5
372.621	7.23
372.83	7.96
373.039	8.14
373.248	7.56
373.457	8.58
373.666	8.57
373.874	8.61
374.083	9.65
374.292	9.54
374.501	9.22
374.71	9.16
374.919	9.91
375.128	10.47
375.336	10.03
375.545	10.49
375.754	10.14
375.963	9.83
376.171	10.76
376.38	10.28
376.589	10.21
376.798	9.96
377.006	9.81
377.215	9.6
377.424	9.11
377.632	9.56
377.841	9.75
378.05	9.44
378.258	9.31
378.467	8.52
378.675	8.96
378.884	8.69
379.093	8.72
379.301	8.99
379.51	9.1
379.718	9.23
379.927	8.41
380.135	8.07
380.344	8.17
380.552	8.72
380.761	8.46
380.969	7.38
381.177	7.54
381.386	7.03
381.594	6.14
381.803	6.18
382.011	6.53
382.219	6.76
382.428	7.23
382.636	7.53
382.845	7.03
383.053	7.09
383.261	7.85
383.469	7.78
383.678	8.03
383.886	8.17
384.094	7.63
384.302	6.71
384.511	6.36
384.719	5.72
384.927	5.54
385.135	5.08
385.343	5.19
385.552	4.69
385.76	4.66
385.968	4.95
386.176	5.22
386.384	5.69
386.592	6.08
386.8	6.27
387.008	6.49
387.216	6.39
387.424	6.23
387.633	6.07
387.841	6.37
388.049	6.03
388.257	5.84
388.465	6.14
388.672	6.22
388.88	6.6
389.088	6.43
389.296	6.43
389.504	6.39
389.712	6.99
389.92	6.84
390.128	6.33
390.336	6.6
390.544	6.11
390.751	5.79
390.959	5.69
391.167	5.37
391.375	5.29
391.583	5.3
391.79	5.34
391.998	5.27
392.206	5.29
392.414	5.19
392.621	4.98
392.829	5.23
393.037	5.57
393.244	5.03
393.452	4.97
393.66	5.09
393.867	4.65
394.075	4.8
394.283	4.44
394.49	4.44
394.698	4.57
394.905	4.43
395.113	4.5
395.32	3.94
395.528	4.38
395.735	4.39
395.943	4.49
396.15	4.52
396.358	3.88
396.565	4.44
396.773	4.55
396.98	4.38
397.188	4.95
397.395	4.94
397.602	5.17
397.81	5.13
398.017	5.27
398.225	5.22
398.432	5.71
398.639	6.19
398.847	5.86
399.054	5.6
399.261	5.58
399.468	4.85
399.676	4.37
399.883	4.53
400.09	4.34
400.297	4.31
400.505	4.35
400.712	4.23
400.919	4.06
401.126	3.93
401.333	4.06
401.54	4.36
401.748	4.84
401.955	5.34
402.162	5.1
402.369	5.23
402.576	5.15
402.783	5.14
402.99	5.02
403.197	4.86
403.404	4.95
403.611	4.8
403.818	5.14
404.025	5.13
404.232	4.98
404.439	5.14
404.646	5.21
404.853	5.02
405.06	5.02
405.267	5.1
405.474	5.23
405.681	5.07
405.887	5.31
406.094	5.08
406.301	5
406.508	5
406.715	5.17
406.922	5.08
407.128	5.27
407.335	5.25
407.542	5.41
407.749	5.59
407.955	6.24
408.162	6.17
408.369	5.92
408.575	5.89
408.782	5.91
408.989	5.68
409.195	5.75
409.402	5.74
409.609	5.88
409.815	5.55
410.022	5.61
410.228	5.33
410.435	5.37
410.642	5.2
410.848	5.33
411.055	5.55
411.261	5.5
411.468	5.4
411.674	5.24
411.881	5.06
412.087	4.98
412.294	4.63
412.5	4.26
412.706	4.38
412.913	4.6
413.119	4.34
413.326	4.52
413.532	4.52
413.738	4.66
413.945	4.91
414.151	4.69
414.357	4.67
414.564	4.76
414.77	5.04
414.976	4.96
415.182	5.05
415.389	5.17
415.595	4.85
415.801	4.69
416.007	4.4
416.214	4.32
416.42	4.45
416.626	4.78
416.832	4.88
417.038	4.71
417.244	4.62
417.45	4.48
417.657	4.33
417.863	4.44
418.069	4.57
418.275	4.59
418.481	4.52
418.687	4.4
418.893	4.22
419.099	4.1
419.305	4.13
419.511	4.11
419.717	4.09
419.923	4.1
420.129	3.93
420.335	3.97
420.541	3.88
420.746	3.9
420.952	3.97
421.158	4.11
421.364	4.24
421.57	4.07
421.776	4.03
421.982	4.19
422.187	4.3
422.393	4.38
422.599	4.39
422.805	4.6
423.01	4.53
423.216	4.6
423.422	4.43
423.628	4.43
423.833	4.63
424.039	4.54
424.245	4.53
424.45	4.55
424.656	4.55
424.862	4.49
425.067	4.34
425.273	4.41
425.478	4.45
425.684	4.58
425.889	4.67
426.095	4.55
426.301	4.7
426.506	4.68
426.712	4.59
426.917	4.56
427.123	4.58
427.328	4.69
427.533	4.62
427.739	4.45
427.944	4.47
428.15	4.15
428.355	4.23
428.561	4.16
428.766	3.9
428.971	4.04
429.177	4.05
429.382	3.95
429.587	3.96
429.793	4.1
429.998	4.28
430.203	4.1
430.408	4.25
430.614	4.29
430.819	4.28
431.024	4.63
431.229	4.59
431.434	4.61
431.64	4.81
431.845	4.84
432.05	4.95
432.255	5.06
432.46	5.01
432.665	4.88
432.87	4.78
433.076	4.95
433.281	4.79
433.486	4.95
433.691	4.89
433.896	4.72
434.101	4.83
434.306	4.63
434.511	4.44
434.716	4.65
434.921	4.51
435.126	4.6
435.331	4.52
435.535	4.56
435.74	4.21
435.945	4.25
436.15	4.23
436.355	4.18
436.56	4.06
436.765	4.21
436.97	3.98
437.174	4.34
437.379	4.27
437.584	4.13
437.789	4.15
437.993	4.28
438.198	4.17
438.403	4.35
438.608	4.02
438.812	4.07
439.017	3.99
439.222	4.03
439.426	3.91
439.631	3.85
439.836	4.11
440.04	3.88
440.245	3.8
440.45	3.84
440.654	3.77
440.859	3.93
441.063	4.01
441.268	3.93
441.472	3.93
441.677	4.09
441.881	4.17
442.086	3.92
442.29	4.25
442.495	4.33
442.699	4.31
442.904	4.09
443.108	4.11
443.312	4.11
443.517	4.17
443.721	4.1
443.925	3.79
444.13	3.88
444.334	4.01
444.538	3.89
444.743	3.97
444.947	4.09
445.151	4.34
445.356	4.32
445.56	4.18
445.764	4.13
445.968	4.29
446.173	4.3
446.377	4.14
446.581	4.17
446.785	4.17
446.989	3.99
447.193	4.08
447.398	3.93
447.602	3.85
447.806	3.95
448.01	4.07
448.214	3.97
448.418	4.05
448.622	4.12
448.826	3.98
449.03	3.97
449.234	4.12
449.438	3.81
449.642	3.86
449.846	4.11
450.05	4.09
450.254	3.97
450.458	3.96
450.662	3.9
450.866	3.8
451.069	3.85
451.273	3.79
451.477	3.71
451.681	3.91
451.885	3.82
452.089	3.53
452.292	3.6
452.496	3.7
452.7	3.7
452.904	3.59
453.107	3.77
453.311	3.83
453.515	3.72
453.719	3.73
453.922	3.79
454.126	3.81
454.33	3.9
454.533	3.98
454.737	3.79
454.94	3.83
455.144	4.19
455.348	4.04
455.551	4.03
455.755	4.13
455.958	4.05
456.162	3.83
456.365	3.8
456.569	3.74
456.772	3.74
456.976	3.63
457.179	3.49
457.383	3.33
457.586	3.39
457.79	3.46
457.993	3.37
458.196	3.33
458.4	3.4
458.603	3.6
458.807	3.67
459.01	3.56
459.213	3.69
459.417	3.67
459.62	3.63
459.823	3.63
460.026	3.63
460.23	3.8
460.433	4.04
460.636	4.19
460.839	4.22
461.042	4.21
461.246	4.22
461.449	4.23
461.652	4.37
461.855	4.47
