Data from 2937819_Reflection_2.txt Node
Date: Wed Jul 15 17:24:21 EDT 2015
User: robert
Spectrometer: USB4E03001
Autoset integration time: false
Trigger mode: 4
Integration Time (sec): 1.000000E-1
Scans to average: 10
Electric dark correction enabled: true
Nonlinearity correction enabled: false
Boxcar width: 5
Stray light correction enabled: false
XAxis mode: Wavelengths
Stop averaging: false
Number of Pixels in Spectrum: 3648
>>>>>Begin Spectral Data<<<<<
177.566	-16.52
177.785	-16.26
178.005	-121.74
178.225	-84.58
178.445	-969.57
178.665	34.64
178.885	226.12
179.105	-118.16
179.324	-145.42
179.544	-38.98
179.764	5.71
179.984	2.03
180.204	-5.13
180.423	-271.47
180.643	-61.72
180.863	-89.64
181.083	1.58
181.302	15.44
181.522	75.22
181.742	15.47
181.961	63.16
182.181	145.56
182.401	85.41
182.621	98.13
182.84	74.88
183.06	77.17
183.279	63.94
183.499	16.03
183.719	-49.95
183.938	-173.23
184.158	-43.1
184.377	-193.06
184.597	-170.01
184.816	-334.94
185.036	2015.34
185.256	385.9
185.475	262.32
185.695	212.63
185.914	238.4
186.134	275.27
186.353	310.44
186.572	269.37
186.792	166.99
187.011	142.49
187.231	168.52
187.45	727.62
187.67	-1661.51
187.889	-62.48
188.108	5.89
188.328	6.7
188.547	7.84
188.766	5.94
188.986	-22.1
189.205	-29.58
189.424	-33.99
189.644	-36.71
189.863	-63.79
190.082	-276.28
190.302	8157.53
190.521	-338.93
190.74	-234.73
190.959	-357.77
191.178	401.61
191.398	749.32
191.617	958.82
191.836	305.16
192.055	431.11
192.274	-2395.79
192.494	-399.66
192.713	-507.29
192.932	367.53
193.151	249.29
193.37	600.5
193.589	3935.71
193.808	-4060.66
194.027	-349.36
194.246	-224.39
194.465	-1441.45
194.685	-348.56
194.904	-1825.28
195.123	1808.13
195.342	1187.19
195.561	-1127.69
195.78	456.08
195.999	924.49
196.218	3220.37
196.436	-17700
196.655	-8220.83
196.874	-254.91
197.093	-1559.06
197.312	-893.95
197.531	-90.23
197.75	-102.67
197.969	-55.09
198.188	-123.87
198.407	-126.02
198.625	-253.86
198.844	-54.6
199.063	-4.68
199.282	-73.02
199.501	-90.42
199.719	-49.95
199.938	-155.76
200.157	-78.09
200.376	-408.35
200.594	17.89
200.813	0.63
201.032	42.89
201.251	-956.9
201.469	149.26
201.688	-1623.6
201.907	463.19
202.125	135.61
202.344	139
202.563	71.57
202.781	97.29
203	93.84
203.218	109.95
203.437	88.88
203.656	84.14
203.874	90.12
204.093	72.23
204.311	82.33
204.53	211.87
204.748	201.15
204.967	302.11
205.185	-303.06
205.404	650.14
205.622	191.16
205.841	188.44
206.059	5555.56
206.278	-578.9
206.496	-536.28
206.715	504.72
206.933	4667.12
207.151	-401.82
207.37	1779.03
207.588	386.44
207.806	804.09
208.025	1236.42
208.243	-98.4
208.461	-339.96
208.68	-770.58
208.898	531.24
209.116	4412.81
209.335	1231.81
209.553	503.02
209.771	1172.63
209.989	-829.98
210.208	-1302.54
210.426	-530.92
210.644	12841.1
210.862	1900.97
211.081	374.45
211.299	614.86
211.517	-158.82
211.735	-1201.27
211.953	-1109.77
212.171	389.4
212.39	236.3
212.608	753.05
212.826	823.54
213.044	-661.15
213.262	-394.09
213.48	-90.94
213.698	-95.25
213.916	-118.71
214.134	-68.54
214.352	-8.12
214.57	39.95
214.788	51.14
215.006	32.26
215.224	25.56
215.442	4.63
215.66	22.65
215.878	-31.65
216.096	-12.07
216.314	-96.93
216.532	-71.73
216.75	-73.51
216.968	-216.51
217.185	-267.88
217.403	-161.56
217.621	-193.82
217.839	-599.73
218.057	-991.69
218.275	1794.9
218.492	337.5
218.71	241.91
218.928	354.69
219.146	-1529.95
219.363	-122.93
219.581	-54.72
219.799	3.44
220.017	-49.63
220.234	-78.23
220.452	-361.45
220.67	-107.84
220.887	-45.6
221.105	-75.95
221.323	-92.42
221.54	1903.31
221.758	163.69
221.976	311.47
222.193	54.15
222.411	30.8
222.629	273.57
222.846	-98.74
223.064	-307.35
223.281	-313.34
223.499	-30.48
223.716	-57.37
223.934	9.6
224.151	3.27
224.369	-16.52
224.586	-22.61
224.804	-32.37
225.021	-34.27
225.239	-32.4
225.456	-25.54
225.674	-21.59
225.891	-19.69
226.108	-15.71
226.326	-25.73
226.543	3.52
226.76	20.02
226.978	21.83
227.195	26.56
227.413	30.72
227.63	26.78
227.847	25.48
228.064	24.68
228.282	18.6
228.499	19.66
228.716	21.53
228.934	17.83
229.151	14.54
229.368	15.76
229.585	21.23
229.802	20.41
230.02	20.99
230.237	19.25
230.454	15.92
230.671	19.6
230.888	23.35
231.105	24.75
231.323	24.49
231.54	23.74
231.757	21.78
231.974	8.39
232.191	6.29
232.408	9.07
232.625	19.46
232.842	23.11
233.059	17
233.276	10.51
233.493	6.5
233.71	0.28
233.927	1.9
234.144	-1.37
234.361	-2.93
234.578	-2.04
234.795	-4.03
235.012	-22.83
235.229	-13.79
235.446	-10.57
235.663	-15.88
235.879	-14.34
236.096	-10.74
236.313	-6.7
236.53	-4.14
236.747	-1.69
236.964	-1.41
237.181	0.9
237.397	2.57
237.614	3.02
237.831	2.08
238.048	1.48
238.264	-5.95
238.481	-2.2
238.698	-6.26
238.915	-2.19
239.131	-0.31
239.348	7.08
239.565	5.3
239.781	8.72
239.998	10.07
240.215	14.77
240.431	14.42
240.648	17.91
240.865	15.88
241.081	14.61
241.298	12.48
241.514	14.63
241.731	11.4
241.947	12.49
242.164	13.26
242.38	12.47
242.597	13.08
242.814	14.59
243.03	14.19
243.246	12.28
243.463	14.61
243.679	16.54
243.896	16.3
244.112	17.52
244.329	15.21
244.545	15.4
244.762	13.4
244.978	12.31
245.194	13.26
245.411	11.38
245.627	14.08
245.843	12.9
246.06	12.61
246.276	13.36
246.492	12.58
246.709	13.83
246.925	13.51
247.141	14.24
247.357	13.59
247.574	13.39
247.79	14.09
248.006	13.33
248.222	13.28
248.439	12.66
248.655	11.39
248.871	11.18
249.087	10.55
249.303	9.38
249.519	9.51
249.736	9.34
249.952	8.35
250.168	9.01
250.384	9.99
250.6	7.87
250.816	7.32
251.032	8.5
251.248	6.51
251.464	7.55
251.68	11.91
251.896	10.51
252.112	8.01
252.328	6.35
252.544	5.65
252.76	6.05
252.976	7.84
253.192	6.7
253.408	7.55
253.624	10.46
253.84	10.28
254.056	6
254.272	5.82
254.487	7.09
254.703	6.53
254.919	7.96
255.135	8.68
255.351	4.85
255.567	5.67
255.782	6.04
255.998	4.22
256.214	1.57
256.43	2.51
256.646	-0.91
256.861	-0.97
257.077	4.94
257.293	1.39
257.508	1.31
257.724	2.63
257.94	4.88
258.155	3.34
258.371	6.49
258.587	7.01
258.802	7.68
259.018	8.78
259.234	8.48
259.449	6.65
259.665	8.06
259.88	7.6
260.096	8.69
260.312	8.5
260.527	9.07
260.743	9.11
260.958	9.22
261.174	8.98
261.389	9.62
261.605	10.12
261.82	9.25
262.036	9.12
262.251	9.08
262.466	7.33
262.682	6.61
262.897	7.32
263.113	5.54
263.328	5.99
263.543	5.61
263.759	5.97
263.974	7.41
264.189	9.73
264.405	9.08
264.62	10
264.835	10.99
265.051	11.2
265.266	7.6
265.481	7.03
265.696	5.62
265.912	5.73
266.127	3.63
266.342	1.17
266.557	0.56
266.773	0.16
266.988	-2.7
267.203	-4.15
267.418	-2.73
267.633	-3.42
267.848	-2.57
268.064	-2.98
268.279	-1.97
268.494	-1.51
268.709	0.08
268.924	0.16
269.139	1.32
269.354	3.88
269.569	5.59
269.784	4.75
269.999	6.94
270.214	6.46
270.429	8.01
270.644	7.88
270.859	7.19
271.074	6.53
271.289	7.87
271.504	7.24
271.719	8.11
271.934	6.56
272.149	6.96
272.363	6.72
272.578	6.2
272.793	6.61
273.008	5.81
273.223	6.02
273.438	6.94
273.653	7.54
273.867	6.43
274.082	5.59
274.297	6.98
274.512	6.19
274.726	7.37
274.941	6.52
275.156	6.28
275.371	5.28
275.585	5.06
275.8	3.07
276.015	1.03
276.229	2.69
276.444	3.13
276.659	2.55
276.873	1.91
277.088	0.13
277.302	2.3
277.517	0.86
277.732	0.64
277.946	0.11
278.161	-0.3
278.375	1.75
278.59	3.58
278.804	3.74
279.019	2.95
279.233	4.66
279.448	5.49
279.662	4.13
279.877	4.95
280.091	6.89
280.306	7.5
280.52	8.89
280.735	9.86
280.949	7.52
281.163	6.1
281.378	7.49
281.592	6.92
281.806	6.91
282.021	7.81
282.235	7.58
282.449	7.15
282.664	4.58
282.878	5.39
283.092	4.34
283.307	4.44
283.521	6.19
283.735	6.4
283.949	6.11
284.164	4.99
284.378	3.31
284.592	3.8
284.806	3.36
285.02	6.26
285.234	4.84
285.449	4.26
285.663	5.29
285.877	4.2
286.091	3.78
286.305	4.6
286.519	5.44
286.733	5.33
286.947	4.19
287.161	4.39
287.375	4.27
287.589	4.1
287.803	4.27
288.017	3.48
288.231	2.44
288.445	1.41
288.659	0.97
288.873	-0.9
289.087	0.08
289.301	1.6
289.515	0.58
289.729	0.32
289.943	1.44
290.157	2.27
290.371	1.33
290.584	2.8
290.798	3.21
291.012	3.67
291.226	5.45
291.44	5.41
291.654	5.65
291.867	6.9
292.081	7.06
292.295	7.55
292.509	7.43
292.722	10.14
292.936	8.75
293.15	10.9
293.364	10.93
293.577	11.36
293.791	13.56
294.005	12.31
294.218	11.55
294.432	11.4
294.645	11.16
294.859	10.43
295.073	10.25
295.286	13.05
295.5	11.82
295.713	12.67
295.927	11.71
296.14	8.59
296.354	9.85
296.568	11.55
296.781	11.01
296.994	10.4
297.208	11.41
297.421	11.08
297.635	9.72
297.848	11.33
298.062	9.25
298.275	10.42
298.489	11.63
298.702	11.59
298.915	10.31
299.129	10.62
299.342	11.39
299.555	10.06
299.769	9.83
299.982	9.71
300.195	6.86
300.409	8.64
300.622	8.73
300.835	8.58
301.048	8.49
301.262	9.4
301.475	9.91
301.688	9.39
301.901	10.09
302.115	10.18
302.328	9.35
302.541	10.09
302.754	9.4
302.967	7.43
303.18	7.4
303.393	6.65
303.607	7.72
303.82	6.5
304.033	7.33
304.246	6.24
304.459	6.83
304.672	8.1
304.885	7.45
305.098	8.67
305.311	9.03
305.524	11.26
305.737	11.77
305.95	10.56
306.163	13.07
306.376	12.6
306.589	13
306.802	11.38
307.015	11.3
307.228	11.49
307.44	9.9
307.653	9.86
307.866	9.06
308.079	7.98
308.292	7.57
308.505	7.63
308.718	7.45
308.93	8.45
309.143	10.2
309.356	10.43
309.569	10.81
309.781	11.61
309.994	11.98
310.207	10.39
310.42	10.47
310.632	9.76
310.845	9.07
311.058	8.6
311.27	6.98
311.483	5.64
311.696	4.3
311.908	4.88
312.121	3.6
312.333	2.59
312.546	2.98
312.759	1.54
312.971	0.95
313.184	1.07
313.396	1.7
313.609	2.76
313.821	1.71
314.034	2.53
314.246	0.23
314.459	1.38
314.671	1.87
314.884	1.52
315.096	3.89
315.309	5.6
315.521	5.04
315.733	5.85
315.946	5.86
316.158	8.5
316.371	9.57
316.583	10.79
316.795	10.48
317.008	11.44
317.22	9.8
317.432	10.67
317.644	9.18
317.857	9.18
318.069	6.96
318.281	9.36
318.494	10.58
318.706	10.52
318.918	11.77
319.13	10.92
319.342	9.43
319.555	10.93
319.767	9.06
319.979	8.26
320.191	7.13
320.403	7.22
320.615	4.61
320.827	2.72
321.039	0.69
321.252	0.77
321.464	1.24
321.676	2.2
321.888	2.17
322.1	1.96
322.312	4.68
322.524	5.13
322.736	5.64
322.948	6.85
323.16	6.38
323.372	8.3
323.584	7.28
323.796	6.83
324.007	8.41
324.219	8.05
324.431	9.28
324.643	7.64
324.855	8.39
325.067	10.33
325.279	10.05
325.491	9.82
325.702	9.89
325.914	10.32
326.126	10.9
326.338	8.89
326.55	9.89
326.761	8.85
326.973	10.41
327.185	10.67
327.396	10.71
327.608	9.37
327.82	9.47
328.032	9.15
328.243	8.96
328.455	8.15
328.666	8.97
328.878	9.06
329.09	9.94
329.301	8.92
329.513	7.56
329.725	6.07
329.936	7.16
330.148	7.42
330.359	6.59
330.571	7.69
330.782	10.13
330.994	10.84
331.205	9.97
331.417	8.89
331.628	9.53
331.84	10.82
332.051	11.05
332.262	11.33
332.474	11.56
332.685	14.06
332.897	13.93
333.108	13.4
333.319	13.59
333.531	13.68
333.742	14.23
333.953	13.92
334.165	14.3
334.376	12.78
334.587	12.87
334.799	13.56
335.01	11.01
335.221	10.13
335.432	8.33
335.644	7.52
335.855	7.74
336.066	8.57
336.277	8.98
336.488	8.9
336.7	11.09
336.911	11.22
337.122	10.46
337.333	12.14
337.544	12.13
337.755	13.57
337.966	13.07
338.177	12.68
338.388	11.48
338.599	11.64
338.811	10.13
339.022	9.95
339.233	8.98
339.444	9.8
339.655	7.63
339.866	8.89
340.076	9.05
340.287	9.23
340.498	10.29
340.709	9.86
340.92	9.63
341.131	10.8
341.342	11.14
341.553	12.32
341.764	11.9
341.975	12.17
342.185	10.73
342.396	11.27
342.607	11.05
342.818	10.51
343.029	11.39
343.239	11.33
343.45	11
343.661	9.62
343.872	8.73
344.082	8.84
344.293	9.51
344.504	9.96
344.714	8.41
344.925	9.67
345.136	10.54
345.346	10.44
345.557	10.43
345.768	10.23
345.978	10.8
346.189	12.02
346.399	10.8
346.61	11.15
346.821	11.59
347.031	13.34
347.242	12.21
347.452	11.12
347.663	11.36
347.873	12.22
348.084	12.83
348.294	12.61
348.504	10.87
348.715	12.61
348.925	11.86
349.136	12.07
349.346	11.12
349.557	11.88
349.767	12.46
349.977	12.41
350.188	12.22
350.398	12.03
350.608	12.17
350.819	12.84
351.029	12.15
351.239	12.74
351.449	12.72
351.66	12.54
351.87	12.04
352.08	10.48
352.29	10.08
352.501	8.15
352.711	8.02
352.921	7.72
353.131	7.66
353.341	7.87
353.552	7.56
353.762	6.84
353.972	6.19
354.182	6.87
354.392	8.33
354.602	8.93
354.812	10.74
355.022	11.01
355.232	10.35
355.442	10.2
355.652	9.05
355.862	9.08
356.072	7.61
356.282	9.69
356.492	9.37
356.702	9.93
356.912	9.3
357.122	8.81
357.332	8.48
357.542	9.98
357.752	10.02
357.962	11.18
358.171	11.86
358.381	13.42
358.591	12.07
358.801	12.5
359.011	11.65
359.221	11.78
359.43	11.9
359.64	11.85
359.85	11.26
360.06	12.58
360.269	11.61
360.479	11.3
360.689	11.48
360.899	12.2
361.108	12.33
361.318	12.6
361.528	13.41
361.737	13.33
361.947	13.28
362.156	13.1
362.366	12.08
362.576	12.19
362.785	11.92
362.995	11.63
363.204	10.73
363.414	10.44
363.623	10.07
363.833	9.4
364.042	9.54
364.252	9.51
364.461	9.25
364.671	8.89
364.88	8.73
365.09	8.74
365.299	8.58
365.509	8.36
365.718	8.09
365.927	8.23
366.137	8.2
366.346	8.15
366.555	8.93
366.765	9.69
366.974	10.29
367.183	11.17
367.393	10.75
367.602	10.57
367.811	11.15
368.021	11.32
368.23	10.65
368.439	9.68
368.648	9.24
368.857	8.14
369.067	7.87
369.276	7.29
369.485	6.34
369.694	6.21
369.903	6.9
370.112	6.95
370.321	6.24
370.531	6.15
370.74	7.4
370.949	7.67
371.158	8.09
371.367	8.08
371.576	7.95
371.785	8.11
371.994	8.68
372.203	8.74
372.412	8.84
372.621	8.62
372.83	9.46
373.039	8.81
373.248	8.41
373.457	8.91
373.666	9.3
373.874	9.82
374.083	9.83
374.292	9.84
374.501	9.55
374.71	9
374.919	9.17
375.128	8.95
375.336	8.91
375.545	9.02
375.754	8.32
375.963	7.62
376.171	7.57
376.38	8.55
376.589	9.2
376.798	8.74
377.006	9.26
377.215	9.57
377.424	8.91
377.632	9.48
377.841	9.56
378.05	10.15
378.258	9.64
378.467	9.9
378.675	9.48
378.884	9.16
379.093	9.71
379.301	9.76
379.51	9.42
379.718	9.99
379.927	9.64
380.135	9.51
380.344	9.06
380.552	10.28
380.761	9.55
380.969	9.05
381.177	8.51
381.386	7.92
381.594	7.3
381.803	7.82
382.011	7.75
382.219	7.72
382.428	7.81
382.636	7.89
382.845	7.13
383.053	7.33
383.261	7.62
383.469	7.95
383.678	8.22
383.886	8.54
384.094	8.56
384.302	8.22
384.511	8.13
384.719	7.81
384.927	7.7
385.135	7.71
385.343	7.59
385.552	7.09
385.76	6.8
385.968	6.94
386.176	6.94
386.384	6.73
386.592	7.47
386.8	7.89
387.008	7.67
387.216	8.18
387.424	8.11
387.633	7.94
387.841	8.05
388.049	8.04
388.257	7.62
388.465	8.1
388.672	8.22
388.88	8.14
389.088	7.56
389.296	7.76
389.504	7.08
389.712	7.32
389.92	7.48
390.128	7.2
390.336	7.11
390.544	6.88
390.751	6.06
390.959	6.22
391.167	5.93
391.375	6.15
391.583	6.35
391.79	6.64
391.998	6.39
392.206	6.38
392.414	6.35
392.621	6.43
392.829	6.66
393.037	7.1
393.244	6.86
393.452	7.18
393.66	7.02
393.867	6.88
394.075	6.68
394.283	6.62
394.49	6.76
394.698	6.8
394.905	6.59
395.113	6.71
395.32	6.24
395.528	6.23
395.735	6
395.943	6.15
396.15	6.01
396.358	5.87
396.565	5.88
396.773	5.66
396.98	5.64
397.188	5.93
397.395	5.67
397.602	6.16
397.81	6.57
398.017	6.2
398.225	6.19
398.432	6.5
398.639	6.56
398.847	6.83
399.054	6.87
399.261	6.89
399.468	6.41
399.676	6.56
399.883	6.34
400.09	5.9
400.297	6.23
400.505	6.19
400.712	6.14
400.919	6.16
401.126	5.89
401.333	5.88
401.54	6.35
401.748	6.9
401.955	6.55
402.162	6.3
402.369	6.31
402.576	6.21
402.783	6.19
402.99	6.06
403.197	5.98
403.404	6.32
403.611	6.23
403.818	6.13
404.025	5.84
404.232	6.18
404.439	6.54
404.646	6.54
404.853	6.24
405.06	6.35
405.267	6.42
405.474	6.51
405.681	6.02
405.887	6.07
406.094	6.14
406.301	6.06
406.508	5.87
406.715	5.6
406.922	5.73
407.128	5.9
407.335	5.69
407.542	5.65
407.749	6.02
407.955	6.45
408.162	6.68
408.369	6.44
408.575	6.66
408.782	6.81
408.989	6.74
409.195	6.72
409.402	6.81
409.609	7.07
409.815	6.82
410.022	6.66
410.228	6.6
410.435	6.53
410.642	6.45
410.848	6.55
411.055	6.74
411.261	7
411.468	6.76
411.674	6.7
411.881	6.21
412.087	6.41
412.294	6.22
412.5	6.02
412.706	6.06
412.913	5.96
413.119	5.72
413.326	5.84
413.532	5.77
413.738	5.95
413.945	6.29
414.151	6.48
414.357	6.58
414.564	6.76
414.77	7.11
414.976	7.28
415.182	7.53
415.389	7.59
415.595	7.44
415.801	7.22
416.007	7.12
416.214	6.65
416.42	6.74
416.626	6.68
416.832	6.6
417.038	6.32
417.244	6.23
417.45	6.26
417.657	6.16
417.863	6.26
418.069	6.32
418.275	6.33
418.481	6.39
418.687	6.24
418.893	6.24
419.099	6.24
419.305	6.34
419.511	6.27
419.717	6.33
419.923	6.32
420.129	6.19
420.335	6.23
420.541	6.24
420.746	6.2
420.952	6.4
421.158	6.5
421.364	6.61
421.57	6.51
421.776	6.67
421.982	6.59
422.187	6.77
422.393	6.77
422.599	6.83
422.805	6.84
423.01	6.92
423.216	6.73
423.422	6.63
423.628	6.51
423.833	6.55
424.039	6.3
424.245	6.3
424.45	6.09
424.656	6.07
424.862	6.06
425.067	6.08
425.273	6.17
425.478	6.15
425.684	6.22
425.889	6.24
426.095	6.07
426.301	6.27
426.506	6.19
426.712	6.4
426.917	6.43
427.123	6.38
427.328	6.31
427.533	6.27
427.739	6.37
427.944	6.31
428.15	6.27
428.355	6.44
428.561	6.11
428.766	5.88
428.971	5.92
429.177	5.84
429.382	5.91
429.587	5.96
429.793	6.03
429.998	6.16
430.203	5.95
430.408	6
430.614	6.06
430.819	5.98
431.024	6.3
431.229	6.19
431.434	6.18
431.64	6.14
431.845	6.22
432.05	6.18
432.255	6.33
432.46	6.27
432.665	6.24
432.87	6.12
433.076	6.45
433.281	6.52
433.486	6.44
433.691	6.54
433.896	6.54
434.101	6.56
434.306	6.33
434.511	6.18
434.716	6.42
434.921	6.21
435.126	6.5
435.331	6.38
435.535	6.3
435.74	6.18
435.945	6.16
436.15	6.05
436.355	6.01
436.56	6.12
436.765	6.08
436.97	6
437.174	6.2
437.379	6.01
437.584	5.91
437.789	5.85
437.993	5.93
438.198	5.86
438.403	5.83
438.608	5.65
438.812	5.64
439.017	5.6
439.222	5.57
439.426	5.58
439.631	5.47
439.836	5.68
440.04	5.71
440.245	5.64
440.45	5.59
440.654	5.66
440.859	5.81
441.063	5.94
441.268	6.06
441.472	6.06
441.677	6.04
441.881	6.1
442.086	5.84
442.29	6
442.495	6.05
442.699	6.15
442.904	6.07
443.108	5.92
443.312	5.74
443.517	5.68
443.721	5.63
443.925	5.54
444.13	5.78
444.334	6
444.538	5.94
444.743	5.96
444.947	5.89
445.151	5.92
445.356	5.89
445.56	5.93
445.764	5.9
445.968	5.99
446.173	6.02
446.377	5.82
446.581	5.75
446.785	5.67
446.989	5.59
447.193	5.62
447.398	5.61
447.602	5.69
447.806	5.63
448.01	5.73
448.214	5.65
448.418	5.79
448.622	5.94
448.826	5.96
449.03	5.94
449.234	6.1
449.438	6.07
449.642	6.11
449.846	6.23
450.05	6.29
450.254	6.11
450.458	6.17
450.662	6.1
450.866	5.79
451.069	5.65
451.273	5.71
451.477	5.78
451.681	5.88
451.885	5.84
452.089	5.85
452.292	5.87
452.496	5.94
452.7	5.93
452.904	5.77
453.107	6.09
453.311	6.26
453.515	6.07
453.719	5.91
453.922	5.83
454.126	5.84
454.33	5.71
454.533	5.82
454.737	5.78
454.94	5.65
455.144	5.76
455.348	5.67
455.551	5.63
455.755	5.69
455.958	5.66
456.162	5.72
456.365	5.62
456.569	5.5
456.772	5.5
456.976	5.35
457.179	5.31
457.383	5.16
457.586	5.18
457.79	5.21
457.993	5.32
458.196	5.27
458.4	5.18
458.603	5.22
458.807	5.43
459.01	5.32
459.213	5.42
459.417	5.33
459.62	5.38
459.823	5.39
460.026	5.36
460.23	5.28
460.433	5.55
460.636	5.66
460.839	5.88
461.042	5.88
461.246	5.97
461.449	6.02
461.652	6.15
461.855	6.2
462.058	6.1
462.261	6.18
462.464	6.22
462.668	6.17
462.871	6.16
463.074	5.98
463.277	5.87
463.48	5.94
463.683	5.92
463.886	6.07
464.089	6.36
464.292	6.59
464.495	6.5
464.698	6.57
464.901	6.35
465.104	6.25
465.306	6.14
465.509	6.15
465.712	6.1
