Data from 2937811_Reflection_2.txt Node
Date: Wed Jul 15 17:46:43 EDT 2015
User: robert
Spectrometer: USB4E03001
Autoset integration time: false
Trigger mode: 4
Integration Time (sec): 1.000000E-1
Scans to average: 10
Electric dark correction enabled: true
Nonlinearity correction enabled: false
Boxcar width: 5
Stray light correction enabled: false
XAxis mode: Wavelengths
Stop averaging: false
Number of Pixels in Spectrum: 3648
>>>>>Begin Spectral Data<<<<<
177.566	105.68
177.785	-4733.33
178.005	58.26
178.225	92.89
178.445	143.22
178.665	262.84
178.885	219.9
179.105	435.07
179.324	974.05
179.544	-113.32
179.764	18.14
179.984	-2.5
180.204	157.14
180.423	442.54
180.643	-3584.06
180.863	-1301.73
181.083	-278.12
181.302	-194.86
181.522	-125.27
181.742	-215.06
181.961	-301.2
182.181	-268.1
182.401	-600.52
182.621	-254.86
182.84	2247.64
183.06	4201.77
183.279	-175.49
183.499	-232.69
183.719	-408.83
183.938	-126.18
184.158	-54.42
184.377	-55.32
184.597	-46.08
184.816	-28.51
185.036	-36
185.256	-23.12
185.475	-33.96
185.695	-51.7
185.914	-54.02
186.134	-37.94
186.353	-34.66
186.572	-30.58
186.792	-23.35
187.011	-11.01
187.231	-29.92
187.45	-38.34
187.67	-36.78
187.889	-26.41
188.108	-50.77
188.328	-27.33
188.547	-24.35
188.766	-12.83
188.986	216.57
189.205	-125.86
189.424	-132.22
189.644	1095.38
189.863	141.4
190.082	-44.38
190.302	191.83
190.521	72.56
190.74	372.42
190.959	-158.57
191.178	-129.44
191.398	412.5
191.617	104.32
191.836	193.76
192.055	258.2
192.274	148.96
192.494	241.48
192.713	333.97
192.932	235.67
193.151	442.59
193.37	2376.94
193.589	430.04
193.808	739.88
194.027	-275.91
194.246	527.42
194.465	731.7
194.685	-416.88
194.904	199.82
195.123	-151.66
195.342	-559.39
195.561	-297.05
195.78	186.81
195.999	151.06
196.218	-322.66
196.436	-28.36
196.655	68.82
196.874	27.07
197.093	12.04
197.312	-1156.89
197.531	917.64
197.75	-75.74
197.969	-12.78
198.188	-18.04
198.407	-25.81
198.625	-48.37
198.844	-846.5
199.063	12329.17
199.282	513.63
199.501	-3543.28
199.719	-92.86
199.938	-71.01
200.157	-613.79
200.376	235.39
200.594	225.26
200.813	248.91
201.032	318.6
201.251	470.73
201.469	1433.97
201.688	4544.38
201.907	-1334.31
202.125	3799.51
202.344	-1006.53
202.563	-359.67
202.781	-107.94
203	-83.84
203.218	-40.41
203.437	-24.72
203.656	-46.12
203.874	-8.49
204.093	-23.6
204.311	-78.97
204.53	-39.19
204.748	-75.87
204.967	-157.92
205.185	-206.46
205.404	-585.63
205.622	-885.78
205.841	-2593.89
206.059	-1549.19
206.278	-976.92
206.496	586.87
206.715	940.71
206.933	460.03
207.151	260.16
207.37	6313.11
207.588	235.91
207.806	75.54
208.025	110.59
208.243	233.07
208.461	542.21
208.68	989.57
208.898	-1048.71
209.116	-271.48
209.335	0.16
209.553	447.19
209.771	77.52
209.989	212.93
210.208	315.17
210.426	302.1
210.644	93.83
210.862	19.38
211.081	22.18
211.299	10.82
211.517	42.51
211.735	48.37
211.953	56.97
212.171	104.72
212.39	50.38
212.608	-8.38
212.826	5.08
213.044	-48.86
213.262	-365.65
213.48	-55.01
213.698	-74500
213.916	-168.96
214.134	-180.13
214.352	-1394.12
214.57	-888.28
214.788	9311
215.006	-3484.14
215.224	1554.41
215.442	3627.8
215.66	1902.58
215.878	617.57
216.096	486.34
216.314	938.52
216.532	566.96
216.75	584.04
216.968	289.32
217.185	182.95
217.403	112.87
217.621	18.11
217.839	13.58
218.057	-355.77
218.275	165.15
218.492	86.01
218.71	52.8
218.928	71.78
219.146	64.36
219.363	64.46
219.581	84.79
219.799	72.1
220.017	28.97
220.234	27.76
220.452	24.18
220.67	-71.73
220.887	137.87
221.105	-7.03
221.323	61.83
221.54	163.7
221.758	49.01
221.976	-205.45
222.193	978.67
222.411	-265.19
222.629	-280.43
222.846	-716.34
223.064	-113.23
223.281	-53.79
223.499	-27.49
223.716	-77.05
223.934	-126.13
224.151	-1692.1
224.369	-3623.14
224.586	-883.38
224.804	314.37
225.021	189.92
225.239	138.09
225.456	69.57
225.674	64.99
225.891	127.55
226.108	88.17
226.326	23.73
226.543	35.5
226.76	3.93
226.978	10.72
227.195	24.44
227.413	21.91
227.63	12.82
227.847	23.08
228.064	26.65
228.282	17.72
228.499	22.34
228.716	25.76
228.934	17.03
229.151	23.83
229.368	30.51
229.585	29.78
229.802	30.26
230.02	31.54
230.237	31.5
230.454	30.79
230.671	29.97
230.888	29.74
231.105	32.75
231.323	37.33
231.54	37.46
231.757	28.98
231.974	27.21
232.191	31.59
232.408	29.63
232.625	30.73
232.842	33.51
233.059	35.13
233.276	39.72
233.493	33.71
233.71	38.68
233.927	38.31
234.144	44.44
234.361	53.66
234.578	40.82
234.795	40.5
235.012	33.26
235.229	33.96
235.446	36.59
235.663	35.92
235.879	32.83
236.096	25.97
236.313	24.54
236.53	17.03
236.747	15.94
236.964	18.27
237.181	16.41
237.397	15.1
237.614	8.88
237.831	-0.84
238.048	2.49
238.264	10.82
238.481	22.22
238.698	25.03
238.915	34.16
239.131	32.74
239.348	34.18
239.565	35.82
239.781	37.31
239.998	37.33
240.215	41.05
240.431	37.23
240.648	32.26
240.865	24.42
241.081	23.36
241.298	20.2
241.514	19.83
241.731	18.75
241.947	18.98
242.164	20.44
242.38	18.63
242.597	18.94
242.814	19.12
243.03	19.32
243.246	20.45
243.463	17.98
243.679	18.88
243.896	17.7
244.112	18.59
244.329	21.1
244.545	22.01
244.762	20.98
244.978	22.02
245.194	26.89
245.411	26.42
245.627	26.89
245.843	28.83
246.06	25.77
246.276	24.42
246.492	24.21
246.709	22.3
246.925	21.07
247.141	23.65
247.357	22.87
247.574	21.46
247.79	21.98
248.006	21.98
248.222	22.33
248.439	24.54
248.655	24.08
248.871	23.38
249.087	23.3
249.303	22.96
249.519	20.01
249.736	20.2
249.952	21.14
250.168	21.4
250.384	21.02
250.6	19.8
250.816	14.99
251.032	14.97
251.248	11.4
251.464	15.25
251.68	15.44
251.896	17.54
252.112	16.07
252.328	14.09
252.544	13.84
252.76	13.64
252.976	13.08
253.192	12.94
253.408	15.18
253.624	19.04
253.84	14.73
254.056	17.06
254.272	16.18
254.487	16.26
254.703	19.87
254.919	19.61
255.135	22.3
255.351	21.54
255.567	20.8
255.782	20.46
255.998	23.04
256.214	25.26
256.43	25.34
256.646	22.86
256.861	24.68
257.077	21.99
257.293	21.72
257.508	19.24
257.724	21.72
257.94	23.09
258.155	23.01
258.371	20.63
258.587	20.41
258.802	19.2
259.018	21.19
259.234	21.55
259.449	21.15
259.665	20.93
259.88	22.43
260.096	20.88
260.312	20.41
260.527	20.16
260.743	20.47
260.958	19.55
261.174	19.41
261.389	20.17
261.605	18.34
261.82	17.12
262.036	16.69
262.251	15.24
262.466	15.59
262.682	14.99
262.897	13.17
263.113	11.77
263.328	12.83
263.543	13.18
263.759	10.3
263.974	11.22
264.189	15.06
264.405	15.44
264.62	13.86
264.835	14.63
265.051	14.55
265.266	18.36
265.481	17.74
265.696	19.01
265.912	20.14
266.127	20.33
266.342	20.11
266.557	18.13
266.773	18.02
266.988	19.34
267.203	17.79
267.418	18.08
267.633	16.45
267.848	16.65
268.064	16.25
268.279	15.03
268.494	14.33
268.709	15.38
268.924	14.65
269.139	14.43
269.354	12.28
269.569	12.81
269.784	13.34
269.999	14.79
270.214	16.21
270.429	15.7
270.644	15.4
270.859	17.56
271.074	18.06
271.289	18.5
271.504	18.17
271.719	17.84
271.934	18.91
272.149	18.18
272.363	17.15
272.578	17.12
272.793	16.3
273.008	16.88
273.223	14.91
273.438	13.63
273.653	13.52
273.867	15.19
274.082	16.72
274.297	15.73
274.512	15.63
274.726	15.42
274.941	15.94
275.156	17.65
275.371	17.32
275.585	17.73
275.8	18.3
276.015	19.99
276.229	17.95
276.444	16.81
276.659	17.13
276.873	18.9
277.088	20.33
277.302	18.35
277.517	16.62
277.732	17.99
277.946	17.23
278.161	20.11
278.375	19.64
278.59	18.95
278.804	19.72
279.019	17.81
279.233	15.05
279.448	11.85
279.662	12.04
279.877	12.86
280.091	12.04
280.306	13.09
280.52	10.91
280.735	9.48
280.949	11.14
281.163	11.66
281.378	12.07
281.592	14.02
281.806	15.53
282.021	17.28
282.235	15.9
282.449	16.26
282.664	16.08
282.878	16.99
283.092	17.39
283.307	17.77
283.521	17.42
283.735	16.75
283.949	13.88
284.164	15.33
284.378	13.99
284.592	17.19
284.806	18.16
285.02	19.64
285.234	18.17
285.449	19.73
285.663	18.92
285.877	19.87
286.091	21.94
286.305	23.88
286.519	22.08
286.733	21.32
286.947	19.7
287.161	18.32
287.375	16.99
287.589	16.95
287.803	15.79
288.017	15.96
288.231	14.78
288.445	13.69
288.659	13.77
288.873	15.28
289.087	17.08
289.301	17.96
289.515	19.99
289.729	20.2
289.943	19.48
290.157	21.42
290.371	21.22
290.584	23.16
290.798	22.79
291.012	21.77
291.226	23.09
291.44	22.69
291.654	22.94
291.867	22.82
292.081	22.08
292.295	24.29
292.509	22.44
292.722	23.37
292.936	21.42
293.15	22.41
293.364	22.89
293.577	23.09
293.791	22.58
294.005	21.08
294.218	16.97
294.432	18.22
294.645	17.08
294.859	17.52
295.073	17.13
295.286	17.4
295.5	15.65
295.713	16.95
295.927	15.29
296.14	16.91
296.354	15.84
296.568	17.79
296.781	17.77
296.994	17.8
297.208	18.62
297.421	19.38
297.635	18.63
297.848	19.4
298.062	18.07
298.275	19.42
298.489	18.23
298.702	20.6
298.915	20.88
299.129	21.36
299.342	22.25
299.555	20.7
299.769	19.76
299.982	20.77
300.195	20.72
300.409	20.84
300.622	18.6
300.835	17.57
301.048	18.15
301.262	17.76
301.475	16.59
301.688	15.52
301.901	15.8
302.115	15.73
302.328	15.15
302.541	17.05
302.754	17.22
302.967	18.37
303.18	21.74
303.393	18.6
303.607	19.79
303.82	20.79
304.033	21.98
304.246	21.52
304.459	20.37
304.672	21.38
304.885	21.46
305.098	22.35
305.311	22.27
305.524	20.79
305.737	22.15
305.95	22.28
306.163	21.75
306.376	19.55
306.589	19.52
306.802	19.13
307.015	16.9
307.228	13.8
307.44	13.32
307.653	14.48
307.866	12.91
308.079	13.91
308.292	14.03
308.505	14.58
308.718	17.43
308.93	18.67
309.143	20.4
309.356	20.56
309.569	23.49
309.781	24.22
309.994	22.97
310.207	24.25
310.42	24.28
310.632	24.14
310.845	24.87
311.058	24.14
311.27	24.2
311.483	24.74
311.696	24.07
311.908	22.13
312.121	20.47
312.333	20.03
312.546	20.63
312.759	19.8
312.971	18.42
313.184	16.74
313.396	16.94
313.609	15.16
313.821	15.29
314.034	17.47
314.246	17.02
314.459	18.87
314.671	18.83
314.884	17.63
315.096	17.35
315.309	16.37
315.521	17.38
315.733	17
315.946	17.66
316.158	17.15
316.371	18.61
316.583	20.53
316.795	21.33
317.008	23.88
317.22	25.12
317.432	26.56
317.644	27.94
317.857	26.31
318.069	24.83
318.281	23.53
318.494	23.07
318.706	22.44
318.918	22.39
319.13	21.29
319.342	21.07
319.555	20.36
319.767	19.23
319.979	18.24
320.191	21.75
320.403	22.3
320.615	24.01
320.827	23.63
321.039	22.34
321.252	21.91
321.464	22.82
321.676	22.42
321.888	23.33
322.1	22.32
322.312	25.02
322.524	23.58
322.736	26.13
322.948	26.78
323.16	26.96
323.372	26.62
323.584	26.21
323.796	24.06
324.007	23.42
324.219	21.46
324.431	21.64
324.643	20.32
324.855	22.46
325.067	21.27
325.279	19.34
325.491	18.49
325.702	17.9
325.914	17.94
326.126	18.64
326.338	16.16
326.55	16.59
326.761	17.17
326.973	18.43
327.185	16.68
327.396	15.22
327.608	17
327.82	17.2
328.032	20.05
328.243	20.29
328.455	21.09
328.666	21.03
328.878	20.28
329.09	19.46
329.301	16.7
329.513	13.82
329.725	13.68
329.936	12.91
330.148	13.71
330.359	12.25
330.571	12.79
330.782	12.1
330.994	14.97
331.205	15.39
331.417	17.22
331.628	17.34
331.84	20.05
332.051	21.26
332.262	21.56
332.474	20.62
332.685	19.44
332.897	19.22
333.108	18.22
333.319	16.14
333.531	16.58
333.742	15.93
333.953	17.4
334.165	16.55
334.376	16.88
334.587	15.73
334.799	16.17
335.01	17.02
335.221	17.87
335.432	18.39
335.644	19.8
335.855	19.07
336.066	18.75
336.277	16.87
336.488	18.09
336.7	17.94
336.911	19.88
337.122	19.64
337.333	20.37
337.544	18.27
337.755	19.81
337.966	19.88
338.177	20.26
338.388	20.08
338.599	21.9
338.811	21.06
339.022	21.41
339.233	20
339.444	19.59
339.655	18.69
339.866	17.66
340.076	16.49
340.287	16.81
340.498	17.42
340.709	18.92
340.92	19.29
341.131	19.1
341.342	18.06
341.553	18.46
341.764	18.1
341.975	17.29
342.185	19.2
342.396	18.93
342.607	18.92
342.818	18.52
343.029	17.18
343.239	16.58
343.45	17.04
343.661	16.44
343.872	17.59
344.082	19.32
344.293	19.66
344.504	19.94
344.714	19.4
344.925	20.83
345.136	22.29
345.346	21.48
345.557	20.91
345.768	20.04
345.978	21.6
346.189	20.32
346.399	19.42
346.61	19.23
346.821	19.17
347.031	20.07
347.242	16.77
347.452	15.5
347.663	17.28
347.873	17.52
348.084	19.5
348.294	19.53
348.504	20.08
348.715	19.8
348.925	20.5
349.136	20.47
349.346	17.39
349.557	19.86
349.767	19.94
349.977	18.27
350.188	19.7
350.398	18.28
350.608	17.12
350.819	16.47
351.029	17.01
351.239	18.36
351.449	18.24
351.66	19.23
351.87	18.79
352.08	18.78
352.29	18.36
352.501	17.02
352.711	16.36
352.921	14.87
353.131	15.19
353.341	14.58
353.552	12.51
353.762	11.24
353.972	13.95
354.182	12.82
354.392	12.62
354.602	13.86
354.812	13.29
355.022	14.92
355.232	16.31
355.442	17.26
355.652	17.89
355.862	17.81
356.072	17.94
356.282	17.51
356.492	17.83
356.702	17.4
356.912	17.13
357.122	18.16
357.332	17.12
357.542	16.63
357.752	16.03
357.962	15.26
358.171	14.78
358.381	15.36
358.591	14.96
358.801	16.06
359.011	15.78
359.221	15.97
359.43	15.82
359.64	15.86
359.85	16.81
360.06	16.08
360.269	16.84
360.479	17.03
360.689	17.35
360.899	16.5
361.108	15.7
361.318	16.49
361.528	15.83
361.737	15.44
361.947	15.4
362.156	15.26
362.366	15.32
362.576	14.92
362.785	14.65
362.995	14.32
363.204	14.66
363.414	14.57
363.623	14.27
363.833	14.1
364.042	14.48
364.252	15.44
364.461	14.59
364.671	15.6
364.88	14.84
365.09	15.01
365.299	16.12
365.509	16.55
365.718	17.18
365.927	16.97
366.137	18.37
366.346	17.48
366.555	16.52
366.765	17.25
366.974	16.48
367.183	17.39
367.393	17.42
367.602	16.06
367.811	15.94
368.021	15.6
368.23	15.91
368.439	14.25
368.648	15.14
368.857	14.62
369.067	14.08
369.276	13.33
369.485	13.29
369.694	13.2
369.903	13.44
370.112	14.19
370.321	14.27
370.531	14.59
370.74	14.61
370.949	13.98
371.158	14.3
371.367	14.26
371.576	14.89
371.785	14.42
371.994	14.7
372.203	14.93
372.412	14.51
372.621	14.1
372.83	13.31
373.039	14.01
373.248	14.61
373.457	14.39
373.666	14.44
373.874	15.34
374.083	15.82
374.292	14.77
374.501	14.57
374.71	14.29
374.919	14.41
375.128	13.66
375.336	14
375.545	13.81
375.754	13.29
375.963	13.12
376.171	11.92
376.38	10.81
376.589	11.6
376.798	11.43
377.006	10.89
377.215	10.66
377.424	11.02
377.632	10.68
377.841	10.64
378.05	11.75
378.258	12.29
378.467	12.28
378.675	12.56
378.884	12.31
379.093	12.36
379.301	12.62
379.51	13
379.718	13.32
379.927	13.69
380.135	13.44
380.344	12.91
380.552	12.96
380.761	12.59
380.969	13.26
381.177	13.28
381.386	13.15
381.594	13.03
381.803	13.86
382.011	13.82
382.219	13.71
382.428	13.74
382.636	13.26
382.845	13.11
383.053	13.43
383.261	12.09
383.469	12.38
383.678	12.72
383.886	12.7
384.094	11.33
384.302	11.63
384.511	11.15
384.719	10.85
384.927	10.74
385.135	10.28
385.343	10.29
385.552	11.04
385.76	10.17
385.968	9.22
386.176	9.22
386.384	9.29
386.592	9.16
386.8	9.06
387.008	9.12
387.216	9.71
387.424	9.38
387.633	9.22
387.841	8.99
388.049	9.47
388.257	9.58
388.465	9.32
388.672	9.15
388.88	8.48
389.088	8.36
389.296	8.22
389.504	7.57
389.712	8.37
389.92	8.68
390.128	8.6
390.336	8.58
390.544	8.97
390.751	9.14
390.959	9.22
391.167	9.26
391.375	9.21
391.583	9.45
391.79	9.29
391.998	8.6
392.206	8.17
392.414	7.94
392.621	7.52
392.829	7.5
393.037	7.25
393.244	7
393.452	7.43
393.66	7.69
393.867	7.53
394.075	7.77
394.283	8.14
394.49	8.25
394.698	8.27
394.905	8.5
395.113	8.1
395.32	8.22
395.528	8.26
395.735	8.03
395.943	7.59
396.15	7.43
396.358	7.73
396.565	7.14
396.773	7.16
396.98	6.94
397.188	6.67
397.395	6.91
397.602	6.37
397.81	6.49
398.017	6
398.225	6.48
398.432	6.46
398.639	6.2
398.847	6.74
399.054	6.75
399.261	7.17
399.468	7.39
399.676	7.4
399.883	7.94
400.09	7.86
400.297	8.17
400.505	8.15
400.712	8.38
400.919	8.54
401.126	8.21
401.333	8
401.54	8.02
401.748	8.34
401.955	8.38
402.162	7.96
402.369	7.95
402.576	8.26
402.783	7.76
402.99	7.65
403.197	7.67
403.404	7.76
403.611	7.81
403.818	7.79
404.025	7.6
404.232	7.48
404.439	7.76
404.646	7.82
404.853	7.5
405.06	7.49
405.267	7.6
405.474	7.4
405.681	7.46
405.887	7.44
406.094	7.16
406.301	7.31
406.508	7.19
406.715	7.41
406.922	7.38
407.128	7.26
407.335	7.43
407.542	7.08
407.749	6.88
407.955	7.14
408.162	7.37
408.369	7.59
408.575	7.18
408.782	7.21
408.989	7.08
409.195	7.15
409.402	7.39
409.609	7.39
409.815	6.93
410.022	7.38
410.228	7.15
410.435	7.16
410.642	7.47
410.848	7.64
411.055	7.99
411.261	7.76
411.468	7.75
411.674	7.53
411.881	7.41
412.087	7.95
412.294	7.4
412.5	7.17
412.706	6.95
412.913	6.56
413.119	6.44
413.326	6.07
413.532	5.96
413.738	6.09
413.945	6.39
414.151	6.45
414.357	6.53
414.564	6.85
414.77	6.79
414.976	6.77
415.182	6.88
415.389	7.13
415.595	7.16
415.801	7.52
416.007	7.39
416.214	7.2
416.42	7.17
416.626	7.21
416.832	7.15
417.038	7.49
417.244	7.41
417.45	7.44
417.657	7.1
417.863	7.1
418.069	6.99
418.275	6.93
418.481	6.81
418.687	6.91
418.893	6.6
419.099	6.5
419.305	6.21
419.511	6.25
419.717	6.29
419.923	6.62
420.129	6.57
420.335	6.58
420.541	6.55
420.746	6.75
420.952	6.66
421.158	6.81
421.364	6.92
421.57	6.94
421.776	6.91
421.982	6.78
422.187	6.57
422.393	6.62
422.599	6.65
422.805	6.68
423.01	6.58
423.216	6.58
423.422	6.55
423.628	6.46
423.833	6.49
424.039	6.48
424.245	6.62
424.45	6.57
424.656	6.52
424.862	6.49
425.067	6.51
425.273	6.46
425.478	6.38
425.684	6.41
425.889	6.41
426.095	6.26
426.301	6.27
426.506	6.12
426.712	6.42
426.917	6.55
427.123	6.39
427.328	6.27
427.533	6.35
427.739	6.52
427.944	6.41
428.15	6.58
428.355	6.72
428.561	6.6
428.766	6.34
428.971	5.85
429.177	5.65
429.382	5.77
429.587	5.76
429.793	5.55
429.998	5.51
430.203	5.37
430.408	5.18
430.614	5.35
430.819	5.56
431.024	5.71
431.229	5.9
431.434	6.09
431.64	6.15
431.845	6.33
432.05	6.44
432.255	6.41
432.46	6.55
432.665	6.59
432.87	6.49
433.076	6.48
433.281	6.64
433.486	6.58
433.691	6.42
433.896	6.33
434.101	6.44
434.306	6.5
434.511	6.48
434.716	6.53
434.921	6.5
435.126	6.46
435.331	6.42
435.535	6.5
435.74	6.51
435.945	6.51
436.15	6.66
436.355	6.4
436.56	6.47
436.765	6.56
436.97	6.31
437.174	6.52
437.379	6.69
437.584	6.72
437.789	6.5
437.993	6.57
438.198	6.5
438.403	6.32
438.608	6.38
438.812	6.22
439.017	6.14
439.222	6.37
439.426	6.04
439.631	5.85
439.836	5.78
440.04	5.77
440.245	5.83
440.45	5.92
440.654	5.88
440.859	5.86
441.063	6.03
441.268	6.18
441.472	6.24
441.677	6.42
441.881	6.57
442.086	6.61
442.29	6.8
442.495	6.71
442.699	6.82
442.904	6.84
443.108	6.87
443.312	6.73
443.517	6.51
443.721	6.21
443.925	6.29
444.13	6.17
444.334	6.28
444.538	5.84
444.743	5.9
444.947	5.63
445.151	5.69
445.356	5.81
445.56	5.75
445.764	5.78
445.968	5.85
446.173	5.84
446.377	5.76
446.581	5.82
446.785	6.13
446.989	6.17
447.193	6.27
447.398	6.38
447.602	6.26
447.806	6.51
448.01	6.51
448.214	6.48
448.418	6.55
448.622	6.62
448.826	6.49
449.03	6.39
449.234	6.32
449.438	6.35
449.642	6.47
449.846	6.54
450.05	6.34
450.254	6.36
450.458	6.63
450.662	6.4
450.866	6.3
451.069	6.32
451.273	6.26
451.477	6.33
451.681	6.15
451.885	5.94
452.089	5.78
452.292	5.84
452.496	5.94
452.7	5.92
452.904	5.8
453.107	5.97
453.311	5.9
453.515	5.98
453.719	5.86
453.922	5.93
454.126	5.76
454.33	5.65
454.533	5.6
454.737	5.4
454.94	5.34
455.144	5.53
455.348	5.67
455.551	5.51
455.755	5.48
455.958	5.6
456.162	5.84
456.365	5.88
456.569	5.95
456.772	5.95
456.976	6.16
457.179	6.18
457.383	6.17
457.586	6.05
457.79	5.93
457.993	5.95
458.196	5.93
458.4	5.94
458.603	5.86
458.807	5.96
