Data from 2937841_Reflection_1.txt Node
Date: Wed Jul 15 16:16:53 EDT 2015
User: robert
Spectrometer: USB4E03001
Autoset integration time: false
Trigger mode: 4
Integration Time (sec): 1.000000E-1
Scans to average: 10
Electric dark correction enabled: true
Nonlinearity correction enabled: false
Boxcar width: 5
Stray light correction enabled: false
XAxis mode: Wavelengths
Stop averaging: false
Number of Pixels in Spectrum: 3648
>>>>>Begin Spectral Data<<<<<
177.566	-19.66
177.785	-265.82
178.005	162.67
178.225	28.31
178.445	103.36
178.665	296.85
178.885	618.69
179.105	78.74
179.324	43.74
179.544	-1332.81
179.764	590.86
179.984	430.28
180.204	231.56
180.423	118.2
180.643	118.97
180.863	235.52
181.083	327.39
181.302	391.26
181.522	456.06
181.742	370.78
181.961	467.12
182.181	23381.48
182.401	762.36
182.621	414.77
182.84	3135.59
183.06	340.36
183.279	130.91
183.499	176.09
183.719	101.08
183.938	75.39
184.158	72.11
184.377	67.36
184.597	57.5
184.816	38.36
185.036	58.73
185.256	76.38
185.475	7.88
185.695	5.08
185.914	-1.96
186.134	22.38
186.353	59.49
186.572	84.1
186.792	47.37
187.011	47.7
187.231	163.24
187.45	50.06
187.67	-44.46
187.889	34
188.108	-2.06
188.328	-8.88
188.547	-61.89
188.766	-140.72
188.986	-187.16
189.205	324.92
189.424	196.82
189.644	227.68
189.863	193.33
190.082	84.9
190.302	25.05
190.521	-20.01
190.74	46.36
190.959	74.85
191.178	-158.46
191.398	42.93
191.617	-224.24
191.836	20
192.055	74.28
192.274	275.28
192.494	298.43
192.713	-247.96
192.932	-1.84
193.151	14.01
193.37	-123.15
193.589	-15.61
193.808	-1058.37
194.027	-98.23
194.246	-55.94
194.465	-63.6
194.685	3595
194.904	338.24
195.123	-299.65
195.342	59.81
195.561	73.7
195.78	28.06
195.999	-43.17
196.218	4528.95
196.436	-11.6
196.655	34.18
196.874	34.58
197.093	1425.93
197.312	-53.31
197.531	40.97
197.75	81.4
197.969	79.64
198.188	98.21
198.407	87.51
198.625	60.54
198.844	44.9
199.063	43.4
199.282	34.66
199.501	38.18
199.719	29.58
199.938	15.17
200.157	-5.96
200.376	51.53
200.594	111.48
200.813	-383.82
201.032	-130.4
201.251	-214.15
201.469	-750.36
201.688	-639.04
201.907	-184.34
202.125	1616.28
202.344	-262.47
202.563	-488.41
202.781	-17504
203	-94.42
203.218	-133.76
203.437	-13.63
203.656	24.47
203.874	24.54
204.093	20.4
204.311	76.92
204.53	43.36
204.748	-33.57
204.967	-1825.16
205.185	199.53
205.404	189.24
205.622	144.19
205.841	159.15
206.059	156.41
206.278	132.62
206.496	181.33
206.715	149.68
206.933	152.64
207.151	129.83
207.37	113.83
207.588	109.04
207.806	77.28
208.025	55.09
208.243	64.07
208.461	12.86
208.68	26.13
208.898	28.57
209.116	39.54
209.335	32.86
209.553	40.03
209.771	37.32
209.989	26
210.208	-9.65
210.426	0.19
210.644	-79.63
210.862	-19.73
211.081	-110.98
211.299	-102.46
211.517	-143.73
211.735	-942
211.953	-2610.59
212.171	225.42
212.39	314.06
212.608	-2218.64
212.826	-1656.17
213.044	-40.1
213.262	-64.99
213.48	-159.26
213.698	1590.72
213.916	-39.66
214.134	-53.52
214.352	-46.09
214.57	-110.37
214.788	154.42
215.006	53.65
215.224	486.4
215.442	878.36
215.66	-96.26
215.878	-167.58
216.096	-1298.52
216.314	-249.85
216.532	-155.54
216.75	-361.72
216.968	2492.34
217.185	201.44
217.403	120.75
217.621	-192.3
217.839	-110.12
218.057	-124.96
218.275	363.77
218.492	546.27
218.71	351.8
218.928	262.55
219.146	122.57
219.363	132.86
219.581	157.51
219.799	139.8
220.017	117.01
220.234	111.31
220.452	111.18
220.67	87.61
220.887	88.3
221.105	79.79
221.323	54.89
221.54	65.1
221.758	18.29
221.976	33.13
222.193	19.6
222.411	41.4
222.629	30.47
222.846	33.08
223.064	68.33
223.281	62.89
223.499	75.75
223.716	81.78
223.934	77.34
224.151	81.95
224.369	83.65
224.586	90.14
224.804	74.48
225.021	35.67
225.239	31.91
225.456	20.38
225.674	-0.77
225.891	-31.91
226.108	-37.94
226.326	-23.71
226.543	2.64
226.76	2.39
226.978	-4.69
227.195	-0.38
227.413	15.03
227.63	9.71
227.847	13.64
228.064	15.9
228.282	18.65
228.499	23.45
228.716	18.91
228.934	16.67
229.151	20.78
229.368	20.35
229.585	18.12
229.802	16.8
230.02	19.95
230.237	18.28
230.454	21.52
230.671	23.45
230.888	20.83
231.105	24.53
231.323	23.41
231.54	18.98
231.757	16.22
231.974	19.38
232.191	20.19
232.408	17.92
232.625	18.41
232.842	12.13
233.059	4.53
233.276	3.18
233.493	-2.54
233.71	5.19
233.927	11.15
234.144	23.93
234.361	18.11
234.578	15.16
234.795	18.67
235.012	16.58
235.229	25.92
235.446	31.68
235.663	33.2
235.879	38.05
236.096	36.69
236.313	32.14
236.53	29.92
236.747	28.45
236.964	37.31
237.181	31.73
237.397	35.3
237.614	31.48
237.831	30.5
238.048	25.6
238.264	14.21
238.481	16.87
238.698	15.61
238.915	14.63
239.131	22.88
239.348	15.86
239.565	23.21
239.781	16.43
239.998	13.32
240.215	14.07
240.431	18.48
240.648	20.84
240.865	19.99
241.081	22.42
241.298	21.54
241.514	20.7
241.731	22.6
241.947	20.23
242.164	22.72
242.38	21.58
242.597	21.4
242.814	21.69
243.03	23.28
243.246	24.9
243.463	24.58
243.679	25.17
243.896	25.41
244.112	24.6
244.329	26.55
244.545	28.19
244.762	30.54
244.978	29.82
245.194	27.21
245.411	23.9
245.627	21.02
245.843	22.21
246.06	22.58
246.276	21.72
246.492	20.2
246.709	19.43
246.925	17.55
247.141	17.68
247.357	17.9
247.574	17.93
247.79	18.44
248.006	17.89
248.222	17.06
248.439	17.14
248.655	18
248.871	19.04
249.087	18.9
249.303	19.23
249.519	19.16
249.736	18.32
249.952	18.4
250.168	17.76
250.384	19.2
250.6	20.91
250.816	20.88
251.032	20.16
251.248	21.25
251.464	22.88
251.68	22.23
251.896	21.17
252.112	19.76
252.328	20.19
252.544	20.15
252.76	18.39
252.976	19.8
253.192	18.5
253.408	17.95
253.624	14.23
253.84	15.32
254.056	16.5
254.272	16.72
254.487	19.61
254.703	20.63
254.919	24.66
255.135	27.51
255.351	21.26
255.567	24.9
255.782	25.48
255.998	26.61
256.214	23.85
256.43	23.12
256.646	22.53
256.861	19.7
257.077	17.85
257.293	17.5
257.508	16.14
257.724	16.2
257.94	14.29
258.155	14.04
258.371	15.01
258.587	14.26
258.802	14.55
259.018	14.83
259.234	15.3
259.449	16.32
259.665	15.42
259.88	15.62
260.096	15.99
260.312	15.82
260.527	15.38
260.743	15.91
260.958	15.87
261.174	15.95
261.389	16
261.605	15.7
261.82	14.8
262.036	16.25
262.251	15.64
262.466	16.65
262.682	18.27
262.897	19.94
263.113	19.91
263.328	19.67
263.543	19.47
263.759	18.9
263.974	19.1
264.189	20.5
264.405	16.87
264.62	17.52
264.835	14.95
265.051	12.12
265.266	9.53
265.481	8.53
265.696	9.35
265.912	7.86
266.127	5.46
266.342	6.7
266.557	7.8
266.773	7.4
266.988	7.51
267.203	7.86
267.418	8.19
267.633	7.7
267.848	6.83
268.064	6.38
268.279	8.52
268.494	11.63
268.709	9.95
268.924	8.85
269.139	11.01
269.354	11.1
269.569	9.96
269.784	10.94
269.999	12.65
270.214	12.46
270.429	14.63
270.644	13.29
270.859	13.71
271.074	14.73
271.289	16.07
271.504	15.93
271.719	16.3
271.934	17.67
272.149	17.34
272.363	16.62
272.578	17.69
272.793	16.65
273.008	17.3
273.223	16.19
273.438	15.43
273.653	13.98
273.867	13.84
274.082	13.68
274.297	14.04
274.512	13.58
274.726	14.3
274.941	12.18
275.156	13.01
275.371	13.22
275.585	13.55
275.8	13.39
276.015	12.99
276.229	13.35
276.444	12.89
276.659	12.59
276.873	13.12
277.088	14.39
277.302	16.56
277.517	15.93
277.732	13.88
277.946	13.86
278.161	15.82
278.375	17.15
278.59	16.9
278.804	15.7
279.019	13.94
279.233	13.16
279.448	12.83
279.662	14.41
279.877	14.32
280.091	15.51
280.306	17.2
280.52	15.41
280.735	13.99
280.949	14.46
281.163	14.82
281.378	16.12
281.592	16.17
281.806	15.43
282.021	12.33
282.235	13.17
282.449	13.75
282.664	13.58
282.878	13.8
283.092	13.5
283.307	11.67
283.521	12.18
283.735	11.93
283.949	12.14
284.164	11.64
284.378	12.09
284.592	11.89
284.806	11.88
285.02	12.67
285.234	13.83
285.449	15.2
285.663	17.23
285.877	16.09
286.091	15.56
286.305	16.34
286.519	17.55
286.733	19.74
286.947	18.79
287.161	18.47
287.375	15.9
287.589	15.24
287.803	14.26
288.017	12.13
288.231	12.29
288.445	12.43
288.659	11.42
288.873	10.23
289.087	10.1
289.301	11.74
289.515	13.38
289.729	14.25
289.943	14.94
290.157	14.92
290.371	16.93
290.584	18.72
290.798	18.59
291.012	18.14
291.226	19.01
291.44	18.13
291.654	18.35
291.867	17.14
292.081	18.02
292.295	19.69
292.509	20.69
292.722	19.12
292.936	18.63
293.15	20.6
293.364	21.48
293.577	21.31
293.791	21.98
294.005	21.43
294.218	20.74
294.432	19.75
294.645	17.25
294.859	17
295.073	17.75
295.286	17.21
295.5	16.17
295.713	16.38
295.927	15.78
296.14	15.26
296.354	16.12
296.568	16.25
296.781	17.23
296.994	17.75
297.208	18.18
297.421	17.14
297.635	18.07
297.848	17.7
298.062	17.33
298.275	18.55
298.489	19.16
298.702	17.92
298.915	17.98
299.129	18.78
299.342	19.26
299.555	19.2
299.769	19.56
299.982	19.05
300.195	19.41
300.409	21.43
300.622	19.71
300.835	19.01
301.048	19.83
301.262	19.91
301.475	16.88
301.688	16.61
301.901	17.85
302.115	19.18
302.328	18.74
302.541	17.47
302.754	15.77
302.967	16.83
303.18	17.39
303.393	16.17
303.607	15.58
303.82	17.16
304.033	16.25
304.246	14.92
304.459	14.01
304.672	14.2
304.885	15.64
305.098	15.32
305.311	16.26
305.524	16.71
305.737	18.69
305.95	18.16
306.163	18.52
306.376	20.4
306.589	20.82
306.802	21.96
307.015	24.07
307.228	24.53
307.44	24.24
307.653	22.04
307.866	22.17
308.079	22.13
308.292	24.68
308.505	24.7
308.718	22.87
308.93	21.97
309.143	22.51
309.356	20.71
309.569	20.24
309.781	19.98
309.994	21.29
310.207	21.29
310.42	20.89
310.632	22.2
310.845	21.71
311.058	22.04
311.27	22.1
311.483	21.51
311.696	21.83
311.908	24.3
312.121	24.95
312.333	23.96
312.546	23.78
312.759	25.55
312.971	23.99
313.184	24.2
313.396	25.3
313.609	26.17
313.821	25.71
314.034	25.45
314.246	22.77
314.459	22.91
314.671	24.82
314.884	25.06
315.096	25.49
315.309	25.9
315.521	26.91
315.733	26.73
315.946	26.33
316.158	26.53
316.371	26.94
316.583	27.78
316.795	28.68
317.008	29.82
317.22	29.89
317.432	27
317.644	26.24
317.857	25.49
318.069	24.97
318.281	27.36
318.494	26.71
318.706	27.49
318.918	27.07
319.13	25.49
319.342	24
319.555	24.17
319.767	25.27
319.979	26.25
320.191	28.4
320.403	28.33
320.615	27.68
320.827	28.84
321.039	28.38
321.252	28.23
321.464	29.7
321.676	28.75
321.888	29.94
322.1	28.8
322.312	28.55
322.524	27.2
322.736	26.91
322.948	24.82
323.16	24.28
323.372	23.99
323.584	24.73
323.796	24.15
324.007	24.5
324.219	22.4
324.431	20.78
324.643	20.07
324.855	20.18
325.067	22.03
325.279	22.54
325.491	22.77
325.702	22.69
325.914	22.23
326.126	21.9
326.338	21.22
326.55	23.07
326.761	25.22
326.973	25.27
327.185	24.6
327.396	24.63
327.608	23.7
327.82	24.24
328.032	24.19
328.243	23.93
328.455	24.09
328.666	24.2
328.878	23.97
329.09	24.54
329.301	25
329.513	25.08
329.725	24.88
329.936	25.22
330.148	25.37
330.359	26.71
330.571	27.63
330.782	26.66
330.994	27.37
331.205	25.77
331.417	25.97
331.628	25.67
331.84	26.29
332.051	24.57
332.262	25.4
332.474	26.84
332.685	25.29
332.897	24.28
333.108	26.59
333.319	27.67
333.531	29.4
333.742	28.36
333.953	29.24
334.165	28.27
334.376	28.4
334.587	28.9
334.799	27.48
335.01	27.91
335.221	27.19
335.432	26.15
335.644	26.93
335.855	25.66
336.066	25.69
336.277	24.33
336.488	25.32
336.7	26.9
336.911	27.49
337.122	28.06
337.333	28.55
337.544	28.85
337.755	29.07
337.966	27.59
338.177	29.1
338.388	29.38
338.599	30.48
338.811	30.96
339.022	29.66
339.233	28.02
339.444	27.55
339.655	27.24
339.866	28.29
340.076	28.27
340.287	29.27
340.498	27.87
340.709	26.5
340.92	25.33
341.131	25.02
341.342	25.67
341.553	26.99
341.764	27.15
341.975	28.21
342.185	27.62
342.396	27.13
342.607	26.54
342.818	27.88
343.029	28.31
343.239	28.85
343.45	28.03
343.661	27.63
343.872	27.4
344.082	26.77
344.293	25.41
344.504	25.38
344.714	25.74
344.925	25.2
345.136	23.71
345.346	24.56
345.557	25.04
345.768	26.38
345.978	25.07
346.189	25.39
346.399	26.7
346.61	26.97
346.821	27.47
347.031	28.03
347.242	28.95
347.452	29.93
347.663	29.83
347.873	29.69
348.084	29.88
348.294	32.61
348.504	31.75
348.715	30.83
348.925	31.02
349.136	30.76
349.346	30.4
349.557	30.39
349.767	30.14
349.977	29.24
350.188	29.1
350.398	27.62
350.608	27.87
350.819	27.88
351.029	28.02
351.239	27.5
351.449	28.52
351.66	29.14
351.87	28.45
352.08	28.02
352.29	28.15
352.501	28.85
352.711	29.53
352.921	27.61
353.131	27.82
353.341	27.26
353.552	28.09
353.762	26.12
353.972	25.69
354.182	26.04
354.392	26.44
354.602	26.61
354.812	25.64
355.022	24.45
355.232	24.73
355.442	23.93
355.652	24.63
355.862	24.54
356.072	24.72
356.282	23.42
356.492	23.11
356.702	22.91
356.912	22.88
357.122	23.83
357.332	23.78
357.542	24.02
357.752	23.48
357.962	22.74
358.171	22.52
358.381	22.62
358.591	24.68
358.801	25.01
359.011	25.39
359.221	25.25
359.43	24.21
359.64	25.1
359.85	25.22
360.06	25.9
360.269	25.64
360.479	24.89
360.689	24.78
360.899	23.87
361.108	23.71
361.318	23.08
361.528	23.1
361.737	23.24
361.947	22.8
362.156	22.5
362.366	22.25
362.576	22.14
362.785	22.57
362.995	22.92
363.204	22.49
363.414	22.93
363.623	22.96
363.833	23.48
364.042	23.82
364.252	22.93
364.461	22.49
364.671	22.83
364.88	22.73
365.09	22.82
365.299	22.93
365.509	22.99
365.718	21.75
365.927	21.41
366.137	21.06
366.346	20.79
366.555	21.06
366.765	21.98
366.974	21.28
367.183	21.51
367.393	21.05
367.602	21.33
367.811	21.15
368.021	20.99
368.23	20.51
368.439	20.51
368.648	20.17
368.857	20.47
369.067	20.07
369.276	20.74
369.485	20.29
369.694	20.27
369.903	20.51
370.112	21.02
370.321	21.44
370.531	22.62
370.74	22.07
370.949	22.44
371.158	22.06
371.367	22.2
371.576	22.13
371.785	22.46
371.994	22.77
372.203	21.9
372.412	21.83
372.621	21.12
372.83	20.92
373.039	20.46
373.248	19.48
373.457	20.46
373.666	19.51
373.874	18.74
374.083	18.77
374.292	18.37
374.501	18.07
374.71	17.53
374.919	17.97
375.128	18.18
375.336	18.73
375.545	18.61
375.754	17.96
375.963	17.94
376.171	18.17
376.38	18.35
376.589	17.37
376.798	17.91
377.006	17.9
377.215	18.06
377.424	17.05
377.632	17.04
377.841	17.2
378.05	17.5
378.258	17.81
378.467	18.77
378.675	18.37
378.884	19.39
379.093	19.25
379.301	19.58
379.51	19.96
379.718	20.09
379.927	20.18
380.135	19.85
380.344	19.23
380.552	18.67
380.761	17.82
380.969	18.33
381.177	17.91
381.386	17.58
381.594	16.9
381.803	16
382.011	16.27
382.219	16.12
382.428	16.57
382.636	16.94
382.845	17.15
383.053	17.14
383.261	17.11
383.469	17.62
383.678	17.55
383.886	17.91
384.094	18.03
384.302	17.95
384.511	17.66
384.719	17.22
384.927	17.15
385.135	16.87
385.343	16.68
385.552	15.89
385.76	15.48
385.968	15.33
386.176	15.26
386.384	15.03
386.592	14.95
386.8	14.93
387.008	15.48
387.216	15.35
387.424	14.92
387.633	14.92
387.841	14.83
388.049	15.1
388.257	14.42
388.465	14.28
388.672	14.29
388.88	13.79
389.088	13.34
389.296	12.95
389.504	12.86
389.712	13.18
389.92	13.05
390.128	13.04
390.336	12.2
390.544	12.85
390.751	12.66
390.959	12.66
391.167	12.98
391.375	13.16
391.583	12.89
391.79	12.72
391.998	12.75
392.206	13.04
392.414	13.11
392.621	13.43
392.829	13.57
393.037	13.54
393.244	13.84
393.452	13.37
393.66	13.11
393.867	13.31
394.075	13.54
394.283	13.66
394.49	13.53
394.698	13.48
394.905	13.51
395.113	13.1
395.32	13.23
395.528	12.94
395.735	13.33
395.943	13.45
396.15	13.49
396.358	13.14
396.565	13.05
396.773	12.75
396.98	12.42
397.188	12.36
397.395	12.43
397.602	12.4
397.81	12.45
398.017	12.51
398.225	12.73
398.432	12.58
398.639	12.84
398.847	12.73
399.054	12.25
399.261	12.51
399.468	12.37
399.676	12.08
399.883	11.83
400.09	11.37
400.297	11.11
400.505	11.07
400.712	11.1
400.919	11.02
401.126	10.97
401.333	11.47
401.54	11.55
401.748	11.67
401.955	11.96
402.162	12.02
402.369	12.47
402.576	12.29
402.783	11.95
402.99	12.14
403.197	11.59
403.404	11.49
403.611	11.33
403.818	11.49
404.025	11.53
404.232	11.32
404.439	11.59
404.646	11.06
404.853	11.15
405.06	11.54
405.267	11.42
405.474	11.54
405.681	11.78
405.887	11.54
406.094	11.08
406.301	10.87
406.508	11.15
406.715	10.99
406.922	11.35
407.128	11.48
407.335	11.23
407.542	11.16
407.749	11.75
407.955	11.54
408.162	12.03
408.369	12.04
408.575	12
408.782	11.98
408.989	12.05
409.195	11.77
409.402	11.67
409.609	11.6
409.815	11.13
410.022	10.75
410.228	10.79
410.435	10.31
410.642	10.38
410.848	10.18
411.055	9.81
411.261	9.71
411.468	9.72
411.674	9.69
411.881	9.8
412.087	10.29
412.294	10.52
412.5	10.53
412.706	10.73
412.913	10.93
413.119	11
413.326	10.69
413.532	10.37
413.738	10.43
413.945	10.37
414.151	10.43
414.357	10.25
414.564	9.95
414.77	9.86
414.976	9.84
415.182	9.8
415.389	9.99
415.595	10.47
415.801	10.53
416.007	10.56
416.214	10.66
416.42	10.39
416.626	10.26
416.832	10.26
417.038	10.2
417.244	10.27
417.45	10.19
417.657	10.22
417.863	10.24
418.069	10.35
418.275	10.61
418.481	10.53
418.687	10.66
418.893	10.75
419.099	10.73
419.305	11.02
419.511	11.18
419.717	11.33
419.923	11.2
420.129	11.13
420.335	11.07
420.541	10.99
420.746	10.89
420.952	10.87
421.158	10.94
421.364	10.81
421.57	10.69
421.776	10.63
421.982	10.51
422.187	10.52
422.393	10.42
422.599	10.39
422.805	10.38
423.01	10.43
423.216	10.36
423.422	10.24
423.628	10.46
423.833	10.5
424.039	10.34
424.245	10.34
424.45	10.47
424.656	10.55
424.862	10.55
425.067	10.27
425.273	10.27
425.478	10.34
425.684	10.37
425.889	10.27
426.095	10.16
426.301	10.14
426.506	10.08
426.712	9.96
426.917	10.13
427.123	10.07
427.328	10.29
427.533	10.38
427.739	10.35
427.944	10.56
428.15	10.71
428.355	10.6
428.561	10.76
428.766	10.76
428.971	10.88
429.177	10.48
429.382	10.75
429.587	10.6
429.793	10.5
429.998	10.54
430.203	10.19
430.408	9.9
430.614	9.97
430.819	9.83
431.024	9.88
431.229	9.57
431.434	9.9
431.64	9.8
431.845	10.25
432.05	10.2
432.255	10.03
432.46	10.09
432.665	10.15
432.87	10.27
433.076	10.23
433.281	10.28
433.486	10.38
433.691	10.31
433.896	10.27
434.101	9.94
434.306	9.98
434.511	10.12
434.716	10.27
434.921	10.33
435.126	10.28
435.331	10.3
435.535	10.26
435.74	10.37
435.945	10.19
436.15	10.36
436.355	10.49
436.56	10.4
436.765	10.39
436.97	10.2
437.174	10.29
437.379	10.14
437.584	10.16
437.789	10.2
437.993	10.11
438.198	10.09
438.403	9.97
438.608	9.89
438.812	9.94
439.017	9.97
439.222	10.21
439.426	10.03
439.631	10.18
439.836	10.24
440.04	10.2
440.245	10.16
440.45	10.27
440.654	10.32
440.859	10.25
441.063	10.44
441.268	10.36
441.472	10.13
441.677	10.26
441.881	10.21
442.086	10.13
442.29	10.19
442.495	10.2
442.699	10.1
442.904	9.98
443.108	9.98
443.312	9.68
443.517	9.68
443.721	9.89
443.925	9.76
444.13	9.73
444.334	9.71
444.538	9.66
444.743	9.66
444.947	9.74
445.151	9.67
445.356	9.65
445.56	9.83
445.764	9.84
445.968	9.72
446.173	9.84
446.377	9.97
446.581	10.02
446.785	9.96
446.989	9.82
447.193	9.85
447.398	9.9
447.602	10.04
447.806	9.99
448.01	10.03
448.214	9.97
448.418	9.99
448.622	9.87
448.826	9.87
449.03	10.01
449.234	10.19
449.438	10.36
449.642	10.55
449.846	10.45
450.05	10.41
450.254	10.32
450.458	10.46
450.662	10.36
450.866	10.46
451.069	10.45
451.273	10.3
451.477	10.08
451.681	9.85
451.885	9.65
452.089	9.77
452.292	9.66
452.496	9.71
452.7	9.68
452.904	9.68
453.107	9.27
453.311	9.34
453.515	9.44
453.719	9.64
453.922	9.53
454.126	9.47
454.33	9.23
454.533	9.36
454.737	9.29
454.94	9.15
455.144	8.97
455.348	9.34
455.551	9.19
455.755	9.16
455.958	9.15
456.162	9.13
456.365	9.09
456.569	9.27
456.772	9.23
