Data from 2937809_Reflection_3.txt Node
Date: Wed Jul 15 17:51:21 EDT 2015
User: robert
Spectrometer: USB4E03001
Autoset integration time: false
Trigger mode: 4
Integration Time (sec): 1.000000E-1
Scans to average: 10
Electric dark correction enabled: true
Nonlinearity correction enabled: false
Boxcar width: 5
Stray light correction enabled: false
XAxis mode: Wavelengths
Stop averaging: false
Number of Pixels in Spectrum: 3648
>>>>>Begin Spectral Data<<<<<
177.566	49.56
177.785	150.1
178.005	55.62
178.225	-260
178.445	354.08
178.665	220.63
178.885	364.49
179.105	105.41
179.324	114.37
179.544	89.74
179.764	78.12
179.984	70.02
180.204	48.3
180.423	22.33
180.643	3.12
180.863	3.37
181.083	27.17
181.302	48.91
181.522	63.42
181.742	43.57
181.961	9295
182.181	176.89
182.401	177.06
182.621	-6.13
182.84	-7.03
183.06	28.3
183.279	31.91
183.499	24.12
183.719	58.64
183.938	74.29
184.158	88.34
184.377	110.65
184.597	204.93
184.816	-180.37
185.036	-404.68
185.256	-54.86
185.475	-12.94
185.695	6.27
185.914	-25.04
186.134	11.77
186.353	50.79
186.572	46.41
186.792	61.35
187.011	61.93
187.231	67.5
187.45	86.19
187.67	184.79
187.889	386.14
188.108	141.02
188.328	123.89
188.547	121.06
188.766	74.36
188.986	66.8
189.205	90.14
189.424	91.14
189.644	111.94
189.863	146.69
190.082	105.96
190.302	72.59
190.521	34.72
190.74	-38.56
190.959	-12.92
191.178	-265.39
191.398	-247.92
191.617	-62.99
191.836	-35.63
192.055	-45.05
192.274	-59.15
192.494	-96.75
192.713	-106.97
192.932	-60.41
193.151	9.05
193.37	-11.1
193.589	18.52
193.808	-40.93
194.027	-100.23
194.246	-79.55
194.465	-72.39
194.685	-75.76
194.904	-15.2
195.123	-9.7
195.342	-46.22
195.561	-21.68
195.78	376.32
195.999	-185.71
196.218	113.18
196.436	218.04
196.655	208
196.874	116.32
197.093	56.92
197.312	-233.46
197.531	-280.17
197.75	87.54
197.969	95.39
198.188	55.82
198.407	39.57
198.625	52.03
198.844	74.84
199.063	85.33
199.282	64.12
199.501	51.3
199.719	48.3
199.938	40.64
200.157	31.17
200.376	-2.79
200.594	-24.29
200.813	-69.22
201.032	8.14
201.251	247.49
201.469	110.01
201.688	77.2
201.907	68.37
202.125	95.98
202.344	310.31
202.563	59.57
202.781	-18.18
203	-162.87
203.218	-155.27
203.437	-669.12
203.656	-16.58
203.874	-35.81
204.093	13.16
204.311	78.29
204.53	68.9
204.748	65.39
204.967	53.73
205.185	54.81
205.404	49.69
205.622	41.37
205.841	30.31
206.059	9.21
206.278	-435.87
206.496	-1772.14
206.715	-214.62
206.933	-234.74
207.151	-1771.14
207.37	263.43
207.588	781.35
207.806	-240.36
208.025	-85.6
208.243	-76.22
208.461	30.53
208.68	90.39
208.898	164.48
209.116	82.75
209.335	257.48
209.553	196.33
209.771	73.24
209.989	375.08
210.208	-118.3
210.426	-66.45
210.644	2517.27
210.862	822.16
211.081	184.88
211.299	27.08
211.517	-7.26
211.735	-446.87
211.953	88.54
212.171	41.56
212.39	-44.75
212.608	-238.09
212.826	-346.85
213.044	335.45
213.262	1315.37
213.48	2447.75
213.698	389.32
213.916	-38.51
214.134	77.39
214.352	74.68
214.57	1207.14
214.788	453.49
215.006	-227.84
215.224	459.4
215.442	188.74
215.66	254.47
215.878	105.76
216.096	98.73
216.314	-13.07
216.532	43.71
216.75	27.68
216.968	-58.09
217.185	9.54
217.403	1.08
217.621	8.06
217.839	70.71
218.057	42.65
218.275	11.55
218.492	-260
218.71	349.81
218.928	133.14
219.146	22.41
219.363	-56.33
219.581	31.11
219.799	-103.04
220.017	-942.6
220.234	378.1
220.452	122.28
220.67	-416.98
220.887	119.49
221.105	158.28
221.323	74.03
221.54	17.38
221.758	8.86
221.976	-219.63
222.193	94.16
222.411	77.06
222.629	97
222.846	68.9
223.064	94.71
223.281	87.82
223.499	121.08
223.716	82.33
223.934	62.19
224.151	64.15
224.369	61
224.586	82.23
224.804	122.92
225.021	88.58
225.239	65.33
225.456	62.49
225.674	87.28
225.891	50.95
226.108	89.82
226.326	78.6
226.543	1385.05
226.76	-43.76
226.978	21.1
227.195	-2.82
227.413	-10.47
227.63	6.44
227.847	15.81
228.064	22.45
228.282	24.92
228.499	28.41
228.716	21.89
228.934	18
229.151	16.73
229.368	7.59
229.585	10.51
229.802	7.95
230.02	3.72
230.237	3.69
230.454	4.9
230.671	4.78
230.888	-20.25
231.105	-13.96
231.323	-24.54
231.54	-17.21
231.757	-10.23
231.974	-10.14
232.191	-15.65
232.408	-14.24
232.625	-13.69
232.842	-13.82
233.059	-52.82
233.276	-15.84
233.493	-29.73
233.71	7.77
233.927	-3.93
234.144	18.95
234.361	-1.69
234.578	15.75
234.795	2.44
235.012	11.23
235.229	0.09
235.446	14.93
235.663	16.16
235.879	21.66
236.096	16.03
236.313	12.35
236.53	1.76
236.747	21.82
236.964	10.18
237.181	19.03
237.397	8.2
237.614	2.56
237.831	12.7
238.048	0.28
238.264	-0.11
238.481	1.98
238.698	17.59
238.915	15.61
239.131	9.12
239.348	19.6
239.565	20.21
239.781	23.93
239.998	19.38
240.215	14.4
240.431	16.91
240.648	16.84
240.865	15.99
241.081	7.94
241.298	11.88
241.514	15.7
241.731	12.09
241.947	12.61
242.164	14.41
242.38	20.37
242.597	22.38
242.814	23.59
243.03	22.47
243.246	23.89
243.463	28.8
243.679	30.3
243.896	26.75
244.112	28.03
244.329	28.98
244.545	28.73
244.762	30.03
244.978	27.8
245.194	29.11
245.411	27.96
245.627	22.09
245.843	19.72
246.06	16.73
246.276	18.26
246.492	16.44
246.709	16.08
246.925	15.51
247.141	15.55
247.357	15.23
247.574	15.46
247.79	15.85
248.006	18.55
248.222	19.04
248.439	19.69
248.655	18.63
248.871	19.76
249.087	18.88
249.303	21.05
249.519	21.41
249.736	22.35
249.952	21.31
250.168	21.4
250.384	17.46
250.6	16.38
250.816	12.78
251.032	16.23
251.248	16.31
251.464	14.76
251.68	7.67
251.896	7.24
252.112	6.73
252.328	4.95
252.544	3.49
252.76	5.44
252.976	2.44
253.192	2.95
253.408	1.77
253.624	2.76
253.84	4.53
254.056	4.73
254.272	3.55
254.487	2.43
254.703	8.75
254.919	10.18
255.135	14.35
255.351	20.3
255.567	20.28
255.782	24.43
255.998	23.36
256.214	27.39
256.43	28.52
256.646	27.47
256.861	25.15
257.077	20.25
257.293	20.62
257.508	19.3
257.724	15.56
257.94	15.91
258.155	10.97
258.371	9.33
258.587	7.75
258.802	8.65
259.018	9.87
259.234	11.2
259.449	11.26
259.665	10.29
259.88	10.71
260.096	11.9
260.312	12.45
260.527	12.79
260.743	13.44
260.958	12.95
261.174	12.52
261.389	11.79
261.605	12.59
261.82	12.43
262.036	13.91
262.251	10.34
262.466	6.93
262.682	6.31
262.897	3.84
263.113	2.98
263.328	4.21
263.543	9.78
263.759	8.74
263.974	7.84
264.189	10.33
264.405	12.41
264.62	17.13
264.835	21.53
265.051	19.87
265.266	26.99
265.481	28.4
265.696	28
265.912	25.64
266.127	25.66
266.342	24.54
266.557	22.15
266.773	18.23
266.988	18.49
267.203	16.8
267.418	19.45
267.633	16.04
267.848	15.28
268.064	14.04
268.279	15.33
268.494	16.21
268.709	16.8
268.924	16.78
269.139	18.64
269.354	14.17
269.569	14.6
269.784	11.14
269.999	9.34
270.214	7.82
270.429	10.39
270.644	5.24
270.859	6.11
271.074	5.51
271.289	5.54
271.504	4.88
271.719	7.87
271.934	9.65
272.149	10.79
272.363	12.68
272.578	12.57
272.793	11.48
273.008	12.74
273.223	11.34
273.438	13.3
273.653	14.88
273.867	17.77
274.082	15.74
274.297	16.12
274.512	15.81
274.726	16.34
274.941	19.5
275.156	20.13
275.371	21.82
275.585	23.29
275.8	21.84
276.015	19.39
276.229	15.9
276.444	16.73
276.659	14.42
276.873	14.24
277.088	14.46
277.302	12.04
277.517	11.47
277.732	8.6
277.946	7.99
278.161	5.58
278.375	6.58
278.59	6.89
278.804	8.6
279.019	8.5
279.233	9.85
279.448	7.44
279.662	7.54
279.877	9.52
280.091	11.7
280.306	12.55
280.52	14.35
280.735	16.45
280.949	14.96
281.163	15.27
281.378	14.72
281.592	13.48
281.806	15.75
282.021	17.36
282.235	12.7
282.449	12.16
282.664	10.73
282.878	15.19
283.092	14.49
283.307	14.83
283.521	13.46
283.735	14.6
283.949	17.55
284.164	18.03
284.378	17.19
284.592	18.31
284.806	18.41
285.02	17.7
285.234	12.66
285.449	11.77
285.663	10.92
285.877	12.33
286.091	12.8
286.305	13.47
286.519	12.44
286.733	11.95
286.947	10.88
287.161	11.21
287.375	12.56
287.589	14.6
287.803	16.35
288.017	17.62
288.231	18.54
288.445	17.49
288.659	14.58
288.873	13.7
289.087	13.66
289.301	16.36
289.515	15.81
289.729	15.58
289.943	16.66
290.157	16.89
290.371	16.4
290.584	15.05
290.798	15.91
291.012	16.93
291.226	18.25
291.44	18.75
291.654	19.46
291.867	19.34
292.081	20.45
292.295	19.4
292.509	19.07
292.722	17.91
292.936	16.02
293.15	15.88
293.364	14.56
293.577	12.07
293.791	12.6
294.005	10.01
294.218	13.93
294.432	16.4
294.645	16.77
294.859	17.73
295.073	18.98
295.286	22.75
295.5	22.11
295.713	22.85
295.927	24.79
296.14	25.25
296.354	25.27
296.568	21.75
296.781	18.02
296.994	18.55
297.208	17.52
297.421	17.75
297.635	17.59
297.848	16.57
298.062	16.56
298.275	16.78
298.489	18.04
298.702	19.73
298.915	22.38
299.129	24.7
299.342	22.27
299.555	21.55
299.769	20.71
299.982	19.84
300.195	21.24
300.409	20.09
300.622	18.91
300.835	17.68
301.048	14.55
301.262	12.67
301.475	11.95
301.688	14.09
301.901	15.07
302.115	17.93
302.328	18.76
302.541	17.69
302.754	16.38
302.967	17.54
303.18	15.69
303.393	18.89
303.607	21.55
303.82	23.78
304.033	23.68
304.246	24.65
304.459	23.06
304.672	20.29
304.885	23.19
305.098	27.59
305.311	25.57
305.524	24.83
305.737	23.88
305.95	23.41
306.163	22.73
306.376	22.35
306.589	19.73
306.802	20.9
307.015	23.48
307.228	21.05
307.44	20.27
307.653	23.31
307.866	23.84
308.079	24.13
308.292	22.66
308.505	21.79
308.718	20.68
308.93	22.93
309.143	22.93
309.356	25.53
309.569	26.93
309.781	24.21
309.994	21.86
310.207	22.35
310.42	23.92
310.632	22.25
310.845	22.29
311.058	23.91
311.27	22.66
311.483	19.83
311.696	17.69
311.908	15.62
312.121	15.5
312.333	13.87
312.546	15.61
312.759	11.88
312.971	13.66
313.184	12.18
313.396	10.6
313.609	10.23
313.821	14.42
314.034	14.14
314.246	15.85
314.459	18.56
314.671	19.5
314.884	18.73
315.096	21.94
315.309	23.19
315.521	27.85
315.733	26.17
315.946	27.68
316.158	25.48
316.371	23.31
316.583	25.05
316.795	23.91
317.008	26.58
317.22	23.91
317.432	24
317.644	22.44
317.857	20.04
318.069	19.73
318.281	20.82
318.494	23.26
318.706	24.88
318.918	24.1
319.13	24.83
319.342	24.86
319.555	26.43
319.767	26.45
319.979	28.02
320.191	27.73
320.403	31.24
320.615	31.53
320.827	29.52
321.039	27.37
321.252	25.06
321.464	23.39
321.676	26.61
321.888	25.35
322.1	24.16
322.312	21.35
322.524	21.37
322.736	18.67
322.948	18.25
323.16	19.37
323.372	22.19
323.584	22.2
323.796	23.79
324.007	21.11
324.219	22.67
324.431	24.21
324.643	24.89
324.855	23.77
325.067	25.9
325.279	26.14
325.491	26.64
325.702	25.89
325.914	27.82
326.126	27.51
326.338	27.07
326.55	27.59
326.761	26.81
326.973	28.15
327.185	30.51
327.396	28.19
327.608	28.47
327.82	27.12
328.032	29.85
328.243	31.41
328.455	31.55
328.666	33.54
328.878	35.08
329.09	36.43
329.301	35.16
329.513	34.71
329.725	36.92
329.936	35.22
330.148	34.88
330.359	32.65
330.571	32.05
330.782	31.56
330.994	33.13
331.205	34.16
331.417	34.55
331.628	36.93
331.84	36.73
332.051	37.51
332.262	39.5
332.474	42.47
332.685	43.18
332.897	42.72
333.108	43.38
333.319	43.52
333.531	42.26
333.742	43.26
333.953	43.1
334.165	45.13
334.376	46.78
334.587	49.29
334.799	49.62
335.01	51.01
335.221	52.19
335.432	54.63
335.644	52.06
335.855	50.95
336.066	49.12
336.277	48.33
336.488	47.04
336.7	47.23
336.911	45.4
337.122	45.82
337.333	45.42
337.544	45.67
337.755	45.01
337.966	45.8
338.177	48.18
338.388	49.38
338.599	52.09
338.811	53.7
339.022	52.75
339.233	53.92
339.444	55.57
339.655	55.99
339.866	54.51
340.076	54.54
340.287	56.44
340.498	55.83
340.709	55.75
340.92	54.39
341.131	54.18
341.342	54.98
341.553	55.29
341.764	53.52
341.975	54.69
342.185	56.34
342.396	56.9
342.607	56.44
342.818	55.82
343.029	57.56
343.239	58.99
343.45	58.73
343.661	59.63
343.872	58.89
344.082	59.48
344.293	58.36
344.504	59.51
344.714	58.27
344.925	59.09
345.136	60.84
345.346	60.79
345.557	60.01
345.768	61.65
345.978	61.72
346.189	60.72
346.399	61.21
346.61	61.38
346.821	61.53
347.031	61.58
347.242	61.06
347.452	58.38
347.663	57.52
347.873	55.25
348.084	52.92
348.294	52.23
348.504	52.91
348.715	52.92
348.925	52.56
349.136	53.53
349.346	53.8
349.557	52.91
349.767	54.98
349.977	55.29
350.188	56.61
350.398	57.43
350.608	56.77
350.819	58.64
351.029	55.66
351.239	57.25
351.449	55.49
351.66	55.05
351.87	54.64
352.08	54.79
352.29	54.04
352.501	53.83
352.711	53.55
352.921	57.44
353.131	56.11
353.341	58.46
353.552	58.56
353.762	57.77
353.972	57.47
354.182	57.85
354.392	58.32
354.602	60.71
354.812	61.71
355.022	62.53
355.232	59.26
355.442	59.76
355.652	57.67
355.862	56.58
356.072	57.97
356.282	58.42
356.492	58.87
356.702	58.21
356.912	56.17
357.122	55.22
357.332	53.3
357.542	53.85
357.752	53.8
357.962	55.82
358.171	55.94
358.381	54
358.591	54.81
358.801	54.42
359.011	54.13
359.221	54.66
359.43	54.58
359.64	54.62
359.85	53.72
360.06	52.77
360.269	52.34
360.479	52.22
360.689	52.32
360.899	51.88
361.108	52.03
361.318	52.06
361.528	51.17
361.737	51.53
361.947	51.96
362.156	51.35
362.366	51.84
362.576	51.96
362.785	51.79
362.995	52.29
363.204	52.65
363.414	52.6
363.623	52.25
363.833	52.45
364.042	52.49
364.252	53.13
364.461	54.29
364.671	53.96
364.88	52.8
365.09	52.17
365.299	51.61
365.509	50.61
365.718	49.5
365.927	49.94
366.137	49.1
366.346	49.91
366.555	49.32
366.765	47.75
366.974	48.75
367.183	48.64
367.393	49.35
367.602	49.13
367.811	49.62
368.021	50.58
368.23	49.48
368.439	50.28
368.648	48.92
368.857	48.2
369.067	48.74
369.276	48.04
369.485	48.93
369.694	49.06
369.903	49.03
370.112	48.16
370.321	46.82
370.531	48.12
370.74	47.11
370.949	47.07
371.158	47.44
371.367	47.11
371.576	46.47
371.785	46.11
371.994	45.41
372.203	46.55
372.412	46.11
372.621	46.45
372.83	44.9
373.039	44.84
373.248	45.38
373.457	44.32
373.666	44.2
373.874	44.66
374.083	44.7
374.292	44.82
374.501	43.23
374.71	43.54
374.919	43.28
375.128	43.2
375.336	43.22
375.545	42.7
375.754	43.13
375.963	42.89
376.171	42.67
376.38	42.53
376.589	42.41
376.798	42.87
377.006	42.98
377.215	43.26
377.424	43.86
377.632	43.61
377.841	43.37
378.05	42.92
378.258	42.18
378.467	41.93
378.675	41.51
378.884	40.6
379.093	40.23
379.301	39.97
379.51	38.94
379.718	38.25
379.927	38.72
380.135	38.51
380.344	38.63
380.552	38.49
380.761	37.87
380.969	37.67
381.177	38.22
381.386	38.11
381.594	38.65
381.803	39.1
382.011	39.33
382.219	38.42
382.428	38.73
382.636	38.56
382.845	38.8
383.053	38.68
383.261	38.18
383.469	37.71
383.678	37.85
383.886	37.66
384.094	37.49
384.302	37.08
384.511	36.93
384.719	36.41
384.927	35.89
385.135	35.92
385.343	35.52
385.552	35.64
385.76	35.59
385.968	35.39
386.176	34.01
386.384	34.16
386.592	33.58
386.8	33.59
387.008	33.33
387.216	33.85
387.424	33.22
387.633	33.28
387.841	33.02
388.049	32.73
388.257	32.64
388.465	32.96
388.672	32.34
388.88	32.37
389.088	32.68
389.296	32.5
389.504	31.83
389.712	31.81
389.92	31.73
390.128	31.84
390.336	31.27
390.544	30.64
390.751	30.54
390.959	30.14
391.167	29.78
391.375	28.76
391.583	29.07
391.79	29.09
391.998	29.2
392.206	29.36
392.414	28.67
392.621	29.13
392.829	29.64
393.037	29.4
393.244	29.68
393.452	29.94
393.66	30.5
393.867	29.74
394.075	29.34
394.283	29.18
394.49	28.68
394.698	28.78
394.905	28.23
395.113	27.89
395.32	27.45
395.528	27.25
395.735	27.11
395.943	26.64
396.15	26.91
396.358	26.9
396.565	27.11
396.773	27.13
396.98	27.55
397.188	27.9
397.395	27.71
397.602	28.15
397.81	28.25
398.017	28.68
398.225	29.09
398.432	29.01
398.639	29.28
398.847	28.87
399.054	28.84
399.261	28.33
399.468	27.99
399.676	27.78
399.883	27.58
400.09	27.54
400.297	27.06
400.505	26.98
400.712	27.3
400.919	27.44
401.126	27.72
401.333	27.62
401.54	27.61
401.748	27.72
401.955	27.71
402.162	27.88
402.369	27.92
402.576	27.61
402.783	27.45
402.99	27.12
403.197	27.07
403.404	26.88
403.611	27.04
403.818	27.24
404.025	27.26
404.232	27.21
404.439	27.3
404.646	27.22
404.853	27.57
405.06	28.04
405.267	28.1
405.474	27.73
405.681	27.51
405.887	27.67
406.094	27.6
406.301	27.11
406.508	27.48
406.715	27.13
406.922	26.82
407.128	26.55
407.335	25.88
407.542	25.75
407.749	25.9
407.955	26.13
408.162	25.98
408.369	26.17
408.575	26.56
408.782	26.2
408.989	26.18
409.195	26.29
409.402	26.32
409.609	26.4
409.815	26.59
410.022	26.62
410.228	26.71
410.435	26.71
410.642	27.14
410.848	27.3
411.055	27.64
411.261	27.69
411.468	27.63
411.674	27.52
411.881	27.42
412.087	27.38
412.294	27.26
412.5	27.13
412.706	27.08
412.913	26.2
413.119	26.17
413.326	25.63
413.532	26.23
413.738	26.38
413.945	26.47
414.151	26.53
414.357	26.46
414.564	26.72
414.77	26.7
414.976	26.54
415.182	26.92
415.389	26.78
415.595	26.66
415.801	26.4
416.007	26.35
416.214	26.57
416.42	26.66
416.626	26.54
416.832	26.43
417.038	26.29
417.244	26.17
417.45	25.93
417.657	25.83
417.863	26.05
418.069	26.05
418.275	26.2
418.481	26.13
418.687	25.92
418.893	25.72
419.099	25.8
419.305	25.79
419.511	25.79
419.717	25.67
419.923	25.74
420.129	25.6
420.335	25.45
420.541	25.36
420.746	25.23
420.952	25.2
421.158	25.37
421.364	25.24
421.57	25.16
421.776	25.11
421.982	25.08
422.187	25.07
422.393	25.12
422.599	25.1
422.805	24.94
423.01	25.05
423.216	25.06
423.422	24.99
423.628	24.9
423.833	25.02
424.039	24.88
424.245	24.94
424.45	24.8
424.656	24.65
424.862	24.68
425.067	24.71
425.273	24.54
425.478	24.52
425.684	24.67
425.889	24.77
426.095	24.63
426.301	24.66
426.506	24.76
426.712	24.76
426.917	24.96
427.123	24.78
427.328	24.76
427.533	24.76
427.739	24.7
427.944	24.29
428.15	24.27
428.355	24.5
428.561	24.59
428.766	24.23
428.971	24.34
429.177	24.25
429.382	24.32
429.587	24.38
429.793	24.47
429.998	24.45
430.203	24.51
430.408	24.31
430.614	24.4
430.819	24.22
431.024	24.58
431.229	24.38
431.434	24.17
431.64	24.21
431.845	24.03
432.05	24.3
432.255	24.27
432.46	24.37
432.665	24.53
432.87	24.35
433.076	24.48
433.281	24.37
433.486	24.52
433.691	24.65
433.896	24.39
434.101	24.41
434.306	24.11
434.511	24.26
434.716	24.17
434.921	24.03
435.126	24.03
435.331	24.07
435.535	24.16
435.74	24.01
435.945	23.87
436.15	24.05
436.355	23.97
436.56	23.74
436.765	23.67
436.97	23.68
437.174	23.68
437.379	23.51
437.584	23.53
437.789	23.26
437.993	23.37
438.198	23.42
438.403	23.33
438.608	23.28
438.812	23.54
439.017	23.62
439.222	23.51
439.426	23.49
439.631	23.6
439.836	23.71
440.04	23.89
440.245	23.82
440.45	23.97
440.654	24.04
440.859	24.14
441.063	24.08
441.268	24.1
441.472	24.32
441.677	24.5
441.881	24.45
442.086	24.35
442.29	24.41
442.495	24.63
442.699	24.34
442.904	24.42
443.108	24.4
443.312	24.44
443.517	24.39
443.721	24.27
443.925	24.13
444.13	24.1
444.334	24.19
444.538	24.1
444.743	23.9
444.947	24.11
445.151	24.12
445.356	24.16
445.56	24.04
445.764	23.98
445.968	23.9
446.173	23.9
446.377	23.83
446.581	23.77
446.785	23.82
446.989	23.7
447.193	23.61
447.398	23.53
447.602	23.45
447.806	23.42
448.01	23.4
448.214	23.42
448.418	23.27
448.622	23.27
448.826	23.09
449.03	22.95
449.234	22.89
449.438	23.05
449.642	22.97
449.846	23.01
450.05	23.15
450.254	23.27
450.458	23.07
450.662	23.07
450.866	23.06
451.069	23.12
451.273	23.09
451.477	23.14
451.681	23.11
451.885	23.29
452.089	23.31
452.292	23.06
452.496	22.96
452.7	23.34
452.904	23.47
453.107	23.43
453.311	23.57
453.515	23.61
453.719	23.72
453.922	23.62
454.126	23.45
454.33	23.32
454.533	23.3
454.737	23.37
454.94	23.1
455.144	22.85
455.348	22.88
455.551	22.9
455.755	23.07
455.958	23.06
456.162	23.14
