Data from 2937852_Reflection_3.txt Node
Date: Wed Jul 15 15:53:16 EDT 2015
User: robert
Spectrometer: USB4E03001
Autoset integration time: false
Trigger mode: 4
Integration Time (sec): 1.000000E-1
Scans to average: 10
Electric dark correction enabled: true
Nonlinearity correction enabled: false
Boxcar width: 5
Stray light correction enabled: false
XAxis mode: Wavelengths
Stop averaging: false
Number of Pixels in Spectrum: 3648
>>>>>Begin Spectral Data<<<<<
177.566	-59.85
177.785	-162.08
178.005	-282.55
178.225	-222.71
178.445	-611.67
178.665	180.63
178.885	129.82
179.105	103.04
179.324	112.86
179.544	34.88
179.764	40.81
179.984	30.83
180.204	87.97
180.423	84.14
180.643	59.43
180.863	83.85
181.083	403.26
181.302	225.27
181.522	136.83
181.742	383.47
181.961	280.66
182.181	384.62
182.401	-541.28
182.621	-134.21
182.84	-596.53
183.06	2872.03
183.279	-507.69
183.499	261.69
183.719	12730.77
183.938	-1474.52
184.158	108.34
184.377	104.06
184.597	79.41
184.816	40.76
185.036	23.98
185.256	-0.01
185.475	24.15
185.695	32.47
185.914	-8.16
186.134	24.1
186.353	50.79
186.572	27.67
186.792	42.7
187.011	12.98
187.231	-18.16
187.45	53.85
187.67	305.83
187.889	-200.2
188.108	42.42
188.328	-28.93
188.547	-99.44
188.766	-38.06
188.986	25.31
189.205	17.61
189.424	56.48
189.644	105.31
189.863	78.93
190.082	82.89
190.302	65.94
190.521	569.23
190.74	198.03
190.959	146.84
191.178	119.8
191.398	145.42
191.617	178.11
191.836	194.53
192.055	68.56
192.274	87.1
192.494	109.67
192.713	-294.67
192.932	-1897.44
193.151	19.87
193.37	128.27
193.589	165.17
193.808	531
194.027	-305.03
194.246	-150.9
194.465	493.36
194.685	158.91
194.904	700.37
195.123	492.88
195.342	43.8
195.561	87.36
195.78	178.37
195.999	311.89
196.218	1045.96
196.436	-169.04
196.655	-525.73
196.874	-359.15
197.093	1279.69
197.312	337.45
197.531	203.5
197.75	1139.78
197.969	737.03
198.188	-422.08
198.407	-934.07
198.625	1110.44
198.844	408.83
199.063	468.07
199.282	105.84
199.501	-186.89
199.719	-38.87
199.938	21.06
200.157	-55.08
200.376	96.53
200.594	24.03
200.813	96.39
201.032	50.68
201.251	-272.53
201.469	82.3
201.688	-310.12
201.907	182.94
202.125	460.51
202.344	-202.29
202.563	-200.23
202.781	29.66
203	52.65
203.218	48.91
203.437	24.58
203.656	29.29
203.874	69
204.093	70.33
204.311	72.3
204.53	70.92
204.748	62.34
204.967	47.91
205.185	43.29
205.404	36.2
205.622	53.11
205.841	30.03
206.059	-113.19
206.278	-7.69
206.496	-364.1
206.715	69.52
206.933	496.08
207.151	577.67
207.37	-5.78
207.588	-46.75
207.806	-19.93
208.025	-55.77
208.243	-49.34
208.461	-73
208.68	-95.37
208.898	-51.14
209.116	13.84
209.335	36.6
209.553	51.09
209.771	-61.35
209.989	-30.87
210.208	-61.04
210.426	32.31
210.644	-445.1
210.862	-52.93
211.081	-178.83
211.299	-337.4
211.517	-35.48
211.735	-265.08
211.953	-232.34
212.171	-371.34
212.39	-415.47
212.608	-394.48
212.826	-350.43
213.044	-711.19
213.262	-738.96
213.48	216.87
213.698	-605.73
213.916	255.9
214.134	153.85
214.352	92
214.57	128.55
214.788	168.22
215.006	173.76
215.224	96.55
215.442	67.81
215.66	68.43
215.878	79.36
216.096	44.92
216.314	83.01
216.532	60.7
216.75	49.62
216.968	11.45
217.185	-34.25
217.403	-37.8
217.621	-112
217.839	-47.49
218.057	-240.85
218.275	-83.45
218.492	-42.29
218.71	-28.36
218.928	12.29
219.146	13.48
219.363	-183.88
219.581	9.63
219.799	76.3
220.017	47.08
220.234	89.55
220.452	-62.09
220.67	-79.43
220.887	110.09
221.105	58.56
221.323	89.58
221.54	117.5
221.758	34.66
221.976	50.81
222.193	52.36
222.411	64.86
222.629	12.55
222.846	49.61
223.064	33.03
223.281	-117.12
223.499	-29.69
223.716	-258.56
223.934	-194.96
224.151	-328.8
224.369	-1649.65
224.586	-447.53
224.804	-44.24
225.021	-31.51
225.239	-113.23
225.456	-63.56
225.674	-21.23
225.891	2.83
226.108	3.48
226.326	25.5
226.543	10.78
226.76	-4.04
226.978	2.83
227.195	-39.82
227.413	-5
227.63	12.3
227.847	5.92
228.064	-1.98
228.282	3.77
228.499	5.47
228.716	5.45
228.934	6.16
229.151	9.61
229.368	10.61
229.585	17.74
229.802	14.47
230.02	11.26
230.237	10.39
230.454	12.18
230.671	7.94
230.888	9.5
231.105	7.6
231.323	5.9
231.54	4.41
231.757	2.1
231.974	-3.26
232.191	-3.36
232.408	-4.36
232.625	-2.6
232.842	1.5
233.059	8.18
233.276	6.74
233.493	10.9
233.71	17.21
233.927	19.12
234.144	18.47
234.361	17.19
234.578	12.33
234.795	13.98
235.012	11.93
235.229	10.65
235.446	4.47
235.663	7.34
235.879	4.96
236.096	-0.65
236.313	-4.05
236.53	-1.99
236.747	-5.05
236.964	-2.79
237.181	1.57
237.397	4.73
237.614	9.3
237.831	9.74
238.048	4.62
238.264	8.09
238.481	10.99
238.698	8.96
238.915	5.97
239.131	1.88
239.348	6.16
239.565	7.32
239.781	8.14
239.998	1.93
240.215	2.21
240.431	2.98
240.648	1.01
240.865	1.58
241.081	2.16
241.298	3.72
241.514	6.99
241.731	4.05
241.947	3.52
242.164	5.33
242.38	4.06
242.597	4.4
242.814	6.13
243.03	4.83
243.246	5.85
243.463	7.09
243.679	8.1
243.896	9.38
244.112	12.02
244.329	11.33
244.545	12.15
244.762	13.4
244.978	12.88
245.194	10.96
245.411	14.73
245.627	11.53
245.843	11.98
246.06	11.4
246.276	10.71
246.492	9.15
246.709	10.01
246.925	8.91
247.141	10
247.357	9.55
247.574	9.91
247.79	9.14
248.006	9.62
248.222	9.42
248.439	8.46
248.655	8.11
248.871	8.52
249.087	7.1
249.303	7.08
249.519	7.29
249.736	8.19
249.952	6.72
250.168	7.5
250.384	8.94
250.6	7.9
250.816	9.77
251.032	8.89
251.248	7.74
251.464	10.56
251.68	9.92
251.896	9.38
252.112	10.52
252.328	10.58
252.544	7.8
252.76	9.18
252.976	11.28
253.192	10.24
253.408	9.93
253.624	11.02
253.84	9.47
254.056	6.92
254.272	5.46
254.487	4.12
254.703	7.6
254.919	13.37
255.135	8.74
255.351	7.78
255.567	8.79
255.782	7.76
255.998	12.58
256.214	8.91
256.43	8.18
256.646	6.22
256.861	6.78
257.077	6.86
257.293	1.81
257.508	-1.09
257.724	-3.53
257.94	-2.69
258.155	-3.12
258.371	-4.58
258.587	-2.49
258.802	-0.51
259.018	1.49
259.234	1.3
259.449	2.71
259.665	3.18
259.88	4.79
260.096	5.29
260.312	5.41
260.527	6.56
260.743	6.25
260.958	6.31
261.174	7.67
261.389	7.42
261.605	7.55
261.82	6.06
262.036	6.92
262.251	7.2
262.466	5.96
262.682	6.42
262.897	7.99
263.113	7.32
263.328	9.19
263.543	8.38
263.759	7.84
263.974	7.97
264.189	6.54
264.405	3.38
264.62	1.9
264.835	3.64
265.051	3.26
265.266	0.67
265.481	1.41
265.696	0.7
265.912	0.47
266.127	1.42
266.342	-0.56
266.557	1.31
266.773	2.93
266.988	4.35
267.203	4.74
267.418	4.39
267.633	6.28
267.848	8.75
268.064	8.89
268.279	7.35
268.494	6.45
268.709	6.84
268.924	6.56
269.139	5.3
269.354	3.8
269.569	2.43
269.784	1.12
269.999	0.05
270.214	-0.57
270.429	-3.66
270.644	-3.63
270.859	-3.35
271.074	-0.69
271.289	-0.35
271.504	2.02
271.719	1.71
271.934	2.39
272.149	2.88
272.363	0.99
272.578	1.48
272.793	2.07
273.008	3.13
273.223	3.15
273.438	2.01
273.653	0.25
273.867	-0.2
274.082	0.1
274.297	0.92
274.512	0.76
274.726	3.1
274.941	0.06
275.156	-0.31
275.371	-2.64
275.585	-1.78
275.8	-0.09
276.015	3.18
276.229	2.74
276.444	3.02
276.659	1.84
276.873	2.32
277.088	2.89
277.302	3.9
277.517	6
277.732	8.08
277.946	7.33
278.161	6.17
278.375	5.78
278.59	6.85
278.804	7.66
279.019	10.71
279.233	11.58
279.448	10.22
279.662	11.48
279.877	10.88
280.091	10.21
280.306	9.18
280.52	9.06
280.735	6.39
280.949	5.78
281.163	4.12
281.378	0.76
281.592	0.33
281.806	0.53
282.021	-1.14
282.235	-1.63
282.449	-1.41
282.664	0.32
282.878	-0.37
283.092	0.86
283.307	1.33
283.521	1.5
283.735	4.29
283.949	4.76
284.164	4.28
284.378	5.84
284.592	5.35
284.806	3.53
285.02	2.75
285.234	4.08
285.449	4.91
285.663	4.82
285.877	6.31
286.091	4.27
286.305	4.75
286.519	5.2
286.733	4.47
286.947	5.91
287.161	7.15
287.375	7.8
287.589	6.52
287.803	5.5
288.017	5.12
288.231	5.51
288.445	5.18
288.659	4.08
288.873	4.35
289.087	4.83
289.301	4.76
289.515	5.59
289.729	5.13
289.943	6.19
290.157	6.52
290.371	7.06
290.584	5.78
290.798	6.32
291.012	5.99
291.226	5.3
291.44	3.6
291.654	4.51
291.867	4.29
292.081	5.32
292.295	5.13
292.509	5.64
292.722	5.37
292.936	5.01
293.15	5.98
293.364	6.88
293.577	6.52
293.791	5.76
294.005	5.19
294.218	6.2
294.432	5.86
294.645	6.61
294.859	6.66
295.073	8.3
295.286	6.61
295.5	5.72
295.713	5.25
295.927	7.97
296.14	10.38
296.354	9.14
296.568	9.06
296.781	8.22
296.994	7.15
297.208	6.85
297.421	5.92
297.635	6.86
297.848	6.37
298.062	6.3
298.275	5.46
298.489	4.18
298.702	4.58
298.915	3.51
299.129	4.56
299.342	5.25
299.555	5.52
299.769	5.75
299.982	6.17
300.195	7.63
300.409	8.68
300.622	9.54
300.835	11.22
301.048	13.2
301.262	13.28
301.475	12.95
301.688	12.42
301.901	11.95
302.115	11.82
302.328	11.49
302.541	10.01
302.754	9.53
302.967	7.28
303.18	6.07
303.393	5.86
303.607	5.87
303.82	5.9
304.033	5.85
304.246	7.23
304.459	7.22
304.672	9.21
304.885	10.31
305.098	9.41
305.311	10.35
305.524	11.91
305.737	10.9
305.95	12.19
306.163	13.01
306.376	14.28
306.589	13.91
306.802	13.84
307.015	11.75
307.228	12.55
307.44	12.59
307.653	13.9
307.866	13.33
308.079	13.43
308.292	13.32
308.505	12.41
308.718	13.32
308.93	12.32
309.143	12.38
309.356	12.89
309.569	14.12
309.781	13.65
309.994	11.39
310.207	11.13
310.42	11.34
310.632	11.47
310.845	11.97
311.058	10.9
311.27	12.44
311.483	12.03
311.696	12.11
311.908	10.82
312.121	12.39
312.333	13.98
312.546	13.65
312.759	13.68
312.971	12.78
313.184	13.02
313.396	13.34
313.609	11.71
313.821	13.62
314.034	13.96
314.246	13.63
314.459	13.19
314.671	12.18
314.884	12.38
315.096	11.13
315.309	13.53
315.521	12.03
315.733	10.41
315.946	9.88
316.158	9.26
316.371	10.07
316.583	10.95
316.795	10.01
317.008	11.76
317.22	12.39
317.432	13.18
317.644	12.45
317.857	14.63
318.069	17.15
318.281	18.09
318.494	15.98
318.706	16.13
318.918	14.52
319.13	15.26
319.342	14.44
319.555	13.15
319.767	12.91
319.979	10.62
320.191	10.03
320.403	10.4
320.615	10.5
320.827	10.03
321.039	9
321.252	10.4
321.464	11.34
321.676	11.48
321.888	12.73
322.1	12.99
322.312	14.6
322.524	14.43
322.736	12.48
322.948	11.79
323.16	13.36
323.372	13.8
323.584	13.79
323.796	14.21
324.007	13.48
324.219	13.49
324.431	15.63
324.643	15.46
324.855	16.66
325.067	17.68
325.279	19.01
325.491	18.54
325.702	19.23
325.914	19.06
326.126	18.88
326.338	19.11
326.55	19.45
326.761	17.36
326.973	19.1
327.185	18.27
327.396	18.51
327.608	18.27
327.82	19.82
328.032	19.31
328.243	19.92
328.455	22.1
328.666	21.49
328.878	21
329.09	22.3
329.301	21.59
329.513	21.99
329.725	22.61
329.936	24.24
330.148	22.86
330.359	24.71
330.571	25.1
330.782	24.54
330.994	28.52
331.205	31.04
331.417	32.23
331.628	33.03
331.84	34.35
332.051	35.18
332.262	35.22
332.474	37.43
332.685	35.98
332.897	36.8
333.108	36.92
333.319	35.32
333.531	35.96
333.742	35.94
333.953	35.59
334.165	36.61
334.376	34.74
334.587	35.11
334.799	34.75
335.01	35.99
335.221	36.7
335.432	36.91
335.644	38.75
335.855	38.79
336.066	39.4
336.277	38.38
336.488	39.1
336.7	41.63
336.911	42.7
337.122	43.18
337.333	43.69
337.544	44.17
337.755	43.6
337.966	43.96
338.177	43.06
338.388	43.63
338.599	43.61
338.811	42.13
339.022	41.14
339.233	41.24
339.444	41.13
339.655	41.18
339.866	40
340.076	40.17
340.287	38.17
340.498	38.9
340.709	37.9
340.92	38.71
341.131	38.17
341.342	37.95
341.553	37.13
341.764	37.9
341.975	37
342.185	38.93
342.396	39.67
342.607	41.15
342.818	41.88
343.029	43.41
343.239	44.59
343.45	45.77
343.661	46.64
343.872	47.16
344.082	46.84
344.293	48.08
344.504	46.58
344.714	46.67
344.925	46.34
345.136	46.8
345.346	44.92
345.557	44.62
345.768	44.71
345.978	46.41
346.189	47.13
346.399	47.32
346.61	46.24
346.821	46.51
347.031	46.63
347.242	46.45
347.452	45.12
347.663	45
347.873	45.95
348.084	44.58
348.294	42.96
348.504	42.34
348.715	42.34
348.925	44.3
349.136	44.14
349.346	43.64
349.557	44.37
349.767	44.81
349.977	45.74
350.188	46.12
350.398	48.75
350.608	49.1
350.819	49.05
351.029	48.85
351.239	48.81
351.449	49.2
351.66	50.54
351.87	50.72
352.08	51.63
352.29	51.77
352.501	51.33
352.711	50.76
352.921	51.29
353.131	51.79
353.341	51.57
353.552	50.61
353.762	50.67
353.972	49.03
354.182	48.67
354.392	48.08
354.602	48.78
354.812	49.25
355.022	48.15
355.232	47.16
355.442	46.7
355.652	47.29
355.862	47.89
356.072	48.39
356.282	48.16
356.492	48.54
356.702	49
356.912	48.03
357.122	47.63
357.332	47.64
357.542	46.52
357.752	46.44
357.962	46.83
358.171	45.71
358.381	45.65
358.591	46.34
358.801	45.29
359.011	45.64
359.221	46.67
359.43	46.95
359.64	46.77
359.85	47.8
360.06	47.71
360.269	47.14
360.479	48.01
360.689	48.05
360.899	47.36
361.108	47.21
361.318	46.75
361.528	46.92
361.737	46.51
361.947	46.31
362.156	46.09
362.366	46.18
362.576	46.57
362.785	46.32
362.995	46.66
363.204	47.8
363.414	49.24
363.623	49.13
363.833	47.69
364.042	47.74
364.252	48.47
364.461	48
364.671	47.46
364.88	47.65
365.09	47.97
365.299	46.91
365.509	45.81
365.718	44.9
365.927	45.25
366.137	45.88
366.346	46.53
366.555	45.39
366.765	46.27
366.974	46.82
367.183	46.03
367.393	44.99
367.602	45.04
367.811	44.57
368.021	45.47
368.23	45
368.439	45.67
368.648	44.4
368.857	45.51
369.067	45.31
369.276	44.92
369.485	45.56
369.694	45.58
369.903	45.35
370.112	45.91
370.321	45
370.531	44.36
370.74	43.65
370.949	43.45
371.158	42.79
371.367	42.89
371.576	42.84
371.785	42.63
371.994	43.22
372.203	43.5
372.412	44.03
372.621	44.23
372.83	44.52
373.039	44.85
373.248	44.16
373.457	44.28
373.666	44.24
373.874	44.25
374.083	43.93
374.292	43.44
374.501	42.68
374.71	42.25
374.919	41.67
375.128	41.55
375.336	40.52
375.545	41.87
375.754	41.72
375.963	40.88
376.171	41.27
376.38	40.61
376.589	40.5
376.798	40.89
377.006	40.01
377.215	39.97
377.424	40.02
377.632	41.36
377.841	41.05
378.05	41.36
378.258	41.9
378.467	41.08
378.675	41.63
378.884	41.89
379.093	41.09
379.301	41.79
379.51	42.13
379.718	42.3
379.927	41.42
380.135	40.91
380.344	40.5
380.552	40.42
380.761	40.79
380.969	40.82
381.177	40.55
381.386	41.58
381.594	41
381.803	40.36
382.011	40.48
382.219	40.99
382.428	40.56
382.636	40.66
382.845	40.51
383.053	39.98
383.261	39.58
383.469	39.72
383.678	38.86
383.886	39.1
384.094	38.81
384.302	38.33
384.511	37.89
384.719	38.39
384.927	38.36
385.135	37.83
385.343	37.89
385.552	37.58
385.76	37.63
385.968	37.58
386.176	37.28
386.384	37.56
386.592	37.21
386.8	36.85
387.008	36.86
387.216	36.72
387.424	36.83
387.633	36.93
387.841	36.92
388.049	36.49
388.257	36.64
388.465	36.47
388.672	36.3
388.88	36.22
389.088	36.19
389.296	36.29
389.504	36.18
389.712	35.78
389.92	35.91
390.128	36.14
390.336	35.76
390.544	35.71
390.751	35.97
390.959	35.63
391.167	35.82
391.375	36.06
391.583	35.96
391.79	36.12
391.998	36.43
392.206	36.48
392.414	36.47
392.621	36.67
392.829	36.29
393.037	36.13
393.244	36.48
393.452	36.5
393.66	36.24
393.867	36.12
394.075	35.91
394.283	36.36
394.49	36.08
394.698	36.15
394.905	36.18
395.113	36.13
395.32	36.64
395.528	36.46
395.735	36.46
395.943	36.4
396.15	36.38
396.358	36.18
396.565	36.06
396.773	35.97
396.98	35.91
397.188	35.98
397.395	36.81
397.602	36.5
397.81	36.98
398.017	37.09
398.225	37.48
398.432	37.35
398.639	37.27
398.847	36.86
399.054	37.07
399.261	36.7
399.468	36.76
399.676	36.52
399.883	36.47
400.09	35.79
400.297	35.93
400.505	35.54
400.712	35.56
400.919	36.37
401.126	36.28
401.333	36.28
401.54	36.76
401.748	36.94
401.955	37.03
402.162	37.01
402.369	37.6
402.576	37.43
402.783	37.52
402.99	37.58
403.197	37.28
403.404	37.66
403.611	37.52
403.818	37.51
404.025	37.51
404.232	37.17
404.439	37.23
404.646	37.16
404.853	37.21
405.06	37.33
405.267	37.38
405.474	37.18
405.681	37.11
405.887	36.93
406.094	36.78
406.301	36.47
406.508	36.79
406.715	36.86
406.922	36.97
407.128	37.09
407.335	36.92
407.542	36.88
407.749	36.85
407.955	36.53
408.162	36.81
408.369	36.96
408.575	37.21
408.782	36.94
408.989	37.12
409.195	36.71
409.402	36.33
409.609	36.17
409.815	36.13
410.022	36.36
410.228	36.47
410.435	36.64
410.642	36.45
410.848	36.38
411.055	36.53
411.261	36.19
411.468	36.09
411.674	36.35
411.881	36.59
412.087	36.46
412.294	35.98
412.5	35.88
412.706	35.58
412.913	35.58
413.119	35.65
413.326	35.43
413.532	35.32
413.738	35.66
413.945	35.46
414.151	35.13
414.357	35.56
414.564	36.08
414.77	35.93
414.976	36.07
415.182	35.79
415.389	35.83
415.595	35.99
415.801	36.11
416.007	35.97
416.214	36.08
416.42	36.11
416.626	35.68
416.832	35.57
417.038	35.7
417.244	35.35
417.45	35.38
417.657	35.22
417.863	35.12
418.069	34.97
418.275	35.12
418.481	35.11
418.687	35.09
418.893	35.27
419.099	35.07
419.305	35.04
419.511	35.21
419.717	35.25
419.923	35.08
420.129	35.02
420.335	34.94
420.541	34.84
420.746	34.66
420.952	34.6
421.158	34.51
421.364	34.63
421.57	34.53
421.776	34.55
421.982	34.49
422.187	34.48
422.393	34.33
422.599	34.52
422.805	34.4
423.01	34.39
423.216	34.51
423.422	34.36
423.628	34.2
423.833	34.07
424.039	34
424.245	33.99
424.45	34.06
424.656	34.26
424.862	34.14
425.067	34.12
425.273	34.03
425.478	33.91
425.684	34.03
425.889	33.93
426.095	34.01
426.301	33.89
426.506	33.81
426.712	33.57
426.917	33.49
427.123	33.46
427.328	33.35
427.533	33.47
427.739	33.62
427.944	33.29
428.15	33.25
428.355	33.18
428.561	33.23
428.766	33.23
428.971	33.63
429.177	33.7
429.382	33.71
429.587	33.88
429.793	33.85
429.998	33.6
430.203	33.84
430.408	33.96
430.614	34.16
430.819	34
431.024	34.17
431.229	33.88
431.434	33.67
431.64	33.43
431.845	33.47
432.05	33.35
432.255	33.56
432.46	33.64
432.665	33.67
432.87	33.69
433.076	33.82
433.281	33.8
433.486	34.08
433.691	34.13
433.896	34.14
434.101	34.02
434.306	34.15
434.511	33.84
434.716	33.66
434.921	33.47
435.126	33.36
435.331	33.5
435.535	33.23
435.74	32.97
435.945	32.85
436.15	32.75
436.355	32.66
436.56	32.62
436.765	32.76
436.97	33.08
437.174	33.35
437.379	33.25
437.584	33.02
437.789	33.22
437.993	33.36
438.198	33.56
438.403	33.67
438.608	33.7
438.812	33.79
439.017	33.66
439.222	33.6
439.426	33.32
439.631	33.45
439.836	33.49
440.04	33.52
440.245	33.18
440.45	33.05
440.654	33.19
440.859	33.13
441.063	32.98
441.268	32.96
441.472	32.97
441.677	33.19
441.881	33.38
442.086	33.34
442.29	33.2
442.495	33.53
442.699	33.43
442.904	33.2
443.108	33.26
443.312	33.25
443.517	33.59
443.721	33.57
443.925	33.5
444.13	33.25
444.334	33.2
444.538	33.25
444.743	33
444.947	33.09
445.151	33.1
445.356	33.09
445.56	33.16
445.764	32.9
445.968	32.7
446.173	32.57
446.377	32.46
446.581	32.6
446.785	32.64
446.989	32.7
447.193	32.7
447.398	32.64
447.602	32.54
447.806	32.5
448.01	32.54
448.214	32.57
448.418	32.59
448.622	32.53
448.826	32.3
449.03	32.39
449.234	32.46
449.438	32.34
449.642	32.45
449.846	32.54
450.05	32.67
450.254	32.71
450.458	32.57
450.662	32.54
450.866	32.59
451.069	32.46
451.273	32.37
451.477	32.13
451.681	32.04
451.885	31.97
452.089	31.97
452.292	31.83
452.496	31.88
452.7	31.84
452.904	32
453.107	32.18
453.311	32.48
453.515	32.08
453.719	32.38
453.922	32.36
454.126	32.18
454.33	32.02
454.533	32.07
454.737	31.99
454.94	32.21
455.144	32.13
455.348	32.13
455.551	32.05
455.755	32.48
455.958	32.17
456.162	32.04
456.365	32.13
456.569	32.18
456.772	31.95
456.976	32.1
457.179	31.8
457.383	31.69
457.586	31.52
457.79	31.51
457.993	31.45
458.196	31.67
458.4	31.99
458.603	32.1
458.807	32.23
459.01	32.31
459.213	32.28
