Data from 2937855_Reflection_2.txt Node
Date: Wed Jul 15 15:43:31 EDT 2015
User: robert
Spectrometer: USB4E03001
Autoset integration time: false
Trigger mode: 4
Integration Time (sec): 1.000000E-1
Scans to average: 10
Electric dark correction enabled: true
Nonlinearity correction enabled: false
Boxcar width: 5
Stray light correction enabled: false
XAxis mode: Wavelengths
Stop averaging: false
Number of Pixels in Spectrum: 3648
>>>>>Begin Spectral Data<<<<<
177.566	-220.57
177.785	-484.76
178.005	59.01
178.225	54.11
178.445	143.04
178.665	266.47
178.885	-9.98
179.105	-61.42
179.324	-18.11
179.544	-171.25
179.764	-923.13
179.984	273.79
180.204	130.2
180.423	36.39
180.643	84.16
180.863	69.83
181.083	60.88
181.302	20.85
181.522	29.41
181.742	28.75
181.961	52.82
182.181	32.97
182.401	37.46
182.621	38.59
182.84	30.02
183.06	-1.71
183.279	19.33
183.499	35.18
183.719	34.66
183.938	13.33
184.158	18.08
184.377	-46.4
184.597	-378.43
184.816	-123.95
185.036	-97.7
185.256	-109.85
185.475	-38.15
185.695	4.87
185.914	67.2
186.134	115.6
186.353	157.73
186.572	546.3
186.792	261.65
187.011	238.52
187.231	177.05
187.45	282.94
187.67	341.81
187.889	344.76
188.108	444.25
188.328	218.19
188.547	292.92
188.766	26981.82
188.986	624.39
189.205	248.17
189.424	155.49
189.644	159.14
189.863	186.66
190.082	140.63
190.302	99.95
190.521	26.03
190.74	90.7
190.959	61.8
191.178	12.69
191.398	36.7
191.617	37.49
191.836	-39.89
192.055	171.73
192.274	241.44
192.494	95.14
192.713	159.1
192.932	114.63
193.151	23.36
193.37	-55.61
193.589	-7.46
193.808	-5.08
194.027	-16.53
194.246	-21.1
194.465	7.86
194.685	-9.02
194.904	-68.1
195.123	-86.88
195.342	209.59
195.561	96.49
195.78	-7.8
195.999	-7.33
196.218	51.09
196.436	54.59
196.655	870.59
196.874	87.52
197.093	293.64
197.312	102.23
197.531	243.52
197.75	123.7
197.969	30.25
198.188	8.6
198.407	80.76
198.625	50.42
198.844	44.64
199.063	32.65
199.282	34.73
199.501	-32.71
199.719	-33.07
199.938	-24.31
200.157	-25.82
200.376	21.21
200.594	54.37
200.813	59.3
201.032	9.78
201.251	72.05
201.469	1293.24
201.688	122.21
201.907	143.74
202.125	78.48
202.344	103.67
202.563	39.23
202.781	47.48
203	123.25
203.218	186.94
203.437	2070.51
203.656	1362.92
203.874	137.94
204.093	117.72
204.311	113.31
204.53	217.86
204.748	183.86
204.967	145.3
205.185	128.39
205.404	106.12
205.622	99.99
205.841	90.59
206.059	85.13
206.278	61.12
206.496	80.92
206.715	108.39
206.933	224.49
207.151	239.28
207.37	-29.04
207.588	-19.78
207.806	59.86
208.025	119.3
208.243	88.33
208.461	116.61
208.68	-4.59
208.898	306.01
209.116	111.87
209.335	-256.01
209.553	12.11
209.771	22.96
209.989	67.16
210.208	118.73
210.426	-1243.28
210.644	-99.63
210.862	-55.69
211.081	-136.88
211.299	-635.62
211.517	-318.82
211.735	-111.34
211.953	-6.12
212.171	-28.56
212.39	-36.78
212.608	-111.26
212.826	-101.88
213.044	-265.68
213.262	1706.92
213.48	-223.08
213.698	-386.13
213.916	-1093.52
214.134	-282.65
214.352	-3412.4
214.57	603.99
214.788	603.58
215.006	762.7
215.224	-1741.71
215.442	226.51
215.66	135.35
215.878	147.44
216.096	195.99
216.314	-1857.97
216.532	208.81
216.75	73.39
216.968	107.22
217.185	87.07
217.403	111.48
217.621	70.93
217.839	51.46
218.057	52.75
218.275	16.31
218.492	22.96
218.71	29.08
218.928	32.91
219.146	50.73
219.363	-31.83
219.581	-107.38
219.799	-234.31
220.017	5395.65
220.234	193.43
220.452	126.96
220.67	249.09
220.887	319.54
221.105	682.84
221.323	155.07
221.54	-151.58
221.758	-21.61
221.976	80.35
222.193	111.19
222.411	151.09
222.629	119.84
222.846	115.11
223.064	106.58
223.281	99.24
223.499	68.77
223.716	56.61
223.934	55.54
224.151	71.86
224.369	16.21
224.586	3.89
224.804	-40.16
225.021	-103.49
225.239	-811.09
225.456	299.35
225.674	-872.61
225.891	258.25
226.108	560.48
226.326	-57.31
226.543	-6.73
226.76	-12.1
226.978	-20.45
227.195	6.48
227.413	15.46
227.63	12.85
227.847	4.03
228.064	3.53
228.282	6.46
228.499	7.89
228.716	1.55
228.934	-0.3
229.151	3.33
229.368	8.82
229.585	7.09
229.802	4.76
230.02	6.43
230.237	4.62
230.454	5
230.671	9.37
230.888	11.02
231.105	13.38
231.323	12.95
231.54	14.61
231.757	11.35
231.974	12.22
232.191	13.39
232.408	13.99
232.625	20.62
232.842	22.88
233.059	24.05
233.276	26.42
233.493	29.89
233.71	34
233.927	32.94
234.144	34.98
234.361	34.06
234.578	35.03
234.795	30.48
235.012	29.5
235.229	28.47
235.446	25.37
235.663	26
235.879	26.96
236.096	22.11
236.313	22.24
236.53	22.44
236.747	20.43
236.964	16.16
237.181	17.01
237.397	9.75
237.614	9.21
237.831	15.37
238.048	12.49
238.264	9.32
238.481	11.99
238.698	14.93
238.915	16.47
239.131	15.24
239.348	16.54
239.565	19.79
239.781	21.37
239.998	20.73
240.215	16.56
240.431	16.54
240.648	16.7
240.865	16.39
241.081	14.12
241.298	11.57
241.514	13.48
241.731	13.2
241.947	11.79
242.164	11.35
242.38	11.67
242.597	14.99
242.814	14.03
243.03	12.2
243.246	12.62
243.463	12.77
243.679	14.26
243.896	13.77
244.112	15.96
244.329	17.85
244.545	20.65
244.762	20.17
244.978	17.03
245.194	16.41
245.411	17.99
245.627	17.66
245.843	17.79
246.06	16.98
246.276	17.12
246.492	17.53
246.709	17.69
246.925	15.58
247.141	15.71
247.357	15.72
247.574	15.95
247.79	16.02
248.006	15.28
248.222	14.39
248.439	13.78
248.655	13.38
248.871	11.21
249.087	10.98
249.303	10.76
249.519	11.06
249.736	11.84
249.952	10.63
250.168	10.86
250.384	10.43
250.6	12.98
250.816	15.88
251.032	15.12
251.248	15.84
251.464	15.32
251.68	17.61
251.896	16.41
252.112	14.95
252.328	18.24
252.544	16.7
252.76	18.25
252.976	16.45
253.192	16.06
253.408	18.39
253.624	19.12
253.84	15.36
254.056	12.18
254.272	12.6
254.487	11.55
254.703	9.87
254.919	8.27
255.135	7.52
255.351	6.91
255.567	3.88
255.782	1.33
255.998	0.56
256.214	3.44
256.43	6.12
256.646	7.35
256.861	9.87
257.077	11.55
257.293	13.48
257.508	14.71
257.724	14.08
257.94	14.3
258.155	13.88
258.371	11.96
258.587	11.76
258.802	11.24
259.018	10.9
259.234	10.72
259.449	10.2
259.665	10.86
259.88	11.3
260.096	12.1
260.312	11.02
260.527	10.54
260.743	11.23
260.958	11.43
261.174	11.78
261.389	10.16
261.605	10.03
261.82	9.46
262.036	9.1
262.251	7.89
262.466	5.61
262.682	7.31
262.897	6.42
263.113	5.58
263.328	6.43
263.543	5.87
263.759	7.67
263.974	7.15
264.189	7.88
264.405	6.17
264.62	4.45
264.835	6.26
265.051	5.88
265.266	8.37
265.481	11.41
265.696	10.24
265.912	11.12
266.127	11.58
266.342	9.18
266.557	10.17
266.773	11.18
266.988	10.99
267.203	9.97
267.418	9.38
267.633	8.62
267.848	7.34
268.064	7.33
268.279	8.74
268.494	10.07
268.709	11.67
268.924	10.1
269.139	10.57
269.354	11.27
269.569	13.67
269.784	14.29
269.999	15.44
270.214	15.06
270.429	15.79
270.644	14.44
270.859	13.28
271.074	13.95
271.289	14.26
271.504	13.17
271.719	13.18
271.934	12.22
272.149	12.05
272.363	10.95
272.578	11.67
272.793	10.47
273.008	11.02
273.223	11.46
273.438	10.9
273.653	10.25
273.867	10.51
274.082	11.17
274.297	12.01
274.512	12.79
274.726	13.43
274.941	10.94
275.156	11.9
275.371	11.7
275.585	13
275.8	15.18
276.015	16.15
276.229	15.02
276.444	14.34
276.659	14.6
276.873	14.26
277.088	13.23
277.302	15.14
277.517	13.54
277.732	13.06
277.946	12.2
278.161	11.61
278.375	11
278.59	13.25
278.804	13.96
279.019	11.04
279.233	10.65
279.448	12.98
279.662	13.29
279.877	16.72
280.091	15.95
280.306	15.38
280.52	13.27
280.735	13.97
280.949	12.16
281.163	11.53
281.378	12.18
281.592	11.49
281.806	10.39
282.021	10.18
282.235	8.13
282.449	8.09
282.664	7.7
282.878	8.45
283.092	9.22
283.307	10.89
283.521	10.72
283.735	10.93
283.949	10.81
284.164	11.71
284.378	11.97
284.592	12.72
284.806	12.34
285.02	12.68
285.234	11.97
285.449	10.85
285.663	10.83
285.877	11.39
286.091	11.32
286.305	12.74
286.519	11.73
286.733	12.19
286.947	12.42
287.161	13
287.375	13.35
287.589	13.24
287.803	13.74
288.017	13.31
288.231	12.68
288.445	14.17
288.659	12.64
288.873	14.29
289.087	13.36
289.301	12.51
289.515	12.93
289.729	11.97
289.943	11.91
290.157	11.54
290.371	12.29
290.584	13.69
290.798	12.85
291.012	14.44
291.226	13.43
291.44	14.5
291.654	14.29
291.867	13.75
292.081	14.78
292.295	15.95
292.509	16.84
292.722	16.98
292.936	16.46
293.15	15.91
293.364	14.73
293.577	14.44
293.791	15.07
294.005	16.68
294.218	16.15
294.432	17.35
294.645	18.52
294.859	16.86
295.073	15.81
295.286	15.53
295.5	15.74
295.713	16.93
295.927	17.24
296.14	16.37
296.354	15.06
296.568	15.47
296.781	14.3
296.994	12.77
297.208	13.47
297.421	13.48
297.635	13.17
297.848	13.11
298.062	12.51
298.275	12.38
298.489	11.89
298.702	12.37
298.915	12.68
299.129	12.15
299.342	11.59
299.555	11.53
299.769	11.72
299.982	12.45
300.195	12.48
300.409	11.17
300.622	11.3
300.835	11.11
301.048	11.68
301.262	12.79
301.475	13.38
301.688	14.87
301.901	16.27
302.115	16.2
302.328	16.29
302.541	17.32
302.754	18.66
302.967	19.7
303.18	20
303.393	18.71
303.607	17.46
303.82	18.71
304.033	18.66
304.246	18.3
304.459	19.33
304.672	17.81
304.885	16.8
305.098	15.52
305.311	15.16
305.524	15.04
305.737	14.71
305.95	14.12
306.163	12.65
306.376	12.68
306.589	13.12
306.802	12.06
307.015	14.56
307.228	16.3
307.44	17.16
307.653	16.28
307.866	17.94
308.079	18.62
308.292	19.95
308.505	20.56
308.718	20.1
308.93	19.21
309.143	18.81
309.356	18.49
309.569	17.63
309.781	18.22
309.994	17.78
310.207	17.17
310.42	17.73
310.632	16.81
310.845	15.5
311.058	16.37
311.27	16.14
311.483	18.35
311.696	18.32
311.908	18.92
312.121	18.83
312.333	19.22
312.546	19.06
312.759	18.73
312.971	18.9
313.184	19.66
313.396	18.87
313.609	18.14
313.821	16.7
314.034	15.32
314.246	14.24
314.459	14.66
314.671	14.25
314.884	12.03
315.096	12.43
315.309	11.98
315.521	11.7
315.733	12.13
315.946	13.5
316.158	13.24
316.371	13.03
316.583	13.04
316.795	12.24
317.008	12.63
317.22	13.91
317.432	14.24
317.644	13.29
317.857	14.12
318.069	13.76
318.281	13.52
318.494	14.15
318.706	15.56
318.918	13.23
319.13	13.1
319.342	14.09
319.555	13.45
319.767	13.41
319.979	16.34
320.191	15.44
320.403	14.94
320.615	15.01
320.827	13.13
321.039	13.33
321.252	15.04
321.464	15.87
321.676	15.66
321.888	16.5
322.1	15.08
322.312	13.6
322.524	12.76
322.736	13.01
322.948	13.23
323.16	12.66
323.372	12.07
323.584	13.28
323.796	13.26
324.007	12.31
324.219	13.21
324.431	13.74
324.643	14.7
324.855	15
325.067	14.93
325.279	14.44
325.491	14.61
325.702	14.79
325.914	14.41
326.126	13.5
326.338	15.45
326.55	14.03
326.761	12.95
326.973	12.67
327.185	12.2
327.396	12.66
327.608	12.22
327.82	13.09
328.032	12.55
328.243	12.28
328.455	11.79
328.666	10.18
328.878	11.25
329.09	12.69
329.301	12.13
329.513	13.37
329.725	12.66
329.936	12.81
330.148	13.1
330.359	11.25
330.571	10.43
330.782	11.85
330.994	11.31
331.205	11.77
331.417	11.63
331.628	12.11
331.84	12.67
332.051	13
332.262	13.99
332.474	14.24
332.685	17.65
332.897	18.98
333.108	18.54
333.319	17.88
333.531	17.34
333.742	18.56
333.953	18.25
334.165	17.43
334.376	17.35
334.587	16.54
334.799	16.45
335.01	16.19
335.221	15.69
335.432	15.87
335.644	16.15
335.855	15.31
336.066	15.61
336.277	15.85
336.488	16.87
336.7	17.15
336.911	17.79
337.122	16.63
337.333	15.69
337.544	16.29
337.755	16.45
337.966	15.85
338.177	16.61
338.388	14.8
338.599	15.84
338.811	13.16
339.022	13.42
339.233	12.86
339.444	13.39
339.655	13.8
339.866	12.29
340.076	12.17
340.287	13.38
340.498	13.26
340.709	13.9
340.92	12.56
341.131	14.41
341.342	12.25
341.553	12.27
341.764	11.86
341.975	12.53
342.185	13.37
342.396	13.03
342.607	12.31
342.818	12.71
343.029	12.61
343.239	12.33
343.45	12.66
343.661	13.84
343.872	14.53
344.082	14.97
344.293	14.4
344.504	14.05
344.714	13.64
344.925	13.97
345.136	12.96
345.346	12.47
345.557	13.42
345.768	13.26
345.978	13.47
346.189	12.94
346.399	13.87
346.61	12.6
346.821	12.96
347.031	12.23
347.242	13.25
347.452	13.41
347.663	14
347.873	14.06
348.084	14.47
348.294	14.84
348.504	14.61
348.715	12.96
348.925	12.86
349.136	13.27
349.346	13.78
349.557	12.29
349.767	13.07
349.977	13.49
350.188	13.16
350.398	13.5
350.608	13.5
350.819	12.64
351.029	13.67
351.239	14.21
351.449	13.28
351.66	14.13
351.87	13.91
352.08	14.34
352.29	13.89
352.501	13.02
352.711	12.04
352.921	11.12
353.131	12.21
353.341	11.77
353.552	12.31
353.762	11.51
353.972	10.78
354.182	11.12
354.392	10.19
354.602	10.25
354.812	10.09
355.022	10.3
355.232	10.8
355.442	10.61
355.652	10.01
355.862	9.25
356.072	10.08
356.282	10.94
356.492	11.88
356.702	11.59
356.912	11.54
357.122	12.86
357.332	13.17
357.542	13.62
357.752	13.66
357.962	13.56
358.171	14.14
358.381	14.17
358.591	14.01
358.801	13.78
359.011	13.73
359.221	13.78
359.43	13.22
359.64	13.35
359.85	12.89
360.06	12.42
360.269	12.99
360.479	12.3
360.689	12.55
360.899	12.16
361.108	11.88
361.318	12.13
361.528	12.19
361.737	11.82
361.947	11.73
362.156	10.85
362.366	10.14
362.576	10.35
362.785	10.86
362.995	10.16
363.204	10.22
363.414	9.75
363.623	9.81
363.833	9.7
364.042	9.81
364.252	9.66
364.461	10.84
364.671	12.33
364.88	12.05
365.09	11.92
365.299	12.77
365.509	13.29
365.718	14.38
365.927	13.7
366.137	13.56
366.346	13.57
366.555	12.67
366.765	12.07
366.974	12.11
367.183	11.78
367.393	11.6
367.602	10.51
367.811	9.8
368.021	8.58
368.23	9.12
368.439	8.9
368.648	9.07
368.857	9.56
369.067	9.49
369.276	8.79
369.485	9.14
369.694	8.02
369.903	8.46
370.112	8.1
370.321	8.58
370.531	8.73
370.74	8.17
370.949	7.77
371.158	8.31
371.367	9.06
371.576	9.28
371.785	8.45
371.994	10.08
372.203	10.65
372.412	11.41
372.621	11.67
372.83	11.53
373.039	11.33
373.248	11.37
373.457	10.37
373.666	9.48
373.874	8.82
374.083	9.1
374.292	8.81
374.501	8.88
374.71	8.1
374.919	7.81
375.128	8.03
375.336	8.32
375.545	8.81
375.754	8.95
375.963	9.69
376.171	9.9
376.38	10.42
376.589	10.47
376.798	10.01
377.006	10.27
377.215	10.41
377.424	10.37
377.632	10.72
377.841	10.1
378.05	10.12
378.258	9.38
378.467	9.98
378.675	9.33
378.884	9.34
379.093	8.69
379.301	8.52
379.51	8.46
379.718	8.39
379.927	7.93
380.135	7.66
380.344	8.09
380.552	8.27
380.761	7.9
380.969	8.2
381.177	7.13
381.386	7.95
381.594	8.02
381.803	7.93
382.011	7.42
382.219	7.62
382.428	7.51
382.636	7.54
382.845	7.42
383.053	7.4
383.261	7.35
383.469	8.02
383.678	7.95
383.886	7.81
384.094	7.72
384.302	7.48
384.511	7.62
384.719	7.91
384.927	8.05
385.135	8.41
385.343	8.23
385.552	8.19
385.76	8.02
385.968	8.02
386.176	7.9
386.384	8.02
386.592	8.52
386.8	8.25
387.008	8.62
387.216	8.21
387.424	7.99
387.633	7.91
387.841	7.69
388.049	7.69
388.257	7.29
388.465	7.25
388.672	6.91
388.88	7.04
389.088	7.21
389.296	6.99
389.504	6.86
389.712	6.98
389.92	6.42
390.128	6.58
390.336	6.66
390.544	7.34
390.751	7.54
390.959	7.68
391.167	7.73
391.375	7.56
391.583	6.97
391.79	7.01
391.998	7.05
392.206	7.47
392.414	7.15
392.621	7.04
392.829	6.31
393.037	6.34
393.244	6.17
393.452	6.15
393.66	6.04
393.867	6.49
394.075	6.42
394.283	6.14
394.49	6.34
394.698	6.79
394.905	6.83
395.113	7.26
395.32	7.06
395.528	7.17
395.735	6.86
395.943	6.9
396.15	6.83
396.358	6.94
396.565	6.87
396.773	6.85
396.98	6.6
397.188	6.49
397.395	6.23
397.602	6.35
397.81	6.23
398.017	6.25
398.225	6.24
398.432	6.21
398.639	5.93
398.847	6.05
399.054	5.82
399.261	5.93
399.468	6.06
399.676	6.1
399.883	6.27
400.09	6.27
400.297	6.23
400.505	6.48
400.712	6.44
400.919	7.14
401.126	7.33
401.333	7.37
401.54	7.41
401.748	7.12
401.955	7.34
402.162	7.19
402.369	7.23
402.576	7.28
402.783	6.95
402.99	6.93
403.197	6.35
403.404	6.32
403.611	6.06
403.818	5.95
404.025	5.83
404.232	5.63
404.439	5.72
404.646	5.61
404.853	5.71
405.06	5.66
405.267	5.79
405.474	5.81
405.681	5.57
405.887	6.03
406.094	5.87
406.301	6.17
406.508	6.16
406.715	5.9
406.922	5.93
407.128	5.94
407.335	5.83
407.542	5.81
407.749	5.88
407.955	5.93
408.162	5.71
408.369	5.78
408.575	5.58
408.782	5.69
408.989	5.77
409.195	5.81
409.402	5.71
409.609	5.92
409.815	5.87
410.022	5.96
410.228	6.4
410.435	6.27
410.642	6.52
410.848	6.82
411.055	7.02
411.261	7.11
411.468	6.81
411.674	6.55
411.881	6.67
412.087	6.59
412.294	6.63
412.5	6.33
412.706	6.47
412.913	6.59
413.119	6.55
413.326	6.64
413.532	6.58
413.738	6.97
413.945	7.39
414.151	7.39
414.357	7.49
414.564	7.14
414.77	6.98
414.976	7.21
415.182	6.63
415.389	6.57
415.595	6.14
415.801	6.19
416.007	6.43
416.214	6.27
416.42	6
416.626	6.02
416.832	6.32
417.038	6.46
417.244	6.18
417.45	6.61
417.657	6.47
417.863	6.32
418.069	6.32
418.275	5.82
418.481	5.8
418.687	6.09
418.893	5.95
419.099	5.88
419.305	5.81
419.511	5.82
419.717	5.59
419.923	5.6
420.129	5.71
420.335	5.66
420.541	5.88
420.746	5.87
420.952	5.81
421.158	5.91
421.364	5.86
421.57	5.8
421.776	5.79
421.982	5.82
422.187	5.82
422.393	5.78
422.599	5.78
422.805	5.78
423.01	5.73
423.216	5.66
423.422	5.52
423.628	5.41
423.833	5.55
424.039	5.53
424.245	5.54
424.45	5.47
424.656	5.52
424.862	5.51
425.067	5.34
425.273	5.28
425.478	5.22
425.684	5.12
425.889	5.27
426.095	5
426.301	4.94
426.506	4.98
426.712	4.97
426.917	4.74
427.123	4.6
427.328	4.7
427.533	4.73
427.739	4.73
427.944	5.16
428.15	5.16
428.355	5.3
428.561	5.38
428.766	5.5
428.971	5.55
429.177	6.07
429.382	6.33
429.587	6.47
429.793	6.58
429.998	6.58
430.203	6.38
430.408	6.32
430.614	6.48
430.819	6.63
431.024	6.23
431.229	6.22
431.434	6.05
431.64	5.97
431.845	5.87
432.05	5.9
432.255	6.13
432.46	5.97
432.665	5.9
432.87	5.74
433.076	5.59
433.281	5.76
433.486	5.9
433.691	5.7
433.896	5.64
434.101	5.63
434.306	5.61
434.511	5.62
434.716	5.85
434.921	5.84
435.126	5.78
435.331	5.8
435.535	5.81
435.74	5.77
435.945	5.94
436.15	6.02
436.355	5.99
436.56	6.03
436.765	5.86
436.97	5.92
437.174	6
437.379	6.17
437.584	6.17
437.789	6.08
437.993	6.19
438.198	6.01
438.403	5.79
438.608	6
438.812	5.83
439.017	5.78
439.222	5.71
439.426	5.64
439.631	5.56
439.836	5.54
440.04	5.61
440.245	5.48
440.45	5.56
440.654	5.6
440.859	5.49
441.063	5.49
441.268	5.53
441.472	5.54
441.677	5.66
441.881	5.71
442.086	5.69
442.29	5.62
442.495	5.58
442.699	5.54
442.904	5.67
443.108	5.69
443.312	5.76
443.517	5.76
443.721	5.58
443.925	5.54
444.13	5.45
444.334	5.49
444.538	5.63
444.743	5.6
444.947	5.53
445.151	5.5
445.356	5.57
445.56	5.67
445.764	5.71
445.968	5.78
446.173	5.69
446.377	5.75
446.581	5.71
446.785	5.56
446.989	5.6
447.193	5.66
447.398	5.49
447.602	5.25
447.806	5.13
448.01	5.12
448.214	5.05
448.418	5.02
448.622	5.08
448.826	5.13
449.03	5.17
449.234	5.21
449.438	5.36
449.642	5.38
449.846	5.61
450.05	5.69
450.254	5.65
450.458	5.63
450.662	5.75
450.866	5.61
451.069	5.59
451.273	5.64
451.477	5.54
451.681	5.56
451.885	5.75
452.089	5.78
452.292	5.91
452.496	5.8
452.7	5.87
452.904	5.82
453.107	5.87
453.311	5.77
453.515	5.91
453.719	6.13
453.922	5.86
454.126	5.79
454.33	5.6
454.533	5.47
454.737	5.46
454.94	5.48
455.144	5.5
455.348	5.62
455.551	5.7
455.755	5.47
455.958	5.21
456.162	5.45
456.365	5.55
456.569	5.7
456.772	5.46
456.976	5.4
457.179	5.19
457.383	5.09
457.586	4.84
457.79	4.94
457.993	5.02
458.196	5.14
458.4	5.1
458.603	5.13
458.807	4.97
459.01	5.07
459.213	5.07
459.417	5.2
459.62	5.21
459.823	5.27
460.026	5.17
460.23	5.23
460.433	5.3
460.636	5.23
460.839	5.16
461.042	5.24
461.246	5.24
461.449	5.34
461.652	5.41
461.855	5.38
462.058	5.29
