Data from 2937811_Reflection_1.txt Node
Date: Wed Jul 15 17:46:33 EDT 2015
User: robert
Spectrometer: USB4E03001
Autoset integration time: false
Trigger mode: 4
Integration Time (sec): 1.000000E-1
Scans to average: 10
Electric dark correction enabled: true
Nonlinearity correction enabled: false
Boxcar width: 5
Stray light correction enabled: false
XAxis mode: Wavelengths
Stop averaging: false
Number of Pixels in Spectrum: 3648
>>>>>Begin Spectral Data<<<<<
177.566	-390.98
177.785	-26091.67
178.005	-115.62
178.225	-181.98
178.445	-205.18
178.665	-264.2
178.885	24.6
179.105	296.53
179.324	635.13
179.544	-180.15
179.764	-63.27
179.984	-332.97
180.204	3045.58
180.423	-840.95
180.643	7901.45
180.863	2753.18
181.083	883.33
181.302	362.67
181.522	242.8
181.742	333.05
181.961	232.72
182.181	110.15
182.401	246.79
182.621	204.25
182.84	-1159.69
183.06	-2880.53
183.279	211.78
183.499	275.16
183.719	390.43
183.938	131.93
184.158	98.44
184.377	96.99
184.597	64.53
184.816	64.43
185.036	54.48
185.256	41.37
185.475	31.51
185.695	7.44
185.914	-18.62
186.134	-18.51
186.353	-12.48
186.572	-20.61
186.792	-3.79
187.011	7
187.231	-13.18
187.45	-34.7
187.67	-26.39
187.889	-57.17
188.108	-109.34
188.328	-63.39
188.547	-26.96
188.766	-20.55
188.986	48.11
189.205	50.58
189.424	-401.41
189.644	1528.32
189.863	210.27
190.082	617.93
190.302	459.27
190.521	205.52
190.74	1006.73
190.959	-311.43
191.178	733.76
191.398	-467.78
191.617	-26.83
191.836	85.25
192.055	47.73
192.274	49.7
192.494	41.35
192.713	28.64
192.932	28.51
193.151	-60.76
193.37	-1026.94
193.589	-122.79
193.808	-88.17
194.027	135.51
194.246	-47.74
194.465	-225.15
194.685	479.08
194.904	-491.64
195.123	905.65
195.342	735.67
195.561	292.08
195.78	64.81
195.999	-33.17
196.218	135.13
196.436	143.41
196.655	233.98
196.874	255.74
197.093	266.59
197.312	268
197.531	-371.32
197.75	229.99
197.969	177.61
198.188	158.97
198.407	149.84
198.625	378.15
198.844	1254.1
199.063	-7891.67
199.282	-253.37
199.501	3234.33
199.719	229.19
199.938	306.77
200.157	817.11
200.376	-97.94
200.594	-248.24
200.813	-102.93
201.032	-101.63
201.251	-149.22
201.469	-97.31
201.688	-1543.82
201.907	493.33
202.125	-1449.02
202.344	112.58
202.563	219.89
202.781	102.55
203	31.81
203.218	53.18
203.437	52.21
203.656	34.7
203.874	65.57
204.093	10.3
204.311	-0.14
204.53	15.43
204.748	29.14
204.967	19.68
205.185	7.41
205.404	20.93
205.622	-3.11
205.841	-347.88
206.059	-100.46
206.278	-104.17
206.496	-31.9
206.715	-76.51
206.933	-105.28
207.151	-154.45
207.37	-1414.75
207.588	-405.26
207.806	212.73
208.025	74.19
208.243	162.66
208.461	441.08
208.68	1092.74
208.898	-784.1
209.116	-458.68
209.335	3.15
209.553	-572.47
209.771	-211.05
209.989	704.03
210.208	676.39
210.426	1382.82
210.644	366.85
210.862	131.67
211.081	116.63
211.299	108.42
211.517	174.54
211.735	189.38
211.953	212.53
212.171	221.32
212.39	206.1
212.608	232.23
212.826	203.23
213.044	357.31
213.262	1081.92
213.48	523.49
213.698	183425
213.916	229.15
214.134	216.84
214.352	1448.37
214.57	450
214.788	-2709
215.006	1189.66
215.224	-323.47
215.442	-746.44
215.66	-17.71
215.878	14.45
216.096	82.09
216.314	-98.2
216.532	20.45
216.75	-56.75
216.968	-21.17
217.185	-24.55
217.403	-21.83
217.621	-15.37
217.839	-43.28
218.057	-644.8
218.275	219.5
218.492	103.13
218.71	85.27
218.928	68.97
219.146	51.61
219.363	50.78
219.581	58.18
219.799	54.22
220.017	29.29
220.234	6.69
220.452	43.73
220.67	39.49
220.887	13.32
221.105	-153.49
221.323	-72.48
221.54	-264.03
221.758	571.49
221.976	640.02
222.193	-713.26
222.411	588.02
222.629	525.61
222.846	760.57
223.064	243.14
223.281	262.24
223.499	148.69
223.716	118.59
223.934	-17.42
224.151	41.03
224.369	369.42
224.586	821.69
224.804	-357
225.021	-210.84
225.239	-177.88
225.456	-142.51
225.674	-92.56
225.891	-48.49
226.108	-92.71
226.326	-90.98
226.543	-37.32
226.76	-9.9
226.978	24.32
227.195	28.09
227.413	27.99
227.63	22.06
227.847	18.18
228.064	20.1
228.282	20
228.499	10.82
228.716	13.23
228.934	9.36
229.151	2.27
229.368	1.07
229.585	-0.46
229.802	2.48
230.02	6.6
230.237	6.34
230.454	1.65
230.671	-0.4
230.888	5.56
231.105	5.5
231.323	3.92
231.54	7.34
231.757	4.05
231.974	9.83
232.191	1.79
232.408	-6.24
232.625	-11.99
232.842	-8.95
233.059	-5.78
233.276	-6.69
233.493	-4.18
233.71	-6.86
233.927	-2.55
234.144	-1.97
234.361	-6.02
234.578	-9.92
234.795	-3.02
235.012	4.69
235.229	6.98
235.446	7.94
235.663	11.34
235.879	1.12
236.096	4.35
236.313	2.11
236.53	4.27
236.747	4.22
236.964	12.26
237.181	5.12
237.397	-6
237.614	-4.95
237.831	-15.42
238.048	-12.67
238.264	-8.33
238.481	-3.99
238.698	-1.85
238.915	-4.19
239.131	-0.07
239.348	3.13
239.565	7.45
239.781	8.46
239.998	3.03
240.215	5.6
240.431	-2.44
240.648	-1.77
240.865	-4.45
241.081	-1.32
241.298	-1.18
241.514	-0.97
241.731	-1.55
241.947	-0.16
242.164	1.07
242.38	-0.04
242.597	1.88
242.814	2.46
243.03	2.81
243.246	3.91
243.463	2.51
243.679	2.86
243.896	2.94
244.112	3.99
244.329	5.01
244.545	7.58
244.762	7.48
244.978	9.59
245.194	13.55
245.411	12.57
245.627	13.03
245.843	15.31
246.06	15.09
246.276	14.15
246.492	13.5
246.709	12.18
246.925	11.16
247.141	13.14
247.357	11.38
247.574	10.61
247.79	9.52
248.006	10.1
248.222	9.09
248.439	9.12
248.655	8.09
248.871	8.31
249.087	7.93
249.303	9.03
249.519	6.11
249.736	5.16
249.952	4.15
250.168	5.85
250.384	3.6
250.6	3.7
250.816	2.48
251.032	4.38
251.248	0.9
251.464	1.81
251.68	-0.28
251.896	2.59
252.112	5.18
252.328	4.37
252.544	6.12
252.76	4.9
252.976	5.25
253.192	2.95
253.408	3.7
253.624	2.87
253.84	1.84
254.056	0.66
254.272	-1.77
254.487	-5.5
254.703	-5.52
254.919	-7.66
255.135	-6.57
255.351	-5.6
255.567	-4.74
255.782	-7.93
255.998	-1.15
256.214	2.14
256.43	8.51
256.646	6.51
256.861	8.05
257.077	8.65
257.293	8.72
257.508	10.5
257.724	9.5
257.94	11.24
258.155	11.07
258.371	10.84
258.587	10.26
258.802	8.67
259.018	9.61
259.234	11.31
259.449	10.59
259.665	11.19
259.88	11.55
260.096	11.17
260.312	11.91
260.527	12.06
260.743	11.4
260.958	10.39
261.174	9.73
261.389	10.26
261.605	8
261.82	7.41
262.036	6.16
262.251	4.79
262.466	4.29
262.682	2.57
262.897	0.22
263.113	0.05
263.328	1.38
263.543	3.43
263.759	2.56
263.974	4.24
264.189	6.05
264.405	4.4
264.62	4.74
264.835	4.66
265.051	5.37
265.266	7.31
265.481	4.84
265.696	4.62
265.912	3.57
266.127	3.57
266.342	1.08
266.557	-0.44
266.773	2.03
266.988	1.78
267.203	2.53
267.418	1.67
267.633	1.1
267.848	1.56
268.064	2.18
268.279	1.35
268.494	0.67
268.709	3.99
268.924	5.17
269.139	3.35
269.354	3.78
269.569	3.23
269.784	2.67
269.999	3.31
270.214	3.66
270.429	2.93
270.644	3.22
270.859	5.85
271.074	5.11
271.289	5.02
271.504	5.81
271.719	5.9
271.934	5.45
272.149	5.86
272.363	7.05
272.578	7.89
272.793	7.41
273.008	8.94
273.223	7.79
273.438	7.54
273.653	7.66
273.867	9.2
274.082	8.75
274.297	10.34
274.512	10.72
274.726	9.11
274.941	10.7
275.156	11.59
275.371	9.25
275.585	8.09
275.8	7.48
276.015	8.76
276.229	5.29
276.444	3.88
276.659	2.44
276.873	1.72
277.088	2.61
277.302	0.13
277.517	-1.35
277.732	0.74
277.946	-1.05
278.161	0.96
278.375	0.97
278.59	1.91
278.804	1.15
279.019	-0.96
279.233	0.23
279.448	-1.27
279.662	-0.31
279.877	-0.4
280.091	-0.66
280.306	3.78
280.52	1.89
280.735	-0.21
280.949	0.09
281.163	2.75
281.378	4.3
281.592	4.59
281.806	5.92
282.021	5.44
282.235	4.9
282.449	4.84
282.664	3.7
282.878	4.88
283.092	6.12
283.307	7.1
283.521	6.64
283.735	4.71
283.949	4.8
284.164	5.9
284.378	5.98
284.592	9.2
284.806	9.64
285.02	11.86
285.234	11.63
285.449	11.43
285.663	10.87
285.877	11.07
286.091	11.76
286.305	10.86
286.519	8.74
286.733	8.8
286.947	5.88
287.161	4.9
287.375	2.5
287.589	1.55
287.803	0.58
288.017	0.6
288.231	0.04
288.445	0.94
288.659	1.87
288.873	4.21
289.087	5.18
289.301	7.81
289.515	8.83
289.729	9.7
289.943	9.98
290.157	11.65
290.371	10.88
290.584	12.51
290.798	12.16
291.012	11.32
291.226	10.45
291.44	9.61
291.654	8.76
291.867	8.94
292.081	7.3
292.295	8.01
292.509	6.92
292.722	7.66
292.936	5.75
293.15	6.29
293.364	6.32
293.577	7.23
293.791	6.37
294.005	5.45
294.218	2.53
294.432	4.03
294.645	4.03
294.859	4.77
295.073	3.97
295.286	4.24
295.5	4.24
295.713	4.44
295.927	4.09
296.14	5.03
296.354	5.66
296.568	6.4
296.781	7.01
296.994	7.87
297.208	8.32
297.421	9.65
297.635	9.44
297.848	8.69
298.062	8.6
298.275	9.1
298.489	9.45
298.702	9.63
298.915	11.22
299.129	10.09
299.342	9.03
299.555	8.82
299.769	8.22
299.982	8.41
300.195	9.69
300.409	9.6
300.622	7.09
300.835	6.8
301.048	7.06
301.262	7.13
301.475	7.36
301.688	7.23
301.901	5.85
302.115	4.62
302.328	4.97
302.541	6.6
302.754	6.45
302.967	10.8
303.18	12.97
303.393	12.68
303.607	12.54
303.82	13.7
304.033	13.61
304.246	13.52
304.459	13.6
304.672	13.38
304.885	12.06
305.098	12.69
305.311	10.69
305.524	9.38
305.737	8.45
305.95	7.8
306.163	5.41
306.376	6.84
306.589	7.9
306.802	6.74
307.015	5.6
307.228	3.65
307.44	3.57
307.653	2.29
307.866	1.22
308.079	2.34
308.292	1.08
308.505	3.56
308.718	5.4
308.93	5.59
309.143	8.44
309.356	10.57
309.569	9.99
309.781	11.38
309.994	10.62
310.207	10.5
310.42	10.37
310.632	11.38
310.845	11.68
311.058	9.15
311.27	8.19
311.483	8.43
311.696	6.8
311.908	8.09
312.121	6.48
312.333	7.57
312.546	6.93
312.759	7.22
312.971	6.14
313.184	4.16
313.396	4.69
313.609	4.31
313.821	4.13
314.034	3.87
314.246	1.3
314.459	1.75
314.671	1.6
314.884	2.47
315.096	1.13
315.309	-1.16
315.521	0.3
315.733	0.24
315.946	-0.8
316.158	-1.97
316.371	0.39
316.583	2.1
316.795	2.3
317.008	3.63
317.22	3.59
317.432	3.82
317.644	6.1
317.857	5.22
318.069	4.14
318.281	5.59
318.494	3.55
318.706	2.78
318.918	5.88
319.13	5.36
319.342	6.34
319.555	5.61
319.767	7.74
319.979	6.75
320.191	9
320.403	9.62
320.615	10.63
320.827	10.86
321.039	10.63
321.252	9.98
321.464	9.85
321.676	9.61
321.888	11.71
322.1	9.46
322.312	10.67
322.524	8.54
322.736	8.48
322.948	7.62
323.16	10.24
323.372	9.98
323.584	8.93
323.796	8.39
324.007	7.25
324.219	4.94
324.431	6.35
324.643	6.6
324.855	8.03
325.067	7.54
325.279	8.55
325.491	8.68
325.702	9.61
325.914	9.47
326.126	10.19
326.338	9.75
326.55	10.64
326.761	9.66
326.973	9.28
327.185	8.5
327.396	9.36
327.608	8.9
327.82	7.5
328.032	6.66
328.243	7.27
328.455	6.63
328.666	5.44
328.878	7.48
329.09	8.13
329.301	9.16
329.513	8.18
329.725	8.66
329.936	9.88
330.148	10.47
330.359	10.82
330.571	10.9
330.782	12.15
330.994	13.65
331.205	11.86
331.417	11.23
331.628	10.75
331.84	12.94
332.051	12.35
332.262	13.17
332.474	11.98
332.685	9.79
332.897	8.53
333.108	8.18
333.319	6.81
333.531	6.15
333.742	8.4
333.953	8.91
334.165	7.2
334.376	7.63
334.587	5.36
334.799	7.25
335.01	9.37
335.221	9.06
335.432	6.64
335.644	8.26
335.855	6.91
336.066	6.86
336.277	5.74
336.488	6.02
336.7	6.15
336.911	8.57
337.122	8.54
337.333	7.91
337.544	8.57
337.755	11.81
337.966	11.16
338.177	11.8
338.388	10.07
338.599	10.88
338.811	11.42
339.022	12.62
339.233	9.18
339.444	8.04
339.655	8.55
339.866	8.03
340.076	7.35
340.287	6.27
340.498	7.76
340.709	8.69
340.92	9.21
341.131	10.4
341.342	7.78
341.553	8.37
341.764	8.21
341.975	9.32
342.185	10.14
342.396	9.49
342.607	12.43
342.818	11.9
343.029	10.84
343.239	10.62
343.45	10.15
343.661	10.58
343.872	11.72
344.082	12.49
344.293	11.67
344.504	12.62
344.714	12.79
344.925	11.63
345.136	11.85
345.346	11.78
345.557	13.02
345.768	11.74
345.978	12.55
346.189	12.8
346.399	11.55
346.61	11.32
346.821	10.38
347.031	10.38
347.242	7.58
347.452	7.99
347.663	8.75
347.873	6.33
348.084	7.93
348.294	6.37
348.504	6.19
348.715	8.16
348.925	8.91
349.136	10.13
349.346	9.13
349.557	11.4
349.767	11.54
349.977	11.39
350.188	12.21
350.398	11.54
350.608	12.59
350.819	12
351.029	10.23
351.239	9.38
351.449	8.95
351.66	8.28
351.87	8.53
352.08	8.36
352.29	7.12
352.501	7.47
352.711	7.33
352.921	6.09
353.131	6.41
353.341	7.42
353.552	7.02
353.762	7.14
353.972	9.39
354.182	11.19
354.392	11.52
354.602	12.43
354.812	11.26
355.022	11.93
355.232	13.47
355.442	14.04
355.652	13.92
355.862	14.53
356.072	13.8
356.282	13.43
356.492	12.16
356.702	10.83
356.912	11.25
357.122	11.72
357.332	11.37
357.542	10.6
357.752	10.4
357.962	10.11
358.171	9.77
358.381	9.39
358.591	9.22
358.801	9.56
359.011	10.12
359.221	9.23
359.43	10.46
359.64	9.58
359.85	9.59
360.06	8.92
360.269	9.76
360.479	8.98
360.689	9.63
360.899	8.84
361.108	8.6
361.318	8.78
361.528	9.7
361.737	9.14
361.947	9.55
362.156	9.4
362.366	9.21
362.576	8.9
362.785	9.74
362.995	10.37
363.204	11.04
363.414	10.78
363.623	10.75
363.833	10.03
364.042	9.43
364.252	10.63
364.461	10.81
364.671	11.18
364.88	10.91
365.09	10.38
365.299	9.76
365.509	9.96
365.718	10.88
365.927	10.55
366.137	10.74
366.346	10.97
366.555	9.34
366.765	10.36
366.974	10.94
367.183	10.58
367.393	10.3
367.602	9.3
367.811	8.56
368.021	8.83
368.23	8.97
368.439	8.08
368.648	7.44
368.857	6.58
369.067	5.42
369.276	4.76
369.485	4.8
369.694	4.56
369.903	4.38
370.112	4.75
370.321	3.62
370.531	3.8
370.74	4.94
370.949	5.49
371.158	7.39
371.367	6.91
371.576	7.12
371.785	7.53
371.994	8.41
372.203	9.33
372.412	9.8
372.621	9.45
372.83	9.52
373.039	8.72
373.248	8.62
373.457	7.78
373.666	8.77
373.874	9.47
374.083	9.56
374.292	9.41
374.501	9.34
374.71	7.96
374.919	8.34
375.128	8.48
375.336	9.69
375.545	9.91
375.754	9.78
375.963	9.02
376.171	8.03
376.38	7.61
376.589	7.21
376.798	7.05
377.006	7.57
377.215	7.73
377.424	7.33
377.632	6.52
377.841	6.21
378.05	7.1
378.258	7.32
378.467	7.28
378.675	7.14
378.884	7.29
379.093	7.22
379.301	7.79
379.51	8.19
379.718	8.79
379.927	9.6
380.135	9.89
380.344	9.45
380.552	10.06
380.761	10.28
380.969	11.87
381.177	12.21
381.386	12.78
381.594	12.65
381.803	13.07
382.011	12.49
382.219	12.42
382.428	12.32
382.636	11.78
382.845	11.48
383.053	11.11
383.261	9.05
383.469	8.82
383.678	8.2
383.886	8.18
384.094	7.25
384.302	7.19
384.511	6.92
384.719	6.72
384.927	6.97
385.135	6.91
385.343	7.4
385.552	7.65
385.76	7.1
385.968	6.7
386.176	6.76
386.384	6.63
386.592	7.22
386.8	7.1
387.008	6.9
387.216	7.13
387.424	6.67
387.633	6.02
387.841	6.32
388.049	6.67
388.257	6.8
388.465	6.51
388.672	6.42
388.88	5.21
389.088	4.49
389.296	4.77
389.504	4.16
389.712	4.64
389.92	5.2
390.128	5.12
390.336	5.33
390.544	5.77
390.751	5.73
390.959	5.67
391.167	5.83
391.375	6.01
391.583	6.14
391.79	6.17
391.998	5.87
392.206	5.38
392.414	5.26
392.621	4.7
392.829	4.26
393.037	4.36
393.244	4.29
393.452	4.62
393.66	4.69
393.867	4.74
394.075	4.83
394.283	4.66
394.49	4.85
394.698	4.94
394.905	4.98
395.113	5.19
395.32	5.19
395.528	5.26
395.735	5.41
395.943	5.4
396.15	5.26
396.358	5.39
396.565	5.41
396.773	5.48
396.98	5.17
397.188	5.32
397.395	5.28
397.602	4.76
397.81	4.88
398.017	4.35
398.225	4.31
398.432	4.25
398.639	4.1
398.847	4.49
399.054	4.54
399.261	4.9
399.468	4.95
399.676	4.81
399.883	5.12
400.09	4.92
400.297	5.34
400.505	5.85
400.712	5.67
400.919	5.69
401.126	5.18
401.333	5.42
401.54	5.56
401.748	5.54
401.955	5.49
402.162	5.37
402.369	5.36
402.576	5.67
402.783	5.21
402.99	5.15
403.197	5.22
403.404	5.34
403.611	4.98
403.818	4.76
404.025	4.84
404.232	4.87
404.439	4.83
404.646	5.13
404.853	4.84
405.06	4.72
405.267	4.93
405.474	4.99
405.681	5
405.887	5.09
406.094	5.08
406.301	5.23
406.508	5.3
406.715	5.88
406.922	5.8
407.128	5.78
407.335	6.11
407.542	5.75
407.749	5.27
407.955	5.68
408.162	5.8
408.369	5.74
408.575	5.6
408.782	5.5
408.989	5.15
409.195	4.97
409.402	4.89
409.609	4.75
409.815	4.66
410.022	5.08
410.228	4.77
410.435	4.87
410.642	5.23
410.848	4.88
411.055	5.05
411.261	5.09
411.468	5.2
411.674	5.06
411.881	4.8
412.087	5.18
412.294	4.81
412.5	4.84
412.706	4.52
412.913	4.02
413.119	4.16
413.326	4
413.532	4.07
413.738	3.8
413.945	3.89
414.151	3.9
414.357	3.66
414.564	4.04
414.77	3.89
414.976	3.9
415.182	4
415.389	4.09
415.595	3.98
415.801	3.88
416.007	3.98
416.214	4.02
416.42	4.28
416.626	4.44
416.832	4.43
417.038	4.75
417.244	4.94
417.45	5
417.657	4.71
417.863	4.78
418.069	4.76
418.275	4.92
418.481	4.94
418.687	5.03
418.893	4.85
419.099	4.77
419.305	4.45
419.511	4.44
419.717	4.59
419.923	4.9
420.129	4.94
420.335	5.07
420.541	4.91
420.746	4.95
420.952	4.93
421.158	4.95
421.364	4.96
421.57	5.08
421.776	4.98
421.982	4.96
422.187	4.86
422.393	4.92
422.599	4.92
422.805	4.9
423.01	4.83
423.216	4.88
423.422	5.01
423.628	4.97
423.833	5
424.039	5.07
424.245	5.12
424.45	5.01
424.656	4.97
424.862	4.92
425.067	5.15
425.273	5.11
425.478	4.89
425.684	4.85
425.889	4.78
426.095	4.72
426.301	4.77
426.506	4.48
426.712	4.77
426.917	4.92
427.123	4.82
427.328	4.42
427.533	4.44
427.739	4.79
427.944	4.62
428.15	4.87
428.355	4.69
428.561	4.34
428.766	4.45
428.971	4.28
429.177	4.19
429.382	4
429.587	4.16
429.793	4.12
429.998	3.66
430.203	3.57
430.408	3.3
430.614	3.53
430.819	3.69
431.024	3.63
431.229	3.69
431.434	3.59
431.64	3.66
431.845	3.86
432.05	3.92
432.255	4.04
432.46	4.19
432.665	4.37
432.87	4.21
433.076	4.36
433.281	4.42
433.486	4.15
433.691	4.25
433.896	4.34
434.101	4.37
434.306	4.49
434.511	4.62
434.716	4.74
434.921	4.78
435.126	4.7
435.331	4.48
435.535	4.54
435.74	4.82
435.945	4.79
436.15	4.74
436.355	4.47
436.56	4.42
436.765	4.35
436.97	3.99
437.174	3.9
437.379	4
437.584	4.28
437.789	4.28
437.993	4.3
438.198	4.17
438.403	4.22
438.608	4.27
438.812	4.12
439.017	4.16
439.222	4.66
439.426	4.37
439.631	4.43
439.836	4.2
440.04	4.22
440.245	4.13
440.45	4.11
440.654	4.04
440.859	4.2
441.063	4.4
441.268	4.52
441.472	4.41
441.677	4.71
441.881	4.63
442.086	4.77
442.29	4.69
442.495	4.65
442.699	4.68
442.904	4.63
443.108	4.55
443.312	4.34
443.517	4.06
443.721	3.9
443.925	3.88
444.13	4.03
444.334	3.97
444.538	3.72
444.743	3.85
444.947	3.76
445.151	3.79
445.356	3.83
445.56	3.85
445.764	3.91
445.968	3.92
446.173	3.82
446.377	3.68
446.581	3.76
446.785	3.95
446.989	4.02
447.193	4.17
447.398	4.19
447.602	4.16
447.806	4.29
448.01	4.23
448.214	4.25
448.418	4.32
448.622	4.52
448.826	4.31
449.03	4.31
449.234	4.1
449.438	4
449.642	4.19
449.846	4.26
450.05	4.09
450.254	4.11
450.458	4.08
450.662	3.98
450.866	3.9
451.069	4.03
451.273	3.97
451.477	3.97
451.681	4.08
451.885	3.94
452.089	3.89
452.292	4.14
452.496	4.22
452.7	4.17
452.904	4.07
453.107	4.08
453.311	4.1
453.515	4.27
453.719	4.22
453.922	3.98
454.126	3.95
454.33	3.69
454.533	3.6
454.737	3.61
454.94	3.96
455.144	4.22
455.348	4.09
455.551	4.14
455.755	4.02
455.958	4.16
456.162	4.45
456.365	4.51
456.569	4.66
456.772	4.5
456.976	4.33
457.179	4.07
457.383	4.06
457.586	4.11
457.79	3.94
457.993	3.98
458.196	3.92
458.4	3.67
458.603	3.6
458.807	3.64
459.01	3.81
459.213	3.96
459.417	3.89
459.62	3.74
459.823	3.74
460.026	3.85
460.23	3.96
460.433	3.98
460.636	4.15
460.839	4.2
461.042	4.2
461.246	4.17
461.449	3.91
461.652	4.05
461.855	4.14
462.058	4.25
462.261	4.37
462.464	4.16
462.668	4.15
462.871	4.02
463.074	4.01
463.277	3.92
463.48	3.81
463.683	4.02
463.886	4.01
464.089	4.04
464.292	3.92
464.495	3.59
464.698	3.54
464.901	3.7
465.104	3.73
465.306	3.66
465.509	3.75
465.712	3.85
465.915	3.98
466.118	3.69
466.321	3.6
466.524	3.49
466.726	3.7
466.929	3.8
