Data from 2937818_Reflection_2.txt Node
Date: Wed Jul 15 17:26:58 EDT 2015
User: robert
Spectrometer: USB4E03001
Autoset integration time: false
Trigger mode: 4
Integration Time (sec): 1.000000E-1
Scans to average: 10
Electric dark correction enabled: true
Nonlinearity correction enabled: false
Boxcar width: 5
Stray light correction enabled: false
XAxis mode: Wavelengths
Stop averaging: false
Number of Pixels in Spectrum: 3648
>>>>>Begin Spectral Data<<<<<
177.566	750.45
177.785	245.88
178.005	125.36
178.225	262.13
178.445	51.4
178.665	136.89
178.885	-39.61
179.105	-140.85
179.324	-36.62
179.544	59.14
179.764	264.68
179.984	223.25
180.204	137.64
180.423	93.41
180.643	131.82
180.863	115.21
181.083	101.19
181.302	80.5
181.522	82.49
181.742	93.64
181.961	113.67
182.181	146.71
182.401	127.1
182.621	115.19
182.84	115.06
183.06	127.34
183.279	207.54
183.499	280.09
183.719	328.59
183.938	923.4
184.158	263.77
184.377	536.25
184.597	5541.3
184.816	-293.32
185.036	-289.76
185.256	4628.67
185.475	431.25
185.695	485.08
185.914	764.39
186.134	-211.96
186.353	386.56
186.572	100.62
186.792	166.82
187.011	85.15
187.231	52.05
187.45	34.97
187.67	34.1
187.889	9.5
188.108	32.97
188.328	45.53
188.547	45.91
188.766	8.52
188.986	22.86
189.205	32.61
189.424	52.28
189.644	148.93
189.863	348.57
190.082	33.01
190.302	-29.29
190.521	-63.89
190.74	-71.13
190.959	-145
191.178	-406.73
191.398	-539.48
191.617	-772.47
191.836	-2766.52
192.055	3347.64
192.274	1116.5
192.494	3424.51
192.713	1651.34
192.932	-2150.47
193.151	-662.98
193.37	-605.82
193.589	-204.54
193.808	-190.1
194.027	-125.44
194.246	-143.47
194.465	-96.08
194.685	-115.71
194.904	-11500
195.123	-544.47
195.342	6027.06
195.561	262.53
195.78	-1039.43
195.999	245.84
196.218	599.4
196.436	156.74
196.655	319.97
196.874	188.19
197.093	160.42
197.312	178.04
197.531	100.17
197.75	117.51
197.969	183.45
198.188	119.92
198.407	97.28
198.625	88.93
198.844	161.07
199.063	340.11
199.282	-541.26
199.501	-49.36
199.719	-33.27
199.938	-377.35
200.157	-465.68
200.376	2038.74
200.594	-709.28
200.813	-154.14
201.032	-276.23
201.251	-144.85
201.469	235.69
201.688	106.89
201.907	97.43
202.125	129.61
202.344	64.46
202.563	76.55
202.781	159.71
203	83.11
203.218	73.97
203.437	93.9
203.656	145.62
203.874	101.46
204.093	911.32
204.311	-524.8
204.53	183.5
204.748	340.36
204.967	194.32
205.185	155.46
205.404	135.25
205.622	134.08
205.841	109.78
206.059	87.94
206.278	110.41
206.496	110.23
206.715	111.35
206.933	155.45
207.151	129.52
207.37	366.76
207.588	157.9
207.806	-5784.48
208.025	-210.19
208.243	-569.45
208.461	452.47
208.68	851.36
208.898	591.28
209.116	268.2
209.335	220.41
209.553	158.72
209.771	158.83
209.989	180.45
210.208	132.71
210.426	105.35
210.644	117.88
210.862	110.59
211.081	136.69
211.299	139.22
211.517	174.42
211.735	244.08
211.953	-392.71
212.171	-158.27
212.39	-71.85
212.608	-94.63
212.826	-56.72
213.044	-50.07
213.262	-57.6
213.48	-208.93
213.698	-220.23
213.916	-108.27
214.134	-200.86
214.352	-432.98
214.57	-359.56
214.788	-905.69
215.006	-1157.4
215.224	-707.44
215.442	-443.25
215.66	-454.98
215.878	-515.05
216.096	-962.25
216.314	297.32
216.532	298.98
216.75	174.45
216.968	175.04
217.185	108.28
217.403	137.66
217.621	88.4
217.839	65.79
218.057	63.69
218.275	70.5
218.492	54.16
218.71	74.23
218.928	108.04
219.146	111.5
219.363	96.27
219.581	1615.32
219.799	2425.23
220.017	-84.68
220.234	-58.91
220.452	-471.91
220.67	-2770.56
220.887	2303.73
221.105	-481.3
221.323	-1064.18
221.54	-354.27
221.758	3438.6
221.976	1398.77
222.193	-1125.49
222.411	-2355.43
222.629	856.59
222.846	-159.44
223.064	-38.61
223.281	-30.39
223.499	-68.83
223.716	-133.94
223.934	-777.38
224.151	-332.88
224.369	-253.07
224.586	-221.4
224.804	-391.52
225.021	-246.16
225.239	-144.95
225.456	-199.48
225.674	-339.86
225.891	-249.44
226.108	-127.29
226.326	-115.57
226.543	-80.23
226.76	-57.99
226.978	-63.38
227.195	-49.47
227.413	-22.6
227.63	-30.77
227.847	-11.79
228.064	-5.81
228.282	3.18
228.499	10.42
228.716	13.89
228.934	8.54
229.151	6.37
229.368	9.68
229.585	5.12
229.802	1.45
230.02	4.3
230.237	1.92
230.454	1.53
230.671	0.37
230.888	0.82
231.105	4.56
231.323	4.93
231.54	0.92
231.757	-0.44
231.974	12.49
232.191	17.9
232.408	7.21
232.625	6.47
232.842	11.84
233.059	6.89
233.276	4.87
233.493	7.26
233.71	8.2
233.927	8.19
234.144	-1.11
234.361	-8.21
234.578	-10.43
234.795	1.09
235.012	6.17
235.229	8.34
235.446	18.07
235.663	21.16
235.879	20.63
236.096	15.72
236.313	21.43
236.53	24.2
236.747	24.83
236.964	19.27
237.181	20.85
237.397	14.44
237.614	8.75
237.831	7.93
238.048	-2.83
238.264	-15.17
238.481	-10.88
238.698	-13.83
238.915	-14.33
239.131	-14.08
239.348	-0.34
239.565	-5.79
239.781	0.27
239.998	-4.11
240.215	-6.4
240.431	-1.66
240.648	-2.17
240.865	0.92
241.081	5.41
241.298	8.25
241.514	9.96
241.731	5.92
241.947	6.32
242.164	6.58
242.38	9.63
242.597	9.81
242.814	11.02
243.03	13.25
243.246	13.44
243.463	12.53
243.679	12.04
243.896	11.95
244.112	11.96
244.329	13.24
244.545	14.3
244.762	12.5
244.978	15.18
245.194	13.17
245.411	11.62
245.627	9.55
245.843	9.34
246.06	11.26
246.276	11.9
246.492	13.41
246.709	14.77
246.925	15.69
247.141	16.15
247.357	14.43
247.574	15.29
247.79	15.14
248.006	15.71
248.222	16.55
248.439	16.12
248.655	14.85
248.871	13.48
249.087	12.02
249.303	8.55
249.519	8.09
249.736	9.16
249.952	5.28
250.168	3.89
250.384	3.78
250.6	5.44
250.816	7.91
251.032	10.79
251.248	9.46
251.464	10.81
251.68	12.89
251.896	9.11
252.112	7.91
252.328	9.77
252.544	10.97
252.76	11.08
252.976	8.43
253.192	6.28
253.408	7.11
253.624	7.52
253.84	7.39
254.056	7.43
254.272	5.36
254.487	3.18
254.703	3.94
254.919	7.21
255.135	4.91
255.351	-0.89
255.567	-4.46
255.782	-3.33
255.998	1.96
256.214	1.19
256.43	1.23
256.646	8.43
256.861	12.28
257.077	14.56
257.293	11.64
257.508	9.57
257.724	12.68
257.94	12.81
258.155	10.67
258.371	7.71
258.587	5.59
258.802	6.94
259.018	8.7
259.234	8.08
259.449	6.67
259.665	6.06
259.88	8.16
260.096	8.89
260.312	9.25
260.527	9.36
260.743	10.78
260.958	11.37
261.174	10.39
261.389	7.43
261.605	6.76
261.82	6.25
262.036	6.44
262.251	4.68
262.466	3.38
262.682	1.72
262.897	-2.28
263.113	-5.2
263.328	-4.3
263.543	-4.62
263.759	-3.96
263.974	-3.94
264.189	-4.07
264.405	-1.96
264.62	-0.86
264.835	-1.29
265.051	0.49
265.266	6.6
265.481	7.35
265.696	6.2
265.912	6.49
266.127	8.72
266.342	6.77
266.557	7.54
266.773	5.29
266.988	2.78
267.203	4.67
267.418	5.64
267.633	4.56
267.848	5.86
268.064	5.1
268.279	4.87
268.494	4.08
268.709	6.26
268.924	6.19
269.139	7.3
269.354	8.03
269.569	5.77
269.784	3.13
269.999	1.35
270.214	0.19
270.429	2.44
270.644	3.35
270.859	5.12
271.074	5.47
271.289	6.11
271.504	8.26
271.719	9.14
271.934	9.56
272.149	10.91
272.363	11.4
272.578	10.65
272.793	8
273.008	8.28
273.223	8.99
273.438	8.49
273.653	6.64
273.867	3.14
274.082	2.44
274.297	0.12
274.512	-1.81
274.726	-0.25
274.941	-1.03
275.156	2.65
275.371	2.37
275.585	-0.1
275.8	1.01
276.015	3.45
276.229	6.23
276.444	7.86
276.659	10.6
276.873	14.19
277.088	11.75
277.302	13.86
277.517	10.73
277.732	10.4
277.946	9.68
278.161	8.54
278.375	9.2
278.59	8.4
278.804	9.06
279.019	6.02
279.233	3.13
279.448	3.28
279.662	3.11
279.877	5.93
280.091	5.34
280.306	6.05
280.52	3.77
280.735	3.21
280.949	2.19
281.163	1.04
281.378	4.67
281.592	5.5
281.806	6.13
282.021	6.07
282.235	6.32
282.449	7.24
282.664	8.48
282.878	11.28
283.092	10.29
283.307	11.7
283.521	10.92
283.735	10.64
283.949	10.34
284.164	10.91
284.378	9.81
284.592	9.52
284.806	8.92
285.02	8.35
285.234	8.83
285.449	8.75
285.663	9.01
285.877	10.54
286.091	10.91
286.305	10.99
286.519	10.77
286.733	10.55
286.947	10.69
287.161	10.59
287.375	9.8
287.589	10.04
287.803	10.4
288.017	8.43
288.231	6.55
288.445	3.89
288.659	3.57
288.873	3.1
289.087	2.51
289.301	1.47
289.515	2.02
289.729	1.91
289.943	1.17
290.157	0.57
290.371	-0.16
290.584	1.33
290.798	1.89
291.012	1.13
291.226	1.15
291.44	3.54
291.654	4.44
291.867	4.54
292.081	4.46
292.295	2.04
292.509	4.45
292.722	6.05
292.936	5.01
293.15	6.02
293.364	3.99
293.577	5.78
293.791	3.5
294.005	3.22
294.218	1.9
294.432	3.97
294.645	8.91
294.859	6.3
295.073	7.46
295.286	6.74
295.5	7.84
295.713	10.1
295.927	7.86
296.14	11.33
296.354	11.47
296.568	11.41
296.781	11.95
296.994	10.88
297.208	11.29
297.421	11.35
297.635	13
297.848	12.93
298.062	13.5
298.275	14.02
298.489	11.9
298.702	11.67
298.915	12.62
299.129	11.72
299.342	10.3
299.555	11.47
299.769	10.53
299.982	9.04
300.195	8.64
300.409	8.77
300.622	10.12
300.835	10.56
301.048	10.86
301.262	11.96
301.475	11.45
301.688	11.65
301.901	11.07
302.115	11.92
302.328	12
302.541	9.56
302.754	10.53
302.967	8.14
303.18	6.51
303.393	4.92
303.607	5.17
303.82	3.85
304.033	4.83
304.246	5.41
304.459	6.09
304.672	5.63
304.885	8.79
305.098	7.82
305.311	8.18
305.524	8.37
305.737	9.15
305.95	8.3
306.163	8.67
306.376	7.07
306.589	7.15
306.802	5.76
307.015	4.53
307.228	3.63
307.44	2.52
307.653	3.8
307.866	5.71
308.079	6.08
308.292	5.23
308.505	5.92
308.718	7.42
308.93	7.34
309.143	7.16
309.356	7.48
309.569	7.42
309.781	7.66
309.994	8.8
310.207	7.49
310.42	7.39
310.632	7.59
310.845	8.25
311.058	8.27
311.27	9.98
311.483	9.26
311.696	10.61
311.908	9.93
312.121	9.66
312.333	7.34
312.546	7.63
312.759	7.02
312.971	6.43
313.184	6.31
313.396	5.27
313.609	0.01
313.821	1.94
314.034	0.88
314.246	2.03
314.459	3.32
314.671	4.73
314.884	5.19
315.096	7.62
315.309	7.44
315.521	6.68
315.733	6.52
315.946	8.36
316.158	9.16
316.371	9.29
316.583	8.2
316.795	5.94
317.008	6.04
317.22	6.95
317.432	6.99
317.644	7.75
317.857	8.11
318.069	7.19
318.281	6.01
318.494	4.31
318.706	1.8
318.918	1.5
319.13	2.49
319.342	1.9
319.555	0.21
319.767	-0.36
319.979	0.45
320.191	-0.41
320.403	-0.48
320.615	1.84
320.827	1.39
321.039	4.24
321.252	5.64
321.464	5.71
321.676	6.65
321.888	6.14
322.1	3.43
322.312	1.43
322.524	3.36
322.736	5.29
322.948	4.2
323.16	4.42
323.372	5.09
323.584	3.35
323.796	5.31
324.007	6.37
324.219	7.4
324.431	8.94
324.643	8.87
324.855	8.45
325.067	8.87
325.279	10.21
325.491	10.75
325.702	11.5
325.914	13.25
326.126	11.54
326.338	10.13
326.55	10.71
326.761	10.74
326.973	10.14
327.185	11.21
327.396	9.99
327.608	9.35
327.82	8.63
328.032	5.69
328.243	6.01
328.455	7.25
328.666	8.11
328.878	8.14
329.09	9.08
329.301	10.46
329.513	9.15
329.725	6.09
329.936	4.9
330.148	7.1
330.359	8.68
330.571	6.67
330.782	5.06
330.994	5.01
331.205	3.6
331.417	3.54
331.628	2.29
331.84	2.02
332.051	4.34
332.262	6.53
332.474	4.49
332.685	5.8
332.897	5.97
333.108	6.57
333.319	4.33
333.531	5.68
333.742	4.67
333.953	5.52
334.165	5.27
334.376	4.87
334.587	4.57
334.799	4.46
335.01	2.36
335.221	3.52
335.432	3.47
335.644	5.19
335.855	4.98
336.066	5.85
336.277	6.15
336.488	6.01
336.7	7.28
336.911	6.61
337.122	7.23
337.333	7.67
337.544	7.35
337.755	7.09
337.966	7.54
338.177	7.48
338.388	6.56
338.599	6.97
338.811	8.29
339.022	8.23
339.233	8.2
339.444	7.63
339.655	7.99
339.866	6.86
340.076	5.64
340.287	4.52
340.498	3.86
340.709	4.27
340.92	4
341.131	2.84
341.342	3.13
341.553	3.68
341.764	4.37
341.975	4.78
342.185	6.05
342.396	8.49
342.607	8.79
342.818	10.4
343.029	9.63
343.239	9.58
343.45	10.09
343.661	10.22
343.872	9.6
344.082	9.94
344.293	10.24
344.504	10.35
344.714	10.07
344.925	9.91
345.136	9.08
345.346	10.56
345.557	10.08
345.768	9.58
345.978	10.9
346.189	11.46
346.399	11.08
346.61	10.52
346.821	10.14
347.031	9.3
347.242	10.01
347.452	9.9
347.663	10.59
347.873	11.5
348.084	12.98
348.294	11.68
348.504	10.29
348.715	9.84
348.925	9.35
349.136	9.5
349.346	10.62
349.557	11.61
349.767	10.83
349.977	10.19
350.188	8.2
350.398	5.43
350.608	5.8
350.819	7.03
351.029	5.86
351.239	6.22
351.449	5.44
351.66	5.67
351.87	3.69
352.08	3.06
352.29	2.04
352.501	4.14
352.711	6.41
352.921	4.29
353.131	4.1
353.341	5.78
353.552	5.08
353.762	6.81
353.972	5.48
354.182	5.07
354.392	5.29
354.602	6.44
354.812	6.3
355.022	6.18
355.232	7.54
355.442	8.09
355.652	7.28
355.862	8.27
356.072	7.61
356.282	7.97
356.492	8.98
356.702	9.26
356.912	8.77
357.122	9.57
357.332	10.58
357.542	11.09
357.752	10.34
357.962	10.45
358.171	11.38
358.381	10.96
358.591	10.35
358.801	9.68
359.011	10.05
359.221	11.19
359.43	9.61
359.64	8.51
359.85	7.43
360.06	7.17
360.269	7.57
360.479	7.17
360.689	7.95
360.899	8.14
361.108	8.58
361.318	9.18
361.528	8.36
361.737	9.31
361.947	9.25
362.156	8.86
362.366	8.95
362.576	8.41
362.785	8.69
362.995	8.38
363.204	9.18
363.414	8.93
363.623	8.38
363.833	9.28
364.042	7.91
364.252	8.13
364.461	8.77
364.671	9.32
364.88	10.17
365.09	9.97
365.299	9.34
365.509	8.5
365.718	9.05
365.927	9.11
366.137	8.16
366.346	9.24
366.555	9.14
366.765	8.55
366.974	8.31
367.183	7.77
367.393	6.92
367.602	6.92
367.811	7.22
368.021	5.92
368.23	4.86
368.439	4.33
368.648	2.33
368.857	2.94
369.067	2.63
369.276	3.55
369.485	4.59
369.694	5.17
369.903	6.84
370.112	6.14
370.321	7.61
370.531	9.06
370.74	9.57
370.949	10.54
371.158	9.21
371.367	10.66
371.576	10.59
371.785	9.93
371.994	8.75
372.203	8.06
372.412	8.9
372.621	7.98
372.83	7
373.039	6.51
373.248	7.22
373.457	7.1
373.666	6.48
373.874	5.87
374.083	6.03
374.292	6.71
374.501	6.3
374.71	6.15
374.919	6.96
375.128	7.41
375.336	7.14
375.545	7.46
375.754	7.98
375.963	8.41
376.171	7.43
376.38	7.79
376.589	7.81
376.798	7.18
377.006	7.24
377.215	7.15
377.424	6.89
377.632	6.83
377.841	6.44
378.05	6.63
378.258	6.07
378.467	6.22
378.675	6.07
378.884	5.42
379.093	5.75
379.301	4.66
379.51	4.38
379.718	4.62
379.927	4.82
380.135	4.39
380.344	4.19
380.552	3.63
380.761	4.51
380.969	4.27
381.177	4.38
381.386	4.55
381.594	4.72
381.803	4.54
382.011	4.36
382.219	4
382.428	4.04
382.636	3.9
382.845	4.41
383.053	4.11
383.261	3.73
383.469	3.33
383.678	3.34
383.886	4.33
384.094	4.65
384.302	4.52
384.511	4.43
384.719	4.99
384.927	5.31
385.135	5.59
385.343	5.28
385.552	5.73
385.76	6.07
385.968	6.22
386.176	6.06
386.384	6.08
386.592	6.05
386.8	6.41
387.008	5.66
387.216	5.47
387.424	5.36
387.633	5.7
387.841	4.87
388.049	4.67
388.257	4.09
388.465	4.09
388.672	3.62
388.88	4.15
389.088	4.1
389.296	4.39
389.504	4.71
389.712	4.35
389.92	4.01
390.128	4.6
390.336	5.12
390.544	5.36
390.751	5.28
390.959	5.35
391.167	5.06
391.375	4.76
391.583	5
391.79	4.57
391.998	4.52
392.206	4.55
392.414	4.69
392.621	4.79
392.829	4.42
393.037	4.59
393.244	4.8
393.452	4.31
393.66	4.29
393.867	4.24
394.075	4.53
394.283	5.04
394.49	5.27
394.698	5.3
394.905	4.73
395.113	4.89
395.32	4.61
395.528	4.51
395.735	4.56
395.943	4.41
396.15	3.95
396.358	3.8
396.565	3.69
396.773	3.7
396.98	3.38
397.188	3.56
397.395	3.81
397.602	4.06
397.81	4.08
398.017	4.53
398.225	5.09
398.432	5.27
398.639	4.88
398.847	4.74
399.054	4.42
399.261	4.47
399.468	4.81
399.676	5.04
399.883	5.04
400.09	4.85
400.297	5.14
400.505	4.54
400.712	4.64
400.919	5.07
401.126	4.74
401.333	4.79
401.54	4.6
401.748	4.1
401.955	3.97
402.162	3.3
402.369	3.15
402.576	2.45
402.783	2.72
402.99	2.59
403.197	2.33
403.404	2.48
403.611	2.69
403.818	2.66
404.025	3.01
404.232	2.7
404.439	3.17
404.646	3.24
404.853	3.48
405.06	3.55
405.267	3.82
405.474	4.19
405.681	4.54
405.887	4.55
406.094	4.41
406.301	4.01
406.508	4.15
406.715	3.96
406.922	3.92
407.128	3.79
407.335	4.14
407.542	3.85
407.749	3.84
407.955	3.44
408.162	3.31
408.369	3.61
408.575	3.85
408.782	3.85
408.989	3.82
409.195	4.23
409.402	4.35
409.609	4.22
409.815	4.22
410.022	4.17
410.228	4.22
410.435	4.35
410.642	4.3
410.848	4.55
411.055	4.5
411.261	4.51
411.468	4.33
411.674	4.28
411.881	4.08
412.087	3.96
412.294	3.74
412.5	3.78
412.706	3.92
412.913	3.9
413.119	3.75
413.326	3.76
413.532	4.05
413.738	4.03
413.945	3.8
414.151	3.59
414.357	3.86
414.564	3.63
414.77	3.71
414.976	3.42
415.182	3.34
415.389	3.31
415.595	3.35
415.801	2.99
416.007	3.03
416.214	3.27
416.42	3.65
416.626	3.43
416.832	3.74
417.038	3.44
417.244	3.38
417.45	3.54
417.657	3.62
417.863	3.72
418.069	3.89
418.275	3.76
418.481	3.69
418.687	3.59
418.893	3.76
419.099	3.82
419.305	3.98
419.511	4.15
419.717	4.1
419.923	3.89
420.129	3.8
420.335	3.91
420.541	4.09
420.746	4.22
420.952	4.13
421.158	4.07
421.364	3.96
421.57	3.93
421.776	3.72
421.982	3.78
422.187	3.85
422.393	3.95
422.599	3.69
422.805	3.39
423.01	3.43
423.216	3.48
423.422	3.54
423.628	3.59
423.833	3.57
424.039	3.64
424.245	3.7
424.45	3.56
424.656	3.5
424.862	3.54
425.067	3.71
425.273	3.58
425.478	3.75
425.684	3.8
425.889	3.86
426.095	3.97
426.301	4.14
426.506	3.83
426.712	4.13
426.917	4.08
427.123	4.12
427.328	4.2
427.533	4.27
427.739	4.32
427.944	4.19
428.15	3.95
428.355	3.91
428.561	3.77
428.766	4.15
428.971	4.42
429.177	4.22
429.382	4.16
429.587	4.14
429.793	4.2
429.998	3.75
430.203	3.62
430.408	3.8
430.614	3.62
430.819	3.53
431.024	3.55
431.229	3.12
431.434	3.37
431.64	3.61
431.845	3.72
432.05	3.57
432.255	3.91
432.46	3.92
432.665	3.86
432.87	3.91
433.076	3.98
433.281	3.81
433.486	4.01
433.691	3.85
433.896	3.64
434.101	3.37
434.306	3.31
434.511	3.28
434.716	3.45
434.921	3.46
435.126	3.4
435.331	3.51
435.535	3.44
435.74	3.43
435.945	3.55
436.15	3.52
436.355	3.59
436.56	3.86
436.765	3.77
436.97	3.62
437.174	3.71
437.379	3.94
437.584	3.73
437.789	3.74
437.993	3.61
438.198	3.61
438.403	3.65
438.608	3.82
438.812	3.67
439.017	3.55
439.222	3.67
439.426	3.65
439.631	3.71
439.836	3.85
440.04	3.96
440.245	4.05
440.45	4.03
440.654	4.3
440.859	4.22
441.063	4.05
441.268	4.03
441.472	4.21
441.677	3.99
441.881	3.8
442.086	3.91
442.29	4.03
442.495	3.93
442.699	4.02
442.904	3.87
443.108	3.64
443.312	3.95
443.517	4.14
443.721	3.92
443.925	4.16
444.13	4.37
444.334	4.18
444.538	4.01
444.743	4.05
444.947	4.04
445.151	4.1
445.356	4.33
445.56	4.26
445.764	4.22
445.968	4.13
446.173	3.92
446.377	3.78
446.581	3.78
446.785	3.79
446.989	3.79
447.193	3.74
447.398	3.56
447.602	3.4
447.806	3.25
448.01	3.03
448.214	3.15
448.418	3.45
448.622	3.5
448.826	3.4
449.03	3.4
449.234	3.36
449.438	3.31
449.642	3.36
449.846	3.41
450.05	3.47
450.254	3.71
450.458	3.63
450.662	3.47
450.866	3.39
451.069	3.37
451.273	3.32
451.477	3.14
451.681	3.07
451.885	3.08
452.089	3.11
452.292	3.1
452.496	3.09
452.7	2.98
452.904	2.89
453.107	2.88
453.311	3.07
453.515	3.04
453.719	3.26
453.922	3.16
454.126	3.07
454.33	2.93
454.533	3.09
454.737	2.96
454.94	3.13
455.144	3.27
455.348	3.16
455.551	3.04
455.755	3.21
455.958	2.98
456.162	2.91
456.365	2.87
456.569	2.83
456.772	2.55
456.976	2.6
457.179	2.49
457.383	2.25
457.586	2.47
457.79	2.42
457.993	2.29
458.196	2.62
458.4	2.97
458.603	3.18
458.807	3.42
459.01	3.58
459.213	3.44
459.417	3.56
459.62	3.6
459.823	3.49
460.026	3.61
460.23	3.69
460.433	3.57
460.636	3.57
460.839	3.45
461.042	3.42
461.246	3.31
461.449	3.39
461.652	3.43
461.855	3.53
462.058	3.65
462.261	3.52
462.464	3.3
462.668	3.38
462.871	3.26
463.074	3.27
463.277	3.19
463.48	3.37
463.683	3.4
463.886	3.15
464.089	3.04
464.292	2.84
464.495	3.08
464.698	3.11
464.901	2.97
465.104	3.03
465.306	2.96
465.509	2.98
465.712	3.02
465.915	2.93
466.118	3.05
466.321	3.18
