Data from 2937858_Reflection_1.txt Node
Date: Wed Jul 15 15:32:57 EDT 2015
User: robert
Spectrometer: USB4E03001
Autoset integration time: false
Trigger mode: 4
Integration Time (sec): 1.000000E-1
Scans to average: 10
Electric dark correction enabled: true
Nonlinearity correction enabled: false
Boxcar width: 5
Stray light correction enabled: false
XAxis mode: Wavelengths
Stop averaging: false
Number of Pixels in Spectrum: 3648
>>>>>Begin Spectral Data<<<<<
177.566	18.9
177.785	-6.11
178.005	-71.92
178.225	-1.56
178.445	-122.78
178.665	-622.63
178.885	1342.22
179.105	325.11
179.324	135.23
179.544	118.11
179.764	59.09
179.984	79.64
180.204	30.24
180.423	-3.51
180.643	-10.03
180.863	-33.08
181.083	-72.71
181.302	-37.53
181.522	-30.99
181.742	-26.05
181.961	-102.4
182.181	-116.72
182.401	-158.08
182.621	-60.2
182.84	-24.58
183.06	20.58
183.279	51.73
183.499	57.09
183.719	105.41
183.938	201.03
184.158	153.84
184.377	137.77
184.597	111.77
184.816	72.1
185.036	35.41
185.256	-8.55
185.475	-2.86
185.695	-93.71
185.914	-413.48
186.134	-287.27
186.353	-262.04
186.572	-169.78
186.792	-101.63
187.011	-85.35
187.231	-54.12
187.45	27.4
187.67	32.64
187.889	16.83
188.108	17.74
188.328	34.55
188.547	27.09
188.766	34.14
188.986	8.77
189.205	17.24
189.424	-4.08
189.644	-98.45
189.863	-254.16
190.082	-971.85
190.302	3691.63
190.521	-276.9
190.74	-188.73
190.959	-264.37
191.178	-189.73
191.398	-228.82
191.617	-294.96
191.836	-270.47
192.055	-160.47
192.274	-141.49
192.494	-67.02
192.713	-44.47
192.932	-75.76
193.151	-143.68
193.37	-141.36
193.589	-3918.18
193.808	-724.85
194.027	-898.21
194.246	-245.69
194.465	-106.74
194.685	-208.85
194.904	-87.04
195.123	-24.55
195.342	-31.81
195.561	-28.93
195.78	-4.74
195.999	0.38
196.218	18.68
196.436	6.71
196.655	11.07
196.874	2.88
197.093	19.64
197.312	15.44
197.531	-2.8
197.75	-37.72
197.969	6.12
198.188	-15.82
198.407	-6.14
198.625	-58.17
198.844	-100.45
199.063	-302.04
199.282	-242.5
199.501	-141.99
199.719	-361.49
199.938	-81.7
200.157	-1.25
200.376	-14.63
200.594	-23.96
200.813	-62.61
201.032	-5.46
201.251	-6.69
201.469	4.62
201.688	10.18
201.907	-45.4
202.125	-52.85
202.344	-97.71
202.563	-180.79
202.781	-694.17
203	-357.58
203.218	-484.61
203.437	34355
203.656	3104.56
203.874	-598.79
204.093	-393.67
204.311	-51.2
204.53	-55.52
204.748	4.11
204.967	-2.26
205.185	-6.21
205.404	-7.46
205.622	23.83
205.841	1.32
206.059	5.78
206.278	-1.98
206.496	-14.42
206.715	-15.02
206.933	12.34
207.151	15.58
207.37	12.12
207.588	3.81
207.806	14.15
208.025	4.68
208.243	0.65
208.461	19.92
208.68	48.85
208.898	50.52
209.116	65.05
209.335	54.99
209.553	40.69
209.771	37.46
209.989	27.75
210.208	8.9
210.426	-21.5
210.644	17.47
210.862	14.88
211.081	47.67
211.299	44.57
211.517	48.71
211.735	51.59
211.953	35.06
212.171	44.5
212.39	68.81
212.608	70.41
212.826	66.07
213.044	42
213.262	38.89
213.48	7.66
213.698	16.18
213.916	-9.51
214.134	-5.48
214.352	9.29
214.57	14.67
214.788	17.2
215.006	27.95
215.224	43.81
215.442	35.08
215.66	9.74
215.878	25.02
216.096	4.4
216.314	-14.66
216.532	-17.39
216.75	-21.71
216.968	-43.09
217.185	-43.27
217.403	-80.54
217.621	-69.73
217.839	-91.38
218.057	-72.25
218.275	-25.35
218.492	-21.5
218.71	-38.59
218.928	-161.12
219.146	-83.53
219.363	-24.82
219.581	0.29
219.799	3.07
220.017	0.55
220.234	11.98
220.452	13.87
220.67	-3.94
220.887	-1.52
221.105	9.17
221.323	17.25
221.54	13.97
221.758	-2.25
221.976	-31.09
222.193	-21.76
222.411	-10.67
222.629	-19.62
222.846	-16.58
223.064	-5.61
223.281	-4.46
223.499	-2.97
223.716	2.09
223.934	-5.77
224.151	0.33
224.369	3.29
224.586	6.78
224.804	6.83
225.021	17.64
225.239	12.68
225.456	14.39
225.674	13.41
225.891	13.55
226.108	13.51
226.326	17.46
226.543	17.19
226.76	11.03
226.978	4.03
227.195	8.06
227.413	8.38
227.63	10.23
227.847	7.48
228.064	7.32
228.282	5.16
228.499	4.96
228.716	5.58
228.934	6.01
229.151	11.54
229.368	11.77
229.585	9.31
229.802	9.64
230.02	9.78
230.237	6.61
230.454	6.04
230.671	6.6
230.888	6.61
231.105	4.6
231.323	-0.23
231.54	-4.8
231.757	-12.05
231.974	-14.65
232.191	-14.9
232.408	-20.13
232.625	-12.62
232.842	-12.56
233.059	-8.62
233.276	-10.3
233.493	-3.75
233.71	2.75
233.927	2.82
234.144	7.67
234.361	7.07
234.578	7.71
234.795	9.23
235.012	11.2
235.229	7.76
235.446	1.75
235.663	6.27
235.879	7.02
236.096	8.27
236.313	8.9
236.53	8.95
236.747	9.39
236.964	9.78
237.181	13.37
237.397	8.43
237.614	13.61
237.831	16.37
238.048	15.23
238.264	8.02
238.481	4.01
238.698	5.52
238.915	6.3
239.131	10.72
239.348	13.29
239.565	11.29
239.781	15.76
239.998	9.52
240.215	8.18
240.431	10.56
240.648	11.53
240.865	14.21
241.081	12.18
241.298	13
241.514	10.35
241.731	10.54
241.947	9.44
242.164	9.09
242.38	10.27
242.597	11.27
242.814	9.34
243.03	10.79
243.246	11.04
243.463	10.76
243.679	10.09
243.896	10.93
244.112	9.51
244.329	10.66
244.545	10.66
244.762	11.9
244.978	11.33
245.194	12.85
245.411	12.47
245.627	9.21
245.843	9.05
246.06	10.29
246.276	11.38
246.492	11.58
246.709	10.87
246.925	11.4
247.141	11.1
247.357	11.08
247.574	10.89
247.79	11.21
248.006	12.12
248.222	12.87
248.439	12.12
248.655	12.12
248.871	11.73
249.087	11.69
249.303	10.15
249.519	9.61
249.736	9.62
249.952	9.65
250.168	9.19
250.384	10.41
250.6	7.98
250.816	8.21
251.032	9.19
251.248	8.43
251.464	8.51
251.68	8.6
251.896	7.52
252.112	6.95
252.328	8.49
252.544	8.63
252.76	7.22
252.976	8.6
253.192	9.87
253.408	6.59
253.624	6.1
253.84	6.26
254.056	5.79
254.272	5.32
254.487	7.15
254.703	3.12
254.919	0.86
255.135	2.64
255.351	0.73
255.567	-0.45
255.782	2.51
255.998	4.13
256.214	5.29
256.43	7.74
256.646	10.63
256.861	9.48
257.077	11.22
257.293	11.53
257.508	7.14
257.724	8.97
257.94	8.71
258.155	7.03
258.371	6.32
258.587	5.78
258.802	5.35
259.018	5.23
259.234	5.52
259.449	5.52
259.665	5.75
259.88	6.27
260.096	6.75
260.312	6.7
260.527	6.77
260.743	6.56
260.958	5.89
261.174	5.86
261.389	6.24
261.605	6.19
261.82	4.61
262.036	4.49
262.251	4.33
262.466	2.7
262.682	1.79
262.897	0.64
263.113	1.95
263.328	3.55
263.543	4.51
263.759	2.27
263.974	0.94
264.189	3.72
264.405	1.79
264.62	3.43
264.835	2.91
265.051	3.33
265.266	5.55
265.481	4.98
265.696	6.01
265.912	3.58
266.127	5.8
266.342	7.47
266.557	6.96
266.773	7.59
266.988	6.37
267.203	7.02
267.418	6.98
267.633	5.86
267.848	5.18
268.064	4.43
268.279	5.36
268.494	5.67
268.709	4.88
268.924	5.19
269.139	6.32
269.354	6.2
269.569	6.18
269.784	6.48
269.999	6.83
270.214	7.96
270.429	7.38
270.644	6.87
270.859	5.27
271.074	5.13
271.289	3.84
271.504	3.02
271.719	2.96
271.934	2.06
272.149	1.99
272.363	2.23
272.578	1.76
272.793	1.53
273.008	2.69
273.223	2.71
273.438	2.33
273.653	3.67
273.867	3.77
274.082	4.43
274.297	4.61
274.512	4.41
274.726	4.12
274.941	3.89
275.156	6.69
275.371	6.55
275.585	6.39
275.8	6.01
276.015	5.08
276.229	5.87
276.444	5.26
276.659	6.42
276.873	6.72
277.088	6.54
277.302	4.84
277.517	1.61
277.732	1.11
277.946	1.75
278.161	3.54
278.375	4.89
278.59	4.71
278.804	4.07
279.019	4.6
279.233	5.73
279.448	4.57
279.662	6.33
279.877	6.49
280.091	7.03
280.306	6.98
280.52	5.3
280.735	4.25
280.949	4.61
281.163	7.05
281.378	6.16
281.592	5.15
281.806	5.18
282.021	5.55
282.235	6.27
282.449	5.63
282.664	5.7
282.878	6.33
283.092	7.3
283.307	7.1
283.521	6.12
283.735	6.19
283.949	6.74
284.164	7.63
284.378	7.33
284.592	8.26
284.806	8.09
285.02	9.3
285.234	8.73
285.449	8.77
285.663	8.67
285.877	8.99
286.091	9.52
286.305	8.27
286.519	8.77
286.733	9.52
286.947	8.01
287.161	7.9
287.375	6.6
287.589	7.14
287.803	6.23
288.017	7.37
288.231	6.82
288.445	6.48
288.659	7.22
288.873	7.27
289.087	6.14
289.301	8.01
289.515	8.76
289.729	8.56
289.943	7.36
290.157	8.38
290.371	7.16
290.584	7.99
290.798	7.34
291.012	7.1
291.226	7.33
291.44	6.76
291.654	6.52
291.867	7.01
292.081	6.64
292.295	7.28
292.509	7.07
292.722	6.94
292.936	5.9
293.15	6.19
293.364	7.27
293.577	6.05
293.791	6.71
294.005	4.89
294.218	2.7
294.432	4.54
294.645	4.74
294.859	4.43
295.073	5.12
295.286	4.88
295.5	5.98
295.713	5.97
295.927	7.18
296.14	7.76
296.354	7.49
296.568	9.33
296.781	8.92
296.994	9.83
297.208	9.75
297.421	9.61
297.635	10.53
297.848	10.35
298.062	10.23
298.275	9.33
298.489	9.18
298.702	9.64
298.915	8.16
299.129	8.2
299.342	8.87
299.555	8.07
299.769	8.15
299.982	7.29
300.195	7.35
300.409	6.74
300.622	6.97
300.835	7.55
301.048	8.68
301.262	10.13
301.475	9.92
301.688	8.46
301.901	10.02
302.115	9.76
302.328	8.87
302.541	9.3
302.754	9.04
302.967	8.87
303.18	8.55
303.393	7.45
303.607	6.12
303.82	5.63
304.033	5.55
304.246	3.38
304.459	1.96
304.672	3.21
304.885	2.07
305.098	2.97
305.311	3.34
305.524	4.35
305.737	4.68
305.95	5.11
306.163	6.09
306.376	7.34
306.589	8.68
306.802	10.56
307.015	10.47
307.228	10.65
307.44	10.21
307.653	9.75
307.866	8.64
308.079	8.14
308.292	8.96
308.505	8.75
308.718	8.77
308.93	9.57
309.143	8.21
309.356	7.93
309.569	8.73
309.781	8.71
309.994	9.78
310.207	10.17
310.42	11.19
310.632	11.59
310.845	11.86
311.058	10.72
311.27	10.67
311.483	10.95
311.696	11.3
311.908	10.46
312.121	10.64
312.333	9.17
312.546	8.77
312.759	8.32
312.971	6.47
313.184	5.41
313.396	4.91
313.609	5.19
313.821	5.39
314.034	5.82
314.246	6.36
314.459	6.31
314.671	7.35
314.884	8.05
315.096	8.26
315.309	9.65
315.521	10.82
315.733	11.29
315.946	10.58
316.158	10.99
316.371	10.95
316.583	9.55
316.795	8.66
317.008	9.68
317.22	9.25
317.432	8.05
317.644	8.15
317.857	8.55
318.069	10.18
318.281	9.94
318.494	10.48
318.706	11.15
318.918	12.84
319.13	13.83
319.342	11.66
319.555	12.17
319.767	12.82
319.979	12.84
320.191	11.57
320.403	9.76
320.615	9.37
320.827	8.5
321.039	7.09
321.252	6.71
321.464	6.85
321.676	9.21
321.888	9.05
322.1	9.74
322.312	8.44
322.524	9.28
322.736	9.52
322.948	9.61
323.16	9.15
323.372	10.89
323.584	11.03
323.796	10.23
324.007	10.19
324.219	8.98
324.431	9.04
324.643	9.23
324.855	8.84
325.067	9.55
325.279	9.71
325.491	9.83
325.702	8.12
325.914	8.53
326.126	9
326.338	8.53
326.55	8.81
326.761	8.5
326.973	8.49
327.185	9.31
327.396	8.72
327.608	9.92
327.82	10.61
328.032	10.72
328.243	9.86
328.455	9.14
328.666	8.71
328.878	7.29
329.09	7.52
329.301	8.4
329.513	6.9
329.725	8.33
329.936	7.55
330.148	7.28
330.359	7.3
330.571	7.2
330.782	8.79
330.994	10.37
331.205	11.68
331.417	11.9
331.628	11.01
331.84	11.07
332.051	9.56
332.262	9.27
332.474	9.97
332.685	10.13
332.897	11
333.108	11.44
333.319	8.95
333.531	9.31
333.742	10.18
333.953	11.17
334.165	12.11
334.376	12.78
334.587	12.97
334.799	12.27
335.01	13.43
335.221	13.5
335.432	14.02
335.644	15.36
335.855	14.93
336.066	14.08
336.277	12.63
336.488	11.88
336.7	12.24
336.911	13.08
337.122	13.28
337.333	12.8
337.544	12.47
337.755	10.53
337.966	10.84
338.177	11
338.388	10.46
338.599	11.22
338.811	11.1
339.022	10.02
339.233	9.04
339.444	9.21
339.655	9.05
339.866	9.71
340.076	8.96
340.287	8.32
340.498	8.51
340.709	8.77
340.92	8.39
341.131	10
341.342	10.49
341.553	9.08
341.764	9.04
341.975	7.93
342.185	7.05
342.396	8.12
342.607	8.06
342.818	8.48
343.029	9.03
343.239	9.48
343.45	8.1
343.661	8.6
343.872	9.74
344.082	9.16
344.293	10.32
344.504	10.18
344.714	10.26
344.925	10.77
345.136	11.25
345.346	10.35
345.557	10.73
345.768	11.09
345.978	9.94
346.189	10.71
346.399	11.09
346.61	11.74
346.821	12.23
347.031	13.09
347.242	12.57
347.452	11.85
347.663	12.78
347.873	13.42
348.084	13.22
348.294	14.37
348.504	13.89
348.715	14.24
348.925	13.09
349.136	13.05
349.346	11.79
349.557	11.76
349.767	11.35
349.977	11.25
350.188	10.17
350.398	9.95
350.608	10.14
350.819	9.17
351.029	8.86
351.239	9.46
351.449	9.65
351.66	10.48
351.87	10.94
352.08	12.78
352.29	12.02
352.501	11.96
352.711	11.65
352.921	11.08
353.131	11.33
353.341	9.88
353.552	9.14
353.762	9.07
353.972	9.3
354.182	8.93
354.392	7.15
354.602	7.48
354.812	8.21
355.022	9.53
355.232	9.95
355.442	10.47
355.652	11.37
355.862	11.16
356.072	10.47
356.282	10.02
356.492	10.3
356.702	10.8
356.912	11.42
357.122	11.02
357.332	10.33
357.542	9.71
357.752	9.37
357.962	9.49
358.171	10.07
358.381	10.35
358.591	10.4
358.801	9.96
359.011	10.3
359.221	10.55
359.43	11.22
359.64	10.18
359.85	10.29
360.06	10.37
360.269	10.43
360.479	9.69
360.689	10.18
360.899	10.64
361.108	10.76
361.318	10.32
361.528	9.6
361.737	9.25
361.947	10.12
362.156	11.06
362.366	11.63
362.576	11.75
362.785	11.82
362.995	11.63
363.204	11.25
363.414	11.68
363.623	11.45
363.833	11.75
364.042	11.39
364.252	11.5
364.461	9.88
364.671	8.59
364.88	8.63
365.09	9.18
365.299	9.51
365.509	9.48
365.718	9.36
365.927	8.94
366.137	8.69
366.346	8.54
366.555	8.93
366.765	9.06
366.974	9.11
367.183	9.4
367.393	9.68
367.602	8.63
367.811	8.52
368.021	8.64
368.23	9.2
368.439	8.87
368.648	8.25
368.857	6.94
369.067	7.11
369.276	7.89
369.485	6.98
369.694	6.84
369.903	6.66
370.112	6.2
370.321	5.4
370.531	5.67
370.74	6.44
370.949	6.58
371.158	6.85
371.367	6.62
371.576	6.88
371.785	6.85
371.994	6.54
372.203	7.25
372.412	7.96
372.621	8.49
372.83	8.01
373.039	7.76
373.248	8.56
373.457	8.87
373.666	9.22
373.874	8.32
374.083	8.98
374.292	9.52
374.501	9.41
374.71	8.64
374.919	8.4
375.128	8.39
375.336	8.51
375.545	7.99
375.754	7.99
375.963	8.05
376.171	8.02
376.38	8.81
376.589	8.24
376.798	7.94
377.006	8.26
377.215	7.82
377.424	8.39
377.632	8
377.841	7.91
378.05	7.55
378.258	7.4
378.467	7.99
378.675	7.24
378.884	7.37
379.093	7.78
379.301	7.69
379.51	8.21
379.718	7.83
379.927	8.03
380.135	8.63
380.344	9.02
380.552	9.35
380.761	9.11
380.969	8.93
381.177	8.49
381.386	7.79
381.594	7.54
381.803	7.39
382.011	7.77
382.219	7.93
382.428	7.15
382.636	6.81
382.845	6.43
383.053	6.57
383.261	6.73
383.469	7.1
383.678	7.42
383.886	7.75
384.094	7.69
384.302	7.16
384.511	7.27
384.719	7.44
384.927	7.47
385.135	7.82
385.343	7.62
385.552	7.68
385.76	7.3
385.968	7.25
386.176	6.73
386.384	6.91
386.592	7.1
386.8	7.03
387.008	7.07
387.216	7.08
387.424	6.86
387.633	6.45
387.841	6.24
388.049	6.46
388.257	6.47
388.465	6.35
388.672	6.37
388.88	6.13
389.088	5.56
389.296	5.88
389.504	5.78
389.712	5.49
389.92	5.87
390.128	5.72
390.336	5.92
390.544	6.2
390.751	6.55
390.959	6.28
391.167	6.52
391.375	6.78
391.583	6.33
391.79	6.6
391.998	6.65
392.206	6.82
392.414	6.75
392.621	6.51
392.829	6.29
393.037	6.42
393.244	6.64
393.452	6.36
393.66	6.77
393.867	6.79
394.075	6.7
394.283	7.11
394.49	7.17
394.698	7.23
394.905	7.12
395.113	7.14
395.32	6.98
395.528	6.84
395.735	7.21
395.943	6.9
396.15	6.91
396.358	7.28
396.565	6.94
396.773	6.73
396.98	7
397.188	7.04
397.395	6.74
397.602	6.61
397.81	6.32
398.017	6.38
398.225	6.26
398.432	6.48
398.639	6.06
398.847	6.17
399.054	5.93
399.261	5.58
399.468	5.73
399.676	6.27
399.883	6.5
400.09	6.52
400.297	6.23
400.505	5.8
400.712	5.49
400.919	5.42
401.126	5.02
401.333	5.23
401.54	5.47
401.748	5.27
401.955	4.81
402.162	4.85
402.369	4.57
402.576	4.89
402.783	5.2
402.99	5.32
403.197	5.24
403.404	5.62
403.611	5.7
403.818	5.43
404.025	5.44
404.232	5.41
404.439	5.39
404.646	5.57
404.853	5.47
405.06	5.7
405.267	5.92
405.474	6.2
405.681	6.3
405.887	6.27
406.094	6.5
406.301	6.59
406.508	6.95
406.715	7.05
406.922	7.68
407.128	7.54
407.335	7.42
407.542	7.17
407.749	6.82
407.955	6.6
408.162	6.59
408.369	6.52
408.575	6.75
408.782	6.44
408.989	6.33
409.195	5.94
409.402	6.11
409.609	6
409.815	6.29
410.022	6.32
410.228	6.6
410.435	6.48
410.642	6.49
410.848	6.33
411.055	6.65
411.261	6.58
411.468	6.48
411.674	6.21
411.881	6.37
412.087	6.44
412.294	6.48
412.5	6.18
412.706	6.41
412.913	6.38
413.119	6.3
413.326	6.23
413.532	6.02
413.738	6.21
413.945	6.54
414.151	6.56
414.357	6.35
414.564	6.34
414.77	6.17
414.976	5.94
415.182	5.91
415.389	5.87
415.595	5.98
415.801	6.33
416.007	6.19
416.214	6.01
416.42	5.87
416.626	5.75
416.832	5.73
417.038	5.95
417.244	5.82
417.45	6.18
417.657	6.17
417.863	5.77
418.069	5.61
418.275	5.8
418.481	5.81
418.687	5.94
418.893	6.24
419.099	6.34
419.305	6.41
419.511	6.53
419.717	6.26
419.923	6.14
420.129	6.3
420.335	6.29
420.541	6.32
420.746	6.32
420.952	6.23
421.158	5.89
421.364	5.91
421.57	5.85
421.776	5.98
421.982	5.88
422.187	6
422.393	5.94
422.599	6.08
422.805	5.92
423.01	5.91
423.216	5.99
423.422	5.96
423.628	5.98
423.833	5.92
424.039	5.81
424.245	6
424.45	5.95
424.656	5.95
424.862	5.81
425.067	6.05
425.273	6.1
425.478	6.12
425.684	6.38
425.889	6.33
426.095	6.27
426.301	6.25
426.506	6.19
426.712	6.3
426.917	6.46
427.123	6.46
427.328	6.27
427.533	6.1
427.739	6.03
427.944	5.97
428.15	5.89
428.355	6.06
428.561	6.12
428.766	5.88
428.971	6.01
429.177	5.95
429.382	5.98
429.587	5.84
429.793	6.12
429.998	5.98
430.203	5.91
430.408	6.01
430.614	5.92
430.819	5.92
431.024	6.08
431.229	5.67
431.434	5.62
431.64	5.63
431.845	5.74
432.05	5.61
432.255	5.71
432.46	5.83
432.665	5.57
432.87	5.64
433.076	5.7
433.281	5.74
433.486	6.07
433.691	6.16
433.896	6.2
434.101	6.2
434.306	6.18
434.511	6.26
434.716	6.25
434.921	6.4
435.126	6.23
435.331	6.12
435.535	6.07
435.74	6.03
435.945	5.95
436.15	5.98
436.355	5.79
436.56	5.7
436.765	5.57
436.97	5.52
437.174	5.66
437.379	5.75
437.584	5.79
437.789	5.91
437.993	5.94
438.198	5.68
438.403	5.55
438.608	5.64
438.812	5.64
439.017	5.54
439.222	5.49
439.426	5.37
439.631	5.57
439.836	5.51
440.04	5.57
440.245	5.5
440.45	5.64
440.654	5.62
440.859	5.69
441.063	5.94
441.268	6.09
441.472	6.08
441.677	6.08
441.881	5.93
442.086	5.93
442.29	5.8
442.495	5.91
442.699	5.9
442.904	5.94
443.108	5.79
443.312	5.58
443.517	5.47
443.721	5.6
443.925	5.7
444.13	5.67
444.334	5.68
444.538	5.76
444.743	5.6
444.947	5.6
445.151	5.69
445.356	5.69
445.56	5.65
445.764	5.71
445.968	5.78
446.173	5.75
446.377	5.84
446.581	5.83
446.785	5.82
446.989	5.91
447.193	5.97
447.398	5.94
447.602	6.12
447.806	6.17
448.01	6.05
448.214	6.02
448.418	6.02
448.622	5.97
448.826	6.01
449.03	5.87
449.234	5.77
449.438	5.88
449.642	5.73
449.846	5.7
450.05	5.67
450.254	5.77
450.458	5.74
450.662	5.73
450.866	5.71
451.069	5.67
451.273	5.62
451.477	5.65
451.681	5.5
451.885	5.61
452.089	5.39
452.292	5.26
452.496	5.4
452.7	5.31
452.904	5.36
453.107	5.43
453.311	5.49
453.515	5.5
453.719	5.55
453.922	5.58
454.126	5.76
454.33	5.87
454.533	5.92
454.737	5.75
454.94	5.86
455.144	5.93
455.348	5.87
455.551	5.76
455.755	5.75
455.958	5.45
456.162	5.24
456.365	4.96
456.569	5.08
456.772	5.13
456.976	5.04
457.179	4.9
457.383	4.85
457.586	4.71
457.79	4.81
457.993	5.04
458.196	5.3
458.4	5.5
458.603	5.55
458.807	5.51
459.01	5.48
459.213	5.65
459.417	5.71
459.62	5.69
459.823	5.74
460.026	5.75
460.23	5.79
460.433	5.78
460.636	5.84
460.839	5.81
461.042	5.86
461.246	5.97
461.449	5.93
461.652	5.76
461.855	5.83
462.058	5.93
462.261	6.12
462.464	6.06
462.668	5.96
462.871	5.9
463.074	6.28
463.277	6.03
463.48	5.91
463.683	5.75
463.886	5.83
464.089	5.73
464.292	5.83
464.495	5.64
464.698	5.73
464.901	5.88
465.104	5.92
465.306	5.8
465.509	5.86
465.712	5.92
465.915	6.13
466.118	6.4
466.321	6.13
466.524	6
466.726	6.07
466.929	5.9
467.132	5.88
467.335	5.84
467.538	5.67
467.74	5.55
467.943	5.59
468.146	5.39
468.348	5.13
468.551	5.27
