Data from 2937821_Reflection_1.txt Node
Date: Wed Jul 15 17:18:04 EDT 2015
User: robert
Spectrometer: USB4E03001
Autoset integration time: false
Trigger mode: 4
Integration Time (sec): 1.000000E-1
Scans to average: 10
Electric dark correction enabled: true
Nonlinearity correction enabled: false
Boxcar width: 5
Stray light correction enabled: false
XAxis mode: Wavelengths
Stop averaging: false
Number of Pixels in Spectrum: 3648
>>>>>Begin Spectral Data<<<<<
177.566	52.7
177.785	53.64
178.005	133.16
178.225	159.16
178.445	849.76
178.665	-52.72
178.885	392.42
179.105	130.61
179.324	186.51
179.544	87.95
179.764	85.17
179.984	85.92
180.204	86.99
180.423	420.58
180.643	246
180.863	222.61
181.083	699.6
181.302	177.5
181.522	182.15
181.742	156.24
181.961	146.68
182.181	276.1
182.401	169.03
182.621	113.04
182.84	63.05
183.06	28.46
183.279	1.76
183.499	13.22
183.719	-2.74
183.938	-39.31
184.158	-13.45
184.377	-53.77
184.597	-65.38
184.816	-175.21
185.036	937.22
185.256	159.26
185.475	88.74
185.695	61.8
185.914	51.8
186.134	15.36
186.353	-20.42
186.572	-87.97
186.792	-66.07
187.011	-90.16
187.231	-169.85
187.45	-1390.25
187.67	2509.52
187.889	181.83
188.108	150.95
188.328	92.08
188.547	56.91
188.766	54.35
188.986	35.86
189.205	18.45
189.424	11.68
189.644	-6.75
189.863	-41.12
190.082	-111.11
190.302	1345.21
190.521	76.67
190.74	86.62
190.959	88.5
191.178	103.03
191.398	192.76
191.617	68.15
191.836	77.4
192.055	76.76
192.274	-100.56
192.494	1.09
192.713	-84.78
192.932	141.85
193.151	69.96
193.37	-118.07
193.589	-2558.93
193.808	3063.11
194.027	199.74
194.246	183.29
194.465	1695.39
194.685	251.7
194.904	1890.94
195.123	-1740.63
195.342	-1087.19
195.561	580.93
195.78	47.24
195.999	109.67
196.218	839.81
196.436	-695.45
196.655	-2322.92
196.874	-79.56
197.093	-664.65
197.312	-857.03
197.531	-80.7
197.75	-103.08
197.969	-85.69
198.188	-178.7
198.407	-137.56
198.625	-210.37
198.844	-92.03
199.063	12.24
199.282	-63.29
199.501	15.71
199.719	4.18
199.938	-10.86
200.157	121.23
200.376	232.3
200.594	109.32
200.813	181.9
201.032	231.21
201.251	1497.7
201.469	-58.86
201.688	835.4
201.907	-198.51
202.125	-22.58
202.344	11.08
202.563	26.05
202.781	56.57
203	66.94
203.218	131.04
203.437	109.71
203.656	128.46
203.874	148.81
204.093	130.9
204.311	153.09
204.53	334.89
204.748	141.67
204.967	212.6
205.185	1.53
205.404	179.35
205.622	-1.6
205.841	-26.87
206.059	-3065.66
206.278	328.14
206.496	452.44
206.715	-816.57
206.933	-6383.56
207.151	237.56
207.37	-1140.86
207.588	-144.87
207.806	-464.62
208.025	-632.95
208.243	47.42
208.461	71.67
208.68	260.7
208.898	212.62
209.116	2590.64
209.335	569.16
209.553	251.51
209.771	591.46
209.989	-231.19
210.208	-81.49
210.426	28.74
210.644	-934.25
210.862	-160.19
211.081	-74.58
211.299	-307.33
211.517	207
211.735	889.01
211.953	831.45
212.171	0.35
212.39	42.02
212.608	-29.1
212.826	-111.43
213.044	39.89
213.262	32.97
213.48	-13.94
213.698	9.44
213.916	-131.97
214.134	-106.44
214.352	-95.8
214.57	5.45
214.788	35.36
215.006	11.25
215.224	-4.48
215.442	40.39
215.66	42.99
215.878	26.72
216.096	9.81
216.314	2.36
216.532	8.64
216.75	2.71
216.968	-66.16
217.185	-87.14
217.403	-50.95
217.621	-95.51
217.839	-489.01
218.057	-953.05
218.275	2026.67
218.492	340.37
218.71	309.26
218.928	419.52
219.146	-587.7
219.363	-73.5
219.581	-236.76
219.799	-173.07
220.017	-182.54
220.234	-233.12
220.452	-523.06
220.67	-200.41
220.887	-108.45
221.105	-107.54
221.323	-342.94
221.54	4963.58
221.758	470.78
221.976	965.77
222.193	155.42
222.411	213.19
222.629	310.51
222.846	-408.2
223.064	-23.49
223.281	-49.83
223.499	40.34
223.716	7.13
223.934	32.89
224.151	32.29
224.369	39.28
224.586	15.66
224.804	-0.07
225.021	3
225.239	20.12
225.456	6.47
225.674	29.69
225.891	31.86
226.108	37.23
226.326	33.06
226.543	41.88
226.76	38.46
226.978	47
227.195	44.68
227.413	36.84
227.63	26.6
227.847	28.06
228.064	23.41
228.282	17.46
228.499	22.13
228.716	22.14
228.934	17.28
229.151	16.06
229.368	14.84
229.585	16.74
229.802	19.37
230.02	19.59
230.237	18.06
230.454	12.74
230.671	16.13
230.888	12.83
231.105	15.09
231.323	19.34
231.54	20.28
231.757	21.36
231.974	19.42
232.191	11.68
232.408	12.94
232.625	17.72
232.842	24.37
233.059	20.78
233.276	24.7
233.493	21.57
233.71	15.6
233.927	11.02
234.144	7.26
234.361	10.12
234.578	19.49
234.795	17.78
235.012	5.28
235.229	7.45
235.446	13.98
235.663	8.21
235.879	13.31
236.096	21.28
236.313	27.8
236.53	28.08
236.747	25.98
236.964	20.84
237.181	29.67
237.397	27.77
237.614	28.26
237.831	22.69
238.048	18.79
238.264	18.65
238.481	16.92
238.698	17.1
238.915	14.89
239.131	12.96
239.348	18.72
239.565	13.92
239.781	19.58
239.998	20.65
240.215	25.52
240.431	28.51
240.648	21.85
240.865	20.89
241.081	16.1
241.298	16.31
241.514	19.37
241.731	18.93
241.947	17.86
242.164	19.49
242.38	19
242.597	19.18
242.814	17.69
243.03	18.47
243.246	18.52
243.463	19.77
243.679	20.19
243.896	21.04
244.112	20.61
244.329	19.4
244.545	17.5
244.762	17.76
244.978	14.81
245.194	17.74
245.411	18.22
245.627	17.16
245.843	16.07
246.06	16.47
246.276	17.03
246.492	17.38
246.709	18.85
246.925	18.34
247.141	18.53
247.357	18.25
247.574	17.45
247.79	17.79
248.006	16.97
248.222	17.76
248.439	17.71
248.655	16.02
248.871	14.26
249.087	14.17
249.303	13.57
249.519	13.69
249.736	14.32
249.952	14.24
250.168	15.32
250.384	16.1
250.6	12.48
250.816	10.08
251.032	11.94
251.248	11.86
251.464	9.82
251.68	11.17
251.896	8.88
252.112	8.6
252.328	7.2
252.544	4.86
252.76	8.62
252.976	11.36
253.192	11.97
253.408	11.67
253.624	12.99
253.84	13.15
254.056	11.89
254.272	13.19
254.487	14.39
254.703	17.01
254.919	19.81
255.135	14.13
255.351	12.25
255.567	14.03
255.782	13.85
255.998	15.87
256.214	15.79
256.43	16.55
256.646	12.28
256.861	11.02
257.077	10.88
257.293	7.51
257.508	10.5
257.724	10.58
257.94	9.06
258.155	9.12
258.371	8.8
258.587	10.28
258.802	11.73
259.018	12.69
259.234	12.43
259.449	12.81
259.665	13.69
259.88	13.25
260.096	14.29
260.312	15.34
260.527	14.83
260.743	14.64
260.958	13.89
261.174	12.85
261.389	13.22
261.605	13.12
261.82	11.76
262.036	11.03
262.251	11.19
262.466	9.54
262.682	7.61
262.897	7.17
263.113	6.69
263.328	7.94
263.543	8.08
263.759	8.3
263.974	8.68
264.189	11.2
264.405	13.7
264.62	13.65
264.835	13.45
265.051	12.07
265.266	13.24
265.481	13.39
265.696	12.33
265.912	13
266.127	11.31
266.342	8.52
266.557	7.52
266.773	4.52
266.988	3.84
267.203	1.85
267.418	2.53
267.633	0.9
267.848	-0.02
268.064	1.2
268.279	2.22
268.494	2.48
268.709	4.84
268.924	4.38
269.139	6.81
269.354	5.82
269.569	8.87
269.784	11.06
269.999	14.41
270.214	16.12
270.429	14.26
270.644	13.7
270.859	14.36
271.074	14.46
271.289	15.24
271.504	14.32
271.719	15.08
271.934	14.62
272.149	13.03
272.363	10.49
272.578	10.12
272.793	10.89
273.008	11.01
273.223	11.18
273.438	10.78
273.653	12.27
273.867	11.47
274.082	11.49
274.297	9.78
274.512	9.75
274.726	12.78
274.941	12.02
275.156	11.81
275.371	10.2
275.585	9.33
275.8	9.25
276.015	6.27
276.229	9.01
276.444	9.65
276.659	12.3
276.873	11.56
277.088	9.2
277.302	9.97
277.517	9.8
277.732	10.29
277.946	7.19
278.161	6.32
278.375	7.36
278.59	7.28
278.804	4.86
279.019	3.86
279.233	4.52
279.448	5.75
279.662	5.25
279.877	4.92
280.091	6.05
280.306	9.21
280.52	11.84
280.735	12.14
280.949	11.04
281.163	12.08
281.378	12.73
281.592	14.39
281.806	14.04
282.021	14.88
282.235	15.99
282.449	15.84
282.664	16.46
282.878	16.52
283.092	17.18
283.307	17.65
283.521	19.84
283.735	19.19
283.949	19.26
284.164	18.92
284.378	17.75
284.592	16.86
284.806	16.22
285.02	15.55
285.234	14.35
285.449	13.1
285.663	12.47
285.877	12.16
286.091	12.19
286.305	11.64
286.519	11.28
286.733	10.3
286.947	9.41
287.161	9.76
287.375	9.6
287.589	9.4
287.803	9.84
288.017	10.81
288.231	8.93
288.445	10.2
288.659	10.25
288.873	9.6
289.087	11.01
289.301	12.44
289.515	11.36
289.729	11.76
289.943	11.73
290.157	13.17
290.371	10.8
290.584	11.5
290.798	9.72
291.012	11.05
291.226	12.42
291.44	11.9
291.654	11.2
291.867	12.1
292.081	11.25
292.295	11.76
292.509	10.54
292.722	13.58
292.936	12.88
293.15	16.29
293.364	14.57
293.577	14.63
293.791	16.86
294.005	17.23
294.218	16.59
294.432	16.62
294.645	15.7
294.859	16.09
295.073	13.66
295.286	15.65
295.5	14.49
295.713	15.24
295.927	15.41
296.14	14.28
296.354	14.49
296.568	15.97
296.781	16.99
296.994	17.18
297.208	17.83
297.421	18.79
297.635	18.2
297.848	17.69
298.062	17.02
298.275	16.91
298.489	16.79
298.702	16.52
298.915	15.59
299.129	14.39
299.342	15.66
299.555	15.88
299.769	15.53
299.982	14.73
300.195	13.85
300.409	15.09
300.622	15.7
300.835	15.69
301.048	16.57
301.262	16.82
301.475	18.46
301.688	17.74
301.901	15.24
302.115	14.39
302.328	13.84
302.541	14.75
302.754	14.89
302.967	14.31
303.18	15.4
303.393	15.7
303.607	16.08
303.82	15.27
304.033	16.2
304.246	16.8
304.459	18.58
304.672	19.29
304.885	18.99
305.098	18.99
305.311	19.39
305.524	19.71
305.737	18.81
305.95	18.5
306.163	19.7
306.376	18.09
306.589	16.78
306.802	15.97
307.015	15.87
307.228	15.54
307.44	15
307.653	15.38
307.866	16.28
308.079	14.94
308.292	14.56
308.505	16.07
308.718	17.23
308.93	19.1
309.143	19.59
309.356	19.94
309.569	20.82
309.781	20.83
309.994	20.69
310.207	19.41
310.42	20.7
310.632	20.45
310.845	17.53
311.058	17.03
311.27	15.96
311.483	14.87
311.696	14.8
311.908	14.57
312.121	13.61
312.333	13.49
312.546	12.29
312.759	10.02
312.971	9.16
313.184	9.71
313.396	9.74
313.609	10.68
313.821	12.63
314.034	12.4
314.246	12.22
314.459	13.18
314.671	12.97
314.884	13.16
315.096	14.79
315.309	16.65
315.521	16.82
315.733	17.39
315.946	16.54
316.158	16.49
316.371	15.39
316.583	15.85
316.795	13.93
317.008	13.69
317.22	14.64
317.432	14.89
317.644	14.61
317.857	14.71
318.069	12.47
318.281	13.27
318.494	14.26
318.706	13.93
318.918	13.27
319.13	14.22
319.342	12.79
319.555	13.6
319.767	13.96
319.979	13.08
320.191	13.05
320.403	13.2
320.615	13.31
320.827	10.85
321.039	11.01
321.252	12.66
321.464	13.99
321.676	15.67
321.888	13.68
322.1	12.95
322.312	12.37
322.524	12.08
322.736	12.88
322.948	12.65
323.16	13.49
323.372	13.7
323.584	12.56
323.796	11.42
324.007	12.42
324.219	13.65
324.431	14.23
324.643	15.18
324.855	15.06
325.067	15.45
325.279	15.05
325.491	14.15
325.702	13.98
325.914	15.49
326.126	15.62
326.338	12.75
326.55	13.55
326.761	12.64
326.973	12.97
327.185	14.18
327.396	14.82
327.608	14.42
327.82	13.94
328.032	15.53
328.243	13.66
328.455	12.99
328.666	14.57
328.878	14.74
329.09	15.66
329.301	15.77
329.513	15.34
329.725	13.53
329.936	14.91
330.148	16.16
330.359	14.47
330.571	15.11
330.782	15.8
330.994	15.56
331.205	13.23
331.417	13.83
331.628	14.3
331.84	13.54
332.051	14.73
332.262	13.4
332.474	13.45
332.685	14.95
332.897	13.95
333.108	15.18
333.319	16.14
333.531	17.45
333.742	16.81
333.953	15.74
334.165	18.04
334.376	17.01
334.587	18.54
334.799	17.98
335.01	17.12
335.221	18.24
335.432	15.97
335.644	14.98
335.855	14.74
336.066	15.01
336.277	14.91
336.488	13.03
336.7	13.13
336.911	12.67
337.122	13.36
337.333	13.72
337.544	12.92
337.755	13.54
337.966	13.77
338.177	13.26
338.388	12.2
338.599	12.29
338.811	11.68
339.022	13.19
339.233	12.68
339.444	12.27
339.655	12.49
339.866	13.31
340.076	13.94
340.287	14.2
340.498	14.17
340.709	14.79
340.92	14.66
341.131	15.27
341.342	14.47
341.553	15.59
341.764	15.97
341.975	15.24
342.185	15.09
342.396	14.71
342.607	14.42
342.818	15.4
343.029	15.32
343.239	15.34
343.45	14.29
343.661	14.36
343.872	13.8
344.082	12.32
344.293	11.48
344.504	10.91
344.714	10.21
344.925	10.7
345.136	10.35
345.346	10.69
345.557	10.97
345.768	11.93
345.978	11.3
346.189	11.11
346.399	11.84
346.61	12.92
346.821	14.14
347.031	15.28
347.242	15.16
347.452	15.24
347.663	15.73
347.873	15.87
348.084	15.3
348.294	15.61
348.504	14.99
348.715	15.37
348.925	16.14
349.136	15.27
349.346	15.29
349.557	14.63
349.767	13.72
349.977	12.84
350.188	12.71
350.398	13.2
350.608	13.36
350.819	13.32
351.029	14.19
351.239	13.82
351.449	14.83
351.66	14.04
351.87	13.97
352.08	13.93
352.29	13.88
352.501	12.98
352.711	13.67
352.921	12.63
353.131	12.54
353.341	11.93
353.552	11.11
353.762	10.42
353.972	10.44
354.182	11.27
354.392	12.4
354.602	12.41
354.812	13.77
355.022	13.7
355.232	13.53
355.442	14.46
355.652	13.43
355.862	13.6
356.072	12.85
356.282	14.2
356.492	13.51
356.702	12.83
356.912	12.86
357.122	11.89
357.332	11.48
357.542	12.63
357.752	12.26
357.962	13.63
358.171	13.58
358.381	13.71
358.591	13.17
358.801	12.63
359.011	11.97
359.221	11.56
359.43	12.08
359.64	12.09
359.85	12.24
360.06	13.14
360.269	11.88
360.479	11.52
360.689	11.58
360.899	11.77
361.108	12.79
361.318	13.45
361.528	13.82
361.737	13.55
361.947	12.94
362.156	13.06
362.366	12.21
362.576	12.54
362.785	12.42
362.995	13.21
363.204	13.07
363.414	12.7
363.623	12.92
363.833	13.2
364.042	13.42
364.252	14.35
364.461	13.31
364.671	12.96
364.88	11.97
365.09	12.6
365.299	11.74
365.509	11.03
365.718	11.72
365.927	11.14
366.137	11.79
366.346	12.02
366.555	11.88
366.765	12.1
366.974	12.92
367.183	14.73
367.393	14.62
367.602	14.74
367.811	14.93
368.021	15.26
368.23	14.57
368.439	12.21
368.648	11.77
368.857	10.72
369.067	10.87
369.276	10.34
369.485	8.76
369.694	9.15
369.903	9.51
370.112	9.63
370.321	8.12
370.531	8.26
370.74	9.98
370.949	10.07
371.158	10.49
371.367	10.66
371.576	10.74
371.785	10.88
371.994	10.01
372.203	9.7
372.412	9.67
372.621	9.47
372.83	10.54
373.039	10.04
373.248	9.54
373.457	9.62
373.666	9.61
373.874	9.26
374.083	9.68
374.292	10.19
374.501	9.95
374.71	9.95
374.919	10.03
375.128	9.83
375.336	10.28
375.545	10.09
375.754	10.14
375.963	9.81
376.171	10.43
376.38	10.73
376.589	10.75
376.798	10.62
377.006	10.9
377.215	11.24
377.424	10.45
377.632	10.14
377.841	10.44
378.05	10.06
378.258	10.3
378.467	9.72
378.675	9.64
378.884	10.08
379.093	10.45
379.301	10.08
379.51	10.04
379.718	10.38
379.927	10.37
380.135	10.11
380.344	10.36
380.552	10.02
380.761	9.63
380.969	8.9
381.177	8.58
381.386	8.03
381.594	7.72
381.803	8.04
382.011	8.6
382.219	7.91
382.428	7.92
382.636	8.05
382.845	8.03
383.053	8.14
383.261	8.6
383.469	8.37
383.678	8.65
383.886	8.99
384.094	8.47
384.302	7.43
384.511	7.5
384.719	7.42
384.927	7.56
385.135	7.04
385.343	7.15
385.552	6.48
385.76	6.34
385.968	6.11
386.176	5.92
386.384	5.82
386.592	6.16
386.8	6.81
387.008	6.89
387.216	6.74
387.424	6.69
387.633	6.7
387.841	7.14
388.049	7.09
388.257	6.95
388.465	7.09
388.672	7.64
388.88	7.79
389.088	7.02
389.296	7.05
389.504	6.54
389.712	7.07
389.92	6.93
390.128	7.09
390.336	7.19
390.544	7
390.751	6.79
390.959	6.76
391.167	6.72
391.375	6.85
391.583	6.43
391.79	6.71
391.998	6.4
392.206	6.34
392.414	5.87
392.621	5.75
392.829	5.9
393.037	6.2
393.244	5.51
393.452	5.45
393.66	5.34
393.867	5.72
394.075	5.58
394.283	5.63
394.49	5.64
394.698	5.67
394.905	5.22
395.113	5.36
395.32	5.13
395.528	5.42
395.735	5.66
395.943	6.07
396.15	6.03
396.358	6.04
396.565	6.27
396.773	6.17
396.98	6.13
397.188	6.74
397.395	6.54
397.602	6.77
397.81	6.98
398.017	6.62
398.225	6.44
398.432	6.63
398.639	6.59
398.847	6.6
399.054	6.87
399.261	6.79
399.468	6.42
399.676	6.26
399.883	5.92
400.09	5.7
400.297	6.07
400.505	5.98
400.712	5.9
400.919	5.86
401.126	5.59
401.333	5.3
401.54	5.36
401.748	5.39
401.955	5.25
402.162	5.07
402.369	5.19
402.576	5.03
402.783	5.21
402.99	4.98
403.197	4.85
403.404	4.94
403.611	5.08
403.818	5.17
404.025	5.08
404.232	5.22
404.439	5.55
404.646	5.45
404.853	5.37
405.06	5.08
405.267	5.12
405.474	5.31
405.681	5.13
405.887	5.32
406.094	5.42
406.301	5.38
406.508	5.52
406.715	5.5
406.922	5.58
407.128	5.61
407.335	5.83
407.542	5.82
407.749	6.19
407.955	6.66
408.162	6.31
408.369	6.42
408.575	6.73
408.782	6.84
408.989	6.75
409.195	6.87
409.402	6.69
409.609	6.42
409.815	6.25
410.022	6.05
410.228	5.76
410.435	5.85
410.642	5.89
410.848	5.95
411.055	5.83
411.261	5.69
411.468	5.29
411.674	5.24
411.881	5.21
412.087	5.47
412.294	5.17
412.5	4.84
412.706	5
412.913	4.77
413.119	4.51
413.326	4.64
413.532	4.91
413.738	5.2
413.945	5.34
414.151	5.51
414.357	5.3
414.564	5.44
414.77	5.81
414.976	5.56
415.182	5.53
415.389	5.61
415.595	5.48
415.801	5.24
416.007	5.03
416.214	5.01
416.42	5.07
416.626	5.3
416.832	5.22
417.038	5.13
417.244	5.24
417.45	5.35
417.657	5.24
417.863	5.4
418.069	5.39
418.275	5.4
418.481	5.43
418.687	5.33
418.893	5.17
419.099	5.12
419.305	5.15
419.511	5.19
419.717	5.15
419.923	5.25
420.129	5.07
420.335	5.13
420.541	5.12
420.746	4.98
420.952	4.97
421.158	5.09
421.364	5.26
421.57	5.16
421.776	5.14
421.982	5.16
422.187	5.16
422.393	5.22
422.599	5.16
422.805	5.19
423.01	5.24
423.216	5.37
423.422	5.16
423.628	4.98
423.833	5
424.039	4.76
424.245	4.72
424.45	4.62
424.656	4.55
424.862	4.55
425.067	4.61
425.273	4.67
425.478	4.53
425.684	4.58
425.889	4.75
426.095	4.68
426.301	4.97
426.506	4.9
426.712	4.95
426.917	4.98
427.123	5.04
427.328	5
427.533	4.9
427.739	4.8
427.944	5.02
428.15	4.96
428.355	5.09
428.561	4.93
428.766	4.71
428.971	4.79
429.177	4.89
429.382	4.77
429.587	4.73
429.793	4.94
429.998	4.98
430.203	4.71
430.408	4.64
430.614	4.75
430.819	4.64
431.024	4.99
431.229	5.16
431.434	4.97
431.64	5
431.845	5.07
432.05	4.87
432.255	5.03
432.46	5.1
432.665	4.94
432.87	4.69
433.076	4.98
433.281	5.04
433.486	5.02
433.691	5.16
433.896	5.15
434.101	5.03
434.306	5.05
434.511	4.89
434.716	5.01
434.921	5.07
435.126	5.21
435.331	5.08
435.535	4.96
435.74	4.77
435.945	4.67
436.15	4.61
436.355	4.77
436.56	4.73
436.765	4.83
436.97	4.75
437.174	4.76
437.379	4.73
437.584	4.72
437.789	4.7
437.993	4.68
438.198	4.63
438.403	4.64
438.608	4.43
438.812	4.53
439.017	4.65
439.222	4.55
439.426	4.56
439.631	4.46
439.836	4.5
440.04	4.46
440.245	4.48
440.45	4.66
440.654	4.72
440.859	4.81
441.063	4.97
441.268	4.92
441.472	5.08
441.677	5.09
441.881	5.23
442.086	5.2
442.29	5.37
442.495	5.49
442.699	5.4
442.904	5.2
443.108	5.2
443.312	4.93
443.517	4.85
443.721	4.57
443.925	4.53
444.13	4.52
444.334	4.47
444.538	4.49
444.743	4.41
444.947	4.45
445.151	4.57
445.356	4.61
445.56	4.55
445.764	4.52
445.968	4.7
446.173	4.68
446.377	4.57
446.581	4.67
446.785	4.56
446.989	4.48
447.193	4.41
447.398	4.36
447.602	4.34
447.806	4.42
448.01	4.58
448.214	4.44
448.418	4.68
448.622	4.77
448.826	4.8
449.03	4.95
449.234	4.91
449.438	4.88
449.642	5.08
449.846	5.16
450.05	5.14
450.254	5
450.458	5.07
450.662	4.85
450.866	4.8
451.069	4.75
451.273	4.56
451.477	4.72
451.681	4.82
451.885	4.62
452.089	4.41
452.292	4.34
452.496	4.24
452.7	4.3
452.904	4.03
453.107	4.29
453.311	4.16
453.515	4.13
453.719	4.03
453.922	3.82
454.126	3.78
454.33	3.81
454.533	3.79
454.737	3.9
454.94	3.81
455.144	4.16
455.348	3.93
455.551	4.09
455.755	4.11
455.958	4.06
456.162	4.28
456.365	4.28
456.569	4.28
456.772	4.53
456.976	4.42
457.179	4.4
457.383	3.92
457.586	3.87
457.79	3.85
457.993	3.83
458.196	3.88
458.4	3.79
458.603	3.96
458.807	4.01
459.01	3.98
459.213	4.04
459.417	3.94
459.62	4.14
459.823	4.06
460.026	4
460.23	4.12
460.433	4.4
460.636	4.48
460.839	4.52
461.042	4.58
461.246	4.5
461.449	4.59
461.652	4.8
