Data from 2937827_Reflection_1.txt Node
Date: Wed Jul 15 16:58:38 EDT 2015
User: robert
Spectrometer: USB4E03001
Autoset integration time: false
Trigger mode: 4
Integration Time (sec): 1.000000E-1
Scans to average: 10
Electric dark correction enabled: true
Nonlinearity correction enabled: false
Boxcar width: 5
Stray light correction enabled: false
XAxis mode: Wavelengths
Stop averaging: false
Number of Pixels in Spectrum: 3648
>>>>>Begin Spectral Data<<<<<
177.566	54.21
177.785	71.34
178.005	49.58
178.225	83.62
178.445	95.78
178.665	85.89
178.885	466.17
179.105	48.54
179.324	40.72
179.544	41.82
179.764	63.76
179.984	44.7
180.204	46.29
180.423	27.08
180.643	56.17
180.863	52.73
181.083	48
181.302	32.83
181.522	-27.87
181.742	-27.11
181.961	-11.98
182.181	-7.15
182.401	-2.72
182.621	34.36
182.84	39.97
183.06	11.64
183.279	-7.7
183.499	2.17
183.719	13.09
183.938	34.33
184.158	39.72
184.377	42.85
184.597	34.73
184.816	52.49
185.036	-8.34
185.256	-164.32
185.475	33.17
185.695	90.9
185.914	30.88
186.134	-31.62
186.353	29.14
186.572	63.66
186.792	88.44
187.011	50.35
187.231	35.26
187.45	40.55
187.67	36.96
187.889	24.99
188.108	30.62
188.328	23.85
188.547	41.2
188.766	31.05
188.986	15.52
189.205	-7.72
189.424	-34.94
189.644	-42.96
189.863	-44.49
190.082	-154.97
190.302	-102
190.521	-119.88
190.74	-77.22
190.959	-53.33
191.178	-87.73
191.398	-96.89
191.617	-84.39
191.836	-27.43
192.055	-38.91
192.274	-82.57
192.494	-39.06
192.713	-27.45
192.932	-39.41
193.151	-57.97
193.37	-46.97
193.589	-96.44
193.808	-50.1
194.027	-32.34
194.246	-69.12
194.465	-39.56
194.685	-6.43
194.904	-4.79
195.123	-44.55
195.342	7.9
195.561	5.91
195.78	-68.93
195.999	69.78
196.218	25.32
196.436	330.98
196.655	-299.14
196.874	-1637.17
197.093	-394.76
197.312	-312.79
197.531	281.55
197.75	199.23
197.969	105.36
198.188	101.92
198.407	65.86
198.625	61.76
198.844	32.29
199.063	54.98
199.282	24.3
199.501	24.2
199.719	17.17
199.938	52.14
200.157	42.04
200.376	45.69
200.594	53.15
200.813	54.26
201.032	64.43
201.251	61.55
201.469	21.59
201.688	72.62
201.907	48.82
202.125	39.61
202.344	1.8
202.563	18.54
202.781	8.12
203	22.6
203.218	62.21
203.437	46.73
203.656	23.84
203.874	10.7
204.093	1.99
204.311	6.95
204.53	-13.72
204.748	-51.19
204.967	-99.56
205.185	-150.6
205.404	-2614.22
205.622	3176.47
205.841	-16006.98
206.059	858.98
206.278	-1477.89
206.496	363.8
206.715	233.41
206.933	189.88
207.151	436.67
207.37	415.79
207.588	-230.41
207.806	-70.51
208.025	-108.6
208.243	-19.27
208.461	48.51
208.68	16.72
208.898	35.51
209.116	37.92
209.335	14.84
209.553	31.15
209.771	35.18
209.989	36.33
210.208	35.24
210.426	31.26
210.644	0.09
210.862	-14.76
211.081	9.36
211.299	13.57
211.517	7.19
211.735	3.12
211.953	12.64
212.171	14.43
212.39	27.47
212.608	34.3
212.826	43.65
213.044	32.35
213.262	-49.9
213.48	-83.82
213.698	-1370.81
213.916	565.39
214.134	559.74
214.352	608.95
214.57	-815.29
214.788	846.78
215.006	494.77
215.224	-202.7
215.442	-90.73
215.66	-15.87
215.878	-34.94
216.096	67.25
216.314	64.4
216.532	58.2
216.75	28.04
216.968	1.64
217.185	5.67
217.403	-16.4
217.621	-115.65
217.839	-140.96
218.057	-56.32
218.275	-41.23
218.492	-36.31
218.71	-13.7
218.928	-6
219.146	14.51
219.363	41.4
219.581	58.54
219.799	68.6
220.017	127.84
220.234	160.46
220.452	331.74
220.67	-763.61
220.887	-174.79
221.105	-98.84
221.323	-141.44
221.54	-12.96
221.758	72.84
221.976	234.71
222.193	241.12
222.411	-16.9
222.629	-40.5
222.846	59.84
223.064	-30.22
223.281	93.02
223.499	68.59
223.716	21.01
223.934	2.22
224.151	-90.72
224.369	-35.89
224.586	20.1
224.804	56.42
225.021	72.05
225.239	90.72
225.456	74.8
225.674	88.37
225.891	15.68
226.108	751.42
226.326	-2389.93
226.543	1784.15
226.76	-204.01
226.978	-867.2
227.195	-226.97
227.413	-127.43
227.63	-89.74
227.847	-19.65
228.064	-7.7
228.282	9.83
228.499	13.63
228.716	21.05
228.934	13.79
229.151	21.99
229.368	23.59
229.585	24.41
229.802	25.75
230.02	25.49
230.237	22.47
230.454	24.62
230.671	21.43
230.888	23.97
231.105	23.11
231.323	26.43
231.54	19.97
231.757	23.06
231.974	23.51
232.191	15.73
232.408	17.89
232.625	12.78
232.842	6.81
233.059	11.61
233.276	10.7
233.493	12.15
233.71	12.56
233.927	7.7
234.144	13.24
234.361	14.14
234.578	15.12
234.795	17.02
235.012	22.17
235.229	23.02
235.446	19.72
235.663	25.12
235.879	23.51
236.096	22.79
236.313	30.38
236.53	18.59
236.747	11.59
236.964	5.14
237.181	22.18
237.397	28.21
237.614	30.67
237.831	28.89
238.048	20.75
238.264	16.53
238.481	27.61
238.698	25.09
238.915	31.17
239.131	31.6
239.348	34.57
239.565	20.44
239.781	19.46
239.998	18.33
240.215	19.92
240.431	18.44
240.648	22.81
240.865	13.93
241.081	18.08
241.298	19.5
241.514	19.94
241.731	18.33
241.947	20.16
242.164	20.69
242.38	20.38
242.597	21.01
242.814	21.23
243.03	18.94
243.246	21.67
243.463	21.83
243.679	20.34
243.896	17.91
244.112	16.7
244.329	16.47
244.545	13.99
244.762	15.54
244.978	14.72
245.194	12.85
245.411	13.15
245.627	10.69
245.843	7.9
246.06	8.74
246.276	13.6
246.492	15.86
246.709	16.47
246.925	16.81
247.141	15.48
247.357	15.17
247.574	15.99
247.79	15.48
248.006	15.3
248.222	14.95
248.439	14.06
248.655	13.28
248.871	13.02
249.087	13.13
249.303	12.44
249.519	12.97
249.736	13.55
249.952	10.94
250.168	10.84
250.384	13.6
250.6	17.25
250.816	17.66
251.032	17.97
251.248	16.91
251.464	13.61
251.68	13.8
251.896	11.5
252.112	11.56
252.328	13.87
252.544	14.53
252.76	13.93
252.976	12.77
253.192	18.13
253.408	17.18
253.624	18.55
253.84	17.72
254.056	16.84
254.272	17.7
254.487	13.63
254.703	11
254.919	12.15
255.135	13.04
255.351	13.24
255.567	4.83
255.782	7.71
255.998	3.17
256.214	8.64
256.43	12
256.646	13.45
256.861	17.14
257.077	21.17
257.293	18.34
257.508	13.22
257.724	15.17
257.94	15.85
258.155	15.36
258.371	15.63
258.587	15.82
258.802	14.74
259.018	16.21
259.234	15.89
259.449	15.32
259.665	15.55
259.88	16.82
260.096	15.13
260.312	15.99
260.527	14.93
260.743	15.27
260.958	13.23
261.174	12.81
261.389	12.26
261.605	11.76
261.82	10.49
262.036	9
262.251	9.88
262.466	11.39
262.682	9.06
262.897	11.57
263.113	9.36
263.328	8.4
263.543	8.07
263.759	8.01
263.974	5.59
264.189	4.69
264.405	5.4
264.62	5.55
264.835	4.33
265.051	7.4
265.266	5.79
265.481	8.81
265.696	13.13
265.912	13.03
266.127	16
266.342	18.26
266.557	20.31
266.773	17.2
266.988	13.74
267.203	12.31
267.418	10.27
267.633	11.18
267.848	10.21
268.064	11.22
268.279	12.45
268.494	8.94
268.709	8.41
268.924	7.98
269.139	11.26
269.354	11.92
269.569	10.26
269.784	10.62
269.999	10.32
270.214	11.44
270.429	9.31
270.644	9.43
270.859	9.1
271.074	11.39
271.289	13
271.504	13.5
271.719	13.78
271.934	17.38
272.149	16.38
272.363	15.4
272.578	15.49
272.793	15.4
273.008	15.96
273.223	17.12
273.438	14.93
273.653	11.72
273.867	11.96
274.082	10.53
274.297	8.64
274.512	9.75
274.726	9.89
274.941	7.74
275.156	9.38
275.371	8.34
275.585	8.56
275.8	10.71
276.015	11.98
276.229	12.31
276.444	11.92
276.659	11.98
276.873	12.98
277.088	12.23
277.302	14.37
277.517	13.27
277.732	14.02
277.946	11.3
278.161	9.54
278.375	9.21
278.59	7.64
278.804	9.63
279.019	9.51
279.233	6.85
279.448	9.66
279.662	9.95
279.877	9.21
280.091	5.97
280.306	8.47
280.52	7.31
280.735	8.87
280.949	10.71
281.163	11.88
281.378	13.5
281.592	13.67
281.806	12.05
282.021	11.36
282.235	12.52
282.449	13.24
282.664	12.46
282.878	14.07
283.092	13.26
283.307	10.47
283.521	11.2
283.735	10.47
283.949	11.48
284.164	12.58
284.378	13.5
284.592	13.03
284.806	13.53
285.02	12.09
285.234	10.46
285.449	10.84
285.663	12.3
285.877	12.38
286.091	10.85
286.305	12.43
286.519	12.15
286.733	11.38
286.947	10.78
287.161	10.53
287.375	11.26
287.589	12.17
287.803	11.8
288.017	11.59
288.231	8.88
288.445	10.16
288.659	9.11
288.873	8.83
289.087	9.83
289.301	12.14
289.515	13.13
289.729	12.72
289.943	14.09
290.157	15.65
290.371	17.76
290.584	18.94
290.798	20.41
291.012	19.66
291.226	20.76
291.44	19.4
291.654	20.29
291.867	20.72
292.081	19.93
292.295	20.81
292.509	19.81
292.722	17.33
292.936	17.2
293.15	15.99
293.364	15.38
293.577	14.37
293.791	16.66
294.005	15.28
294.218	14.69
294.432	17.06
294.645	13.48
294.859	12.31
295.073	14.59
295.286	15.81
295.5	14.99
295.713	17.02
295.927	16.25
296.14	15.69
296.354	15.6
296.568	16.18
296.781	17.64
296.994	20.69
297.208	22.36
297.421	21.29
297.635	21.13
297.848	21.3
298.062	21.32
298.275	21.33
298.489	21.21
298.702	21.63
298.915	22.03
299.129	21.28
299.342	20.22
299.555	19.77
299.769	19.89
299.982	19.54
300.195	20.61
300.409	19.31
300.622	20.4
300.835	20.68
301.048	20.12
301.262	20.6
301.475	19.24
301.688	20.22
301.901	21.08
302.115	21.13
302.328	21.68
302.541	19.87
302.754	17.98
302.967	17.67
303.18	17.82
303.393	17.91
303.607	17.97
303.82	18.77
304.033	19.8
304.246	18.82
304.459	19.45
304.672	19.52
304.885	20.32
305.098	21.62
305.311	18.7
305.524	20.9
305.737	20.17
305.95	21.1
306.163	23.75
306.376	22.43
306.589	20.95
306.802	20.46
307.015	20.64
307.228	19.56
307.44	19.51
307.653	22.53
307.866	20.04
308.079	19.93
308.292	18.46
308.505	15.38
308.718	15.85
308.93	17.48
309.143	19.07
309.356	20.6
309.569	20.89
309.781	21.68
309.994	21.31
310.207	21.83
310.42	21.98
310.632	22.17
310.845	22.73
311.058	22.44
311.27	21.7
311.483	19.83
311.696	18.02
311.908	19.53
312.121	18.81
312.333	20.11
312.546	19.87
312.759	19.54
312.971	18.89
313.184	20.09
313.396	18.73
313.609	19.9
313.821	19.65
314.034	19.22
314.246	19.42
314.459	21.92
314.671	20.97
314.884	21.38
315.096	23.22
315.309	25.56
315.521	23.76
315.733	24.56
315.946	23.02
316.158	23.76
316.371	26.22
316.583	26.12
316.795	24.34
317.008	24.42
317.22	24.36
317.432	23.76
317.644	21.73
317.857	23.38
318.069	23.22
318.281	24.31
318.494	26.59
318.706	25.25
318.918	24.12
319.13	23.41
319.342	21.72
319.555	19.79
319.767	20.15
319.979	18.59
320.191	18.28
320.403	18.3
320.615	18.6
320.827	16.07
321.039	13.18
321.252	14.22
321.464	15.15
321.676	15.78
321.888	17.63
322.1	15.85
322.312	16.6
322.524	14.9
322.736	15.52
322.948	13.59
323.16	16.03
323.372	18.66
323.584	18.05
323.796	19.65
324.007	19.61
324.219	18.75
324.431	18.19
324.643	20.01
324.855	21.52
325.067	20.52
325.279	22.91
325.491	21.17
325.702	21.01
325.914	20.8
326.126	20.14
326.338	20.88
326.55	21.9
326.761	22.32
326.973	20.74
327.185	20.73
327.396	21.55
327.608	20.62
327.82	22.55
328.032	21.06
328.243	20.9
328.455	20.36
328.666	21.43
328.878	20.6
329.09	19.97
329.301	19.59
329.513	19.16
329.725	18.34
329.936	18.49
330.148	17.81
330.359	17.82
330.571	15.89
330.782	15.31
330.994	13.78
331.205	14.33
331.417	16.73
331.628	18.25
331.84	17.7
332.051	19.24
332.262	19.43
332.474	18.48
332.685	20.96
332.897	22.99
333.108	23.78
333.319	24.47
333.531	25.38
333.742	24.82
333.953	25.91
334.165	28.22
334.376	27.57
334.587	28.3
334.799	27.81
335.01	26.43
335.221	24.68
335.432	24.67
335.644	25.33
335.855	25.64
336.066	26.39
336.277	25.33
336.488	24.41
336.7	24.25
336.911	23.22
337.122	24.64
337.333	25.25
337.544	26.75
337.755	26.01
337.966	23.78
338.177	22.9
338.388	20.91
338.599	20.21
338.811	19.69
339.022	18.67
339.233	18.78
339.444	18.86
339.655	19.47
339.866	18.59
340.076	19.07
340.287	21.29
340.498	22.84
340.709	23.93
340.92	25.13
341.131	24.85
341.342	25.64
341.553	25.16
341.764	23.98
341.975	21.93
342.185	23.38
342.396	23.22
342.607	22.29
342.818	20.19
343.029	18.49
343.239	18.36
343.45	18.15
343.661	18.22
343.872	17.52
344.082	18.93
344.293	20.71
344.504	19.57
344.714	18.92
344.925	17.99
345.136	18.97
345.346	20.45
345.557	19.26
345.768	20.46
345.978	20.28
346.189	21.68
346.399	20.13
346.61	20.13
346.821	21.51
347.031	21.67
347.242	22.46
347.452	21.02
347.663	20.03
347.873	20.72
348.084	19.12
348.294	20.45
348.504	19.71
348.715	20.51
348.925	20.25
349.136	20.05
349.346	20.36
349.557	21.36
349.767	21.78
349.977	23.14
350.188	23.1
350.398	24.1
350.608	22.57
350.819	23.99
351.029	23.69
351.239	25.29
351.449	25.9
351.66	27.84
351.87	27.06
352.08	27.58
352.29	26.72
352.501	26.21
352.711	26.79
352.921	26.08
353.131	24.81
353.341	23.85
353.552	21.92
353.762	20.12
353.972	18.18
354.182	18.34
354.392	17.54
354.602	18.66
354.812	19.25
355.022	18.11
355.232	18.27
355.442	18.18
355.652	19.27
355.862	19.74
356.072	20.08
356.282	20.4
356.492	20.89
356.702	22.38
356.912	21.85
357.122	22.04
357.332	23.35
357.542	22.14
357.752	22.67
357.962	22
358.171	21.52
358.381	20.55
358.591	20.74
358.801	19.5
359.011	18.47
359.221	19.4
359.43	18.8
359.64	18.13
359.85	20.82
360.06	20.81
360.269	21.99
360.479	21.36
360.689	22.03
360.899	22.03
361.108	22.21
361.318	22.19
361.528	20.91
361.737	20.79
361.947	20.21
362.156	19.54
362.366	19.28
362.576	18.05
362.785	18.65
362.995	18.47
363.204	17.83
363.414	17.56
363.623	18.01
363.833	18.6
364.042	18.31
364.252	17.54
364.461	16.98
364.671	17.67
364.88	18.55
365.09	17.34
365.299	16.63
365.509	16.26
365.718	16.99
365.927	16.6
366.137	16.38
366.346	18.39
366.555	19.26
366.765	20.18
366.974	18.75
367.183	18.42
367.393	18.62
367.602	19.18
367.811	19.42
368.021	18.88
368.23	18.63
368.439	19.24
368.648	17.22
368.857	16.74
369.067	15.99
369.276	16.29
369.485	15.58
369.694	15.83
369.903	15.24
370.112	15.55
370.321	15.73
370.531	16.93
370.74	16.19
370.949	16.26
371.158	16.82
371.367	16.5
371.576	17.25
371.785	18.18
371.994	18.31
372.203	18.09
372.412	17.73
372.621	17.62
372.83	17.14
373.039	17.25
373.248	17.66
373.457	17
373.666	17.66
373.874	17.46
374.083	16.54
374.292	15.82
374.501	16.21
374.71	16.09
374.919	15.67
375.128	15.23
375.336	15.73
375.545	15.39
375.754	15.47
375.963	15.45
376.171	15.06
376.38	15.19
376.589	15.27
376.798	14.88
377.006	14.87
377.215	15.47
377.424	15.72
377.632	14.84
377.841	14.75
378.05	14.67
378.258	14.2
378.467	13.45
378.675	12.7
378.884	12.63
379.093	12.94
379.301	13.43
379.51	13.23
379.718	12.96
379.927	14.12
380.135	14.34
380.344	14.18
380.552	14.45
380.761	15.08
380.969	15.47
381.177	16
381.386	15.81
381.594	14.88
381.803	14.26
382.011	13.76
382.219	13.04
382.428	11.98
382.636	12.37
382.845	11.7
383.053	11.43
383.261	11.75
383.469	12.2
383.678	12.39
383.886	11.94
384.094	12.34
384.302	11.7
384.511	11.68
384.719	11.67
384.927	11.43
385.135	11.23
385.343	10.66
385.552	10.55
385.76	9.64
385.968	9.16
386.176	9.8
386.384	9.37
386.592	9.87
386.8	9.94
387.008	10.17
387.216	9.96
387.424	10.05
387.633	10.57
387.841	10.51
388.049	11.03
388.257	11.12
388.465	11.06
388.672	11.26
388.88	11.16
389.088	10.46
389.296	10.78
389.504	10.76
389.712	11.16
389.92	10.88
390.128	10.97
390.336	10.91
390.544	11.08
390.751	10.85
390.959	10.67
391.167	10.3
391.375	10.35
391.583	9.87
391.79	9.71
391.998	9.24
392.206	9.39
392.414	9.04
392.621	8.6
392.829	8.43
393.037	8.5
393.244	8.41
393.452	9.05
393.66	8.91
393.867	8.97
394.075	8.96
394.283	9.15
394.49	8.86
394.698	8.63
394.905	8.68
395.113	8.36
395.32	8
395.528	7.88
395.735	7.57
395.943	7.46
396.15	7.39
396.358	7.56
396.565	7.55
396.773	7.66
396.98	8.13
397.188	8.43
397.395	8.39
397.602	8.84
397.81	8.96
398.017	9.25
398.225	9.18
398.432	9.24
398.639	8.82
398.847	9
399.054	9.09
399.261	8.97
399.468	8.61
399.676	8.71
399.883	8.77
400.09	8.48
400.297	7.87
400.505	8.09
400.712	8.31
400.919	8.31
401.126	7.8
401.333	8.04
401.54	7.48
401.748	7.74
401.955	7.85
402.162	7.87
402.369	8.06
402.576	8.58
402.783	8.45
402.99	8.3
403.197	8.67
403.404	9.05
403.611	8.83
403.818	9.33
404.025	8.78
404.232	8.95
404.439	8.61
404.646	8.7
404.853	8.45
405.06	8.57
405.267	8.73
405.474	8.57
405.681	8.35
405.887	8.23
406.094	8.1
406.301	8.47
406.508	8.6
406.715	8.68
406.922	8.54
407.128	8.57
407.335	8.2
407.542	7.94
407.749	8.06
407.955	8.01
408.162	8.09
408.369	8.17
408.575	7.97
408.782	7.68
408.989	7.51
409.195	7.42
409.402	7.26
409.609	7.59
409.815	7.79
410.022	7.33
410.228	7.5
410.435	7.23
410.642	7.15
410.848	7.43
411.055	7.43
411.261	7.46
411.468	7.63
411.674	7.86
411.881	7.65
412.087	7.89
412.294	8.12
412.5	7.78
412.706	8.02
412.913	7.93
413.119	8.17
413.326	8
413.532	8.22
413.738	8.15
413.945	8.02
414.151	8.33
414.357	8.01
414.564	8.28
414.77	8.53
414.976	8.67
415.182	8.67
415.389	8.06
415.595	8.36
415.801	8.51
416.007	8.94
416.214	8.57
416.42	8.57
416.626	8.29
416.832	8.25
417.038	8.27
417.244	8.19
417.45	8.35
417.657	8.53
417.863	8.64
418.069	8.47
418.275	8.2
418.481	8.59
418.687	8.4
418.893	8.71
419.099	8.58
419.305	8.58
419.511	8.43
419.717	8.34
419.923	8.25
420.129	7.91
420.335	7.98
420.541	7.75
420.746	7.49
420.952	7.61
421.158	7.44
421.364	7.47
421.57	7.34
421.776	7.41
421.982	7.43
422.187	7.4
422.393	7.59
422.599	7.48
422.805	7.77
423.01	7.8
423.216	7.85
423.422	7.93
423.628	7.8
423.833	7.95
424.039	7.98
424.245	7.88
424.45	7.85
424.656	7.77
424.862	7.82
425.067	7.74
425.273	7.84
425.478	7.73
425.684	7.72
425.889	7.75
426.095	7.68
426.301	7.62
426.506	7.81
426.712	7.81
426.917	7.81
427.123	7.67
427.328	7.56
427.533	7.54
427.739	7.48
427.944	7.49
428.15	7.64
428.355	7.56
428.561	7.56
428.766	7.42
428.971	7.61
429.177	7.37
429.382	7.4
429.587	7.5
429.793	7.4
429.998	7.43
430.203	7.18
430.408	7.07
430.614	7.11
430.819	6.98
431.024	6.72
431.229	6.62
431.434	6.93
431.64	6.9
431.845	6.8
432.05	6.67
432.255	6.54
432.46	6.66
432.665	6.69
432.87	6.67
433.076	6.75
433.281	6.91
433.486	7.12
433.691	7.07
433.896	7.13
434.101	7.08
434.306	7.36
434.511	7.51
434.716	7.4
434.921	7.35
435.126	7.26
435.331	7.19
435.535	7.2
435.74	6.98
435.945	7.01
436.15	7.3
436.355	7.44
436.56	7.29
436.765	7.52
436.97	7.56
437.174	7.62
437.379	7.8
437.584	7.86
437.789	7.91
437.993	8.05
438.198	7.91
438.403	7.69
438.608	7.61
438.812	7.53
439.017	7.27
439.222	7.27
439.426	7.19
439.631	7.16
439.836	7.3
440.04	7.36
440.245	7.38
440.45	7.44
440.654	7.42
440.859	7.46
441.063	7.45
441.268	7.4
441.472	7.48
441.677	7.47
441.881	7.42
442.086	7.16
442.29	7.02
442.495	6.99
442.699	6.8
442.904	6.73
443.108	6.63
443.312	6.72
443.517	6.82
443.721	6.85
443.925	6.86
444.13	6.84
444.334	6.93
444.538	6.95
444.743	6.93
444.947	7.25
445.151	7.28
445.356	7.38
445.56	7.42
445.764	7.26
445.968	7.26
446.173	7.26
446.377	7.3
446.581	7.38
446.785	7.45
446.989	7.34
447.193	7.19
447.398	7.05
447.602	7.05
447.806	6.96
448.01	7.1
448.214	7.06
448.418	7.14
448.622	7.17
448.826	7.13
449.03	6.96
449.234	6.98
449.438	7.11
449.642	7.05
449.846	6.94
450.05	7.03
450.254	7.03
450.458	6.93
450.662	6.71
450.866	6.68
451.069	6.62
451.273	6.6
451.477	6.62
451.681	6.43
451.885	6.62
452.089	6.72
452.292	6.56
452.496	6.39
452.7	6.32
452.904	6.66
453.107	6.56
453.311	6.64
453.515	6.68
453.719	6.74
453.922	6.84
454.126	6.95
454.33	6.91
454.533	6.87
454.737	7.1
454.94	7.17
455.144	7.09
455.348	7.13
455.551	7.15
455.755	6.9
455.958	6.76
456.162	6.5
456.365	6.25
456.569	6.33
456.772	6.4
456.976	6.29
457.179	6.31
457.383	6.02
457.586	6.12
457.79	5.89
457.993	6.15
458.196	6.14
458.4	6.51
458.603	6.68
458.807	6.75
459.01	6.84
459.213	6.97
459.417	7.08
459.62	7.18
459.823	7.17
460.026	7.2
460.23	7.17
460.433	7.25
460.636	7.13
460.839	7.06
461.042	6.94
461.246	6.88
461.449	6.86
461.652	6.7
