Data from 2937885_Reflection_1.txt Node
Date: Wed Jul 15 14:34:23 EDT 2015
User: robert
Spectrometer: USB4E03001
Autoset integration time: false
Trigger mode: 4
Integration Time (sec): 1.000000E-1
Scans to average: 10
Electric dark correction enabled: true
Nonlinearity correction enabled: false
Boxcar width: 5
Stray light correction enabled: false
XAxis mode: Wavelengths
Stop averaging: false
Number of Pixels in Spectrum: 3648
>>>>>Begin Spectral Data<<<<<
177.566	858.86
177.785	220.45
178.005	55.31
178.225	-17.29
178.445	-16.13
178.665	3.71
178.885	-186.3
179.105	93.83
179.324	64.39
179.544	126.34
179.764	-1.71
179.984	11.35
180.204	19.44
180.423	41.39
180.643	-30.22
180.863	-63.92
181.083	-81.54
181.302	-38.86
181.522	-17.47
181.742	-12.08
181.961	-56.64
182.181	-54.34
182.401	-446.08
182.621	-241.34
182.84	-165.65
183.06	-61.68
183.279	-18.3
183.499	7.74
183.719	-417.16
183.938	-255.66
184.158	-283.39
184.377	-33.48
184.597	-39.64
184.816	6.21
185.036	-2.88
185.256	1.31
185.475	30.4
185.695	27.27
185.914	62.07
186.134	78.07
186.353	63.63
186.572	30.68
186.792	-36.19
187.011	-346.28
187.231	919.62
187.45	200.4
187.67	681.85
187.889	-1288.44
188.108	-236.89
188.328	-1327.64
188.547	-2969.91
188.766	-667.18
188.986	-368.62
189.205	11.7
189.424	9.75
189.644	56.37
189.863	75.08
190.082	118.3
190.302	89.23
190.521	82.91
190.74	75.34
190.959	100.51
191.178	102.94
191.398	89.22
191.617	72.57
191.836	90.94
192.055	96.01
192.274	97.63
192.494	81.74
192.713	114.03
192.932	81.6
193.151	106.34
193.37	73.05
193.589	125.41
193.808	11.83
194.027	106.07
194.246	149.95
194.465	137.11
194.685	117.58
194.904	97.22
195.123	79.3
195.342	67.33
195.561	86.7
195.78	43.35
195.999	62.83
196.218	-2.7
196.436	-85.91
196.655	-388.93
196.874	6331.51
197.093	-68.77
197.312	-92.33
197.531	64.53
197.75	0.32
197.969	-21.96
198.188	98.55
198.407	14.52
198.625	226.89
198.844	-667.73
199.063	442.72
199.282	-387.18
199.501	11.7
199.719	-28.96
199.938	-84.21
200.157	-47.11
200.376	-82.43
200.594	-108.7
200.813	891.75
201.032	-371.47
201.251	1196.54
201.469	-480.56
201.688	837.27
201.907	289.79
202.125	479.74
202.344	518.42
202.563	556.53
202.781	552.42
203	-7793.75
203.218	-488.57
203.437	-833.33
203.656	-267.5
203.874	-280.07
204.093	-129.76
204.311	-92.28
204.53	-50.13
204.748	-32.4
204.967	-29.41
205.185	-16.38
205.404	-33.32
205.622	-55.99
205.841	-20.43
206.059	-10.57
206.278	7.68
206.496	14.98
206.715	23.1
206.933	27.38
207.151	9.36
207.37	12.1
207.588	-2.16
207.806	21.26
208.025	28.14
208.243	-0.15
208.461	-33.07
208.68	-193.82
208.898	-146.89
209.116	-190.3
209.335	-440.31
209.553	0.9
209.771	24.89
209.989	82.99
210.208	55.02
210.426	71.88
210.644	65.36
210.862	83.48
211.081	81.21
211.299	80.06
211.517	35.81
211.735	5.05
211.953	-19.92
212.171	-57.54
212.39	-280.92
212.608	-87.88
212.826	-81.1
213.044	-134.02
213.262	-84.28
213.48	-155.25
213.698	-112.51
213.916	-55.02
214.134	-68.45
214.352	-66.04
214.57	-55.59
214.788	-61.88
215.006	-56.28
215.224	-16.67
215.442	-7.61
215.66	3.59
215.878	12.72
216.096	15.54
216.314	-13.25
216.532	-28.44
216.75	31
216.968	59.27
217.185	120.78
217.403	78.37
217.621	89.5
217.839	129.97
218.057	130.03
218.275	118.79
218.492	71.64
218.71	38.6
218.928	56.92
219.146	28.5
219.363	1.1
219.581	0.96
219.799	-23.89
220.017	-49.33
220.234	-83.64
220.452	-63.24
220.67	-49.41
220.887	-141.82
221.105	-78.38
221.323	-177.1
221.54	-223.04
221.758	-77.23
221.976	-189.65
222.193	-38.41
222.411	-23.34
222.629	-0.7
222.846	26.1
223.064	15.98
223.281	25.37
223.499	36.28
223.716	34.87
223.934	46.57
224.151	31.19
224.369	44.46
224.586	41.81
224.804	43.86
225.021	39.75
225.239	27.74
225.456	32.34
225.674	33.6
225.891	30.87
226.108	40.08
226.326	13.95
226.543	17.68
226.76	9.15
226.978	11.07
227.195	12.82
227.413	10.93
227.63	19.38
227.847	19.86
228.064	27.7
228.282	30.73
228.499	28.05
228.716	28.62
228.934	28.26
229.151	25.33
229.368	25.04
229.585	25.14
229.802	26.69
230.02	24.1
230.237	23.5
230.454	18.65
230.671	15.47
230.888	13.98
231.105	13.71
231.323	19.38
231.54	24.53
231.757	27.4
231.974	22.21
232.191	25.1
232.408	29.29
232.625	27.3
232.842	28.83
233.059	27.32
233.276	25.53
233.493	24.8
233.71	13.58
233.927	10.09
234.144	10.28
234.361	20.02
234.578	17.47
234.795	12.19
235.012	11.71
235.229	12.07
235.446	15.59
235.663	16.94
235.879	16.69
236.096	16.98
236.313	18.33
236.53	12.64
236.747	14.19
236.964	7.43
237.181	16.69
237.397	22.78
237.614	22.85
237.831	26.86
238.048	26.89
238.264	24.66
238.481	32
238.698	29.25
238.915	30.41
239.131	23.26
239.348	27.84
239.565	23.22
239.781	20.31
239.998	20.94
240.215	16.67
240.431	17.77
240.648	19.03
240.865	13.43
241.081	14.97
241.298	17.2
241.514	18.37
241.731	15.01
241.947	14.2
242.164	13.79
242.38	13.26
242.597	13.25
242.814	11.09
243.03	12.68
243.246	12.23
243.463	11.69
243.679	8.91
243.896	9.44
244.112	10.86
244.329	10.79
244.545	10.4
244.762	10.24
244.978	11.71
245.194	14.42
245.411	11.33
245.627	14.65
245.843	15.19
246.06	14.12
246.276	11.92
246.492	10.95
246.709	11.2
246.925	10.83
247.141	10.98
247.357	9.59
247.574	9
247.79	9.31
248.006	9.06
248.222	9.15
248.439	9.96
248.655	10.89
248.871	11.81
249.087	11.65
249.303	13.03
249.519	13.58
249.736	16.2
249.952	17.44
250.168	15.86
250.384	16.05
250.6	15.68
250.816	18.74
251.032	19.79
251.248	17.78
251.464	16.16
251.68	16.36
251.896	15.31
252.112	13.27
252.328	13.28
252.544	16.54
252.76	16.42
252.976	15.84
253.192	13.81
253.408	12.59
253.624	13.61
253.84	13.64
254.056	13.95
254.272	14.74
254.487	14.03
254.703	11.42
254.919	8.51
255.135	5.81
255.351	4.96
255.567	5.01
255.782	3.95
255.998	4.17
256.214	5.38
256.43	2.24
256.646	-1.77
256.861	0.96
257.077	1.01
257.293	3.89
257.508	4.85
257.724	4.23
257.94	5.27
258.155	7.46
258.371	7.88
258.587	9.1
258.802	8.84
259.018	10.2
259.234	10.71
259.449	11
259.665	9.27
259.88	8.43
260.096	10.48
260.312	10.38
260.527	10.03
260.743	9.66
260.958	9.22
261.174	9.92
261.389	10.1
261.605	9.02
261.82	8.86
262.036	9.49
262.251	11.08
262.466	8.23
262.682	6.23
262.897	6.14
263.113	6.58
263.328	7.86
263.543	6.14
263.759	6.81
263.974	7.94
264.189	7.41
264.405	6.65
264.62	8.34
264.835	10.24
265.051	12.06
265.266	11.11
265.481	10.33
265.696	8.66
265.912	9.47
266.127	7.6
266.342	5.67
266.557	6.99
266.773	8.36
266.988	7.91
267.203	7.99
267.418	8.87
267.633	7.84
267.848	9.34
268.064	8.51
268.279	8.79
268.494	11.42
268.709	12.23
268.924	12.54
269.139	13.41
269.354	10.89
269.569	10.56
269.784	7.68
269.999	9.57
270.214	8.7
270.429	7.72
270.644	7.65
270.859	5.48
271.074	6.52
271.289	6.56
271.504	5.82
271.719	6.51
271.934	5.49
272.149	6.86
272.363	6.62
272.578	4.25
272.793	5.26
273.008	5.92
273.223	6.69
273.438	6.71
273.653	6.26
273.867	8.61
274.082	9.76
274.297	9.27
274.512	9.98
274.726	8.38
274.941	10.22
275.156	11.91
275.371	10.25
275.585	8.37
275.8	7.27
276.015	7.34
276.229	3.88
276.444	1.58
276.659	0.56
276.873	-0.57
277.088	0.68
277.302	0.85
277.517	0.01
277.732	-0.13
277.946	-0.02
278.161	-0.08
278.375	-0.75
278.59	-0.43
278.804	0.65
279.019	4.29
279.233	6.12
279.448	4.46
279.662	5.08
279.877	3.7
280.091	4.07
280.306	5.43
280.52	5.93
280.735	4.78
280.949	6.26
281.163	7.35
281.378	6.51
281.592	4.87
281.806	6.91
282.021	6.95
282.235	8.08
282.449	8.48
282.664	8.49
282.878	8.98
283.092	10.96
283.307	10.27
283.521	10.38
283.735	11.02
283.949	10.54
284.164	10.37
284.378	9.88
284.592	10.15
284.806	10.87
285.02	10.43
285.234	8.36
285.449	7.74
285.663	7.54
285.877	7.56
286.091	6.52
286.305	8.83
286.519	9.1
286.733	9.11
286.947	8.07
287.161	7.72
287.375	8.65
287.589	10.44
287.803	9.72
288.017	10.26
288.231	9.96
288.445	11.36
288.659	9.22
288.873	7.78
289.087	7.05
289.301	6.76
289.515	5.42
289.729	4.2
289.943	4.65
290.157	6.47
290.371	5.66
290.584	5.07
290.798	3.77
291.012	3.34
291.226	3.44
291.44	2.17
291.654	3.78
291.867	4.9
292.081	4.71
292.295	3.22
292.509	2.99
292.722	5.49
292.936	6.25
293.15	8.26
293.364	11.17
293.577	11.38
293.791	13.38
294.005	11.18
294.218	10.8
294.432	9.67
294.645	9.64
294.859	9.04
295.073	8.89
295.286	8.52
295.5	7.26
295.713	6.29
295.927	6.41
296.14	7.73
296.354	9.7
296.568	10.39
296.781	12.01
296.994	13.46
297.208	12.82
297.421	11.69
297.635	12.46
297.848	12.39
298.062	11.92
298.275	13.41
298.489	13.25
298.702	12.41
298.915	11.44
299.129	11.45
299.342	10.65
299.555	12.19
299.769	11.4
299.982	11.2
300.195	11.88
300.409	12.14
300.622	12.75
300.835	12.56
301.048	13.64
301.262	16
301.475	16
301.688	16.49
301.901	15.16
302.115	16.34
302.328	15.78
302.541	14.33
302.754	13.09
302.967	11.15
303.18	10.17
303.393	9.35
303.607	7.56
303.82	4.92
304.033	3.9
304.246	2.11
304.459	1.54
304.672	1.44
304.885	3.15
305.098	3.41
305.311	5.72
305.524	6.21
305.737	5.61
305.95	6.4
306.163	9.38
306.376	10.16
306.589	13.51
306.802	14.05
307.015	12.91
307.228	13.47
307.44	15.36
307.653	13.78
307.866	13.94
308.079	13.47
308.292	12.69
308.505	12.51
308.718	12.51
308.93	11.54
309.143	9.78
309.356	11.28
309.569	10.97
309.781	11.21
309.994	9.94
310.207	11.26
310.42	12.68
310.632	13.54
310.845	13.39
311.058	13.17
311.27	12.37
311.483	13.45
311.696	13.22
311.908	13.4
312.121	12.58
312.333	11.91
312.546	10.97
312.759	11.18
312.971	11.14
313.184	10.15
313.396	11.21
313.609	12.45
313.821	13.45
314.034	13.93
314.246	13.17
314.459	14.25
314.671	14.58
314.884	14.42
315.096	14.49
315.309	14.46
315.521	16.22
315.733	15.31
315.946	13.78
316.158	14.3
316.371	13.26
316.583	13.89
316.795	12.48
317.008	12.29
317.22	13.54
317.432	12.85
317.644	13.47
317.857	11.22
318.069	11.7
318.281	12.38
318.494	10.91
318.706	11.93
318.918	11.1
319.13	11.99
319.342	13.88
319.555	12.01
319.767	9.63
319.979	9.38
320.191	10.43
320.403	8.6
320.615	7.35
320.827	6.62
321.039	7.53
321.252	9.43
321.464	10.5
321.676	10.28
321.888	9.36
322.1	11.98
322.312	10.9
322.524	11.8
322.736	12.47
322.948	13.36
323.16	14.73
323.372	13.08
323.584	11.48
323.796	9.46
324.007	9.63
324.219	10.82
324.431	11.41
324.643	11.29
324.855	12.67
325.067	11.84
325.279	11.11
325.491	12.27
325.702	11.55
325.914	10.34
326.126	10.58
326.338	9.09
326.55	10.22
326.761	8.8
326.973	8.72
327.185	9.07
327.396	10.7
327.608	10.5
327.82	7.76
328.032	9.73
328.243	10.73
328.455	11.25
328.666	12.65
328.878	11.85
329.09	11.7
329.301	11.73
329.513	8.37
329.725	7.47
329.936	8.39
330.148	9.85
330.359	8.78
330.571	11.24
330.782	12.23
330.994	10.42
331.205	9.96
331.417	9.51
331.628	9.39
331.84	10.97
332.051	12.03
332.262	11.82
332.474	11.27
332.685	11.02
332.897	9.14
333.108	7.72
333.319	8.57
333.531	9.64
333.742	10.05
333.953	9.47
334.165	10.13
334.376	9.21
334.587	9.17
334.799	9.81
335.01	10.27
335.221	10.06
335.432	9.94
335.644	10.11
335.855	9.93
336.066	11.6
336.277	12.62
336.488	12.04
336.7	12.76
336.911	12.72
337.122	12.65
337.333	11.45
337.544	12.08
337.755	12.12
337.966	13.15
338.177	12.13
338.388	11.35
338.599	11.44
338.811	12.24
339.022	12.77
339.233	14.69
339.444	14.13
339.655	15.38
339.866	16.09
340.076	16.23
340.287	16.07
340.498	16.65
340.709	16.64
340.92	16.76
341.131	16.32
341.342	15.64
341.553	15.26
341.764	14.34
341.975	14.78
342.185	14.38
342.396	14.77
342.607	14.36
342.818	13.4
343.029	13.82
343.239	13.92
343.45	14.51
343.661	13.27
343.872	13.33
344.082	14.87
344.293	13.85
344.504	12.57
344.714	12.69
344.925	12.89
345.136	13.49
345.346	13.58
345.557	13.55
345.768	13.5
345.978	14.99
346.189	13.9
346.399	13.01
346.61	13.61
346.821	14.81
347.031	15.21
347.242	14.8
347.452	14.44
347.663	13.5
347.873	13.06
348.084	11.55
348.294	11.6
348.504	12.12
348.715	12.67
348.925	12.85
349.136	12.24
349.346	10.46
349.557	10.63
349.767	10.7
349.977	11.24
350.188	12.11
350.398	12.34
350.608	12.41
350.819	13.07
351.029	12.96
351.239	13.33
351.449	14.22
351.66	15.04
351.87	15.47
352.08	16.89
352.29	16.43
352.501	15.85
352.711	17.49
352.921	16.64
353.131	16.76
353.341	16.03
353.552	15.07
353.762	14.39
353.972	15.05
354.182	15.64
354.392	15.21
354.602	15.66
354.812	15.24
355.022	13.82
355.232	14.3
355.442	14.25
355.652	14.61
355.862	14.45
356.072	13.93
356.282	13.39
356.492	13.24
356.702	12.21
356.912	11.31
357.122	12.07
357.332	12.58
357.542	12.18
357.752	10.65
357.962	10.59
358.171	11.01
358.381	10.89
358.591	10.06
358.801	9.49
359.011	9.59
359.221	9.72
359.43	9.63
359.64	8.62
359.85	9
360.06	9.93
360.269	9.46
360.479	9.56
360.689	9.52
360.899	10.16
361.108	9.91
361.318	10.29
361.528	10.31
361.737	9.71
361.947	10.17
362.156	9.73
362.366	9.12
362.576	8.93
362.785	8.23
362.995	8.52
363.204	8.27
363.414	8.2
363.623	7.88
363.833	8.03
364.042	8.09
364.252	8.11
364.461	8.58
364.671	9.25
364.88	9.92
365.09	10.09
365.299	11.18
365.509	11.19
365.718	11.75
365.927	12.29
366.137	11.54
366.346	11.15
366.555	11.56
366.765	11.46
366.974	10.83
367.183	10.83
367.393	10.26
367.602	9.3
367.811	9.2
368.021	8.49
368.23	8.09
368.439	9.02
368.648	9.27
368.857	9.11
369.067	8.25
369.276	8.03
369.485	7.85
369.694	8.82
369.903	8.29
370.112	9.1
370.321	9.31
370.531	9.25
370.74	9.22
370.949	8.44
371.158	7.66
371.367	8.31
371.576	9.07
371.785	8.43
371.994	8.37
372.203	8.76
372.412	8.44
372.621	8.65
372.83	8.5
373.039	8.32
373.248	8.94
373.457	9.22
373.666	9.97
373.874	9.48
374.083	10.5
374.292	10.4
374.501	10.52
374.71	10.37
374.919	9.2
375.128	9.62
375.336	9.41
375.545	9.01
375.754	9.68
375.963	9.21
376.171	9.55
376.38	9.68
376.589	10.04
376.798	10.01
377.006	9.66
377.215	10.43
377.424	10.11
377.632	9.88
377.841	10.66
378.05	9.76
378.258	9.37
378.467	8.9
378.675	8.58
378.884	8.52
379.093	8.64
379.301	9.53
379.51	9.57
379.718	9.21
379.927	9.43
380.135	9.22
380.344	9.33
380.552	9.35
380.761	9.48
380.969	9.24
381.177	9.37
381.386	9.39
381.594	9.42
381.803	9.85
382.011	10.29
382.219	10.56
382.428	10.06
382.636	9.72
382.845	9.66
383.053	10.28
383.261	10.43
383.469	10.18
383.678	9.64
383.886	9.31
384.094	8.45
384.302	8.69
384.511	8.35
384.719	8.46
384.927	8.27
385.135	7.99
385.343	7.75
385.552	8.43
385.76	8.1
385.968	7.83
386.176	7.69
386.384	8.46
386.592	8.28
386.8	8.32
387.008	8.55
387.216	8.69
387.424	8.76
387.633	8.65
387.841	8.2
388.049	8.27
388.257	9.01
388.465	8.88
388.672	8.02
388.88	7.6
389.088	7.71
389.296	7.92
389.504	8.5
389.712	8.14
389.92	7.74
390.128	7.66
390.336	7.49
390.544	7.04
390.751	7.26
390.959	7.39
391.167	7.44
391.375	7.39
391.583	6.85
391.79	6.39
391.998	6.61
392.206	6.59
392.414	6.5
392.621	6.8
392.829	6.46
393.037	5.72
393.244	5.97
393.452	6.17
393.66	6.23
393.867	6.7
394.075	6.85
394.283	7.09
394.49	7.33
394.698	7.53
394.905	7.3
395.113	7.79
395.32	8
395.528	8.09
395.735	8.21
395.943	8.03
396.15	7.92
396.358	7.81
396.565	7.69
396.773	7.58
396.98	7.2
397.188	7.26
397.395	7.3
397.602	7.5
397.81	7.59
398.017	7.48
398.225	7.13
398.432	6.78
398.639	7.07
398.847	7.15
399.054	6.91
399.261	6.94
399.468	7.08
399.676	7.23
399.883	7.09
400.09	6.64
400.297	6.39
400.505	6.8
400.712	6.68
400.919	6.66
401.126	6.73
401.333	7.2
401.54	6.59
401.748	6.72
401.955	6.47
402.162	7.15
402.369	7.25
402.576	7.6
402.783	7.27
402.99	7.32
403.197	7.27
403.404	7.1
403.611	7.15
403.818	7.32
404.025	7.11
404.232	6.83
404.439	6.6
404.646	6.3
404.853	5.88
405.06	5.93
405.267	5.97
405.474	5.98
405.681	6.01
405.887	5.64
406.094	6.22
406.301	6.4
406.508	6.52
406.715	6.42
406.922	7
407.128	7.02
407.335	7.13
407.542	7.49
407.749	7.28
407.955	7.06
408.162	7.02
408.369	6.5
408.575	6.34
408.782	6.57
408.989	6.69
409.195	6.64
409.402	6.5
409.609	6.47
409.815	6
410.022	5.86
410.228	5.9
410.435	6.43
410.642	6.64
410.848	6.51
411.055	6.22
411.261	5.81
411.468	5.73
411.674	6.21
411.881	6.28
412.087	6.59
412.294	6.69
412.5	7.16
412.706	6.61
412.913	6.62
413.119	6.6
413.326	6.6
413.532	7.03
413.738	6.92
413.945	6.91
414.151	6.83
414.357	6.78
414.564	6.87
414.77	6.46
414.976	6.52
415.182	6.44
415.389	6.7
415.595	6.96
415.801	6.79
416.007	6.86
416.214	6.78
416.42	6.9
416.626	6.87
416.832	6.97
417.038	6.9
417.244	7.1
417.45	7.22
417.657	7.14
417.863	7.28
418.069	7.34
418.275	6.97
418.481	7.12
418.687	7.08
418.893	7.07
419.099	6.96
419.305	6.96
419.511	6.76
419.717	6.78
419.923	6.6
420.129	6.45
420.335	6.35
420.541	6.6
420.746	6.51
420.952	6.56
421.158	6.44
421.364	6.35
421.57	6.36
421.776	6.44
421.982	6.26
422.187	6.37
422.393	6.33
422.599	6.26
422.805	6.3
423.01	6.17
423.216	5.97
423.422	6.09
423.628	6.36
423.833	6.55
424.039	6.52
424.245	6.65
424.45	6.56
424.656	6.61
424.862	6.81
425.067	6.65
425.273	6.77
425.478	6.82
425.684	6.63
425.889	6.4
426.095	6.2
426.301	6.39
426.506	6.54
426.712	6.65
426.917	6.58
427.123	6.43
427.328	6.49
427.533	6.37
427.739	6.31
427.944	6.65
428.15	6.71
428.355	6.84
428.561	6.5
428.766	6.14
428.971	5.94
429.177	5.86
429.382	5.59
429.587	5.63
429.793	5.51
429.998	5.71
430.203	5.67
430.408	5.71
430.614	5.72
430.819	5.76
431.024	5.82
431.229	5.88
431.434	5.98
431.64	6.04
431.845	6.12
432.05	6.38
432.255	6.41
432.46	6.45
432.665	6.46
432.87	6.33
433.076	6.22
433.281	6.14
433.486	6.22
433.691	6.16
433.896	6.45
434.101	6.35
434.306	6.33
434.511	6.11
434.716	6.04
434.921	5.97
435.126	6.21
435.331	6.28
435.535	6.48
435.74	6.63
435.945	6.59
436.15	6.37
436.355	6.32
436.56	6.09
436.765	6.26
436.97	6.01
437.174	6.18
437.379	5.97
437.584	6.06
437.789	6.12
437.993	5.88
438.198	5.87
438.403	5.94
438.608	5.95
438.812	6.13
439.017	6.15
439.222	6.39
439.426	6.32
439.631	6.23
439.836	6.27
440.04	6.28
440.245	6.23
440.45	6.31
440.654	6.34
440.859	6.41
441.063	6.28
441.268	6.27
441.472	6.24
441.677	6.05
441.881	6.14
442.086	6.08
442.29	5.99
442.495	6
442.699	6.02
442.904	5.83
443.108	5.75
443.312	5.86
443.517	5.82
443.721	5.83
443.925	6.1
444.13	5.98
444.334	5.96
444.538	6.02
444.743	6.1
444.947	6.06
445.151	6.14
445.356	6.14
445.56	6.23
445.764	6.25
445.968	6.13
446.173	6.04
446.377	6.16
446.581	6.17
446.785	6.11
446.989	6.21
447.193	6.21
447.398	6.31
447.602	6.46
447.806	6.32
448.01	6.27
448.214	6.47
448.418	6.62
448.622	6.56
448.826	6.59
449.03	6.55
449.234	6.44
449.438	6.34
449.642	6.25
449.846	6.07
450.05	6.15
450.254	6.27
450.458	6.01
450.662	6.02
450.866	6.2
451.069	6.35
451.273	6.27
451.477	6.23
451.681	6.37
451.885	6.48
452.089	6.44
452.292	6.33
452.496	6.16
452.7	6.23
452.904	5.92
453.107	5.74
453.311	5.73
453.515	5.89
453.719	5.98
453.922	5.92
454.126	5.83
454.33	5.83
454.533	5.69
454.737	5.75
454.94	5.65
455.144	5.73
455.348	5.82
455.551	5.56
455.755	5.69
455.958	5.62
456.162	5.49
456.365	5.35
456.569	5.51
456.772	5.66
456.976	5.6
457.179	5.64
457.383	5.79
457.586	5.69
457.79	5.79
457.993	5.71
458.196	5.69
458.4	5.78
458.603	5.68
458.807	5.53
459.01	5.61
459.213	5.91
459.417	5.68
459.62	5.65
459.823	5.65
460.026	5.59
460.23	5.53
460.433	5.57
460.636	5.65
460.839	5.74
461.042	5.79
461.246	5.68
461.449	5.51
461.652	5.82
461.855	5.76
462.058	5.69
462.261	5.89
462.464	5.93
462.668	5.86
462.871	5.78
463.074	5.86
463.277	5.89
463.48	6.02
463.683	5.91
463.886	5.86
464.089	6.18
464.292	6.36
464.495	6.28
464.698	6.08
464.901	6.1
