Data from 2937839_Reflection_2.txt Node
Date: Wed Jul 15 16:22:42 EDT 2015
User: robert
Spectrometer: USB4E03001
Autoset integration time: false
Trigger mode: 4
Integration Time (sec): 1.000000E-1
Scans to average: 10
Electric dark correction enabled: true
Nonlinearity correction enabled: false
Boxcar width: 5
Stray light correction enabled: false
XAxis mode: Wavelengths
Stop averaging: false
Number of Pixels in Spectrum: 3648
>>>>>Begin Spectral Data<<<<<
177.566	-283.52
177.785	-185.49
178.005	-172.09
178.225	-224.4
178.445	-141.57
178.665	-142.87
178.885	-95.29
179.105	-136.14
179.324	-248.61
179.544	-234.84
179.764	-153.33
179.984	-143.7
180.204	-126.58
180.423	-62.92
180.643	-122.12
180.863	-61.44
181.083	-26.15
181.302	-26.43
181.522	-48.29
181.742	-104.65
181.961	-349.88
182.181	100.88
182.401	67.06
182.621	118.88
182.84	100.44
183.06	122.93
183.279	126.95
183.499	141.04
183.719	178.61
183.938	217.01
184.158	300.71
184.377	1032.78
184.597	-3170.73
184.816	-906.5
185.036	-1166.85
185.256	-212.48
185.475	-221.75
185.695	-255.71
185.914	-210.87
186.134	-9169.64
186.353	270.5
186.572	566.78
186.792	263.83
187.011	1291.19
187.231	111.23
187.45	6.7
187.67	52.88
187.889	17.08
188.108	-53.86
188.328	-194.91
188.547	568.02
188.766	811.46
188.986	-2899.59
189.205	-236.27
189.424	-137.27
189.644	106.06
189.863	161.11
190.082	130.28
190.302	140.96
190.521	101.83
190.74	99.34
190.959	85.17
191.178	47.98
191.398	5.06
191.617	27.34
191.836	67.38
192.055	80.63
192.274	-4.41
192.494	43.82
192.713	20.12
192.932	-16.97
193.151	-24.93
193.37	108.33
193.589	96.94
193.808	102.44
194.027	60.62
194.246	85.2
194.465	62.52
194.685	84.53
194.904	88.48
195.123	74.89
195.342	50.26
195.561	80.35
195.78	-202.15
195.999	-9.46
196.218	54.46
196.436	14.75
196.655	23.41
196.874	50.95
197.093	-35.06
197.312	-27.75
197.531	211.08
197.75	-3.02
197.969	242.54
198.188	44.01
198.407	27.18
198.625	47.14
198.844	46.92
199.063	67.76
199.282	181.96
199.501	-894.62
199.719	-51.97
199.938	-120.41
200.157	1053.88
200.376	-352.98
200.594	0.85
200.813	-21.99
201.032	-81.83
201.251	-33.39
201.469	-62.64
201.688	-69.47
201.907	-124.21
202.125	-1371.19
202.344	1552.78
202.563	2389.82
202.781	-2792.42
203	1494.66
203.218	1107.95
203.437	1426.64
203.656	9675.41
203.874	-1345.57
204.093	1150.14
204.311	-4511.76
204.53	-102.14
204.748	62.29
204.967	126.44
205.185	144.44
205.404	161.52
205.622	131.95
205.841	88.65
206.059	111.36
206.278	161.66
206.496	141.46
206.715	121.3
206.933	86.03
207.151	93.56
207.37	51.77
207.588	29.64
207.806	-151.18
208.025	7.33
208.243	-0
208.461	-318.07
208.68	1101.25
208.898	13.43
209.116	-76.47
209.335	-109.33
209.553	3309.87
209.771	-228.41
209.989	26.92
210.208	109.67
210.426	103.65
210.644	-193.44
210.862	229.89
211.081	1764.85
211.299	-8320
211.517	-52.73
211.735	-563.94
211.953	47.54
212.171	97.97
212.39	-941.04
212.608	-1708.26
212.826	824.21
213.044	391.4
213.262	-417.67
213.48	122.6
213.698	310.11
213.916	134.6
214.134	-167.42
214.352	-3.83
214.57	80.67
214.788	5.26
215.006	29.07
215.224	-1.27
215.442	38.38
215.66	-26.76
215.878	-62.66
216.096	-151.09
216.314	634.08
216.532	670.31
216.75	179.61
216.968	216.52
217.185	149.99
217.403	160.25
217.621	107.94
217.839	95.02
218.057	238.97
218.275	276.38
218.492	-7.19
218.71	-76.61
218.928	9.08
219.146	5.67
219.363	-211.82
219.581	-111.79
219.799	-123.54
220.017	-50.04
220.234	12.79
220.452	54.89
220.67	85.05
220.887	107.91
221.105	130.28
221.323	204.83
221.54	136.66
221.758	133.62
221.976	151.22
222.193	172.42
222.411	127.47
222.629	114.62
222.846	93.35
223.064	76.36
223.281	86.25
223.499	95.75
223.716	74.45
223.934	91.95
224.151	74.49
224.369	70.16
224.586	63.56
224.804	85.94
225.021	76.93
225.239	79.71
225.456	68.34
225.674	62.68
225.891	61.63
226.108	48.71
226.326	29.74
226.543	31.67
226.76	38.53
226.978	26.86
227.195	13.64
227.413	21.38
227.63	14.56
227.847	19.75
228.064	13.92
228.282	13.72
228.499	14.6
228.716	12.73
228.934	13.93
229.151	10.1
229.368	13.1
229.585	14.47
229.802	11.14
230.02	9.13
230.237	7.99
230.454	10.45
230.671	12.63
230.888	13.72
231.105	13.77
231.323	12.71
231.54	11.47
231.757	8.98
231.974	11.54
232.191	14.09
232.408	18.21
232.625	15.41
232.842	17.5
233.059	12.9
233.276	16.28
233.493	16.8
233.71	22
233.927	29.43
234.144	27.54
234.361	19.77
234.578	20.4
234.795	20.13
235.012	26.73
235.229	25.14
235.446	28.07
235.663	28.58
235.879	32
236.096	21.62
236.313	14.54
236.53	23.26
236.747	28.63
236.964	24.36
237.181	20.85
237.397	7.69
237.614	1.47
237.831	-1.98
238.048	-8.81
238.264	1.38
238.481	5.41
238.698	9.74
238.915	5.3
239.131	5.84
239.348	8.16
239.565	8.32
239.781	12.28
239.998	15.25
240.215	18.26
240.431	20.44
240.648	14.62
240.865	15.68
241.081	17.36
241.298	19.9
241.514	18.03
241.731	16.57
241.947	16.05
242.164	17.1
242.38	16.55
242.597	15.06
242.814	13.5
243.03	12.81
243.246	11.79
243.463	8.84
243.679	6.85
243.896	6.56
244.112	9.22
244.329	9.21
244.545	8.44
244.762	6.94
244.978	9.64
245.194	12.97
245.411	12.35
245.627	15.57
245.843	17.24
246.06	15.7
246.276	15.96
246.492	15.1
246.709	14.52
246.925	14.22
247.141	15.43
247.357	13.69
247.574	13.71
247.79	14.61
248.006	14.27
248.222	14.01
248.439	13.89
248.655	12.98
248.871	12.82
249.087	13.31
249.303	14.21
249.519	13.73
249.736	16.27
249.952	16.48
250.168	17.93
250.384	16.98
250.6	18.52
250.816	20.39
251.032	23.25
251.248	22.26
251.464	22.45
251.68	21.31
251.896	20.5
252.112	19.1
252.328	17.94
252.544	17.55
252.76	18.88
252.976	18.31
253.192	18.67
253.408	16.36
253.624	18.34
253.84	15.97
254.056	15.02
254.272	14.5
254.487	13.93
254.703	13.42
254.919	8.34
255.135	3.46
255.351	5.27
255.567	1.18
255.782	5.73
255.998	4.39
256.214	9.83
256.43	10.53
256.646	11.58
256.861	11.09
257.077	11.59
257.293	19.27
257.508	18.58
257.724	17.98
257.94	18.46
258.155	15.22
258.371	15.66
258.587	14.32
258.802	12.91
259.018	12.07
259.234	12.71
259.449	12.88
259.665	10.55
259.88	11.55
260.096	11.05
260.312	10.33
260.527	10.58
260.743	10.21
260.958	10.22
261.174	11.47
261.389	11.97
261.605	11.48
261.82	10.9
262.036	10.29
262.251	8.84
262.466	9
262.682	8.52
262.897	7.62
263.113	7.04
263.328	5.27
263.543	1.31
263.759	2.47
263.974	-0.01
264.189	-1.05
264.405	-1.72
264.62	2.18
264.835	1.21
265.051	1.29
265.266	5.46
265.481	5.87
265.696	6.92
265.912	8.34
266.127	5.81
266.342	8.21
266.557	8.42
266.773	10.44
266.988	7.25
267.203	6.68
267.418	7.59
267.633	6.15
267.848	6.56
268.064	6.8
268.279	7.15
268.494	8.92
268.709	8.02
268.924	8.58
269.139	9.58
269.354	12.37
269.569	12.45
269.784	12.61
269.999	12.41
270.214	11.44
270.429	13.68
270.644	14.13
270.859	14.07
271.074	14.25
271.289	14.29
271.504	12.88
271.719	10.71
271.934	10.91
272.149	10.18
272.363	9.56
272.578	8.64
272.793	6.81
273.008	6.6
273.223	5.56
273.438	5.38
273.653	5.84
273.867	5.61
274.082	6.66
274.297	6.49
274.512	7.61
274.726	7.62
274.941	9.27
275.156	9.31
275.371	9.47
275.585	9.83
275.8	10.33
276.015	10.08
276.229	10.09
276.444	9.95
276.659	11.53
276.873	11.33
277.088	12.4
277.302	11.91
277.517	11.86
277.732	11.84
277.946	12.17
278.161	11.37
278.375	9
278.59	8.44
278.804	7.07
279.019	5.41
279.233	5.65
279.448	4.39
279.662	5.64
279.877	6.11
280.091	6.16
280.306	6.67
280.52	8.52
280.735	9.58
280.949	10.15
281.163	11.36
281.378	11.43
281.592	10.08
281.806	10.34
282.021	10.1
282.235	9.98
282.449	10.04
282.664	9.37
282.878	8.43
283.092	9.84
283.307	10.24
283.521	11.08
283.735	11.21
283.949	11.11
284.164	11.56
284.378	11.31
284.592	11.6
284.806	11.44
285.02	11.55
285.234	11.62
285.449	10.59
285.663	9.46
285.877	8.29
286.091	7.95
286.305	9.52
286.519	10.35
286.733	10.19
286.947	9.46
287.161	9.57
287.375	8.88
287.589	8.57
287.803	8.77
288.017	9.18
288.231	9.2
288.445	8.94
288.659	7.17
288.873	5.89
289.087	6.16
289.301	6.84
289.515	7.7
289.729	8.22
289.943	8.3
290.157	10.02
290.371	12.05
290.584	11.79
290.798	12.25
291.012	12.93
291.226	12.37
291.44	11.5
291.654	10.43
291.867	9.17
292.081	9.6
292.295	10.74
292.509	9.39
292.722	9.29
292.936	9.96
293.15	10.82
293.364	10.35
293.577	10.05
293.791	13
294.005	14.73
294.218	15.83
294.432	16.78
294.645	16.65
294.859	15.85
295.073	15.76
295.286	16.11
295.5	14.13
295.713	13.71
295.927	14.26
296.14	12.33
296.354	11.38
296.568	10.19
296.781	9.27
296.994	8.67
297.208	8.83
297.421	7.64
297.635	7.66
297.848	8.78
298.062	9.44
298.275	8.81
298.489	9.12
298.702	9.81
298.915	9.69
299.129	10.49
299.342	10.57
299.555	10.32
299.769	10.71
299.982	9.43
300.195	9.59
300.409	8.86
300.622	9.49
300.835	9.09
301.048	9.61
301.262	12.03
301.475	10.19
301.688	7.81
301.901	8.68
302.115	10.06
302.328	11.16
302.541	10.42
302.754	11.17
302.967	11.71
303.18	12.59
303.393	11.16
303.607	9.8
303.82	9.14
304.033	10.81
304.246	10.21
304.459	8.38
304.672	8.73
304.885	9.03
305.098	9.06
305.311	8.68
305.524	7.44
305.737	7.07
305.95	5.96
306.163	8.21
306.376	8.38
306.589	8.53
306.802	7.56
307.015	6.12
307.228	7.75
307.44	8.39
307.653	10.15
307.866	10.65
308.079	10.47
308.292	11.11
308.505	10.54
308.718	12.44
308.93	14.35
309.143	14.8
309.356	14.44
309.569	13.36
309.781	13.28
309.994	12.03
310.207	11.95
310.42	12.71
310.632	11.94
310.845	11.77
311.058	10.31
311.27	9.21
311.483	10.01
311.696	11.15
311.908	11.66
312.121	9.99
312.333	9.16
312.546	8.45
312.759	8.97
312.971	9.69
313.184	9.98
313.396	9.78
313.609	8.73
313.821	7.55
314.034	9.32
314.246	8.75
314.459	10.67
314.671	11.68
314.884	12.42
315.096	11.89
315.309	12.74
315.521	12.12
315.733	10.7
315.946	11.24
316.158	12.99
316.371	10.87
316.583	10.57
316.795	9.34
317.008	10.1
317.22	10.19
317.432	10.8
317.644	9.65
317.857	10.77
318.069	12.36
318.281	11.79
318.494	10.15
318.706	10.23
318.918	7.94
319.13	9.44
319.342	9.13
319.555	8.74
319.767	8.65
319.979	8.43
320.191	7.09
320.403	5.59
320.615	4.51
320.827	5.13
321.039	4.19
321.252	6.67
321.464	6.38
321.676	7.06
321.888	6.79
322.1	4.88
322.312	6.82
322.524	7.8
322.736	9.07
322.948	11.29
323.16	11.82
323.372	12.54
323.584	11.91
323.796	12.07
324.007	12.07
324.219	13.69
324.431	13.8
324.643	12.9
324.855	12.94
325.067	12.21
325.279	12.09
325.491	12.25
325.702	11.73
325.914	12.68
326.126	12.39
326.338	11.53
326.55	10.85
326.761	12.17
326.973	13.56
327.185	12.91
327.396	15.31
327.608	14.71
327.82	13.61
328.032	13.89
328.243	13.36
328.455	13.8
328.666	15.37
328.878	14.78
329.09	14.9
329.301	13.41
329.513	15.42
329.725	12.48
329.936	12.68
330.148	13.02
330.359	13.04
330.571	13.71
330.782	13.13
330.994	11.92
331.205	13.88
331.417	13.18
331.628	12.69
331.84	10.16
332.051	12.35
332.262	13.39
332.474	13.41
332.685	13.69
332.897	13.56
333.108	15.82
333.319	15.98
333.531	15.01
333.742	15.04
333.953	15.64
334.165	17.61
334.376	18.55
334.587	18.09
334.799	18.49
335.01	18.8
335.221	20.11
335.432	19.02
335.644	19
335.855	19.48
336.066	19.56
336.277	18.98
336.488	17.77
336.7	16.81
336.911	16.13
337.122	16.17
337.333	16.38
337.544	14.93
337.755	14.58
337.966	14.19
338.177	14.01
338.388	14.17
338.599	14.56
338.811	15.56
339.022	15.38
339.233	15.42
339.444	15.88
339.655	15.25
339.866	16.04
340.076	16.55
340.287	16.27
340.498	16.76
340.709	15.4
340.92	15.69
341.131	13.82
341.342	14.06
341.553	13.19
341.764	12.42
341.975	13.04
342.185	13.04
342.396	13.3
342.607	14.78
342.818	14.27
343.029	14.63
343.239	14.92
343.45	16.45
343.661	16.01
343.872	17.8
344.082	18.89
344.293	19.24
344.504	19.44
344.714	18.42
344.925	17.85
345.136	17.63
345.346	18.15
345.557	17.42
345.768	16.9
345.978	16.64
346.189	16.19
346.399	16.17
346.61	15.48
346.821	15.8
347.031	15.88
347.242	15.05
347.452	15.63
347.663	15.11
347.873	15.65
348.084	16.41
348.294	16.71
348.504	17
348.715	17.76
348.925	17.61
349.136	17.2
349.346	18.11
349.557	18.75
349.767	17.83
349.977	18.49
350.188	18.28
350.398	17.73
350.608	18.42
350.819	18.56
351.029	18.34
351.239	18.83
351.449	18.83
351.66	17.79
351.87	18.25
352.08	18.48
352.29	19.01
352.501	18.44
352.711	18.67
352.921	18.32
353.131	18.07
353.341	17.29
353.552	17.33
353.762	17.45
353.972	18.1
354.182	17.29
354.392	17.21
354.602	16.73
354.812	17.26
355.022	16.74
355.232	16.59
355.442	16.46
355.652	15.41
355.862	15.55
356.072	14.1
356.282	14.24
356.492	14.56
356.702	14.36
356.912	14.92
357.122	15.26
357.332	15.5
357.542	15.27
357.752	15.05
357.962	16.77
358.171	15.86
358.381	16.4
358.591	15.61
358.801	16.13
359.011	16.86
359.221	17.01
359.43	16.45
359.64	16.51
359.85	16.77
360.06	17.33
360.269	16.81
360.479	17.77
360.689	17.65
360.899	17.85
361.108	18.14
361.318	18.06
361.528	17.64
361.737	17.95
361.947	17.53
362.156	17.8
362.366	16.98
362.576	16
362.785	16.01
362.995	16.33
363.204	16.52
363.414	15.9
363.623	15.69
363.833	15.47
364.042	15.44
364.252	16.36
364.461	15.98
364.671	16.45
364.88	18.08
365.09	17.13
365.299	18.42
365.509	18.2
365.718	18.64
365.927	18.75
366.137	19.19
366.346	19.1
366.555	18.1
366.765	18.05
366.974	18.38
367.183	18.15
367.393	17.98
367.602	16.32
367.811	16.54
368.021	14.62
368.23	14.78
368.439	14.53
368.648	14.45
368.857	15.08
369.067	14.83
369.276	13.58
369.485	12.37
369.694	12.84
369.903	12.48
370.112	12.11
370.321	13.05
370.531	12.78
370.74	12.46
370.949	12.22
371.158	11.83
371.367	12.44
371.576	13.7
371.785	14.09
371.994	14.3
372.203	15.37
372.412	15.58
372.621	15.2
372.83	15.13
373.039	15.3
373.248	14.97
373.457	16.01
373.666	15.31
373.874	14.3
374.083	14.31
374.292	13.18
374.501	12
374.71	11.1
374.919	11.68
375.128	11.23
375.336	10.42
375.545	11.31
375.754	10.75
375.963	11.02
376.171	11.23
376.38	10.95
376.589	11.73
376.798	12.27
377.006	12.65
377.215	13.08
377.424	13.38
377.632	13.71
377.841	13.48
378.05	12.95
378.258	13.05
378.467	13.17
378.675	12.95
378.884	12.81
379.093	12.07
379.301	11.99
379.51	11.47
379.718	11.12
379.927	10.62
380.135	10.31
380.344	10.91
380.552	10.31
380.761	10.45
380.969	10.45
381.177	10.53
381.386	11.4
381.594	11.8
381.803	11.95
382.011	11.51
382.219	12.3
382.428	11.92
382.636	11.34
382.845	12.07
383.053	11.79
383.261	12.19
383.469	12.3
383.678	11.64
383.886	11.43
384.094	11.78
384.302	12.49
384.511	11.97
384.719	12.32
384.927	12.32
385.135	11.88
385.343	11.63
385.552	11.9
385.76	11.56
385.968	11.35
386.176	11.22
386.384	10.89
386.592	10.66
386.8	10.76
387.008	10.6
387.216	10.53
387.424	10.73
387.633	11.04
387.841	10.63
388.049	10.54
388.257	11.07
388.465	11.2
388.672	10.74
388.88	10.38
389.088	10.3
389.296	10.4
389.504	10.27
389.712	10.18
389.92	9.73
390.128	9.01
390.336	9.05
390.544	8.78
390.751	8.52
390.959	8.52
391.167	8.85
391.375	8.88
391.583	8.81
391.79	9.04
391.998	9.08
392.206	8.93
392.414	9.33
392.621	9.25
392.829	9.16
393.037	9.34
393.244	9.19
393.452	8.93
393.66	8.82
393.867	8.92
394.075	8.8
394.283	8.53
394.49	8.82
394.698	9
394.905	9.2
395.113	9.36
395.32	8.93
395.528	9.31
395.735	9.4
395.943	9.7
396.15	9.38
396.358	9.49
396.565	9.69
396.773	9.7
396.98	9.87
397.188	9.67
397.395	9.5
397.602	9.91
397.81	9.61
398.017	9.34
398.225	9.26
398.432	9.63
398.639	9.35
398.847	9.09
399.054	9.27
399.261	8.98
399.468	8.97
399.676	9.03
399.883	8.79
400.09	8.7
400.297	9.01
400.505	9.01
400.712	8.97
400.919	8.94
401.126	9.08
401.333	8.85
401.54	8.85
401.748	8.87
401.955	8.96
402.162	8.9
402.369	9.21
402.576	9.16
402.783	8.92
402.99	8.91
403.197	9.16
403.404	8.84
403.611	8.63
403.818	8.87
404.025	9
404.232	8.84
404.439	8.88
404.646	9.03
404.853	9.29
405.06	9.21
405.267	8.99
405.474	8.71
405.681	8.53
405.887	8.74
406.094	8.41
406.301	8.21
406.508	8.49
406.715	8.48
406.922	8.41
407.128	8.26
407.335	8.17
407.542	8.07
407.749	8.22
407.955	8.77
408.162	8.76
408.369	9
408.575	8.76
408.782	8.62
408.989	8.63
409.195	8.25
409.402	8.29
409.609	8.41
409.815	8.71
410.022	8.74
410.228	8.61
410.435	8.55
410.642	8.1
410.848	8.63
411.055	8.49
411.261	8.57
411.468	8.49
411.674	8.59
411.881	8.9
412.087	8.58
412.294	8.46
412.5	8.47
412.706	8.43
412.913	8.92
413.119	8.75
413.326	9
413.532	8.78
413.738	8.95
413.945	8.62
414.151	8.49
414.357	8.59
414.564	8.5
414.77	8.47
414.976	8.73
415.182	8.46
415.389	8.51
415.595	8.29
415.801	8.23
416.007	8.21
416.214	8.27
416.42	8.28
416.626	8.54
416.832	8.46
417.038	8.19
417.244	8.37
417.45	8.53
417.657	8.25
417.863	8.3
418.069	8.5
418.275	8.42
418.481	8.27
418.687	8.07
418.893	7.92
419.099	7.99
419.305	8.13
419.511	7.78
419.717	7.68
419.923	7.68
420.129	7.63
420.335	7.72
420.541	7.71
420.746	7.71
420.952	7.73
421.158	7.71
421.364	7.68
421.57	7.64
421.776	7.76
421.982	7.68
422.187	7.86
422.393	7.85
422.599	7.66
422.805	7.71
423.01	7.79
423.216	7.7
423.422	7.61
423.628	7.74
423.833	7.9
424.039	7.82
424.245	7.78
424.45	7.73
424.656	7.64
424.862	7.72
425.067	7.68
425.273	7.53
425.478	7.72
425.684	7.68
425.889	7.46
426.095	7.37
426.301	7.46
426.506	7.51
426.712	7.42
426.917	7.51
427.123	7.4
427.328	7.34
427.533	7.45
427.739	7.38
427.944	7.31
428.15	7.44
428.355	7.26
428.561	7.22
428.766	7.37
428.971	7.59
429.177	7.67
429.382	7.58
429.587	7.62
429.793	7.7
429.998	7.52
430.203	7.68
430.408	7.68
430.614	7.7
430.819	7.6
431.024	7.34
431.229	7.12
431.434	6.91
431.64	6.94
431.845	6.9
432.05	6.91
432.255	6.95
432.46	6.98
432.665	6.8
432.87	6.76
433.076	6.77
433.281	6.92
433.486	6.98
433.691	7.01
433.896	6.99
434.101	7.14
434.306	7.16
434.511	7.23
434.716	7.34
434.921	7.65
435.126	7.89
435.331	7.89
435.535	7.79
435.74	7.78
435.945	8.02
436.15	8.16
436.355	8.3
436.56	8.35
436.765	8.32
436.97	8.19
437.174	7.89
437.379	7.69
437.584	7.66
437.789	7.59
437.993	7.37
438.198	7.14
438.403	7.07
438.608	6.79
438.812	6.41
439.017	6.55
439.222	6.67
439.426	6.8
439.631	6.81
439.836	6.9
440.04	7.11
440.245	7.02
440.45	7.01
440.654	7.02
440.859	7.06
441.063	7.26
441.268	7.18
441.472	7.21
441.677	7.16
441.881	7.22
442.086	7.08
442.29	6.94
442.495	7.05
442.699	7.32
442.904	7.45
443.108	7.41
443.312	7.58
443.517	7.54
443.721	7.59
443.925	7.74
444.13	7.56
444.334	7.56
444.538	7.54
444.743	7.63
444.947	7.38
445.151	7.27
445.356	7.37
445.56	7.21
445.764	7.24
445.968	7.14
446.173	7.05
446.377	7.04
446.581	7.07
446.785	7.18
446.989	7.07
447.193	7.06
447.398	7.1
447.602	7.01
447.806	7.06
448.01	7.05
448.214	7.03
448.418	7.02
448.622	7.23
448.826	7.21
449.03	7.1
449.234	7.09
449.438	7.12
449.642	7.11
449.846	7.06
450.05	7.03
450.254	7.12
450.458	7.1
450.662	7.03
450.866	6.87
451.069	7.01
451.273	7.12
451.477	7.33
451.681	7.39
451.885	7.42
452.089	7.6
452.292	7.66
452.496	7.47
452.7	7.4
452.904	7.48
453.107	7.48
453.311	7.24
453.515	7.19
453.719	7.1
453.922	7.11
454.126	7.11
454.33	7.08
454.533	6.91
454.737	6.96
454.94	7.1
455.144	7.14
455.348	7.24
455.551	7.32
455.755	7.23
455.958	7.45
456.162	7.31
456.365	7.2
456.569	7.25
456.772	7.4
456.976	7.4
457.179	7.25
457.383	7.22
457.586	7.08
457.79	7.07
457.993	7.17
458.196	7.09
458.4	7.07
458.603	7.23
458.807	7.12
459.01	6.92
459.213	7
459.417	6.94
459.62	6.87
459.823	6.94
460.026	6.87
460.23	6.91
460.433	6.82
460.636	6.78
460.839	6.61
461.042	6.56
461.246	6.64
461.449	6.43
461.652	6.67
461.855	6.73
462.058	6.56
