Data from 2937838_Reflection_2.txt Node
Date: Wed Jul 15 16:25:16 EDT 2015
User: robert
Spectrometer: USB4E03001
Autoset integration time: false
Trigger mode: 4
Integration Time (sec): 1.000000E-1
Scans to average: 10
Electric dark correction enabled: true
Nonlinearity correction enabled: false
Boxcar width: 5
Stray light correction enabled: false
XAxis mode: Wavelengths
Stop averaging: false
Number of Pixels in Spectrum: 3648
>>>>>Begin Spectral Data<<<<<
177.566	21.07
177.785	126.32
178.005	157.94
178.225	171.21
178.445	154.97
178.665	54.95
178.885	-74.87
179.105	65.19
179.324	-55.86
179.544	71.76
179.764	35.15
179.984	-29.71
180.204	56.26
180.423	29.71
180.643	-14.05
180.863	10.14
181.083	-9.08
181.302	-18.27
181.522	-52.8
181.742	26.98
181.961	-113.52
182.181	124.42
182.401	100.23
182.621	415.52
182.84	125.47
183.06	140.6
183.279	115.64
183.499	141.04
183.719	195.18
183.938	244.14
184.158	397.86
184.377	1671.94
184.597	-4550
184.816	-950.22
185.036	-305.03
185.256	-91.64
185.475	-6.1
185.695	56.65
185.914	-5.29
186.134	69.64
186.353	-114.57
186.572	-317.11
186.792	-481.44
187.011	-2414.92
187.231	-216.73
187.45	-261.34
187.67	-239.54
187.889	-467.86
188.108	-693.5
188.328	-887.48
188.547	1469.82
188.766	1552.55
188.986	-3916.05
189.205	-509.21
189.424	-410.65
189.644	200.22
189.863	254.03
190.082	186.41
190.302	192.07
190.521	91.44
190.74	74.76
190.959	137.05
191.178	149.4
191.398	136.15
191.617	120.37
191.836	121.69
192.055	413.94
192.274	185.71
192.494	148.48
192.713	154.77
192.932	169.24
193.151	331.88
193.37	-54.81
193.589	-39.13
193.808	-39.04
194.027	-63.97
194.246	-72.6
194.465	-26.83
194.685	-94.06
194.904	-54.2
195.123	-159.55
195.342	-230.81
195.561	-228.68
195.78	721.53
195.999	195.92
196.218	134.06
196.436	110.29
196.655	132.21
196.874	122.97
197.093	180.91
197.312	147.43
197.531	-187.63
197.75	46.32
197.969	-1251.49
198.188	71.77
198.407	56.37
198.625	13.88
198.844	17.96
199.063	29.96
199.282	-76.05
199.501	1943.01
199.719	276.6
199.938	175.14
200.157	-1044.42
200.376	673.98
200.594	257.54
200.813	310.57
201.032	200.56
201.251	163.55
201.469	174.41
201.688	132.57
201.907	92.57
202.125	520
202.344	-325
202.563	128.44
202.781	-328.52
203	-192.43
203.218	-153.64
203.437	-852.88
203.656	-6009.84
203.874	608.45
204.093	-786.74
204.311	31123.53
204.53	1309.29
204.748	205.81
204.967	228.84
205.185	391.51
205.404	381.36
205.622	359.71
205.841	150.91
206.059	160.53
206.278	173.63
206.496	227.73
206.715	244.64
206.933	176.85
207.151	193.46
207.37	188.31
207.588	221.36
207.806	352.24
208.025	193.98
208.243	4616.33
208.461	737.26
208.68	-980.7
208.898	336.24
209.116	605.97
209.335	533.09
209.553	-4276.32
209.771	609.91
209.989	351.26
210.208	299.43
210.426	911.3
210.644	482.17
210.862	-292.91
211.081	-3214.55
211.299	16856.67
211.517	240.42
211.735	582.25
211.953	-95.08
212.171	-93.45
212.39	1833.58
212.608	3126.45
212.826	-914.12
213.044	-193.16
213.262	696.99
213.48	-295.87
213.698	-536.02
213.916	-584.47
214.134	2787.12
214.352	646.17
214.57	417.86
214.788	274.87
215.006	227.86
215.224	207.1
215.442	215.35
215.66	1028.53
215.878	269.24
216.096	494.19
216.314	-657.96
216.532	-1244.14
216.75	-277.26
216.968	-77.02
217.185	-70.72
217.403	-75.13
217.621	-143.69
217.839	-251.52
218.057	-737.22
218.275	2344.09
218.492	-231.92
218.71	-196.59
218.928	-67.97
219.146	-116.78
219.363	-419.9
219.581	-101.43
219.799	-90.88
220.017	-14.8
220.234	44.43
220.452	60.17
220.67	60.81
220.887	51.99
221.105	46.8
221.323	2.48
221.54	9.93
221.758	12.53
221.976	15.35
222.193	-5.29
222.411	-55.38
222.629	-152
222.846	-105.46
223.064	-97.65
223.281	-113.68
223.499	-170.15
223.716	-130.02
223.934	-84.2
224.151	-66.23
224.369	-76.32
224.586	-57.74
224.804	-19.35
225.021	4.49
225.239	12.26
225.456	11.87
225.674	5.34
225.891	10.08
226.108	14.6
226.326	6.04
226.543	-5.96
226.76	-12.53
226.978	-24.56
227.195	-17.32
227.413	-10.08
227.63	-16.45
227.847	-9.12
228.064	-11.24
228.282	-3.96
228.499	-0.06
228.716	-1.11
228.934	-0.1
229.151	-3.81
229.368	1.56
229.585	1.88
229.802	-0.04
230.02	0.39
230.237	-2.02
230.454	-4.55
230.671	-10.36
230.888	-13.53
231.105	-12.46
231.323	-9.13
231.54	-4.28
231.757	-10.89
231.974	-10.69
232.191	-11.05
232.408	-8.07
232.625	-8.2
232.842	-4.57
233.059	0.36
233.276	0.31
233.493	-6.57
233.71	-9.88
233.927	-12.09
234.144	-9.89
234.361	-20.32
234.578	-15.1
234.795	-6.07
235.012	-0.3
235.229	4.26
235.446	6.38
235.663	9.07
235.879	16
236.096	7.87
236.313	11.96
236.53	18.16
236.747	27.58
236.964	20.56
237.181	3.14
237.397	-3.9
237.614	-7.26
237.831	-8.69
238.048	-13.34
238.264	-11.85
238.481	-7.64
238.698	-7.26
238.915	-9.58
239.131	-14.45
239.348	-10.1
239.565	-4.09
239.781	-1.5
239.998	2.48
240.215	4.55
240.431	3.47
240.648	1.15
240.865	4.06
241.081	5.01
241.298	6.86
241.514	5.1
241.731	7.43
241.947	7.99
242.164	7.89
242.38	5.29
242.597	5.26
242.814	5.64
243.03	7.88
243.246	7.06
243.463	5.46
243.679	4.81
243.896	4.95
244.112	5.28
244.329	4.24
244.545	3.09
244.762	6.02
244.978	9.24
245.194	12.48
245.411	8.45
245.627	8.22
245.843	9.15
246.06	7
246.276	7.6
246.492	7.39
246.709	6.76
246.925	7.44
247.141	7.57
247.357	6.26
247.574	5.53
247.79	6.15
248.006	7.19
248.222	7
248.439	7.31
248.655	6.61
248.871	5.61
249.087	6.05
249.303	6.28
249.519	5.89
249.736	6.5
249.952	6.15
250.168	6.67
250.384	5.51
250.6	6.4
250.816	5.82
251.032	7.18
251.248	7.07
251.464	6.95
251.68	6.05
251.896	6.84
252.112	6.68
252.328	5.16
252.544	4.88
252.76	5.06
252.976	2.98
253.192	4.43
253.408	2.7
253.624	5.88
253.84	6.61
254.056	7.01
254.272	4.1
254.487	1.01
254.703	1.26
254.919	-0.94
255.135	-5.48
255.351	-2.96
255.567	-8.08
255.782	-8.52
255.998	-9.49
256.214	-5.33
256.43	-2.69
256.646	-2.03
256.861	-2.08
257.077	0.63
257.293	3.55
257.508	2.57
257.724	4.88
257.94	5.67
258.155	5.57
258.371	4.48
258.587	3.84
258.802	3.33
259.018	3.91
259.234	5.7
259.449	5.4
259.665	5.15
259.88	6.48
260.096	6.03
260.312	6.6
260.527	7.23
260.743	6.35
260.958	6.25
261.174	6.73
261.389	6.88
261.605	6.09
261.82	5.74
262.036	5.11
262.251	4.25
262.466	3.69
262.682	0.62
262.897	-0.79
263.113	-0.57
263.328	-1.87
263.543	-5.15
263.759	-5.3
263.974	-6.9
264.189	-5.22
264.405	-5.99
264.62	-0.45
264.835	-1.19
265.051	-0.05
265.266	2.34
265.481	3.64
265.696	4.32
265.912	5.25
266.127	6.59
266.342	7.87
266.557	7.91
266.773	9.06
266.988	3.94
267.203	4.87
267.418	5.99
267.633	6.52
267.848	6.63
268.064	6.05
268.279	6.21
268.494	4.85
268.709	3.54
268.924	1.47
269.139	1.99
269.354	3.06
269.569	1.82
269.784	2.97
269.999	2.43
270.214	2.11
270.429	3.9
270.644	3.8
270.859	3.45
271.074	5.03
271.289	6.26
271.504	5.25
271.719	4.42
271.934	4.19
272.149	2.91
272.363	2.19
272.578	3.48
272.793	1.57
273.008	1.21
273.223	1.67
273.438	0.83
273.653	0.06
273.867	-0.61
274.082	0.48
274.297	0.2
274.512	0.24
274.726	0.34
274.941	-1.43
275.156	0.3
275.371	0.3
275.585	-0.08
275.8	-0.28
276.015	1.29
276.229	2.84
276.444	2.3
276.659	4.43
276.873	5.77
277.088	6.48
277.302	5.15
277.517	3.93
277.732	4.19
277.946	4.35
278.161	4.72
278.375	3.64
278.59	2.1
278.804	2.39
279.019	1.06
279.233	0.61
279.448	-0.59
279.662	0.57
279.877	1.54
280.091	1.83
280.306	2.65
280.52	4.11
280.735	3.44
280.949	4.61
281.163	5.25
281.378	4.45
281.592	3.22
281.806	3.4
282.021	3.95
282.235	2.42
282.449	3.59
282.664	2.82
282.878	1.23
283.092	2.81
283.307	2.79
283.521	2.57
283.735	2.76
283.949	1.69
284.164	2.01
284.378	2.47
284.592	4.59
284.806	4.71
285.02	5.62
285.234	6.09
285.449	4.01
285.663	3.47
285.877	2.4
286.091	2.66
286.305	5.75
286.519	6.66
286.733	7.78
286.947	6.07
287.161	6.06
287.375	4.75
287.589	4.63
287.803	5.84
288.017	4.26
288.231	6.05
288.445	6.76
288.659	4.18
288.873	2.08
289.087	0.29
289.301	1.94
289.515	1.01
289.729	1.43
289.943	1.91
290.157	2.49
290.371	4.55
290.584	2.62
290.798	2.37
291.012	2.39
291.226	2.68
291.44	1.78
291.654	0.83
291.867	0.76
292.081	0.84
292.295	0.89
292.509	-0.03
292.722	1.23
292.936	3.55
293.15	2.94
293.364	3.76
293.577	3.38
293.791	5.03
294.005	5.09
294.218	5.94
294.432	6.48
294.645	5.61
294.859	5.84
295.073	5.31
295.286	5.42
295.5	6.08
295.713	6.86
295.927	7.27
296.14	6.65
296.354	6.73
296.568	6.3
296.781	5.44
296.994	4.05
297.208	4.16
297.421	3.77
297.635	3.78
297.848	3.27
298.062	2.35
298.275	2
298.489	2.21
298.702	2.31
298.915	1.78
299.129	1.8
299.342	3.77
299.555	3.19
299.769	2.3
299.982	0.79
300.195	0.12
300.409	0.84
300.622	1.64
300.835	0.95
301.048	1.5
301.262	3.54
301.475	4.47
301.688	3
301.901	3.34
302.115	3.62
302.328	4.95
302.541	6.14
302.754	5.72
302.967	5.34
303.18	5.76
303.393	4.7
303.607	3.22
303.82	2.08
304.033	3.32
304.246	2.93
304.459	3.39
304.672	2.89
304.885	3.11
305.098	2.61
305.311	2.5
305.524	2.21
305.737	2.26
305.95	1.98
306.163	2.96
306.376	2.14
306.589	1.48
306.802	1.35
307.015	-0.42
307.228	-0.31
307.44	0.08
307.653	0.46
307.866	0.11
308.079	-0.23
308.292	-1.2
308.505	-1.56
308.718	-0.24
308.93	1.26
309.143	2.23
309.356	3.23
309.569	1.58
309.781	2.49
309.994	2.62
310.207	2.82
310.42	4.82
310.632	5.45
310.845	5.69
311.058	5.25
311.27	5.16
311.483	4.54
311.696	4.79
311.908	6.64
312.121	4.68
312.333	5.39
312.546	5.91
312.759	5.34
312.971	5.37
313.184	5.93
313.396	6.51
313.609	4.97
313.821	4.55
314.034	6.23
314.246	6.53
314.459	8.59
314.671	8.13
314.884	7.9
315.096	7.84
315.309	6.96
315.521	6
315.733	5.26
315.946	7.16
316.158	7.4
316.371	5.42
316.583	4.05
316.795	2.56
317.008	0.97
317.22	0.13
317.432	0.24
317.644	1.55
317.857	2.36
318.069	2.93
318.281	2.97
318.494	2.35
318.706	1.3
318.918	-0.84
319.13	0.05
319.342	0.74
319.555	-0.61
319.767	-0.8
319.979	-0.42
320.191	-1.3
320.403	-3.4
320.615	-4.96
320.827	-4.12
321.039	-2.8
321.252	-0.67
321.464	0.77
321.676	1.37
321.888	3.6
322.1	3.08
322.312	3.18
322.524	3.88
322.736	5.28
322.948	6.45
323.16	7.96
323.372	8.01
323.584	8.1
323.796	6.93
324.007	8.23
324.219	8.56
324.431	8.41
324.643	7.92
324.855	8.05
325.067	7.3
325.279	7.36
325.491	6.49
325.702	4.55
325.914	4.52
326.126	5.77
326.338	4.72
326.55	4.9
326.761	4.93
326.973	5.26
327.185	3.53
327.396	4.25
327.608	3.08
327.82	3.16
328.032	5.52
328.243	5.59
328.455	4.17
328.666	4.28
328.878	3.24
329.09	3.82
329.301	4.49
329.513	7.1
329.725	5.22
329.936	6.14
330.148	5.7
330.359	5.25
330.571	6.43
330.782	6.63
330.994	6.47
331.205	6.34
331.417	4.84
331.628	4.33
331.84	2.26
332.051	5.02
332.262	5.1
332.474	5.05
332.685	5.2
332.897	4.96
333.108	7.42
333.319	7.56
333.531	8.92
333.742	10.02
333.953	9.55
334.165	10.57
334.376	10.89
334.587	11.11
334.799	11.41
335.01	12.09
335.221	12.29
335.432	11.29
335.644	9.81
335.855	8.85
336.066	9.48
336.277	9.49
336.488	8.73
336.7	7.55
336.911	8.29
337.122	8.58
337.333	8.16
337.544	7.5
337.755	7.82
337.966	8.92
338.177	9.38
338.388	8.74
338.599	7.95
338.811	8.76
339.022	8.41
339.233	7.5
339.444	6.88
339.655	7.01
339.866	6.62
340.076	4.76
340.287	4.69
340.498	4.13
340.709	3.17
340.92	4.63
341.131	3.77
341.342	4.98
341.553	5.04
341.764	4.09
341.975	4.07
342.185	5.09
342.396	5.29
342.607	7.24
342.818	8.36
343.029	8.12
343.239	7.26
343.45	7.97
343.661	6.51
343.872	7.13
344.082	8.9
344.293	8.77
344.504	8.43
344.714	8.77
344.925	8.08
345.136	7.77
345.346	7.82
345.557	8.06
345.768	8.32
345.978	8.7
346.189	8.17
346.399	7.33
346.61	6.68
346.821	6.58
347.031	5.98
347.242	4.97
347.452	4.79
347.663	5.18
347.873	4.62
348.084	4.68
348.294	6.01
348.504	6.24
348.715	8.57
348.925	9.25
349.136	9.39
349.346	9.62
349.557	10.46
349.767	10.71
349.977	11.35
350.188	11.73
350.398	10.83
350.608	11.34
350.819	10.87
351.029	9.49
351.239	9.54
351.449	9.89
351.66	10.24
351.87	8.71
352.08	6.87
352.29	6.38
352.501	6.65
352.711	7.93
352.921	6.77
353.131	7.66
353.341	7.02
353.552	7.64
353.762	7.14
353.972	6.3
354.182	6.91
354.392	8.35
354.602	8.97
354.812	9.15
355.022	8.5
355.232	9.35
355.442	8.8
355.652	8.6
355.862	8.36
356.072	7.94
356.282	8.64
356.492	9.03
356.702	8.83
356.912	8.62
357.122	8.46
357.332	8.36
357.542	7.78
357.752	7.59
357.962	8.22
358.171	8.12
358.381	8.65
358.591	9.16
358.801	10.09
359.011	9.83
359.221	10.35
359.43	9.72
359.64	9.88
359.85	10.85
360.06	10.63
360.269	10.81
360.479	10.74
360.689	10
360.899	9.14
361.108	8.45
361.318	8.38
361.528	7.43
361.737	7.87
361.947	7.9
362.156	7.1
362.366	7.67
362.576	7
362.785	7.27
362.995	7.73
363.204	8.1
363.414	7.93
363.623	8.48
363.833	9.1
364.042	9.3
364.252	9.27
364.461	9.25
364.671	8.46
364.88	8.57
365.09	7.9
365.299	8.5
365.509	8.7
365.718	8.77
365.927	8.37
366.137	8.42
366.346	8.58
366.555	8.36
366.765	8.64
366.974	8.78
367.183	9.56
367.393	9.57
367.602	8.65
367.811	8.59
368.021	7.08
368.23	7.5
368.439	6.61
368.648	5.96
368.857	6.14
369.067	5.35
369.276	5.54
369.485	4.96
369.694	4.25
369.903	4.23
370.112	3.33
370.321	4.57
370.531	4.9
370.74	5.78
370.949	6.14
371.158	6.09
371.367	6.92
371.576	7.2
371.785	6.72
371.994	7.84
372.203	8.39
372.412	9.27
372.621	8.96
372.83	8.33
373.039	8.2
373.248	7.7
373.457	7.99
373.666	7.63
373.874	7.27
374.083	7.14
374.292	6.43
374.501	5.43
374.71	4.35
374.919	4.45
375.128	4.05
375.336	3.57
375.545	4.58
375.754	4.23
375.963	4.12
376.171	4.26
376.38	4.33
376.589	4.63
376.798	4.92
377.006	5.21
377.215	5.8
377.424	6.51
377.632	6.92
377.841	6.8
378.05	6.95
378.258	6.21
378.467	6.59
378.675	6.51
378.884	6.16
379.093	5.83
379.301	5.7
379.51	5.24
379.718	4.85
379.927	4.05
380.135	3.56
380.344	3.68
380.552	3.99
380.761	3.21
380.969	3.49
381.177	4.13
381.386	5.38
381.594	6.08
381.803	6.31
382.011	6.38
382.219	7.1
382.428	7.14
382.636	6.94
382.845	7.77
383.053	7.87
383.261	7.83
383.469	7.92
383.678	7.03
383.886	6.83
384.094	7.16
384.302	7.54
384.511	7.33
384.719	7.28
384.927	7.41
385.135	6.93
385.343	6.9
385.552	7.54
385.76	6.97
385.968	6.87
386.176	6.33
386.384	6.38
386.592	6.01
386.8	5.94
387.008	6.11
387.216	5.41
387.424	5.43
387.633	5.38
387.841	4.78
388.049	5.35
388.257	5.85
388.465	6.3
388.672	5.47
388.88	5.17
389.088	5.02
389.296	5.26
389.504	5.37
389.712	5.47
389.92	5.81
390.128	5.68
390.336	5.43
390.544	5.33
390.751	4.91
390.959	4.78
391.167	5.44
391.375	5.46
391.583	5.51
391.79	5.97
391.998	6
392.206	5.26
392.414	5.47
392.621	5.25
392.829	5.09
393.037	5.34
393.244	5.53
393.452	5.24
393.66	5.27
393.867	5.04
394.075	5.2
394.283	5.26
394.49	5.94
394.698	5.9
394.905	5.84
395.113	5.83
395.32	5.93
395.528	5.99
395.735	5.94
395.943	6.09
396.15	5.57
396.358	5.17
396.565	5.24
396.773	5.01
396.98	4.89
397.188	5
397.395	5.04
397.602	4.93
397.81	4.66
398.017	4.49
398.225	4.18
398.432	4.78
398.639	4.65
398.847	4.39
399.054	4.51
399.261	4.58
399.468	4.6
399.676	4.66
399.883	4.57
400.09	5.07
400.297	4.98
400.505	5.2
400.712	5.27
400.919	5.49
401.126	5.71
401.333	5.76
401.54	5.75
401.748	5.72
401.955	5.61
402.162	5.78
402.369	5.45
402.576	5.66
402.783	5.36
402.99	5.47
403.197	5.52
403.404	5.36
403.611	5.03
403.818	5.15
404.025	5.21
404.232	5.15
404.439	5.23
404.646	5.42
404.853	5.14
405.06	5.2
405.267	4.78
405.474	4.72
405.681	4.59
405.887	4.84
406.094	4.56
406.301	4.3
406.508	4.53
406.715	4.46
406.922	4.46
407.128	4.66
407.335	4.75
407.542	4.59
407.749	4.59
407.955	5.05
408.162	4.84
408.369	4.92
408.575	5.2
408.782	5.06
408.989	4.97
409.195	4.74
409.402	4.83
409.609	4.87
409.815	5.35
410.022	5.28
410.228	5.09
410.435	5.33
410.642	5.06
410.848	5.13
411.055	5.39
411.261	5.19
411.468	5.02
411.674	5.29
411.881	5.57
412.087	5.59
412.294	5.5
412.5	5.62
412.706	5.71
412.913	6.25
413.119	6.42
413.326	6.36
413.532	6.69
413.738	6.93
413.945	6.52
414.151	6.13
414.357	6.03
414.564	5.8
414.77	5.57
414.976	5.45
415.182	5.34
415.389	5.19
415.595	4.99
415.801	5.12
416.007	5.17
416.214	5.38
416.42	5.71
416.626	5.95
416.832	5.96
417.038	5.93
417.244	6.06
417.45	6.1
417.657	5.88
417.863	5.82
418.069	5.66
418.275	5.76
418.481	5.58
418.687	5.19
418.893	5.09
419.099	5.33
419.305	5.46
419.511	5.36
419.717	5.15
419.923	5.29
420.129	5.3
420.335	5.47
420.541	5.51
420.746	5.59
420.952	5.69
421.158	5.63
421.364	5.63
421.57	5.56
421.776	5.47
421.982	5.7
422.187	5.63
422.393	5.8
422.599	5.6
422.805	5.55
423.01	5.46
423.216	5.53
423.422	5.54
423.628	5.65
423.833	5.74
424.039	5.78
424.245	5.66
424.45	5.7
424.656	5.63
424.862	5.7
425.067	5.6
425.273	5.66
425.478	5.82
425.684	5.75
425.889	5.56
426.095	5.54
426.301	5.57
426.506	5.58
426.712	5.56
426.917	5.49
427.123	5.54
427.328	5.51
427.533	5.49
427.739	5.24
427.944	5.15
428.15	5.28
428.355	5.09
428.561	5.11
428.766	5.06
428.971	5.19
429.177	5.05
429.382	4.87
429.587	4.93
429.793	4.94
429.998	4.91
430.203	5.14
430.408	5.12
430.614	5.01
430.819	4.86
431.024	4.79
431.229	4.68
431.434	4.75
431.64	4.72
431.845	4.71
432.05	4.69
432.255	4.79
432.46	4.91
432.665	4.84
432.87	4.88
433.076	4.91
433.281	5.03
433.486	5.09
433.691	5.22
433.896	5.44
434.101	5.57
434.306	5.7
434.511	5.72
434.716	5.59
434.921	5.69
435.126	5.96
435.331	6.03
435.535	5.99
435.74	5.96
435.945	5.85
436.15	5.8
436.355	5.77
436.56	5.66
436.765	5.61
436.97	5.6
437.174	5.45
437.379	5.18
437.584	5.24
437.789	5.13
437.993	5.05
438.198	4.9
438.403	4.74
438.608	4.57
438.812	4.4
439.017	4.47
439.222	4.41
439.426	4.41
439.631	4.34
439.836	4.35
440.04	4.52
440.245	4.34
440.45	4.48
440.654	4.61
440.859	4.56
441.063	4.73
441.268	4.65
441.472	4.73
441.677	4.83
441.881	5.1
442.086	5.12
442.29	5.13
442.495	5.4
442.699	5.55
442.904	5.49
443.108	5.65
443.312	5.75
443.517	5.7
443.721	5.75
443.925	5.72
444.13	5.48
444.334	5.37
444.538	5.41
444.743	5.37
444.947	5.05
445.151	5.13
445.356	5.16
445.56	5.02
445.764	5.14
445.968	5.12
446.173	5.13
446.377	5.19
446.581	5.24
446.785	5.21
446.989	5.2
447.193	5.29
447.398	5.31
447.602	5.26
447.806	5.39
448.01	5.42
448.214	5.34
448.418	5.31
448.622	5.39
448.826	5.26
449.03	5.2
449.234	5.14
449.438	5.1
449.642	5.03
449.846	4.9
450.05	4.93
450.254	4.93
450.458	4.89
450.662	4.6
450.866	4.38
451.069	4.61
451.273	4.54
451.477	4.65
451.681	4.65
451.885	4.63
452.089	4.88
452.292	4.67
452.496	4.52
452.7	4.6
452.904	4.89
453.107	4.97
453.311	4.62
453.515	4.66
453.719	4.49
453.922	4.71
454.126	4.84
454.33	4.7
454.533	4.67
454.737	4.66
454.94	4.69
455.144	4.64
455.348	4.59
455.551	4.69
455.755	4.7
455.958	4.86
456.162	4.8
456.365	4.79
456.569	4.98
456.772	5.2
456.976	5.17
457.179	5.08
457.383	5.02
457.586	5.16
457.79	5.29
457.993	5.25
458.196	5.21
458.4	5.17
458.603	5.18
458.807	4.98
459.01	4.8
459.213	4.96
459.417	5.04
459.62	5.05
459.823	5.02
460.026	4.95
460.23	4.97
460.433	4.86
460.636	4.82
460.839	4.71
461.042	4.73
461.246	4.8
461.449	4.58
461.652	4.58
461.855	4.57
462.058	4.46
462.261	4.49
462.464	4.4
462.668	4.5
462.871	4.59
463.074	4.54
463.277	4.6
463.48	4.72
463.683	4.98
463.886	4.9
464.089	4.82
464.292	4.9
464.495	4.9
464.698	4.97
464.901	5.06
465.104	5.06
465.306	5.14
465.509	4.9
465.712	4.78
465.915	4.54
466.118	4.52
466.321	4.7
466.524	4.74
466.726	4.91
466.929	4.9
467.132	4.9
467.335	4.82
467.538	4.72
467.74	4.93
467.943	4.75
468.146	4.76
