Data from 2937824_Reflection_1.txt Node
Date: Wed Jul 15 17:08:23 EDT 2015
User: robert
Spectrometer: USB4E03001
Autoset integration time: false
Trigger mode: 4
Integration Time (sec): 1.000000E-1
Scans to average: 10
Electric dark correction enabled: true
Nonlinearity correction enabled: false
Boxcar width: 5
Stray light correction enabled: false
XAxis mode: Wavelengths
Stop averaging: false
Number of Pixels in Spectrum: 3648
>>>>>Begin Spectral Data<<<<<
177.566	63.33
177.785	84.45
178.005	89.84
178.225	93.17
178.445	98.73
178.665	104.79
178.885	200
179.105	65.95
179.324	53.48
179.544	56.3
179.764	71.99
179.984	58.23
180.204	67.73
180.423	76.69
180.643	80.94
180.863	74.9
181.083	72.11
181.302	65.93
181.522	68.58
181.742	76.17
181.961	64.18
182.181	60.89
182.401	72.2
182.621	97.44
182.84	80.19
183.06	75.88
183.279	78.29
183.499	66.85
183.719	59.22
183.938	50.87
184.158	80.36
184.377	101.16
184.597	128.62
184.816	185.83
185.036	220.97
185.256	820.67
185.475	482.61
185.695	332.64
185.914	620.94
186.134	527.61
186.353	371.26
186.572	272.49
186.792	248.31
187.011	152.58
187.231	112.9
187.45	83.77
187.67	64.42
187.889	52.69
188.108	64
188.328	74.14
188.547	114.72
188.766	79.85
188.986	106.49
189.205	81.87
189.424	125.05
189.644	109.09
189.863	121.92
190.082	197.63
190.302	201.16
190.521	184.07
190.74	200.36
190.959	114.58
191.178	170.89
191.398	149.92
191.617	190.92
191.836	166.69
192.055	194.07
192.274	234.95
192.494	163.08
192.713	155.5
192.932	168.55
193.151	186.23
193.37	228.22
193.589	176.53
193.808	170.73
194.027	129.02
194.246	129.47
194.465	119.15
194.685	77.49
194.904	111.3
195.123	213.64
195.342	152.33
195.561	144.89
195.78	421.88
195.999	211.66
196.218	355.92
196.436	992.95
196.655	-894.23
196.874	-4707.33
197.093	-1026.88
197.312	-636.88
197.531	704.5
197.75	628.55
197.969	344.58
198.188	267.58
198.407	231.78
198.625	187.48
198.844	148.68
199.063	129.16
199.282	122.74
199.501	98.83
199.719	74.9
199.938	81.92
200.157	82.07
200.376	45.54
200.594	46.29
200.813	54.43
201.032	60.71
201.251	73.13
201.469	75.27
201.688	80.63
201.907	90.87
202.125	100.5
202.344	111.37
202.563	106.62
202.781	247.49
203	221.89
203.218	238.5
203.437	187.83
203.656	179.61
203.874	153.37
204.093	139.3
204.311	131.37
204.53	132.78
204.748	103.83
204.967	161.92
205.185	106.8
205.404	-603.11
205.622	-188.73
205.841	4493.02
206.059	-23.07
206.278	174.26
206.496	92.88
206.715	88.31
206.933	112.91
207.151	-40.17
207.37	112.33
207.588	-24.11
207.806	73.88
208.025	-18.09
208.243	4.49
208.461	48
208.68	55.31
208.898	60.21
209.116	56.99
209.335	68.92
209.553	56.73
209.771	63.49
209.989	73.16
210.208	39.58
210.426	56.04
210.644	37.42
210.862	36.46
211.081	56.51
211.299	55.18
211.517	42.32
211.735	38.62
211.953	47.09
212.171	32.58
212.39	60.36
212.608	87.83
212.826	122.78
213.044	124.2
213.262	307.6
213.48	213.4
213.698	1374.62
213.916	-567.82
214.134	-448.81
214.352	-404.71
214.57	884.41
214.788	-535.44
215.006	-257.72
215.224	41.42
215.442	-8.96
215.66	-48.75
215.878	-45.66
216.096	73.43
216.314	64.69
216.532	71.86
216.75	90.34
216.968	89.53
217.185	67.51
217.403	89.61
217.621	146.66
217.839	188.27
218.057	148.2
218.275	128.67
218.492	105.26
218.71	95.45
218.928	117.18
219.146	116.46
219.363	139.43
219.581	139.57
219.799	135.52
220.017	191.08
220.234	201.98
220.452	408.56
220.67	-677.83
220.887	-123.76
221.105	-43.5
221.323	-12.26
221.54	4.74
221.758	-13.33
221.976	-20.62
222.193	-215.33
222.411	198.06
222.629	251.25
222.846	1141.73
223.064	912.29
223.281	460.59
223.499	523.2
223.716	-308.54
223.934	1220.25
224.151	-364.38
224.369	-139.69
224.586	-110.11
224.804	-85.07
225.021	-96.34
225.239	-106.09
225.456	-239.05
225.674	-287.58
225.891	-237.98
226.108	3750.47
226.326	-6318.71
226.543	8126.83
226.76	-680.65
226.978	-1190.46
227.195	-236.18
227.413	-186.55
227.63	-95.79
227.847	-37.65
228.064	-4.34
228.282	11.07
228.499	11.99
228.716	11.92
228.934	3.85
229.151	9.61
229.368	10.13
229.585	8.31
229.802	13.98
230.02	11.61
230.237	9.25
230.454	7
230.671	1.18
230.888	3.81
231.105	4.83
231.323	7.65
231.54	2.63
231.757	6.38
231.974	7.57
232.191	-6.2
232.408	-9.82
232.625	-7.54
232.842	-14.15
233.059	-11.62
233.276	-25
233.493	-24.02
233.71	-20.78
233.927	-24.62
234.144	-20.12
234.361	-14.77
234.578	-6.8
234.795	5
235.012	2.74
235.229	0.32
235.446	-6.76
235.663	-3.56
235.879	-11.54
236.096	-18.35
236.313	-10.87
236.53	-29.06
236.747	-30.72
236.964	-44.14
237.181	-42.98
237.397	-33.44
237.614	-13.18
237.831	-13.59
238.048	-5.49
238.264	1.81
238.481	13.11
238.698	20.07
238.915	28.45
239.131	28.88
239.348	30.58
239.565	25.35
239.781	29.92
239.998	21.68
240.215	26.14
240.431	25.31
240.648	20.8
240.865	19.43
241.081	15.39
241.298	19.04
241.514	15
241.731	13.22
241.947	9.25
242.164	9.17
242.38	9.24
242.597	9.36
242.814	9.08
243.03	10.68
243.246	12.48
243.463	10.5
243.679	8.91
243.896	8.98
244.112	7.63
244.329	11.8
244.545	9.42
244.762	10.36
244.978	9.55
245.194	11.39
245.411	11.88
245.627	9.3
245.843	10.01
246.06	7.56
246.276	12.09
246.492	15.58
246.709	12.68
246.925	12.87
247.141	12.25
247.357	12.6
247.574	10.6
247.79	9.41
248.006	8.75
248.222	9.17
248.439	8.23
248.655	7.57
248.871	7.17
249.087	8.53
249.303	5.7
249.519	4.11
249.736	0.67
249.952	-0.44
250.168	1.55
250.384	4.16
250.6	4.76
250.816	6.45
251.032	3.32
251.248	-1.14
251.464	-2.33
251.68	0.14
251.896	2.19
252.112	5.45
252.328	8.15
252.544	7.75
252.76	4.82
252.976	5.02
253.192	6.99
253.408	7.78
253.624	9.97
253.84	10.39
254.056	12.33
254.272	12.95
254.487	9.65
254.703	8.16
254.919	4.13
255.135	6.8
255.351	4.43
255.567	-0.64
255.782	-0.23
255.998	-2.51
256.214	0.99
256.43	1.54
256.646	5.58
256.861	7.42
257.077	6.31
257.293	6.51
257.508	5.57
257.724	6.85
257.94	8.19
258.155	8
258.371	7.48
258.587	7.37
258.802	7.61
259.018	8.01
259.234	9.68
259.449	10.57
259.665	11.31
259.88	11.74
260.096	11.61
260.312	11.98
260.527	11.34
260.743	12.24
260.958	11
261.174	10.94
261.389	10.21
261.605	8.77
261.82	8.7
262.036	7.64
262.251	7.34
262.466	6.8
262.682	6.68
262.897	6.71
263.113	4.71
263.328	5.55
263.543	5.59
263.759	5.7
263.974	5.97
264.189	5.61
264.405	5.05
264.62	5.78
264.835	5.38
265.051	4.48
265.266	5.32
265.481	6.97
265.696	8.15
265.912	6.49
266.127	7.28
266.342	5.99
266.557	5.95
266.773	3.85
266.988	2.78
267.203	1.87
267.418	0.91
267.633	0.31
267.848	1.2
268.064	-0.99
268.279	-0.54
268.494	-4.46
268.709	-3.95
268.924	-3.1
269.139	1.04
269.354	-1.25
269.569	-0.44
269.784	-2.39
269.999	-1.51
270.214	-2.34
270.429	-2.03
270.644	-2.71
270.859	-1
271.074	0.5
271.289	1.1
271.504	1.36
271.719	2.94
271.934	4.81
272.149	6.58
272.363	5.78
272.578	6.38
272.793	7.11
273.008	9.52
273.223	10.35
273.438	9.19
273.653	7.36
273.867	6.93
274.082	6.09
274.297	5.3
274.512	4
274.726	5.07
274.941	3.36
275.156	4.52
275.371	0.48
275.585	-0.85
275.8	1.34
276.015	0.92
276.229	0.18
276.444	-0.48
276.659	-1.85
276.873	0.87
277.088	-2.14
277.302	-0.15
277.517	-1.42
277.732	0.85
277.946	2.06
278.161	-1.26
278.375	0.76
278.59	0.97
278.804	1.35
279.019	1.84
279.233	-0.5
279.448	3.43
279.662	2.94
279.877	3.17
280.091	1.96
280.306	1.4
280.52	1.71
280.735	3.01
280.949	3.01
281.163	4.09
281.378	4.12
281.592	3.86
281.806	4.86
282.021	4.31
282.235	4.85
282.449	4.73
282.664	2.97
282.878	2.25
283.092	1.52
283.307	1.34
283.521	2.96
283.735	2.99
283.949	3.83
284.164	1.01
284.378	2.31
284.592	3.13
284.806	3.19
285.02	6.49
285.234	7.94
285.449	8.61
285.663	8.87
285.877	8.73
286.091	7.85
286.305	8.6
286.519	9.88
286.733	9.7
286.947	8.35
287.161	9.6
287.375	7.43
287.589	7.1
287.803	5.7
288.017	5.66
288.231	3.41
288.445	5.19
288.659	2.62
288.873	0.07
289.087	-0.65
289.301	1.18
289.515	2.82
289.729	2.81
289.943	5.03
290.157	5.05
290.371	6.47
290.584	7.31
290.798	7.25
291.012	7.89
291.226	10.02
291.44	9.05
291.654	10.45
291.867	8.02
292.081	7.5
292.295	7.96
292.509	8.21
292.722	8.19
292.936	9.19
293.15	10.06
293.364	10.53
293.577	10.44
293.791	12.22
294.005	10.66
294.218	10.79
294.432	11.95
294.645	9.12
294.859	8.53
295.073	8.04
295.286	6.71
295.5	5.59
295.713	8.28
295.927	6.82
296.14	7.23
296.354	6.27
296.568	6.32
296.781	7.86
296.994	10.31
297.208	11.54
297.421	11.02
297.635	11.97
297.848	12.2
298.062	11.72
298.275	11.99
298.489	11.4
298.702	11.58
298.915	12.19
299.129	10.77
299.342	9.04
299.555	8.83
299.769	9.54
299.982	9.83
300.195	10.28
300.409	9.96
300.622	10.95
300.835	11.09
301.048	11.3
301.262	11.38
301.475	11.3
301.688	12.89
301.901	11.94
302.115	9.86
302.328	7.5
302.541	8.86
302.754	5.7
302.967	6.48
303.18	6.13
303.393	5.62
303.607	4.71
303.82	6.41
304.033	5.6
304.246	5.93
304.459	6.91
304.672	9.83
304.885	8.38
305.098	9.9
305.311	7.03
305.524	9.22
305.737	10.55
305.95	11.54
306.163	10.91
306.376	10.52
306.589	11.16
306.802	12.88
307.015	9.98
307.228	8.55
307.44	9.05
307.653	11.49
307.866	8.49
308.079	6.84
308.292	6.03
308.505	4.5
308.718	4.32
308.93	4.63
309.143	4.91
309.356	7.34
309.569	7.33
309.781	9.31
309.994	8.94
310.207	9.9
310.42	11.1
310.632	12.5
310.845	13.48
311.058	13.32
311.27	12.6
311.483	11.55
311.696	9.14
311.908	9.56
312.121	6.7
312.333	7.02
312.546	6.72
312.759	5.49
312.971	5.21
313.184	3.79
313.396	2.85
313.609	5.41
313.821	5.37
314.034	5.51
314.246	6.27
314.459	7.55
314.671	8.69
314.884	9.76
315.096	11.3
315.309	9.33
315.521	8.87
315.733	9.53
315.946	6.01
316.158	5.95
316.371	7.97
316.583	7.93
316.795	8.47
317.008	5.62
317.22	5.65
317.432	5.37
317.644	7.55
317.857	10.55
318.069	10.38
318.281	12.46
318.494	15.47
318.706	16.77
318.918	16.41
319.13	16.68
319.342	17.05
319.555	16.34
319.767	15.8
319.979	13.35
320.191	12.07
320.403	11.14
320.615	10.58
320.827	6.59
321.039	3.56
321.252	3.64
321.464	3.98
321.676	2.87
321.888	2.64
322.1	0.4
322.312	1.84
322.524	3.34
322.736	4.92
322.948	3.03
323.16	5.5
323.372	6.68
323.584	6.74
323.796	6.15
324.007	6.12
324.219	4.55
324.431	4.68
324.643	4.32
324.855	3.89
325.067	2.92
325.279	4.4
325.491	3.83
325.702	4.31
325.914	4.12
326.126	4.37
326.338	5.23
326.55	7.48
326.761	7.95
326.973	7.95
327.185	6.95
327.396	8.65
327.608	8.97
327.82	10.3
328.032	8.56
328.243	7.3
328.455	8.83
328.666	9.99
328.878	7.36
329.09	7.22
329.301	8.52
329.513	8.91
329.725	7.73
329.936	5.77
330.148	5.35
330.359	3.89
330.571	4.48
330.782	0.38
330.994	-0.52
331.205	1.62
331.417	1.92
331.628	0.2
331.84	0.15
332.051	1
332.262	2.15
332.474	0.88
332.685	3.04
332.897	3.14
333.108	4.94
333.319	6.23
333.531	6.78
333.742	7.71
333.953	8.79
334.165	10.55
334.376	11.28
334.587	10.54
334.799	9.26
335.01	9.2
335.221	7.88
335.432	9.32
335.644	7.93
335.855	6.26
336.066	7.36
336.277	8.17
336.488	7.88
336.7	7.61
336.911	7.7
337.122	9
337.333	7.67
337.544	8.38
337.755	7.11
337.966	5.8
338.177	6.75
338.388	5.27
338.599	2.9
338.811	3.6
339.022	1.32
339.233	2.06
339.444	2.2
339.655	3.66
339.866	3.73
340.076	3.04
340.287	4.71
340.498	5.4
340.709	6.23
340.92	7.41
341.131	5.46
341.342	6.2
341.553	4.81
341.764	3.44
341.975	3.47
342.185	4.15
342.396	6.2
342.607	6.97
342.818	6.11
343.029	5.18
343.239	6.19
343.45	5.08
343.661	6.58
343.872	6.76
344.082	7.61
344.293	7.04
344.504	7.66
344.714	5.78
344.925	4.83
345.136	5.99
345.346	5.99
345.557	4.97
345.768	6.79
345.978	5.49
346.189	6.26
346.399	5.39
346.61	6.2
346.821	5.69
347.031	6.56
347.242	5.58
347.452	4.17
347.663	2.82
347.873	2.66
348.084	1.65
348.294	2.54
348.504	2.47
348.715	4.01
348.925	5.56
349.136	7.53
349.346	6.77
349.557	8.36
349.767	8.51
349.977	9.83
350.188	11.14
350.398	11.07
350.608	11.07
350.819	10.81
351.029	10.22
351.239	9.7
351.449	8.81
351.66	10.35
351.87	10.01
352.08	10.33
352.29	9.73
352.501	9.09
352.711	10.25
352.921	11.22
353.131	11.17
353.341	10.17
353.552	9.18
353.762	8.04
353.972	7.55
354.182	7.94
354.392	8.38
354.602	9.74
354.812	9.24
355.022	8.8
355.232	7.7
355.442	8.1
355.652	8.91
355.862	10.05
356.072	10.41
356.282	10.34
356.492	10.59
356.702	10.13
356.912	9.56
357.122	10.92
357.332	10.7
357.542	9.49
357.752	9.47
357.962	8.39
358.171	8.22
358.381	8.09
358.591	7.48
358.801	7.59
359.011	7.16
359.221	7.62
359.43	6.35
359.64	7.3
359.85	8.65
360.06	9.21
360.269	11.65
360.479	11
360.689	10.61
360.899	10.86
361.108	10.47
361.318	11.15
361.528	10.45
361.737	10.24
361.947	9.23
362.156	9.38
362.366	9.01
362.576	7.48
362.785	7.37
362.995	7.89
363.204	8.01
363.414	7.53
363.623	7.71
363.833	8.62
364.042	8.59
364.252	8.76
364.461	8.24
364.671	8.39
364.88	9.44
365.09	9.61
365.299	9.64
365.509	9.47
365.718	10.49
365.927	9.42
366.137	8.69
366.346	9.31
366.555	9.58
366.765	9.92
366.974	9.67
367.183	9.26
367.393	9.94
367.602	10.71
367.811	10.52
368.021	9.68
368.23	9.94
368.439	10.76
368.648	9.8
368.857	8.82
369.067	7.86
369.276	6.99
369.485	6.78
369.694	6.56
369.903	4.84
370.112	4.66
370.321	4.83
370.531	5.73
370.74	4.96
370.949	6.46
371.158	6.88
371.367	6.87
371.576	8.15
371.785	8.63
371.994	7.56
372.203	7.51
372.412	7.72
372.621	7.68
372.83	8.17
373.039	9.06
373.248	8.83
373.457	8.86
373.666	9.29
373.874	9.2
374.083	8.29
374.292	8.04
374.501	7.62
374.71	7.49
374.919	8.18
375.128	7.65
375.336	7.43
375.545	6.56
375.754	6.97
375.963	6.56
376.171	6.55
376.38	6.18
376.589	6.33
376.798	6.49
377.006	6.59
377.215	6.28
377.424	6.54
377.632	5.15
377.841	5.37
378.05	4.92
378.258	5.24
378.467	4.32
378.675	4.42
378.884	4.86
379.093	5.52
379.301	5.89
379.51	6.1
379.718	5.66
379.927	6.68
380.135	7.39
380.344	7.3
380.552	8.27
380.761	8.92
380.969	8.86
381.177	9.21
381.386	8.86
381.594	8
381.803	7.38
382.011	7.32
382.219	7.19
382.428	6.31
382.636	6.34
382.845	4.68
383.053	4.18
383.261	4.38
383.469	4.75
383.678	5.08
383.886	5.36
384.094	5.34
384.302	4.89
384.511	5.04
384.719	4.68
384.927	4.94
385.135	4.85
385.343	5.08
385.552	5.55
385.76	4.89
385.968	4.28
386.176	4.38
386.384	4.16
386.592	4.02
386.8	3.88
387.008	4.3
387.216	4.32
387.424	4.92
387.633	4.9
387.841	4.42
388.049	4.62
388.257	5.12
388.465	5.27
388.672	6.03
388.88	6.26
389.088	5.88
389.296	5.74
389.504	5.08
389.712	5.14
389.92	5.15
390.128	5.62
390.336	5.79
390.544	5.57
390.751	5.59
390.959	4.76
391.167	4.57
391.375	4.75
391.583	4.87
391.79	5.21
391.998	5.03
392.206	5.12
392.414	4.74
392.621	4.63
392.829	4.75
393.037	4.25
393.244	4.5
393.452	4.92
393.66	4.87
393.867	4.99
394.075	4.99
394.283	5.03
394.49	4.62
394.698	4.79
394.905	4.5
395.113	4.58
395.32	4.65
395.528	4.66
395.735	4.43
395.943	4.32
396.15	4.21
396.358	4.66
396.565	5.04
396.773	5.58
396.98	5.5
397.188	5.58
397.395	5.24
397.602	5.47
397.81	5.49
398.017	5.6
398.225	5.52
398.432	5.38
398.639	4.64
398.847	4.19
399.054	3.88
399.261	3.79
399.468	3.87
399.676	4.19
399.883	4.38
400.09	4.15
400.297	4.21
400.505	4.37
400.712	4.77
400.919	4.93
401.126	5
401.333	5.37
401.54	5.01
401.748	5
401.955	4.42
402.162	4.4
402.369	4.64
402.576	4.39
402.783	4.51
402.99	4.25
403.197	4.6
403.404	4.6
403.611	4.17
403.818	4.53
404.025	4.33
404.232	4.44
404.439	4.05
404.646	3.77
404.853	3.85
405.06	3.95
405.267	4.25
405.474	4.18
405.681	4.06
405.887	4.2
406.094	4.11
406.301	3.92
406.508	4.23
406.715	4.59
406.922	4.81
407.128	4.8
407.335	4.55
407.542	4.45
407.749	4.38
407.955	4.47
408.162	4.48
408.369	4.79
408.575	5.06
408.782	4.9
408.989	4.88
409.195	4.8
409.402	4.65
409.609	4.93
409.815	4.85
410.022	4.34
410.228	4.42
410.435	4.3
410.642	4.16
410.848	4.33
411.055	4.36
411.261	4.05
411.468	3.89
411.674	4.08
411.881	3.78
412.087	3.62
412.294	4.11
412.5	3.99
412.706	4.22
412.913	4.21
413.119	4
413.326	4.46
413.532	4.76
413.738	4.97
413.945	4.84
414.151	5.03
414.357	5.13
414.564	5.18
414.77	5.26
414.976	5.21
415.182	5.23
415.389	5.12
415.595	4.72
415.801	4.54
416.007	5
416.214	5
416.42	4.71
416.626	4.4
416.832	4.31
417.038	4.42
417.244	4.18
417.45	4.03
417.657	3.98
417.863	4.23
418.069	4.29
418.275	3.92
418.481	4.05
418.687	4.25
418.893	4.51
419.099	4.56
419.305	4.45
419.511	4.54
419.717	4.67
419.923	4.71
420.129	4.44
420.335	4.6
420.541	4.56
420.746	4.43
420.952	4.42
421.158	4.22
421.364	4.18
421.57	4.28
421.776	4.33
421.982	4.32
422.187	4.39
422.393	4.44
422.599	4.3
422.805	4.45
423.01	4.64
423.216	4.63
423.422	4.75
423.628	4.65
423.833	4.67
424.039	4.92
424.245	4.94
424.45	4.98
424.656	4.99
424.862	5.12
425.067	5.06
425.273	4.82
425.478	4.83
425.684	4.96
425.889	5.04
426.095	5.02
426.301	4.75
426.506	4.8
426.712	4.76
426.917	4.8
427.123	4.66
427.328	4.85
427.533	4.96
427.739	4.94
427.944	4.71
428.15	4.82
428.355	4.66
428.561	4.56
428.766	4.12
428.971	4.01
429.177	3.88
429.382	3.84
429.587	3.52
429.793	3.61
429.998	3.63
430.203	3.6
430.408	3.59
430.614	3.84
430.819	3.93
431.024	4
431.229	4.21
431.434	4.5
431.64	4.33
431.845	4.43
432.05	4.42
432.255	4.43
432.46	4.45
432.665	4.31
432.87	3.94
433.076	3.91
433.281	4.03
433.486	4.04
433.691	3.95
433.896	3.96
434.101	3.77
434.306	3.8
434.511	3.72
434.716	3.58
434.921	3.53
435.126	3.71
435.331	3.64
435.535	3.58
435.74	3.53
435.945	3.37
436.15	3.47
436.355	3.66
436.56	3.51
436.765	3.61
436.97	3.79
437.174	3.93
437.379	4.04
437.584	3.93
437.789	4.15
437.993	4.09
438.198	4.24
438.403	4.23
438.608	4.28
438.812	4.21
439.017	4.15
439.222	4.01
439.426	3.91
439.631	3.87
439.836	4.01
440.04	3.94
440.245	3.93
440.45	3.83
440.654	3.97
440.859	3.93
441.063	4
441.268	3.97
441.472	4.06
441.677	4.01
441.881	4.04
442.086	4.01
442.29	4.06
442.495	4.03
442.699	3.91
442.904	3.81
443.108	3.76
443.312	4.06
443.517	4.14
443.721	4.09
443.925	4.16
444.13	4.13
444.334	4.21
444.538	4.03
444.743	4.2
444.947	4.43
445.151	4.45
445.356	4.5
445.56	4.28
445.764	4.23
445.968	4.27
446.173	4.29
446.377	4.29
446.581	4.16
446.785	4.26
446.989	4.15
447.193	4.18
447.398	4.01
447.602	4.08
447.806	4
448.01	3.96
448.214	3.99
448.418	4.07
448.622	4.11
448.826	4.3
449.03	4.24
449.234	4.27
449.438	4.27
449.642	4.32
449.846	4
450.05	4.09
450.254	4.21
450.458	4.16
450.662	3.89
450.866	3.68
451.069	3.61
451.273	3.66
451.477	3.58
451.681	3.4
451.885	3.53
452.089	3.64
452.292	3.69
452.496	3.6
452.7	3.48
452.904	3.65
453.107	3.71
453.311	3.57
453.515	3.64
453.719	3.67
453.922	3.71
454.126	3.78
454.33	3.98
454.533	3.9
454.737	3.96
454.94	4.06
455.144	4.06
455.348	3.94
455.551	4.03
455.755	3.74
455.958	3.51
456.162	3.37
456.365	3.18
456.569	3.05
456.772	3.04
456.976	3.08
457.179	3.23
457.383	3.02
457.586	2.99
457.79	2.83
457.993	2.78
458.196	2.94
458.4	2.99
458.603	3.14
458.807	3.06
459.01	3.06
459.213	2.96
459.417	2.91
459.62	3.13
459.823	3.36
460.026	3.45
460.23	3.58
460.433	3.63
460.636	3.73
460.839	3.72
461.042	3.77
461.246	3.77
461.449	3.85
461.652	3.73
461.855	3.63
462.058	3.57
462.261	3.54
462.464	3.66
462.668	3.6
462.871	3.51
463.074	3.51
463.277	3.51
463.48	3.72
463.683	3.87
463.886	4.05
464.089	4.15
464.292	4.11
464.495	4.11
464.698	3.94
464.901	3.81
465.104	3.76
465.306	3.55
465.509	3.35
465.712	3.34
465.915	3.26
466.118	3.19
466.321	3.16
466.524	2.96
466.726	2.91
466.929	2.79
467.132	2.98
467.335	3.05
467.538	3.09
467.74	3.2
467.943	3.14
468.146	2.93
