Data from 2937835_Reflection_1.txt Node
Date: Wed Jul 15 16:33:02 EDT 2015
User: robert
Spectrometer: USB4E03001
Autoset integration time: false
Trigger mode: 4
Integration Time (sec): 1.000000E-1
Scans to average: 10
Electric dark correction enabled: true
Nonlinearity correction enabled: false
Boxcar width: 5
Stray light correction enabled: false
XAxis mode: Wavelengths
Stop averaging: false
Number of Pixels in Spectrum: 3648
>>>>>Begin Spectral Data<<<<<
177.566	-4.71
177.785	-95.38
178.005	101.64
178.225	131.01
178.445	115.48
178.665	140.63
178.885	95.24
179.105	83.78
179.324	60.15
179.544	107.35
179.764	69.6
179.984	11.65
180.204	336.07
180.423	176.98
180.643	195.65
180.863	186.53
181.083	204.17
181.302	-895.24
181.522	-1000
181.742	175.51
181.961	135.58
182.181	68.57
182.401	77.96
182.621	25.93
182.84	21.46
183.06	19.74
183.279	21.91
183.499	23.8
183.719	6.32
183.938	-5.06
184.158	-4.63
184.377	19.09
184.597	1.59
184.816	13.84
185.036	10.73
185.256	-1.02
185.475	-37.05
185.695	-64.46
185.914	-14.87
186.134	19.54
186.353	23.67
186.572	12.8
186.792	-2.19
187.011	13.15
187.231	19.51
187.45	37.09
187.67	36.34
187.889	40.17
188.108	53.02
188.328	37.77
188.547	40.79
188.766	23.33
188.986	32.58
189.205	41.03
189.424	39.33
189.644	47.23
189.863	44.6
190.082	52.82
190.302	57.4
190.521	83.4
190.74	96.65
190.959	86.59
191.178	118.44
191.398	231.78
191.617	161.46
191.836	117.7
192.055	153.55
192.274	119.48
192.494	68.68
192.713	24.8
192.932	-143.22
193.151	-40.72
193.37	-17.05
193.589	7.79
193.808	0.8
194.027	-3.78
194.246	3.39
194.465	-15.42
194.685	-33.4
194.904	-18.64
195.123	-21.17
195.342	0.18
195.561	27.54
195.78	21.75
195.999	23.9
196.218	80.41
196.436	258.11
196.655	155.24
196.874	215.75
197.093	-1940
197.312	-119.23
197.531	139.73
197.75	200
197.969	224.42
198.188	185.71
198.407	-136.54
198.625	-30.51
198.844	-26.52
199.063	-44.04
199.282	-14.53
199.501	0.66
199.719	4.35
199.938	6.68
200.157	37.37
200.376	29.75
200.594	27.18
200.813	26.04
201.032	33.17
201.251	39.12
201.469	50.14
201.688	45.5
201.907	58.92
202.125	49.88
202.344	43.57
202.563	27.95
202.781	34.52
203	26.03
203.218	29.6
203.437	21.44
203.656	17.07
203.874	11.59
204.093	33.3
204.311	26.81
204.53	30.04
204.748	34.58
204.967	33.04
205.185	35.18
205.404	42.41
205.622	40.6
205.841	46.36
206.059	40.72
206.278	57.14
206.496	59.59
206.715	80.78
206.933	232.7
207.151	207.94
207.37	-8125
207.588	-463.33
207.806	440.57
208.025	405.05
208.243	476.86
208.461	632.73
208.68	639.18
208.898	618.37
209.116	569.81
209.335	222.45
209.553	364.56
209.771	287.43
209.989	222.13
210.208	156.06
210.426	109.46
210.644	116.44
210.862	131.39
211.081	94.19
211.299	77.27
211.517	72.34
211.735	55.54
211.953	57.73
212.171	39.11
212.39	42.39
212.608	19.87
212.826	41.49
213.044	26.16
213.262	-2.63
213.48	-0.75
213.698	-13.04
213.916	-19.57
214.134	2.15
214.352	12.89
214.57	21.12
214.788	10.88
215.006	46.84
215.224	38.2
215.442	42.63
215.66	44.01
215.878	44.14
216.096	37.47
216.314	54.71
216.532	63.82
216.75	42.75
216.968	40.71
217.185	39.16
217.403	15.65
217.621	20.73
217.839	-16.56
218.057	13.37
218.275	23.25
218.492	42.78
218.71	20.8
218.928	4.44
219.146	4.33
219.363	17.8
219.581	48.35
219.799	64.14
220.017	84.86
220.234	91.04
220.452	90.39
220.67	79.19
220.887	75.87
221.105	64.06
221.323	65.21
221.54	60.49
221.758	53.48
221.976	53.81
222.193	52.54
222.411	26.62
222.629	10.34
222.846	-9.83
223.064	-1.33
223.281	10.12
223.499	23.18
223.716	19.35
223.934	0.94
224.151	-4.83
224.369	-15.15
224.586	-24.45
224.804	-16.63
225.021	-8.28
225.239	1.02
225.456	-10.56
225.674	-20.17
225.891	-12.55
226.108	-12.44
226.326	0.06
226.543	8.55
226.76	9.93
226.978	10.97
227.195	8.21
227.413	7.82
227.63	5.25
227.847	4.68
228.064	5.98
228.282	9.03
228.499	12.33
228.716	11.24
228.934	12.44
229.151	10.18
229.368	9.23
229.585	10.88
229.802	10.78
230.02	8.31
230.237	9.81
230.454	9.57
230.671	10.42
230.888	8.43
231.105	10.08
231.323	9.3
231.54	8.31
231.757	7.47
231.974	1.12
232.191	0.5
232.408	6.41
232.625	5.94
232.842	4.48
233.059	0.56
233.276	6.44
233.493	6.66
233.71	-2.62
233.927	4.08
234.144	9.1
234.361	17.76
234.578	17.16
234.795	21.71
235.012	20.12
235.229	21.36
235.446	20.19
235.663	17.44
235.879	18.71
236.096	23.15
236.313	24.06
236.53	25.03
236.747	30.4
236.964	32.77
237.181	27.15
237.397	30
237.614	26.32
237.831	30.39
238.048	33.88
238.264	29.13
238.481	25.95
238.698	25.35
238.915	19.07
239.131	10.47
239.348	8.92
239.565	7.96
239.781	7.53
239.998	10.71
240.215	7.01
240.431	4.7
240.648	9.05
240.865	13.38
241.081	16.24
241.298	19.15
241.514	18.87
241.731	18.92
241.947	18.41
242.164	18.7
242.38	18.57
242.597	22.49
242.814	22.4
243.03	22.3
243.246	22.6
243.463	22.1
243.679	21.68
243.896	21.73
244.112	23.13
244.329	24.21
244.545	24.81
244.762	22.16
244.978	16.14
245.194	16.79
245.411	15.31
245.627	12.31
245.843	10.16
246.06	10.38
246.276	10.49
246.492	9.94
246.709	10.56
246.925	9.27
247.141	11.81
247.357	13.17
247.574	12.94
247.79	12.64
248.006	12.93
248.222	12.86
248.439	13.07
248.655	12.86
248.871	13.39
249.087	12.68
249.303	13.23
249.519	10.9
249.736	11.96
249.952	10.86
250.168	9.79
250.384	8.82
250.6	9.88
250.816	7.99
251.032	9.44
251.248	8.42
251.464	9.78
251.68	10.59
251.896	12.16
252.112	10.35
252.328	12.64
252.544	13.19
252.76	11.58
252.976	10.72
253.192	11.61
253.408	11.56
253.624	12.49
253.84	11.83
254.056	10.08
254.272	10.7
254.487	9.28
254.703	9.29
254.919	9.02
255.135	14.45
255.351	13.65
255.567	14.49
255.782	15.25
255.998	12.58
256.214	11.73
256.43	15.24
256.646	10.79
256.861	12.72
257.077	10.93
257.293	11.23
257.508	9.91
257.724	11.62
257.94	11.23
258.155	9.51
258.371	10.58
258.587	11.43
258.802	11.17
259.018	13.33
259.234	12.99
259.449	11.57
259.665	11.6
259.88	11.28
260.096	10.77
260.312	10.49
260.527	10.94
260.743	10.39
260.958	9.89
261.174	8.83
261.389	8.76
261.605	7.84
261.82	8.73
262.036	7.99
262.251	8.59
262.466	7.96
262.682	8.45
262.897	8.11
263.113	8.08
263.328	8.68
263.543	8.84
263.759	9.63
263.974	9.88
264.189	9.83
264.405	10.39
264.62	8.67
264.835	10.66
265.051	10.72
265.266	13.38
265.481	14.66
265.696	12.99
265.912	15.4
266.127	12.31
266.342	14.15
266.557	13.73
266.773	13.15
266.988	12.78
267.203	10.89
267.418	9.52
267.633	7.14
267.848	8.22
268.064	10.53
268.279	9.92
268.494	9.34
268.709	9.1
268.924	8.18
269.139	9.65
269.354	9.99
269.569	10.58
269.784	11.24
269.999	12.11
270.214	10.81
270.429	10.09
270.644	10.19
270.859	11.24
271.074	9.49
271.289	9.79
271.504	10.6
271.719	11.48
271.934	10.2
272.149	9.22
272.363	8.95
272.578	10.09
272.793	9.78
273.008	8.21
273.223	8.14
273.438	8.89
273.653	9.93
273.867	7.67
274.082	6.58
274.297	9.02
274.512	9.82
274.726	9.4
274.941	8.17
275.156	8.34
275.371	9.31
275.585	9.98
275.8	8.94
276.015	9.43
276.229	10.36
276.444	11.23
276.659	10.85
276.873	10.71
277.088	10.89
277.302	10.2
277.517	10.17
277.732	10.44
277.946	9.49
278.161	11.74
278.375	8.8
278.59	7.65
278.804	6.22
279.019	5.1
279.233	5.18
279.448	4.43
279.662	5.23
279.877	5.06
280.091	4.84
280.306	5.31
280.52	4.23
280.735	4.67
280.949	6.88
281.163	8.53
281.378	9.32
281.592	10.15
281.806	9.21
282.021	8.7
282.235	7.66
282.449	8.52
282.664	8.36
282.878	8.36
283.092	10.99
283.307	10.38
283.521	9.39
283.735	9.66
283.949	9.06
284.164	10.25
284.378	9.58
284.592	9.87
284.806	9.33
285.02	8.93
285.234	7.89
285.449	5.94
285.663	5.34
285.877	5.34
286.091	4.53
286.305	5.55
286.519	5.21
286.733	5.31
286.947	5.91
287.161	5.12
287.375	4.68
287.589	5.38
287.803	5.97
288.017	6.16
288.231	6.06
288.445	6.9
288.659	7.18
288.873	6.89
289.087	7.65
289.301	6.43
289.515	6.44
289.729	7.59
289.943	7.08
290.157	6.7
290.371	6.4
290.584	6.46
290.798	6.93
291.012	5.33
291.226	6.19
291.44	6.01
291.654	6.53
291.867	6.75
292.081	5.97
292.295	7.02
292.509	7.12
292.722	7.98
292.936	7.18
293.15	7.75
293.364	9.53
293.577	8.95
293.791	10
294.005	10.9
294.218	11.2
294.432	12.41
294.645	13.16
294.859	12.84
295.073	13.07
295.286	15.36
295.5	13.84
295.713	13.22
295.927	13.82
296.14	12.79
296.354	12.41
296.568	13.65
296.781	13.74
296.994	12.53
297.208	13.75
297.421	12.81
297.635	11.43
297.848	11.16
298.062	11.02
298.275	10.36
298.489	9.88
298.702	9.29
298.915	7.02
299.129	6
299.342	6.99
299.555	4.77
299.769	5.99
299.982	7.22
300.195	9.44
300.409	8.28
300.622	7.5
300.835	8.1
301.048	8.21
301.262	9.53
301.475	9.6
301.688	10.64
301.901	11.02
302.115	9.55
302.328	8.1
302.541	5.91
302.754	7.18
302.967	7.62
303.18	7.65
303.393	8.9
303.607	8.86
303.82	9.27
304.033	7.24
304.246	7.03
304.459	8.05
304.672	9.32
304.885	8.88
305.098	7.56
305.311	8.26
305.524	9.08
305.737	8.27
305.95	7.41
306.163	5.54
306.376	6.43
306.589	7.1
306.802	5.99
307.015	6.25
307.228	8.15
307.44	10.38
307.653	11.06
307.866	10.23
308.079	12.16
308.292	13.07
308.505	16.96
308.718	15.81
308.93	16.42
309.143	16.84
309.356	16.55
309.569	14.62
309.781	13.87
309.994	13.98
310.207	13.2
310.42	12.44
310.632	11.27
310.845	9.51
311.058	9.85
311.27	9.32
311.483	9.35
311.696	9.07
311.908	9.95
312.121	8.64
312.333	8.04
312.546	8.56
312.759	8.08
312.971	8.45
313.184	6.06
313.396	5.62
313.609	6.26
313.821	5.62
314.034	5.01
314.246	4.85
314.459	5.29
314.671	5.91
314.884	5.53
315.096	5.1
315.309	6.97
315.521	7.8
315.733	7.68
315.946	7.82
316.158	8.88
316.371	9.86
316.583	9.21
316.795	9.36
317.008	8.62
317.22	8.76
317.432	7.8
317.644	7.9
317.857	9.79
318.069	10.66
318.281	11.01
318.494	9.3
318.706	9.25
318.918	9.64
319.13	10.12
319.342	9.24
319.555	9.84
319.767	11.16
319.979	10.48
320.191	10.22
320.403	8.39
320.615	5.09
320.827	6.23
321.039	6.83
321.252	7.75
321.464	8.31
321.676	9.49
321.888	8.2
322.1	9.49
322.312	10.51
322.524	11.46
322.736	13.47
322.948	15.48
323.16	15.54
323.372	14.33
323.584	14.24
323.796	13.55
324.007	12.6
324.219	14.82
324.431	13.33
324.643	9.97
324.855	7.27
325.067	7.86
325.279	7.9
325.491	8.63
325.702	9.43
325.914	9.31
326.126	8.82
326.338	9.91
326.55	9.36
326.761	9.1
326.973	10.73
327.185	11.83
327.396	9.6
327.608	9.14
327.82	9.87
328.032	8.19
328.243	8.51
328.455	10.07
328.666	9.43
328.878	10.44
329.09	11.94
329.301	12.92
329.513	14.04
329.725	15.21
329.936	15.45
330.148	12.62
330.359	12.1
330.571	12.1
330.782	12.18
330.994	13.04
331.205	12.04
331.417	11.12
331.628	12.13
331.84	11.34
332.051	11.64
332.262	11.73
332.474	15.17
332.685	18.01
332.897	17.54
333.108	18.06
333.319	17.12
333.531	17.42
333.742	17.6
333.953	16.32
334.165	16.9
334.376	17.22
334.587	19.21
334.799	18.26
335.01	16.96
335.221	17.87
335.432	18.09
335.644	19.65
335.855	18.63
336.066	17.99
336.277	17.84
336.488	19.26
336.7	20.08
336.911	20.2
337.122	20.09
337.333	21.08
337.544	20.22
337.755	19.3
337.966	16.6
338.177	17.31
338.388	18.48
338.599	18.89
338.811	17.33
339.022	16.32
339.233	15.09
339.444	15.4
339.655	16.05
339.866	17.16
340.076	18.15
340.287	19.66
340.498	20.38
340.709	20.26
340.92	21.7
341.131	22.97
341.342	23.92
341.553	25.69
341.764	26.3
341.975	25.85
342.185	24.99
342.396	25.29
342.607	25.8
342.818	26.34
343.029	26.89
343.239	25.94
343.45	25.51
343.661	25.08
343.872	23.63
344.082	23.31
344.293	22.32
344.504	22.51
344.714	20.89
344.925	20.59
345.136	19.93
345.346	20.44
345.557	20.64
345.768	19.66
345.978	19.99
346.189	19.95
346.399	19.23
346.61	19.55
346.821	20.09
347.031	20.59
347.242	20.1
347.452	19.13
347.663	18.51
347.873	17.99
348.084	19.45
348.294	17.1
348.504	16.76
348.715	17.34
348.925	17.11
349.136	17.03
349.346	17.18
349.557	19.62
349.767	20.57
349.977	21.01
350.188	20.98
350.398	21.06
350.608	23.92
350.819	23.05
351.029	22.97
351.239	24.58
351.449	25.11
351.66	24.65
351.87	23.59
352.08	23.18
352.29	23.41
352.501	23.51
352.711	22.57
352.921	22.41
353.131	23.78
353.341	24.29
353.552	23.07
353.762	22.11
353.972	23.05
354.182	23.11
354.392	23.73
354.602	22.87
354.812	22.79
355.022	22.62
355.232	22.35
355.442	22.56
355.652	22.64
355.862	22.23
356.072	22.54
356.282	21.85
356.492	21.58
356.702	20.54
356.912	20.85
357.122	21.3
357.332	22.41
357.542	22.52
357.752	21.48
357.962	20.3
358.171	20.15
358.381	19.7
358.591	20.3
358.801	19.82
359.011	19.94
359.221	19.35
359.43	18.97
359.64	18.17
359.85	17.3
360.06	17.62
360.269	17.48
360.479	17.89
360.689	18.79
360.899	18.64
361.108	19.77
361.318	19.63
361.528	19.79
361.737	19.86
361.947	20.44
362.156	20.25
362.366	20.37
362.576	20.98
362.785	20.85
362.995	20
363.204	19.46
363.414	18.15
363.623	18.86
363.833	19
364.042	18.45
364.252	17.83
364.461	17.91
364.671	17.81
364.88	17.54
365.09	18.2
365.299	18.67
365.509	20.51
365.718	20.43
365.927	20.07
366.137	19.58
366.346	21.36
366.555	21.24
366.765	21.12
366.974	20.86
367.183	20.69
367.393	19.64
367.602	19.64
367.811	18.22
368.021	18.2
368.23	18.11
368.439	18.58
368.648	17.15
368.857	17.59
369.067	17.03
369.276	16.89
369.485	16.95
369.694	16.99
369.903	17.22
370.112	17.6
370.321	18.27
370.531	18
370.74	17.66
370.949	18.37
371.158	17.73
371.367	18.55
371.576	19.03
371.785	19.4
371.994	20.15
372.203	19.78
372.412	19.23
372.621	18.9
372.83	19.44
373.039	19.58
373.248	18.08
373.457	17.82
373.666	17.52
373.874	16.94
374.083	16.34
374.292	15.35
374.501	14.57
374.71	14.54
374.919	14.41
375.128	14.59
375.336	14.15
375.545	15.57
375.754	15.86
375.963	15.68
376.171	16.56
376.38	16.53
376.589	17.06
376.798	18.02
377.006	18.05
377.215	17.92
377.424	17.52
377.632	18.34
377.841	17.98
378.05	18.12
378.258	17.57
378.467	17.1
378.675	16.97
378.884	16.35
379.093	15.77
379.301	16.24
379.51	16.64
379.718	16.55
379.927	16
380.135	15.06
380.344	15.08
380.552	15.72
380.761	15.64
380.969	15.35
381.177	15.54
381.386	15.7
381.594	15.04
381.803	14.17
382.011	14.03
382.219	14.36
382.428	15.09
382.636	14.76
382.845	14.63
383.053	13.96
383.261	14.07
383.469	13.84
383.678	13.95
383.886	14.31
384.094	14.74
384.302	14.65
384.511	14.61
384.719	14.44
384.927	14.34
385.135	14.04
385.343	14.26
385.552	14.26
385.76	14.23
385.968	13.66
386.176	13.41
386.384	13.52
386.592	13.7
386.8	13.15
387.008	13.39
387.216	13.2
387.424	13.3
387.633	13.23
387.841	13.48
388.049	13.41
388.257	13.74
388.465	13.49
388.672	12.89
388.88	12.43
389.088	13
389.296	12.61
389.504	12.91
389.712	12.75
389.92	12.8
390.128	12.49
390.336	12.64
390.544	12.11
390.751	12.07
390.959	12.3
391.167	12.24
391.375	11.72
391.583	11.89
391.79	11.97
391.998	12.2
392.206	12.12
392.414	12.09
392.621	12.14
392.829	12.33
393.037	12.56
393.244	12.23
393.452	12.38
393.66	12.39
393.867	12.24
394.075	11.94
394.283	11.8
394.49	12
394.698	12.21
394.905	12.33
395.113	12.54
395.32	12.3
395.528	12.45
395.735	12.53
395.943	12.51
396.15	12.26
396.358	12.46
396.565	12.32
396.773	11.88
396.98	11.95
397.188	11.49
397.395	11.21
397.602	11.18
397.81	11.66
398.017	11.35
398.225	11.27
398.432	11.47
398.639	11.54
398.847	11.31
399.054	11.37
399.261	10.69
399.468	10.9
399.676	10.77
399.883	10.67
400.09	10.49
400.297	10.47
400.505	10.31
400.712	10.79
400.919	10.37
401.126	11.02
401.333	11.34
401.54	11.78
401.748	11.82
401.955	12.15
402.162	11.97
402.369	12.01
402.576	11.82
402.783	11.97
402.99	11.62
403.197	11.88
403.404	11.58
403.611	11.42
403.818	11.35
404.025	11.28
404.232	11.01
404.439	11.19
404.646	10.81
404.853	11.31
405.06	11.46
405.267	11.78
405.474	11.5
405.681	11.57
405.887	11.6
406.094	11.43
406.301	11.31
406.508	11.51
406.715	11.47
406.922	11.69
407.128	11.36
407.335	10.95
407.542	10.18
407.749	10.04
407.955	9.71
408.162	9.7
408.369	9.77
408.575	9.97
408.782	9.55
408.989	9.52
409.195	9.39
409.402	9.66
409.609	9.87
409.815	10.16
410.022	10.5
410.228	10.74
410.435	10.78
410.642	10.92
410.848	10.86
411.055	11.15
411.261	11.11
411.468	10.83
411.674	10.75
411.881	10.65
412.087	10.69
412.294	10.74
412.5	10.64
412.706	10.36
412.913	10.36
413.119	10.25
413.326	10.09
413.532	10.22
413.738	10.43
413.945	10.41
414.151	10.46
414.357	10.34
414.564	9.97
414.77	9.87
414.976	9.86
415.182	9.66
415.389	9.94
415.595	10.06
415.801	9.99
416.007	10.04
416.214	9.87
416.42	9.93
416.626	10.07
416.832	10.35
417.038	10.64
417.244	10.74
417.45	10.7
417.657	10.55
417.863	10.61
418.069	10.76
418.275	10.72
418.481	10.85
418.687	10.81
418.893	10.56
419.099	10.43
419.305	10.53
419.511	10.47
419.717	10.49
419.923	10.59
420.129	10.61
420.335	10.52
420.541	10.67
420.746	10.69
420.952	10.85
421.158	11.01
421.364	11.05
421.57	11.01
421.776	11.04
421.982	11.15
422.187	10.96
422.393	10.97
422.599	10.83
422.805	10.77
423.01	10.52
423.216	10.37
423.422	10.26
423.628	10.23
423.833	10
424.039	9.83
424.245	9.79
424.45	10.01
424.656	9.91
424.862	10.12
425.067	10.02
425.273	10.21
425.478	10.24
425.684	10.24
425.889	10.16
426.095	10.34
426.301	10.62
426.506	10.56
426.712	10.34
426.917	10.47
427.123	10.36
427.328	10.45
427.533	10.32
427.739	10.14
427.944	10.45
428.15	10.63
428.355	10.37
428.561	10.23
428.766	10.46
428.971	10.42
429.177	10.19
429.382	10.14
429.587	10.05
429.793	10.34
429.998	10.33
430.203	9.97
430.408	9.8
430.614	9.8
430.819	9.6
431.024	9.32
431.229	9.54
431.434	9.8
431.64	9.89
431.845	9.83
432.05	9.69
432.255	9.79
432.46	9.93
432.665	10.12
432.87	10.16
433.076	10.31
433.281	10.45
433.486	10.3
433.691	10.24
433.896	10.13
434.101	10.16
434.306	10.16
434.511	10.2
434.716	10.21
434.921	10.16
435.126	10.25
435.331	10.28
435.535	10.11
435.74	10.25
435.945	10.01
436.15	9.95
436.355	9.86
436.56	9.9
436.765	9.9
436.97	9.78
437.174	9.43
437.379	9.57
437.584	9.61
437.789	9.76
437.993	9.53
438.198	9.59
438.403	9.63
438.608	9.85
438.812	9.78
439.017	9.87
439.222	9.89
439.426	10.07
439.631	9.78
439.836	9.73
440.04	9.66
440.245	9.74
440.45	9.98
440.654	10.02
440.859	9.98
441.063	10.07
441.268	9.95
441.472	9.93
441.677	10.03
441.881	10.11
442.086	9.88
442.29	9.85
442.495	9.88
442.699	9.52
442.904	9.53
443.108	9.39
443.312	9.3
443.517	9.43
443.721	9.34
443.925	9.24
444.13	9.35
444.334	9.76
444.538	9.9
444.743	9.87
444.947	10.07
445.151	9.97
445.356	10.01
445.56	9.86
445.764	9.85
445.968	9.96
446.173	9.96
446.377	9.89
446.581	9.83
446.785	9.73
446.989	9.76
447.193	9.79
447.398	9.8
447.602	9.82
447.806	9.83
448.01	9.72
448.214	9.67
448.418	9.66
448.622	9.7
448.826	9.45
449.03	9.42
449.234	9.31
449.438	9.16
449.642	9.16
449.846	9.08
450.05	9.06
450.254	9.13
450.458	9.16
450.662	9.03
450.866	9.15
451.069	9.11
451.273	9.13
451.477	9.22
451.681	9.21
451.885	9.26
452.089	9.56
452.292	9.69
452.496	9.81
452.7	9.76
452.904	9.86
453.107	9.55
453.311	9.77
453.515	9.84
453.719	9.81
453.922	9.69
454.126	9.69
454.33	9.43
454.533	9.37
454.737	9.26
454.94	9.3
455.144	9.16
455.348	9.37
455.551	9.38
455.755	9.19
455.958	9.42
456.162	9.51
456.365	9.63
456.569	9.67
456.772	9.54
456.976	9.58
457.179	9.56
457.383	9.71
457.586	9.72
457.79	9.68
457.993	9.89
458.196	9.69
458.4	9.65
458.603	9.44
458.807	9.48
459.01	9.6
459.213	9.44
459.417	9.5
459.62	9.48
459.823	9.56
460.026	9.57
460.23	9.44
460.433	9.34
460.636	9.39
460.839	9.46
461.042	9.39
461.246	9.28
461.449	9.32
461.652	9.31
461.855	9.33
462.058	9.17
462.261	9.12
462.464	9.18
