Data from 2937836_Reflection_2.txt Node
Date: Wed Jul 15 16:30:27 EDT 2015
User: robert
Spectrometer: USB4E03001
Autoset integration time: false
Trigger mode: 4
Integration Time (sec): 1.000000E-1
Scans to average: 10
Electric dark correction enabled: true
Nonlinearity correction enabled: false
Boxcar width: 5
Stray light correction enabled: false
XAxis mode: Wavelengths
Stop averaging: false
Number of Pixels in Spectrum: 3648
>>>>>Begin Spectral Data<<<<<
177.566	283.44
177.785	450.89
178.005	-364.31
178.225	1.25
178.445	38.97
178.665	-29.21
178.885	108.7
179.105	183.99
179.324	128.47
179.544	129.56
179.764	116.35
179.984	124.93
180.204	-54.6
180.423	19.6
180.643	135.08
180.863	123.14
181.083	150.48
181.302	-312.82
181.522	-194.31
181.742	46.73
181.961	35.39
182.181	47.52
182.401	33.71
182.621	-682.62
182.84	-30.73
183.06	-34.97
183.279	-19.33
183.499	-39.74
183.719	-15.36
183.938	-20.6
184.158	-53.15
184.377	-25.52
184.597	-42.57
184.816	-14.99
185.036	-20.09
185.256	-35.51
185.475	-36.58
185.695	-16.34
185.914	18.41
186.134	45.25
186.353	63.56
186.572	58.75
186.792	52.45
187.011	65.35
187.231	68.4
187.45	76.06
187.67	71.12
187.889	52.55
188.108	56.73
188.328	59.63
188.547	44.32
188.766	33.41
188.986	48.82
189.205	30
189.424	33.93
189.644	27.8
189.863	33.34
190.082	23.33
190.302	23.1
190.521	32.33
190.74	2.59
190.959	22.55
191.178	3.95
191.398	-198.42
191.617	-90.26
191.836	-101.91
192.055	-117.62
192.274	-198.25
192.494	-125.44
192.713	-110.92
192.932	-293.48
193.151	-39.96
193.37	-22.34
193.589	23.46
193.808	8.77
194.027	27.3
194.246	33.39
194.465	26.06
194.685	30.75
194.904	41.34
195.123	43.99
195.342	42.6
195.561	43.94
195.78	21.68
195.999	-20.7
196.218	101.9
196.436	171.21
196.655	79.51
196.874	133.62
197.093	-1273.85
197.312	-73.74
197.531	261.22
197.75	266.59
197.969	252.68
198.188	98.59
198.407	74.41
198.625	-64.58
198.844	-32.11
199.063	-16.62
199.282	1.05
199.501	8.57
199.719	12.68
199.938	0.39
200.157	39.03
200.376	32.39
200.594	30.85
200.813	31.39
201.032	42.83
201.251	45.35
201.469	48.33
201.688	42.5
201.907	53.84
202.125	57.74
202.344	67.77
202.563	60.6
202.781	64.34
203	54.5
203.218	63.82
203.437	62.26
203.656	60.53
203.874	67.83
204.093	74.49
204.311	66.12
204.53	60.49
204.748	63.66
204.967	57.5
205.185	64.17
205.404	63.1
205.622	59.74
205.841	62.85
206.059	68.75
206.278	59.79
206.496	63.1
206.715	74.76
206.933	104.21
207.151	-92.31
207.37	2282.69
207.588	315.51
207.806	2.54
208.025	-145.77
208.243	-194.47
208.461	-163.92
208.68	-119.9
208.898	-133.99
209.116	-26.71
209.335	13.84
209.553	52.34
209.771	-16.02
209.989	62.33
210.208	46.67
210.426	40.47
210.644	20.79
210.862	35.69
211.081	35.33
211.299	18.14
211.517	-0.04
211.735	6.77
211.953	34.06
212.171	32.56
212.39	28.71
212.608	30.75
212.826	37.32
213.044	51.58
213.262	30.63
213.48	32.26
213.698	34.77
213.916	53.86
214.134	52.47
214.352	32.18
214.57	39.03
214.788	25.24
215.006	29.91
215.224	42.66
215.442	37.09
215.66	55.1
215.878	60.44
216.096	52
216.314	37.1
216.532	37.83
216.75	49.31
216.968	52.01
217.185	44.09
217.403	28.41
217.621	25.03
217.839	-21.57
218.057	-10.84
218.275	-16.63
218.492	37.23
218.71	36.34
218.928	16.74
219.146	8.6
219.363	11.94
219.581	44.21
219.799	60.1
220.017	91.53
220.234	98.02
220.452	107.9
220.67	103.34
220.887	116.17
221.105	116.61
221.323	111.4
221.54	112.43
221.758	101.79
221.976	105.57
222.193	72.02
222.411	28.24
222.629	38.42
222.846	18.22
223.064	8.95
223.281	-5.83
223.499	-5.47
223.716	13.13
223.934	-29.73
224.151	-38.26
224.369	-22.97
224.586	-20.92
224.804	5.23
225.021	1.23
225.239	12.76
225.456	-0.39
225.674	-1.93
225.891	11.14
226.108	8.25
226.326	16.74
226.543	23.12
226.76	21.95
226.978	27.05
227.195	21.52
227.413	22.94
227.63	17.95
227.847	19.88
228.064	15.85
228.282	16.11
228.499	15.15
228.716	15.68
228.934	18.83
229.151	19.49
229.368	18.94
229.585	17.81
229.802	14.72
230.02	16.31
230.237	15.18
230.454	19.67
230.671	19.94
230.888	18.38
231.105	19.13
231.323	13.51
231.54	8.22
231.757	8.62
231.974	8.5
232.191	9.29
232.408	8.92
232.625	12.85
232.842	3.19
233.059	-10.47
233.276	2.61
233.493	2.71
233.71	7.32
233.927	16.73
234.144	12.49
234.361	14.11
234.578	11.74
234.795	10.35
235.012	5.29
235.229	5.8
235.446	9.47
235.663	2.98
235.879	3.21
236.096	4.4
236.313	4.57
236.53	9.43
236.747	12.75
236.964	18.45
237.181	15.19
237.397	19.49
237.614	18.83
237.831	22.07
238.048	21.87
238.264	20.01
238.481	19.09
238.698	16.89
238.915	13.88
239.131	14.06
239.348	9.22
239.565	10.18
239.781	11.61
239.998	14.34
240.215	15
240.431	18.58
240.648	20.85
240.865	22.5
241.081	23.69
241.298	23.85
241.514	22.82
241.731	24.58
241.947	26.65
242.164	24.31
242.38	24.8
242.597	24.79
242.814	25.31
243.03	23.03
243.246	22
243.463	21.72
243.679	21.84
243.896	22.02
244.112	22.67
244.329	21.21
244.545	22.88
244.762	22.15
244.978	20.99
245.194	18.51
245.411	18.68
245.627	18.43
245.843	17.06
246.06	15.84
246.276	16.25
246.492	15.3
246.709	16.09
246.925	14.71
247.141	15.01
247.357	14.47
247.574	14.95
247.79	15.3
248.006	15.2
248.222	14.48
248.439	14.97
248.655	14.41
248.871	13.37
249.087	13.5
249.303	14.8
249.519	14.36
249.736	15.78
249.952	14.91
250.168	13.09
250.384	12.53
250.6	12.93
250.816	12.55
251.032	12.29
251.248	13.65
251.464	12.14
251.68	11.69
251.896	12.56
252.112	13.78
252.328	15.11
252.544	17.14
252.76	15.35
252.976	16.22
253.192	15.55
253.408	16.11
253.624	18.69
253.84	19.09
254.056	16.9
254.272	16.34
254.487	14.94
254.703	13.15
254.919	13.29
255.135	19.18
255.351	17.67
255.567	19.69
255.782	20.7
255.998	16.26
256.214	14.78
256.43	20.32
256.646	19.7
256.861	15.84
257.077	18.15
257.293	17.2
257.508	12.92
257.724	13.45
257.94	13.37
258.155	11.64
258.371	12.42
258.587	13.12
258.802	11.79
259.018	12.56
259.234	14.61
259.449	12.46
259.665	12.43
259.88	12.29
260.096	12.1
260.312	12.53
260.527	12.44
260.743	11.55
260.958	11.5
261.174	11.06
261.389	10.88
261.605	10.22
261.82	11.05
262.036	11.05
262.251	12.01
262.466	11.88
262.682	10.2
262.897	9.76
263.113	10.35
263.328	10.46
263.543	11.14
263.759	11.24
263.974	11.75
264.189	10.09
264.405	9.79
264.62	10.86
264.835	12.79
265.051	13.84
265.266	15.6
265.481	17.19
265.696	17.06
265.912	18.45
266.127	18
266.342	15.77
266.557	17.38
266.773	16.9
266.988	16.88
267.203	15.71
267.418	15.5
267.633	15.01
267.848	14.68
268.064	15.23
268.279	15.39
268.494	14.08
268.709	14.92
268.924	13.61
269.139	13.09
269.354	10.6
269.569	9.47
269.784	8.23
269.999	8.33
270.214	8.38
270.429	8.05
270.644	7.42
270.859	8.92
271.074	8.61
271.289	10.7
271.504	13.13
271.719	14.79
271.934	15.49
272.149	15.15
272.363	15.24
272.578	16.34
272.793	17.15
273.008	16.76
273.223	16.89
273.438	17.51
273.653	16.44
273.867	14.3
274.082	12.41
274.297	12.14
274.512	13.7
274.726	13.66
274.941	13.58
275.156	11.33
275.371	11.1
275.585	10.14
275.8	9.44
276.015	11.36
276.229	11.41
276.444	13.32
276.659	13.31
276.873	12.64
277.088	12.9
277.302	10.26
277.517	11.01
277.732	10.38
277.946	8.66
278.161	10.07
278.375	7.44
278.59	7.34
278.804	6.82
279.019	7.74
279.233	7.66
279.448	7.03
279.662	8.56
279.877	9.81
280.091	10.66
280.306	12.86
280.52	12.9
280.735	13.5
280.949	14.95
281.163	14.93
281.378	15.27
281.592	16.46
281.806	14.98
282.021	14.04
282.235	13.76
282.449	14.86
282.664	13.83
282.878	14.09
283.092	14.32
283.307	15.5
283.521	15.68
283.735	16.09
283.949	14.93
284.164	16.54
284.378	16.22
284.592	15.07
284.806	14.6
285.02	14.18
285.234	13.42
285.449	13.06
285.663	11.54
285.877	12.92
286.091	11.85
286.305	11.93
286.519	11.4
286.733	11.83
286.947	12.07
287.161	11.09
287.375	11.82
287.589	12.56
287.803	12.49
288.017	11.96
288.231	10.28
288.445	10.86
288.659	12.53
288.873	12.41
289.087	12.74
289.301	12.97
289.515	12.94
289.729	13.28
289.943	11.65
290.157	12.34
290.371	13.28
290.584	13.69
290.798	12.93
291.012	10.7
291.226	10.79
291.44	10.4
291.654	9.35
291.867	9.81
292.081	10.29
292.295	10.96
292.509	10.38
292.722	10.82
292.936	10.04
293.15	11.18
293.364	13.2
293.577	13.71
293.791	15.55
294.005	17.64
294.218	17.35
294.432	17.55
294.645	18.21
294.859	19.17
295.073	18.95
295.286	19.31
295.5	19.25
295.713	19.37
295.927	20.12
296.14	18.17
296.354	17.65
296.568	18.01
296.781	17.05
296.994	16.22
297.208	15.83
297.421	14.58
297.635	14.01
297.848	13.98
298.062	14.07
298.275	13.75
298.489	14.51
298.702	14.6
298.915	13.58
299.129	14.13
299.342	15.8
299.555	14.4
299.769	16.37
299.982	17.19
300.195	17.56
300.409	15.15
300.622	14.36
300.835	13.42
301.048	13.54
301.262	15.07
301.475	14.87
301.688	13.86
301.901	15.02
302.115	13.7
302.328	12.35
302.541	11.54
302.754	12.4
302.967	13.49
303.18	13.62
303.393	13.76
303.607	12.59
303.82	12.36
304.033	11.35
304.246	10.33
304.459	11.31
304.672	12.42
304.885	12.68
305.098	12.72
305.311	12.46
305.524	12.79
305.737	12.01
305.95	12.81
306.163	12.72
306.376	15.52
306.589	15.28
306.802	15.24
307.015	17.78
307.228	19.59
307.44	19.14
307.653	18.16
307.866	18.82
308.079	21.45
308.292	20.53
308.505	21.41
308.718	19.29
308.93	20.75
309.143	20.37
309.356	18.75
309.569	17.81
309.781	18.28
309.994	18.58
310.207	17.46
310.42	15.47
310.632	16.19
310.845	15.01
311.058	15.26
311.27	15.61
311.483	15.21
311.696	15.49
311.908	14.95
312.121	14.87
312.333	14.86
312.546	15.28
312.759	15.44
312.971	16.12
313.184	16.15
313.396	15.55
313.609	14.56
313.821	12.99
314.034	11.18
314.246	9.7
314.459	9.85
314.671	9.47
314.884	8.34
315.096	7.89
315.309	6.06
315.521	7.79
315.733	7.06
315.946	7.52
316.158	9.56
316.371	11.8
316.583	12.05
316.795	11.44
317.008	11.94
317.22	14.25
317.432	14.29
317.644	16.07
317.857	15.66
318.069	16.94
318.281	16.28
318.494	15.96
318.706	14.93
318.918	15.32
319.13	15.1
319.342	13.1
319.555	12.93
319.767	13.97
319.979	13.32
320.191	13.3
320.403	13.06
320.615	13.02
320.827	13.73
321.039	14.15
321.252	14.31
321.464	15.22
321.676	15.51
321.888	14.97
322.1	16.44
322.312	17.44
322.524	17.66
322.736	18.88
322.948	18.69
323.16	17.23
323.372	17.89
323.584	18.5
323.796	17.77
324.007	18.98
324.219	19.76
324.431	17.45
324.643	15.36
324.855	14.86
325.067	13.94
325.279	14.08
325.491	13.38
325.702	11.88
325.914	12.08
326.126	12.57
326.338	12.54
326.55	11.33
326.761	11.28
326.973	11.66
327.185	11.12
327.396	10.61
327.608	10.35
327.82	12.51
328.032	11.75
328.243	11.96
328.455	12.56
328.666	13.23
328.878	13.68
329.09	16.22
329.301	16.87
329.513	17.77
329.725	17.94
329.936	17.42
330.148	17.95
330.359	18.44
330.571	17.9
330.782	18.04
330.994	17.87
331.205	17.45
331.417	14.01
331.628	13.79
331.84	14.97
332.051	13.93
332.262	14.2
332.474	14.23
332.685	16.96
332.897	16.18
333.108	16.69
333.319	15.18
333.531	15.07
333.742	16.96
333.953	16.03
334.165	14.56
334.376	15.16
334.587	16.85
334.799	16.1
335.01	13.28
335.221	14.38
335.432	13.84
335.644	14.87
335.855	14.94
336.066	13.86
336.277	15.09
336.488	16.43
336.7	17.26
336.911	16.67
337.122	17.38
337.333	18.55
337.544	17.14
337.755	16.75
337.966	14.95
338.177	14.84
338.388	15.61
338.599	15.78
338.811	13.87
339.022	13.65
339.233	12.95
339.444	13.41
339.655	14.65
339.866	16.26
340.076	17.25
340.287	19.78
340.498	20.55
340.709	20.73
340.92	20.13
341.131	21.39
341.342	20.95
341.553	20.66
341.764	19.81
341.975	18.18
342.185	17.32
342.396	17.95
342.607	17.19
342.818	16.45
343.029	17.07
343.239	16.04
343.45	14.85
343.661	14.92
343.872	14.98
344.082	14.12
344.293	14.81
344.504	15.32
344.714	13.37
344.925	13.39
345.136	13.09
345.346	11.81
345.557	12.07
345.768	12.7
345.978	13.37
346.189	13.53
346.399	14.11
346.61	13.22
346.821	12.91
347.031	14.39
347.242	12.92
347.452	12.6
347.663	12.72
347.873	12.86
348.084	13.34
348.294	11.62
348.504	11.03
348.715	10.8
348.925	11.31
349.136	11.25
349.346	10.16
349.557	11.14
349.767	12.44
349.977	13.23
350.188	14.29
350.398	14.43
350.608	16.31
350.819	17.56
351.029	18.36
351.239	17.75
351.449	17.1
351.66	16.61
351.87	15.73
352.08	15.04
352.29	14.61
352.501	14.74
352.711	14.01
352.921	12.85
353.131	12.12
353.341	12.04
353.552	12.92
353.762	14.3
353.972	15.21
354.182	17.15
354.392	18.42
354.602	17.93
354.812	16.5
355.022	17.05
355.232	16.8
355.442	17.29
355.652	16.85
355.862	15.49
356.072	15.06
356.282	15.14
356.492	13.92
356.702	12.23
356.912	12.62
357.122	13.71
357.332	12.99
357.542	13.46
357.752	13.38
357.962	13.3
358.171	14.06
358.381	13.81
358.591	14.15
358.801	14.88
359.011	15.1
359.221	14.42
359.43	14.26
359.64	14.37
359.85	13.09
360.06	13.72
360.269	12.94
360.479	12.43
360.689	12.42
360.899	12.1
361.108	12.3
361.318	13.13
361.528	13.71
361.737	14.27
361.947	14.05
362.156	15.66
362.366	15.33
362.576	15.61
362.785	16.01
362.995	16.59
363.204	16.39
363.414	16.19
363.623	15.17
363.833	15.17
364.042	14.29
364.252	14.94
364.461	13.48
364.671	13.77
364.88	14.08
365.09	14.84
365.299	14.45
365.509	14.59
365.718	14.51
365.927	15.65
366.137	14.48
366.346	14.39
366.555	13.61
366.765	14.75
366.974	14.2
367.183	13.82
367.393	12.41
367.602	11.35
367.811	11.33
368.021	11.7
368.23	10.88
368.439	11.25
368.648	11.71
368.857	12.53
369.067	11.11
369.276	10.28
369.485	10.53
369.694	10.8
369.903	11.66
370.112	11.5
370.321	11.2
370.531	11.43
370.74	11.4
370.949	11.74
371.158	11.46
371.367	12.64
371.576	13.57
371.785	14.06
371.994	14.44
372.203	14.14
372.412	14.02
372.621	13.29
372.83	13.58
373.039	14.23
373.248	12.99
373.457	12.77
373.666	12.56
373.874	12.33
374.083	12.61
374.292	11.87
374.501	12.18
374.71	12.01
374.919	12.58
375.128	12.25
375.336	12.35
375.545	12.48
375.754	12.35
375.963	11.47
376.171	11.47
376.38	10.82
376.589	11.08
376.798	11.08
377.006	11.58
377.215	10.79
377.424	10.55
377.632	10.21
377.841	10.55
378.05	10.97
378.258	11.31
378.467	11.44
378.675	11.25
378.884	11.14
379.093	10.95
379.301	10.89
379.51	11.17
379.718	11.32
379.927	11.79
380.135	11.71
380.344	10.75
380.552	11.43
380.761	10.95
380.969	10.55
381.177	10.93
381.386	10.76
381.594	9.84
381.803	10.47
382.011	10.74
382.219	10.46
382.428	10.28
382.636	10.81
382.845	10.23
383.053	10.03
383.261	10.44
383.469	10.29
383.678	10.11
383.886	10.59
384.094	10.15
384.302	9.62
384.511	10
384.719	10.36
384.927	10.61
385.135	10.32
385.343	10.37
385.552	10.21
385.76	10.11
385.968	9.76
386.176	9.83
386.384	9.66
386.592	10.03
386.8	9.46
387.008	9.23
387.216	8.98
387.424	9.34
387.633	9.47
387.841	9.38
388.049	9.14
388.257	9.64
388.465	9.15
388.672	9.34
388.88	9.11
389.088	8.94
389.296	8.6
389.504	8.13
389.712	7.05
389.92	6.62
390.128	6.6
390.336	6.84
390.544	6.64
390.751	6.4
390.959	5.99
391.167	5.83
391.375	5.73
391.583	5.92
391.79	6.27
391.998	7.01
392.206	6.83
392.414	6.82
392.621	6.81
392.829	6.88
393.037	7.2
393.244	7.45
393.452	7.41
393.66	7.43
393.867	7.47
394.075	7.43
394.283	7.31
394.49	7.93
394.698	7.76
394.905	7.56
395.113	7.51
395.32	7.41
395.528	7.36
395.735	7.54
395.943	7.39
396.15	7.19
396.358	7.19
396.565	7.27
396.773	6.92
396.98	7.81
397.188	7.37
397.395	7.38
397.602	7.27
397.81	7.33
398.017	6.98
398.225	7.18
398.432	7.41
398.639	7.8
398.847	7.37
399.054	7.51
399.261	6.42
399.468	7.02
399.676	6.77
399.883	7.04
400.09	7.09
400.297	6.78
400.505	6.9
400.712	7.05
400.919	6.37
401.126	6.37
401.333	6.11
401.54	6.54
401.748	6.59
401.955	6.7
402.162	6.48
402.369	6.54
402.576	6.89
402.783	6.63
402.99	6.41
403.197	6.59
403.404	6.99
403.611	6.95
403.818	6.77
404.025	6.57
404.232	6.73
404.439	6.65
404.646	6.73
404.853	6.85
405.06	6.93
405.267	7.04
405.474	7.3
405.681	7.02
405.887	7.23
406.094	7.37
406.301	7.14
406.508	7.25
406.715	7.55
406.922	7.13
407.128	7.29
407.335	7.01
407.542	6.6
407.749	6.25
407.955	6.43
408.162	6.42
408.369	6.74
408.575	7.26
408.782	6.86
408.989	6.51
409.195	6.6
409.402	6.65
409.609	6.85
409.815	7.02
410.022	7.15
410.228	6.88
410.435	6.81
410.642	6.4
410.848	6.08
411.055	6.51
411.261	6.6
411.468	6.29
411.674	6.25
411.881	6.39
412.087	6.51
412.294	6.44
412.5	6.76
412.706	6.58
412.913	6.75
413.119	6.82
413.326	6.41
413.532	6.59
413.738	6.69
413.945	6.44
414.151	6.31
414.357	6.28
414.564	6.17
414.77	5.79
414.976	5.9
415.182	5.55
415.389	5.8
415.595	5.72
415.801	5.83
416.007	6.01
416.214	5.91
416.42	5.94
416.626	5.85
416.832	5.84
417.038	6.08
417.244	5.99
417.45	6.14
417.657	5.92
417.863	6.1
418.069	5.94
418.275	5.88
418.481	6.09
418.687	6.19
418.893	6.1
419.099	6.12
419.305	6.1
419.511	6.12
419.717	6.03
419.923	6.21
420.129	6.28
420.335	6.23
420.541	6.43
420.746	6.47
420.952	6.48
421.158	6.56
421.364	6.59
421.57	6.64
421.776	6.74
421.982	6.85
422.187	6.69
422.393	6.64
422.599	6.71
422.805	6.59
423.01	6.42
423.216	6.37
423.422	6.3
423.628	6.26
423.833	6.13
424.039	5.95
424.245	6.01
424.45	6.12
424.656	6.1
424.862	6.12
425.067	5.98
425.273	6.04
425.478	6.22
425.684	6.25
425.889	6.16
426.095	6.22
426.301	6.37
426.506	6.16
426.712	6.05
426.917	6.02
427.123	6.01
427.328	6.2
427.533	6.26
427.739	5.91
427.944	6.03
428.15	6.3
428.355	6.28
428.561	6.52
428.766	6.61
428.971	6.45
429.177	6.38
429.382	6.3
429.587	6.2
429.793	6.17
429.998	6.14
430.203	5.94
430.408	5.71
430.614	5.51
430.819	5.16
431.024	5.11
431.229	5.26
431.434	5.41
431.64	5.36
431.845	5.33
432.05	5.31
432.255	5.37
432.46	5.51
432.665	5.66
432.87	5.78
433.076	5.75
433.281	5.96
433.486	6.07
433.691	5.92
433.896	6.17
434.101	6.19
434.306	6.19
434.511	6.2
434.716	6.33
434.921	6.29
435.126	6.35
435.331	6.57
435.535	6.24
435.74	6.33
435.945	6.45
436.15	6.11
436.355	6.07
436.56	6
436.765	6.06
436.97	5.97
437.174	6.04
437.379	5.94
437.584	5.79
437.789	5.98
437.993	5.67
438.198	5.57
438.403	5.67
438.608	5.79
438.812	5.73
439.017	5.66
439.222	5.46
439.426	5.37
439.631	5.3
439.836	5.38
440.04	5.47
440.245	5.48
440.45	5.51
440.654	5.46
440.859	5.5
441.063	5.58
441.268	5.49
441.472	5.67
441.677	5.61
441.881	5.66
442.086	5.51
442.29	5.29
442.495	5.35
442.699	5.27
442.904	5.28
443.108	5.1
443.312	5.09
443.517	5.25
443.721	5.14
443.925	5.15
444.13	5.34
444.334	5.45
444.538	5.59
444.743	5.65
444.947	5.88
445.151	5.81
445.356	5.95
445.56	5.88
445.764	5.81
445.968	5.88
446.173	5.85
446.377	5.84
446.581	5.89
446.785	5.87
446.989	5.88
447.193	5.67
447.398	5.62
447.602	5.48
447.806	5.46
448.01	5.58
448.214	5.4
448.418	5.32
448.622	5.39
448.826	5.18
449.03	5.12
449.234	5.02
449.438	4.97
449.642	5.12
449.846	5.09
450.05	5.27
450.254	5.28
450.458	5.32
450.662	5.27
450.866	5.14
451.069	5.08
451.273	4.94
451.477	4.98
451.681	5.07
451.885	5.3
452.089	5.46
452.292	5.33
452.496	5.07
452.7	5.14
452.904	5.33
453.107	5.32
453.311	5.5
453.515	5.59
453.719	5.47
453.922	5.31
454.126	5.1
454.33	5.01
454.533	5.2
454.737	5.31
454.94	5.3
455.144	5.22
455.348	5
455.551	5.05
455.755	5.14
455.958	5.29
456.162	5.42
456.365	5.4
456.569	5.49
456.772	5.28
456.976	5.28
457.179	5.18
457.383	5.21
457.586	5.29
457.79	5.18
457.993	5.13
458.196	5.23
458.4	5.21
458.603	5.11
458.807	5.15
459.01	5.07
459.213	5.12
459.417	5.19
459.62	5.21
459.823	5.27
460.026	5.27
460.23	5.21
460.433	4.97
460.636	5.08
460.839	5.21
461.042	5.17
461.246	5.26
461.449	5.14
461.652	5.23
461.855	5.33
462.058	5.19
