Data from 2937838_Reflection_3.txt Node
Date: Wed Jul 15 16:25:34 EDT 2015
User: robert
Spectrometer: USB4E03001
Autoset integration time: false
Trigger mode: 4
Integration Time (sec): 1.000000E-1
Scans to average: 10
Electric dark correction enabled: true
Nonlinearity correction enabled: false
Boxcar width: 5
Stray light correction enabled: false
XAxis mode: Wavelengths
Stop averaging: false
Number of Pixels in Spectrum: 3648
>>>>>Begin Spectral Data<<<<<
177.566	-168.74
177.785	-126.14
178.005	-88.14
178.225	-138.17
178.445	-52.98
178.665	-145.89
178.885	150.26
179.105	-127.58
179.324	-397.64
179.544	-343.94
179.764	-220.61
179.984	-135.93
180.204	-207.25
180.423	-98.86
180.643	-173.65
180.863	-92.77
181.083	-75.94
181.302	-122.84
181.522	-251.16
181.742	-203.65
181.961	-471.29
182.181	226.69
182.401	259.47
182.621	172.4
182.84	113.32
183.06	144.31
183.279	141.39
183.499	177.95
183.719	181.16
183.938	177.93
184.158	347.03
184.377	1293.06
184.597	-3441.46
184.816	-842.6
185.036	-835.38
185.256	-171.18
185.475	-65.18
185.695	-177.74
185.914	-140.64
186.134	-4853.57
186.353	194.19
186.572	333
186.792	173.72
187.011	1106.44
187.231	75.02
187.45	78.47
187.67	85.64
187.889	112.17
188.108	28.23
188.328	-200.51
188.547	321.96
188.766	300
188.986	-748.56
189.205	21.66
189.424	32.39
189.644	-15.92
189.863	59.61
190.082	131.61
190.302	102.16
190.521	22.21
190.74	-61.75
190.959	-3.13
191.178	-7.01
191.398	20.5
191.617	28.35
191.836	3.33
192.055	52.3
192.274	-25.7
192.494	-11.74
192.713	-35.15
192.932	-51.96
193.151	-88.62
193.37	136.85
193.589	60.3
193.808	102.46
194.027	90.81
194.246	91.78
194.465	97.76
194.685	114.1
194.904	90.77
195.123	96.49
195.342	133.53
195.561	150.02
195.78	-370.22
195.999	-139.64
196.218	-24.19
196.436	-35.22
196.655	-7.61
196.874	21.9
197.093	-333.87
197.312	-230.75
197.531	742.27
197.75	-313.25
197.969	-3444.78
198.188	309.48
198.407	218.97
198.625	132.74
198.844	91.47
199.063	120.56
199.282	300.71
199.501	-888.17
199.719	-112.38
199.938	-87.62
200.157	94.9
200.376	55.25
200.594	93.04
200.813	55.39
201.032	17.62
201.251	20.23
201.469	26.02
201.688	32.08
201.907	-29.99
202.125	-879.29
202.344	1213.61
202.563	1603.89
202.781	-2131.05
203	933.22
203.218	633.86
203.437	760.04
203.656	4540.98
203.874	-820.41
204.093	1068.01
204.311	1370.59
204.53	869.52
204.748	182.17
204.967	197.91
205.185	339.04
205.404	298.88
205.622	318.93
205.841	143.46
206.059	131.93
206.278	135.4
206.496	231.54
206.715	166.81
206.933	91.28
207.151	20.27
207.37	-7.59
207.588	-23.44
207.806	-61.45
208.025	15.78
208.243	-787.76
208.461	-305.14
208.68	462.91
208.898	-16.97
209.116	-61.5
209.335	-63.9
209.553	2446.71
209.771	-182.34
209.989	-93.94
210.208	-176.87
210.426	-643.69
210.644	-398.36
210.862	396.86
211.081	3223.03
211.299	-25223.33
211.517	-288.17
211.735	-2380.56
211.953	1011.25
212.171	400.23
212.39	-4453.73
212.608	-3997.52
212.826	1854.76
213.044	854.06
213.262	-1566.47
213.48	616.13
213.698	985.94
213.916	530.25
214.134	-1118.18
214.352	-48.97
214.57	-16.29
214.788	7.48
215.006	-19.4
215.224	2.2
215.442	53.57
215.66	238.82
215.878	52.53
216.096	-4.28
216.314	440.61
216.532	579.3
216.75	251.17
216.968	206.29
217.185	141.17
217.403	130.6
217.621	124.99
217.839	161.66
218.057	402.76
218.275	-437.01
218.492	121.75
218.71	52.64
218.928	56.47
219.146	40
219.363	-146.14
219.581	-34.5
219.799	-37.96
220.017	8.09
220.234	23.8
220.452	14.11
220.67	21.76
220.887	20.59
221.105	51.79
221.323	100.85
221.54	42.61
221.758	59.24
221.976	51.99
222.193	45.08
222.411	47.13
222.629	11.31
222.846	38.96
223.064	30.91
223.281	31.79
223.499	2.66
223.716	-31.24
223.934	8.12
224.151	26.19
224.369	38.17
224.586	27.25
224.804	17.4
225.021	54.65
225.239	63.27
225.456	73.71
225.674	84.2
225.891	97.87
226.108	82.59
226.326	77.74
226.543	63.61
226.76	60.59
226.978	52.72
227.195	43.7
227.413	30.24
227.63	15.7
227.847	16.21
228.064	11.7
228.282	9.06
228.499	8.99
228.716	6.25
228.934	9.01
229.151	3.51
229.368	9.18
229.585	9.44
229.802	7.04
230.02	8.05
230.237	4.96
230.454	4.64
230.671	2.75
230.888	2.76
231.105	6.32
231.323	6.5
231.54	7.39
231.757	5.56
231.974	9.95
232.191	11.5
232.408	9.78
232.625	11.28
232.842	10.27
233.059	15.91
233.276	17.72
233.493	13.38
233.71	10.6
233.927	12.98
234.144	13.67
234.361	1.2
234.578	6.72
234.795	19.06
235.012	21.47
235.229	22.21
235.446	22.76
235.663	23.09
235.879	29.01
236.096	30.25
236.313	32.07
236.53	28.92
236.747	39.33
236.964	34.15
237.181	22.37
237.397	25.25
237.614	30.82
237.831	30.67
238.048	30.73
238.264	35.37
238.481	31.29
238.698	32.12
238.915	31.7
239.131	23.88
239.348	26.34
239.565	25.46
239.781	20.32
239.998	15.51
240.215	16.61
240.431	15.5
240.648	10.58
240.865	13.27
241.081	10.45
241.298	14.11
241.514	12.53
241.731	13.24
241.947	12.56
242.164	11.67
242.38	11.44
242.597	8.62
242.814	8.07
243.03	8.39
243.246	8.4
243.463	8.33
243.679	6.62
243.896	7.84
244.112	7.5
244.329	7.22
244.545	8.18
244.762	7.27
244.978	10.55
245.194	11.55
245.411	9.61
245.627	11.18
245.843	13.18
246.06	11.96
246.276	12.3
246.492	11.7
246.709	12.7
246.925	12.96
247.141	13.41
247.357	11.81
247.574	10.79
247.79	10.94
248.006	11.29
248.222	10.02
248.439	10.26
248.655	9.53
248.871	9.18
249.087	8.84
249.303	8.04
249.519	8.59
249.736	9.07
249.952	7.91
250.168	10.11
250.384	8.73
250.6	10.56
250.816	8.99
251.032	11.03
251.248	9.16
251.464	8.26
251.68	10.49
251.896	8.68
252.112	10.24
252.328	11.72
252.544	10.39
252.76	11.55
252.976	13.26
253.192	14.51
253.408	14.3
253.624	16.95
253.84	17.7
254.056	16.87
254.272	19.17
254.487	18.5
254.703	20.19
254.919	19.77
255.135	18.8
255.351	15.24
255.567	14.01
255.782	11.66
255.998	11.26
256.214	8.61
256.43	11.86
256.646	8.98
256.861	8.72
257.077	6.39
257.293	7.3
257.508	4.27
257.724	5.95
257.94	6.07
258.155	4.69
258.371	5.38
258.587	7.74
258.802	7.21
259.018	6.9
259.234	6.87
259.449	7.91
259.665	7.08
259.88	7.54
260.096	7.19
260.312	6.95
260.527	7.07
260.743	6.15
260.958	6.11
261.174	5.75
261.389	6.25
261.605	6.16
261.82	5.2
262.036	5.07
262.251	5.86
262.466	6.11
262.682	6.11
262.897	6.24
263.113	7.52
263.328	5.21
263.543	4.96
263.759	5.71
263.974	7.79
264.189	7.24
264.405	6.25
264.62	7.45
264.835	4.25
265.051	3.21
265.266	6.78
265.481	6.56
265.696	10.66
265.912	10.81
266.127	9.54
266.342	8.38
266.557	9.25
266.773	10.62
266.988	7.44
267.203	9.02
267.418	10.22
267.633	9.68
267.848	9.71
268.064	7.92
268.279	6.51
268.494	7.21
268.709	6.25
268.924	5.35
269.139	5.38
269.354	6.61
269.569	6.38
269.784	6.77
269.999	4.61
270.214	4.67
270.429	5
270.644	5.49
270.859	4.4
271.074	5.41
271.289	5.94
271.504	6.75
271.719	6.28
271.934	6.19
272.149	4.96
272.363	5.07
272.578	5.77
272.793	5.57
273.008	5.52
273.223	5.85
273.438	5.47
273.653	6.6
273.867	4.69
274.082	4.86
274.297	5.27
274.512	5.83
274.726	5.63
274.941	4.92
275.156	4.75
275.371	3.86
275.585	3.61
275.8	2.86
276.015	2.47
276.229	4.68
276.444	4.36
276.659	5.29
276.873	7.24
277.088	8.47
277.302	8.35
277.517	7.95
277.732	9.36
277.946	9.98
278.161	9.67
278.375	8.99
278.59	7.84
278.804	10.14
279.019	9.37
279.233	7.76
279.448	7.59
279.662	6.97
279.877	7.53
280.091	7.77
280.306	9.29
280.52	11.24
280.735	10.64
280.949	10.43
281.163	10.03
281.378	9.89
281.592	9.01
281.806	8.42
282.021	8.1
282.235	8.3
282.449	8.57
282.664	7.28
282.878	6.17
283.092	8.03
283.307	7.19
283.521	6.89
283.735	6.94
283.949	5.43
284.164	5.92
284.378	7.18
284.592	7.07
284.806	6.79
285.02	7.24
285.234	6.26
285.449	4.74
285.663	4.69
285.877	3.46
286.091	3.57
286.305	6.38
286.519	6.79
286.733	6.11
286.947	5.94
287.161	6.4
287.375	4.69
287.589	6.44
287.803	7.41
288.017	7.41
288.231	8.79
288.445	9.32
288.659	8.39
288.873	7.83
289.087	8.92
289.301	8.39
289.515	8.35
289.729	9.92
289.943	10.06
290.157	10.86
290.371	12.14
290.584	11.82
290.798	10.87
291.012	10.56
291.226	10.79
291.44	8.94
291.654	9.8
291.867	9.9
292.081	10.26
292.295	8.86
292.509	7.01
292.722	6.88
292.936	6.5
293.15	5.29
293.364	6.2
293.577	6.82
293.791	9.63
294.005	9.03
294.218	8.51
294.432	9.74
294.645	10.4
294.859	10.78
295.073	11.49
295.286	11.67
295.5	12.04
295.713	10.72
295.927	9.68
296.14	8.51
296.354	9.54
296.568	10.06
296.781	8.8
296.994	8.13
297.208	8.55
297.421	7.35
297.635	7.45
297.848	7.86
298.062	8.21
298.275	8.13
298.489	8.56
298.702	8.07
298.915	6.67
299.129	5.72
299.342	6.9
299.555	5.99
299.769	6.48
299.982	5.58
300.195	5.57
300.409	5.83
300.622	6.23
300.835	4.57
301.048	4.32
301.262	6.07
301.475	7.05
301.688	5.36
301.901	5.49
302.115	6.17
302.328	7.25
302.541	7.2
302.754	8.5
302.967	8.89
303.18	10.76
303.393	10.52
303.607	9.71
303.82	8.7
304.033	8.22
304.246	8.54
304.459	8.55
304.672	8.51
304.885	9.42
305.098	8.64
305.311	8.4
305.524	8.14
305.737	8.72
305.95	7.93
306.163	9.46
306.376	10.38
306.589	11.46
306.802	11.59
307.015	10.06
307.228	10.82
307.44	9.91
307.653	10.25
307.866	9.35
308.079	8.64
308.292	9.13
308.505	9.61
308.718	11.7
308.93	10.53
309.143	9.09
309.356	9.47
309.569	7.81
309.781	7.67
309.994	8.5
310.207	8.88
310.42	9.59
310.632	9.62
310.845	9.09
311.058	8.08
311.27	8.76
311.483	9.51
311.696	10.59
311.908	11.69
312.121	11.68
312.333	11.37
312.546	12.32
312.759	12.48
312.971	13.43
313.184	14.67
313.396	13.59
313.609	12.73
313.821	12
314.034	12.95
314.246	12.04
314.459	14.45
314.671	14.47
314.884	13.96
315.096	13.41
315.309	12.58
315.521	10.95
315.733	13.47
315.946	13.95
316.158	14.7
316.371	12.74
316.583	11.95
316.795	8.92
317.008	8.15
317.22	6.29
317.432	7.91
317.644	6.99
317.857	9.36
318.069	8.87
318.281	8.52
318.494	8.86
318.706	8.74
318.918	9.25
319.13	10.05
319.342	8.54
319.555	8.23
319.767	7.8
319.979	9.4
320.191	7.87
320.403	7.89
320.615	8.96
320.827	8.75
321.039	9.2
321.252	9
321.464	9.26
321.676	12.64
321.888	14.2
322.1	13.48
322.312	14.02
322.524	13.44
322.736	12.94
322.948	12.5
323.16	13.75
323.372	14.91
323.584	15.21
323.796	15.89
324.007	15.38
324.219	15.81
324.431	15.32
324.643	14.88
324.855	16.29
325.067	16.75
325.279	17.88
325.491	17.77
325.702	16.62
325.914	17.75
326.126	18.2
326.338	18.49
326.55	19.04
326.761	21.12
326.973	22.4
327.185	22.09
327.396	22.39
327.608	21.71
327.82	22.38
328.032	22.81
328.243	23.31
328.455	23.56
328.666	25.16
328.878	25.83
329.09	25.04
329.301	25.09
329.513	26.16
329.725	25.34
329.936	25.83
330.148	25.6
330.359	27.32
330.571	27.67
330.782	27.98
330.994	27.53
331.205	26.71
331.417	27.37
331.628	28.52
331.84	28.5
332.051	30.36
332.262	30.99
332.474	31
332.685	30.84
332.897	31.25
333.108	32.53
333.319	31.94
333.531	33.51
333.742	34.22
333.953	33.39
334.165	33.17
334.376	33.82
334.587	33.77
334.799	33.03
335.01	32.73
335.221	32.99
335.432	33.16
335.644	33.09
335.855	32.06
336.066	32.63
336.277	33.6
336.488	34.27
336.7	33.24
336.911	33.14
337.122	33.72
337.333	33.81
337.544	32.89
337.755	33.18
337.966	33.38
338.177	34.78
338.388	33.77
338.599	33.49
338.811	33.38
339.022	33.64
339.233	34.74
339.444	35.88
339.655	36.93
339.866	38.34
340.076	37.83
340.287	37.77
340.498	35.92
340.709	35.61
340.92	35.3
341.131	35.07
341.342	36.24
341.553	36.55
341.764	35.84
341.975	36.49
342.185	36.29
342.396	35.67
342.607	35.88
342.818	37.85
343.029	38.14
343.239	37.64
343.45	38.02
343.661	37
343.872	36.21
344.082	36.83
344.293	35.89
344.504	35.84
344.714	35.7
344.925	36.41
345.136	35.16
345.346	36.09
345.557	36.63
345.768	36.67
345.978	36.62
346.189	37.26
346.399	36.73
346.61	36.37
346.821	37.48
347.031	37.3
347.242	36.77
347.452	37.93
347.663	37.1
347.873	36.69
348.084	37.39
348.294	37.43
348.504	37.18
348.715	38.6
348.925	38.58
349.136	37.39
349.346	37.27
349.557	38.04
349.767	37.77
349.977	38.34
350.188	38.85
350.398	37.72
350.608	38.73
350.819	38.74
351.029	38.25
351.239	39.13
351.449	39.74
351.66	41.05
351.87	39.49
352.08	39.33
352.29	38.9
352.501	38.46
352.711	38.68
352.921	38.18
353.131	37.4
353.341	36.68
353.552	36.89
353.762	36.07
353.972	35.95
354.182	37.12
354.392	37.06
354.602	37.32
354.812	36.83
355.022	37.17
355.232	37.45
355.442	38.04
355.652	37.6
355.862	37.11
356.072	37.09
356.282	37.64
356.492	37.75
356.702	37.11
356.912	36.59
357.122	37.34
357.332	36.66
357.542	36.07
357.752	35.74
357.962	37.02
358.171	36.61
358.381	36.5
358.591	35.49
358.801	35.19
359.011	35.25
359.221	35.86
359.43	35.76
359.64	36.33
359.85	37.09
360.06	37.68
360.269	36.89
360.479	36.71
360.689	36.74
360.899	36.85
361.108	36.79
361.318	36.72
361.528	36.02
361.737	35.72
361.947	35.61
362.156	34.31
362.366	34.09
362.576	33.65
362.785	33.71
362.995	34.14
363.204	33.48
363.414	33.57
363.623	33.89
363.833	34.2
364.042	34.44
364.252	34.62
364.461	35.29
364.671	34.4
364.88	34.39
365.09	34.4
365.299	34.74
365.509	35.26
365.718	35.69
365.927	35.69
366.137	35.63
366.346	35.35
366.555	34.47
366.765	34.53
366.974	34.83
367.183	35.26
367.393	35.43
367.602	34.53
367.811	34.52
368.021	32.69
368.23	32.45
368.439	32.47
368.648	32.65
368.857	32.81
369.067	32.32
369.276	32.26
369.485	31.99
369.694	32.23
369.903	31.5
370.112	30.68
370.321	31.46
370.531	31.66
370.74	31.07
370.949	31.11
371.158	31.14
371.367	31.77
371.576	32.32
371.785	32.54
371.994	32.44
372.203	33.04
372.412	33.44
372.621	33.61
372.83	33.52
373.039	34.14
373.248	33.41
373.457	33.73
373.666	33.06
373.874	32.26
374.083	31.69
374.292	31.44
374.501	30.6
374.71	30.53
374.919	30.51
375.128	30.05
375.336	29.58
375.545	29.95
375.754	29.47
375.963	29.52
376.171	29.86
376.38	29.49
376.589	28.99
376.798	29.6
377.006	29.23
377.215	29.32
377.424	29.17
377.632	28.79
377.841	28.28
378.05	27.71
378.258	27.18
378.467	27.02
378.675	26.79
378.884	26.57
379.093	26.49
379.301	26.35
379.51	25.61
379.718	25.82
379.927	25.76
380.135	25.76
380.344	26.53
380.552	26.67
380.761	26.52
380.969	27.05
381.177	27.38
381.386	27.04
381.594	27.41
381.803	27.38
382.011	27.22
382.219	27.7
382.428	27.88
382.636	27.06
382.845	27.45
383.053	27.25
383.261	26.96
383.469	27.25
383.678	26.86
383.886	26.81
384.094	27.43
384.302	27.5
384.511	27.46
384.719	27.32
384.927	27.53
385.135	27.5
385.343	27.68
385.552	27.6
385.76	26.78
385.968	26.86
386.176	26.39
386.384	26.05
386.592	25.79
386.8	25.56
387.008	25.56
387.216	25.26
387.424	25.18
387.633	24.98
387.841	25.09
388.049	25.42
388.257	25.42
388.465	26.03
388.672	25.52
388.88	25.14
389.088	24.91
389.296	24.95
389.504	24.94
389.712	24.67
389.92	24.5
390.128	24.2
390.336	24.35
390.544	24.33
390.751	23.92
390.959	23.96
391.167	23.95
391.375	23.63
391.583	23.52
391.79	23.7
391.998	23.68
392.206	23.54
392.414	23.33
392.621	23.46
392.829	23.24
393.037	23.15
393.244	22.95
393.452	23.27
393.66	23.69
393.867	23.62
394.075	23.44
394.283	23.32
394.49	23.31
394.698	23.68
394.905	23.23
395.113	23.21
395.32	23.34
395.528	23.57
395.735	23.26
395.943	23.52
396.15	23.18
396.358	23.13
396.565	23.08
396.773	23.36
396.98	23.34
397.188	23.41
397.395	23.63
397.602	23.81
397.81	23.53
398.017	23.52
398.225	22.87
398.432	23.33
398.639	23.39
398.847	23.18
399.054	23.24
399.261	23.17
399.468	23.22
399.676	22.96
399.883	22.57
400.09	22.78
400.297	22.85
400.505	22.71
400.712	22.92
400.919	22.86
401.126	23.32
401.333	23.18
401.54	23.32
401.748	23.14
401.955	23.09
402.162	23.3
402.369	23.12
402.576	23.29
402.783	23.21
402.99	23.31
403.197	23.27
403.404	23.03
403.611	22.81
403.818	22.63
404.025	22.53
404.232	22.38
404.439	22.19
404.646	22.54
404.853	22.5
405.06	22.86
405.267	22.19
405.474	22.36
405.681	22.2
405.887	22.31
406.094	22.23
406.301	22.18
406.508	22.87
406.715	22.86
406.922	22.58
407.128	22.43
407.335	22.06
407.542	22.11
407.749	21.91
407.955	22.42
408.162	22.33
408.369	22.47
408.575	22.76
408.782	22.56
408.989	22.55
409.195	22.51
409.402	22.52
409.609	22.68
409.815	22.79
410.022	22.91
410.228	22.47
410.435	22.3
410.642	22.12
410.848	22.06
411.055	21.85
411.261	21.81
411.468	21.91
411.674	21.93
411.881	21.82
412.087	21.73
412.294	21.55
412.5	21.68
412.706	21.94
412.913	22.27
413.119	22.23
413.326	22.5
413.532	22.68
413.738	22.48
413.945	22.33
414.151	22.41
414.357	22.7
414.564	22.86
414.77	22.83
414.976	22.77
415.182	22.74
415.389	22.81
415.595	22.4
415.801	22.46
416.007	22.5
416.214	22.44
416.42	22.37
416.626	22.56
416.832	22.34
417.038	22.06
417.244	21.89
417.45	21.82
417.657	21.64
417.863	21.63
418.069	21.43
418.275	21.55
418.481	21.58
418.687	21.46
418.893	21.23
419.099	21.34
419.305	21.46
419.511	21.48
419.717	21.24
419.923	21.36
420.129	21.36
420.335	21.43
420.541	21.29
420.746	21.29
420.952	21.3
421.158	21.23
421.364	21.06
421.57	21.08
421.776	20.99
421.982	21.06
422.187	21.04
422.393	21.07
422.599	20.86
422.805	20.89
423.01	20.83
423.216	20.89
423.422	20.84
423.628	21.05
423.833	21.14
424.039	21.09
424.245	21.11
424.45	21.01
424.656	21.04
424.862	21.08
425.067	21.1
425.273	21
425.478	21.01
425.684	21.1
425.889	20.8
426.095	20.74
426.301	20.92
426.506	20.84
426.712	20.83
426.917	20.59
427.123	20.62
427.328	20.6
427.533	20.78
427.739	20.55
427.944	20.5
428.15	20.53
428.355	20.32
428.561	20.41
428.766	20.42
428.971	20.39
429.177	20.51
429.382	20.58
429.587	20.52
429.793	20.51
429.998	20.62
430.203	20.72
430.408	21.03
430.614	20.96
430.819	20.83
431.024	20.65
431.229	20.73
431.434	20.79
431.64	20.79
431.845	20.71
432.05	20.67
432.255	20.89
432.46	20.67
432.665	20.53
432.87	20.6
433.076	20.46
433.281	20.62
433.486	20.65
433.691	20.77
433.896	20.79
434.101	20.97
434.306	20.99
434.511	20.75
434.716	20.99
434.921	21
435.126	21.1
435.331	21.11
435.535	21.01
435.74	20.99
435.945	20.76
436.15	20.71
436.355	20.65
436.56	20.62
436.765	20.79
436.97	20.48
437.174	20.49
437.379	20.31
437.584	20.39
437.789	20.25
437.993	20.15
438.198	20.12
438.403	20.21
438.608	20.1
438.812	20.08
439.017	20.18
439.222	20.15
439.426	20.12
439.631	20.14
439.836	20.13
440.04	20.32
440.245	20.19
440.45	20.2
440.654	20.16
440.859	20.12
441.063	19.99
441.268	19.85
441.472	20
441.677	20.09
441.881	20.25
442.086	20.18
442.29	20.25
442.495	20.3
442.699	20.51
442.904	20.51
443.108	20.46
443.312	20.59
443.517	20.56
443.721	20.44
443.925	20.34
444.13	20.03
444.334	20.06
444.538	19.88
444.743	19.99
444.947	19.7
445.151	19.62
445.356	19.79
445.56	19.73
445.764	19.77
445.968	19.79
446.173	19.84
446.377	20.05
446.581	20.17
446.785	20.22
446.989	20.1
447.193	20.12
447.398	20.23
447.602	20.11
447.806	20.29
448.01	20.13
448.214	20.16
448.418	20.06
448.622	20.07
448.826	19.83
449.03	19.89
449.234	19.96
449.438	20
449.642	19.84
449.846	19.74
450.05	19.55
450.254	19.86
450.458	19.81
450.662	19.64
450.866	19.57
451.069	19.78
451.273	19.66
451.477	19.75
451.681	19.85
451.885	20.06
452.089	20.1
452.292	20.09
452.496	19.89
452.7	19.85
452.904	20.01
453.107	19.96
453.311	19.88
453.515	19.84
453.719	19.8
453.922	19.83
454.126	19.86
454.33	19.84
454.533	19.84
454.737	19.99
454.94	20.02
455.144	20.02
455.348	19.96
455.551	19.96
455.755	19.88
455.958	19.86
456.162	19.98
456.365	19.69
456.569	19.76
456.772	19.73
456.976	19.76
457.179	19.68
457.383	19.7
457.586	19.78
457.79	19.79
457.993	19.88
458.196	19.75
458.4	19.51
