Data from 2937841_Reflection_2.txt Node
Date: Wed Jul 15 16:17:02 EDT 2015
User: robert
Spectrometer: USB4E03001
Autoset integration time: false
Trigger mode: 4
Integration Time (sec): 1.000000E-1
Scans to average: 10
Electric dark correction enabled: true
Nonlinearity correction enabled: false
Boxcar width: 5
Stray light correction enabled: false
XAxis mode: Wavelengths
Stop averaging: false
Number of Pixels in Spectrum: 3648
>>>>>Begin Spectral Data<<<<<
177.566	81.78
177.785	116.31
178.005	-109.6
178.225	264.84
178.445	324.43
178.665	433.27
178.885	788.13
179.105	79.4
179.324	36.44
179.544	1407.81
179.764	-3.11
179.984	-89.91
180.204	25.21
180.423	-6.44
180.643	23.05
180.863	57.64
181.083	110.34
181.302	166.79
181.522	12.85
181.742	-88.96
181.961	-118.63
182.181	-14411.11
182.401	-433.3
182.621	-419.98
182.84	-3683.05
183.06	-128.43
183.279	-13.27
183.499	-27.46
183.719	-39.59
183.938	0.62
184.158	-9.82
184.377	-1.31
184.597	8.63
184.816	5.28
185.036	32.41
185.256	13.12
185.475	-53.05
185.695	-44.51
185.914	-30.15
186.134	-85.26
186.353	-2062.03
186.572	-18.46
186.792	-27.68
187.011	-42.33
187.231	-291.67
187.45	-239.77
187.67	-146.28
187.889	-33.15
188.108	-90.04
188.328	-99.16
188.547	-189.4
188.766	-283.18
188.986	-429.72
189.205	579.68
189.424	357.27
189.644	439.53
189.863	496.62
190.082	330.41
190.302	214.76
190.521	203.59
190.74	200.2
190.959	182.51
191.178	233.01
191.398	165.17
191.617	-4634.85
191.836	1721.94
192.055	-7.46
192.274	-22.35
192.494	-233.66
192.713	-2091.33
192.932	357.45
193.151	203.82
193.37	354.44
193.589	207.13
193.808	567.84
194.027	187.89
194.246	169.58
194.465	273.73
194.685	-16455
194.904	-716.16
195.123	722.42
195.342	-1009.57
195.561	-10.33
195.78	-29.99
195.999	27.35
196.218	3705.26
196.436	56.21
196.655	41.69
196.874	152.13
197.093	1092.59
197.312	293.07
197.531	55.71
197.75	32.86
197.969	-1.85
198.188	-1.2
198.407	-0.2
198.625	8.28
198.844	-9
199.063	-35.24
199.282	-40.1
199.501	-8.61
199.719	-9.78
199.938	-41.44
200.157	-80.34
200.376	-98.26
200.594	-161.12
200.813	1194.45
201.032	393.12
201.251	312.76
201.469	592.15
201.688	285.45
201.907	149.08
202.125	-802.09
202.344	139.7
202.563	212.07
202.781	5892
203	183.55
203.218	209.31
203.437	221.48
203.656	167.69
203.874	150.32
204.093	192.09
204.311	179.24
204.53	154.83
204.748	418.95
204.967	4716.13
205.185	-475.39
205.404	-129.92
205.622	-42.59
205.841	9.72
206.059	10.14
206.278	29.03
206.496	18.14
206.715	66.09
206.933	91.09
207.151	102.26
207.37	72.26
207.588	82.95
207.806	62.67
208.025	48.92
208.243	17.72
208.461	14.7
208.68	3.93
208.898	26.88
209.116	-21.18
209.335	-7.71
209.553	-8.58
209.771	7.07
209.989	-0.05
210.208	-27.4
210.426	-64.93
210.644	-110.49
210.862	-97.12
211.081	-173.8
211.299	-179.25
211.517	-137.53
211.735	-1136.67
211.953	-2143.53
212.171	173.53
212.39	291.86
212.608	-3209.32
212.826	-1163.4
213.044	-46.58
213.262	-81.85
213.48	-189.1
213.698	2702.58
213.916	-218.29
214.134	-103.28
214.352	-261.24
214.57	-648.51
214.788	517.36
215.006	354.5
215.224	-1195.39
215.442	-1201.37
215.66	346.18
215.878	212.56
216.096	761.13
216.314	352.8
216.532	279.87
216.75	492.44
216.968	-2648.65
217.185	-186.74
217.403	-234.55
217.621	1315.13
217.839	918.62
218.057	729.34
218.275	-1558.93
218.492	-1796.93
218.71	-971.41
218.928	-458.17
219.146	-67.58
219.363	-14.48
219.581	-24.33
219.799	23.65
220.017	11.09
220.234	-12.48
220.452	20.08
220.67	7.1
220.887	-1.31
221.105	-11.39
221.323	-26.23
221.54	-42.51
221.758	-102.32
221.976	-72.14
222.193	-138.02
222.411	-16.85
222.629	-1.87
222.846	-37.78
223.064	-4.7
223.281	-0.08
223.499	31.94
223.716	34.14
223.934	41.06
224.151	46.95
224.369	13.43
224.586	28.78
224.804	0.13
225.021	-15.76
225.239	-7.96
225.456	-17.1
225.674	-14.54
225.891	-40.05
226.108	-34.52
226.326	-30.82
226.543	-8.3
226.76	-10.86
226.978	-23.2
227.195	-18.32
227.413	-1.28
227.63	-0.8
227.847	4.17
228.064	4.72
228.282	10.18
228.499	12.12
228.716	13.02
228.934	11.99
229.151	15.92
229.368	15.37
229.585	16.12
229.802	13.31
230.02	15.12
230.237	13
230.454	9.82
230.671	9.02
230.888	3.46
231.105	2.12
231.323	2.05
231.54	1.23
231.757	1.65
231.974	2.95
232.191	4.89
232.408	4.15
232.625	6.3
232.842	7.68
233.059	-4.65
233.276	5.18
233.493	3.27
233.71	-0.33
233.927	-2.34
234.144	2.31
234.361	-3.03
234.578	-9.58
234.795	-10.03
235.012	-9.9
235.229	-1.87
235.446	3.58
235.663	1.32
235.879	3.46
236.096	9.14
236.313	2.78
236.53	4.34
236.747	3.62
236.964	12.96
237.181	11.58
237.397	12.57
237.614	4.01
237.831	1.92
238.048	-6
238.264	-9.49
238.481	-15.23
238.698	0.17
238.915	2.46
239.131	10.21
239.348	8.06
239.565	11.55
239.781	11.23
239.998	16.29
240.215	20.89
240.431	24.42
240.648	22.42
240.865	21.1
241.081	20.28
241.298	17.54
241.514	17.27
241.731	18.87
241.947	19.43
242.164	18.7
242.38	16.2
242.597	14.88
242.814	14.65
243.03	17.18
243.246	19.67
243.463	18.17
243.679	20.54
243.896	20.86
244.112	18.95
244.329	16.23
244.545	17.26
244.762	18.21
244.978	18.03
245.194	17.74
245.411	15.1
245.627	15.37
245.843	15.79
246.06	15.58
246.276	17.48
246.492	17.73
246.709	19.01
246.925	18.87
247.141	19.86
247.357	20.81
247.574	20.48
247.79	19.91
248.006	19.51
248.222	19.74
248.439	19.88
248.655	17.91
248.871	17.91
249.087	17.81
249.303	17.44
249.519	16.69
249.736	13.75
249.952	13.7
250.168	15.76
250.384	13.03
250.6	12.83
250.816	12.54
251.032	14.28
251.248	14.17
251.464	13.89
251.68	12.9
251.896	13.48
252.112	14.08
252.328	15.35
252.544	15.3
252.76	17.35
252.976	16.51
253.192	14.63
253.408	14.65
253.624	11.96
253.84	12.84
254.056	14.05
254.272	12.25
254.487	14.33
254.703	16.86
254.919	16.31
255.135	16.85
255.351	15.12
255.567	17.97
255.782	17.95
255.998	20.36
256.214	17.21
256.43	18.06
256.646	16.29
256.861	16.5
257.077	14.1
257.293	13.94
257.508	11.25
257.724	12.17
257.94	13.31
258.155	13.2
258.371	13.89
258.587	12.9
258.802	13.2
259.018	12.98
259.234	12.66
259.449	13.44
259.665	13.62
259.88	13.65
260.096	14.21
260.312	12.82
260.527	12.2
260.743	12.68
260.958	13.97
261.174	13.29
261.389	14.73
261.605	14.34
261.82	13.55
262.036	13.95
262.251	14.3
262.466	15.02
262.682	15.56
262.897	16.84
263.113	14.11
263.328	12.79
263.543	14.3
263.759	12.83
263.974	12.38
264.189	12.64
264.405	11.23
264.62	13.4
264.835	12.19
265.051	13.42
265.266	13.51
265.481	16.7
265.696	15.8
265.912	13.34
266.127	13.33
266.342	13.99
266.557	13.02
266.773	12.16
266.988	9.82
267.203	9.08
267.418	9.95
267.633	6.92
267.848	6.39
268.064	7.2
268.279	8.37
268.494	10.72
268.709	9.88
268.924	10.57
269.139	12.09
269.354	12.34
269.569	12.1
269.784	13.8
269.999	16.74
270.214	15.52
270.429	16.29
270.644	15.56
270.859	15.63
271.074	16.55
271.289	18.71
271.504	17.68
271.719	18.54
271.934	19.65
272.149	17.58
272.363	16.98
272.578	16.93
272.793	15.49
273.008	17.17
273.223	16.18
273.438	14.84
273.653	13.2
273.867	12.85
274.082	12.93
274.297	12.06
274.512	10.64
274.726	10.2
274.941	9.76
275.156	10.73
275.371	9.31
275.585	6.66
275.8	7.47
276.015	7.64
276.229	8.03
276.444	6.14
276.659	4.61
276.873	7.01
277.088	8.01
277.302	10.54
277.517	11.53
277.732	9.9
277.946	11.93
278.161	13.17
278.375	12.71
278.59	13.9
278.804	13.19
279.019	12.07
279.233	10.35
279.448	10.97
279.662	8.45
279.877	8.74
280.091	9.08
280.306	8.39
280.52	8.69
280.735	6.25
280.949	5.48
281.163	7.46
281.378	9.9
281.592	10.59
281.806	8.37
282.021	7.94
282.235	7.52
282.449	6.97
282.664	7.53
282.878	5.58
283.092	7.76
283.307	7.83
283.521	8.56
283.735	7.28
283.949	7.51
284.164	9.85
284.378	9.98
284.592	8.81
284.806	9.5
285.02	10.34
285.234	12.2
285.449	11.59
285.663	12.51
285.877	11.82
286.091	11.5
286.305	11.79
286.519	10.26
286.733	11.63
286.947	12.06
287.161	12.55
287.375	11.33
287.589	11.94
287.803	12.29
288.017	13.28
288.231	12.55
288.445	14.06
288.659	13.53
288.873	14.38
289.087	14.36
289.301	14.29
289.515	15.39
289.729	14.36
289.943	13.4
290.157	13.11
290.371	10.91
290.584	11.2
290.798	10.33
291.012	10.2
291.226	9.91
291.44	9.29
291.654	10.13
291.867	9.23
292.081	11.01
292.295	12.68
292.509	13.99
292.722	14.8
292.936	14.63
293.15	16.62
293.364	17.58
293.577	18.21
293.791	18.53
294.005	18.47
294.218	17.21
294.432	16.47
294.645	14.44
294.859	14.54
295.073	13.39
295.286	14.56
295.5	13.36
295.713	13.57
295.927	14.22
296.14	13.78
296.354	14.14
296.568	14.77
296.781	15.73
296.994	15.82
297.208	15.15
297.421	15.01
297.635	15.94
297.848	15.78
298.062	16.62
298.275	16.68
298.489	17.77
298.702	18.56
298.915	18.81
299.129	19.79
299.342	20.4
299.555	21.29
299.769	22.64
299.982	21.45
300.195	21.87
300.409	21.65
300.622	20.43
300.835	18.81
301.048	17.44
301.262	16.33
301.475	14.68
301.688	15.53
301.901	15.64
302.115	15.94
302.328	16.13
302.541	15.65
302.754	15.22
302.967	15.6
303.18	16.13
303.393	15.37
303.607	15.9
303.82	15.81
304.033	15.1
304.246	15.38
304.459	14.44
304.672	14.22
304.885	14.24
305.098	13.73
305.311	14.87
305.524	15.3
305.737	16.78
305.95	17.16
306.163	18.14
306.376	17.72
306.589	17.67
306.802	18.36
307.015	19.19
307.228	19.44
307.44	18.43
307.653	17.75
307.866	17.87
308.079	16.13
308.292	18.23
308.505	17.62
308.718	16.48
308.93	16.08
309.143	16.07
309.356	15.92
309.569	15.2
309.781	14.55
309.994	16.1
310.207	16.18
310.42	18.29
310.632	18.22
310.845	19.67
311.058	20.01
311.27	21.13
311.483	21.79
311.696	21.26
311.908	23.42
312.121	23.83
312.333	22.39
312.546	23.62
312.759	23.58
312.971	22.9
313.184	21.96
313.396	23.26
313.609	21.26
313.821	20.76
314.034	21.29
314.246	19.37
314.459	20.5
314.671	22.15
314.884	20.34
315.096	21.14
315.309	21.7
315.521	20.43
315.733	19.24
315.946	19.76
316.158	19.1
316.371	19.67
316.583	20.32
316.795	21.64
317.008	20.55
317.22	20.55
317.432	18.47
317.644	16.72
317.857	18.79
318.069	18.66
318.281	18.51
318.494	20.89
318.706	18.92
318.918	18.87
319.13	18.28
319.342	19.54
319.555	20.83
319.767	19.76
319.979	21.6
320.191	20.77
320.403	22.5
320.615	22.36
320.827	20.63
321.039	22.44
321.252	21.49
321.464	21.28
321.676	19.83
321.888	20.54
322.1	19.96
322.312	20.29
322.524	20.61
322.736	19.34
322.948	18.69
323.16	17.96
323.372	16.64
323.584	18.89
323.796	19.47
324.007	19.06
324.219	16.88
324.431	18.78
324.643	18.2
324.855	16.77
325.067	18.55
325.279	19.56
325.491	20.61
325.702	21.79
325.914	20.82
326.126	20.51
326.338	20.63
326.55	22.89
326.761	23.51
326.973	22.01
327.185	22.19
327.396	21.71
327.608	20.06
327.82	19.72
328.032	19.14
328.243	20
328.455	19.73
328.666	19.63
328.878	18.82
329.09	17.48
329.301	19.49
329.513	20.35
329.725	19.43
329.936	19.99
330.148	21.27
330.359	22.35
330.571	22.11
330.782	22.41
330.994	22.25
331.205	20.95
331.417	21.93
331.628	19.67
331.84	18.45
332.051	18.77
332.262	19.89
332.474	20.82
332.685	19.53
332.897	17.78
333.108	16.71
333.319	17.42
333.531	19.14
333.742	19.03
333.953	21.96
334.165	21.6
334.376	21.85
334.587	22.58
334.799	21.05
335.01	20.71
335.221	21.04
335.432	21
335.644	22.64
335.855	21.66
336.066	22.64
336.277	20.13
336.488	22.39
336.7	22.49
336.911	23.54
337.122	23.5
337.333	23.55
337.544	24.06
337.755	25.31
337.966	23.93
338.177	25.61
338.388	24.52
338.599	25.07
338.811	24.12
339.022	23.89
339.233	22.01
339.444	22.71
339.655	23.93
339.866	24.7
340.076	24.06
340.287	24.51
340.498	23.45
340.709	23.17
340.92	23.14
341.131	22.55
341.342	23.25
341.553	23.52
341.764	23.26
341.975	22.43
342.185	22.32
342.396	21.65
342.607	21.97
342.818	22.93
343.029	24.4
343.239	25.74
343.45	25.55
343.661	24.34
343.872	25.04
344.082	24.7
344.293	25.55
344.504	26.16
344.714	26.12
344.925	25.58
345.136	24.79
345.346	22.98
345.557	22.22
345.768	23.4
345.978	22.77
346.189	21.88
346.399	22.16
346.61	22.05
346.821	20.84
347.031	22.98
347.242	22.84
347.452	22.61
347.663	23.32
347.873	23.38
348.084	22.5
348.294	24.38
348.504	25.01
348.715	23.7
348.925	23.7
349.136	23.67
349.346	21.68
349.557	22.63
349.767	21.65
349.977	20.69
350.188	20.69
350.398	20.53
350.608	20.75
350.819	20.55
351.029	21.12
351.239	21.52
351.449	22.85
351.66	23.86
351.87	23.35
352.08	24.83
352.29	24.76
352.501	24.06
352.711	25.87
352.921	24.33
353.131	24.61
353.341	24.67
353.552	23.1
353.762	21.69
353.972	21.96
354.182	22.81
354.392	22.96
354.602	23.07
354.812	23.18
355.022	21.63
355.232	22.19
355.442	21.85
355.652	22.05
355.862	22.96
356.072	22.82
356.282	22.05
356.492	21.19
356.702	20.54
356.912	20.48
357.122	21.15
357.332	20.77
357.542	20.4
357.752	19.95
357.962	19.79
358.171	20.06
358.381	20.86
358.591	21.14
358.801	22
359.011	22.85
359.221	23.74
359.43	22.75
359.64	23.38
359.85	23.45
360.06	23.74
360.269	23.65
360.479	23.21
360.689	22.37
360.899	21.88
361.108	21.23
361.318	20.83
361.528	20.57
361.737	20.58
361.947	20.38
362.156	20.56
362.366	20.43
362.576	20.38
362.785	19.91
362.995	20.57
363.204	20.55
363.414	20.8
363.623	20.21
363.833	20.68
364.042	21.8
364.252	21.6
364.461	21.38
364.671	21.95
364.88	22.29
365.09	23.25
365.299	22.84
365.509	22.42
365.718	22.65
365.927	22.44
366.137	21.01
366.346	19.81
366.555	19.54
366.765	19.98
366.974	19.18
367.183	18.36
367.393	18.08
367.602	17.54
367.811	17.43
368.021	16.18
368.23	16.56
368.439	17.38
368.648	17.96
368.857	18.14
369.067	17.8
369.276	17.41
369.485	17.61
369.694	17.59
369.903	18.2
370.112	19.52
370.321	20.13
370.531	20.04
370.74	19.74
370.949	19.76
371.158	19.01
371.367	19.05
371.576	19.62
371.785	19.19
371.994	18.88
372.203	18.44
372.412	17.39
372.621	17.02
372.83	17.24
373.039	17.42
373.248	17.02
373.457	18.17
373.666	17.44
373.874	17.52
374.083	17.98
374.292	17.67
374.501	16.86
374.71	17.38
374.919	17.01
375.128	16.56
375.336	16
375.545	16.48
375.754	15.98
375.963	16.42
376.171	15.95
376.38	16.23
376.589	15.54
376.798	16.75
377.006	15.98
377.215	16
377.424	15.74
377.632	16.05
377.841	15.54
378.05	15.69
378.258	15.45
378.467	15.82
378.675	15.9
378.884	17.03
379.093	16.66
379.301	17.68
379.51	18.2
379.718	17.96
379.927	18.45
380.135	18.36
380.344	18.26
380.552	18.46
380.761	18.61
380.969	18.45
381.177	17.62
381.386	17.49
381.594	16.63
381.803	15.26
382.011	15.43
382.219	14.91
382.428	15.36
382.636	15.49
382.845	15.08
383.053	14.77
383.261	14.67
383.469	15.87
383.678	15.98
383.886	15.94
384.094	16.84
384.302	16.78
384.511	16.47
384.719	16.13
384.927	16.18
385.135	16.16
385.343	16.19
385.552	15.63
385.76	15.07
385.968	14.72
386.176	14.54
386.384	14.22
386.592	14.39
386.8	14.44
387.008	14.19
387.216	13.99
387.424	14.07
387.633	13.72
387.841	13.85
388.049	13.74
388.257	13.48
388.465	14
388.672	13.87
388.88	13.8
389.088	13.51
389.296	13.86
389.504	13.26
389.712	12.89
389.92	12.77
390.128	12.73
390.336	12.45
390.544	12.53
390.751	12.27
390.959	12.26
391.167	12.04
391.375	12.4
391.583	11.92
391.79	12.03
391.998	12.38
392.206	12.23
392.414	12.12
392.621	12.11
392.829	12.23
393.037	12.11
393.244	12.54
393.452	12.56
393.66	12.22
393.867	12.26
394.075	12.72
394.283	12.8
394.49	13.17
394.698	13.14
394.905	13.08
395.113	12.99
395.32	12.92
395.528	12.48
395.735	12.48
395.943	12.23
396.15	12.37
396.358	11.98
396.565	11.56
396.773	11.2
396.98	10.92
397.188	10.87
397.395	10.78
397.602	10.83
397.81	10.82
398.017	10.92
398.225	11.24
398.432	11.33
398.639	11.32
398.847	11.48
399.054	10.98
399.261	10.94
399.468	10.45
399.676	10.32
399.883	9.92
400.09	9.67
400.297	9.59
400.505	9.45
400.712	9.57
400.919	9.72
401.126	9.59
401.333	10.31
401.54	10.7
401.748	10.94
401.955	11.08
402.162	11.29
402.369	11.4
402.576	11.17
402.783	11.04
402.99	11.09
403.197	10.98
403.404	10.97
403.611	10.72
403.818	10.59
404.025	10.86
404.232	10.89
404.439	11.23
404.646	11.15
404.853	11.17
405.06	11.57
405.267	11.29
405.474	11.11
405.681	11.56
405.887	11.43
406.094	11.46
406.301	11.18
406.508	11.29
406.715	10.88
406.922	11.16
407.128	11.23
407.335	11.23
407.542	11.45
407.749	11.54
407.955	11.02
408.162	11.23
408.369	11.2
408.575	11.35
408.782	11.34
408.989	11.54
409.195	10.98
409.402	10.73
409.609	10.05
409.815	9.55
410.022	9.66
410.228	9.88
410.435	9.59
410.642	9.56
410.848	9.47
411.055	9.15
411.261	9.05
411.468	9.22
411.674	9.32
411.881	9.65
412.087	10.11
412.294	10.11
412.5	10.08
412.706	10.34
412.913	10.43
413.119	10.43
413.326	10.13
413.532	9.92
413.738	10.17
413.945	10.24
414.151	10.55
414.357	10.27
414.564	10.01
414.77	9.96
414.976	10.03
415.182	9.96
415.389	9.93
415.595	10.42
415.801	10.63
416.007	10.51
416.214	10.6
416.42	10.18
416.626	10.16
416.832	10.12
417.038	10.19
417.244	10.26
417.45	10.14
417.657	10.2
417.863	9.97
418.069	9.85
418.275	9.9
418.481	9.86
418.687	10
418.893	9.97
419.099	10.15
419.305	10.24
419.511	10.02
419.717	9.99
419.923	9.95
420.129	9.9
420.335	9.9
420.541	9.88
420.746	9.79
420.952	9.8
421.158	9.92
421.364	9.63
421.57	9.47
421.776	9.64
421.982	9.74
422.187	9.75
422.393	9.83
422.599	9.75
422.805	9.81
423.01	9.88
423.216	9.8
423.422	9.71
423.628	10.08
423.833	10.18
424.039	10.06
424.245	10.14
424.45	10.14
424.656	10.2
424.862	10.34
425.067	10.28
425.273	10.21
425.478	10.27
425.684	10.42
425.889	10.2
426.095	9.91
426.301	9.92
426.506	9.68
426.712	9.71
426.917	9.54
427.123	9.37
427.328	9.32
427.533	9.36
427.739	9.37
427.944	9.15
428.15	9.15
428.355	9.33
428.561	9.47
428.766	9.56
428.971	9.48
429.177	9.63
429.382	9.78
429.587	9.83
429.793	9.95
429.998	9.95
430.203	9.86
430.408	9.86
430.614	9.71
430.819	9.61
431.024	9.65
431.229	9.61
431.434	9.74
431.64	9.84
431.845	9.86
432.05	9.59
432.255	9.66
432.46	9.76
432.665	9.73
432.87	9.94
433.076	10
433.281	9.98
433.486	9.98
433.691	9.91
433.896	9.8
434.101	9.76
434.306	9.74
434.511	9.55
434.716	9.48
434.921	9.48
435.126	9.4
435.331	9.25
435.535	9.25
435.74	9.42
435.945	9.25
436.15	9.33
436.355	9.27
436.56	9.24
436.765	9.09
436.97	9.14
437.174	9.37
437.379	9.35
437.584	9.25
437.789	9.27
437.993	9.13
438.198	9.27
438.403	9.24
438.608	9.24
438.812	9.17
439.017	9.47
439.222	9.55
439.426	9.23
439.631	9.26
439.836	9.39
440.04	9.4
440.245	9.35
440.45	9.33
440.654	9.2
440.859	9.15
441.063	9.49
441.268	9.31
441.472	9.3
441.677	9.41
441.881	9.39
442.086	9.39
442.29	9.29
442.495	9.22
442.699	9.05
442.904	9.18
443.108	9.06
443.312	8.88
443.517	8.99
443.721	8.91
443.925	8.98
444.13	8.92
444.334	8.77
444.538	8.95
444.743	8.95
444.947	9.07
445.151	9.01
445.356	9.15
445.56	9.07
445.764	9.17
445.968	9.11
446.173	9.08
446.377	9.23
446.581	9.29
446.785	9.26
446.989	9.42
447.193	9.52
447.398	9.39
447.602	9.54
447.806	9.5
448.01	9.23
448.214	9.16
448.418	9.1
448.622	8.9
448.826	8.91
449.03	8.91
449.234	8.8
449.438	8.8
449.642	8.91
449.846	8.69
450.05	8.86
450.254	9.18
450.458	9.26
450.662	9.24
450.866	9.51
451.069	9.56
451.273	9.56
451.477	9.45
451.681	9.41
451.885	9.44
452.089	9.33
452.292	9.29
452.496	9.2
452.7	9.27
452.904	9.24
453.107	9.01
453.311	9
453.515	8.91
453.719	8.95
453.922	8.71
454.126	8.55
454.33	8.59
454.533	8.56
454.737	8.59
454.94	8.42
455.144	8.45
455.348	8.43
455.551	8.26
455.755	8.2
455.958	8.23
456.162	8.36
456.365	8.46
456.569	8.7
456.772	8.69
456.976	8.61
457.179	8.59
457.383	8.82
457.586	8.75
457.79	8.7
457.993	8.69
458.196	8.79
