Data from 2937856_Reflection_1.txt Node
Date: Wed Jul 15 15:39:35 EDT 2015
User: robert
Spectrometer: USB4E03001
Autoset integration time: false
Trigger mode: 4
Integration Time (sec): 1.000000E-1
Scans to average: 10
Electric dark correction enabled: true
Nonlinearity correction enabled: false
Boxcar width: 5
Stray light correction enabled: false
XAxis mode: Wavelengths
Stop averaging: false
Number of Pixels in Spectrum: 3648
>>>>>Begin Spectral Data<<<<<
177.566	-421.2
177.785	-3142.86
178.005	337.94
178.225	315.08
178.445	287.12
178.665	259.26
178.885	50.7
179.105	-288.32
179.324	874.07
179.544	-531.45
179.764	-2318.75
179.984	485.91
180.204	340.03
180.423	139.45
180.643	176.13
180.863	111.73
181.083	93.08
181.302	73.7
181.522	72.92
181.742	104.92
181.961	104.53
182.181	103.13
182.401	135.38
182.621	100.74
182.84	116.61
183.06	117.03
183.279	145.4
183.499	145.56
183.719	162.6
183.938	137.63
184.158	117.31
184.377	140.99
184.597	345.44
184.816	187.92
185.036	166.62
185.256	317.11
185.475	202.37
185.695	234.35
185.914	295.62
186.134	280.61
186.353	289.74
186.572	1068.86
186.792	327.13
187.011	333.37
187.231	182.09
187.45	187.83
187.67	221.93
187.889	218.01
188.108	317.51
188.328	264.49
188.547	353.34
188.766	27913.64
188.986	526.32
189.205	193.93
189.424	136.48
189.644	189.68
189.863	309.89
190.082	255.1
190.302	327.74
190.521	195.79
190.74	186.93
190.959	104.61
191.178	56.56
191.398	98.07
191.617	190.5
191.836	418.66
192.055	-267.25
192.274	-182.35
192.494	752.79
192.713	339.7
192.932	212.14
193.151	156.63
193.37	230
193.589	185.43
193.808	140.5
194.027	53.43
194.246	59.77
194.465	83.02
194.685	125.01
194.904	185
195.123	672.24
195.342	-860.86
195.561	-350.97
195.78	-141.42
195.999	-124.17
196.218	-138.7
196.436	-64.94
196.655	-32911.76
196.874	838.53
197.093	-142.18
197.312	2.91
197.531	50.91
197.75	16.38
197.969	-14.37
198.188	-124.55
198.407	-5.85
198.625	11.34
198.844	-41.46
199.063	-9.46
199.282	8.73
199.501	-73.22
199.719	-88.31
199.938	-157.03
200.157	-209.97
200.376	-65.02
200.594	-99.61
200.813	-233.57
201.032	265.5
201.251	285.61
201.469	7877.03
201.688	405.21
201.907	318.81
202.125	160.86
202.344	173.82
202.563	96.5
202.781	98.81
203	213.19
203.218	297.19
203.437	3045.62
203.656	4012.36
203.874	235.21
204.093	317.42
204.311	474.7
204.53	551
204.748	398.92
204.967	248.91
205.185	168.68
205.404	109.39
205.622	125.18
205.841	100.14
206.059	113.23
206.278	141.04
206.496	141.46
206.715	134.72
206.933	214.62
207.151	226.34
207.37	-18.01
207.588	-152.56
207.806	-174.71
208.025	-27.36
208.243	-17.09
208.461	46.49
208.68	-37.47
208.898	557.91
209.116	278.24
209.335	-279.62
209.553	24.85
209.771	69.08
209.989	156.28
210.208	170.74
210.426	-1252.94
210.644	-118.1
210.862	-132.27
211.081	-225.8
211.299	-943.93
211.517	-636.79
211.735	-266.62
211.953	-85.39
212.171	-83.58
212.39	-138.2
212.608	-260.63
212.826	-193.06
213.044	-412.63
213.262	1308.93
213.48	-155.69
213.698	-316.54
213.916	-612.96
214.134	-110.85
214.352	-1067.77
214.57	405.86
214.788	296.08
215.006	401.44
215.224	-1655.28
215.442	365.33
215.66	320.25
215.878	305.31
216.096	445.66
216.314	-11010.14
216.532	1054.41
216.75	303.9
216.968	269.25
217.185	269.56
217.403	289.64
217.621	191.12
217.839	136.3
218.057	160.38
218.275	164.26
218.492	168.85
218.71	127.2
218.928	106.47
219.146	130.49
219.363	108.8
219.581	152.59
219.799	149.17
220.017	-327.54
220.234	104.24
220.452	98.49
220.67	174
220.887	213.85
221.105	-323.88
221.323	-132.16
221.54	285.67
221.758	142.02
221.976	25.11
222.193	35.89
222.411	6.88
222.629	43.48
222.846	16.25
223.064	1.05
223.281	-18.86
223.499	-20.5
223.716	-31.02
223.934	-51.88
224.151	-106.15
224.369	-27.74
224.586	-17.72
224.804	-25.84
225.021	-60.31
225.239	-73.28
225.456	111.31
225.674	539.13
225.891	-25.33
226.108	-46.74
226.326	95.56
226.543	45.27
226.76	5.36
226.978	-17.69
227.195	2.94
227.413	7.58
227.63	7.92
227.847	14
228.064	13.37
228.282	13.69
228.499	19.64
228.716	7.7
228.934	6.43
229.151	11.68
229.368	15.79
229.585	16.34
229.802	16.36
230.02	16.61
230.237	16.16
230.454	16.36
230.671	21.46
230.888	21.93
231.105	28.87
231.323	29
231.54	28.9
231.757	27.87
231.974	27.44
232.191	30.48
232.408	34.64
232.625	35.31
232.842	36.76
233.059	35
233.276	33.42
233.493	31.08
233.71	38.36
233.927	37.94
234.144	39.9
234.361	35.2
234.578	33.74
234.795	27.69
235.012	28.45
235.229	24.23
235.446	20.56
235.663	20.9
235.879	25.82
236.096	20.53
236.313	20.01
236.53	22.72
236.747	24.85
236.964	20.38
237.181	24.49
237.397	13.87
237.614	16.99
237.831	19.98
238.048	16.94
238.264	17.35
238.481	18.77
238.698	20.63
238.915	22.2
239.131	20.47
239.348	21.49
239.565	19.85
239.781	22.4
239.998	23.61
240.215	24.06
240.431	22.96
240.648	20.7
240.865	17.35
241.081	13.15
241.298	11.32
241.514	14.56
241.731	14.34
241.947	14.09
242.164	13.89
242.38	12.94
242.597	14.14
242.814	14.11
243.03	13.49
243.246	13.88
243.463	14.63
243.679	15.12
243.896	13.97
244.112	13.76
244.329	13.38
244.545	16.23
244.762	15.41
244.978	15.14
245.194	14.03
245.411	15.29
245.627	15.57
245.843	17.08
246.06	15.62
246.276	15.08
246.492	17.48
246.709	19.05
246.925	16.16
247.141	15.88
247.357	14.69
247.574	15.26
247.79	15.28
248.006	14.92
248.222	14.6
248.439	14.42
248.655	13.62
248.871	11.53
249.087	10.65
249.303	10.95
249.519	10.78
249.736	11.88
249.952	11.06
250.168	10.48
250.384	9.4
250.6	12.78
250.816	14.72
251.032	15.46
251.248	15.19
251.464	14.39
251.68	15.87
251.896	16.84
252.112	13.93
252.328	13.11
252.544	14.35
252.76	16.41
252.976	13.37
253.192	12.78
253.408	15.95
253.624	19.02
253.84	18.11
254.056	17.72
254.272	18.4
254.487	21.16
254.703	22.24
254.919	18.48
255.135	14.58
255.351	13.56
255.567	13.7
255.782	10.73
255.998	6.6
256.214	8.26
256.43	9.51
256.646	13.47
256.861	12.55
257.077	15.64
257.293	17.07
257.508	19.06
257.724	18.61
257.94	19.93
258.155	17.73
258.371	16.06
258.587	15.13
258.802	14.15
259.018	12.69
259.234	12.27
259.449	11.02
259.665	11.22
259.88	11.58
260.096	11.34
260.312	9.03
260.527	9.2
260.743	10.45
260.958	10.19
261.174	9.95
261.389	8.95
261.605	9.56
261.82	9.53
262.036	10.27
262.251	10.52
262.466	9.92
262.682	12.51
262.897	13.14
263.113	11.3
263.328	11.9
263.543	13.09
263.759	14.22
263.974	12.66
264.189	14.42
264.405	11.35
264.62	10.2
264.835	11.59
265.051	9.33
265.266	10.56
265.481	10.47
265.696	11.44
265.912	11.03
266.127	10.9
266.342	10.83
266.557	9.95
266.773	11.25
266.988	11.12
267.203	11.6
267.418	12.57
267.633	12.63
267.848	12.64
268.064	11.61
268.279	12.34
268.494	12.49
268.709	12.34
268.924	12.91
269.139	13.18
269.354	13.76
269.569	13.92
269.784	14.15
269.999	13.94
270.214	13.99
270.429	14.99
270.644	14.11
270.859	14.24
271.074	16.24
271.289	15.35
271.504	13.36
271.719	13.58
271.934	12.94
272.149	11.89
272.363	11.78
272.578	12.53
272.793	12.21
273.008	13.09
273.223	13.14
273.438	12.67
273.653	11.54
273.867	12.55
274.082	12.23
274.297	13.62
274.512	15.14
274.726	13.99
274.941	13.2
275.156	13.77
275.371	13.89
275.585	13.43
275.8	13.09
276.015	14.78
276.229	14.79
276.444	13.94
276.659	13.4
276.873	11.44
277.088	11.81
277.302	12.59
277.517	11.91
277.732	12.17
277.946	14.6
278.161	15.17
278.375	15.09
278.59	14.47
278.804	13.51
279.019	10.97
279.233	12.06
279.448	14.94
279.662	14.17
279.877	13.72
280.091	12.84
280.306	11.17
280.52	10.74
280.735	10.66
280.949	9.98
281.163	12.02
281.378	13.17
281.592	13.39
281.806	12.09
282.021	11.6
282.235	11.56
282.449	11.82
282.664	11.28
282.878	11.06
283.092	11.93
283.307	13.59
283.521	13.69
283.735	14.52
283.949	14.25
284.164	14.22
284.378	15.7
284.592	15.83
284.806	15.19
285.02	16.32
285.234	15.14
285.449	12.79
285.663	12.5
285.877	11.43
286.091	10.71
286.305	10.65
286.519	10.14
286.733	9.83
286.947	9.85
287.161	9.9
287.375	8.64
287.589	10.76
287.803	14.05
288.017	14.03
288.231	15.58
288.445	16.49
288.659	16.02
288.873	15.82
289.087	14.73
289.301	13.98
289.515	12.98
289.729	13.05
289.943	12.3
290.157	10.74
290.371	10.9
290.584	9.97
290.798	10.2
291.012	11.7
291.226	12.34
291.44	13.3
291.654	14.49
291.867	16.6
292.081	17.1
292.295	17.08
292.509	16.61
292.722	17.42
292.936	17.39
293.15	16.87
293.364	15.87
293.577	14.4
293.791	15.16
294.005	15.46
294.218	13.7
294.432	14.19
294.645	14.75
294.859	15.35
295.073	15.64
295.286	15.26
295.5	15.12
295.713	15.16
295.927	15.62
296.14	15.21
296.354	13.62
296.568	14.11
296.781	12.1
296.994	10.84
297.208	10.59
297.421	10.55
297.635	10.8
297.848	10.49
298.062	10.66
298.275	10.8
298.489	10.22
298.702	10.58
298.915	9.39
299.129	11.17
299.342	12.03
299.555	12.01
299.769	9.6
299.982	10.35
300.195	11.18
300.409	10.42
300.622	10.25
300.835	10.73
301.048	11.74
301.262	13.24
301.475	12.11
301.688	11.56
301.901	12.65
302.115	13.86
302.328	14.57
302.541	14.5
302.754	15.5
302.967	15.43
303.18	14.99
303.393	14.89
303.607	14.7
303.82	16.07
304.033	16.45
304.246	17.53
304.459	19.3
304.672	18.86
304.885	19.71
305.098	19.65
305.311	20.75
305.524	20.14
305.737	18.96
305.95	17.94
306.163	17.73
306.376	17.88
306.589	16.85
306.802	15.93
307.015	16.82
307.228	16.33
307.44	16.53
307.653	14.93
307.866	15.36
308.079	17.1
308.292	18.01
308.505	18.59
308.718	19.41
308.93	19.88
309.143	20.05
309.356	17.89
309.569	17.96
309.781	17.59
309.994	18.56
310.207	17.73
310.42	16.74
310.632	16.94
310.845	15.44
311.058	13.98
311.27	13.8
311.483	14.46
311.696	14.91
311.908	14.93
312.121	15.4
312.333	15.24
312.546	15.67
312.759	15.44
312.971	15.27
313.184	15.85
313.396	16.38
313.609	15
313.821	13.78
314.034	13.47
314.246	11.32
314.459	10.92
314.671	11.72
314.884	11.22
315.096	13.26
315.309	14.44
315.521	14.45
315.733	13.97
315.946	13.92
316.158	14.38
316.371	14.56
316.583	16.69
316.795	15.84
317.008	14.57
317.22	15.68
317.432	14.75
317.644	14.28
317.857	15.26
318.069	15.62
318.281	16.53
318.494	16.44
318.706	16.91
318.918	15.14
319.13	17.47
319.342	16.94
319.555	18.17
319.767	17.66
319.979	16.26
320.191	14.19
320.403	13.81
320.615	12.39
320.827	11.44
321.039	12.15
321.252	13.62
321.464	12.82
321.676	13.92
321.888	13.3
322.1	13.42
322.312	14.04
322.524	14.91
322.736	14.83
322.948	15.49
323.16	15.13
323.372	14.6
323.584	15.58
323.796	16.22
324.007	15.27
324.219	15.14
324.431	15.15
324.643	15.74
324.855	15
325.067	17.1
325.279	19.01
325.491	19.57
325.702	18.48
325.914	18.14
326.126	17.04
326.338	19.47
326.55	19.87
326.761	17.68
326.973	18.52
327.185	19.91
327.396	20
327.608	19.03
327.82	18.36
328.032	19.6
328.243	19.2
328.455	19.76
328.666	18.5
328.878	18.25
329.09	21.48
329.301	20.05
329.513	20.16
329.725	20.33
329.936	19.5
330.148	21.25
330.359	20.21
330.571	19.51
330.782	18.97
330.994	18.29
331.205	18.16
331.417	16.83
331.628	17.62
331.84	17.33
332.051	16.25
332.262	17.57
332.474	16.66
332.685	18.93
332.897	20.22
333.108	20.49
333.319	21.37
333.531	20.84
333.742	22.46
333.953	21.8
334.165	20.97
334.376	20.53
334.587	20.5
334.799	21.26
335.01	19.93
335.221	19.18
335.432	19.44
335.644	18.67
335.855	19.93
336.066	19.84
336.277	19.82
336.488	20.33
336.7	20.92
336.911	20.58
337.122	19.45
337.333	19.76
337.544	21.38
337.755	21.02
337.966	19.64
338.177	18.75
338.388	17.28
338.599	18.43
338.811	17.38
339.022	16.1
339.233	15.51
339.444	16.18
339.655	16.24
339.866	13.78
340.076	14.45
340.287	16.38
340.498	15.77
340.709	16.47
340.92	16.5
341.131	17.75
341.342	18.79
341.553	19.54
341.764	19.37
341.975	20.35
342.185	20.81
342.396	21.87
342.607	20.51
342.818	22.73
343.029	22.69
343.239	21.66
343.45	21.46
343.661	22.47
343.872	21.84
344.082	21.76
344.293	20.88
344.504	20.26
344.714	18.95
344.925	20.15
345.136	17.79
345.346	17.13
345.557	16.81
345.768	16.59
345.978	14.68
346.189	15.07
346.399	15.41
346.61	14.48
346.821	15.36
347.031	15.19
347.242	14.89
347.452	15.73
347.663	16.46
347.873	17.7
348.084	18.05
348.294	19.19
348.504	19.59
348.715	19.36
348.925	19.28
349.136	19.07
349.346	18.4
349.557	18.85
349.767	18.69
349.977	19.18
350.188	19.46
350.398	19.5
350.608	19.58
350.819	18.64
351.029	18.09
351.239	19.67
351.449	20.58
351.66	20.94
351.87	20.32
352.08	21.57
352.29	21
352.501	20.08
352.711	19.59
352.921	18.98
353.131	18.99
353.341	20.61
353.552	19.31
353.762	19.16
353.972	18.44
354.182	18.07
354.392	16.8
354.602	16.98
354.812	16.46
355.022	16.97
355.232	17.4
355.442	18.2
355.652	16.84
355.862	16.91
356.072	15.9
356.282	16.5
356.492	16.88
356.702	17.72
356.912	17.75
357.122	18.22
357.332	18.11
357.542	18.22
357.752	18.23
357.962	17.7
358.171	18.66
358.381	18.93
358.591	19.21
358.801	18.98
359.011	18.82
359.221	18.61
359.43	18.64
359.64	19.24
359.85	18.27
360.06	17.93
360.269	18.76
360.479	17.72
360.689	18.14
360.899	17.89
361.108	18.77
361.318	17.99
361.528	18.01
361.737	17.91
361.947	17.13
362.156	17.27
362.366	16.7
362.576	16.99
362.785	17.23
362.995	16.42
363.204	16.31
363.414	15.16
363.623	15.47
363.833	16.21
364.042	16.01
364.252	15.75
364.461	15.81
364.671	16.62
364.88	17.06
365.09	17.42
365.299	17.98
365.509	18.14
365.718	18.61
365.927	18.68
366.137	17.44
366.346	17.85
366.555	17.85
366.765	17.4
366.974	17.06
367.183	15.19
367.393	14.74
367.602	14.89
367.811	14.89
368.021	15.31
368.23	15.02
368.439	14.49
368.648	14.3
368.857	14.18
369.067	14.88
369.276	14.31
369.485	15.22
369.694	14.78
369.903	14.01
370.112	13.8
370.321	12.84
370.531	12.36
370.74	12.46
370.949	11.57
371.158	11.69
371.367	11.46
371.576	11.9
371.785	11.82
371.994	11.94
372.203	12.08
372.412	12.98
372.621	13.53
372.83	13.62
373.039	14.01
373.248	14.27
373.457	14.03
373.666	13.54
373.874	13.01
374.083	12.88
374.292	12.86
374.501	12.94
374.71	12.05
374.919	11.8
375.128	11.63
375.336	11.25
375.545	11.44
375.754	12.01
375.963	12.75
376.171	13.27
376.38	13.35
376.589	13.17
376.798	13.31
377.006	13.46
377.215	13.53
377.424	14.02
377.632	14.81
377.841	14.36
378.05	14.89
378.258	14.05
378.467	13.91
378.675	14.05
378.884	14.11
379.093	13.54
379.301	13.11
379.51	12.46
379.718	12.5
379.927	11.41
380.135	11.33
380.344	10.71
380.552	10.57
380.761	10.85
380.969	10.11
381.177	10.12
381.386	10.96
381.594	11.54
381.803	12.31
382.011	12.01
382.219	12.4
382.428	12.51
382.636	12.5
382.845	12.97
383.053	12.51
383.261	12.77
383.469	12.86
383.678	12.36
383.886	11.85
384.094	12
384.302	12.05
384.511	12.01
384.719	12
384.927	12.02
385.135	12.11
385.343	11.81
385.552	11.71
385.76	11.16
385.968	10.72
386.176	10.77
386.384	10.21
386.592	10.59
386.8	10.25
387.008	10.24
387.216	10.01
387.424	9.99
387.633	10.3
387.841	10.31
388.049	10.46
388.257	10.47
388.465	10.42
388.672	10.08
388.88	9.57
389.088	9.81
389.296	9.58
389.504	9.81
389.712	9.69
389.92	9.27
390.128	9.37
390.336	9.41
390.544	9.84
390.751	9.91
390.959	10.16
391.167	10.11
391.375	10.15
391.583	10
391.79	9.66
391.998	9.45
392.206	9.68
392.414	9.49
392.621	9.38
392.829	8.81
393.037	8.8
393.244	8.61
393.452	8.74
393.66	8.49
393.867	8.65
394.075	8.61
394.283	8.63
394.49	8.43
394.698	8.48
394.905	8.42
395.113	8.84
395.32	8.7
395.528	8.88
395.735	8.68
395.943	8.79
396.15	8.86
396.358	8.67
396.565	8.5
396.773	8.69
396.98	8.48
397.188	8.68
397.395	8.71
397.602	8.8
397.81	8.7
398.017	8.75
398.225	8.61
398.432	8.51
398.639	8.79
398.847	9.06
399.054	9
399.261	9.19
399.468	9.31
399.676	9.16
399.883	8.99
400.09	9.15
400.297	9.02
400.505	9.03
400.712	8.97
400.919	8.93
401.126	8.84
401.333	8.75
401.54	8.68
401.748	8.28
401.955	8.38
402.162	8.39
402.369	8.09
402.576	8.03
402.783	8.14
402.99	8.1
403.197	8.03
403.404	7.85
403.611	7.8
403.818	8.08
404.025	8.07
404.232	8.05
404.439	8.09
404.646	8.36
404.853	8.4
405.06	8.42
405.267	8.47
405.474	8.58
405.681	8.59
405.887	8.73
406.094	8.22
406.301	8.34
406.508	8.42
406.715	8.38
406.922	8.21
407.128	8.25
407.335	7.95
407.542	8.2
407.749	7.84
407.955	7.87
408.162	7.82
408.369	8.15
408.575	8.09
408.782	7.91
408.989	7.88
409.195	7.72
409.402	7.67
409.609	7.64
409.815	7.38
410.022	7.49
410.228	7.65
410.435	7.42
410.642	7.76
410.848	7.92
411.055	8.16
411.261	8.27
411.468	8.26
411.674	8.15
411.881	8.4
412.087	8.4
412.294	8.37
412.5	8.59
412.706	8.64
412.913	8.27
413.119	8.05
413.326	8
413.532	7.91
413.738	7.85
413.945	7.89
414.151	7.8
414.357	7.93
414.564	7.89
414.77	7.58
414.976	7.73
415.182	7.73
415.389	7.8
415.595	7.73
415.801	7.73
416.007	7.99
416.214	7.96
416.42	7.98
416.626	7.87
416.832	8.11
417.038	8.16
417.244	8.12
417.45	8.23
417.657	8.13
417.863	7.9
418.069	7.81
418.275	7.49
418.481	7.54
418.687	7.55
418.893	7.34
419.099	7.18
419.305	6.93
419.511	6.86
419.717	6.65
419.923	6.69
420.129	6.74
420.335	6.74
420.541	6.88
420.746	6.89
420.952	7
421.158	7.16
421.364	7.16
421.57	7.24
421.776	7.19
421.982	7.24
422.187	7.16
422.393	7.18
422.599	7.3
422.805	7.35
423.01	7.41
423.216	7.37
423.422	7.42
423.628	7.44
423.833	7.48
424.039	7.51
424.245	7.43
424.45	7.42
424.656	7.33
424.862	7.08
425.067	7.03
425.273	6.86
425.478	6.62
425.684	6.42
425.889	6.43
426.095	6.31
426.301	6.18
426.506	6.18
426.712	6.12
426.917	6.04
427.123	6.04
427.328	6.08
427.533	6
427.739	6.05
427.944	6.31
428.15	6.26
428.355	6.46
428.561	6.83
428.766	6.88
428.971	6.89
429.177	7.17
429.382	7.37
429.587	7.21
429.793	7.38
429.998	7.45
430.203	7.24
430.408	7.39
430.614	7.26
430.819	7.12
431.024	6.91
431.229	7.01
431.434	7.07
431.64	7.13
431.845	7.13
432.05	7.28
432.255	7.39
432.46	7.41
432.665	7.36
432.87	7.15
433.076	7.04
433.281	7.22
433.486	7.41
433.691	7.18
433.896	7.17
434.101	7.2
434.306	7.06
434.511	7.14
434.716	7.11
434.921	7.09
435.126	7.19
435.331	7.17
435.535	7.08
435.74	6.96
435.945	7
436.15	6.98
436.355	6.99
436.56	7.11
436.765	6.95
436.97	7.13
437.174	7.08
437.379	7.33
437.584	7.51
437.789	7.71
437.993	7.62
438.198	7.49
438.403	7.29
438.608	7.35
438.812	7.11
439.017	6.93
439.222	6.85
439.426	6.57
439.631	6.28
439.836	6.19
440.04	6.03
440.245	6
440.45	6.05
440.654	6.21
440.859	6
441.063	6.01
441.268	6.15
441.472	6.18
441.677	6.38
441.881	6.59
442.086	6.62
442.29	6.71
442.495	6.7
442.699	6.63
442.904	6.67
443.108	6.81
443.312	6.98
443.517	6.99
443.721	6.88
443.925	6.96
444.13	6.9
444.334	6.84
444.538	6.78
444.743	6.85
444.947	6.95
445.151	6.86
445.356	6.91
445.56	6.92
445.764	6.82
445.968	6.69
446.173	6.63
446.377	6.68
446.581	6.61
446.785	6.64
446.989	6.54
447.193	6.56
447.398	6.49
447.602	6.28
447.806	6.23
448.01	6.33
448.214	6.36
448.418	6.28
448.622	6.25
448.826	6.32
449.03	6.24
449.234	6.43
449.438	6.44
449.642	6.32
449.846	6.49
450.05	6.48
450.254	6.36
450.458	6.44
450.662	6.53
450.866	6.53
451.069	6.66
451.273	6.66
451.477	6.49
451.681	6.58
451.885	6.87
452.089	7.01
452.292	7.12
452.496	7.04
452.7	7.24
452.904	7.12
453.107	7.06
453.311	6.82
453.515	6.89
453.719	6.92
453.922	6.72
454.126	6.68
454.33	6.55
454.533	6.34
454.737	6.36
454.94	6.3
455.144	6.49
455.348	6.56
455.551	6.64
455.755	6.56
455.958	6.64
456.162	6.74
456.365	6.78
456.569	6.82
456.772	6.78
456.976	6.74
457.179	6.47
457.383	6.36
457.586	6.34
457.79	6.61
457.993	6.65
458.196	6.54
458.4	6.67
458.603	6.55
458.807	6.51
459.01	6.63
459.213	6.71
459.417	6.7
