Data from 2937843_Reflection_4.txt Node
Date: Wed Jul 15 16:12:25 EDT 2015
User: robert
Spectrometer: USB4E03001
Autoset integration time: false
Trigger mode: 4
Integration Time (sec): 1.000000E-1
Scans to average: 10
Electric dark correction enabled: true
Nonlinearity correction enabled: false
Boxcar width: 5
Stray light correction enabled: false
XAxis mode: Wavelengths
Stop averaging: false
Number of Pixels in Spectrum: 3648
>>>>>Begin Spectral Data<<<<<
177.566	130.43
177.785	501.56
178.005	-448.28
178.225	-1501.83
178.445	-265.95
178.665	97.9
178.885	482.2
179.105	165.56
179.324	174.68
179.544	7535.94
179.764	-689.21
179.984	-310.09
180.204	-103.94
180.423	-83.44
180.643	-172.1
180.863	-208.64
181.083	-256.82
181.302	-110.95
181.522	-261.99
181.742	-272.82
181.961	-358.25
182.181	-30766.67
182.401	-867.15
182.621	-664.99
182.84	-5299.15
183.06	-155.18
183.279	-42.3
183.499	-37.2
183.719	-83.79
183.938	-28.74
184.158	-55.61
184.377	-63.5
184.597	-36.43
184.816	-85.75
185.036	-108.89
185.256	-119.25
185.475	-222.24
185.695	-220.46
185.914	-157.63
186.134	-264.16
186.353	-6368.35
186.572	-342.69
186.792	-50.65
187.011	-44.77
187.231	-55.37
187.45	-48.73
187.67	-6.41
187.889	-38.24
188.108	-45.39
188.328	-66.45
188.547	-164.66
188.766	-288.42
188.986	-362.55
189.205	634.16
189.424	495.06
189.644	597.18
189.863	528.92
190.082	373.82
190.302	227.11
190.521	334.74
190.74	277.21
190.959	273.78
191.178	600.83
191.398	311.25
191.617	-6086.36
191.836	1501.29
192.055	-66.03
192.274	-379.47
192.494	-724.21
192.713	-2003.06
192.932	271.98
193.151	171.22
193.37	353.48
193.589	197.49
193.808	483.92
194.027	138.16
194.246	132.98
194.465	223.05
194.685	-11440
194.904	-580.32
195.123	771.8
195.342	-1928.23
195.561	-80.79
195.78	-55.48
195.999	-78.17
196.218	12726.32
196.436	-69.05
196.655	4.03
196.874	-186.29
197.093	-1540.74
197.312	22.03
197.531	25.97
197.75	45.38
197.969	44.24
198.188	31.38
198.407	51.99
198.625	52.84
198.844	27.77
199.063	6.69
199.282	-7.86
199.501	-19.44
199.719	-29.94
199.938	-26.16
200.157	-42.95
200.376	-66.45
200.594	-88.72
200.813	729.12
201.032	256.78
201.251	146.03
201.469	357.92
201.688	29.2
201.907	37.35
202.125	-93.72
202.344	111.33
202.563	191.73
202.781	4576
203	143.6
203.218	276.06
203.437	268.21
203.656	178.22
203.874	151.59
204.093	139.72
204.311	111.66
204.53	105.32
204.748	111.6
204.967	1333.55
205.185	-92.92
205.404	47.79
205.622	71.54
205.841	56.93
206.059	52.01
206.278	79.16
206.496	93.14
206.715	65.51
206.933	85.9
207.151	62.6
207.37	57.54
207.588	56.65
207.806	40.15
208.025	17.57
208.243	26.22
208.461	17.95
208.68	22.44
208.898	31.48
209.116	13.73
209.335	9.77
209.553	-2.2
209.771	3.77
209.989	-19.82
210.208	-90.87
210.426	-101.19
210.644	-139.55
210.862	-185.05
211.081	-346.77
211.299	-331.36
211.517	-262.91
211.735	-2626
211.953	-4351.18
212.171	315.31
212.39	438.79
212.608	-3106.78
212.826	-2196.17
213.044	-182.91
213.262	-138.76
213.48	-176.27
213.698	1903.09
213.916	-249.1
214.134	-142.59
214.352	-194.62
214.57	-684.34
214.788	586.72
215.006	418.76
215.224	-1211.62
215.442	-1153.97
215.66	312.14
215.878	318.22
216.096	1554.6
216.314	281.42
216.532	139.42
216.75	339.33
216.968	-925.23
217.185	-75.39
217.403	-151.91
217.621	808.4
217.839	534.2
218.057	421.39
218.275	-570.78
218.492	-943.64
218.71	-715.85
218.928	-465.37
219.146	-90.22
219.363	-36.64
219.581	-73.02
219.799	8.42
220.017	5.02
220.234	-30.55
220.452	-2.9
220.67	-26.62
220.887	-4.49
221.105	-3.12
221.323	-10.57
221.54	-44.31
221.758	-91.92
221.976	-84.34
222.193	-186.9
222.411	-67.56
222.629	-46.73
222.846	-56.79
223.064	-36.42
223.281	-43.74
223.499	-17.56
223.716	-28.44
223.934	3.35
224.151	6.47
224.369	-5.54
224.586	12.98
224.804	10.02
225.021	-20.39
225.239	-30.05
225.456	-18.56
225.674	-24.6
225.891	-27.96
226.108	-10.89
226.326	-12.21
226.543	-1.64
226.76	-6.01
226.978	-15.77
227.195	-10.42
227.413	2.94
227.63	10.16
227.847	8.97
228.064	6.62
228.282	5.24
228.499	8
228.716	3.8
228.934	-0.13
229.151	2.79
229.368	3.83
229.585	-0.39
229.802	-3.4
230.02	-4.31
230.237	-5.2
230.454	-5.98
230.671	-4.35
230.888	-3.25
231.105	3.52
231.323	6.1
231.54	9.9
231.757	7.58
231.974	12.73
232.191	15.22
232.408	9.02
232.625	11.54
232.842	12.15
233.059	2.99
233.276	-6.72
233.493	-23.5
233.71	-18.58
233.927	-19.26
234.144	-11.82
234.361	-18.12
234.578	-15.48
234.795	-14.93
235.012	-19.82
235.229	-17.17
235.446	-12.77
235.663	-11.14
235.879	-6.33
236.096	-8.51
236.313	-12.78
236.53	-10.97
236.747	-12.26
236.964	-6.61
237.181	-4.54
237.397	0.56
237.614	0.66
237.831	2.44
238.048	3.04
238.264	2.36
238.481	4.38
238.698	9
238.915	11.86
239.131	19.29
239.348	15.87
239.565	16.93
239.781	14.62
239.998	14.89
240.215	17.82
240.431	20.59
240.648	18.06
240.865	14.27
241.081	11.4
241.298	8.91
241.514	6.72
241.731	4.78
241.947	4.34
242.164	2.58
242.38	0.56
242.597	-0.37
242.814	-0.05
243.03	3.57
243.246	7.6
243.463	7.69
243.679	6.84
243.896	6.92
244.112	7.89
244.329	5.42
244.545	9.04
244.762	8.99
244.978	7.11
245.194	3.23
245.411	-0.69
245.627	-1.08
245.843	3.53
246.06	5.99
246.276	7.9
246.492	7.31
246.709	9.76
246.925	8.41
247.141	9.75
247.357	10.7
247.574	11.31
247.79	11.68
248.006	10.57
248.222	8.84
248.439	9.73
248.655	8.5
248.871	8.24
249.087	7.3
249.303	8.1
249.519	6.98
249.736	5.91
249.952	5.43
250.168	5.41
250.384	4.81
250.6	5.3
250.816	4.52
251.032	5.5
251.248	6.95
251.464	8.29
251.68	8.34
251.896	10.15
252.112	7.89
252.328	7.76
252.544	5.44
252.76	6.47
252.976	5.71
253.192	3.91
253.408	3.22
253.624	1.39
253.84	1.16
254.056	2.33
254.272	1.2
254.487	3.31
254.703	4.82
254.919	7.95
255.135	8.02
255.351	4.1
255.567	3.23
255.782	7.63
255.998	7.52
256.214	6.8
256.43	5.95
256.646	2.76
256.861	0.75
257.077	-1.2
257.293	0.68
257.508	-0.09
257.724	4.08
257.94	6.42
258.155	5.02
258.371	6.83
258.587	5.85
258.802	6.21
259.018	6.76
259.234	7.26
259.449	8.14
259.665	6.86
259.88	6.75
260.096	6.89
260.312	5.68
260.527	4.75
260.743	5.49
260.958	5.61
261.174	5.07
261.389	4.64
261.605	3.59
261.82	1.57
262.036	2.57
262.251	2.54
262.466	1.56
262.682	0.9
262.897	0.77
263.113	-3.37
263.328	-3.51
263.543	-3.58
263.759	-3.33
263.974	-1.81
264.189	1
264.405	1.03
264.62	1.73
264.835	2.82
265.051	3.48
265.266	4.08
265.481	6.88
265.696	5.45
265.912	3.62
266.127	2.81
266.342	2.92
266.557	3.46
266.773	0.33
266.988	-0.76
267.203	-1.11
267.418	-0.01
267.633	-2.15
267.848	-2.85
268.064	-0.85
268.279	-0.47
268.494	1.64
268.709	0.19
268.924	0.93
269.139	2.79
269.354	3.33
269.569	1.05
269.784	1.46
269.999	3.71
270.214	3.68
270.429	2.43
270.644	1.79
270.859	2.59
271.074	4.31
271.289	4.54
271.504	4.57
271.719	5.16
271.934	6.67
272.149	6.58
272.363	6.31
272.578	5.91
272.793	5.2
273.008	6.47
273.223	5.29
273.438	3.6
273.653	2.32
273.867	1.34
274.082	0.7
274.297	0.65
274.512	-0.74
274.726	0.32
274.941	-0.26
275.156	1.19
275.371	1.05
275.585	-0.16
275.8	1.5
276.015	0.07
276.229	0.4
276.444	-0.57
276.659	-0.79
276.873	1.1
277.088	1.25
277.302	1.28
277.517	1.38
277.732	0.35
277.946	1.85
278.161	2.91
278.375	4.92
278.59	6.51
278.804	4.61
279.019	3.29
279.233	0.69
279.448	-0.49
279.662	1.44
279.877	1.31
280.091	0.89
280.306	1.56
280.52	0.13
280.735	-0.33
280.949	-1.03
281.163	1.56
281.378	4.29
281.592	4.9
281.806	4.88
282.021	4.25
282.235	5.26
282.449	4.84
282.664	3.12
282.878	2.87
283.092	3.97
283.307	4.06
283.521	3.91
283.735	1.28
283.949	1.36
284.164	2.08
284.378	1.36
284.592	0.43
284.806	0.65
285.02	2.07
285.234	3.28
285.449	3.27
285.663	5.09
285.877	5.15
286.091	5.86
286.305	7.02
286.519	6.15
286.733	7.34
286.947	5.76
287.161	6.11
287.375	3.22
287.589	3.47
287.803	1.24
288.017	-0.26
288.231	-0.82
288.445	-0.07
288.659	-1.14
288.873	-0.96
289.087	0.04
289.301	2.67
289.515	4.51
289.729	5.84
289.943	4
290.157	4.46
290.371	3.91
290.584	4.57
290.798	4.16
291.012	3.81
291.226	3.6
291.44	2.8
291.654	2.11
291.867	0.67
292.081	2.21
292.295	4.97
292.509	6.87
292.722	7.37
292.936	7.42
293.15	8.57
293.364	10.72
293.577	12.11
293.791	12.32
294.005	12.85
294.218	12.4
294.432	11.84
294.645	10.72
294.859	10.28
295.073	10.09
295.286	9.89
295.5	9.11
295.713	7.83
295.927	7.69
296.14	7.86
296.354	8.03
296.568	8.61
296.781	9.79
296.994	10.69
297.208	11.02
297.421	10.6
297.635	11.43
297.848	10.88
298.062	11.71
298.275	10.79
298.489	10.32
298.702	11.3
298.915	11.27
299.129	11.96
299.342	10.02
299.555	10.16
299.769	10.87
299.982	10.07
300.195	11.63
300.409	11.02
300.622	11.15
300.835	11.66
301.048	10.34
301.262	10.22
301.475	8.52
301.688	8.71
301.901	8.89
302.115	9.34
302.328	9.29
302.541	9.16
302.754	9.27
302.967	12.14
303.18	10.19
303.393	9.85
303.607	10.07
303.82	10.98
304.033	13.17
304.246	12.11
304.459	12.31
304.672	13.06
304.885	12.38
305.098	11.41
305.311	10.76
305.524	12.62
305.737	13.27
305.95	12.63
306.163	11.74
306.376	12.12
306.589	14.14
306.802	13.53
307.015	13.87
307.228	13
307.44	12.64
307.653	12.36
307.866	12.42
308.079	11.93
308.292	14.49
308.505	13
308.718	11.21
308.93	11.21
309.143	11.18
309.356	10.67
309.569	10.67
309.781	12.71
309.994	12.86
310.207	13.38
310.42	14.97
310.632	15.43
310.845	17.28
311.058	17.69
311.27	18.51
311.483	18.71
311.696	19.66
311.908	21.08
312.121	20.58
312.333	19.92
312.546	20.53
312.759	20.72
312.971	19.35
313.184	19.51
313.396	19.69
313.609	17.12
313.821	16.25
314.034	15.22
314.246	13.9
314.459	12.87
314.671	14.48
314.884	14.46
315.096	15.15
315.309	16.63
315.521	15.27
315.733	16.54
315.946	17.85
316.158	18.39
316.371	19.85
316.583	20.81
316.795	20.88
317.008	19.76
317.22	19.28
317.432	15.9
317.644	12.83
317.857	14.03
318.069	10.76
318.281	10.24
318.494	12.93
318.706	12.25
318.918	12.72
319.13	14.24
319.342	15.14
319.555	15.55
319.767	16.23
319.979	19.58
320.191	21.92
320.403	22.02
320.615	22.31
320.827	20.51
321.039	20.08
321.252	18.4
321.464	19.98
321.676	19.22
321.888	18.9
322.1	19.28
322.312	19.83
322.524	18.58
322.736	20.61
322.948	18.61
323.16	18.28
323.372	19.94
323.584	23.03
323.796	19.95
324.007	20.82
324.219	19.61
324.431	20.81
324.643	20.31
324.855	20.17
325.067	22.3
325.279	25.12
325.491	28.06
325.702	26.99
325.914	27.56
326.126	29.57
326.338	30.29
326.55	32.44
326.761	32.43
326.973	33.26
327.185	33.48
327.396	32.75
327.608	32.4
327.82	32.14
328.032	31.74
328.243	31.75
328.455	32.18
328.666	31.7
328.878	32.42
329.09	32.88
329.301	33.31
329.513	35.1
329.725	36.6
329.936	36.31
330.148	36.32
330.359	39.42
330.571	40.16
330.782	41.47
330.994	42.92
331.205	42.48
331.417	44.1
331.628	44.41
331.84	45.77
332.051	45.38
332.262	48.44
332.474	49.9
332.685	48.96
332.897	49.53
333.108	52.81
333.319	54.36
333.531	56.04
333.742	56.01
333.953	57.45
334.165	58.15
334.376	60.09
334.587	61.3
334.799	61.58
335.01	64.17
335.221	64.36
335.432	62.35
335.644	62.73
335.855	62.62
336.066	62.27
336.277	61.15
336.488	61.57
336.7	61.23
336.911	61.37
337.122	60.95
337.333	60.49
337.544	60.26
337.755	61.44
337.966	61.44
338.177	63.17
338.388	65.57
338.599	66.12
338.811	66.49
339.022	67.59
339.233	67.29
339.444	69.39
339.655	70.08
339.866	71.4
340.076	71.95
340.287	72.57
340.498	73.02
340.709	73.69
340.92	75.81
341.131	75.49
341.342	75.82
341.553	76.89
341.764	75.87
341.975	74.99
342.185	76.14
342.396	75.89
342.607	75.48
342.818	75.96
343.029	74.98
343.239	74.36
343.45	73.92
343.661	73.08
343.872	72.55
344.082	72.29
344.293	73.61
344.504	72.52
344.714	72.38
344.925	74.86
345.136	74.34
345.346	73.9
345.557	73.87
345.768	74.16
345.978	74.97
346.189	75.05
346.399	75.97
346.61	75.02
346.821	74.89
347.031	76.72
347.242	75.08
347.452	74.61
347.663	74.85
347.873	75.17
348.084	75.43
348.294	75.54
348.504	76.25
348.715	76.73
348.925	77.62
349.136	78.51
349.346	76.95
349.557	75.75
349.767	75.14
349.977	76.42
350.188	76.08
350.398	75.96
350.608	76.87
350.819	76.21
351.029	75.2
351.239	75.96
351.449	75.54
351.66	74.84
351.87	75.62
352.08	77.19
352.29	76.13
352.501	77.29
352.711	78.15
352.921	76.4
353.131	76.36
353.341	76.35
353.552	75.81
353.762	76.06
353.972	77.5
354.182	77.31
354.392	76.74
354.602	76.91
354.812	76.56
355.022	75.78
355.232	76.12
355.442	75.94
355.652	76.82
355.862	76.76
356.072	76.71
356.282	76.76
356.492	76.94
356.702	77.67
356.912	77.03
357.122	76.49
357.332	77.37
357.542	77.93
357.752	78.25
357.962	77.44
358.171	77.33
358.381	77.27
358.591	77.05
358.801	77.16
359.011	76.59
359.221	75.95
359.43	75.89
359.64	75.35
359.85	74.66
360.06	73.56
360.269	73.43
360.479	73.55
360.689	73.33
360.899	73.24
361.108	73.22
361.318	72.84
361.528	73.31
361.737	73.1
361.947	72.72
362.156	72.84
362.366	73.53
362.576	72.87
362.785	72.63
362.995	72.77
363.204	72.18
363.414	72.02
363.623	71.75
363.833	71.81
364.042	72.22
364.252	71.85
364.461	71.44
364.671	71.87
364.88	72.66
365.09	72.1
365.299	71.82
365.509	71.72
365.718	71.88
365.927	71.9
366.137	72.21
366.346	71.67
366.555	71.76
366.765	71.72
366.974	70.09
367.183	69.29
367.393	68.88
367.602	68.43
367.811	67.7
368.021	67.1
368.23	67.24
368.439	66.86
368.648	65.83
368.857	66.09
369.067	65.99
369.276	66.2
369.485	66.33
369.694	66.09
369.903	65.4
370.112	65.48
370.321	65.4
370.531	64.83
370.74	64.4
370.949	64.9
371.158	63.9
371.367	63.48
371.576	63.3
371.785	63.6
371.994	62.9
372.203	62.56
372.412	62.39
372.621	61.9
372.83	62.5
373.039	62.3
373.248	61.61
373.457	61.28
373.666	60.74
373.874	60.06
374.083	59.45
374.292	59.98
374.501	60.23
374.71	59.51
374.919	59.62
375.128	58.76
375.336	59.29
375.545	58.85
375.754	59.47
375.963	59.64
376.171	59.89
376.38	59.84
376.589	59.1
376.798	59.06
377.006	58.85
377.215	58.85
377.424	58.04
377.632	56.7
377.841	56.51
378.05	56.3
378.258	55.27
378.467	54.94
378.675	54.37
378.884	54.15
379.093	54.35
379.301	54.54
379.51	54.1
379.718	53.95
379.927	54.05
380.135	53.69
380.344	53.29
380.552	53.86
380.761	53.64
380.969	53.54
381.177	53.82
381.386	53.06
381.594	52.71
381.803	51.94
382.011	52.12
382.219	51.7
382.428	52.18
382.636	51.66
382.845	51.28
383.053	50.93
383.261	50.73
383.469	50.33
383.678	49.77
383.886	49.58
384.094	49.21
384.302	49.06
384.511	49.06
384.719	47.98
384.927	47.81
385.135	47.89
385.343	48.04
385.552	46.79
385.76	46.37
385.968	46.22
386.176	46.05
386.384	45.68
386.592	45.16
386.8	45.19
387.008	45.32
387.216	44.68
387.424	44.08
387.633	43.26
387.841	44.27
388.049	44.55
388.257	44.39
388.465	43.94
388.672	43.78
388.88	43.7
389.088	42.98
389.296	42.87
389.504	42.9
389.712	42.84
389.92	43.19
390.128	42.73
390.336	41.91
390.544	41.65
390.751	41.69
390.959	41.85
391.167	41.48
391.375	41.52
391.583	41.41
391.79	41.42
391.998	41.32
392.206	41.04
392.414	40.6
392.621	40.58
392.829	40.49
393.037	40.25
393.244	39.99
393.452	39.76
393.66	39.57
393.867	39.53
394.075	39.35
394.283	39.34
394.49	39.18
394.698	38.96
394.905	39.11
395.113	39.1
395.32	39
395.528	38.9
395.735	39.1
395.943	38.93
396.15	38.45
396.358	38.56
396.565	38.78
396.773	38.43
396.98	38.25
397.188	38.01
397.395	37.73
397.602	37.75
397.81	37.36
398.017	37.07
398.225	36.9
398.432	37.24
398.639	36.74
398.847	36.17
399.054	35.8
399.261	36.15
399.468	35.92
399.676	36.04
399.883	35.82
400.09	35.98
400.297	35.76
400.505	35.67
400.712	35.29
400.919	35.56
401.126	35.35
401.333	35.98
401.54	35.56
401.748	35.22
401.955	34.62
402.162	34.72
402.369	34.68
402.576	34.6
402.783	34.46
402.99	34.69
403.197	34.31
403.404	34.25
403.611	33.9
403.818	33.91
404.025	33.87
404.232	34.26
404.439	34.4
404.646	34.41
404.853	34.32
405.06	34.42
405.267	34.11
405.474	34
405.681	34.23
405.887	34.13
406.094	34.01
406.301	34.24
406.508	34.3
406.715	34.08
406.922	33.86
407.128	33.88
407.335	33.96
407.542	33.92
407.749	34
407.955	33.66
408.162	33.66
408.369	33.74
408.575	33.64
408.782	33.29
408.989	33.08
409.195	33.24
409.402	33.34
409.609	33.04
409.815	33.12
410.022	33.26
410.228	32.99
410.435	33.28
410.642	33.31
410.848	33.25
411.055	33.19
411.261	33.19
411.468	33.05
411.674	33.24
411.881	33.28
412.087	33.16
412.294	32.96
412.5	33.29
412.706	33.05
412.913	32.87
413.119	32.94
413.326	32.91
413.532	32.51
413.738	32.36
413.945	32.06
414.151	32.05
414.357	32.07
414.564	31.93
414.77	31.85
414.976	31.88
415.182	31.96
415.389	32.02
415.595	31.99
415.801	32.24
416.007	32.21
416.214	32.19
416.42	31.77
416.626	31.65
416.832	31.46
417.038	31.43
417.244	31.53
417.45	31.39
417.657	31.23
417.863	31.04
418.069	30.97
418.275	30.93
418.481	30.84
418.687	31.12
418.893	30.94
419.099	31.16
419.305	31.05
419.511	30.82
419.717	30.76
419.923	30.68
420.129	30.71
420.335	30.64
420.541	30.7
420.746	30.59
420.952	30.63
421.158	30.79
421.364	30.55
421.57	30.45
421.776	30.38
421.982	30.41
422.187	30.4
422.393	30.33
422.599	30.35
422.805	30.07
423.01	30.22
423.216	30.06
423.422	30.03
423.628	30.08
423.833	30.16
424.039	30.31
424.245	30.26
424.45	30.11
424.656	30.09
424.862	30.05
425.067	30.19
425.273	30.08
425.478	30.01
425.684	29.8
425.889	29.69
426.095	29.55
426.301	29.34
426.506	29.31
426.712	29.29
426.917	29.23
427.123	29.08
427.328	28.94
427.533	28.8
427.739	28.83
427.944	28.88
428.15	28.96
428.355	29.05
428.561	29
428.766	28.87
428.971	29.11
429.177	29.29
429.382	29.54
429.587	29.53
429.793	29.44
429.998	29.48
430.203	29.25
430.408	29.3
430.614	29.1
430.819	29.19
431.024	29.33
431.229	29.12
431.434	29.06
431.64	28.79
431.845	28.82
432.05	28.86
432.255	28.68
432.46	28.88
432.665	28.89
432.87	28.95
433.076	28.86
433.281	28.65
433.486	28.65
433.691	28.55
433.896	28.58
434.101	28.4
434.306	28.22
434.511	28.15
434.716	28.06
434.921	27.9
435.126	27.85
435.331	27.86
435.535	27.9
435.74	27.9
435.945	27.87
436.15	27.85
436.355	28.08
436.56	28.28
436.765	28.42
436.97	28.53
437.174	28.97
437.379	29.01
437.584	28.84
437.789	28.85
437.993	29
438.198	29.07
438.403	29.05
438.608	29.15
438.812	29.25
439.017	29.36
439.222	29.36
439.426	29.08
439.631	29.08
439.836	29.29
440.04	29.52
440.245	29.42
440.45	29.39
440.654	29.32
440.859	29.16
441.063	29.16
441.268	28.94
441.472	28.89
441.677	28.77
441.881	28.97
442.086	28.8
442.29	28.66
442.495	28.57
442.699	28.68
442.904	28.79
443.108	28.86
443.312	28.65
443.517	28.88
443.721	28.91
443.925	29.05
444.13	28.72
444.334	28.84
444.538	28.89
444.743	28.91
444.947	28.74
445.151	28.8
445.356	28.82
445.56	29.03
445.764	28.89
445.968	28.77
446.173	28.69
446.377	28.84
446.581	28.73
446.785	28.58
446.989	28.56
447.193	28.53
447.398	28.4
447.602	28.48
447.806	28.28
448.01	28.17
448.214	28.19
448.418	28.36
448.622	28.16
448.826	28.12
449.03	28.18
449.234	28.18
449.438	28.4
449.642	28.39
449.846	28.12
450.05	28.02
450.254	28.25
450.458	28.28
450.662	27.91
450.866	27.92
451.069	28.04
451.273	27.74
451.477	27.57
451.681	27.29
451.885	27.29
452.089	27.28
452.292	27.39
452.496	27.33
452.7	27.26
452.904	27.38
453.107	27.37
453.311	27.24
453.515	27.63
453.719	27.65
453.922	27.64
454.126	27.58
454.33	27.63
454.533	27.6
454.737	27.5
454.94	27.41
455.144	27.43
455.348	27.24
455.551	27.2
455.755	27.08
455.958	27.09
456.162	27.05
456.365	27.09
456.569	27.17
456.772	27.3
456.976	27.3
457.179	27.11
