Data from 2937839_Reflection_1.txt Node
Date: Wed Jul 15 16:22:31 EDT 2015
User: robert
Spectrometer: USB4E03001
Autoset integration time: false
Trigger mode: 4
Integration Time (sec): 1.000000E-1
Scans to average: 10
Electric dark correction enabled: true
Nonlinearity correction enabled: false
Boxcar width: 5
Stray light correction enabled: false
XAxis mode: Wavelengths
Stop averaging: false
Number of Pixels in Spectrum: 3648
>>>>>Begin Spectral Data<<<<<
177.566	-159.35
177.785	-85.12
178.005	-20.4
178.225	9.38
178.445	-52.83
178.665	-72.46
178.885	107.85
179.105	-19.03
179.324	-170.68
179.544	-190.9
179.764	-184.84
179.984	-167.78
180.204	-167.29
180.423	-78.27
180.643	-140.79
180.863	-118.35
181.083	-116.9
181.302	-125.86
181.522	-194.35
181.742	-163.4
181.961	-432.06
182.181	195.6
182.401	209.92
182.621	306.29
182.84	106.48
183.06	64.72
183.279	87.32
183.499	113.87
183.719	128.14
183.938	182.5
184.158	321.41
184.377	1165.83
184.597	-1947.56
184.816	-212.33
185.036	-350.65
185.256	-119.9
185.475	-252.11
185.695	-342.76
185.914	-120.81
186.134	-5567.86
186.353	194
186.572	367.11
186.792	184.74
187.011	783.73
187.231	66.33
187.45	25.56
187.67	19.15
187.889	15.28
188.108	-74.7
188.328	-151.53
188.547	417.45
188.766	648.25
188.986	-2295.88
189.205	-288.22
189.424	-245.87
189.644	98.78
189.863	159.54
190.082	208.69
190.302	273.81
190.521	174.07
190.74	124.01
190.959	134.78
191.178	76.87
191.398	69.05
191.617	42.72
191.836	83.19
192.055	254.48
192.274	109.16
192.494	73.44
192.713	49.09
192.932	53.99
193.151	144.58
193.37	13.31
193.589	-14.86
193.808	6.71
194.027	-25.32
194.246	0.72
194.465	14.43
194.685	2.49
194.904	-3.32
195.123	-67.63
195.342	-57.56
195.561	-70.52
195.78	362.56
195.999	89.99
196.218	66.76
196.436	73.47
196.655	77.86
196.874	55.27
197.093	8.63
197.312	-5.07
197.531	83.51
197.75	3.18
197.969	-958.96
198.188	156.3
198.407	52.26
198.625	27.4
198.844	32.28
199.063	44.21
199.282	-21.43
199.501	1189.25
199.719	168.6
199.938	65.78
200.157	-514.81
200.376	310.12
200.594	174.73
200.813	142.07
201.032	78.68
201.251	72.35
201.469	87.75
201.688	47.65
201.907	30.35
202.125	-185.24
202.344	-166.67
202.563	501.5
202.781	-1308.66
203	444.92
203.218	382.39
203.437	376.94
203.656	3086.89
203.874	-570.52
204.093	696.25
204.311	-13600
204.53	-290.48
204.748	32.74
204.967	45.32
205.185	46.37
205.404	-28.52
205.622	-85.39
205.841	-3.04
206.059	24.96
206.278	30.47
206.496	30.09
206.715	29.27
206.933	21.84
207.151	-28.18
207.37	-40.82
207.588	-42.75
207.806	-210.15
208.025	-21.92
208.243	-2377.55
208.461	-681.56
208.68	1543.86
208.898	-118.99
209.116	-263.99
209.335	-193.8
209.553	3402.63
209.771	-392.24
209.989	-152.88
210.208	-46.73
210.426	-384.05
210.644	-150.55
210.862	101.35
211.081	-40.61
211.299	-1683.33
211.517	66.63
211.735	-94.65
211.953	-2.11
212.171	31.54
212.39	864.93
212.608	-138.02
212.826	235.45
213.044	168.82
213.262	-70.08
213.48	63.68
213.698	-63.98
213.916	-74.57
214.134	862.5
214.352	424.85
214.57	345.4
214.788	188.56
215.006	203.19
215.224	231.25
215.442	256.94
215.66	1155
215.878	279.94
216.096	234.14
216.314	-167.55
216.532	-620.31
216.75	159.42
216.968	188.64
217.185	149.09
217.403	143.02
217.621	166.79
217.839	171.8
218.057	456.25
218.275	-971.92
218.492	78.51
218.71	65.92
218.928	57.08
219.146	6.56
219.363	-155.73
219.581	-122.64
219.799	-127.85
220.017	-25.33
220.234	34.74
220.452	22.26
220.67	41.73
220.887	84.88
221.105	88.42
221.323	155.43
221.54	105.79
221.758	70.92
221.976	79.36
222.193	89.67
222.411	49.34
222.629	7.74
222.846	39.1
223.064	14.86
223.281	10
223.499	-12.52
223.716	-26.73
223.934	17.24
224.151	39.09
224.369	20.55
224.586	28.58
224.804	26.05
225.021	38.45
225.239	20.46
225.456	24.3
225.674	11.72
225.891	33.13
226.108	28.04
226.326	16.25
226.543	2.5
226.76	31.32
226.978	33.63
227.195	29.15
227.413	30.99
227.63	28.54
227.847	25.22
228.064	21.26
228.282	16.19
228.499	19.21
228.716	19.81
228.934	20.73
229.151	15.98
229.368	17.2
229.585	17.23
229.802	14.24
230.02	11.01
230.237	10.83
230.454	11.42
230.671	12.55
230.888	10.87
231.105	11.29
231.323	11.18
231.54	10.56
231.757	10.38
231.974	10.22
232.191	14.45
232.408	19.51
232.625	17.66
232.842	15.73
233.059	10.75
233.276	11.4
233.493	5.62
233.71	6.96
233.927	14.27
234.144	10.06
234.361	5.42
234.578	9.55
234.795	17.03
235.012	17.26
235.229	14.52
235.446	18.78
235.663	19.3
235.879	22.71
236.096	17.12
236.313	8.46
236.53	17.54
236.747	19.98
236.964	6.43
237.181	-8.42
237.397	-7.8
237.614	1.62
237.831	3.17
238.048	7.44
238.264	9.4
238.481	12.59
238.698	18.61
238.915	13.09
239.131	11.8
239.348	19.47
239.565	19.7
239.781	18.64
239.998	15.08
240.215	13.59
240.431	13.41
240.648	10.5
240.865	9.32
241.081	10.49
241.298	12.2
241.514	11.75
241.731	10.63
241.947	11.34
242.164	12.51
242.38	13.72
242.597	13.51
242.814	11.93
243.03	10.69
243.246	10.17
243.463	8.45
243.679	6.07
243.896	4.98
244.112	5.95
244.329	5.45
244.545	3.78
244.762	1.12
244.978	0.75
245.194	2.27
245.411	2.91
245.627	6.52
245.843	8.86
246.06	10.19
246.276	12.12
246.492	12.55
246.709	12.47
246.925	12.67
247.141	13.44
247.357	12.89
247.574	12.47
247.79	12.97
248.006	12.86
248.222	12.18
248.439	11.72
248.655	11.13
248.871	10.2
249.087	10.07
249.303	9.38
249.519	8.39
249.736	9.84
249.952	9.02
250.168	10.47
250.384	11.19
250.6	12.63
250.816	13.34
251.032	15.67
251.248	14.63
251.464	14.06
251.68	13.42
251.896	14.96
252.112	12.03
252.328	12.22
252.544	13.95
252.76	12.2
252.976	12.29
253.192	10.83
253.408	9.99
253.624	13.47
253.84	13.02
254.056	12.63
254.272	12.75
254.487	14.48
254.703	13.99
254.919	7.92
255.135	5.66
255.351	5.41
255.567	4.69
255.782	4.43
255.998	-1
256.214	-0.55
256.43	2.75
256.646	2.76
256.861	0.43
257.077	0.05
257.293	6.33
257.508	7.12
257.724	8.47
257.94	8.42
258.155	5.53
258.371	6.63
258.587	8.87
258.802	9.34
259.018	7.7
259.234	8.22
259.449	9.87
259.665	7.66
259.88	8.06
260.096	7.82
260.312	7.92
260.527	8.23
260.743	8.58
260.958	8.31
261.174	8.23
261.389	8.24
261.605	8.83
261.82	7.78
262.036	7.66
262.251	8.37
262.466	7.72
262.682	7.97
262.897	8.94
263.113	8.87
263.328	6.01
263.543	3.81
263.759	6.41
263.974	5.5
264.189	5.43
264.405	3.93
264.62	3.99
264.835	2.08
265.051	0.04
265.266	2.78
265.481	3.44
265.696	5.3
265.912	6.87
266.127	5.86
266.342	7.05
266.557	6.87
266.773	10.07
266.988	8.15
267.203	8.77
267.418	10.8
267.633	10.22
267.848	8.63
268.064	9.47
268.279	8.6
268.494	7.86
268.709	7.87
268.924	7.42
269.139	6.54
269.354	6.55
269.569	6.34
269.784	6.14
269.999	5.69
270.214	7.2
270.429	7.67
270.644	9.17
270.859	9.54
271.074	9.94
271.289	10.72
271.504	10.65
271.719	9.77
271.934	10.39
272.149	9.64
272.363	7.71
272.578	8.33
272.793	7.24
273.008	6.83
273.223	7.17
273.438	6.44
273.653	6.31
273.867	5.14
274.082	6.54
274.297	6.13
274.512	7.04
274.726	8
274.941	6.97
275.156	7.83
275.371	8.3
275.585	6.7
275.8	6.75
276.015	7.56
276.229	8.44
276.444	9.61
276.659	10.86
276.873	10.9
277.088	11.98
277.302	11.41
277.517	9.99
277.732	9.3
277.946	12.8
278.161	12.61
278.375	11.88
278.59	11.28
278.804	9.48
279.019	7.63
279.233	5.86
279.448	3.65
279.662	4.69
279.877	6.13
280.091	6.86
280.306	5.13
280.52	6.9
280.735	6.74
280.949	7.95
281.163	9.48
281.378	10.06
281.592	11.33
281.806	12.59
282.021	12.82
282.235	12.24
282.449	11.76
282.664	11.02
282.878	11.37
283.092	11.88
283.307	11.46
283.521	10.77
283.735	11.88
283.949	10.48
284.164	10.65
284.378	10.1
284.592	10.02
284.806	10.61
285.02	11.45
285.234	9.55
285.449	9.11
285.663	8.91
285.877	7.76
286.091	6.56
286.305	7.93
286.519	9.2
286.733	9.52
286.947	9.31
287.161	8.21
287.375	7.28
287.589	7.65
287.803	8.05
288.017	7.87
288.231	8.61
288.445	8.08
288.659	7.09
288.873	6.43
289.087	6.15
289.301	7.66
289.515	8.64
289.729	8.09
289.943	7.55
290.157	8.05
290.371	7.23
290.584	6.7
290.798	8.36
291.012	8.47
291.226	7.23
291.44	5.39
291.654	4.92
291.867	4.71
292.081	5.46
292.295	5.47
292.509	4.82
292.722	6.98
292.936	8.39
293.15	7.35
293.364	8.05
293.577	8.16
293.791	9.8
294.005	9.12
294.218	9.02
294.432	9.23
294.645	9.38
294.859	9.77
295.073	9.78
295.286	8.92
295.5	8.16
295.713	7.82
295.927	8.95
296.14	8.82
296.354	9.11
296.568	9.17
296.781	9.17
296.994	8.37
297.208	7.56
297.421	6.33
297.635	6.59
297.848	7.11
298.062	7.44
298.275	6.55
298.489	6.99
298.702	6.31
298.915	6.12
299.129	5.24
299.342	6.18
299.555	6.52
299.769	7.39
299.982	6.67
300.195	5.85
300.409	5.41
300.622	5.21
300.835	4.3
301.048	4.39
301.262	5.41
301.475	6.36
301.688	6.6
301.901	6.88
302.115	8
302.328	9.86
302.541	11.8
302.754	12.09
302.967	12.58
303.18	14
303.393	13.94
303.607	13.15
303.82	12.57
304.033	11.29
304.246	11.31
304.459	9.69
304.672	9.21
304.885	8.08
305.098	6.67
305.311	6.55
305.524	6.22
305.737	5.55
305.95	5.04
306.163	5.78
306.376	6.78
306.589	7.22
306.802	7.44
307.015	7.07
307.228	9.18
307.44	11.7
307.653	11.79
307.866	11.66
308.079	12.45
308.292	12.8
308.505	12.72
308.718	13.5
308.93	13.1
309.143	12.59
309.356	12.02
309.569	9.72
309.781	7.47
309.994	7.57
310.207	6.8
310.42	7.39
310.632	7.84
310.845	7.62
311.058	7.34
311.27	5.9
311.483	6.33
311.696	7.06
311.908	7.9
312.121	9
312.333	8.77
312.546	9.09
312.759	8.48
312.971	7.99
313.184	8.57
313.396	7.44
313.609	7.61
313.821	7.24
314.034	8.88
314.246	8.99
314.459	9.37
314.671	9.21
314.884	8.44
315.096	9.65
315.309	9.71
315.521	8.53
315.733	8.76
315.946	10.76
316.158	12.15
316.371	8.43
316.583	8.83
316.795	8.11
317.008	8.43
317.22	8.82
317.432	8.49
317.644	8.63
317.857	9.5
318.069	10.47
318.281	10.69
318.494	10.06
318.706	11.17
318.918	9.81
319.13	10.44
319.342	9.74
319.555	8.13
319.767	8.12
319.979	8.44
320.191	8.4
320.403	7.48
320.615	5.21
320.827	4.84
321.039	6.61
321.252	5.74
321.464	4.78
321.676	5.64
321.888	7.5
322.1	6.23
322.312	7.91
322.524	8.4
322.736	8.64
322.948	9.13
323.16	8.82
323.372	7.16
323.584	8.6
323.796	8.85
324.007	9.71
324.219	10.11
324.431	10.54
324.643	8.27
324.855	8.87
325.067	8.86
325.279	9.94
325.491	10.87
325.702	11.48
325.914	10.96
326.126	11.87
326.338	10.69
326.55	10.71
326.761	10.57
326.973	11.73
327.185	9.97
327.396	11.62
327.608	11.18
327.82	11.05
328.032	11.18
328.243	11.17
328.455	11.08
328.666	12.74
328.878	11.63
329.09	12.79
329.301	11.36
329.513	13.77
329.725	11.68
329.936	11.6
330.148	11.68
330.359	11.42
330.571	13.14
330.782	13.12
330.994	11.56
331.205	12.1
331.417	11.11
331.628	13
331.84	12.11
332.051	13.74
332.262	14.06
332.474	14.16
332.685	14.91
332.897	13.36
333.108	14.31
333.319	15.28
333.531	15.62
333.742	15.56
333.953	15.76
334.165	15.69
334.376	15.13
334.587	14.73
334.799	14.35
335.01	14.53
335.221	15.76
335.432	15.09
335.644	14.68
335.855	14.06
336.066	14.47
336.277	13.41
336.488	13.24
336.7	13.16
336.911	13.95
337.122	14.38
337.333	13.45
337.544	12.48
337.755	13.51
337.966	12.59
338.177	13.36
338.388	14.12
338.599	15.05
338.811	15.88
339.022	15.33
339.233	14.89
339.444	14.02
339.655	15.07
339.866	14.92
340.076	13.13
340.287	13.3
340.498	13.73
340.709	11.85
340.92	11.61
341.131	9.72
341.342	10.96
341.553	10.9
341.764	11.43
341.975	11.33
342.185	12.51
342.396	12.89
342.607	13.95
342.818	13.61
343.029	13.9
343.239	13.21
343.45	13.9
343.661	13.34
343.872	13.48
344.082	13.47
344.293	13.23
344.504	12.63
344.714	12.06
344.925	12.43
345.136	12.73
345.346	13.78
345.557	14.33
345.768	14.63
345.978	14.67
346.189	14.91
346.399	14.96
346.61	14.38
346.821	15.22
347.031	14.81
347.242	13.84
347.452	15.16
347.663	13.71
347.873	14.15
348.084	14.81
348.294	15.29
348.504	14.9
348.715	15.61
348.925	16.22
349.136	15.39
349.346	16.03
349.557	16.64
349.767	15.44
349.977	16.71
350.188	16.6
350.398	16.58
350.608	16.86
350.819	17.85
351.029	17.89
351.239	17.92
351.449	18.54
351.66	18.89
351.87	17.95
352.08	17.13
352.29	16.53
352.501	17.36
352.711	16.72
352.921	15.45
353.131	14.49
353.341	13.92
353.552	14
353.762	14.14
353.972	14.35
354.182	13.97
354.392	14.46
354.602	15.04
354.812	14
355.022	13.88
355.232	15.25
355.442	14.84
355.652	13.42
355.862	12.84
356.072	12.12
356.282	12.12
356.492	13.18
356.702	13.13
356.912	12.82
357.122	13.01
357.332	12.6
357.542	11.84
357.752	12.28
357.962	13.4
358.171	13.66
358.381	13.81
358.591	13.98
358.801	14.26
359.011	14.73
359.221	15.42
359.43	14.55
359.64	15.06
359.85	15.19
360.06	15.04
360.269	15.62
360.479	15.69
360.689	15.09
360.899	14.45
361.108	13.96
361.318	13.23
361.528	12.26
361.737	13.35
361.947	13
362.156	12.86
362.366	12.68
362.576	11.62
362.785	11.72
362.995	12.14
363.204	12.57
363.414	12.88
363.623	13.17
363.833	13.8
364.042	13.41
364.252	13.86
364.461	13.84
364.671	13.45
364.88	13.99
365.09	13.53
365.299	13.79
365.509	13.81
365.718	13.7
365.927	13.46
366.137	13.27
366.346	13.11
366.555	12.62
366.765	12.3
366.974	13.02
367.183	13.46
367.393	13.91
367.602	13.31
367.811	13.18
368.021	12.42
368.23	12.12
368.439	11.77
368.648	12.11
368.857	12.47
369.067	11.65
369.276	11.03
369.485	10.72
369.694	10.18
369.903	9.75
370.112	8.3
370.321	8.91
370.531	10.09
370.74	10.07
370.949	9.52
371.158	8.8
371.367	9.98
371.576	10.75
371.785	10.84
371.994	10.89
372.203	11.65
372.412	12.81
372.621	11.99
372.83	11.27
373.039	11.28
373.248	11.01
373.457	11.97
373.666	11.69
373.874	11.11
374.083	10.87
374.292	10.86
374.501	9.78
374.71	9.35
374.919	9.95
375.128	10.33
375.336	10.03
375.545	10.65
375.754	9.91
375.963	9.51
376.171	9.42
376.38	8.89
376.589	9.29
376.798	9.95
377.006	9.55
377.215	9.95
377.424	9.76
377.632	10.3
377.841	9.71
378.05	9.54
378.258	9.66
378.467	10.3
378.675	10.57
378.884	10.39
379.093	10.44
379.301	10.83
379.51	9.71
379.718	9.4
379.927	9.09
380.135	9.37
380.344	9.63
380.552	9.62
380.761	8.93
380.969	9.06
381.177	8.93
381.386	8.86
381.594	9.04
381.803	9.86
382.011	10.14
382.219	10.24
382.428	9.48
382.636	9.49
382.845	9.64
383.053	9.7
383.261	9.05
383.469	9.47
383.678	9.24
383.886	8.69
384.094	8.56
384.302	8.59
384.511	8.66
384.719	8.6
384.927	8.53
385.135	8.31
385.343	8.41
385.552	8.76
385.76	8.09
385.968	8.07
386.176	8.54
386.384	8.38
386.592	8.34
386.8	7.83
387.008	8.52
387.216	8.47
387.424	8.42
387.633	8.41
387.841	8.65
388.049	8.81
388.257	9.06
388.465	8.93
388.672	8.78
388.88	8.28
389.088	8.31
389.296	8.22
389.504	7.93
389.712	8.04
389.92	8.07
390.128	7.63
390.336	7.88
390.544	7.64
390.751	7.37
390.959	7.2
391.167	7.6
391.375	7.77
391.583	7.61
391.79	8.02
391.998	8.02
392.206	7.8
392.414	7.74
392.621	7.55
392.829	7.39
393.037	7.1
393.244	7.22
393.452	7.45
393.66	7.3
393.867	7.34
394.075	7.42
394.283	6.99
394.49	6.99
394.698	7.33
394.905	7.31
395.113	7.42
395.32	7.83
395.528	8.06
395.735	7.6
395.943	7.95
396.15	7.83
396.358	7.39
396.565	7.72
396.773	8.15
396.98	7.86
397.188	7.66
397.395	7.61
397.602	7.84
397.81	7.81
398.017	7.53
398.225	7.42
398.432	7.57
398.639	7.83
398.847	7.84
399.054	7.73
399.261	7.82
399.468	8.02
399.676	7.94
399.883	7.71
400.09	7.64
400.297	7.89
400.505	7.62
400.712	7.3
400.919	7.08
401.126	7.18
401.333	6.86
401.54	7
401.748	6.98
401.955	7.14
402.162	6.85
402.369	7.01
402.576	7.01
402.783	6.74
402.99	7.16
403.197	7.44
403.404	7.36
403.611	7.33
403.818	7.39
404.025	7.23
404.232	7.09
404.439	7.36
404.646	7.22
404.853	7.53
405.06	7.61
405.267	7.35
405.474	6.91
405.681	6.82
405.887	6.69
406.094	6.62
406.301	6.51
406.508	6.92
406.715	6.95
406.922	6.86
407.128	6.55
407.335	6.68
407.542	6.33
407.749	6.45
407.955	6.8
408.162	6.84
408.369	6.54
408.575	6.8
408.782	6.59
408.989	6.21
409.195	6.39
409.402	6.47
409.609	6.23
409.815	6.79
410.022	6.96
410.228	6.92
410.435	7.05
410.642	7.04
410.848	7.01
411.055	6.88
411.261	7.17
411.468	6.84
411.674	7.17
411.881	7.6
412.087	7.45
412.294	7.29
412.5	7.16
412.706	6.91
412.913	7.26
413.119	7.3
413.326	7.26
413.532	7.06
413.738	7.43
413.945	6.76
414.151	6.37
414.357	6.19
414.564	6.35
414.77	6.34
414.976	6.62
415.182	6.53
415.389	6.45
415.595	6.54
415.801	6.93
416.007	6.59
416.214	6.9
416.42	7.06
416.626	7.42
416.832	7.11
417.038	6.97
417.244	6.86
417.45	6.88
417.657	6.91
417.863	6.89
418.069	6.61
418.275	6.72
418.481	6.62
418.687	6.55
418.893	6.54
419.099	6.7
419.305	6.77
419.511	6.8
419.717	6.57
419.923	6.52
420.129	6.44
420.335	6.52
420.541	6.61
420.746	6.58
420.952	6.61
421.158	6.4
421.364	6.38
421.57	6.41
421.776	6.42
421.982	6.58
422.187	6.73
422.393	6.73
422.599	6.65
422.805	6.59
423.01	6.5
423.216	6.61
423.422	6.69
423.628	6.79
423.833	6.86
424.039	6.83
424.245	6.66
424.45	6.61
424.656	6.6
424.862	6.66
425.067	6.61
425.273	6.82
425.478	6.87
425.684	6.73
425.889	6.48
426.095	6.37
426.301	6.31
426.506	6.55
426.712	6.38
426.917	6.28
427.123	6.33
427.328	6.28
427.533	6.35
427.739	6.12
427.944	6.29
428.15	6.62
428.355	6.39
428.561	6.49
428.766	6.05
428.971	6.28
429.177	6.34
429.382	6
429.587	6.07
429.793	5.83
429.998	5.92
430.203	5.84
430.408	5.82
430.614	5.84
430.819	5.57
431.024	5.92
431.229	5.76
431.434	5.79
431.64	5.92
431.845	5.75
432.05	5.79
432.255	5.6
432.46	5.62
432.665	5.37
432.87	5.49
433.076	5.59
433.281	5.61
433.486	5.71
433.691	5.83
433.896	5.97
434.101	6.31
434.306	6.34
434.511	6.38
434.716	6.5
434.921	6.66
435.126	6.93
435.331	6.95
435.535	7.03
435.74	7.05
435.945	7.04
436.15	7.14
436.355	6.91
436.56	6.92
436.765	6.96
436.97	6.93
437.174	6.73
437.379	6.33
437.584	6.38
437.789	6.25
437.993	6.05
438.198	6.02
438.403	5.93
438.608	5.89
438.812	5.8
439.017	5.92
439.222	5.95
439.426	6
439.631	5.95
439.836	5.95
440.04	5.96
440.245	5.9
440.45	5.82
440.654	5.87
440.859	5.88
441.063	5.95
441.268	5.85
441.472	5.8
441.677	5.88
441.881	6.13
442.086	6.08
442.29	6.09
442.495	6.05
442.699	6.28
442.904	6.31
443.108	6.25
443.312	6.39
443.517	6.35
443.721	6.22
443.925	6.25
444.13	5.9
444.334	5.95
444.538	5.82
444.743	6
444.947	5.6
445.151	5.47
445.356	5.64
445.56	5.51
445.764	5.55
445.968	5.67
446.173	5.62
446.377	5.76
446.581	5.87
446.785	5.97
446.989	5.87
447.193	6.03
447.398	5.98
447.602	5.89
447.806	5.93
448.01	5.94
448.214	5.91
448.418	5.81
448.622	5.97
448.826	5.71
449.03	5.7
449.234	5.73
449.438	5.78
449.642	5.92
449.846	5.79
450.05	5.9
450.254	5.94
450.458	5.88
450.662	6.05
450.866	5.89
451.069	6.27
451.273	6.21
451.477	6.32
451.681	6.21
451.885	6.16
452.089	6.4
452.292	6.16
452.496	5.97
452.7	5.94
452.904	5.97
453.107	5.93
453.311	5.63
453.515	5.63
453.719	5.57
453.922	5.63
454.126	5.65
454.33	5.5
454.533	5.45
454.737	5.45
454.94	5.52
455.144	5.49
455.348	5.68
455.551	5.73
455.755	5.77
455.958	5.6
456.162	5.64
456.365	5.51
456.569	5.51
456.772	5.58
456.976	5.84
457.179	5.78
457.383	5.79
457.586	5.6
457.79	5.62
457.993	5.7
458.196	5.98
458.4	6.01
458.603	6.18
458.807	6.14
459.01	5.97
459.213	5.81
459.417	5.83
459.62	5.7
459.823	5.66
460.026	5.6
460.23	5.57
460.433	5.36
460.636	5.29
460.839	5.2
461.042	5.11
461.246	5.32
461.449	5.34
461.652	5.37
461.855	5.47
462.058	5.43
462.261	5.49
462.464	5.41
462.668	5.53
462.871	5.5
463.074	5.3
463.277	5.51
463.48	5.41
463.683	5.56
463.886	5.47
464.089	5.43
464.292	5.54
464.495	5.54
464.698	5.54
464.901	5.72
465.104	5.89
