Data from 2937888_Reflection_3.txt Node
Date: Wed Jul 15 14:26:00 EDT 2015
User: robert
Spectrometer: USB4E03001
Autoset integration time: false
Trigger mode: 4
Integration Time (sec): 1.000000E-1
Scans to average: 10
Electric dark correction enabled: true
Nonlinearity correction enabled: false
Boxcar width: 5
Stray light correction enabled: false
XAxis mode: Wavelengths
Stop averaging: false
Number of Pixels in Spectrum: 3648
>>>>>Begin Spectral Data<<<<<
177.566	6626.67
177.785	-377.74
178.005	-104.89
178.225	-66.97
178.445	-115.86
178.665	-35.25
178.885	40
179.105	-487.32
179.324	-289.35
179.544	-2330.47
179.764	622.31
179.984	-158.75
180.204	-47.92
180.423	8.15
180.643	33.56
180.863	53.77
181.083	55.71
181.302	87.04
181.522	88.32
181.742	88.58
181.961	86.8
182.181	113.68
182.401	134.05
182.621	116.31
182.84	107.79
183.06	117.6
183.279	109.88
183.499	90.49
183.719	73.26
183.938	82.48
184.158	79.58
184.377	75.58
184.597	69.97
184.816	55.46
185.036	54.24
185.256	47.32
185.475	50.15
185.695	56.02
185.914	65.28
186.134	73.01
186.353	71.96
186.572	66.27
186.792	41.42
187.011	14.04
187.231	1.75
187.45	36.73
187.67	68.6
187.889	52.08
188.108	13.49
188.328	5.15
188.547	7.37
188.766	-7.06
188.986	22.17
189.205	45.62
189.424	57.49
189.644	69.79
189.863	59.26
190.082	40.87
190.302	41.14
190.521	54.25
190.74	45.12
190.959	34.93
191.178	42.04
191.398	20.17
191.617	3.83
191.836	-13.67
192.055	-41.28
192.274	-25.76
192.494	-6.54
192.713	-43.58
192.932	-107.96
193.151	-133.89
193.37	-75.89
193.589	-66.85
193.808	-14.7
194.027	-5.08
194.246	16.51
194.465	-8.72
194.685	-20.38
194.904	-10.17
195.123	-84.97
195.342	-42.51
195.561	26.42
195.78	32.34
195.999	22.17
196.218	1.3
196.436	34.58
196.655	32.09
196.874	31.39
197.093	47.87
197.312	54.63
197.531	71.73
197.75	75.14
197.969	64.62
198.188	59.32
198.407	77.68
198.625	97.49
198.844	92.81
199.063	88.12
199.282	81.36
199.501	84.56
199.719	85.35
199.938	86.72
200.157	105.13
200.376	97.82
200.594	237.42
200.813	129.45
201.032	185.14
201.251	105
201.469	392.72
201.688	2817.02
201.907	-546.18
202.125	-510.95
202.344	-93.41
202.563	-78.37
202.781	-84.05
203	31.73
203.218	66.04
203.437	33.7
203.656	-10100
203.874	-37.74
204.093	-103.32
204.311	33.62
204.53	20.27
204.748	29.8
204.967	39.82
205.185	44.55
205.404	34.88
205.622	28.97
205.841	3.64
206.059	12.27
206.278	29.69
206.496	13.28
206.715	27.37
206.933	26.44
207.151	67.16
207.37	70.61
207.588	45.73
207.806	60.09
208.025	31.79
208.243	18.47
208.461	-11.89
208.68	15.74
208.898	36.24
209.116	-11.12
209.335	0.4
209.553	-0.11
209.771	-0.53
209.989	40
210.208	67.08
210.426	370.88
210.644	954.86
210.862	1091.4
211.081	1083.05
211.299	758.82
211.517	261.25
211.735	368.16
211.953	959.64
212.171	559.41
212.39	400.44
212.608	98.47
212.826	128.63
213.044	98.51
213.262	73.99
213.48	166.46
213.698	21.04
213.916	-128.5
214.134	6.34
214.352	48.99
214.57	42.83
214.788	59.7
215.006	86.2
215.224	-18.35
215.442	19.42
215.66	26.69
215.878	-16.91
216.096	1.21
216.314	374.41
216.532	-85.11
216.75	-28.51
216.968	-329.62
217.185	-158.38
217.403	-16.89
217.621	-235.22
217.839	-69.78
218.057	-43.64
218.275	328.31
218.492	277.17
218.71	116.09
218.928	132.56
219.146	99.87
219.363	171.35
219.581	130.65
219.799	113.09
220.017	-19.11
220.234	126.76
220.452	110.38
220.67	-9.41
220.887	82.58
221.105	-4.84
221.323	-77.91
221.54	-98.3
221.758	22.62
221.976	79.18
222.193	91.83
222.411	117.08
222.629	103.41
222.846	130.74
223.064	206.14
223.281	387.67
223.499	-853.84
223.716	-591.06
223.934	-223.09
224.151	-97.6
224.369	-53.47
224.586	-66.44
224.804	-33.35
225.021	-21.56
225.239	-21.24
225.456	-35.09
225.674	-38.07
225.891	-26.93
226.108	-26.69
226.326	-36.77
226.543	-43.28
226.76	-42.34
226.978	-30.81
227.195	-47.02
227.413	-43.66
227.63	-38.65
227.847	-25.94
228.064	-22.76
228.282	-21.63
228.499	-21.73
228.716	-20.71
228.934	-16.14
229.151	-14.53
229.368	-13.44
229.585	-8.09
229.802	-5.93
230.02	-5.07
230.237	-6.94
230.454	-2.13
230.671	-2.06
230.888	-3.65
231.105	0.44
231.323	-1.4
231.54	-6.53
231.757	-13
231.974	-16.76
232.191	-30.13
232.408	-24.19
232.625	-26.34
232.842	-25.79
233.059	-25.39
233.276	-16.43
233.493	-26.91
233.71	-31.46
233.927	-27.11
234.144	-21.07
234.361	-21.54
234.578	-12.18
234.795	-16.29
235.012	-18.29
235.229	-22.8
235.446	-18.96
235.663	-13.88
235.879	-12.68
236.096	-11.41
236.313	-4.66
236.53	-2.36
236.747	0.5
236.964	3.68
237.181	5.37
237.397	0.06
237.614	1.67
237.831	-6.3
238.048	-15.04
238.264	-6.79
238.481	-4.14
238.698	-6.64
238.915	-6.59
239.131	-0.91
239.348	-4.33
239.565	-7.34
239.781	-0.32
239.998	2.04
240.215	6.05
240.431	5.1
240.648	-2.36
240.865	-1.9
241.081	-0.42
241.298	-1.57
241.514	-0.88
241.731	-0.28
241.947	-0.01
242.164	-1.69
242.38	-1.48
242.597	-0.32
242.814	1.44
243.03	2.08
243.246	2.11
243.463	0.96
243.679	2.86
243.896	3.03
244.112	4.37
244.329	4.75
244.545	5.89
244.762	4.07
244.978	2.18
245.194	1.6
245.411	4.26
245.627	1.61
245.843	2.34
246.06	3.57
246.276	2.04
246.492	0.19
246.709	0.43
246.925	0.02
247.141	-0.15
247.357	-0.51
247.574	-0.22
247.79	-1.77
248.006	-0.21
248.222	0.19
248.439	-2.15
248.655	-1.66
248.871	-2.17
249.087	-2.1
249.303	-0.83
249.519	-2.74
249.736	-0.39
249.952	-1.99
250.168	-1.49
250.384	-2.46
250.6	-4.22
250.816	-1.58
251.032	-3.33
251.248	-2.56
251.464	-1.45
251.68	-2.92
251.896	-0.8
252.112	-2.24
252.328	-0.57
252.544	-0.3
252.76	-1.74
252.976	-0.83
253.192	-0.93
253.408	-0.03
253.624	0.71
253.84	0.45
254.056	0.43
254.272	1.92
254.487	-1.2
254.703	-3.26
254.919	-2
255.135	-3.29
255.351	-6.36
255.567	-5.26
255.782	-10.12
255.998	-10.25
256.214	-15.23
256.43	-17.12
256.646	-17.03
256.861	-12.68
257.077	-9.82
257.293	-9.14
257.508	-4.75
257.724	-4.94
257.94	-4.39
258.155	-3.15
258.371	-1.61
258.587	0.46
258.802	1.91
259.018	2.62
259.234	2.82
259.449	1.49
259.665	1.94
259.88	0.71
260.096	1.52
260.312	0.53
260.527	0.83
260.743	0.6
260.958	0.14
261.174	0.01
261.389	-0.75
261.605	-1.4
261.82	-0.55
262.036	-1.32
262.251	-1.38
262.466	-1.98
262.682	-1.28
262.897	-0.99
263.113	-1.84
263.328	-2.52
263.543	-3.13
263.759	-2.43
263.974	-2.24
264.189	-5.13
264.405	-6.35
264.62	-5.65
264.835	-6.9
265.051	-10.09
265.266	-8.77
265.481	-7.15
265.696	-3.43
265.912	-5.26
266.127	-6.09
266.342	-7.12
266.557	-5.55
266.773	-6.1
266.988	-6.49
267.203	-5.2
267.418	-2.7
267.633	-3.79
267.848	-4.98
268.064	-6.25
268.279	-3.24
268.494	-3.83
268.709	-4.44
268.924	-4.41
269.139	-2.54
269.354	-0.92
269.569	-3.2
269.784	-4.38
269.999	-3.22
270.214	-3.62
270.429	-4.42
270.644	-7.7
270.859	-6.26
271.074	-4.68
271.289	-3.78
271.504	-2.18
271.719	-1.33
271.934	1.36
272.149	0.31
272.363	-0.24
272.578	0.36
272.793	1.12
273.008	3.05
273.223	2.92
273.438	3.16
273.653	4.19
273.867	2.51
274.082	1.9
274.297	0.27
274.512	3.04
274.726	1.79
274.941	2.94
275.156	2.75
275.371	3.14
275.585	4.33
275.8	5.34
276.015	3.93
276.229	4.16
276.444	1.54
276.659	1.34
276.873	0.25
277.088	2.49
277.302	2.72
277.517	1.92
277.732	0.85
277.946	0.21
278.161	-0.85
278.375	-0.75
278.59	-1.32
278.804	0.52
279.019	1.2
279.233	1.02
279.448	-0.39
279.662	-1.36
279.877	-0.17
280.091	-0.93
280.306	-3.37
280.52	-4.24
280.735	-3.25
280.949	-2.64
281.163	-3.03
281.378	-2
281.592	-1.66
281.806	-2.17
282.021	-3.7
282.235	-3.96
282.449	-1.31
282.664	0.55
282.878	0.19
283.092	0.36
283.307	1.48
283.521	1.84
283.735	1.56
283.949	1.11
284.164	2.88
284.378	2.72
284.592	2.55
284.806	-0.52
285.02	-0.31
285.234	1.78
285.449	1.05
285.663	-0.47
285.877	-0.15
286.091	0.33
286.305	0.04
286.519	-0.57
286.733	0.76
286.947	0.98
287.161	4.08
287.375	3.1
287.589	1.27
287.803	-0.08
288.017	-0.48
288.231	-2.06
288.445	-3.49
288.659	-2.61
288.873	-2.4
289.087	-3.12
289.301	-2.08
289.515	-3.52
289.729	-2.48
289.943	-1.13
290.157	0.28
290.371	0.54
290.584	2.38
290.798	2.84
291.012	2.26
291.226	1.71
291.44	1.59
291.654	-1
291.867	-2.01
292.081	-2.07
292.295	-3.12
292.509	-3.92
292.722	-4.43
292.936	-5.07
293.15	-4.92
293.364	-5.47
293.577	-4.58
293.791	-3.15
294.005	-1.91
294.218	-1.54
294.432	-3.03
294.645	-2.38
294.859	-1.39
295.073	-0.66
295.286	-0.81
295.5	-0.37
295.713	-0.46
295.927	-1.48
296.14	-2.44
296.354	-2.66
296.568	-2.58
296.781	-1.34
296.994	-1.05
297.208	-1.61
297.421	-0.33
297.635	0.29
297.848	-0.57
298.062	0.22
298.275	0.73
298.489	0.45
298.702	1.66
298.915	1.66
299.129	1.24
299.342	0.94
299.555	0.02
299.769	-1.66
299.982	-1.89
300.195	-1.05
300.409	-2.06
300.622	-2.44
300.835	-2.29
301.048	-3.88
301.262	-3.68
301.475	-2.57
301.688	-2.01
301.901	0.28
302.115	0.47
302.328	0.35
302.541	-0.78
302.754	0.52
302.967	0.82
303.18	2.19
303.393	3.84
303.607	3.96
303.82	2.71
304.033	2.52
304.246	1.93
304.459	2.06
304.672	2.7
304.885	5.23
305.098	4.52
305.311	4.91
305.524	3.01
305.737	2.17
305.95	1.79
306.163	2.54
306.376	2.73
306.589	2.16
306.802	2.43
307.015	1.23
307.228	-0.16
307.44	0.99
307.653	0.66
307.866	0.89
308.079	0.17
308.292	0.98
308.505	1.93
308.718	1.92
308.93	2.91
309.143	3.14
309.356	4.94
309.569	4.5
309.781	4.63
309.994	6.05
310.207	6.98
310.42	7.31
310.632	6.93
310.845	6.83
311.058	5.88
311.27	6.04
311.483	5.84
311.696	5.5
311.908	6.21
312.121	5.02
312.333	3.33
312.546	3.94
312.759	5.03
312.971	5.21
313.184	5
313.396	5.53
313.609	4.61
313.821	5.67
314.034	3.29
314.246	2.35
314.459	3.46
314.671	4.01
314.884	2.79
315.096	1.23
315.309	0.31
315.521	-1.14
315.733	-1.7
315.946	-1.11
316.158	-2.68
316.371	-2.29
316.583	-3.14
316.795	-3.2
317.008	-3.45
317.22	-1.97
317.432	-0.87
317.644	0.37
317.857	1.25
318.069	1.24
318.281	0.86
318.494	2.38
318.706	3.41
318.918	4.96
319.13	4.75
319.342	5.32
319.555	4.7
319.767	3.66
319.979	2.1
320.191	2.78
320.403	4.13
320.615	5.69
320.827	3.84
321.039	4.4
321.252	4.84
321.464	5.34
321.676	4.79
321.888	4.74
322.1	5.45
322.312	6.11
322.524	5.8
322.736	5.86
322.948	4.62
323.16	5.27
323.372	4.19
323.584	3.37
323.796	5.19
324.007	6.27
324.219	5.97
324.431	5.88
324.643	5.74
324.855	4.22
325.067	3.31
325.279	3.22
325.491	4.35
325.702	4.43
325.914	5.15
326.126	2.84
326.338	2.5
326.55	3.23
326.761	4.09
326.973	5.8
327.185	8.23
327.396	9.61
327.608	9.97
327.82	9.72
328.032	10.68
328.243	10.2
328.455	11.53
328.666	12.49
328.878	11.53
329.09	10.51
329.301	9.34
329.513	9.65
329.725	10.5
329.936	12.09
330.148	13.27
330.359	14.65
330.571	15.59
330.782	14.93
330.994	15.46
331.205	16.73
331.417	18.7
331.628	18.37
331.84	18.42
332.051	18.58
332.262	19.76
332.474	19.42
332.685	18.98
332.897	19.15
333.108	19.75
333.319	18.9
333.531	19.02
333.742	18.03
333.953	19.02
334.165	20.07
334.376	20.52
334.587	19.41
334.799	20.02
335.01	19.78
335.221	18.58
335.432	18.5
335.644	18.78
335.855	19.28
336.066	19.07
336.277	19.94
336.488	19.61
336.7	19.27
336.911	19.41
337.122	19.02
337.333	18.59
337.544	19.98
337.755	19.9
337.966	19.53
338.177	18.79
338.388	19.46
338.599	19.32
338.811	18.42
339.022	18.21
339.233	18.24
339.444	19.07
339.655	19.93
339.866	19.74
340.076	20.69
340.287	21.86
340.498	23.44
340.709	21.97
340.92	21.79
341.131	21.88
341.342	21.96
341.553	22.71
341.764	21.76
341.975	22.34
342.185	22.25
342.396	22.75
342.607	22.45
342.818	22.13
343.029	24.06
343.239	24.49
343.45	26.09
343.661	27.27
343.872	25.91
344.082	26.72
344.293	26.75
344.504	27.57
344.714	26.95
344.925	27.07
345.136	26.52
345.346	26.47
345.557	26.58
345.768	25.36
345.978	24.13
346.189	25.01
346.399	24.5
346.61	24
346.821	24
347.031	25.19
347.242	25.26
347.452	25.32
347.663	25.94
347.873	25.53
348.084	26.12
348.294	28
348.504	27.74
348.715	27.88
348.925	27.7
349.136	27.54
349.346	27.04
349.557	26.57
349.767	26.41
349.977	25.65
350.188	25.95
350.398	25.99
350.608	25.07
350.819	25.15
351.029	24.83
351.239	25.65
351.449	25.36
351.66	25.01
351.87	25.27
352.08	25.05
352.29	24.37
352.501	23.92
352.711	23.26
352.921	22.95
353.131	23.81
353.341	24.78
353.552	24.46
353.762	24.63
353.972	24.7
354.182	24.94
354.392	26.07
354.602	27.34
354.812	27.64
355.022	28.46
355.232	28.09
355.442	27.35
355.652	26.8
355.862	27
356.072	26.72
356.282	26.05
356.492	26.49
356.702	25.23
356.912	24.84
357.122	25.23
357.332	24.92
357.542	25.27
357.752	25.61
357.962	26.13
358.171	25.63
358.381	25.79
358.591	26.43
358.801	25.31
359.011	25.79
359.221	25.59
359.43	25.39
359.64	25.39
359.85	25.14
360.06	24.95
360.269	24.41
360.479	24.92
360.689	24.67
360.899	24.61
361.108	24.78
361.318	25.23
361.528	25.27
361.737	25
361.947	24.16
362.156	24.36
362.366	24.33
362.576	24.32
362.785	24.77
362.995	24.98
363.204	25.09
363.414	25.08
363.623	24.99
363.833	25.07
364.042	25.02
364.252	25.98
364.461	25.94
364.671	25.77
364.88	25.98
365.09	24.52
365.299	24.64
365.509	24.43
365.718	24.97
365.927	24.98
366.137	24.96
366.346	25.11
366.555	25.19
366.765	24.83
366.974	25.7
367.183	25.73
367.393	26.3
367.602	26.33
367.811	26.2
368.021	26.03
368.23	26.28
368.439	26.27
368.648	26.55
368.857	26.18
369.067	26.66
369.276	26.22
369.485	26.38
369.694	26.57
369.903	26.14
370.112	26.52
370.321	26.49
370.531	25.97
370.74	25.96
370.949	25.99
371.158	25.99
371.367	25.66
371.576	25.42
371.785	25.12
371.994	24.45
372.203	24.68
372.412	25.17
372.621	25.32
372.83	25.46
373.039	25.69
373.248	25.96
373.457	25.47
373.666	25.87
373.874	26.25
374.083	26.19
374.292	27.46
374.501	27.42
374.71	26.95
374.919	27.42
375.128	27.24
375.336	26.98
375.545	26.52
375.754	27.1
375.963	26.67
376.171	26.56
376.38	26.85
376.589	26.59
376.798	26.38
377.006	26.44
377.215	26.64
377.424	26.98
377.632	27.25
377.841	26.98
378.05	27.61
378.258	27.52
378.467	27.75
378.675	27.75
378.884	27.34
379.093	27.77
379.301	27.9
379.51	27.15
379.718	26.98
379.927	26.57
380.135	26.96
380.344	26.39
380.552	26.61
380.761	26.22
380.969	26.1
381.177	25.63
381.386	25.15
381.594	25.17
381.803	24.93
382.011	25.38
382.219	25.44
382.428	25.48
382.636	25.16
382.845	25.39
383.053	25.52
383.261	25.44
383.469	25.74
383.678	26.05
383.886	25.9
384.094	25.94
384.302	25.82
384.511	25.42
384.719	25.27
384.927	25.51
385.135	25.72
385.343	25.59
385.552	25.67
385.76	26.27
385.968	26.43
386.176	26.76
386.384	26.81
386.592	26.35
386.8	27.25
387.008	27.76
387.216	27.56
387.424	27.62
387.633	27.7
387.841	27.46
388.049	27.22
388.257	26.78
388.465	26.64
388.672	27.1
388.88	27.47
389.088	27.18
389.296	26.94
389.504	27.18
389.712	27.28
389.92	27.38
390.128	27.97
390.336	28.08
390.544	28.75
390.751	28.31
390.959	28.1
391.167	27.94
391.375	27.9
391.583	27.88
391.79	28
391.998	27.75
392.206	27.81
392.414	27.7
392.621	27.73
392.829	27.34
393.037	27.77
393.244	28.22
393.452	28.39
393.66	28.48
393.867	28.75
394.075	28.85
394.283	28.96
394.49	28.79
394.698	28.83
394.905	28.67
395.113	29.14
395.32	29.05
395.528	28.61
395.735	28.8
395.943	28.68
396.15	28.52
396.358	28.75
396.565	28.88
396.773	29.06
396.98	29.36
397.188	30.06
397.395	30.13
397.602	30.3
397.81	30.65
398.017	30.76
398.225	30.85
398.432	30.75
398.639	30.96
398.847	31.11
399.054	31.36
399.261	30.94
399.468	30.71
399.676	30.75
399.883	31.19
400.09	31.05
400.297	31.26
400.505	32.03
400.712	32.25
400.919	32.29
401.126	32.24
401.333	32.2
401.54	32.66
401.748	32.84
401.955	32.5
402.162	31.98
402.369	32.2
402.576	32.45
402.783	32.1
402.99	32.3
403.197	32.11
403.404	32.34
403.611	32.52
403.818	32.49
404.025	31.92
404.232	32.44
404.439	32.86
404.646	32.85
404.853	32.62
405.06	32.81
405.267	32.79
405.474	32.72
405.681	32.71
405.887	32.62
406.094	32.82
406.301	33.28
406.508	32.81
406.715	32.65
406.922	32.74
407.128	32.52
407.335	32.31
407.542	32.28
407.749	32.48
407.955	32.5
408.162	32.71
408.369	32.42
408.575	32.49
408.782	32.71
408.989	32.76
409.195	32.84
409.402	32.95
409.609	32.99
409.815	33.12
410.022	33.41
410.228	33.33
410.435	33.21
410.642	33.36
410.848	33
411.055	32.93
411.261	32.81
411.468	32.61
411.674	32.8
411.881	32.61
412.087	32.54
412.294	32.2
412.5	32.11
412.706	32.01
412.913	32.08
413.119	32.26
413.326	32.15
413.532	32.29
413.738	32.54
413.945	32.36
414.151	32.52
414.357	32.49
414.564	32.68
414.77	32.78
414.976	32.94
415.182	32.62
415.389	32.73
415.595	32.88
415.801	32.71
416.007	32.69
416.214	32.89
416.42	32.84
416.626	32.52
416.832	32.35
417.038	32.47
417.244	32.3
417.45	32.29
417.657	32.14
417.863	32.24
418.069	32.13
418.275	31.81
418.481	31.71
418.687	31.74
418.893	31.86
419.099	31.78
419.305	31.63
419.511	31.66
419.717	31.71
419.923	31.69
420.129	31.57
420.335	31.53
420.541	31.8
420.746	31.63
420.952	31.58
421.158	31.39
421.364	31.33
421.57	31.3
421.776	31.36
421.982	31.27
422.187	31.24
422.393	31.28
422.599	31.44
422.805	31.21
423.01	31.31
423.216	31.36
423.422	31.41
423.628	31.41
423.833	31.37
424.039	31.31
424.245	31.51
424.45	31.55
424.656	31.64
424.862	31.49
425.067	31.57
425.273	31.68
425.478	31.55
425.684	31.55
425.889	31.55
426.095	31.73
426.301	31.63
426.506	31.45
426.712	31.43
426.917	31.27
427.123	31.49
427.328	31.51
427.533	31.25
427.739	31.36
427.944	31.35
428.15	31.39
428.355	31.1
428.561	31.22
428.766	31.22
428.971	31.24
429.177	30.98
429.382	30.67
429.587	30.46
429.793	30.44
429.998	30.31
430.203	30.56
430.408	30.39
430.614	30.43
430.819	30.26
431.024	30.1
431.229	30.04
431.434	30.36
431.64	30.6
431.845	30.89
432.05	31.07
432.255	31.13
432.46	31.1
432.665	31.31
432.87	31.32
433.076	31.47
433.281	31.65
433.486	31.7
433.691	31.67
433.896	31.53
434.101	31.39
434.306	31.2
434.511	31.18
434.716	31.43
434.921	31.43
435.126	31.52
435.331	31.38
435.535	31.38
435.74	31.36
435.945	31.54
436.15	31.88
436.355	31.83
436.56	31.79
436.765	31.63
436.97	31.58
437.174	31.42
437.379	31.37
437.584	31.62
437.789	31.59
437.993	31.81
438.198	31.81
438.403	31.45
438.608	31.52
438.812	31.52
439.017	31.62
439.222	31.43
439.426	31.54
439.631	31.42
439.836	31.21
440.04	31.22
440.245	31.18
440.45	31.19
440.654	31.22
440.859	31.35
441.063	31.48
441.268	31.38
441.472	31.39
441.677	31.47
441.881	31.49
442.086	31.66
442.29	31.59
442.495	31.32
442.699	31.1
442.904	31.05
443.108	30.94
443.312	30.93
443.517	30.94
443.721	30.68
443.925	30.6
444.13	30.67
444.334	30.48
444.538	30.69
444.743	30.88
444.947	31.05
445.151	30.96
445.356	30.95
445.56	30.92
445.764	30.98
445.968	31.14
446.173	31.09
446.377	31.18
446.581	31.2
446.785	31.12
446.989	30.92
447.193	30.93
447.398	31.13
447.602	31.06
447.806	30.94
448.01	31
448.214	31
448.418	31.02
448.622	30.93
448.826	30.96
449.03	30.8
449.234	31.07
449.438	31
449.642	30.81
449.846	30.9
450.05	30.84
450.254	30.68
450.458	30.6
450.662	30.56
450.866	30.5
451.069	30.54
451.273	30.44
451.477	30.22
451.681	30.04
451.885	29.97
452.089	29.94
452.292	30.08
452.496	30.09
452.7	30.16
452.904	30.11
453.107	30.11
453.311	29.92
453.515	30.11
453.719	30.23
453.922	30.31
454.126	30.47
454.33	30.48
454.533	30.52
454.737	30.56
454.94	30.54
455.144	30.68
455.348	30.76
455.551	30.81
455.755	30.63
455.958	30.62
456.162	30.47
456.365	30.41
456.569	30.37
456.772	30.19
456.976	30.14
457.179	30.04
457.383	29.93
457.586	29.98
457.79	30.01
457.993	30.11
458.196	30.05
458.4	30.19
