Data from 2937886_Reflection_3.txt Node
Date: Wed Jul 15 14:32:27 EDT 2015
User: robert
Spectrometer: USB4E03001
Autoset integration time: false
Trigger mode: 4
Integration Time (sec): 1.000000E-1
Scans to average: 10
Electric dark correction enabled: true
Nonlinearity correction enabled: false
Boxcar width: 5
Stray light correction enabled: false
XAxis mode: Wavelengths
Stop averaging: false
Number of Pixels in Spectrum: 3648
>>>>>Begin Spectral Data<<<<<
177.566	1042.41
177.785	-209.85
178.005	-12.21
178.225	-21.81
178.445	45.36
178.665	31.98
178.885	-2336.99
179.105	268.51
179.324	80.24
179.544	35.69
179.764	-55.17
179.984	36.55
180.204	66.33
180.423	70.95
180.643	55.13
180.863	49.99
181.083	86.16
181.302	106.04
181.522	99.77
181.742	66.39
181.961	57.36
182.181	94.83
182.401	277.55
182.621	397.11
182.84	69.7
183.06	134.27
183.279	149.93
183.499	96.1
183.719	181.85
183.938	174.71
184.158	223.71
184.377	110.6
184.597	65.62
184.816	56.08
185.036	48.6
185.256	38.99
185.475	55.71
185.695	46.96
185.914	32.24
186.134	45.55
186.353	-7.7
186.572	2.25
186.792	-58.07
187.011	-903.72
187.231	1404.15
187.45	253.9
187.67	332.76
187.889	-951.26
188.108	-329.67
188.328	-1428.14
188.547	-2655.56
188.766	-482.98
188.986	-944.14
189.205	-176.12
189.424	-103.19
189.644	-52.59
189.863	-22.39
190.082	-17.09
190.302	-3.7
190.521	53.34
190.74	67.59
190.959	78.68
191.178	85.25
191.398	95.2
191.617	97.14
191.836	132.1
192.055	112.92
192.274	105.46
192.494	108.86
192.713	117.05
192.932	60.96
193.151	65.03
193.37	24.85
193.589	-75.02
193.808	-56.11
194.027	161.87
194.246	142.21
194.465	59.61
194.685	57.15
194.904	39.07
195.123	43.37
195.342	13.96
195.561	15.28
195.78	-43.69
195.999	-37.46
196.218	-4.93
196.436	-76.71
196.655	-359.98
196.874	7190.41
197.093	-180.05
197.312	-187.54
197.531	-205.2
197.75	-189.47
197.969	-112.24
198.188	-139.57
198.407	-191.18
198.625	-281.77
198.844	927.46
199.063	-139.21
199.282	180.85
199.501	94.27
199.719	44.04
199.938	25.22
200.157	-44.53
200.376	-29.82
200.594	-108.07
200.813	937.84
201.032	-342.67
201.251	1567.28
201.469	-513.41
201.688	937.94
201.907	305.22
202.125	352.58
202.344	291.07
202.563	294.15
202.781	380.27
203	-4854.46
203.218	-201.46
203.437	-327.09
203.656	5.36
203.874	-12.15
204.093	11.66
204.311	15.3
204.53	21.57
204.748	38.47
204.967	51.89
205.185	67.39
205.404	46.8
205.622	51.24
205.841	67.04
206.059	55.46
206.278	64.86
206.496	73.1
206.715	91.14
206.933	82.98
207.151	66.97
207.37	59.33
207.588	61.32
207.806	115.36
208.025	97.29
208.243	79.29
208.461	61.07
208.68	56.34
208.898	107.91
209.116	98.86
209.335	356.28
209.553	105.36
209.771	127.95
209.989	101.09
210.208	78.93
210.426	68.4
210.644	59.52
210.862	64.43
211.081	48.66
211.299	-7.74
211.517	-11.61
211.735	-15.76
211.953	-25.68
212.171	-52.05
212.39	-118.32
212.608	26.23
212.826	42.84
213.044	79.02
213.262	78.61
213.48	157.98
213.698	173.49
213.916	95.78
214.134	103.03
214.352	97.79
214.57	105.84
214.788	93.47
215.006	96.95
215.224	93.06
215.442	95.25
215.66	100.2
215.878	75.35
216.096	101.26
216.314	134.48
216.532	176.33
216.75	147.34
216.968	134.04
217.185	143.58
217.403	118.08
217.621	144.85
217.839	209.48
218.057	293.26
218.275	369.32
218.492	150.59
218.71	126.72
218.928	112.69
219.146	123.26
219.363	129.74
219.581	112.75
219.799	91.92
220.017	95.82
220.234	72.19
220.452	45.62
220.67	50.24
220.887	21.04
221.105	39.72
221.323	-2.04
221.54	-25.71
221.758	-61.88
221.976	-67.91
222.193	1.84
222.411	47.47
222.629	49.29
222.846	65.77
223.064	58.81
223.281	50.99
223.499	47.74
223.716	43.75
223.934	42.18
224.151	43.17
224.369	46.89
224.586	43.37
224.804	31.26
225.021	26.53
225.239	15.72
225.456	13.54
225.674	21.5
225.891	17.73
226.108	28.65
226.326	13.46
226.543	20.27
226.76	-0.18
226.978	15.27
227.195	12.77
227.413	12.91
227.63	22.8
227.847	22.43
228.064	22.73
228.282	25.33
228.499	25.41
228.716	27.9
228.934	24.98
229.151	25.82
229.368	23.28
229.585	22.18
229.802	21.54
230.02	18.86
230.237	16.35
230.454	12.5
230.671	12.15
230.888	9.73
231.105	9.68
231.323	11.57
231.54	10.61
231.757	10.85
231.974	15.43
232.191	18.32
232.408	21.71
232.625	20.74
232.842	26.31
233.059	21.76
233.276	18.74
233.493	16.72
233.71	12.97
233.927	12.92
234.144	8.93
234.361	11.5
234.578	9.8
234.795	5.2
235.012	9.21
235.229	12.05
235.446	12.39
235.663	11.84
235.879	7.75
236.096	7.5
236.313	5.89
236.53	10.83
236.747	4.19
236.964	2.42
237.181	6.83
237.397	4.12
237.614	-0.21
237.831	3.24
238.048	7.95
238.264	17.31
238.481	20.68
238.698	20.24
238.915	17.51
239.131	15.72
239.348	13.63
239.565	13.74
239.781	13.67
239.998	15.79
240.215	13.1
240.431	12.16
240.648	7.76
240.865	4.56
241.081	6.76
241.298	2.12
241.514	0.24
241.731	1.55
241.947	0.62
242.164	-2.46
242.38	-4.65
242.597	-3.09
242.814	-3.53
243.03	0.12
243.246	-0.75
243.463	-0.45
243.679	-0.24
243.896	0.99
244.112	1.16
244.329	0.25
244.545	0.81
244.762	0.52
244.978	-2.26
245.194	-0.49
245.411	-3.95
245.627	-1.26
245.843	-2.65
246.06	-1.42
246.276	-0.86
246.492	-1.63
246.709	-0.54
246.925	0.21
247.141	0.69
247.357	1.22
247.574	-0.07
247.79	-0.26
248.006	-0.7
248.222	0.26
248.439	1.3
248.655	1.93
248.871	1.48
249.087	1.38
249.303	2.54
249.519	2.93
249.736	4.59
249.952	7.06
250.168	7.62
250.384	10.18
250.6	7.71
250.816	5.9
251.032	7.02
251.248	11.93
251.464	10.49
251.68	7.83
251.896	7.55
252.112	5.1
252.328	3.45
252.544	5.86
252.76	4.67
252.976	5.68
253.192	5.88
253.408	4.7
253.624	1.8
253.84	0.31
254.056	0.62
254.272	1.85
254.487	4.69
254.703	2.83
254.919	-1.81
255.135	-3.18
255.351	-3.55
255.567	-4.79
255.782	-5.2
255.998	-4.6
256.214	-3.83
256.43	-2.3
256.646	-5.23
256.861	-5.59
257.077	-0.02
257.293	1.3
257.508	3.45
257.724	2.26
257.94	3.49
258.155	2.85
258.371	3.48
258.587	4.46
258.802	4.3
259.018	3.81
259.234	3.2
259.449	2.23
259.665	2.02
259.88	0.44
260.096	1.72
260.312	2.14
260.527	2.37
260.743	1.74
260.958	1.58
261.174	1.56
261.389	2.21
261.605	2.28
261.82	2.85
262.036	3.11
262.251	4.99
262.466	3.77
262.682	1.95
262.897	1.89
263.113	2.22
263.328	4.19
263.543	3.93
263.759	4.65
263.974	3.82
264.189	1.24
264.405	0.42
264.62	1.31
264.835	2.51
265.051	3.71
265.266	4.78
265.481	5.09
265.696	1.33
265.912	0.35
266.127	-2.58
266.342	-3.86
266.557	-1.95
266.773	-1.29
266.988	-0.56
267.203	-2.1
267.418	-1.68
267.633	-2.45
267.848	-2.73
268.064	-1.63
268.279	-0.64
268.494	2.52
268.709	4.25
268.924	4.79
269.139	5.5
269.354	3.65
269.569	3.8
269.784	2.48
269.999	3.07
270.214	2.38
270.429	0.45
270.644	-0.05
270.859	-3.7
271.074	-3.78
271.289	-4.9
271.504	-5.39
271.719	-4.17
271.934	-4.31
272.149	-4.47
272.363	-5.02
272.578	-5.6
272.793	-5.3
273.008	-4.61
273.223	-2.24
273.438	-0.95
273.653	-0.69
273.867	1.36
274.082	0.74
274.297	0.85
274.512	2.56
274.726	1.36
274.941	2.65
275.156	4.89
275.371	2.52
275.585	1.06
275.8	-2.75
276.015	-2.62
276.229	-4.69
276.444	-6.3
276.659	-7.58
276.873	-8.52
277.088	-7.85
277.302	-7.93
277.517	-8.47
277.732	-7
277.946	-6.43
278.161	-4.98
278.375	-6.84
278.59	-6.87
278.804	-7.16
279.019	-3.78
279.233	-3.66
279.448	-3.99
279.662	-4.59
279.877	-6.75
280.091	-5.65
280.306	-5.78
280.52	-4.96
280.735	-4.49
280.949	-4.76
281.163	-3.74
281.378	-4.1
281.592	-4.69
281.806	-2.82
282.021	-1.58
282.235	0.5
282.449	-0.4
282.664	1.28
282.878	2.83
283.092	3.95
283.307	4.58
283.521	5.72
283.735	5.82
283.949	5
284.164	3.76
284.378	2.64
284.592	2.53
284.806	3.19
285.02	1.78
285.234	-0.36
285.449	-0.07
285.663	-1.9
285.877	-1.2
286.091	-0.46
286.305	2.37
286.519	2.55
286.733	3.15
286.947	3.26
287.161	3.83
287.375	4.65
287.589	6.63
287.803	5.72
288.017	8.17
288.231	7.82
288.445	7.14
288.659	4.64
288.873	5.23
289.087	6.45
289.301	5.62
289.515	5.02
289.729	3.22
289.943	1.87
290.157	2.76
290.371	2.23
290.584	0.54
290.798	-0.49
291.012	0.15
291.226	-0.62
291.44	-3.8
291.654	-2.08
291.867	-2.31
292.081	0.03
292.295	-0.07
292.509	0.57
292.722	1.84
292.936	2.75
293.15	5.92
293.364	8.6
293.577	9.47
293.791	11.61
294.005	9.44
294.218	10.17
294.432	7.54
294.645	8.54
294.859	7.88
295.073	7.35
295.286	7.73
295.5	5.54
295.713	4.01
295.927	3.7
296.14	5.5
296.354	7.16
296.568	7.85
296.781	9.25
296.994	9.78
297.208	8.96
297.421	9.4
297.635	8.46
297.848	8.34
298.062	8.62
298.275	8.34
298.489	7.5
298.702	7.16
298.915	6.36
299.129	6.75
299.342	5.83
299.555	6.68
299.769	5.14
299.982	5.63
300.195	4.26
300.409	3.41
300.622	3.59
300.835	3.93
301.048	3.74
301.262	4.64
301.475	4.34
301.688	3.83
301.901	4.02
302.115	5.27
302.328	6.18
302.541	7.3
302.754	6.77
302.967	8.67
303.18	7.13
303.393	8.5
303.607	7.89
303.82	5.46
304.033	5.48
304.246	3.55
304.459	1.85
304.672	1.6
304.885	3.59
305.098	4.42
305.311	5.72
305.524	6.69
305.737	3.86
305.95	3.26
306.163	6.17
306.376	6.89
306.589	9.38
306.802	9.16
307.015	9.77
307.228	9.54
307.44	9.49
307.653	7.64
307.866	7.25
308.079	7.14
308.292	5.53
308.505	5.6
308.718	6.34
308.93	7.38
309.143	6.59
309.356	6.54
309.569	5.67
309.781	6.16
309.994	4.42
310.207	6.01
310.42	6.7
310.632	9.56
310.845	9.72
311.058	9.78
311.27	8.06
311.483	9.74
311.696	9.58
311.908	9.71
312.121	8.27
312.333	9.13
312.546	7.92
312.759	9.39
312.971	8.14
313.184	7.89
313.396	7.99
313.609	9.17
313.821	10.13
314.034	9.92
314.246	11.62
314.459	13.49
314.671	12.34
314.884	13.22
315.096	12.42
315.309	11.99
315.521	11.64
315.733	10.91
315.946	9.43
316.158	9.81
316.371	9.46
316.583	8.66
316.795	7.92
317.008	9.07
317.22	10.54
317.432	11
317.644	12.07
317.857	11.95
318.069	12.36
318.281	12.36
318.494	11.49
318.706	12.41
318.918	11.25
319.13	12.08
319.342	12.61
319.555	9.22
319.767	7.78
319.979	7.66
320.191	8.74
320.403	6.73
320.615	7.19
320.827	5.68
321.039	6.55
321.252	8.13
321.464	8.42
321.676	9.28
321.888	10.34
322.1	13.16
322.312	14.02
322.524	15.3
322.736	16.67
322.948	16.41
323.16	17.7
323.372	16.32
323.584	15.89
323.796	16.46
324.007	15.92
324.219	15.9
324.431	15.5
324.643	14.89
324.855	13.66
325.067	14.26
325.279	14.48
325.491	14.48
325.702	14.67
325.914	14.91
326.126	15.18
326.338	13.63
326.55	14.17
326.761	13.36
326.973	13.73
327.185	14.8
327.396	14.96
327.608	16.47
327.82	17.85
328.032	18.73
328.243	18.48
328.455	18.49
328.666	21.08
328.878	22.74
329.09	24.11
329.301	23.71
329.513	22.74
329.725	23.2
329.936	25.65
330.148	26.27
330.359	28.94
330.571	31.53
330.782	32.03
330.994	31.54
331.205	31.44
331.417	32.11
331.628	32.09
331.84	33.76
332.051	35.88
332.262	35.29
332.474	33.34
332.685	31.86
332.897	32.98
333.108	33.09
333.319	35.35
333.531	37.62
333.742	39
333.953	41.46
334.165	42.07
334.376	41.44
334.587	40.72
334.799	42.48
335.01	44.31
335.221	41.43
335.432	43.5
335.644	43.7
335.855	44.07
336.066	44.49
336.277	45.75
336.488	45.58
336.7	45.66
336.911	46.68
337.122	48.64
337.333	48.58
337.544	51.53
337.755	49.24
337.966	49.61
338.177	48.47
338.388	48.64
338.599	48.14
338.811	49.93
339.022	51.42
339.233	51.01
339.444	49.15
339.655	49.83
339.866	49.55
340.076	51.91
340.287	50.75
340.498	50.76
340.709	51.65
340.92	51.18
341.131	51.84
341.342	50.39
341.553	51.47
341.764	51.64
341.975	52.21
342.185	54.03
342.396	53.66
342.607	54.83
342.818	54.12
343.029	53.56
343.239	53.83
343.45	53.47
343.661	54.26
343.872	54.38
344.082	55.5
344.293	53.4
344.504	52.3
344.714	51.67
344.925	52.29
345.136	53.05
345.346	52.51
345.557	53.73
345.768	53.93
345.978	54.44
346.189	53.32
346.399	52.7
346.61	53.65
346.821	53.53
347.031	54.6
347.242	53.65
347.452	54.22
347.663	54.4
347.873	53.81
348.084	53.54
348.294	53.87
348.504	55.76
348.715	55.71
348.925	55.37
349.136	54.3
349.346	54.2
349.557	55.86
349.767	54.96
349.977	54.67
350.188	55.83
350.398	54.37
350.608	54.26
350.819	54.65
351.029	53.85
351.239	55.05
351.449	55.27
351.66	54.42
351.87	54.07
352.08	55.04
352.29	53.76
352.501	53.24
352.711	53.56
352.921	53.7
353.131	53.32
353.341	54.78
353.552	53.7
353.762	54.41
353.972	55.05
354.182	55
354.392	55.5
354.602	57.91
354.812	56.81
355.022	57.66
355.232	58.08
355.442	57.98
355.652	58.07
355.862	58.91
356.072	60.28
356.282	60.87
356.492	61.22
356.702	60.59
356.912	59.89
357.122	60.71
357.332	60.09
357.542	59.59
357.752	59.38
357.962	59.17
358.171	58.5
358.381	56.49
358.591	56.32
358.801	55.52
359.011	55.63
359.221	55.73
359.43	55.72
359.64	55.96
359.85	56.22
360.06	55.82
360.269	55.38
360.479	55.68
360.689	56.83
360.899	57.22
361.108	57.07
361.318	57.21
361.528	57.1
361.737	56.41
361.947	56.76
362.156	56.46
362.366	55.8
362.576	55.39
362.785	55.22
362.995	54.48
363.204	53.62
363.414	53.31
363.623	52.44
363.833	52.75
364.042	52.25
364.252	51.63
364.461	51.63
364.671	52.45
364.88	52.39
365.09	51.82
365.299	52.17
365.509	51.76
365.718	52.07
365.927	52.29
366.137	52.07
366.346	53.04
366.555	53.78
366.765	53.34
366.974	52.33
367.183	52.69
367.393	52.75
367.602	52.77
367.811	53.17
368.021	53.22
368.23	53.14
368.439	52.8
368.648	52.68
368.857	52.59
369.067	53.11
369.276	53.51
369.485	53.24
369.694	54
369.903	53.81
370.112	53.64
370.321	53.69
370.531	53.86
370.74	53.82
370.949	53.75
371.158	52.66
371.367	52.19
371.576	52.89
371.785	53.12
371.994	52.73
372.203	52.05
372.412	52.65
372.621	52.36
372.83	52.44
373.039	51.81
373.248	51.1
373.457	51.44
373.666	51.23
373.874	49.92
374.083	49.92
374.292	49.81
374.501	50.24
374.71	49.65
374.919	49.86
375.128	50.42
375.336	50.72
375.545	50.44
375.754	50.73
375.963	50.26
376.171	51.59
376.38	51.93
376.589	51.77
376.798	51.01
377.006	50.86
377.215	50.4
377.424	49.38
377.632	48.8
377.841	49.81
378.05	49.59
378.258	49.54
378.467	49.03
378.675	48.31
378.884	48.48
379.093	48.87
379.301	49.33
379.51	48.66
379.718	49.26
379.927	49.98
380.135	49.76
380.344	49.47
380.552	49.53
380.761	49.14
380.969	49.29
381.177	49.04
381.386	48.46
381.594	48.18
381.803	48.7
382.011	48.74
382.219	48.77
382.428	47.9
382.636	47.44
382.845	47.59
383.053	47.55
383.261	47.24
383.469	46.71
383.678	47.06
383.886	47.35
384.094	47.48
384.302	47
384.511	46.5
384.719	46.16
384.927	46.43
385.135	46.31
385.343	46.7
385.552	47.23
385.76	47.57
385.968	47.33
386.176	46.98
386.384	46.62
386.592	46.41
386.8	46.61
387.008	46.86
387.216	46.37
387.424	46.22
387.633	45.68
387.841	44.95
388.049	44.77
388.257	45.19
388.465	44.62
388.672	44.08
388.88	43.46
389.088	43.15
389.296	43.09
389.504	43.48
389.712	43.21
389.92	43.14
390.128	43.55
390.336	43.4
390.544	43.05
390.751	43
390.959	42.97
391.167	43.4
391.375	43.14
391.583	43.23
391.79	43.2
391.998	43.38
392.206	43.21
392.414	42.96
392.621	43.27
392.829	43.12
393.037	43.04
393.244	43.67
393.452	43.67
393.66	44.23
393.867	44.13
394.075	44.17
394.283	44.32
394.49	44.49
394.698	44.39
394.905	44.02
395.113	44.27
395.32	44.2
395.528	43.83
395.735	43.91
395.943	43.73
396.15	43.94
396.358	43.61
396.565	43.86
396.773	43.92
396.98	43.98
397.188	44.25
397.395	44.5
397.602	44.63
397.81	44.8
398.017	44.93
398.225	44.7
398.432	44.84
398.639	44.83
398.847	44.72
399.054	44.83
399.261	45.01
399.468	45.09
399.676	44.94
399.883	45.26
400.09	45.63
400.297	45.37
400.505	45.2
400.712	45.03
400.919	45.63
401.126	45.01
401.333	44.84
401.54	44.73
401.748	44.39
401.955	44.26
402.162	44.37
402.369	44.22
402.576	44.31
402.783	44.25
402.99	44.05
403.197	43.68
403.404	44.46
403.611	44.56
403.818	44.32
404.025	44.82
404.232	44.76
404.439	44.79
404.646	44.42
404.853	44.47
405.06	44.71
405.267	44.99
405.474	44.97
405.681	44.51
405.887	44.53
406.094	44.6
406.301	44.32
406.508	44.43
406.715	44.32
406.922	44.61
407.128	44.31
407.335	44.31
407.542	44.29
407.749	44.59
407.955	44.47
408.162	44.27
408.369	44.51
408.575	44.56
408.782	44.53
408.989	44.22
409.195	44.28
409.402	44.61
409.609	44.36
409.815	44.05
410.022	43.78
410.228	43.81
410.435	44.08
410.642	43.89
410.848	43.83
411.055	43.6
411.261	43.66
411.468	43.58
411.674	43.78
411.881	44.18
412.087	44.48
412.294	44.36
412.5	44.58
412.706	44.29
412.913	44.24
413.119	44.35
413.326	44.59
413.532	44.66
413.738	44.52
413.945	44.13
414.151	43.75
414.357	43.38
414.564	43.29
414.77	43.37
414.976	43.3
415.182	43.36
415.389	42.91
415.595	42.87
415.801	42.77
416.007	42.85
416.214	42.68
416.42	42.61
416.626	42.82
416.832	43
417.038	42.69
417.244	42.71
417.45	42.75
417.657	43.01
417.863	43.18
418.069	43.33
418.275	43.13
418.481	43.55
418.687	43.42
418.893	43.31
419.099	43.17
419.305	42.97
419.511	43.04
419.717	43.01
419.923	42.86
420.129	42.68
420.335	42.52
420.541	42.45
420.746	42.26
420.952	42.55
421.158	42.48
421.364	42.34
421.57	42.4
421.776	42.5
421.982	42.34
422.187	42.29
422.393	42.37
422.599	42.41
422.805	42.35
423.01	42.36
423.216	42.18
423.422	42.25
423.628	42.31
423.833	42.41
424.039	42.36
424.245	42.47
424.45	42.6
424.656	42.48
424.862	42.25
425.067	42.29
425.273	42.27
425.478	42.2
425.684	42.14
425.889	42.09
426.095	42.04
426.301	41.95
426.506	41.73
426.712	41.62
426.917	41.46
427.123	41.58
427.328	41.73
427.533	41.53
427.739	41.57
427.944	41.52
428.15	41.51
428.355	41.44
428.561	41.21
428.766	41.3
428.971	41.12
429.177	41.18
429.382	40.99
429.587	40.85
429.793	40.87
429.998	40.85
430.203	40.73
430.408	40.71
430.614	40.75
430.819	40.85
431.024	40.66
431.229	40.74
431.434	40.7
431.64	40.78
431.845	40.84
432.05	40.81
432.255	40.78
432.46	40.94
432.665	41.02
432.87	40.88
433.076	40.77
433.281	40.99
433.486	41.09
433.691	41.19
433.896	41.42
434.101	41.31
434.306	41.57
434.511	41.55
434.716	41.67
434.921	41.61
435.126	41.85
435.331	41.88
435.535	41.92
435.74	41.92
435.945	41.82
436.15	41.64
436.355	41.67
436.56	41.48
436.765	41.46
436.97	41.11
437.174	41.19
437.379	41.13
437.584	41.21
437.789	41.07
437.993	40.89
438.198	40.79
438.403	40.86
438.608	40.98
438.812	41
439.017	40.94
439.222	41.12
439.426	41.23
439.631	41.14
439.836	40.99
440.04	41.11
440.245	41.16
440.45	41.29
440.654	41.45
440.859	41.22
441.063	41.15
441.268	41.31
441.472	41.3
441.677	41.22
441.881	41.31
442.086	41.47
442.29	41.45
442.495	41.52
442.699	41.56
442.904	41.18
443.108	41.4
443.312	41.45
443.517	41.4
443.721	41.54
443.925	41.31
444.13	41.24
444.334	41.23
444.538	41.19
444.743	41.12
444.947	41.03
445.151	41.23
445.356	41.09
445.56	41.11
445.764	41.08
445.968	40.85
446.173	41.03
446.377	40.95
446.581	40.96
446.785	40.96
446.989	41.09
447.193	41.11
447.398	41.14
447.602	41.34
447.806	41.31
448.01	41.3
448.214	41.49
448.418	41.55
448.622	41.6
448.826	41.58
449.03	41.54
449.234	41.51
449.438	41.37
449.642	41.22
449.846	41.02
450.05	40.84
450.254	40.72
450.458	40.48
450.662	40.32
450.866	40.42
451.069	40.23
451.273	40.17
451.477	39.91
451.681	40.01
451.885	39.93
452.089	40.09
452.292	40.12
452.496	40.04
452.7	40.14
452.904	40.11
453.107	39.99
453.311	40.13
453.515	40.1
453.719	40.18
453.922	40.2
454.126	40.43
454.33	40.21
454.533	40.37
454.737	40.54
454.94	40.51
455.144	40.49
455.348	40.57
455.551	40.45
455.755	40.51
455.958	40.62
456.162	40.38
456.365	40.04
456.569	40.06
456.772	39.86
456.976	39.61
457.179	39.45
457.383	39.6
457.586	39.37
457.79	39.48
457.993	39.53
458.196	39.55
458.4	39.91
458.603	40.01
458.807	39.87
459.01	39.9
459.213	40.22
