Data from 2937883_Reflection_3.txt Node
Date: Wed Jul 15 14:40:15 EDT 2015
User: robert
Spectrometer: USB4E03001
Autoset integration time: false
Trigger mode: 4
Integration Time (sec): 1.000000E-1
Scans to average: 10
Electric dark correction enabled: true
Nonlinearity correction enabled: false
Boxcar width: 5
Stray light correction enabled: false
XAxis mode: Wavelengths
Stop averaging: false
Number of Pixels in Spectrum: 3648
>>>>>Begin Spectral Data<<<<<
177.566	7.2
177.785	-23.59
178.005	22.2
178.225	39.2
178.445	-122.64
178.665	-40.81
178.885	-117.47
179.105	57.07
179.324	69.03
179.544	22.96
179.764	72.83
179.984	40.02
180.204	2.85
180.423	28.69
180.643	-82.92
180.863	314.92
181.083	97.89
181.302	134.93
181.522	150.64
181.742	132.55
181.961	43.75
182.181	129.09
182.401	69.71
182.621	69.84
182.84	45.14
183.06	-25.91
183.279	-4.75
183.499	-36.97
183.719	-1.5
183.938	-61.24
184.158	-71.54
184.377	-1588.89
184.597	-20.34
184.816	16.56
185.036	43.26
185.256	22.2
185.475	55.03
185.695	33.79
185.914	-322.12
186.134	134.51
186.353	87.83
186.572	70.73
186.792	353.17
187.011	193.82
187.231	164.52
187.45	100.5
187.67	63.06
187.889	211.7
188.108	184.82
188.328	-335.99
188.547	-904.96
188.766	-632.76
188.986	285.31
189.205	235.04
189.424	118.13
189.644	183.13
189.863	1138.54
190.082	565.81
190.302	260.07
190.521	281.02
190.74	448.83
190.959	-39144.44
191.178	911.83
191.398	-94.33
191.617	-8.01
191.836	-6.82
192.055	42.85
192.274	45.23
192.494	69.21
192.713	-44.17
192.932	108.21
193.151	275.32
193.37	-27.43
193.589	-3.71
193.808	-101.63
194.027	-266.85
194.246	-279.15
194.465	2649.24
194.685	1001.58
194.904	4249.46
195.123	702.99
195.342	1239.53
195.561	336.97
195.78	223.63
195.999	240.15
196.218	248
196.436	399.18
196.655	190.89
196.874	167.85
197.093	437.73
197.312	-179.46
197.531	-94.99
197.75	-218.83
197.969	-366.29
198.188	-383.46
198.407	-209.54
198.625	-92.3
198.844	-89.07
199.063	-97.37
199.282	-104.03
199.501	-158.96
199.719	-226.43
199.938	-118.88
200.157	-215.55
200.376	-111.84
200.594	-165.55
200.813	-468.68
201.032	-751.48
201.251	355.57
201.469	275.67
201.688	395.08
201.907	197.53
202.125	222.88
202.344	201.36
202.563	540.48
202.781	190.56
203	124.77
203.218	111.19
203.437	122.17
203.656	121.23
203.874	82.87
204.093	53.89
204.311	10.2
204.53	25.82
204.748	-68.05
204.967	-27.08
205.185	-33.56
205.404	-64.91
205.622	51.27
205.841	-7.36
206.059	17.77
206.278	122.07
206.496	187.83
206.715	298.93
206.933	157.82
207.151	-676.77
207.37	-629.72
207.588	3740.82
207.806	1084.84
208.025	-158.56
208.243	-418.72
208.461	-177.36
208.68	-120.95
208.898	20.87
209.116	60.48
209.335	27.37
209.553	-332.93
209.771	-175.5
209.989	355.15
210.208	577.78
210.426	-102.99
210.644	-135.49
210.862	89.81
211.081	54.06
211.299	183.1
211.517	147.38
211.735	255.54
211.953	-129.07
212.171	-423.23
212.39	-17828.57
212.608	-277.68
212.826	-181.1
213.044	-121.58
213.262	-163.5
213.48	-78.31
213.698	-31.65
213.916	-42.64
214.134	-462.99
214.352	-1240.05
214.57	-107.25
214.788	-15.9
215.006	-12.32
215.224	-17.95
215.442	-188.02
215.66	127.09
215.878	503.66
216.096	-1448.19
216.314	337.98
216.532	293.19
216.75	184.77
216.968	102.74
217.185	79.94
217.403	79.15
217.621	70.97
217.839	87.72
218.057	81.39
218.275	90.11
218.492	43.31
218.71	-7.13
218.928	-404.62
219.146	272.52
219.363	-164.97
219.581	138.05
219.799	121.06
220.017	9.68
220.234	21.62
220.452	-19.85
220.67	7.77
220.887	50.31
221.105	69.29
221.323	58.88
221.54	52.07
221.758	45.73
221.976	50.1
222.193	57.58
222.411	29.45
222.629	36.34
222.846	50.74
223.064	54.01
223.281	37.09
223.499	42.76
223.716	38.68
223.934	52.68
224.151	68.26
224.369	73.45
224.586	50.39
224.804	95.8
225.021	97.86
225.239	66.9
225.456	54.59
225.674	64.14
225.891	42.14
226.108	47.03
226.326	39.28
226.543	23.86
226.76	22.76
226.978	22.26
227.195	17.53
227.413	1.75
227.63	10.38
227.847	14.65
228.064	10.12
228.282	14.65
228.499	15.02
228.716	13.71
228.934	12.81
229.151	13.05
229.368	12.43
229.585	11.89
229.802	13.76
230.02	14.98
230.237	12.23
230.454	12.84
230.671	10.2
230.888	11.36
231.105	8.99
231.323	13.14
231.54	14.16
231.757	18.92
231.974	19.63
232.191	25.44
232.408	25.25
232.625	31.47
232.842	41.1
233.059	43.41
233.276	39.79
233.493	43.65
233.71	42.21
233.927	40.74
234.144	38.72
234.361	35.98
234.578	26.15
234.795	18.93
235.012	21.31
235.229	14.36
235.446	13.66
235.663	13.32
235.879	2.17
236.096	6.8
236.313	-1.79
236.53	-11.23
236.747	-10.08
236.964	-2.86
237.181	12.49
237.397	7.47
237.614	2.33
237.831	-2.24
238.048	3.3
238.264	8.89
238.481	12.07
238.698	14.74
238.915	13.03
239.131	15.77
239.348	14.04
239.565	7.62
239.781	3.74
239.998	8.48
240.215	12.65
240.431	3.52
240.648	3.32
240.865	0.66
241.081	2.3
241.298	4.38
241.514	3.33
241.731	2.3
241.947	3.97
242.164	5.55
242.38	0.65
242.597	-2.9
242.814	-2.66
243.03	0.24
243.246	0.96
243.463	1.13
243.679	0.27
243.896	-1.16
244.112	0.05
244.329	1.86
244.545	2.16
244.762	4.91
244.978	5.18
245.194	8.43
245.411	7.27
245.627	5.7
245.843	6.8
246.06	7.59
246.276	7.49
246.492	6.78
246.709	6.09
246.925	7.35
247.141	7.2
247.357	8.97
247.574	9.67
247.79	8.12
248.006	8.24
248.222	8.86
248.439	8.07
248.655	7.74
248.871	7.62
249.087	7.37
249.303	6.46
249.519	8.18
249.736	6.7
249.952	7.01
250.168	11.34
250.384	12.41
250.6	12.38
250.816	10.46
251.032	11.4
251.248	10.48
251.464	9.91
251.68	7.98
251.896	7.02
252.112	7.92
252.328	6.15
252.544	3.89
252.76	3.23
252.976	0.65
253.192	0.88
253.408	-0.24
253.624	3.58
253.84	3.54
254.056	1.99
254.272	3.04
254.487	1.83
254.703	0.99
254.919	-0.36
255.135	0.95
255.351	2.5
255.567	8
255.782	10.31
255.998	10.92
256.214	12.53
256.43	13.39
256.646	12.14
256.861	12.8
257.077	12.09
257.293	10.17
257.508	13.51
257.724	14.62
257.94	11.74
258.155	11.13
258.371	9.47
258.587	8.74
258.802	8.49
259.018	7.75
259.234	6.91
259.449	6.92
259.665	7.87
259.88	6.41
260.096	6.4
260.312	6.23
260.527	6.98
260.743	6.86
260.958	6.76
261.174	6.37
261.389	7.07
261.605	7.23
261.82	8.31
262.036	8.53
262.251	9.91
262.466	9.91
262.682	10.07
262.897	10.04
263.113	6.92
263.328	7.76
263.543	8.6
263.759	6.21
263.974	6.48
264.189	4.81
264.405	5.7
264.62	6.28
264.835	4.3
265.051	4.53
265.266	6.42
265.481	11.32
265.696	10.61
265.912	10.48
266.127	11.68
266.342	11.4
266.557	9.19
266.773	5.85
266.988	4.95
267.203	6.24
267.418	7.79
267.633	5.87
267.848	2.76
268.064	1.21
268.279	1.67
268.494	1.48
268.709	0.16
268.924	4
269.139	6.33
269.354	5.02
269.569	4.42
269.784	2.93
269.999	2.43
270.214	4.51
270.429	5.83
270.644	6.13
270.859	7.67
271.074	6.78
271.289	4.26
271.504	5.38
271.719	6.47
271.934	6.68
272.149	5.3
272.363	6.7
272.578	6.11
272.793	6.6
273.008	8.05
273.223	6.82
273.438	8.66
273.653	9.97
273.867	8.27
274.082	9.4
274.297	10.04
274.512	12.45
274.726	12.22
274.941	14.42
275.156	13.44
275.371	12.45
275.585	11.31
275.8	10.2
276.015	10.26
276.229	9.25
276.444	9.35
276.659	8.16
276.873	9
277.088	8.48
277.302	4.4
277.517	6.94
277.732	7.41
277.946	7.11
278.161	8.42
278.375	9.36
278.59	9.06
278.804	5.29
279.019	5.34
279.233	2.73
279.448	2.2
279.662	3.39
279.877	0.89
280.091	-0.03
280.306	2.06
280.52	1.29
280.735	0.06
280.949	2.04
281.163	4.91
281.378	5.45
281.592	5.63
281.806	5.12
282.021	6.87
282.235	7.43
282.449	5.93
282.664	4.93
282.878	6.39
283.092	6.14
283.307	6.52
283.521	4.71
283.735	3.65
283.949	4.72
284.164	5.52
284.378	4.36
284.592	2.82
284.806	3.2
285.02	4.03
285.234	3.1
285.449	4.01
285.663	4.36
285.877	6.07
286.091	4.99
286.305	3.9
286.519	3.65
286.733	2.84
286.947	2.73
287.161	3.72
287.375	3.51
287.589	3.96
287.803	2.29
288.017	0.78
288.231	-0.62
288.445	1.02
288.659	2.44
288.873	1.42
289.087	4.21
289.301	5.76
289.515	3.35
289.729	4.56
289.943	5.41
290.157	6.28
290.371	8.67
290.584	9.36
290.798	9.65
291.012	9.86
291.226	11.26
291.44	10.4
291.654	9.62
291.867	10.89
292.081	8.69
292.295	7.88
292.509	7.96
292.722	5.15
292.936	6.21
293.15	7.13
293.364	5.7
293.577	5.24
293.791	4.69
294.005	4.53
294.218	5.68
294.432	7.3
294.645	8.66
294.859	10.56
295.073	10.45
295.286	10.47
295.5	7.96
295.713	10.41
295.927	10.71
296.14	11.68
296.354	11.76
296.568	12.03
296.781	12.23
296.994	10.28
297.208	8.12
297.421	8.31
297.635	7.64
297.848	8.25
298.062	5.96
298.275	4.74
298.489	4.67
298.702	4.8
298.915	5.18
299.129	6.15
299.342	6.26
299.555	7.23
299.769	7.65
299.982	7.25
300.195	8.02
300.409	8.99
300.622	11.19
300.835	11.01
301.048	11.57
301.262	12.12
301.475	11.59
301.688	13.01
301.901	14.66
302.115	16.32
302.328	17.07
302.541	17.57
302.754	17.93
302.967	16.28
303.18	14.58
303.393	15.07
303.607	12.56
303.82	13.43
304.033	13.2
304.246	10.94
304.459	9.14
304.672	8.76
304.885	8.39
305.098	7.71
305.311	9.66
305.524	11.46
305.737	12.8
305.95	14.12
306.163	15.03
306.376	16.58
306.589	16.93
306.802	17.39
307.015	17.21
307.228	17.2
307.44	19.37
307.653	19.82
307.866	19.84
308.079	17.9
308.292	17.73
308.505	14.67
308.718	12
308.93	12.77
309.143	14.18
309.356	14.01
309.569	16.28
309.781	14.31
309.994	13.68
310.207	15.07
310.42	14.3
310.632	14.67
310.845	14.65
311.058	15.61
311.27	14.36
311.483	14.23
311.696	14.84
311.908	13.34
312.121	14.05
312.333	13.59
312.546	13.13
312.759	13.95
312.971	12.83
313.184	14.18
313.396	12.8
313.609	14.31
313.821	13.08
314.034	13.16
314.246	13.16
314.459	14.14
314.671	16.46
314.884	15.94
315.096	17.55
315.309	18.79
315.521	16.64
315.733	16.96
315.946	15.91
316.158	16.2
316.371	15.71
316.583	16
316.795	14.02
317.008	12.83
317.22	12.93
317.432	10.79
317.644	10.32
317.857	14.27
318.069	15.01
318.281	14.65
318.494	15.52
318.706	16
318.918	17.92
319.13	18.76
319.342	17.75
319.555	17.07
319.767	17.01
319.979	18.45
320.191	16.53
320.403	19.78
320.615	21.38
320.827	20.58
321.039	20.74
321.252	20.11
321.464	21.54
321.676	22.47
321.888	22.43
322.1	24.21
322.312	24.27
322.524	24.57
322.736	22.87
322.948	25.03
323.16	24.73
323.372	26.05
323.584	24.77
323.796	22.5
324.007	22.53
324.219	21.4
324.431	21.12
324.643	20.24
324.855	18.82
325.067	19.7
325.279	17.29
325.491	17.36
325.702	15.16
325.914	16.18
326.126	18.63
326.338	19.43
326.55	21.38
326.761	20.85
326.973	20.81
327.185	22.52
327.396	20.42
327.608	19.81
327.82	21.85
328.032	24.31
328.243	26.21
328.455	25.71
328.666	25.39
328.878	25.76
329.09	27.73
329.301	30.05
329.513	30.54
329.725	31.54
329.936	33.19
330.148	31.94
330.359	33.41
330.571	32.65
330.782	32.63
330.994	32.21
331.205	31.56
331.417	32.13
331.628	30.74
331.84	30.81
332.051	31.67
332.262	32.65
332.474	34.17
332.685	32.77
332.897	33.05
333.108	33.67
333.319	35.08
333.531	38.21
333.742	37.44
333.953	38.38
334.165	39.61
334.376	40.87
334.587	40.28
334.799	41.03
335.01	39.97
335.221	39.19
335.432	38.89
335.644	39.55
335.855	37.99
336.066	39.3
336.277	40.19
336.488	38.53
336.7	37.37
336.911	39.32
337.122	39.4
337.333	41.52
337.544	41.56
337.755	42.58
337.966	42.05
338.177	42.48
338.388	42.35
338.599	42.26
338.811	43.53
339.022	44.33
339.233	42.94
339.444	42.37
339.655	40.59
339.866	42.23
340.076	42.72
340.287	43.77
340.498	45.28
340.709	43.93
340.92	43.86
341.131	45.35
341.342	45.52
341.553	46.93
341.764	47.05
341.975	47.19
342.185	46.83
342.396	45.81
342.607	44.62
342.818	43.35
343.029	45.86
343.239	46.38
343.45	45.49
343.661	45.95
343.872	44.91
344.082	43.99
344.293	45.47
344.504	44.64
344.714	45.1
344.925	45.72
345.136	45.87
345.346	44.39
345.557	43.63
345.768	44.39
345.978	44.17
346.189	44.49
346.399	45.68
346.61	45.27
346.821	46.61
347.031	46.46
347.242	46.83
347.452	46.75
347.663	46.94
347.873	47.95
348.084	46.19
348.294	46.95
348.504	47.85
348.715	46.91
348.925	47.01
349.136	48.2
349.346	47.78
349.557	46.61
349.767	46.89
349.977	47.25
350.188	47.35
350.398	48.85
350.608	47.45
350.819	46.09
351.029	46.35
351.239	45.92
351.449	44.37
351.66	45.6
351.87	46.21
352.08	47.47
352.29	47.12
352.501	47.79
352.711	46.92
352.921	47.36
353.131	47.8
353.341	48.14
353.552	47.79
353.762	47.73
353.972	47.43
354.182	49.08
354.392	48.06
354.602	47.87
354.812	46.61
355.022	47.85
355.232	48.1
355.442	48.69
355.652	49.09
355.862	49.45
356.072	50.24
356.282	50.58
356.492	49.4
356.702	49.35
356.912	49.84
357.122	49.66
357.332	48.94
357.542	49.31
357.752	48.14
357.962	48.08
358.171	48.07
358.381	46.54
358.591	46.45
358.801	46.63
359.011	46.42
359.221	46.91
359.43	46.39
359.64	46.78
359.85	46.92
360.06	46.84
360.269	47.57
360.479	47.8
360.689	49.02
360.899	49.09
361.108	49.32
361.318	49.24
361.528	49.09
361.737	49.77
361.947	49.98
362.156	49.99
362.366	50.42
362.576	50.03
362.785	50.25
362.995	49.16
363.204	48.68
363.414	48.29
363.623	48.86
363.833	48.28
364.042	47.77
364.252	48.35
364.461	48.3
364.671	48.25
364.88	46.83
365.09	46.83
365.299	47.26
365.509	46.95
365.718	46.61
365.927	46.61
366.137	47.03
366.346	47.03
366.555	45.89
366.765	45.22
366.974	44.92
367.183	46.97
367.393	45.63
367.602	46.21
367.811	46.25
368.021	45.56
368.23	44.25
368.439	44.24
368.648	44.45
368.857	44.27
369.067	44.46
369.276	45.29
369.485	44.83
369.694	46.18
369.903	45.65
370.112	45.32
370.321	45.45
370.531	45.29
370.74	43.93
370.949	43.6
371.158	43.61
371.367	43.59
371.576	42.66
371.785	42.01
371.994	41.33
372.203	41.92
372.412	42.52
372.621	42.59
372.83	43.59
373.039	43.93
373.248	44.35
373.457	44.17
373.666	43.98
373.874	44.59
374.083	43.83
374.292	43.59
374.501	42.4
374.71	42.2
374.919	42.65
375.128	41.87
375.336	41.84
375.545	41.09
375.754	40.51
375.963	40.59
376.171	40.37
376.38	40.96
376.589	40.76
376.798	41.13
377.006	41.16
377.215	40.82
377.424	40.69
377.632	40.9
377.841	41.49
378.05	41.39
378.258	40.42
378.467	39.65
378.675	38.91
378.884	38.79
379.093	39.02
379.301	38.86
379.51	38.92
379.718	39.18
379.927	39.1
380.135	38.73
380.344	39.48
380.552	40.14
380.761	40.69
380.969	41.58
381.177	41.63
381.386	41.2
381.594	41.55
381.803	41.13
382.011	41.24
382.219	41.29
382.428	41.07
382.636	40.77
382.845	40.29
383.053	39.6
383.261	39.67
383.469	39.32
383.678	39.02
383.886	38.16
384.094	38.19
384.302	37.37
384.511	36.67
384.719	35.91
384.927	36.13
385.135	36.18
385.343	36.7
385.552	36.76
385.76	36.95
385.968	36.99
386.176	36.97
386.384	36.75
386.592	37.23
386.8	37.29
387.008	37.39
387.216	36.87
387.424	36.78
387.633	36.33
387.841	35.53
388.049	35.79
388.257	35.31
388.465	35.21
388.672	35.13
388.88	35.06
389.088	35.45
389.296	35.67
389.504	34.93
389.712	34.36
389.92	33.86
390.128	33.93
390.336	33.6
390.544	33.93
390.751	34.1
390.959	34.23
391.167	33.93
391.375	33.53
391.583	33.84
391.79	34.31
391.998	34.62
392.206	35.22
392.414	35.39
392.621	35.62
392.829	35.21
393.037	35.14
393.244	34.89
393.452	34.81
393.66	35.03
393.867	34.25
394.075	34.22
394.283	34.9
394.49	34.76
394.698	34.7
394.905	34.34
395.113	34.19
395.32	33.85
395.528	34.07
395.735	34.39
395.943	34.27
396.15	34.71
396.358	34.78
396.565	34.36
396.773	34.19
396.98	34.39
397.188	34.13
397.395	34.49
397.602	34.65
397.81	34.32
398.017	34.05
398.225	34.27
398.432	34.56
398.639	34.47
398.847	34.68
399.054	34.49
399.261	34.39
399.468	34.44
399.676	34.42
399.883	34.51
400.09	35.15
400.297	35.34
400.505	34.83
400.712	34.88
400.919	35.21
401.126	35.09
401.333	35.4
401.54	35.07
401.748	35.32
401.955	35.53
402.162	35.52
402.369	35.42
402.576	35.26
402.783	35.32
402.99	35.12
403.197	34.69
403.404	34.55
403.611	34.86
403.818	34.87
404.025	34.86
404.232	34.86
404.439	34.97
404.646	34.79
404.853	34.72
405.06	34.99
405.267	34.99
405.474	34.86
405.681	35.03
405.887	34.63
406.094	34.7
406.301	34.79
406.508	35.03
406.715	34.75
406.922	34.83
407.128	35.17
407.335	34.96
407.542	34.95
407.749	35.08
407.955	35.03
408.162	35.01
408.369	35.11
408.575	35.4
408.782	35.05
408.989	35.24
409.195	34.94
409.402	34.7
409.609	34.84
409.815	34.78
410.022	35.16
410.228	34.95
410.435	34.7
410.642	34.58
410.848	34.39
411.055	34.48
411.261	34.64
411.468	34.62
411.674	34.54
411.881	34.35
412.087	34.2
412.294	34.07
412.5	34.05
412.706	34.32
412.913	34.03
413.119	33.83
413.326	33.85
413.532	33.63
413.738	34.05
413.945	34.3
414.151	34.74
414.357	35.15
414.564	35.47
414.77	35.5
414.976	35.71
415.182	36.38
415.389	36.59
415.595	36.5
415.801	36.66
416.007	36.29
416.214	36.2
416.42	35.74
416.626	35.46
416.832	34.98
417.038	34.9
417.244	34.73
417.45	34.17
417.657	33.82
417.863	33.67
418.069	33.59
418.275	33.59
418.481	33.39
418.687	33.46
418.893	33.54
419.099	33.59
419.305	33.57
419.511	33.5
419.717	33.62
419.923	33.56
420.129	33.52
420.335	33.32
420.541	33.28
420.746	33.33
420.952	33.27
421.158	33.3
421.364	33.23
421.57	33.18
421.776	33.22
421.982	33.05
422.187	33.21
422.393	33.29
422.599	33.4
422.805	33.39
423.01	33.48
423.216	33.56
423.422	33.35
423.628	33.25
423.833	33.13
424.039	33.03
424.245	33.12
424.45	33.07
424.656	33.01
424.862	32.93
425.067	32.92
425.273	32.84
425.478	32.77
425.684	32.81
425.889	32.91
426.095	33
426.301	32.96
426.506	33.08
426.712	33.05
426.917	32.86
427.123	32.73
427.328	32.72
427.533	32.41
427.739	32.35
427.944	32.32
428.15	32.42
428.355	32.59
428.561	32.63
428.766	32.44
428.971	32.43
429.177	32.53
429.382	32.4
429.587	32.34
429.793	32.52
429.998	32.52
430.203	32.37
430.408	32.52
430.614	32.37
430.819	32.48
431.024	32.5
431.229	32.33
431.434	32.29
431.64	32.82
431.845	33.09
432.05	32.97
432.255	32.83
432.46	33.01
432.665	32.76
432.87	32.55
433.076	32.58
433.281	32.64
433.486	32.71
433.691	32.94
433.896	32.97
434.101	32.61
434.306	32.79
434.511	32.98
434.716	32.73
434.921	32.79
435.126	32.81
435.331	32.54
435.535	32.46
435.74	32.47
435.945	32.11
436.15	31.85
436.355	31.95
436.56	31.98
436.765	32.09
436.97	32.21
437.174	32.05
437.379	32
437.584	32.09
437.789	32.19
437.993	32.01
438.198	32.28
438.403	32.3
438.608	32.27
438.812	32.3
439.017	32.16
439.222	32.21
439.426	32.21
439.631	32.47
439.836	32.61
440.04	32.57
440.245	32.71
440.45	32.55
440.654	32.6
440.859	32.76
441.063	32.69
441.268	32.65
441.472	32.74
441.677	32.73
441.881	32.53
442.086	32.41
442.29	32.6
442.495	32.57
442.699	32.55
442.904	32.51
443.108	32.36
443.312	32.23
443.517	32.21
443.721	32.22
443.925	32.14
444.13	32.23
444.334	32.32
444.538	32.09
444.743	32.02
444.947	32.16
445.151	32.19
445.356	32.37
445.56	32.45
445.764	32.37
445.968	32.24
446.173	32.39
446.377	32.23
446.581	32.06
446.785	31.99
446.989	31.99
447.193	31.95
447.398	31.89
447.602	31.79
447.806	31.71
448.01	31.81
448.214	31.92
448.418	31.93
448.622	32.17
448.826	32.46
449.03	32.48
449.234	32.61
449.438	32.56
449.642	32.55
449.846	32.4
450.05	32.53
450.254	32.3
450.458	32.06
450.662	31.87
450.866	31.68
451.069	31.48
451.273	31.55
451.477	31.54
451.681	31.59
451.885	31.55
452.089	31.66
452.292	31.34
452.496	31.62
452.7	31.65
452.904	31.51
453.107	31.51
453.311	31.45
453.515	31.28
453.719	31.05
453.922	31.24
454.126	31.32
454.33	31.27
454.533	31.41
454.737	31.33
454.94	31.57
455.144	31.55
455.348	31.85
455.551	31.96
455.755	32.19
455.958	32.27
456.162	31.75
456.365	32.03
456.569	31.89
456.772	31.97
456.976	31.73
457.179	31.41
457.383	31.71
457.586	31.62
