Data from 2937818_Reflection_3.txt Node
Date: Wed Jul 15 17:27:12 EDT 2015
User: robert
Spectrometer: USB4E03001
Autoset integration time: false
Trigger mode: 4
Integration Time (sec): 1.000000E-1
Scans to average: 10
Electric dark correction enabled: true
Nonlinearity correction enabled: false
Boxcar width: 5
Stray light correction enabled: false
XAxis mode: Wavelengths
Stop averaging: false
Number of Pixels in Spectrum: 3648
>>>>>Begin Spectral Data<<<<<
177.566	1060.36
177.785	369.18
178.005	323.92
178.225	329.41
178.445	5.09
178.665	200.97
178.885	44.47
179.105	48.48
179.324	13.24
179.544	-0.26
179.764	-1271.14
179.984	292.64
180.204	211.05
180.423	156.03
180.643	121.86
180.863	77.6
181.083	97.44
181.302	79.03
181.522	82.74
181.742	46.08
181.961	64.52
182.181	90.17
182.401	81.11
182.621	33.28
182.84	-0.11
183.06	12.07
183.279	56.99
183.499	33.91
183.719	33.35
183.938	131.84
184.158	114.41
184.377	45.72
184.597	-4563.04
184.816	193.08
185.036	-81.96
185.256	854
185.475	-0.37
185.695	42.04
185.914	-179.02
186.134	43.65
186.353	-178.36
186.572	-54.22
186.792	-52.29
187.011	-23.4
187.231	-7.48
187.45	0.38
187.67	34.77
187.889	59.28
188.108	34.35
188.328	-12.86
188.547	-32.7
188.766	-38.88
188.986	-81.4
189.205	-69.7
189.424	-169.9
189.644	-912.57
189.863	-3094.29
190.082	342.4
190.302	480.23
190.521	665.15
190.74	296.18
190.959	261.2
191.178	317.75
191.398	303.82
191.617	534.68
191.836	632.6
192.055	355.91
192.274	-65.75
192.494	775.49
192.713	534.63
192.932	-491.47
193.151	-65.04
193.37	-45.67
193.589	-18.52
193.808	-28.11
194.027	-7.14
194.246	41.84
194.465	51.71
194.685	-43.27
194.904	-6968.75
195.123	-765.73
195.342	5804.71
195.561	283.95
195.78	-1777.78
195.999	186.8
196.218	131.33
196.436	164.45
196.655	298.59
196.874	225.14
197.093	146.12
197.312	73.8
197.531	41.22
197.75	144.21
197.969	297.36
198.188	133.25
198.407	153.23
198.625	170.22
198.844	169.95
199.063	524.91
199.282	-298.65
199.501	-5.99
199.719	-89.58
199.938	-70.78
200.157	338.78
200.376	-1000.9
200.594	276.07
200.813	133.62
201.032	290.68
201.251	249.46
201.469	-68.24
201.688	-61.53
201.907	16.08
202.125	48.17
202.344	12.2
202.563	16.9
202.781	-50.1
203	-81.34
203.218	34.5
203.437	6.73
203.656	68.16
203.874	47.83
204.093	131.54
204.311	-87.52
204.53	27.32
204.748	77.16
204.967	57.82
205.185	53.07
205.404	74.06
205.622	72.9
205.841	83.14
206.059	69.05
206.278	86.24
206.496	93.96
206.715	69.13
206.933	122.81
207.151	125.06
207.37	251.1
207.588	121.05
207.806	1444.83
208.025	31.48
208.243	-31.86
208.461	190.95
208.68	238.7
208.898	153.45
209.116	43.68
209.335	89.79
209.553	101.73
209.771	99.6
209.989	132.27
210.208	95.11
210.426	63.22
210.644	62.45
210.862	66.88
211.081	89.68
211.299	116.9
211.517	131.08
211.735	143.15
211.953	-40.54
212.171	52.29
212.39	7.9
212.608	-40.33
212.826	-6.2
213.044	-10.57
213.262	-0.49
213.48	-97.81
213.698	-64.81
213.916	-14.71
214.134	-91.21
214.352	-205.74
214.57	-205.98
214.788	-294.4
215.006	-518.97
215.224	-415.83
215.442	-253.14
215.66	-345.67
215.878	-392.01
216.096	-696.36
216.314	229.17
216.532	162.69
216.75	171.24
216.968	103.66
217.185	113.73
217.403	142.58
217.621	72.66
217.839	58.47
218.057	54.51
218.275	50.04
218.492	64.29
218.71	97.98
218.928	151.67
219.146	114.39
219.363	206.24
219.581	1001.61
219.799	779.28
220.017	-84.03
220.234	-23.53
220.452	-361.57
220.67	-1916.82
220.887	946.89
221.105	-387.35
221.323	-643.76
221.54	-196.14
221.758	2597.37
221.976	1136.27
222.193	-606.44
222.411	-791.43
222.629	528.21
222.846	-47.79
223.064	13.7
223.281	-5.14
223.499	23.54
223.716	5.6
223.934	-255.29
224.151	-40.2
224.369	-26.04
224.586	-16.21
224.804	-41.57
225.021	-47.83
225.239	-6.83
225.456	-65.6
225.674	-105.47
225.891	-70.18
226.108	-24.46
226.326	-22.38
226.543	-16.81
226.76	-4.5
226.978	-30.09
227.195	-34.02
227.413	-10.43
227.63	-8.72
227.847	2.89
228.064	-0.77
228.282	3.2
228.499	4.31
228.716	8.29
228.934	5.08
229.151	-0.71
229.368	1.45
229.585	-1.57
229.802	-4.35
230.02	-0.93
230.237	-0.65
230.454	1.64
230.671	3.79
230.888	5.12
231.105	5.71
231.323	4.13
231.54	-0.24
231.757	0.85
231.974	7.98
232.191	3.9
232.408	-10.6
232.625	-13.09
232.842	-13.43
233.059	-24.05
233.276	-27.51
233.493	-23.05
233.71	-25.95
233.927	-24.74
234.144	-23.21
234.361	-24.41
234.578	-23.79
234.795	-14.45
235.012	-13.94
235.229	-9.46
235.446	-11.15
235.663	-6.87
235.879	-7.71
236.096	-1.83
236.313	-3.48
236.53	-15.35
236.747	-14.9
236.964	-13.15
237.181	-12.25
237.397	-19.23
237.614	-19.25
237.831	-16.69
238.048	-19.54
238.264	-33.07
238.481	-30.61
238.698	-16.3
238.915	-17.34
239.131	-10.76
239.348	-1.56
239.565	-6.22
239.781	-5.85
239.998	-15.86
240.215	-9.99
240.431	-12.75
240.648	-14.5
240.865	-11.56
241.081	-8.63
241.298	-8.17
241.514	-6.22
241.731	-8.42
241.947	-8.47
242.164	-4.95
242.38	-0.79
242.597	-2.69
242.814	-0.83
243.03	2.16
243.246	2.31
243.463	1.05
243.679	5.72
243.896	3.7
244.112	6.08
244.329	10.02
244.545	10.53
244.762	9.76
244.978	11.08
245.194	11.49
245.411	11.01
245.627	7.8
245.843	5.65
246.06	5.27
246.276	5.3
246.492	3.41
246.709	2.85
246.925	3.74
247.141	4.55
247.357	3.7
247.574	4.82
247.79	3.65
248.006	6.02
248.222	7.56
248.439	6.52
248.655	5.77
248.871	6.55
249.087	6.73
249.303	4.5
249.519	2.86
249.736	4.69
249.952	0.73
250.168	1.94
250.384	-1.08
250.6	0.36
250.816	1.69
251.032	4.9
251.248	3.18
251.464	3.05
251.68	5.31
251.896	4.77
252.112	1.81
252.328	4.07
252.544	5.57
252.76	6.17
252.976	4.61
253.192	5.24
253.408	4.9
253.624	5.27
253.84	5.11
254.056	5.85
254.272	5.71
254.487	9.02
254.703	12.78
254.919	14.67
255.135	12.92
255.351	4.77
255.567	1.37
255.782	2.56
255.998	5.57
256.214	6.16
256.43	6.04
256.646	9.42
256.861	11.33
257.077	10.23
257.293	6.4
257.508	5.68
257.724	9.98
257.94	10.55
258.155	7.8
258.371	4.94
258.587	2.09
258.802	2.71
259.018	3.21
259.234	2.01
259.449	0.24
259.665	1.12
259.88	3.25
260.096	3.38
260.312	3.55
260.527	4.81
260.743	6.07
260.958	7.26
261.174	6.6
261.389	5.74
261.605	5.16
261.82	4.82
262.036	4.3
262.251	1.95
262.466	1.02
262.682	-0.97
262.897	-3.49
263.113	-7.35
263.328	-7.42
263.543	-7.55
263.759	-9.59
263.974	-9.4
264.189	-7.76
264.405	-4.52
264.62	-3.84
264.835	-2.53
265.051	-1.8
265.266	-0.91
265.481	3.91
265.696	1.68
265.912	1.34
266.127	3.29
266.342	5.05
266.557	6.61
266.773	3.07
266.988	1.32
267.203	0.77
267.418	2.52
267.633	2.84
267.848	0.31
268.064	0.51
268.279	1.59
268.494	3.03
268.709	1.78
268.924	0.22
269.139	0.25
269.354	-1.18
269.569	-1.78
269.784	-4.22
269.999	-5.79
270.214	-6.09
270.429	-4.31
270.644	-5.25
270.859	-5.47
271.074	-4.22
271.289	-4.21
271.504	-2.89
271.719	-1.45
271.934	-2.1
272.149	-0.31
272.363	-0.01
272.578	0.37
272.793	-0.16
273.008	0.45
273.223	0.95
273.438	0.14
273.653	0.55
273.867	-0.54
274.082	0.63
274.297	0.34
274.512	-1.82
274.726	0.15
274.941	-1.66
275.156	-0.38
275.371	0.27
275.585	-1.41
275.8	0.18
276.015	-1.01
276.229	0.5
276.444	-0.79
276.659	2.65
276.873	5.78
277.088	3.07
277.302	5.65
277.517	3.1
277.732	1.79
277.946	0.33
278.161	-1.66
278.375	0.26
278.59	-0.91
278.804	-0.45
279.019	-2.75
279.233	-4.41
279.448	-2.95
279.662	-2.61
279.877	0.62
280.091	1.9
280.306	3.01
280.52	0.67
280.735	0.83
280.949	0.87
281.163	1.42
281.378	1.94
281.592	0.17
281.806	0.54
282.021	-0.09
282.235	-0.14
282.449	-0.88
282.664	-0.79
282.878	3.31
283.092	1.98
283.307	3.87
283.521	3.14
283.735	3.23
283.949	4.59
284.164	4.23
284.378	3.6
284.592	2.63
284.806	3.43
285.02	2.85
285.234	3.08
285.449	3.75
285.663	2.8
285.877	3.23
286.091	3.32
286.305	2.79
286.519	3.74
286.733	4.45
286.947	5.1
287.161	4.47
287.375	4.05
287.589	2.89
287.803	3.11
288.017	2.89
288.231	3.38
288.445	2.62
288.659	2.77
288.873	1.05
289.087	1.79
289.301	1.25
289.515	1.71
289.729	2.35
289.943	2.71
290.157	2.32
290.371	1.38
290.584	0.9
290.798	-0.21
291.012	0.72
291.226	2.37
291.44	2.37
291.654	2.49
291.867	2.72
292.081	3.83
292.295	2.34
292.509	5.87
292.722	7.69
292.936	9.6
293.15	11.2
293.364	9.7
293.577	9.87
293.791	8.23
294.005	8.78
294.218	8.72
294.432	8.9
294.645	11.83
294.859	7.84
295.073	7.55
295.286	5.84
295.5	7.05
295.713	6.95
295.927	5.9
296.14	8.26
296.354	7.53
296.568	7.18
296.781	7.95
296.994	6.99
297.208	7.41
297.421	7.49
297.635	9.03
297.848	9.95
298.062	11.11
298.275	12.22
298.489	10.9
298.702	11.34
298.915	12.44
299.129	13.02
299.342	12.74
299.555	15.15
299.769	14.99
299.982	14.94
300.195	14.94
300.409	15.97
300.622	17.63
300.835	17.91
301.048	18.65
301.262	19.28
301.475	19.21
301.688	19.78
301.901	18.91
302.115	21.71
302.328	21.07
302.541	19.4
302.754	19.02
302.967	15.96
303.18	16.12
303.393	15.86
303.607	15.52
303.82	14.49
304.033	13.2
304.246	11.59
304.459	10.22
304.672	9.45
304.885	11.73
305.098	12.81
305.311	12.66
305.524	13.19
305.737	13.42
305.95	13.32
306.163	12.4
306.376	15.08
306.589	17.22
306.802	17.6
307.015	19.24
307.228	17.68
307.44	16.91
307.653	20.18
307.866	21.07
308.079	22.78
308.292	22.36
308.505	22.31
308.718	24.04
308.93	22.4
309.143	22.94
309.356	21.5
309.569	21.72
309.781	22.36
309.994	21.59
310.207	20.63
310.42	19.22
310.632	19.04
310.845	20.81
311.058	18.15
311.27	20.21
311.483	18.78
311.696	20.97
311.908	20.56
312.121	19
312.333	18.57
312.546	19.39
312.759	20.18
312.971	20.66
313.184	20.02
313.396	21.23
313.609	18.25
313.821	20.3
314.034	17.63
314.246	19.48
314.459	20.7
314.671	22.39
314.884	24.79
315.096	24.43
315.309	23.81
315.521	21.27
315.733	21.22
315.946	23.18
316.158	23.61
316.371	24.34
316.583	23.91
316.795	23.48
317.008	22.96
317.22	20.42
317.432	20.75
317.644	21.33
317.857	22.37
318.069	21.8
318.281	20.73
318.494	19.02
318.706	17.97
318.918	17.97
319.13	19.09
319.342	18.96
319.555	18.6
319.767	19.96
319.979	19.79
320.191	20.69
320.403	20.74
320.615	22.56
320.827	23.31
321.039	25.2
321.252	24.7
321.464	24.12
321.676	22.69
321.888	22.95
322.1	19.69
322.312	17.76
322.524	17.84
322.736	18.2
322.948	17.15
323.16	16.21
323.372	14.19
323.584	13.53
323.796	17.13
324.007	17.87
324.219	17.39
324.431	18.74
324.643	21.58
324.855	21.44
325.067	20.45
325.279	20
325.491	20.83
325.702	22.26
325.914	23.11
326.126	20.04
326.338	20.36
326.55	23.43
326.761	22.75
326.973	22.39
327.185	24.47
327.396	25.36
327.608	26.35
327.82	26.79
328.032	25.82
328.243	26.59
328.455	28.5
328.666	28.18
328.878	26.87
329.09	28.27
329.301	27.92
329.513	25.96
329.725	25.29
329.936	25.98
330.148	26.13
330.359	27.86
330.571	27.44
330.782	26.95
330.994	27.72
331.205	27.2
331.417	29
331.628	29.69
331.84	30.23
332.051	32.43
332.262	33.3
332.474	33.46
332.685	32.77
332.897	33.07
333.108	33.67
333.319	32.36
333.531	33.93
333.742	32
333.953	30.56
334.165	30.54
334.376	30.5
334.587	30.78
334.799	30.43
335.01	29.24
335.221	29.36
335.432	28.44
335.644	31.07
335.855	31.2
336.066	32.44
336.277	34.1
336.488	34.41
336.7	34.3
336.911	32.96
337.122	33.4
337.333	35.41
337.544	34.83
337.755	35.94
337.966	35.74
338.177	34.71
338.388	34.45
338.599	34.62
338.811	35.14
339.022	34.84
339.233	35.46
339.444	36.66
339.655	36.43
339.866	36.85
340.076	36.57
340.287	35.72
340.498	34.79
340.709	35.6
340.92	35.91
341.131	36
341.342	36.54
341.553	36.13
341.764	36.82
341.975	38.62
342.185	38.6
342.396	39
342.607	39.92
342.818	42.04
343.029	42.03
343.239	41.89
343.45	42.63
343.661	42.95
343.872	44.31
344.082	43.66
344.293	41.61
344.504	42.32
344.714	42.64
344.925	41.75
345.136	40.77
345.346	40.94
345.557	40.37
345.768	40.76
345.978	41.26
346.189	40.76
346.399	41.38
346.61	43.09
346.821	44.04
347.031	43.78
347.242	44.06
347.452	43.29
347.663	44.52
347.873	46.27
348.084	45.18
348.294	44.81
348.504	45.18
348.715	44.55
348.925	44.19
349.136	43.62
349.346	43.39
349.557	43.49
349.767	44.97
349.977	44.38
350.188	43.63
350.398	43.12
350.608	42.88
350.819	43.01
351.029	41.64
351.239	41.91
351.449	41.82
351.66	42.96
351.87	42.48
352.08	41.45
352.29	41.25
352.501	40.57
352.711	41.22
352.921	43.21
353.131	42.59
353.341	43.91
353.552	43.07
353.762	44.03
353.972	43.11
354.182	43.13
354.392	43.02
354.602	42.61
354.812	43.37
355.022	45.63
355.232	43.63
355.442	43.97
355.652	43.74
355.862	44.29
356.072	43.93
356.282	44.35
356.492	44.25
356.702	43.26
356.912	42.44
357.122	41.81
357.332	40.11
357.542	40.61
357.752	40.96
357.962	40.98
358.171	41
358.381	39.76
358.591	39.36
358.801	39.61
359.011	40.86
359.221	42.47
359.43	42.69
359.64	42.31
359.85	41.19
360.06	40.2
360.269	39.86
360.479	39.68
360.689	39.81
360.899	39.33
361.108	39.46
361.318	40
361.528	39.99
361.737	40.68
361.947	40.96
362.156	40.74
362.366	40.94
362.576	41.12
362.785	41.89
362.995	43.4
363.204	44.63
363.414	44.21
363.623	43.25
363.833	42.91
364.042	41.67
364.252	41.71
364.461	42.81
364.671	43.66
364.88	43.58
365.09	42.41
365.299	40.31
365.509	38.68
365.718	39.13
365.927	39.75
366.137	39.31
366.346	39.63
366.555	40.25
366.765	40.21
366.974	40.36
367.183	40.28
367.393	40.31
367.602	41.38
367.811	41.37
368.021	41.26
368.23	39.69
368.439	39.23
368.648	38.31
368.857	37.24
369.067	36.1
369.276	35.32
369.485	35.07
369.694	35.41
369.903	35.43
370.112	35.63
370.321	35.81
370.531	37.05
370.74	37.32
370.949	37.56
371.158	37.08
371.367	37.37
371.576	36.72
371.785	37.22
371.994	36.31
372.203	35.99
372.412	36.73
372.621	36.73
372.83	36
373.039	35.93
373.248	36.1
373.457	35.98
373.666	36.48
373.874	36.97
374.083	36.35
374.292	36.78
374.501	36.95
374.71	35.53
374.919	35.56
375.128	36
375.336	35.86
375.545	36.15
375.754	36.99
375.963	37.25
376.171	36.66
376.38	36.75
376.589	35.86
376.798	35.14
377.006	35.7
377.215	35.32
377.424	34.19
377.632	33.78
377.841	34.04
378.05	33.84
378.258	33.06
378.467	32.63
378.675	32.55
378.884	32.72
379.093	32.71
379.301	32.08
379.51	32.23
379.718	33.34
379.927	33.01
380.135	32.44
380.344	31.94
380.552	31.78
380.761	32.42
380.969	32.62
381.177	32.54
381.386	33.18
381.594	33.31
381.803	32.41
382.011	31.75
382.219	32.17
382.428	32.08
382.636	32.01
382.845	31.96
383.053	31.39
383.261	30.44
383.469	30.69
383.678	29.66
383.886	29.45
384.094	29.21
384.302	29.63
384.511	28.9
384.719	28.96
384.927	29.14
385.135	28.85
385.343	28.64
385.552	29.08
385.76	28.8
385.968	29.02
386.176	28.8
386.384	29.68
386.592	29.32
386.8	29.97
387.008	29.54
387.216	29.39
387.424	29.55
387.633	29.78
387.841	29.31
388.049	28.76
388.257	28.54
388.465	28.73
388.672	28.09
388.88	28.26
389.088	27.72
389.296	27.3
389.504	27.15
389.712	26.77
389.92	26.36
390.128	26.63
390.336	27.09
390.544	27.07
390.751	27.27
390.959	27.45
391.167	27.19
391.375	27.3
391.583	27.67
391.79	27.21
391.998	27.09
392.206	27.27
392.414	27.34
392.621	27.63
392.829	27.66
393.037	27.61
393.244	27.03
393.452	27.06
393.66	26.84
393.867	26.88
394.075	27.12
394.283	27.65
394.49	27.69
394.698	27.61
394.905	27.33
395.113	27.34
395.32	27.19
395.528	27.87
395.735	27.64
395.943	27.94
396.15	27.85
396.358	27.94
396.565	27.92
396.773	28.34
396.98	28.3
397.188	28.27
397.395	28.4
397.602	28.85
397.81	28.79
398.017	29
398.225	28.81
398.432	29.01
398.639	28.64
398.847	28.66
399.054	28.56
399.261	28.61
399.468	28.53
399.676	28.93
399.883	28.63
400.09	28.33
400.297	28.69
400.505	28.78
400.712	28.65
400.919	28.95
401.126	28.56
401.333	28.35
401.54	28.38
401.748	28.53
401.955	28.41
402.162	28.6
402.369	28.77
402.576	28.62
402.783	28.79
402.99	28.77
403.197	28.97
403.404	29.26
403.611	29.08
403.818	29.18
404.025	29.43
404.232	29.24
404.439	29.29
404.646	29.09
404.853	29.09
405.06	29.14
405.267	29.22
405.474	29.3
405.681	29.18
405.887	29.41
406.094	29.1
406.301	28.72
406.508	28.76
406.715	28.62
406.922	28.8
407.128	28.6
407.335	28.58
407.542	28.51
407.749	28.41
407.955	28.87
408.162	28.48
408.369	28.74
408.575	28.84
408.782	28.64
408.989	28.51
409.195	28.65
409.402	28.67
409.609	28.51
409.815	28.52
410.022	28.52
410.228	28.43
410.435	28.85
410.642	28.76
410.848	29.08
411.055	29.5
411.261	29.3
411.468	29.04
411.674	28.99
411.881	28.64
412.087	28.76
412.294	28.68
412.5	28.67
412.706	28.74
412.913	28.69
413.119	28.18
413.326	28.02
413.532	28.37
413.738	28.4
413.945	28.44
414.151	28.32
414.357	28.3
414.564	28.1
414.77	27.99
414.976	27.83
415.182	27.72
415.389	27.8
415.595	27.55
415.801	27.4
416.007	27.6
416.214	27.69
416.42	28.15
416.626	27.88
416.832	28.07
417.038	28.07
417.244	28.01
417.45	28.05
417.657	28.27
417.863	28.35
418.069	28.27
418.275	28.2
418.481	28.1
418.687	28.18
418.893	28.15
419.099	28.01
419.305	28
419.511	27.92
419.717	27.94
419.923	27.76
420.129	27.71
420.335	27.78
420.541	27.79
420.746	27.87
420.952	27.68
421.158	27.67
421.364	27.61
421.57	27.51
421.776	27.39
421.982	27.5
422.187	27.57
422.393	27.48
422.599	27.41
422.805	27.23
423.01	27.24
423.216	27.36
423.422	27.38
423.628	27.51
423.833	27.46
424.039	27.5
424.245	27.39
424.45	27.19
424.656	27.19
424.862	27.12
425.067	27.18
425.273	27.05
425.478	27.14
425.684	27.13
425.889	27.09
426.095	27.17
426.301	27.26
426.506	27.07
426.712	27.08
426.917	27.14
427.123	27.08
427.328	27.09
427.533	27.17
427.739	26.9
427.944	26.8
428.15	26.51
428.355	26.31
428.561	26.14
428.766	26.26
428.971	26.37
429.177	26.14
429.382	26.24
429.587	26.22
429.793	26.01
429.998	25.92
430.203	25.99
430.408	26.2
430.614	26.2
430.819	26.23
431.024	26.38
431.229	26.4
431.434	26.57
431.64	26.44
431.845	26.63
432.05	26.67
432.255	26.61
432.46	26.49
432.665	26.36
432.87	26.41
433.076	26.35
433.281	26.11
433.486	26.11
433.691	26.01
433.896	26.01
434.101	25.77
434.306	25.57
434.511	25.65
434.716	25.77
434.921	25.85
435.126	25.91
435.331	26.06
435.535	25.99
435.74	25.86
435.945	26.05
436.15	26.15
436.355	26.14
436.56	26.46
436.765	26.51
436.97	26.31
437.174	26.28
437.379	26.09
437.584	25.81
437.789	26.02
437.993	26.1
438.198	26.22
438.403	26.12
438.608	26.22
438.812	26.15
439.017	26.3
439.222	26.45
439.426	26.48
439.631	26.59
439.836	26.7
440.04	26.7
440.245	26.66
440.45	26.46
440.654	26.53
440.859	26.54
441.063	26.44
441.268	26.23
441.472	26.36
441.677	26.23
441.881	26.29
442.086	26.35
442.29	26.32
442.495	26.32
442.699	26.46
442.904	26.4
443.108	26.3
443.312	26.5
443.517	26.61
443.721	26.46
443.925	26.42
444.13	26.36
444.334	26.31
444.538	26.27
444.743	26.29
444.947	26.11
445.151	26.25
445.356	26.38
445.56	26.44
445.764	26.45
445.968	26.39
446.173	26.35
446.377	26.29
446.581	26.33
446.785	26.36
446.989	26.27
447.193	26.32
447.398	26.15
447.602	26
447.806	25.8
448.01	25.69
448.214	25.72
448.418	25.81
448.622	25.84
448.826	25.67
449.03	25.52
449.234	25.5
449.438	25.41
449.642	25.63
449.846	25.64
450.05	25.62
450.254	25.51
450.458	25.49
450.662	25.32
450.866	25.06
451.069	25.14
451.273	25.22
451.477	25.24
451.681	25.23
451.885	24.94
452.089	24.94
452.292	24.91
452.496	24.97
452.7	24.83
452.904	24.83
453.107	24.97
453.311	24.99
453.515	24.96
453.719	25.02
453.922	24.9
454.126	24.85
454.33	24.72
454.533	24.64
454.737	24.45
454.94	24.57
455.144	24.75
455.348	24.74
455.551	24.64
455.755	24.65
455.958	24.52
456.162	24.74
456.365	24.87
456.569	24.92
456.772	25.17
456.976	25.43
457.179	25.51
457.383	25.64
457.586	25.62
