Data from 2937843_Reflection_2.txt Node
Date: Wed Jul 15 16:11:28 EDT 2015
User: robert
Spectrometer: USB4E03001
Autoset integration time: false
Trigger mode: 4
Integration Time (sec): 1.000000E-1
Scans to average: 10
Electric dark correction enabled: true
Nonlinearity correction enabled: false
Boxcar width: 5
Stray light correction enabled: false
XAxis mode: Wavelengths
Stop averaging: false
Number of Pixels in Spectrum: 3648
>>>>>Begin Spectral Data<<<<<
177.566	34.76
177.785	6.95
178.005	32.53
178.225	-877.63
178.445	-161.53
178.665	-81.79
178.885	62.02
179.105	79.96
179.324	58.09
179.544	1971.87
179.764	187.57
179.984	69.95
180.204	54.67
180.423	21.35
180.643	-19.15
180.863	30.23
181.083	57.54
181.302	163.24
181.522	170.68
181.742	112.26
181.961	83.74
182.181	-5348.15
182.401	102.67
182.621	3.25
182.84	858.47
183.06	75.57
183.279	18.66
183.499	12.64
183.719	-46.44
183.938	8.56
184.158	17.11
184.377	39.52
184.597	59.29
184.816	32.72
185.036	50.67
185.256	46.02
185.475	47
185.695	107.4
185.914	90.75
186.134	305.77
186.353	4507.59
186.572	312.06
186.792	86.6
187.011	182.7
187.231	469.35
187.45	299.75
187.67	168.46
187.889	64.31
188.108	21.7
188.328	-5.76
188.547	-72.8
188.766	-55.95
188.986	-36.24
189.205	108.03
189.424	173.71
189.644	225
189.863	210.34
190.082	103.42
190.302	0.74
190.521	-12.95
190.74	-90.67
190.959	-80.38
191.178	-530.95
191.398	-89.47
191.617	2716.67
191.836	-846.45
192.055	118.69
192.274	255.87
192.494	363.19
192.713	-677.04
192.932	165.64
193.151	128.53
193.37	260.06
193.589	133.77
193.808	77.53
194.027	53.33
194.246	-27.04
194.465	-47.94
194.685	4645
194.904	311.84
195.123	-673.73
195.342	2307.18
195.561	218.68
195.78	287.8
195.999	281.86
196.218	-4855.26
196.436	150.77
196.655	111.77
196.874	267.19
197.093	11311.11
197.312	-656.86
197.531	184.21
197.75	174.04
197.969	141.05
198.188	146.89
198.407	95.68
198.625	92.69
198.844	82.92
199.063	73.55
199.282	70.16
199.501	61.11
199.719	20.79
199.938	-15.41
200.157	-45.78
200.376	-68.89
200.594	-74.47
200.813	627.12
201.032	231.81
201.251	243.02
201.469	493.44
201.688	343.53
201.907	58.72
202.125	613.49
202.344	-114.88
202.563	-378.12
202.781	-24176
203	-113.75
203.218	-136.29
203.437	24.1
203.656	17.52
203.874	37.49
204.093	34.86
204.311	78.35
204.53	86.22
204.748	172.47
204.967	2382.58
205.185	-247.27
205.404	-14.94
205.622	55.62
205.841	135.19
206.059	110.65
206.278	101.01
206.496	131.29
206.715	97.17
206.933	126.64
207.151	145.94
207.37	158.35
207.588	166.33
207.806	176.01
208.025	129.66
208.243	109.33
208.461	98.37
208.68	112.85
208.898	92.43
209.116	100.15
209.335	68.12
209.553	83.18
209.771	78.78
209.989	53.19
210.208	4.54
210.426	37.24
210.644	-3.15
210.862	28.04
211.081	-34.56
211.299	18.94
211.517	55.01
211.735	671.33
211.953	817.65
212.171	-25.1
212.39	-357.88
212.608	6388.98
212.826	2251.06
213.044	391.26
213.262	275.21
213.48	413.86
213.698	-2579.38
213.916	272.51
214.134	171.63
214.352	252.78
214.57	436.98
214.788	-189.28
215.006	-143.73
215.224	1177.19
215.442	1392.33
215.66	-149.32
215.878	-271.05
216.096	-1473.29
216.314	-368.91
216.532	-172.42
216.75	-208.26
216.968	1785.59
217.185	214.07
217.403	144.02
217.621	-158.26
217.839	85.05
218.057	3.24
218.275	-236.73
218.492	22.59
218.71	-465.36
218.928	-212.55
219.146	70.27
219.363	56.77
219.581	30.68
219.799	59.84
220.017	61.13
220.234	71.46
220.452	79.5
220.67	55.72
220.887	61.83
221.105	87.07
221.323	79.49
221.54	60.68
221.758	51.1
221.976	66.17
222.193	75.05
222.411	77.97
222.629	92.33
222.846	83.5
223.064	123.96
223.281	103.71
223.499	88.84
223.716	72.9
223.934	67.91
224.151	66.7
224.369	74.1
224.586	59.68
224.804	25.61
225.021	27.06
225.239	25.29
225.456	-1.15
225.674	-4.03
225.891	-10.5
226.108	10.72
226.326	14.24
226.543	24.91
226.76	6.95
226.978	5.82
227.195	14.59
227.413	15.45
227.63	12
227.847	16.06
228.064	13.54
228.282	16.83
228.499	15.54
228.716	12.6
228.934	11.32
229.151	13.64
229.368	12.38
229.585	14.27
229.802	16.18
230.02	19.61
230.237	16.18
230.454	18.34
230.671	15.11
230.888	17.48
231.105	22.6
231.323	18.9
231.54	20.57
231.757	21.53
231.974	19.67
232.191	21.2
232.408	19.71
232.625	25.74
232.842	25.11
233.059	15.26
233.276	6.96
233.493	-2.16
233.71	6.86
233.927	4.65
234.144	12.04
234.361	9.85
234.578	2.69
234.795	-3.18
235.012	0.22
235.229	5.46
235.446	9.22
235.663	12.31
235.879	16.59
236.096	17.7
236.313	18.44
236.53	15.77
236.747	15.76
236.964	21.8
237.181	23.19
237.397	21.96
237.614	19.01
237.831	28.35
238.048	25.85
238.264	26.29
238.481	27.47
238.698	28.22
238.915	25.06
239.131	32.31
239.348	33.16
239.565	36.2
239.781	28.03
239.998	28.93
240.215	29.55
240.431	30.62
240.648	27.73
240.865	25.05
241.081	23.68
241.298	22.15
241.514	19.73
241.731	19.69
241.947	19.26
242.164	18.83
242.38	17.48
242.597	16.02
242.814	16.38
243.03	16.17
243.246	17.93
243.463	17.71
243.679	18
243.896	16.94
244.112	15.7
244.329	13.46
244.545	14.96
244.762	14.24
244.978	11.38
245.194	9.06
245.411	10.3
245.627	8.96
245.843	10.91
246.06	12.38
246.276	13.69
246.492	14
246.709	15.38
246.925	16.5
247.141	17.33
247.357	19.19
247.574	18.43
247.79	17.42
248.006	17.07
248.222	18
248.439	18.91
248.655	17.98
248.871	17.01
249.087	16.63
249.303	15.92
249.519	14.91
249.736	13.76
249.952	15.9
250.168	17.26
250.384	18.27
250.6	16.86
250.816	13.84
251.032	16.17
251.248	16.7
251.464	15.81
251.68	15.4
251.896	18.04
252.112	15.09
252.328	14.53
252.544	12.93
252.76	13.64
252.976	13.87
253.192	13.48
253.408	13.36
253.624	10.55
253.84	12.7
254.056	14.53
254.272	11.02
254.487	13.82
254.703	16.77
254.919	19.27
255.135	19.41
255.351	15.1
255.567	19.73
255.782	19.46
255.998	21.39
256.214	18.78
256.43	16.52
256.646	13.77
256.861	11.5
257.077	8.79
257.293	12.77
257.508	11.75
257.724	12.83
257.94	12.97
258.155	14.16
258.371	14.96
258.587	13.73
258.802	13.43
259.018	14.47
259.234	14.32
259.449	14.44
259.665	12.79
259.88	12.66
260.096	13.09
260.312	11.78
260.527	10.4
260.743	11
260.958	11.62
261.174	11.69
261.389	11.92
261.605	11.76
261.82	11.27
262.036	12.17
262.251	12.68
262.466	12.15
262.682	12.25
262.897	13.55
263.113	12.98
263.328	12.11
263.543	12.68
263.759	12.86
263.974	12.81
264.189	13.67
264.405	13.61
264.62	11.92
264.835	12.06
265.051	13.17
265.266	13.28
265.481	14.68
265.696	14.91
265.912	14.03
266.127	12.87
266.342	13.71
266.557	12.86
266.773	11.42
266.988	11.89
267.203	12.47
267.418	12.06
267.633	10.36
267.848	9.1
268.064	10.21
268.279	9.89
268.494	11.44
268.709	9.68
268.924	9.68
269.139	11.12
269.354	11.03
269.569	9.68
269.784	10.77
269.999	11.03
270.214	10.47
270.429	9.13
270.644	9.87
270.859	11.2
271.074	13.06
271.289	13.87
271.504	12.56
271.719	13.99
271.934	15.02
272.149	15.43
272.363	15.9
272.578	16.84
272.793	17.19
273.008	16.99
273.223	15.5
273.438	13.82
273.653	13.25
273.867	13.61
274.082	12.39
274.297	11.99
274.512	10.13
274.726	11.29
274.941	10.94
275.156	10.3
275.371	10.2
275.585	9.44
275.8	10.77
276.015	10
276.229	11.19
276.444	10.63
276.659	9.89
276.873	10.89
277.088	10.13
277.302	8.93
277.517	9.34
277.732	10.05
277.946	9.64
278.161	10.18
278.375	13.19
278.59	12.04
278.804	11.14
279.019	11.06
279.233	11.37
279.448	12.29
279.662	13.65
279.877	15.87
280.091	14.55
280.306	16.71
280.52	17.37
280.735	15.93
280.949	14.86
281.163	17.16
281.378	18.65
281.592	17.88
281.806	16.57
282.021	15.56
282.235	14.77
282.449	15.84
282.664	15.17
282.878	12.92
283.092	13.15
283.307	13.23
283.521	11.98
283.735	9.77
283.949	9.89
284.164	10.87
284.378	10.33
284.592	9.71
284.806	7.62
285.02	8.34
285.234	9.46
285.449	9.38
285.663	11.34
285.877	11.2
286.091	12.4
286.305	12.41
286.519	12.5
286.733	12.79
286.947	11.67
287.161	13.38
287.375	11.43
287.589	12.5
287.803	10.94
288.017	10.51
288.231	11.36
288.445	10.69
288.659	12.05
288.873	12.05
289.087	13.71
289.301	14.74
289.515	15.44
289.729	14.65
289.943	13.95
290.157	15.08
290.371	13.98
290.584	13.97
290.798	15.72
291.012	14.9
291.226	13.9
291.44	12.26
291.654	12.83
291.867	12.32
292.081	14.74
292.295	16.92
292.509	18.83
292.722	18.94
292.936	18.26
293.15	19.16
293.364	18.99
293.577	18.31
293.791	18.63
294.005	17.21
294.218	15.41
294.432	14.56
294.645	12.3
294.859	9.86
295.073	9.44
295.286	9.54
295.5	6.79
295.713	7.85
295.927	8.63
296.14	9.08
296.354	10.41
296.568	12.3
296.781	12.71
296.994	12.76
297.208	13.5
297.421	14.02
297.635	14.11
297.848	14.25
298.062	14.13
298.275	14.63
298.489	14.71
298.702	13.5
298.915	13.12
299.129	14.96
299.342	15.15
299.555	15.3
299.769	14.99
299.982	15.14
300.195	15.75
300.409	14.92
300.622	13.67
300.835	13.83
301.048	15.42
301.262	13.44
301.475	11.87
301.688	11.83
301.901	10.45
302.115	10.88
302.328	11.33
302.541	9.83
302.754	10.54
302.967	11.29
303.18	10.31
303.393	7.83
303.607	8.7
303.82	8.19
304.033	8.33
304.246	9.74
304.459	9.19
304.672	8.97
304.885	10.59
305.098	10.05
305.311	10.84
305.524	12.34
305.737	15.87
305.95	15.47
306.163	15.55
306.376	15.77
306.589	16.77
306.802	15.8
307.015	15.28
307.228	13.95
307.44	14.42
307.653	15.29
307.866	15.07
308.079	13.56
308.292	14.96
308.505	15.11
308.718	15.09
308.93	13.51
309.143	13.96
309.356	13.51
309.569	12.85
309.781	11.79
309.994	11.69
310.207	10.8
310.42	12.41
310.632	13.59
310.845	13.85
311.058	11.97
311.27	13.22
311.483	13.77
311.696	14.1
311.908	16.17
312.121	16.02
312.333	14.04
312.546	14.32
312.759	13.41
312.971	11.32
313.184	10.81
313.396	13.27
313.609	11.92
313.821	12.41
314.034	12.43
314.246	12.5
314.459	12.97
314.671	16.74
314.884	16.84
315.096	19.02
315.309	19.33
315.521	18.18
315.733	17.84
315.946	17.81
316.158	17
316.371	18.84
316.583	18.17
316.795	18.58
317.008	16.21
317.22	17.58
317.432	13.83
317.644	12.53
317.857	12.83
318.069	11.43
318.281	12.97
318.494	14.78
318.706	13.57
318.918	12.16
319.13	10.72
319.342	10.68
319.555	10.14
319.767	10.78
319.979	14.69
320.191	15.94
320.403	16.55
320.615	15.86
320.827	14.3
321.039	14.25
321.252	15.36
321.464	16.86
321.676	16.31
321.888	17.01
322.1	16.41
322.312	14.5
322.524	14.16
322.736	14.37
322.948	14.36
323.16	13.71
323.372	13.76
323.584	15.74
323.796	14.82
324.007	15.88
324.219	13.47
324.431	13.65
324.643	13.91
324.855	13.83
325.067	14.8
325.279	14.02
325.491	14.84
325.702	14.37
325.914	12.57
326.126	12.26
326.338	12.27
326.55	13.83
326.761	14.06
326.973	13.66
327.185	14.52
327.396	14.2
327.608	13.24
327.82	13
328.032	12.6
328.243	13.07
328.455	14.35
328.666	14.13
328.878	13.24
329.09	11.61
329.301	11.37
329.513	10.42
329.725	10.19
329.936	11.05
330.148	12.44
330.359	13.37
330.571	14.55
330.782	13.26
330.994	13.19
331.205	13.52
331.417	15.37
331.628	14.52
331.84	15.51
332.051	14.12
332.262	14.54
332.474	13.92
332.685	13.36
332.897	11.12
333.108	13.65
333.319	13.61
333.531	14.15
333.742	13.53
333.953	14.87
334.165	12.75
334.376	14.33
334.587	15.24
334.799	14.74
335.01	14.66
335.221	14.46
335.432	13
335.644	13.06
335.855	11.45
336.066	12.36
336.277	11.15
336.488	13.98
336.7	13.73
336.911	14.43
337.122	16.14
337.333	16.63
337.544	17.52
337.755	18.02
337.966	18.29
338.177	20.72
338.388	19.86
338.599	21.8
338.811	20.67
339.022	20.56
339.233	19.27
339.444	18.4
339.655	19.51
339.866	20.25
340.076	19.88
340.287	20.52
340.498	19.32
340.709	19.12
340.92	18.16
341.131	17.28
341.342	17.37
341.553	17.66
341.764	17.38
341.975	15.99
342.185	14.06
342.396	13.97
342.607	13.89
342.818	15.36
343.029	16.51
343.239	16.95
343.45	16.8
343.661	16.85
343.872	17.16
344.082	18.11
344.293	18.79
344.504	20.19
344.714	21.13
344.925	19.65
345.136	19.15
345.346	18.63
345.557	17.98
345.768	19.32
345.978	18.68
346.189	17.73
346.399	16.83
346.61	16.6
346.821	16.16
347.031	16.09
347.242	16.47
347.452	16.65
347.663	16.2
347.873	16.63
348.084	16.68
348.294	17.45
348.504	18.9
348.715	19.06
348.925	18.17
349.136	18.27
349.346	17.24
349.557	17.36
349.767	16
349.977	16.56
350.188	16.16
350.398	14.8
350.608	16.23
350.819	16.18
351.029	15.79
351.239	16.28
351.449	17.19
351.66	18.05
351.87	18.8
352.08	19.22
352.29	19.37
352.501	20.17
352.711	20.61
352.921	18.94
353.131	19.55
353.341	19.59
353.552	20.95
353.762	20.07
353.972	20.23
354.182	20.34
354.392	20.78
354.602	21
354.812	20.86
355.022	21.44
355.232	21.66
355.442	20.95
355.652	21.98
355.862	21.37
356.072	21.11
356.282	20.54
356.492	20.88
356.702	20.59
356.912	20.3
357.122	19.23
357.332	19.11
357.542	19.26
357.752	18.44
357.962	17.16
358.171	16.81
358.381	16.77
358.591	17.55
358.801	17.41
359.011	17.82
359.221	17.83
359.43	18.06
359.64	18.06
359.85	18.64
360.06	19.14
360.269	19.61
360.479	20.16
360.689	19.77
360.899	19.74
361.108	18.6
361.318	18.12
361.528	18.77
361.737	19.27
361.947	18.46
362.156	18.09
362.366	17.97
362.576	17.54
362.785	16.83
362.995	17.54
363.204	16.92
363.414	17.97
363.623	17.81
363.833	17.34
364.042	17.2
364.252	17.34
364.461	16.99
364.671	17.35
364.88	17.81
365.09	17.45
365.299	17.48
365.509	17.82
365.718	17.17
365.927	16.87
366.137	16.43
366.346	16.41
366.555	16
366.765	16.68
366.974	15.93
367.183	15.89
367.393	16.55
367.602	16.65
367.811	15.16
368.021	15.51
368.23	16.05
368.439	16.63
368.648	16.42
368.857	17.53
369.067	17.41
369.276	17.56
369.485	16.31
369.694	16.3
369.903	16.38
370.112	18.08
370.321	17.8
370.531	17.16
370.74	16.36
370.949	16.49
371.158	15.26
371.367	14.34
371.576	14.23
371.785	15.41
371.994	14.92
372.203	14.44
372.412	13.47
372.621	12.9
372.83	13.63
373.039	13.69
373.248	13.16
373.457	14.46
373.666	14.52
373.874	14.74
374.083	13.98
374.292	14.15
374.501	13.83
374.71	14.59
374.919	14.52
375.128	14.31
375.336	14.88
375.545	14.86
375.754	14.36
375.963	14.42
376.171	14.54
376.38	14.87
376.589	14.47
376.798	14.42
377.006	13.28
377.215	13.64
377.424	13.14
377.632	12.79
377.841	12.6
378.05	12.44
378.258	12.25
378.467	12.15
378.675	11.68
378.884	12.24
379.093	12.48
379.301	13.51
379.51	13.49
379.718	13.57
379.927	13.26
380.135	13.29
380.344	13.1
380.552	13.06
380.761	13.03
380.969	13.18
381.177	13.44
381.386	13.31
381.594	12.6
381.803	11.77
382.011	12.06
382.219	12.37
382.428	12.42
382.636	12.55
382.845	12.64
383.053	12.66
383.261	13.11
383.469	13.18
383.678	12.94
383.886	13.29
384.094	13.97
384.302	14.42
384.511	13.8
384.719	13.7
384.927	13.43
385.135	13.1
385.343	12.75
385.552	11.94
385.76	11.19
385.968	10.98
386.176	10.95
386.384	11.02
386.592	10.26
386.8	10.72
387.008	10.93
387.216	10.92
387.424	10.59
387.633	10.27
387.841	10.88
388.049	11.45
388.257	11.31
388.465	11.09
388.672	10.79
388.88	10.88
389.088	10.62
389.296	10.39
389.504	10.39
389.712	10.7
389.92	10.83
390.128	10.57
390.336	10.27
390.544	10.34
390.751	10.39
390.959	10.12
391.167	10.1
391.375	10.11
391.583	9.82
391.79	9.78
391.998	10.39
392.206	10.45
392.414	10.2
392.621	10.09
392.829	10.31
393.037	9.96
393.244	10.28
393.452	10.12
393.66	9.75
393.867	10.1
394.075	9.99
394.283	9.53
394.49	9.42
394.698	9.48
394.905	9.5
395.113	9.55
395.32	9.67
395.528	9.4
395.735	9.45
395.943	9.67
396.15	9.43
396.358	9.44
396.565	9.42
396.773	9.58
396.98	9.24
397.188	8.93
397.395	8.42
397.602	8.57
397.81	8.61
398.017	8.51
398.225	8.23
398.432	8.26
398.639	8.5
398.847	8.5
399.054	7.71
399.261	7.98
399.468	7.82
399.676	7.86
399.883	7.23
400.09	7.13
400.297	6.93
400.505	7.27
400.712	7.32
400.919	7.25
401.126	7.17
401.333	7.74
401.54	7.67
401.748	7.96
401.955	8.15
402.162	8.63
402.369	8.91
402.576	8.75
402.783	8.58
402.99	8.69
403.197	8.16
403.404	8.19
403.611	8.39
403.818	8.54
404.025	8.52
404.232	8.52
404.439	8.62
404.646	8.3
404.853	8.52
405.06	8.79
405.267	8.55
405.474	8.65
405.681	8.69
405.887	8.24
406.094	7.92
406.301	7.8
406.508	7.91
406.715	7.72
406.922	7.98
407.128	7.98
407.335	8
407.542	7.95
407.749	8.23
407.955	8
408.162	8.29
408.369	8.71
408.575	8.68
408.782	8.23
408.989	8.19
409.195	7.83
409.402	7.69
409.609	7.25
409.815	7.2
410.022	6.95
410.228	7.11
410.435	7.17
410.642	6.86
410.848	6.95
411.055	7.15
411.261	7.46
411.468	7.61
411.674	7.83
411.881	7.78
412.087	8.16
412.294	8.31
412.5	8.25
412.706	8.24
412.913	8.37
413.119	8.02
413.326	7.95
413.532	7.64
413.738	7.84
413.945	7.59
414.151	7.87
414.357	7.85
414.564	7.89
414.77	7.97
414.976	7.82
415.182	7.76
415.389	8.08
415.595	7.91
415.801	7.94
416.007	7.77
416.214	7.97
416.42	7.72
416.626	7.64
416.832	7.45
417.038	7.2
417.244	7.44
417.45	7.38
417.657	7.27
417.863	7.34
418.069	7.31
418.275	7.2
418.481	7.07
418.687	7.23
418.893	7.04
419.099	7.27
419.305	7.39
419.511	7.29
419.717	7.36
419.923	7.37
420.129	7.45
420.335	7.38
420.541	7.45
420.746	7.47
420.952	7.52
421.158	7.61
421.364	7.41
421.57	7.35
421.776	7.26
421.982	7.26
422.187	7.16
422.393	7.12
422.599	7.1
422.805	7.13
423.01	7.12
423.216	6.99
423.422	6.95
423.628	7.21
423.833	7.4
424.039	7.4
424.245	7.48
424.45	7.62
424.656	7.77
424.862	7.84
425.067	7.78
425.273	7.8
425.478	7.67
425.684	7.69
425.889	7.52
426.095	7.22
426.301	7.2
426.506	7.1
426.712	7.05
426.917	6.88
427.123	6.57
427.328	6.75
427.533	6.74
427.739	6.87
427.944	6.93
428.15	6.91
428.355	7.19
428.561	7.13
428.766	6.87
428.971	6.77
429.177	6.72
429.382	7.21
429.587	6.9
429.793	6.93
429.998	7.12
430.203	7.03
430.408	7
430.614	6.79
430.819	6.97
431.024	7.26
431.229	7.22
431.434	7.38
431.64	7.37
431.845	7.51
432.05	7.44
432.255	7.36
432.46	7.46
432.665	7.41
432.87	7.56
433.076	7.68
433.281	7.47
433.486	7.53
433.691	7.3
433.896	7.06
434.101	7
434.306	6.95
434.511	6.9
434.716	6.73
434.921	6.72
435.126	6.69
435.331	6.52
435.535	6.69
435.74	6.83
435.945	6.95
436.15	7.03
436.355	7.03
436.56	7.07
436.765	7.08
436.97	7.07
437.174	7.2
437.379	6.95
437.584	6.8
437.789	6.71
437.993	6.67
438.198	6.55
438.403	6.48
438.608	6.51
438.812	6.49
439.017	6.65
439.222	6.81
439.426	6.72
439.631	6.9
439.836	6.99
440.04	7.14
440.245	7.15
440.45	7.14
440.654	7.3
440.859	7.19
441.063	7.36
441.268	7.23
441.472	7.07
441.677	7.24
441.881	7.26
442.086	7.27
442.29	7.17
442.495	7.08
442.699	6.98
442.904	7.07
443.108	7.12
443.312	6.86
443.517	6.92
443.721	7.04
443.925	6.88
444.13	6.77
444.334	6.64
444.538	6.6
444.743	6.53
444.947	6.67
445.151	6.53
445.356	6.42
445.56	6.45
445.764	6.43
445.968	6.41
446.173	6.39
446.377	6.48
446.581	6.55
446.785	6.65
446.989	6.66
447.193	6.65
447.398	6.39
447.602	6.63
447.806	6.65
448.01	6.6
448.214	6.49
448.418	6.45
448.622	6.3
448.826	6.22
449.03	6.08
449.234	6.16
449.438	6.35
449.642	6.61
449.846	6.55
450.05	6.63
450.254	6.57
450.458	6.75
450.662	6.8
450.866	6.91
451.069	6.98
451.273	6.9
451.477	6.79
451.681	6.67
451.885	6.87
452.089	6.74
452.292	6.52
452.496	6.65
452.7	6.45
452.904	6.41
453.107	6.26
453.311	6.36
453.515	6.49
453.719	6.53
453.922	6.33
454.126	6.1
454.33	5.94
454.533	6.26
454.737	6.14
454.94	6.13
455.144	6.09
455.348	6.15
455.551	5.89
455.755	5.8
455.958	5.68
456.162	5.68
456.365	5.63
456.569	6
456.772	5.94
456.976	6.05
457.179	6.01
457.383	6.17
457.586	6.32
457.79	6.41
457.993	6.41
458.196	6.43
458.4	6.54
458.603	6.73
458.807	6.52
459.01	6.55
459.213	6.52
459.417	6.62
459.62	6.66
459.823	6.65
460.026	6.87
460.23	6.9
460.433	7.02
460.636	7.04
