Data from 2937827_Reflection_3.txt Node
Date: Wed Jul 15 16:59:04 EDT 2015
User: robert
Spectrometer: USB4E03001
Autoset integration time: false
Trigger mode: 4
Integration Time (sec): 1.000000E-1
Scans to average: 10
Electric dark correction enabled: true
Nonlinearity correction enabled: false
Boxcar width: 5
Stray light correction enabled: false
XAxis mode: Wavelengths
Stop averaging: false
Number of Pixels in Spectrum: 3648
>>>>>Begin Spectral Data<<<<<
177.566	58.26
177.785	54.73
178.005	43.78
178.225	53.77
178.445	70.35
178.665	60.28
178.885	152.42
179.105	70.33
179.324	83.11
179.544	87.05
179.764	96.26
179.984	71.27
180.204	65.6
180.423	51.94
180.643	53.88
180.863	79.59
181.083	73.79
181.302	85.23
181.522	65.7
181.742	12.15
181.961	11.16
182.181	-34.02
182.401	-14.59
182.621	1.5
182.84	2.23
183.06	8.2
183.279	-36.92
183.499	-31.05
183.719	-20.34
183.938	-31.8
184.158	-18.39
184.377	-25.12
184.597	1.08
184.816	-5.58
185.036	-32.9
185.256	-3.46
185.475	-24.8
185.695	46.93
185.914	-37.65
186.134	-63.69
186.353	11.59
186.572	31.03
186.792	23.4
187.011	-7.74
187.231	16.14
187.45	-1.29
187.67	-10.54
187.889	-12.32
188.108	-18.19
188.328	-34.36
188.547	-66.74
188.766	-64
188.986	-50.4
189.205	-38.63
189.424	-45.28
189.644	-68.47
189.863	-48.15
190.082	-111.47
190.302	-19.95
190.521	-0.99
190.74	59.39
190.959	42.18
191.178	63.38
191.398	27.94
191.617	50.08
191.836	65.01
192.055	83.61
192.274	82.28
192.494	45.58
192.713	5.2
192.932	-25.15
193.151	-34.19
193.37	1.15
193.589	-54.03
193.808	-43.76
194.027	-49.83
194.246	-56.87
194.465	-25.64
194.685	-30.41
194.904	-8.08
195.123	-88.42
195.342	-21.92
195.561	-18.62
195.78	-322.21
195.999	12.23
196.218	-31.56
196.436	-43.5
196.655	10.43
196.874	-629.32
197.093	-304.19
197.312	-81.17
197.531	213.89
197.75	282.44
197.969	169.1
198.188	139.53
198.407	118
198.625	107.39
198.844	104.89
199.063	106.25
199.282	97.26
199.501	87.59
199.719	85
199.938	97
200.157	88.36
200.376	54.42
200.594	83.72
200.813	102.56
201.032	97.23
201.251	89.93
201.469	76.66
201.688	91.43
201.907	67.22
202.125	92.48
202.344	90.41
202.563	81.81
202.781	171.3
203	113.51
203.218	117.55
203.437	113.24
203.656	117.37
203.874	104.76
204.093	81.59
204.311	120.14
204.53	142.15
204.748	118.72
204.967	189.63
205.185	214.94
205.404	1377.78
205.622	-1169.12
205.841	4911.63
206.059	-155.8
206.278	804.29
206.496	-132.73
206.715	19.49
206.933	68.48
207.151	66.36
207.37	158.65
207.588	-114.32
207.806	32.01
208.025	28.79
208.243	82.58
208.461	64.8
208.68	53.05
208.898	65.12
209.116	52.58
209.335	46.74
209.553	47.77
209.771	46.63
209.989	36.6
210.208	-3.09
210.426	12.89
210.644	-0.41
210.862	-1.97
211.081	3.53
211.299	-1.14
211.517	16.27
211.735	10.93
211.953	31
212.171	22.03
212.39	63.45
212.608	54.95
212.826	30.97
213.044	48.56
213.262	58.69
213.48	82.2
213.698	-173.35
213.916	354.64
214.134	402.11
214.352	385.03
214.57	-719.85
214.788	934.02
215.006	534.57
215.224	-484.81
215.442	-475.22
215.66	-258.14
215.878	-516.14
216.096	-175.95
216.314	-143.35
216.532	-106.87
216.75	-143.93
216.968	-90.02
217.185	-57.6
217.403	-40.88
217.621	-17.83
217.839	27.1
218.057	51.5
218.275	63.51
218.492	65.83
218.71	75.44
218.928	95.35
219.146	110.62
219.363	128.67
219.581	129.1
219.799	143.39
220.017	202
220.234	220.56
220.452	454.53
220.67	-884.32
220.887	-236.23
221.105	-139.52
221.323	-127.39
221.54	-27.4
221.758	-85.36
221.976	-110.73
222.193	-241.12
222.411	157.26
222.629	184.01
222.846	359.84
223.064	400.74
223.281	198.31
223.499	104.55
223.716	-58.61
223.934	141.77
224.151	-105.85
224.369	-51.26
224.586	-34.1
224.804	-59.47
225.021	-47.02
225.239	-116.52
225.456	-240.26
225.674	-256.21
225.891	-255.35
226.108	3651.42
226.326	-5466.19
226.543	7886.59
226.76	-577.52
226.978	-1412.33
227.195	-289.24
227.413	-217.68
227.63	-140.29
227.847	-63.47
228.064	-24.6
228.282	-14.39
228.499	-5.98
228.716	-7.1
228.934	-12.63
229.151	-12.49
229.368	-9.17
229.585	-7.78
229.802	-3.23
230.02	-1.73
230.237	-2.66
230.454	-3.27
230.671	-0.27
230.888	3.28
231.105	7.46
231.323	11.89
231.54	17.29
231.757	24.52
231.974	28.11
232.191	21.56
232.408	19.91
232.625	19.13
232.842	14.14
233.059	10.91
233.276	3.59
233.493	-2.11
233.71	-7.22
233.927	-17.06
234.144	-16.91
234.361	-18.29
234.578	-7.5
234.795	-1.17
235.012	-4.28
235.229	-11.5
235.446	-15.73
235.663	-21.96
235.879	-22.21
236.096	-23.56
236.313	-16.27
236.53	-26.69
236.747	-30.25
236.964	-38.08
237.181	-50.01
237.397	-32.55
237.614	-14.18
237.831	-27.93
238.048	-28.82
238.264	-22.51
238.481	-4.57
238.698	-0.03
238.915	2.31
239.131	-0.62
239.348	-0.62
239.565	0.61
239.781	-3.55
239.998	-7.89
240.215	1.49
240.431	5.27
240.648	3.81
240.865	2.03
241.081	5.79
241.298	7.07
241.514	11.56
241.731	8.89
241.947	6.32
242.164	7.47
242.38	6.9
242.597	6.4
242.814	4.78
243.03	3.39
243.246	3.82
243.463	0.1
243.679	-1.79
243.896	-4.48
244.112	-4.61
244.329	-0.77
244.545	-2.14
244.762	-0.92
244.978	-1.71
245.194	0.92
245.411	3.31
245.627	1.71
245.843	3.76
246.06	5.48
246.276	6.36
246.492	6.03
246.709	4.82
246.925	4.55
247.141	2.97
247.357	3.49
247.574	1.72
247.79	0.39
248.006	-0.12
248.222	-0.51
248.439	-3.08
248.655	-3.1
248.871	-1.79
249.087	-2.07
249.303	-2.46
249.519	-0.98
249.736	-3.17
249.952	-3.09
250.168	-2.24
250.384	0.14
250.6	1.52
250.816	5.63
251.032	4.7
251.248	1.14
251.464	-0.22
251.68	-1.06
251.896	-4.62
252.112	-4.4
252.328	-2.42
252.544	-2.54
252.76	-6.64
252.976	-8.36
253.192	-7.91
253.408	-9.78
253.624	-11.76
253.84	-10.56
254.056	-12.61
254.272	-8.43
254.487	-10.53
254.703	-11.55
254.919	-6.87
255.135	0.07
255.351	0.35
255.567	-7.26
255.782	-2.61
255.998	-1.58
256.214	2.87
256.43	6.28
256.646	7.35
256.861	9.1
257.077	9.94
257.293	6.53
257.508	4.31
257.724	5.64
257.94	9.79
258.155	7.81
258.371	5.94
258.587	4.03
258.802	4.52
259.018	5.7
259.234	6.29
259.449	6.46
259.665	6.96
259.88	6.27
260.096	5.73
260.312	5.61
260.527	4.73
260.743	5.65
260.958	5.02
261.174	4.45
261.389	3.8
261.605	4.57
261.82	3.48
262.036	2.33
262.251	2.24
262.466	3.08
262.682	2.02
262.897	2.55
263.113	0.9
263.328	-0.68
263.543	-2.68
263.759	-3.83
263.974	-5
264.189	-4.88
264.405	-7.76
264.62	-5.22
264.835	-7.31
265.051	-2.41
265.266	0.1
265.481	4.24
265.696	4.48
265.912	10.06
266.127	11.7
266.342	9.02
266.557	9.13
266.773	9.3
266.988	7.58
267.203	6.25
267.418	4.12
267.633	5.7
267.848	4.63
268.064	5.23
268.279	3.71
268.494	-0.99
268.709	-1.16
268.924	-0.74
269.139	-0.46
269.354	-0.36
269.569	-1.05
269.784	-3.2
269.999	-6.03
270.214	-7.19
270.429	-8.03
270.644	-8.82
270.859	-5.48
271.074	-2.99
271.289	-2.65
271.504	-0.74
271.719	-1.16
271.934	1.33
272.149	1.24
272.363	0.8
272.578	1.93
272.793	2.82
273.008	3.18
273.223	3.62
273.438	1.21
273.653	0.61
273.867	-0.17
274.082	-1.58
274.297	-3.26
274.512	-1.6
274.726	-0.17
274.941	-0.22
275.156	1.72
275.371	0.88
275.585	0.82
275.8	2.52
276.015	2.56
276.229	2.93
276.444	3.42
276.659	4.6
276.873	5.77
277.088	3.42
277.302	3
277.517	1.44
277.732	4.07
277.946	4.77
278.161	3.28
278.375	1.04
278.59	1.17
278.804	1.95
279.019	1.17
279.233	-1.7
279.448	0.68
279.662	2.47
279.877	0.55
280.091	-2.68
280.306	-3.21
280.52	-4.01
280.735	-2.71
280.949	-3.36
281.163	-2.24
281.378	-2.02
281.592	-3.8
281.806	-2.99
282.021	-3.82
282.235	-1.98
282.449	-0.92
282.664	-2.55
282.878	0.8
283.092	2.12
283.307	1.49
283.521	1.73
283.735	2.49
283.949	3.8
284.164	3.14
284.378	3
284.592	2.77
284.806	0.87
285.02	1.52
285.234	-0.08
285.449	-1.35
285.663	-0.26
285.877	1.64
286.091	0.55
286.305	1.28
286.519	2.73
286.733	1.13
286.947	2.03
287.161	3.95
287.375	2.97
287.589	1.73
287.803	2.06
288.017	2.67
288.231	-0.99
288.445	0.23
288.659	0.7
288.873	-1.9
289.087	1.75
289.301	1.39
289.515	1.64
289.729	0.61
289.943	3.75
290.157	5.33
290.371	6.59
290.584	8.04
290.798	6.9
291.012	7.86
291.226	8.12
291.44	6.82
291.654	8.01
291.867	8.85
292.081	11.45
292.295	11.34
292.509	9.75
292.722	8.78
292.936	9.43
293.15	9.35
293.364	6.2
293.577	8.25
293.791	7.8
294.005	4.95
294.218	5.16
294.432	5.44
294.645	3.75
294.859	4.62
295.073	4.63
295.286	3.36
295.5	3.81
295.713	7.35
295.927	5.42
296.14	6.8
296.354	7.21
296.568	6.85
296.781	8.18
296.994	10.46
297.208	11.28
297.421	12.74
297.635	13.94
297.848	15.09
298.062	14.02
298.275	14.65
298.489	15.89
298.702	17.66
298.915	17.85
299.129	17.85
299.342	16.55
299.555	16.59
299.769	15.6
299.982	16.56
300.195	15.76
300.409	15.63
300.622	16.86
300.835	17.52
301.048	16.34
301.262	16.5
301.475	15.75
301.688	16.55
301.901	17.52
302.115	15.66
302.328	15.59
302.541	17.41
302.754	15.82
302.967	15.78
303.18	13.58
303.393	14.41
303.607	13.95
303.82	15.81
304.033	18.06
304.246	18.51
304.459	20.1
304.672	19.51
304.885	18.4
305.098	20.02
305.311	17.63
305.524	18.54
305.737	18.67
305.95	18.4
306.163	18.12
306.376	18.85
306.589	17.79
306.802	17.74
307.015	17.42
307.228	17.92
307.44	18.69
307.653	22.23
307.866	20.19
308.079	19.52
308.292	20.75
308.505	19.52
308.718	17.5
308.93	17.69
309.143	18.07
309.356	19.37
309.569	18.87
309.781	20.91
309.994	20.62
310.207	20.56
310.42	21.66
310.632	21.23
310.845	21.22
311.058	21.71
311.27	21.37
311.483	21.55
311.696	20.45
311.908	21.96
312.121	20.49
312.333	20.2
312.546	21.38
312.759	20.01
312.971	19.68
313.184	19.67
313.396	18.4
313.609	19.75
313.821	19
314.034	17.61
314.246	16.54
314.459	14.75
314.671	13.01
314.884	13.59
315.096	15.15
315.309	18.25
315.521	16.74
315.733	15.75
315.946	14.42
316.158	14.31
316.371	19.61
316.583	19.63
316.795	21.01
317.008	20.98
317.22	21.85
317.432	21.63
317.644	18.78
317.857	21.87
318.069	22.56
318.281	22.14
318.494	24.44
318.706	22.44
318.918	21.81
319.13	22.54
319.342	23.31
319.555	21.17
319.767	20.26
319.979	18.67
320.191	17.14
320.403	18.89
320.615	18.32
320.827	17.09
321.039	15.59
321.252	16.55
321.464	15.89
321.676	13.75
321.888	15.62
322.1	13.74
322.312	15.88
322.524	15.91
322.736	16.83
322.948	16.75
323.16	18.85
323.372	18.98
323.584	18.53
323.796	21.13
324.007	24.12
324.219	22.47
324.431	24.54
324.643	24.03
324.855	25.75
325.067	23.78
325.279	25.9
325.491	23.58
325.702	24.26
325.914	25.67
326.126	24.57
326.338	24.51
326.55	27.07
326.761	27.17
326.973	27.67
327.185	27.1
327.396	28.06
327.608	27.41
327.82	31.35
328.032	31.24
328.243	30
328.455	30.07
328.666	31.45
328.878	32.12
329.09	32.91
329.301	33.55
329.513	34.91
329.725	35.42
329.936	35.94
330.148	35.92
330.359	36.96
330.571	36.54
330.782	36.25
330.994	35
331.205	34.87
331.417	36.43
331.628	37.99
331.84	38.07
332.051	40.13
332.262	42.73
332.474	41.1
332.685	43.05
332.897	45.73
333.108	47.3
333.319	47.92
333.531	48.89
333.742	49.93
333.953	50.89
334.165	52.39
334.376	52.67
334.587	52.19
334.799	52.09
335.01	51.16
335.221	51.52
335.432	51.45
335.644	52.44
335.855	52.63
336.066	52
336.277	52.61
336.488	53
336.7	52.35
336.911	52.53
337.122	54.73
337.333	55.63
337.544	53.89
337.755	53.05
337.966	50.94
338.177	50.17
338.388	49.18
338.599	47.95
338.811	46.84
339.022	47
339.233	46.37
339.444	46.22
339.655	46.2
339.866	48.21
340.076	50.59
340.287	51.92
340.498	52.3
340.709	52.64
340.92	53.76
341.131	54.59
341.342	54.33
341.553	54.5
341.764	52.74
341.975	52.64
342.185	53.47
342.396	51.71
342.607	51.53
342.818	50.51
343.029	51.25
343.239	51.95
343.45	52.2
343.661	53.42
343.872	54.43
344.082	55.6
344.293	55.6
344.504	55.2
344.714	55.38
344.925	56.36
345.136	57.64
345.346	57.67
345.557	56.77
345.768	55.86
345.978	54.93
346.189	53.45
346.399	52.54
346.61	53.04
346.821	51.57
347.031	51.91
347.242	51.74
347.452	49.83
347.663	49.71
347.873	49.27
348.084	49.32
348.294	51.15
348.504	52.08
348.715	52.13
348.925	51.77
349.136	53.19
349.346	52.83
349.557	53.5
349.767	54.25
349.977	52.63
350.188	53.79
350.398	54.95
350.608	54.73
350.819	53.27
351.029	54.25
351.239	53.85
351.449	53.74
351.66	54.69
351.87	54.02
352.08	54.68
352.29	56.34
352.501	54.31
352.711	53.28
352.921	51.43
353.131	52.65
353.341	52.13
353.552	52.93
353.762	52.11
353.972	52.48
354.182	52.91
354.392	53.35
354.602	54.26
354.812	55.17
355.022	55.63
355.232	56.69
355.442	57.88
355.652	58.06
355.862	57.57
356.072	59.15
356.282	58.83
356.492	59.99
356.702	61.43
356.912	60.64
357.122	60.59
357.332	62.15
357.542	61.81
357.752	61.3
357.962	60.96
358.171	60.11
358.381	59.39
358.591	60.27
358.801	59.47
359.011	57.83
359.221	58.26
359.43	58.46
359.64	56.56
359.85	58.21
360.06	58.27
360.269	59.37
360.479	58.41
360.689	58.69
360.899	57.09
361.108	56.83
361.318	56.52
361.528	55.91
361.737	55.52
361.947	56.01
362.156	54.49
362.366	54.34
362.576	53.03
362.785	54.27
362.995	53.7
363.204	53.49
363.414	53.27
363.623	53.97
363.833	53.79
364.042	53.91
364.252	53.1
364.461	53.36
364.671	53.46
364.88	53.61
365.09	52.32
365.299	52.17
365.509	52.45
365.718	51.45
365.927	50.83
366.137	50.5
366.346	49.9
366.555	50.24
366.765	49.45
366.974	48.93
367.183	48.92
367.393	50.51
367.602	49.82
367.811	50.03
368.021	51.1
368.23	50.61
368.439	50.21
368.648	49.91
368.857	49.93
369.067	50.16
369.276	49.59
369.485	49.32
369.694	48.34
369.903	48.58
370.112	48.14
370.321	47.72
370.531	48.26
370.74	48.99
370.949	49.16
371.158	47.72
371.367	47.89
371.576	48.4
371.785	48.83
371.994	47.98
372.203	47.65
372.412	47.76
372.621	47.17
372.83	47.19
373.039	46.95
373.248	47.17
373.457	47.26
373.666	47.32
373.874	47.25
374.083	46.6
374.292	47.24
374.501	46.77
374.71	46.03
374.919	46.36
375.128	45.97
375.336	46
375.545	45.44
375.754	45.61
375.963	45.36
376.171	45.03
376.38	44.95
376.589	44.1
376.798	44.86
377.006	45.36
377.215	45.13
377.424	44.45
377.632	43.84
377.841	43.93
378.05	43.7
378.258	43.44
378.467	42.66
378.675	42.38
378.884	42.23
379.093	42.11
379.301	41.17
379.51	41.04
379.718	41.4
379.927	41.24
380.135	41.57
380.344	41.03
380.552	40.77
380.761	41.18
380.969	40.76
381.177	40.55
381.386	40.75
381.594	40.25
381.803	39.58
382.011	38.65
382.219	38.36
382.428	36.95
382.636	37.46
382.845	37.15
383.053	36.04
383.261	36.09
383.469	36.45
383.678	35.32
383.886	35.45
384.094	35.66
384.302	34.98
384.511	34.78
384.719	34.71
384.927	34.44
385.135	34.45
385.343	34.64
385.552	34.3
385.76	33.9
385.968	33.63
386.176	33.34
386.384	32.92
386.592	33.22
386.8	32.65
387.008	32.83
387.216	32.45
387.424	32.08
387.633	32.02
387.841	32.21
388.049	32.28
388.257	31.88
388.465	31.66
388.672	31.69
388.88	31.53
389.088	31.91
389.296	31.52
389.504	31.22
389.712	31.22
389.92	30.96
390.128	30.56
390.336	30.63
390.544	30.92
390.751	31.3
390.959	30.88
391.167	31.25
391.375	31.19
391.583	31.27
391.79	31.1
391.998	30.66
392.206	30.68
392.414	30.48
392.621	30.18
392.829	30.33
393.037	30.02
393.244	29.76
393.452	29.59
393.66	29.05
393.867	28.94
394.075	28.92
394.283	29.22
394.49	29.01
394.698	29.25
394.905	29.13
395.113	29.01
395.32	28.57
395.528	28.6
395.735	28.4
395.943	28.64
396.15	28.53
396.358	28.9
396.565	28.73
396.773	28.77
396.98	28.57
397.188	28.28
397.395	27.99
397.602	28.77
397.81	28.79
398.017	28.86
398.225	28.81
398.432	28.75
398.639	28.06
398.847	28.13
399.054	28.13
399.261	27.99
399.468	28.22
399.676	28.23
399.883	27.88
400.09	28.01
400.297	27.93
400.505	27.97
400.712	28.17
400.919	28.5
401.126	28.33
401.333	28.53
401.54	28.46
401.748	28.68
401.955	28.76
402.162	29
402.369	28.71
402.576	28.8
402.783	28.69
402.99	28.54
403.197	28.57
403.404	28.67
403.611	28.49
403.818	28.58
404.025	27.88
404.232	27.65
404.439	27.3
404.646	27.35
404.853	27.35
405.06	27.58
405.267	27.43
405.474	27.33
405.681	27.21
405.887	27.19
406.094	27.2
406.301	27.63
406.508	27.94
406.715	27.85
406.922	27.96
407.128	28.06
407.335	27.91
407.542	27.95
407.749	27.92
407.955	28.03
408.162	27.9
408.369	27.96
408.575	27.69
408.782	27.5
408.989	27.44
409.195	27.35
409.402	27.02
409.609	26.85
409.815	27.01
410.022	26.8
410.228	26.59
410.435	26.35
410.642	25.97
410.848	26.12
411.055	26.06
411.261	26.26
411.468	26.22
411.674	25.8
411.881	25.59
412.087	25.51
412.294	25.75
412.5	25.84
412.706	25.98
412.913	26
413.119	26.05
413.326	26
413.532	25.83
413.738	25.98
413.945	26.41
414.151	26.83
414.357	26.79
414.564	26.94
414.77	26.8
414.976	26.98
415.182	27.1
415.389	26.96
415.595	27.18
415.801	27.4
416.007	27.31
416.214	27.14
416.42	26.97
416.626	26.61
416.832	26.67
417.038	26.57
417.244	26.44
417.45	26.5
417.657	26.41
417.863	26.35
418.069	26.03
418.275	26.05
418.481	26.05
418.687	25.84
418.893	26.08
419.099	25.81
419.305	25.8
419.511	25.73
419.717	25.7
419.923	25.71
420.129	25.55
420.335	25.67
420.541	25.45
420.746	25.36
420.952	25.44
421.158	25.42
421.364	25.67
421.57	25.64
421.776	25.67
421.982	25.66
422.187	25.69
422.393	25.59
422.599	25.42
422.805	25.54
423.01	25.57
423.216	25.68
423.422	25.65
423.628	25.26
423.833	25.28
424.039	25.42
424.245	25.46
424.45	25.34
424.656	25.32
424.862	25.46
425.067	25.52
425.273	25.57
425.478	25.49
425.684	25.46
425.889	25.47
426.095	25.56
426.301	25.39
426.506	25.24
426.712	25.31
426.917	25.44
427.123	25.35
427.328	25.46
427.533	25.45
427.739	25.33
427.944	25.38
428.15	25.64
428.355	25.57
428.561	25.49
428.766	25.35
428.971	25.4
429.177	25.39
429.382	25.54
429.587	25.22
429.793	25.34
429.998	25.45
430.203	25.36
430.408	25.46
430.614	25.53
430.819	25.43
431.024	25.56
431.229	25.52
431.434	25.57
431.64	25.42
431.845	25.47
432.05	25.36
432.255	25.39
432.46	25.48
432.665	25.42
432.87	25.28
433.076	25.47
433.281	25.45
433.486	25.58
433.691	25.49
433.896	25.54
434.101	25.54
434.306	25.59
434.511	25.5
434.716	25.3
434.921	25.15
435.126	25.14
435.331	24.93
435.535	25
435.74	24.83
435.945	25
436.15	25.02
436.355	25.1
436.56	25.14
436.765	25.39
436.97	25.45
437.174	25.56
437.379	25.64
437.584	25.83
437.789	25.85
437.993	25.8
438.198	25.63
438.403	25.52
438.608	25.57
438.812	25.52
439.017	25.22
439.222	25.19
439.426	24.98
439.631	25.02
439.836	24.98
440.04	24.99
440.245	25.1
440.45	25.12
440.654	25.2
440.859	25.2
441.063	25.02
441.268	25.1
441.472	25.17
441.677	25.23
441.881	25.18
442.086	25.17
442.29	25.29
442.495	25.17
442.699	25.03
442.904	25.06
443.108	25.01
443.312	25.17
443.517	25.18
443.721	25.22
443.925	25.1
444.13	25.08
444.334	25.04
444.538	24.64
444.743	24.82
444.947	25.12
445.151	25.09
445.356	24.97
445.56	25.08
445.764	25.02
445.968	24.96
446.173	25.26
446.377	25.4
446.581	25.44
446.785	25.6
446.989	25.53
447.193	25.44
447.398	25.4
447.602	25.45
447.806	25.28
448.01	25.23
448.214	25.31
448.418	25.14
448.622	25.11
448.826	25.04
449.03	24.91
449.234	25.02
449.438	25.04
449.642	25.14
449.846	25.03
450.05	25.01
450.254	25.27
450.458	25.22
450.662	25.27
450.866	25.1
451.069	25.26
451.273	25.26
451.477	25
451.681	24.68
451.885	24.53
452.089	24.62
452.292	24.73
452.496	24.48
452.7	24.39
452.904	24.42
453.107	24.41
453.311	24.24
453.515	24.38
453.719	24.39
453.922	24.69
454.126	24.9
454.33	24.88
454.533	24.79
454.737	24.78
454.94	24.8
455.144	24.68
455.348	24.73
455.551	24.7
455.755	24.64
455.958	24.67
456.162	24.55
456.365	24.06
456.569	24.03
456.772	24.09
456.976	24.2
457.179	24.22
457.383	24.37
457.586	24.42
457.79	24.39
