Data from 2937857_Reflection_1.txt Node
Date: Wed Jul 15 15:36:22 EDT 2015
User: robert
Spectrometer: USB4E03001
Autoset integration time: false
Trigger mode: 4
Integration Time (sec): 1.000000E-1
Scans to average: 10
Electric dark correction enabled: true
Nonlinearity correction enabled: false
Boxcar width: 5
Stray light correction enabled: false
XAxis mode: Wavelengths
Stop averaging: false
Number of Pixels in Spectrum: 3648
>>>>>Begin Spectral Data<<<<<
177.566	-311.6
177.785	-4020.95
178.005	290.08
178.225	267.78
178.445	398.01
178.665	437.65
178.885	194.43
179.105	95.43
179.324	214.4
179.544	-252.58
179.764	-1544.38
179.984	347.85
180.204	371.91
180.423	87.11
180.643	102.99
180.863	87.85
181.083	73.58
181.302	46.08
181.522	70.03
181.742	37.99
181.961	4.62
182.181	5.08
182.401	-4.97
182.621	13.17
182.84	8.9
183.06	13.19
183.279	23.56
183.499	23.16
183.719	-23.42
183.938	-46.23
184.158	-56.82
184.377	-102.38
184.597	-611.65
184.816	-160.58
185.036	-128.28
185.256	-227.41
185.475	-186.02
185.695	-166.71
185.914	-202.97
186.134	-98.16
186.353	-151.16
186.572	-142.09
186.792	50.43
187.011	25.99
187.231	-1.57
187.45	-14.47
187.67	18.42
187.889	157.62
188.108	190.71
188.328	105.07
188.547	216.97
188.766	21809.09
188.986	442.68
189.205	191.75
189.424	120.12
189.644	171
189.863	251.57
190.082	246.65
190.302	280.24
190.521	216.23
190.74	243.38
190.959	235.34
191.178	111.75
191.398	87.13
191.617	113.29
191.836	176.93
192.055	-21.88
192.274	97.24
192.494	-6.85
192.713	36.22
192.932	-14.63
193.151	-6.86
193.37	-43.68
193.589	-40.48
193.808	-34.85
194.027	-64.2
194.246	-39.73
194.465	-0.9
194.685	34.66
194.904	51.65
195.123	120.44
195.342	9.98
195.561	92.34
195.78	190.52
195.999	61.14
196.218	3.39
196.436	-34.44
196.655	-25088.24
196.874	430.53
197.093	71.41
197.312	83.55
197.531	274.42
197.75	142.88
197.969	79.78
198.188	-30.53
198.407	28.87
198.625	60.06
198.844	69.79
199.063	89.07
199.282	89.62
199.501	51.32
199.719	70.91
199.938	1.38
200.157	-34.03
200.376	-12.31
200.594	19.17
200.813	101.14
201.032	92.11
201.251	194.73
201.469	3532.43
201.688	211.79
201.907	56.61
202.125	102.05
202.344	103.81
202.563	87.24
202.781	40.85
203	124.6
203.218	253.21
203.437	1084.79
203.656	117.42
203.874	106.35
204.093	115.98
204.311	230.95
204.53	284.21
204.748	197.43
204.967	80.56
205.185	88.82
205.404	62.22
205.622	79.36
205.841	83.13
206.059	100.61
206.278	62.74
206.496	97.36
206.715	50.5
206.933	74.22
207.151	190.39
207.37	-48.23
207.588	-87.55
207.806	-101.99
208.025	7.79
208.243	-30.24
208.461	165.68
208.68	51.67
208.898	279.43
209.116	-223
209.335	281.33
209.553	123.24
209.771	72.64
209.989	69.27
210.208	60.69
210.426	-508.4
210.644	19.08
210.862	41.26
211.081	-81.05
211.299	-531.79
211.517	-136.02
211.735	22.83
211.953	31.45
212.171	11.75
212.39	-12.43
212.608	-54.45
212.826	-64.7
213.044	-183.54
213.262	1030.55
213.48	-0.08
213.698	1.33
213.916	-66.2
214.134	-30.62
214.352	-720.66
214.57	222.19
214.788	184.99
215.006	96.22
215.224	-301.01
215.442	143.44
215.66	145.68
215.878	187.35
216.096	233.89
216.314	-5182.61
216.532	448.53
216.75	119.46
216.968	97.6
217.185	107.05
217.403	106.41
217.621	70.62
217.839	68.3
218.057	73.67
218.275	37.62
218.492	27.42
218.71	6.42
218.928	-25.13
219.146	-16.93
219.363	-43.19
219.581	-197.29
219.799	-261.68
220.017	8684.06
220.234	554.57
220.452	296.07
220.67	919.27
220.887	595.56
221.105	2686.57
221.323	219.82
221.54	-238.25
221.758	-81.3
221.976	-40.77
222.193	-58.96
222.411	44.76
222.629	70.57
222.846	39.05
223.064	49.3
223.281	24.15
223.499	29.4
223.716	16.82
223.934	9.25
224.151	-3.68
224.369	9.8
224.586	66.34
224.804	49.45
225.021	151.85
225.239	461.31
225.456	-213.93
225.674	1600
225.891	-186.42
226.108	-309.49
226.326	90.52
226.543	52.06
226.76	46.67
226.978	18.64
227.195	15.96
227.413	1.42
227.63	0.5
227.847	-0.62
228.064	0.71
228.282	-1.38
228.499	2
228.716	0.22
228.934	-1.57
229.151	2.2
229.368	5.51
229.585	3.74
229.802	5.67
230.02	4.78
230.237	2.98
230.454	3.42
230.671	10.57
230.888	13.31
231.105	16.77
231.323	16.1
231.54	14.17
231.757	12.17
231.974	15.26
232.191	12.34
232.408	17.3
232.625	26.17
232.842	27.01
233.059	23.78
233.276	28.04
233.493	25.83
233.71	29.94
233.927	32.24
234.144	33.69
234.361	34.19
234.578	35.16
234.795	29.82
235.012	25.83
235.229	29.98
235.446	30.58
235.663	25.7
235.879	27.18
236.096	24.46
236.313	22.17
236.53	21.25
236.747	16.52
236.964	16.46
237.181	17.95
237.397	6.08
237.614	-6.57
237.831	-1.09
238.048	-1.74
238.264	0.78
238.481	4.6
238.698	1.94
238.915	7.01
239.131	13.05
239.348	16.69
239.565	18.45
239.781	24.01
239.998	26.64
240.215	24.39
240.431	22.81
240.648	18.22
240.865	16.51
241.081	17.44
241.298	15.47
241.514	15.42
241.731	14.86
241.947	13.77
242.164	12.92
242.38	12.74
242.597	13.91
242.814	12.34
243.03	13.55
243.246	13.35
243.463	12.15
243.679	12.66
243.896	11.12
244.112	11.19
244.329	9.18
244.545	9.56
244.762	8.97
244.978	7.85
245.194	8.1
245.411	8.52
245.627	10.29
245.843	11.86
246.06	11.51
246.276	13.27
246.492	14.27
246.709	15.42
246.925	14.34
247.141	13.88
247.357	13.3
247.574	13.73
247.79	13.66
248.006	13.51
248.222	13.8
248.439	13.62
248.655	12.07
248.871	10
249.087	9.13
249.303	9.49
249.519	9.08
249.736	9.31
249.952	8.29
250.168	8.51
250.384	6.9
250.6	6.16
250.816	4.94
251.032	7.43
251.248	9.78
251.464	10.89
251.68	11.96
251.896	14.34
252.112	13.57
252.328	15.22
252.544	15.4
252.76	15.97
252.976	14.88
253.192	16.98
253.408	18.02
253.624	18.29
253.84	18.09
254.056	15.94
254.272	15.34
254.487	16.62
254.703	15.69
254.919	15.16
255.135	13.11
255.351	13.83
255.567	10.52
255.782	9.66
255.998	5.81
256.214	6.81
256.43	7.26
256.646	8.29
256.861	11.1
257.077	9.98
257.293	8.58
257.508	10.36
257.724	9.89
257.94	11.62
258.155	9.31
258.371	8.88
258.587	8.12
258.802	9.02
259.018	8.98
259.234	8.38
259.449	9.12
259.665	10.23
259.88	10.76
260.096	10.28
260.312	8.83
260.527	8.84
260.743	9.75
260.958	9.83
261.174	9.8
261.389	8.12
261.605	8.18
261.82	7.38
262.036	7.37
262.251	7
262.466	8.31
262.682	10.32
262.897	10.52
263.113	10.43
263.328	10.47
263.543	10.03
263.759	13.57
263.974	13.71
264.189	15.74
264.405	12.75
264.62	12.02
264.835	12.45
265.051	12.02
265.266	14.32
265.481	14.6
265.696	14.7
265.912	15.42
266.127	14.39
266.342	13.59
266.557	12.9
266.773	14.15
266.988	14.62
267.203	13.77
267.418	13.06
267.633	11.53
267.848	11.53
268.064	11.11
268.279	12.56
268.494	12.5
268.709	12.2
268.924	11.28
269.139	11.43
269.354	9.65
269.569	10.8
269.784	10.43
269.999	11.1
270.214	10.92
270.429	11.78
270.644	10.91
270.859	11.03
271.074	11.58
271.289	11.61
271.504	11.63
271.719	12.07
271.934	10.64
272.149	10.23
272.363	10.43
272.578	10.25
272.793	9.35
273.008	9.36
273.223	9.79
273.438	9.27
273.653	8.59
273.867	7.96
274.082	7.31
274.297	8.93
274.512	10.61
274.726	9.07
274.941	8.28
275.156	10.48
275.371	9.79
275.585	10.48
275.8	10.96
276.015	13.23
276.229	13.52
276.444	15.22
276.659	15.74
276.873	14.19
277.088	15.94
277.302	16.81
277.517	13.96
277.732	14.47
277.946	13.86
278.161	14.41
278.375	12.7
278.59	11
278.804	8.38
279.019	6.89
279.233	7.17
279.448	8.15
279.662	6.86
279.877	8.04
280.091	7.78
280.306	7.62
280.52	6.31
280.735	7.74
280.949	8.29
281.163	9.39
281.378	8.59
281.592	8.59
281.806	7.78
282.021	9.08
282.235	9.36
282.449	9.72
282.664	9.27
282.878	9.8
283.092	10.65
283.307	11.39
283.521	11.04
283.735	12.24
283.949	11.49
284.164	11.06
284.378	11.55
284.592	12.03
284.806	11.77
285.02	12.03
285.234	11.43
285.449	9.33
285.663	8.02
285.877	8.28
286.091	7.46
286.305	8.12
286.519	8.33
286.733	8.11
286.947	7.22
287.161	7.58
287.375	6.52
287.589	6.87
287.803	8
288.017	9.32
288.231	8.79
288.445	9.16
288.659	9.12
288.873	9.35
289.087	8.16
289.301	8.07
289.515	8.12
289.729	9.4
289.943	9.95
290.157	9.01
290.371	10.95
290.584	12.42
290.798	12.8
291.012	13.59
291.226	13.54
291.44	15.35
291.654	17.1
291.867	17.21
292.081	17.79
292.295	18.3
292.509	19.2
292.722	17.7
292.936	17.94
293.15	16.54
293.364	16.8
293.577	17.53
293.791	16.91
294.005	16.88
294.218	17.06
294.432	18.17
294.645	17.63
294.859	17.1
295.073	16.39
295.286	14.76
295.5	15.86
295.713	15.11
295.927	14.34
296.14	13.72
296.354	12.91
296.568	11.16
296.781	8.88
296.994	8.44
297.208	8.61
297.421	9.32
297.635	10.17
297.848	10.59
298.062	11.04
298.275	11.07
298.489	11.77
298.702	12.05
298.915	12.26
299.129	12.89
299.342	12.57
299.555	13.49
299.769	11.94
299.982	12.42
300.195	11.83
300.409	10.78
300.622	9.91
300.835	9.66
301.048	7.54
301.262	9.01
301.475	9.75
301.688	12.23
301.901	12.7
302.115	13.64
302.328	13.82
302.541	13.87
302.754	14.68
302.967	16.31
303.18	15.27
303.393	16.15
303.607	17.23
303.82	17.18
304.033	15.61
304.246	14.41
304.459	15.06
304.672	14.84
304.885	13.93
305.098	13.42
305.311	12.81
305.524	12.24
305.737	12.14
305.95	9.4
306.163	10.05
306.376	11.58
306.589	11.95
306.802	12.23
307.015	12.51
307.228	14.11
307.44	14
307.653	13.89
307.866	14.73
308.079	15.88
308.292	17.08
308.505	15.74
308.718	15.4
308.93	16.28
309.143	16.11
309.356	15.8
309.569	16.5
309.781	17.58
309.994	17.34
310.207	17.67
310.42	17.95
310.632	17.55
310.845	18.2
311.058	18.93
311.27	17.86
311.483	19.15
311.696	18.9
311.908	18.64
312.121	18.64
312.333	18.98
312.546	19.01
312.759	18.26
312.971	18.75
313.184	19.47
313.396	17.47
313.609	17.36
313.821	17.39
314.034	18.03
314.246	17.5
314.459	18
314.671	18.83
314.884	18.07
315.096	19.53
315.309	20.54
315.521	18.87
315.733	20.14
315.946	21.18
316.158	21.04
316.371	19.47
316.583	19.39
316.795	18.13
317.008	16.26
317.22	16.69
317.432	15.69
317.644	14.99
317.857	15.37
318.069	15.39
318.281	14.25
318.494	12.49
318.706	13.47
318.918	11.28
319.13	10.42
319.342	11.71
319.555	12.26
319.767	11.96
319.979	11.26
320.191	12.64
320.403	12.14
320.615	15.1
320.827	15.12
321.039	16.18
321.252	17.35
321.464	19.44
321.676	18.87
321.888	18.69
322.1	17.88
322.312	16.86
322.524	16.87
322.736	15.96
322.948	12.88
323.16	11.62
323.372	10.83
323.584	12.7
323.796	13.05
324.007	13.55
324.219	14.02
324.431	14.8
324.643	17.09
324.855	15.21
325.067	16.14
325.279	18.09
325.491	20.02
325.702	19.69
325.914	19.32
326.126	18.28
326.338	18.29
326.55	18.62
326.761	17.56
326.973	17.56
327.185	18.55
327.396	19.25
327.608	18.21
327.82	16.8
328.032	17.53
328.243	16.6
328.455	16.86
328.666	17.76
328.878	17.2
329.09	17.69
329.301	17.5
329.513	17.64
329.725	17.07
329.936	17.27
330.148	18.2
330.359	18.73
330.571	17.7
330.782	18.1
330.994	16.1
331.205	16.84
331.417	18.02
331.628	17.17
331.84	17.14
332.051	17.94
332.262	18.55
332.474	18.64
332.685	19.32
332.897	21.65
333.108	21.57
333.319	22.85
333.531	21.9
333.742	23.77
333.953	23.71
334.165	24.14
334.376	24.08
334.587	23.8
334.799	24.76
335.01	23.25
335.221	22.1
335.432	21.68
335.644	21.73
335.855	22.31
336.066	21.33
336.277	21.23
336.488	20.79
336.7	19.94
336.911	20.93
337.122	18.7
337.333	19.96
337.544	21.77
337.755	21.88
337.966	20.16
338.177	19.77
338.388	19.57
338.599	21.11
338.811	20.46
339.022	19.9
339.233	19.65
339.444	21.4
339.655	20.7
339.866	19.17
340.076	19.11
340.287	20.79
340.498	21.54
340.709	21.15
340.92	19.62
341.131	20.36
341.342	20.77
341.553	19.97
341.764	19.29
341.975	20.26
342.185	20.16
342.396	20.55
342.607	20
342.818	20.18
343.029	20
343.239	20.65
343.45	21.46
343.661	23.2
343.872	23.15
344.082	23.01
344.293	23.35
344.504	23.06
344.714	21.88
344.925	22.72
345.136	21.51
345.346	20.68
345.557	20.4
345.768	20.06
345.978	18.48
346.189	18.65
346.399	20.05
346.61	19.18
346.821	20.12
347.031	19.89
347.242	19.38
347.452	19.78
347.663	20.77
347.873	22.08
348.084	22.27
348.294	22.81
348.504	23
348.715	22.03
348.925	21.56
349.136	20.99
349.346	20.82
349.557	20.07
349.767	20.62
349.977	20.93
350.188	20.41
350.398	20.15
350.608	20.63
350.819	20.49
351.029	19.82
351.239	20.23
351.449	20.71
351.66	22.51
351.87	23.02
352.08	23.61
352.29	23.25
352.501	21.86
352.711	21.27
352.921	19.58
353.131	20.18
353.341	20.09
353.552	18.77
353.762	17.88
353.972	17.09
354.182	17.19
354.392	16.37
354.602	17.12
354.812	17.33
355.022	17.89
355.232	19.88
355.442	19.05
355.652	18.91
355.862	19.36
356.072	19.78
356.282	19.77
356.492	19.96
356.702	19.23
356.912	18.38
357.122	18.94
357.332	18.56
357.542	17.7
357.752	17.77
357.962	17.3
358.171	18.13
358.381	17.75
358.591	18.15
358.801	17.96
359.011	17.98
359.221	18.65
359.43	18.16
359.64	18.8
359.85	18.27
360.06	18.17
360.269	18.71
360.479	18.03
360.689	18.26
360.899	17.88
361.108	18.01
361.318	18.05
361.528	17.37
361.737	17.38
361.947	17.41
362.156	17.06
362.366	16.33
362.576	16.3
362.785	16.06
362.995	15.51
363.204	15.13
363.414	14.65
363.623	14.4
363.833	13.84
364.042	14.45
364.252	13.38
364.461	13.58
364.671	14.75
364.88	15.17
365.09	15.76
365.299	16.04
365.509	17.02
365.718	17.63
365.927	17.78
366.137	18.35
366.346	17.53
366.555	17.07
366.765	16.88
366.974	16.49
367.183	15.42
367.393	14.99
367.602	15.1
367.811	14.42
368.021	14.1
368.23	15.25
368.439	15.27
368.648	14.79
368.857	15.57
369.067	15.96
369.276	15.67
369.485	16.01
369.694	15.21
369.903	14.86
370.112	14.61
370.321	13.5
370.531	12.82
370.74	12.27
370.949	12.6
371.158	12.32
371.367	12.92
371.576	12.84
371.785	13.7
371.994	14.12
372.203	14.58
372.412	14.47
372.621	15.21
372.83	15.62
373.039	15.27
373.248	15.16
373.457	15.01
373.666	13.66
373.874	13.48
374.083	12.95
374.292	13.33
374.501	13.95
374.71	13.7
374.919	13.62
375.128	12.9
375.336	12.44
375.545	12.85
375.754	12.78
375.963	13.55
376.171	13.35
376.38	13.19
376.589	13
376.798	12.9
377.006	13.39
377.215	13.33
377.424	13.63
377.632	14.51
377.841	14.33
378.05	15.12
378.258	14.47
378.467	15.06
378.675	14.76
378.884	14.51
379.093	13.98
379.301	13.39
379.51	12.95
379.718	12.4
379.927	12.11
380.135	12.22
380.344	11.54
380.552	11.45
380.761	11.82
380.969	11.81
381.177	11.39
381.386	10.97
381.594	11.08
381.803	11.56
382.011	11.35
382.219	11.35
382.428	11.04
382.636	10.63
382.845	11.17
383.053	10.02
383.261	10.14
383.469	10.57
383.678	10.41
383.886	11.12
384.094	11.05
384.302	11.51
384.511	11.61
384.719	11.74
384.927	12.26
385.135	12.02
385.343	12.38
385.552	12.33
385.76	11.57
385.968	11.55
386.176	10.8
386.384	10.74
386.592	10.57
386.8	10.57
387.008	10.43
387.216	10
387.424	9.94
387.633	9.83
387.841	9.83
388.049	10.28
388.257	10.29
388.465	10.32
388.672	9.88
388.88	9.64
389.088	9.35
389.296	8.98
389.504	8.98
389.712	9.14
389.92	9.14
390.128	9.02
390.336	9.28
390.544	9.89
390.751	9.76
390.959	9.99
391.167	9.96
391.375	9.93
391.583	9.96
391.79	9.98
391.998	10.13
392.206	10.05
392.414	10.06
392.621	9.67
392.829	8.73
393.037	9.04
393.244	8.85
393.452	9.02
393.66	9.22
393.867	9.54
394.075	9.62
394.283	9.38
394.49	9.08
394.698	9.08
394.905	9.17
395.113	9.67
395.32	9.43
395.528	9.3
395.735	8.79
395.943	8.45
396.15	8.4
396.358	8.39
396.565	8.25
396.773	8.51
396.98	8.59
397.188	8.62
397.395	8.64
397.602	8.8
397.81	9.01
398.017	9.46
398.225	9.38
398.432	8.93
398.639	8.99
398.847	9.37
399.054	9.51
399.261	9.09
399.468	9.09
399.676	8.79
399.883	8.53
400.09	8.95
400.297	8.95
400.505	9.07
400.712	9.28
400.919	9.17
401.126	8.75
401.333	8.62
401.54	8.86
401.748	8.74
401.955	9.02
402.162	9.11
402.369	8.61
402.576	8.29
402.783	8.4
402.99	8.31
403.197	8.05
403.404	8.25
403.611	8.19
403.818	8.28
404.025	8.32
404.232	8.1
404.439	8.19
404.646	8.26
404.853	8.32
405.06	8.44
405.267	8.49
405.474	8.65
405.681	8.43
405.887	8.55
406.094	8.41
406.301	8.53
406.508	8.78
406.715	8.88
406.922	8.88
407.128	8.75
407.335	8.6
407.542	8.6
407.749	8.46
407.955	8.24
408.162	8.35
408.369	8.59
408.575	8.33
408.782	8.08
408.989	7.87
409.195	7.88
409.402	8.19
409.609	8.23
409.815	8.17
410.022	8.28
410.228	8.63
410.435	8.38
410.642	8.42
410.848	8.52
411.055	8.56
411.261	8.63
411.468	8.58
411.674	8.3
411.881	8.33
412.087	8.4
412.294	8.44
412.5	8.21
412.706	8.13
412.913	7.97
413.119	8.06
413.326	8.32
413.532	8.18
413.738	8.21
413.945	8.32
414.151	8.2
414.357	8.33
414.564	7.87
414.77	8.06
414.976	8.05
415.182	7.96
415.389	7.76
415.595	7.71
415.801	7.57
416.007	7.69
416.214	7.64
416.42	7.53
416.626	7.58
416.832	7.93
417.038	7.96
417.244	8.03
417.45	8.26
417.657	8.31
417.863	8.11
418.069	8.25
418.275	7.96
418.481	8.09
418.687	8.17
418.893	7.94
419.099	8.04
419.305	7.89
419.511	8
419.717	7.77
419.923	7.74
420.129	7.66
420.335	7.73
420.541	7.91
420.746	7.9
420.952	7.96
421.158	7.95
421.364	7.87
421.57	7.82
421.776	7.72
421.982	7.79
422.187	7.91
422.393	7.99
422.599	8
422.805	7.96
423.01	7.84
423.216	7.74
423.422	7.76
423.628	7.75
423.833	7.84
424.039	7.95
424.245	7.88
424.45	7.73
424.656	7.86
424.862	7.72
425.067	7.73
425.273	7.67
425.478	7.57
425.684	7.5
425.889	7.49
426.095	7.39
426.301	7.19
426.506	7.29
426.712	7.29
426.917	7.03
427.123	6.89
427.328	6.73
427.533	6.74
427.739	6.84
427.944	7.04
428.15	7.03
428.355	7.21
428.561	7.4
428.766	7.36
428.971	7.26
429.177	7.41
429.382	7.53
429.587	7.67
429.793	7.9
429.998	7.99
430.203	7.91
430.408	7.72
430.614	7.72
430.819	7.58
431.024	7.33
431.229	7.56
431.434	7.45
431.64	7.49
431.845	7.41
432.05	7.36
432.255	7.54
432.46	7.58
432.665	7.58
432.87	7.4
433.076	7.47
433.281	7.74
433.486	7.83
433.691	7.78
433.896	7.76
434.101	7.74
434.306	7.85
434.511	7.76
434.716	7.82
434.921	7.85
435.126	8.03
435.331	8.07
435.535	7.95
435.74	7.95
435.945	8.04
436.15	8.18
436.355	8.27
436.56	8.28
436.765	8.16
436.97	8.23
437.174	8.25
437.379	8.15
437.584	8.13
437.789	8.11
437.993	7.98
438.198	7.86
438.403	7.73
438.608	7.81
438.812	7.73
439.017	7.76
439.222	7.7
439.426	7.55
439.631	7.41
439.836	7.34
440.04	7.27
440.245	7.24
440.45	7.38
440.654	7.46
440.859	7.32
441.063	7.12
441.268	7.06
441.472	7.08
441.677	7.3
441.881	7.44
442.086	7.53
442.29	7.64
442.495	7.6
442.699	7.5
442.904	7.51
443.108	7.65
443.312	7.84
443.517	7.94
443.721	7.83
443.925	7.86
444.13	7.81
444.334	7.66
444.538	7.68
444.743	7.67
444.947	7.66
445.151	7.46
445.356	7.47
445.56	7.47
445.764	7.54
445.968	7.48
446.173	7.5
446.377	7.52
446.581	7.5
446.785	7.42
446.989	7.54
447.193	7.53
447.398	7.63
447.602	7.45
447.806	7.47
448.01	7.25
448.214	7.18
448.418	7.01
448.622	7
448.826	7.18
449.03	7.17
449.234	7.12
449.438	7.1
449.642	6.91
449.846	7.15
450.05	7.08
450.254	7.17
450.458	7.01
450.662	7.11
450.866	7.06
451.069	6.88
451.273	6.7
451.477	6.72
451.681	6.93
451.885	7.16
452.089	7.16
452.292	7.25
452.496	7.22
452.7	7.66
452.904	7.58
453.107	7.65
453.311	7.55
453.515	7.84
453.719	7.81
453.922	7.58
454.126	7.71
454.33	7.45
454.533	7.46
454.737	7.35
454.94	7.15
455.144	7.29
455.348	7.27
455.551	7.26
455.755	7.32
455.958	7.36
456.162	7.52
456.365	7.37
456.569	7.59
456.772	7.5
456.976	7.6
457.179	7.57
457.383	7.57
457.586	7.63
457.79	7.8
457.993	7.59
458.196	7.52
458.4	7.48
458.603	7.53
458.807	7.56
459.01	7.58
459.213	7.52
459.417	7.46
459.62	7.31
459.823	7.1
460.026	7.08
460.23	7.16
460.433	7.19
460.636	7.1
460.839	7.06
461.042	6.99
461.246	6.81
461.449	6.95
461.652	7.17
461.855	7.09
462.058	7.32
