Data from 2937822_Reflection_3.txt Node
Date: Wed Jul 15 17:16:36 EDT 2015
User: robert
Spectrometer: USB4E03001
Autoset integration time: false
Trigger mode: 4
Integration Time (sec): 1.000000E-1
Scans to average: 10
Electric dark correction enabled: true
Nonlinearity correction enabled: false
Boxcar width: 5
Stray light correction enabled: false
XAxis mode: Wavelengths
Stop averaging: false
Number of Pixels in Spectrum: 3648
>>>>>Begin Spectral Data<<<<<
177.566	-153.47
177.785	-23.7
178.005	15.23
178.225	-1312.5
178.445	179.07
178.665	160.85
178.885	-125.03
179.105	-106.31
179.324	-386.96
179.544	-898.54
179.764	24.68
179.984	44.58
180.204	62.99
180.423	112.85
180.643	619.37
180.863	162.94
181.083	79.76
181.302	127.43
181.522	242.65
181.742	179.05
181.961	-41.18
182.181	-531.04
182.401	5504.76
182.621	347.04
182.84	-290.86
183.06	-125.41
183.279	-115.88
183.499	-79.95
183.719	-237.89
183.938	-244.41
184.158	-193.41
184.377	-45.88
184.597	-18.98
184.816	11.65
185.036	-5.86
185.256	-82.18
185.475	-74.26
185.695	-129.74
185.914	-105.06
186.134	-47.55
186.353	-49.07
186.572	-18.08
186.792	-36.37
187.011	-166.02
187.231	-168.04
187.45	-207.18
187.67	-135.12
187.889	-189.32
188.108	-374.82
188.328	-699.93
188.547	-2029.22
188.766	611.52
188.986	818
189.205	895.28
189.424	-180.75
189.644	-393.16
189.863	-320.93
190.082	-212.94
190.302	-156.37
190.521	-42.74
190.74	-44.76
190.959	-37.93
191.178	-34.75
191.398	-13.68
191.617	-18.35
191.836	-14.27
192.055	16.09
192.274	25.18
192.494	16.38
192.713	34.11
192.932	19.38
193.151	35.72
193.37	14.85
193.589	25.51
193.808	0.18
194.027	29.03
194.246	25.02
194.465	28.25
194.685	43
194.904	32.02
195.123	31.6
195.342	-5.66
195.561	-36.39
195.78	5.83
195.999	-0.12
196.218	-32.9
196.436	-140.48
196.655	-156.87
196.874	-210.76
197.093	-263.91
197.312	-216.03
197.531	-405.48
197.75	-111.15
197.969	-170.46
198.188	-9049.41
198.407	393.38
198.625	360.36
198.844	485.16
199.063	408.51
199.282	731.12
199.501	376.61
199.719	352.36
199.938	308.25
200.157	464.23
200.376	465.98
200.594	424.36
200.813	1408.19
201.032	-536.22
201.251	-23185
201.469	-1218.04
201.688	-167.4
201.907	-168.19
202.125	-180.31
202.344	-49.25
202.563	-515.37
202.781	-190.65
203	-261.25
203.218	-102.61
203.437	-101.45
203.656	-107.86
203.874	-108.7
204.093	-106.92
204.311	-51.47
204.53	-38.28
204.748	-72.97
204.967	5.5
205.185	-13.42
205.404	-13.06
205.622	-28.31
205.841	-48.36
206.059	-12.74
206.278	-7.99
206.496	-4.99
206.715	-29.6
206.933	-66.08
207.151	-3.81
207.37	-70.34
207.588	20.86
207.806	42.38
208.025	239.53
208.243	201.12
208.461	-37.55
208.68	-375.2
208.898	-498.02
209.116	-53.95
209.335	-63.83
209.553	39.77
209.771	15.21
209.989	93.36
210.208	83.27
210.426	202.81
210.644	953.08
210.862	835.14
211.081	741.32
211.299	-109700
211.517	-154.19
211.735	-139.6
211.953	-36.25
212.171	-58.93
212.39	-168.36
212.608	-123.96
212.826	-116.16
213.044	-25.37
213.262	-28.94
213.48	-8.39
213.698	13.11
213.916	29
214.134	23.97
214.352	-14.16
214.57	-9.87
214.788	-2.71
215.006	18.13
215.224	29.74
215.442	5
215.66	-0.42
215.878	11.05
216.096	-8.25
216.314	-11.35
216.532	-25.85
216.75	-25.62
216.968	3.12
217.185	25.9
217.403	18.64
217.621	-16.36
217.839	-9.73
218.057	-28.38
218.275	-1.81
218.492	3.17
218.71	-155.42
218.928	-39.92
219.146	-43.65
219.363	47.59
219.581	78.42
219.799	114.78
220.017	124.58
220.234	160.24
220.452	596.03
220.67	898.98
220.887	241.05
221.105	198.13
221.323	254.27
221.54	169.07
221.758	160.81
221.976	135.37
222.193	254.82
222.411	253.22
222.629	67.18
222.846	12.34
223.064	37.92
223.281	56.89
223.499	73.37
223.716	53.54
223.934	89.47
224.151	49.89
224.369	35.77
224.586	5.77
224.804	38.36
225.021	31.25
225.239	30.82
225.456	25.97
225.674	-24.17
225.891	-68.31
226.108	2.85
226.326	2.94
226.543	28.13
226.76	26.18
226.978	35.77
227.195	27.04
227.413	31.9
227.63	31.62
227.847	26.39
228.064	25.68
228.282	24.21
228.499	13.48
228.716	8.18
228.934	8.05
229.151	10.93
229.368	7.65
229.585	9.19
229.802	10.43
230.02	10.91
230.237	12.22
230.454	13.97
230.671	17.23
230.888	24.87
231.105	28.04
231.323	28.22
231.54	29.34
231.757	25.28
231.974	26.39
232.191	24.16
232.408	28.94
232.625	35.54
232.842	44.06
233.059	42.73
233.276	42.6
233.493	46.61
233.71	38.52
233.927	45.54
234.144	56.7
234.361	54.62
234.578	55.27
234.795	48.16
235.012	39.53
235.229	24.24
235.446	18.08
235.663	8.43
235.879	4.17
236.096	7.3
236.313	4.22
236.53	-2.75
236.747	-9.29
236.964	-9.19
237.181	-5.44
237.397	-7.06
237.614	3.69
237.831	11.55
238.048	14.03
238.264	10.8
238.481	10.7
238.698	8.76
238.915	11.97
239.131	17.56
239.348	19.45
239.565	24.07
239.781	25.09
239.998	18.94
240.215	14.9
240.431	14.34
240.648	16.29
240.865	17.5
241.081	15.06
241.298	15.69
241.514	14.84
241.731	11.89
241.947	9.1
242.164	10.43
242.38	11.99
242.597	11.39
242.814	9.61
243.03	8.7
243.246	8.52
243.463	7.67
243.679	7.05
243.896	4.65
244.112	6.51
244.329	7.27
244.545	5.51
244.762	2.86
244.978	3.91
245.194	4.06
245.411	2.24
245.627	2.39
245.843	4.77
246.06	4.45
246.276	6.42
246.492	4.4
246.709	4.6
246.925	5.75
247.141	6.03
247.357	5.78
247.574	5.58
247.79	5.28
248.006	5.82
248.222	5.87
248.439	6.76
248.655	6.44
248.871	5.96
249.087	6.7
249.303	6.9
249.519	6.03
249.736	5.01
249.952	5.27
250.168	9.67
250.384	9.03
250.6	9.54
250.816	6.97
251.032	8.42
251.248	9.46
251.464	6.18
251.68	5.37
251.896	7
252.112	7.6
252.328	7.81
252.544	7.4
252.76	4.51
252.976	4.11
253.192	7.63
253.408	5.45
253.624	6.02
253.84	9.07
254.056	9.22
254.272	12.35
254.487	14.42
254.703	15.71
254.919	13.73
255.135	14.89
255.351	13.81
255.567	7.1
255.782	10.89
255.998	10.26
256.214	6.76
256.43	8.08
256.646	7.51
256.861	3.06
257.077	3.2
257.293	-0.18
257.508	3.15
257.724	3.96
257.94	4.02
258.155	3.36
258.371	3.01
258.587	3.1
258.802	2.8
259.018	2.52
259.234	4.88
259.449	3.65
259.665	4.7
259.88	5
260.096	5.39
260.312	5.99
260.527	5.95
260.743	6.4
260.958	6.7
261.174	6.76
261.389	6.46
261.605	5.72
261.82	8.01
262.036	7.84
262.251	8.29
262.466	7.8
262.682	7.02
262.897	7.05
263.113	6.77
263.328	5.72
263.543	3.25
263.759	3.66
263.974	2.34
264.189	1.77
264.405	1.44
264.62	1.94
264.835	1.7
265.051	2
265.266	1.58
265.481	1.72
265.696	2.38
265.912	4.84
266.127	3.35
266.342	4.85
266.557	4.98
266.773	6.54
266.988	3.87
267.203	3.44
267.418	3.82
267.633	4.61
267.848	3.6
268.064	3.51
268.279	2.42
268.494	3.56
268.709	3.48
268.924	0.02
269.139	0.65
269.354	-0.26
269.569	0.07
269.784	-0.85
269.999	-1.91
270.214	-1.92
270.429	-4.11
270.644	-3
270.859	-3.43
271.074	-3.11
271.289	-1.64
271.504	-3.72
271.719	-2.24
271.934	-2.28
272.149	-2.2
272.363	-2.31
272.578	-1.53
272.793	1.04
273.008	1.95
273.223	3.07
273.438	4.09
273.653	4.57
273.867	5.66
274.082	8.39
274.297	9.34
274.512	11.22
274.726	12.06
274.941	13.09
275.156	12.64
275.371	11.36
275.585	10.98
275.8	10.01
276.015	10.67
276.229	10.33
276.444	6.56
276.659	6.49
276.873	6.4
277.088	6.28
277.302	3.15
277.517	1.97
277.732	2.77
277.946	4.14
278.161	2.46
278.375	2.16
278.59	1.57
278.804	3.97
279.019	2.2
279.233	0.9
279.448	1.7
279.662	2.73
279.877	3.54
280.091	3.88
280.306	2.08
280.52	3.61
280.735	3.7
280.949	2.88
281.163	2.96
281.378	3.45
281.592	4.26
281.806	3.04
282.021	2.88
282.235	3.05
282.449	3.62
282.664	4.56
282.878	4.42
283.092	3.34
283.307	4.71
283.521	3.16
283.735	4.12
283.949	3.37
284.164	3.67
284.378	4.51
284.592	5.46
284.806	4.55
285.02	3.82
285.234	3.79
285.449	5.81
285.663	7.35
285.877	8.22
286.091	9.71
286.305	10
286.519	9.87
286.733	10.45
286.947	8.73
287.161	10.32
287.375	10.01
287.589	10.33
287.803	10.02
288.017	8.29
288.231	7.38
288.445	6.98
288.659	7.08
288.873	7.57
289.087	5.54
289.301	6.72
289.515	4.34
289.729	5.95
289.943	4.88
290.157	6.52
290.371	6.26
290.584	7.32
290.798	5.75
291.012	5.56
291.226	5.11
291.44	6.15
291.654	5.25
291.867	6.61
292.081	6.06
292.295	7.46
292.509	4.27
292.722	5.61
292.936	6.46
293.15	6.96
293.364	7.49
293.577	6
293.791	6.5
294.005	9.13
294.218	8.65
294.432	8.69
294.645	10.02
294.859	12.31
295.073	12.29
295.286	11.94
295.5	12.34
295.713	12.04
295.927	13.48
296.14	11.86
296.354	11.92
296.568	11.44
296.781	10.83
296.994	10.63
297.208	9.14
297.421	8.19
297.635	6.97
297.848	6.72
298.062	7.47
298.275	7.22
298.489	8.73
298.702	7.5
298.915	8.21
299.129	8.77
299.342	8.77
299.555	9.7
299.769	10.34
299.982	10.95
300.195	10.62
300.409	10.37
300.622	10.9
300.835	9.55
301.048	9.33
301.262	8.12
301.475	7.26
301.688	6.79
301.901	4.67
302.115	4.36
302.328	6.15
302.541	6.13
302.754	4.09
302.967	4.07
303.18	4.91
303.393	4.12
303.607	5.37
303.82	7.11
304.033	6.88
304.246	9.32
304.459	10
304.672	9.81
304.885	10.34
305.098	11.24
305.311	10.53
305.524	10.29
305.737	11.35
305.95	11.56
306.163	10.37
306.376	11.39
306.589	11.07
306.802	10.02
307.015	8.63
307.228	7.53
307.44	7.85
307.653	9.12
307.866	8.83
308.079	9.31
308.292	8.26
308.505	8.68
308.718	8.75
308.93	6.26
309.143	6.98
309.356	8.27
309.569	8.84
309.781	8.94
309.994	10.24
310.207	10.94
310.42	10.57
310.632	11.31
310.845	10.9
311.058	10.82
311.27	12.51
311.483	11.92
311.696	12.01
311.908	11.82
312.121	13.13
312.333	11.52
312.546	10.51
312.759	12.28
312.971	12.06
313.184	14.26
313.396	12.49
313.609	11.09
313.821	13.71
314.034	12.19
314.246	11.93
314.459	13.1
314.671	13.9
314.884	16.38
315.096	15.15
315.309	15.77
315.521	13.9
315.733	13.88
315.946	14.35
316.158	13.55
316.371	16.66
316.583	17.05
316.795	14.31
317.008	15.7
317.22	13.8
317.432	13.53
317.644	13.78
317.857	14.97
318.069	17.39
318.281	18.67
318.494	19.72
318.706	17.56
318.918	17.98
319.13	18.02
319.342	16.59
319.555	16.09
319.767	15.29
319.979	13.99
320.191	12.43
320.403	11.23
320.615	11.21
320.827	8.57
321.039	8.53
321.252	6.93
321.464	8.26
321.676	7.98
321.888	10.29
322.1	13
322.312	13.81
322.524	16.34
322.736	17.55
322.948	18.37
323.16	20.81
323.372	20.04
323.584	22.46
323.796	24.33
324.007	24.49
324.219	24.22
324.431	23.17
324.643	24.09
324.855	23.1
325.067	22.57
325.279	23.3
325.491	23.88
325.702	25.1
325.914	25.83
326.126	24.38
326.338	24.33
326.55	25.51
326.761	24.99
326.973	24.63
327.185	24.36
327.396	25.49
327.608	26.32
327.82	26.96
328.032	27.95
328.243	27.38
328.455	28.24
328.666	31.52
328.878	32.34
329.09	35.11
329.301	35.92
329.513	37.59
329.725	37.73
329.936	40.01
330.148	41.25
330.359	40.99
330.571	42.04
330.782	43.09
330.994	43.22
331.205	44.78
331.417	45.42
331.628	47.73
331.84	48.98
332.051	51.48
332.262	51.28
332.474	51.45
332.685	53.92
332.897	55.43
333.108	56.17
333.319	56.07
333.531	55.83
333.742	58.17
333.953	58.41
334.165	59.66
334.376	59.51
334.587	58.35
334.799	59.25
335.01	60.17
335.221	60.59
335.432	61.43
335.644	63.22
335.855	65.55
336.066	65.63
336.277	65.32
336.488	64.87
336.7	64.89
336.911	66.29
337.122	66.68
337.333	66.42
337.544	66.83
337.755	67.4
337.966	65.68
338.177	65.34
338.388	64.91
338.599	65.39
338.811	66.16
339.022	66.36
339.233	66.1
339.444	66.48
339.655	66.59
339.866	67.33
340.076	68.83
340.287	70.86
340.498	70.96
340.709	71.77
340.92	72.51
341.131	72.96
341.342	74.58
341.553	75.13
341.764	74.84
341.975	76.45
342.185	77.26
342.396	76.01
342.607	78.09
342.818	78.77
343.029	80.04
343.239	80.65
343.45	81.25
343.661	82.33
343.872	82.99
344.082	82.56
344.293	83.84
344.504	81.81
344.714	81.36
344.925	79.74
345.136	79.74
345.346	78.95
345.557	78.39
345.768	77.09
345.978	76.44
346.189	76.68
346.399	77.31
346.61	75.52
346.821	77.45
347.031	77.89
347.242	78.97
347.452	78.08
347.663	76.92
347.873	78.21
348.084	79.89
348.294	80.11
348.504	79.57
348.715	79.78
348.925	79.46
349.136	78.26
349.346	78.31
349.557	77.1
349.767	77.39
349.977	78.69
350.188	77.88
350.398	76.85
350.608	76.31
350.819	76.28
351.029	75.27
351.239	76.54
351.449	76.38
351.66	76.15
351.87	77.2
352.08	78.37
352.29	78.93
352.501	79.63
352.711	81.05
352.921	81.03
353.131	81.85
353.341	83.27
353.552	82.53
353.762	83.06
353.972	84.38
354.182	83.42
354.392	82.25
354.602	81.05
354.812	80.1
355.022	79.28
355.232	79.44
355.442	78.6
355.652	79.06
355.862	78.48
356.072	77.8
356.282	77.25
356.492	77.07
356.702	76.96
356.912	76.75
357.122	76.49
357.332	77.22
357.542	76.5
357.752	75.87
357.962	76.12
358.171	76.46
358.381	78.19
358.591	77.78
358.801	77.82
359.011	77.7
359.221	77.56
359.43	77.4
359.64	75.99
359.85	76
360.06	76.04
360.269	75.27
360.479	75.21
360.689	74.51
360.899	73.71
361.108	73.32
361.318	73.33
361.528	73.48
361.737	73.78
361.947	74.47
362.156	74.84
362.366	75.17
362.576	74.44
362.785	74.1
362.995	73.68
363.204	74.57
363.414	74.26
363.623	74.08
363.833	74.59
364.042	74.88
364.252	74.89
364.461	74.85
364.671	75.25
364.88	76.07
365.09	75.24
365.299	75.21
365.509	75.06
365.718	75.54
365.927	75.64
366.137	75.4
366.346	74.93
366.555	75.21
366.765	74.24
366.974	73.56
367.183	73.32
367.393	73.03
367.602	72.49
367.811	72.83
368.021	72.53
368.23	72.58
368.439	72.01
368.648	71.12
368.857	70.52
369.067	70.2
369.276	70.12
369.485	68.52
369.694	69.45
369.903	69.52
370.112	69.2
370.321	68.49
370.531	68.32
370.74	67.66
370.949	67.78
371.158	67.93
371.367	67.51
371.576	67.82
371.785	68.86
371.994	68.02
372.203	66.7
372.412	66.61
372.621	66.67
372.83	66.12
373.039	66.38
373.248	66.17
373.457	64.65
373.666	64.57
373.874	63.96
374.083	63.79
374.292	65.23
374.501	66.31
374.71	65.25
374.919	65.03
375.128	64.76
375.336	63.88
375.545	64.18
375.754	63.81
375.963	63.21
376.171	62.75
376.38	62.3
376.589	59.77
376.798	59.47
377.006	58.93
377.215	58.94
377.424	58.5
377.632	58.86
377.841	57.77
378.05	58.13
378.258	58.14
378.467	57.46
378.675	56.55
378.884	56.91
379.093	56.58
379.301	56.84
379.51	56.24
379.718	56.43
379.927	56.19
380.135	56.14
380.344	55.62
380.552	55.54
380.761	55.67
380.969	56.1
381.177	56.19
381.386	56.12
381.594	55.63
381.803	55.43
382.011	54.52
382.219	53.94
382.428	54.29
382.636	54.59
382.845	54.71
383.053	54.41
383.261	54.18
383.469	54.34
383.678	54.26
383.886	54.54
384.094	53.95
384.302	54
384.511	53.8
384.719	53.23
384.927	52.88
385.135	52.43
385.343	52.21
385.552	51.71
385.76	51.2
385.968	50.46
386.176	49.81
386.384	49.92
386.592	49.6
386.8	49.46
387.008	49.22
387.216	48.58
387.424	48.45
387.633	48.64
387.841	48.52
388.049	48.24
388.257	47.77
388.465	47.61
388.672	47.44
388.88	47.56
389.088	47.13
389.296	46.6
389.504	46.55
389.712	45.97
389.92	45.16
390.128	44.67
390.336	44.64
390.544	45.2
390.751	44.84
390.959	44.82
391.167	44.44
391.375	44.32
391.583	44.51
391.79	44.51
391.998	44.86
392.206	44.7
392.414	44.39
392.621	44.31
392.829	43.8
393.037	43.8
393.244	43.68
393.452	43.69
393.66	43.91
393.867	43.74
394.075	43.26
394.283	43.07
394.49	43.33
394.698	43.81
394.905	43.61
395.113	43.37
395.32	43.15
395.528	43.12
395.735	42.9
395.943	42.62
396.15	42.48
396.358	42.59
396.565	42.26
396.773	42.19
396.98	42.3
397.188	42.09
397.395	41.95
397.602	41.95
397.81	41.54
398.017	41.84
398.225	42.14
398.432	42.28
398.639	42.43
398.847	42.58
399.054	42.33
399.261	41.64
399.468	41.76
399.676	42.25
399.883	42.13
400.09	42.33
400.297	41.72
400.505	41.21
400.712	41.43
400.919	41.85
401.126	42.05
401.333	41.95
401.54	42.1
401.748	42.38
401.955	42.49
402.162	42.47
402.369	42.38
402.576	42.4
402.783	42.76
402.99	42.44
403.197	41.69
403.404	41.37
403.611	41.67
403.818	41.44
404.025	41.22
404.232	40.79
404.439	40.9
404.646	40.54
404.853	40.98
405.06	40.94
405.267	40.8
405.474	41.14
405.681	41.16
405.887	41.03
406.094	41.12
406.301	40.95
406.508	41.09
406.715	41.18
406.922	41.7
407.128	41.3
407.335	40.54
407.542	40.39
407.749	39.85
407.955	39.51
408.162	39.36
408.369	39.71
408.575	39.53
408.782	39.43
408.989	39.09
409.195	38.96
409.402	38.99
409.609	39.55
409.815	39.7
410.022	40.06
410.228	40.29
410.435	40.26
410.642	40.13
410.848	40.12
411.055	40.28
411.261	40.43
411.468	40.15
411.674	40.37
411.881	40.21
412.087	40.12
412.294	39.93
412.5	39.86
412.706	39.74
412.913	39.5
413.119	39.85
413.326	39.48
413.532	39.21
413.738	39.56
413.945	39.18
414.151	39.17
414.357	39.08
414.564	39.2
414.77	39.11
414.976	39.34
415.182	39.16
415.389	38.85
415.595	38.8
415.801	38.74
416.007	38.29
416.214	38.5
416.42	38.51
416.626	38.8
416.832	38.58
417.038	38.57
417.244	38.56
417.45	38.71
417.657	38.61
417.863	38.44
418.069	38.52
418.275	38.49
418.481	38.48
418.687	38.26
418.893	38.22
419.099	38.3
419.305	38.35
419.511	38.14
419.717	37.99
419.923	38.16
420.129	38.29
420.335	38.37
420.541	38.34
420.746	38.22
420.952	38.29
421.158	38.22
421.364	38.06
421.57	37.88
421.776	37.82
421.982	37.91
422.187	37.63
422.393	37.56
422.599	37.42
422.805	37.33
423.01	37.22
423.216	37.09
423.422	36.92
423.628	36.91
423.833	36.89
424.039	36.76
424.245	36.75
424.45	36.79
424.656	36.72
424.862	36.76
425.067	36.91
425.273	36.89
425.478	36.99
425.684	36.88
425.889	37.03
426.095	37
426.301	37.15
426.506	36.73
426.712	36.61
426.917	36.75
427.123	36.49
427.328	36.57
427.533	36.57
427.739	36.29
427.944	36.29
428.15	36.01
428.355	36.2
428.561	36.21
428.766	36.39
428.971	36.35
429.177	36.23
429.382	36.4
429.587	35.9
429.793	35.9
429.998	36.29
430.203	36.33
430.408	36.45
430.614	36.2
430.819	35.88
431.024	36.12
431.229	36.11
431.434	36
431.64	35.96
431.845	36.27
432.05	36.29
432.255	36.05
432.46	36.1
432.665	36.08
432.87	35.99
433.076	36.23
433.281	36.21
433.486	36.39
433.691	36.6
433.896	36.59
434.101	36.45
434.306	36.36
434.511	36.48
434.716	36.62
434.921	36.7
435.126	36.78
435.331	36.83
435.535	36.84
435.74	36.72
435.945	36.42
436.15	36.44
436.355	36.56
436.56	36.76
436.765	36.65
436.97	36.45
437.174	36.24
437.379	36.22
437.584	36.17
437.789	36.16
437.993	36.32
438.198	36.38
438.403	36.51
438.608	36.39
438.812	36.22
439.017	36.26
439.222	36.17
439.426	36.29
439.631	36.43
439.836	36.23
440.04	36.15
440.245	36
440.45	36.06
440.654	35.82
440.859	35.86
441.063	35.86
441.268	35.83
441.472	35.91
441.677	35.84
441.881	35.7
442.086	35.89
442.29	35.8
442.495	35.8
442.699	35.7
442.904	35.85
443.108	36
443.312	35.96
443.517	35.86
443.721	35.82
443.925	35.84
444.13	35.84
444.334	35.65
444.538	35.68
444.743	35.83
444.947	35.78
445.151	35.7
445.356	35.54
445.56	35.57
445.764	35.59
445.968	35.54
446.173	35.43
446.377	35.5
446.581	35.72
446.785	35.58
446.989	35.43
447.193	35.46
447.398	35.44
447.602	35.42
447.806	35.5
448.01	35.39
448.214	35.68
448.418	35.62
448.622	35.58
448.826	35.46
449.03	35.58
449.234	35.66
449.438	35.78
449.642	35.76
449.846	35.72
450.05	35.67
450.254	35.75
450.458	35.36
450.662	35.41
450.866	35.54
451.069	35.4
451.273	35.53
451.477	35.2
451.681	35.04
451.885	34.97
452.089	35.21
452.292	34.9
452.496	35.15
452.7	35.06
452.904	35.08
453.107	34.93
453.311	35.04
453.515	34.95
453.719	35.3
453.922	35.16
454.126	35.29
454.33	34.94
454.533	35.09
454.737	34.71
454.94	34.86
455.144	34.79
455.348	34.87
455.551	34.74
455.755	34.4
455.958	34.23
456.162	34.26
456.365	34.15
456.569	34.44
456.772	34.31
456.976	34.58
457.179	34.45
457.383	34.52
457.586	34.25
457.79	34.27
457.993	34.59
458.196	34.53
458.4	34.49
