Data from 2937813_Reflection_1.txt Node
Date: Wed Jul 15 17:42:07 EDT 2015
User: robert
Spectrometer: USB4E03001
Autoset integration time: false
Trigger mode: 4
Integration Time (sec): 1.000000E-1
Scans to average: 10
Electric dark correction enabled: true
Nonlinearity correction enabled: false
Boxcar width: 5
Stray light correction enabled: false
XAxis mode: Wavelengths
Stop averaging: false
Number of Pixels in Spectrum: 3648
>>>>>Begin Spectral Data<<<<<
177.566	392.65
177.785	15283.33
178.005	103.06
178.225	55.94
178.445	83.49
178.665	-95.19
178.885	1.52
179.105	-27.78
179.324	-392.09
179.544	116.12
179.764	116.75
179.984	419.15
180.204	-1992.52
180.423	499.6
180.643	-2115.94
180.863	-671.1
181.083	125.69
181.302	28.94
181.522	-49.35
181.742	-1.19
181.961	-104.57
182.181	-94.06
182.401	-32.71
182.621	72.74
182.84	-447.12
183.06	130.09
183.279	35.54
183.499	56.16
183.719	83.57
183.938	89.13
184.158	49.78
184.377	70.57
184.597	71.11
184.816	31.98
185.036	40.91
185.256	22.61
185.475	28.82
185.695	19.84
185.914	15.57
186.134	20.99
186.353	10.03
186.572	22.33
186.792	28.43
187.011	34.87
187.231	43.2
187.45	-6.49
187.67	-2.73
187.889	-6.75
188.108	9.75
188.328	5.48
188.547	5.51
188.766	-2.49
188.986	4
189.205	399.01
189.424	254.75
189.644	-1212.14
189.863	6.19
190.082	283.28
190.302	326.59
190.521	89.4
190.74	509.19
190.959	-105.31
191.178	546.7
191.398	-182.39
191.617	-40.5
191.836	2.99
192.055	-112.75
192.274	-22.3
192.494	-55.78
192.713	-4.4
192.932	13.86
193.151	-70.07
193.37	-612.78
193.589	-172.02
193.808	-280.45
194.027	157.37
194.246	-80.39
194.465	-22.62
194.685	432.76
194.904	-363.31
195.123	761.63
195.342	585.19
195.561	275.17
195.78	-55.86
195.999	26.89
196.218	-79.75
196.436	48.25
196.655	148.15
196.874	197.57
197.093	171.34
197.312	356.44
197.531	-16.86
197.75	154.57
197.969	112.83
198.188	105.65
198.407	76.32
198.625	235.57
198.844	939.21
199.063	-2320.83
199.282	69.7
199.501	-119.4
199.719	77.09
199.938	135.67
200.157	185.05
200.376	37.52
200.594	51.52
200.813	50.86
201.032	19.55
201.251	1.56
201.469	-17.85
201.688	-1407.3
201.907	164.23
202.125	384.31
202.344	-50.32
202.563	45.89
202.781	54.84
203	20.86
203.218	43.32
203.437	49.49
203.656	45.77
203.874	81.38
204.093	30.5
204.311	49.66
204.53	59.26
204.748	39.1
204.967	20.18
205.185	33.48
205.404	125.8
205.622	183.73
205.841	-300.85
206.059	-198.03
206.278	-273.27
206.496	101.72
206.715	104.91
206.933	6.39
207.151	-77.57
207.37	-1250.82
207.588	14.71
207.806	-1.3
208.025	0.27
208.243	77.31
208.461	42.7
208.68	229.24
208.898	251.49
209.116	369.58
209.335	204.72
209.553	1886.52
209.771	210.13
209.989	-71.07
210.208	100.66
210.426	180.34
210.644	91.6
210.862	109.32
211.081	84.7
211.299	82.33
211.517	121.47
211.735	109.11
211.953	135.73
212.171	141.67
212.39	69.58
212.608	45.46
212.826	69.18
213.044	120.43
213.262	-47.57
213.48	136.09
213.698	39225
213.916	82.43
214.134	26.43
214.352	-439.87
214.57	-159.09
214.788	654
215.006	-279.31
215.224	249.25
215.442	895.93
215.66	180.63
215.878	123.56
216.096	189.13
216.314	389.74
216.532	130.86
216.75	-109.37
216.968	4
217.185	-34.7
217.403	-37.3
217.621	-77.97
217.839	-96.86
218.057	-488.28
218.275	87.9
218.492	101.53
218.71	84.75
218.928	40.04
219.146	42.74
219.363	52.31
219.581	58.63
219.799	69.9
220.017	22.1
220.234	34.94
220.452	73.17
220.67	183.54
220.887	13.96
221.105	-217.09
221.323	-96.35
221.54	-177.94
221.758	259.43
221.976	139.79
222.193	-2.59
222.411	341.36
222.629	275.11
222.846	562.7
223.064	233.51
223.281	269.91
223.499	158.99
223.716	228.96
223.934	281.44
224.151	1772.95
224.369	5766.12
224.586	2031.27
224.804	-608.7
225.021	-304.17
225.239	-146.2
225.456	-81.22
225.674	-48.86
225.891	-20.59
226.108	10.87
226.326	7.65
226.543	-11.13
226.76	23.29
226.978	3.44
227.195	-15.83
227.413	-0.18
227.63	9.58
227.847	14.86
228.064	10.05
228.282	18.25
228.499	17.46
228.716	18.37
228.934	16.2
229.151	11.02
229.368	18.07
229.585	19.17
229.802	16.25
230.02	14.07
230.237	16.81
230.454	17.55
230.671	8.75
230.888	8.38
231.105	12.44
231.323	14.14
231.54	16.49
231.757	8.25
231.974	9.3
232.191	5.35
232.408	6.13
232.625	-0.04
232.842	-1.91
233.059	7.76
233.276	4.7
233.493	-0.4
233.71	-4.93
233.927	-8.07
234.144	-0.98
234.361	1.06
234.578	-1.74
234.795	-0.41
235.012	-0.42
235.229	-0.95
235.446	-0.88
235.663	-0.32
235.879	-8.32
236.096	-6.25
236.313	-3.52
236.53	-7.03
236.747	-9.85
236.964	-4.94
237.181	-8.66
237.397	-19.69
237.614	-20.6
237.831	-29
238.048	-24.44
238.264	-18.8
238.481	-8.21
238.698	-8.06
238.915	-2.92
239.131	-0.95
239.348	6.75
239.565	11.66
239.781	12.43
239.998	7.25
240.215	12.09
240.431	7.77
240.648	5.07
240.865	0.68
241.081	6.4
241.298	5.45
241.514	7.52
241.731	7.73
241.947	7.38
242.164	10.13
242.38	9.75
242.597	12.28
242.814	12.85
243.03	11.84
243.246	13.81
243.463	11.69
243.679	11.6
243.896	10.91
244.112	11.82
244.329	12.59
244.545	14.15
244.762	14.6
244.978	13.01
245.194	16.9
245.411	19.21
245.627	20.62
245.843	22.58
246.06	22
246.276	19.93
246.492	17.64
246.709	16.55
246.925	15.64
247.141	17.9
247.357	16.46
247.574	15.27
247.79	15.09
248.006	14.99
248.222	14.35
248.439	15.78
248.655	15.16
248.871	14.18
249.087	13.88
249.303	13.5
249.519	10.76
249.736	9.88
249.952	8.87
250.168	9.13
250.384	6.96
250.6	5.42
250.816	0.56
251.032	3.46
251.248	1.71
251.464	2.95
251.68	2.81
251.896	3.28
252.112	3.61
252.328	2.61
252.544	3.46
252.76	0.8
252.976	2.49
253.192	2.13
253.408	3.96
253.624	6
253.84	3.41
254.056	2.41
254.272	4.12
254.487	5.48
254.703	5.74
254.919	4.35
255.135	6.62
255.351	4.61
255.567	5.08
255.782	0.6
255.998	3.75
256.214	5.99
256.43	8.48
256.646	3.85
256.861	2.55
257.077	6.19
257.293	8.63
257.508	7.42
257.724	8.21
257.94	9.21
258.155	8.6
258.371	6.88
258.587	6.82
258.802	6.82
259.018	9.29
259.234	10.99
259.449	10.23
259.665	9.05
259.88	9.84
260.096	8.94
260.312	7.9
260.527	8.23
260.743	9.05
260.958	9.1
261.174	9.36
261.389	8.76
261.605	8.15
261.82	7.38
262.036	6.89
262.251	5.81
262.466	4.79
262.682	4.35
262.897	2.84
263.113	0.93
263.328	0.72
263.543	-1.26
263.759	-1.36
263.974	-2.73
264.189	-1.94
264.405	-0.75
264.62	0.55
264.835	3.78
265.051	6.61
265.266	10.08
265.481	8.65
265.696	11.78
265.912	13.19
266.127	12
266.342	11.71
266.557	10.53
266.773	10.44
266.988	11.27
267.203	9.81
267.418	9
267.633	7.9
267.848	8.6
268.064	6.62
268.279	6.3
268.494	7.59
268.709	8.78
268.924	9.1
269.139	9.42
269.354	8.87
269.569	9.85
269.784	9.66
269.999	10.12
270.214	12.1
270.429	11.22
270.644	9
270.859	9.77
271.074	8.96
271.289	7.65
271.504	8.24
271.719	9.25
271.934	8.58
272.149	8.44
272.363	8.19
272.578	7.36
272.793	8.54
273.008	10.73
273.223	9.27
273.438	9.62
273.653	10.66
273.867	10.78
274.082	10.66
274.297	11.3
274.512	11.24
274.726	10.15
274.941	11.22
275.156	12.25
275.371	11.26
275.585	9.73
275.8	8.87
276.015	8.52
276.229	6.23
276.444	3.56
276.659	4.96
276.873	6.57
277.088	7.32
277.302	6.19
277.517	3.51
277.732	1.93
277.946	4.79
278.161	7.05
278.375	7.26
278.59	7.35
278.804	7.62
279.019	4.26
279.233	4.49
279.448	4.37
279.662	3.26
279.877	5.06
280.091	4.51
280.306	4.76
280.52	5.41
280.735	5.41
280.949	5.73
281.163	7.39
281.378	7.21
281.592	7.67
281.806	7.72
282.021	9.5
282.235	7.78
282.449	8.88
282.664	9.56
282.878	10.02
283.092	11.12
283.307	12.43
283.521	12.16
283.735	13.39
283.949	10.03
284.164	11.2
284.378	10.5
284.592	11.56
284.806	13.16
285.02	12.65
285.234	11.61
285.449	11
285.663	10.35
285.877	10.81
286.091	10.5
286.305	11.55
286.519	11.52
286.733	10.92
286.947	9.78
287.161	9.53
287.375	9.31
287.589	8.83
287.803	9.81
288.017	9.87
288.231	9.42
288.445	9.04
288.659	9.55
288.873	10.21
289.087	10.64
289.301	12.07
289.515	12.97
289.729	13.79
289.943	13.43
290.157	13.13
290.371	11.54
290.584	13.23
290.798	12.76
291.012	13.62
291.226	12.51
291.44	13.36
291.654	11.8
291.867	11.42
292.081	9.55
292.295	11.17
292.509	11.59
292.722	12.67
292.936	10.18
293.15	13.33
293.364	12.86
293.577	13.35
293.791	13.07
294.005	13.2
294.218	8.6
294.432	10.69
294.645	9.08
294.859	8.43
295.073	10.26
295.286	10.04
295.5	8.94
295.713	8.46
295.927	8.79
296.14	9.38
296.354	8.95
296.568	10.89
296.781	10.66
296.994	10.92
297.208	11.1
297.421	10.25
297.635	9.58
297.848	8.61
298.062	8.57
298.275	9.22
298.489	10.09
298.702	11.16
298.915	11.63
299.129	11.58
299.342	11.98
299.555	13.19
299.769	13.39
299.982	15.52
300.195	15.36
300.409	14.62
300.622	14.64
300.835	12.4
301.048	12.09
301.262	13.05
301.475	12.55
301.688	11.63
301.901	9.58
302.115	9.6
302.328	9.21
302.541	11.54
302.754	13.76
302.967	12.76
303.18	13.81
303.393	13.19
303.607	12.62
303.82	12.66
304.033	12.54
304.246	13.21
304.459	12.36
304.672	11.98
304.885	10.02
305.098	8.93
305.311	10.29
305.524	8.87
305.737	9.24
305.95	8.9
306.163	8.53
306.376	7.77
306.589	7.41
306.802	7.95
307.015	7.38
307.228	9.76
307.44	11.2
307.653	10.46
307.866	9.4
308.079	11.27
308.292	11
308.505	10.88
308.718	13.78
308.93	13.33
309.143	14.37
309.356	14.36
309.569	12.53
309.781	11.93
309.994	9.87
310.207	12.16
310.42	10.59
310.632	10.03
310.845	10.65
311.058	8.86
311.27	8.48
311.483	7.16
311.696	7.07
311.908	8.29
312.121	7.15
312.333	8.19
312.546	6.31
312.759	7.59
312.971	7
313.184	6.72
313.396	7.28
313.609	6.6
313.821	7.64
314.034	7.04
314.246	4.56
314.459	5.44
314.671	6.41
314.884	7.75
315.096	5.02
315.309	6.72
315.521	6.01
315.733	5.17
315.946	6.22
316.158	5.61
316.371	7.58
316.583	10.72
316.795	9.82
317.008	8.05
317.22	6.9
317.432	7.97
317.644	9.27
317.857	6.98
318.069	7.95
318.281	8.68
318.494	8.18
318.706	8.06
318.918	7.94
319.13	8.67
319.342	10.56
319.555	10.71
319.767	11.46
319.979	10.76
320.191	14.18
320.403	13.24
320.615	13.99
320.827	14.34
321.039	14.71
321.252	13.67
321.464	13.53
321.676	13.23
321.888	15.39
322.1	15.59
322.312	15.53
322.524	13.96
322.736	15.46
322.948	15.14
323.16	14.28
323.372	12.11
323.584	14
323.796	13.69
324.007	14.03
324.219	12.75
324.431	13.82
324.643	12.84
324.855	14.71
325.067	13.87
325.279	13.66
325.491	14.59
325.702	15.64
325.914	14.42
326.126	15.33
326.338	13.15
326.55	12.85
326.761	10.76
326.973	11.67
327.185	12.19
327.396	12.11
327.608	12.36
327.82	13.01
328.032	13.76
328.243	12.62
328.455	12.2
328.666	13.38
328.878	13.93
329.09	14.03
329.301	12.55
329.513	8.94
329.725	8.56
329.936	8.73
330.148	8.8
330.359	7.33
330.571	7.98
330.782	7.54
330.994	7.64
331.205	8.92
331.417	9.55
331.628	10.27
331.84	13.32
332.051	15.14
332.262	16.22
332.474	15.64
332.685	14.36
332.897	13.96
333.108	14.05
333.319	13.31
333.531	11.7
333.742	12.63
333.953	12.86
334.165	12.26
334.376	12.11
334.587	10.7
334.799	12.33
335.01	15.15
335.221	15.77
335.432	15.56
335.644	16.05
335.855	15.7
336.066	16.22
336.277	15.47
336.488	14.79
336.7	13.83
336.911	14.95
337.122	13.93
337.333	14.53
337.544	14.8
337.755	16.54
337.966	15.63
338.177	15.32
338.388	15.76
338.599	16.24
338.811	17.81
339.022	17.8
339.233	17.01
339.444	16.3
339.655	14.62
339.866	14.07
340.076	11.85
340.287	13.53
340.498	15.61
340.709	14.67
340.92	13.95
341.131	11.98
341.342	11.14
341.553	11.6
341.764	11.9
341.975	11.99
342.185	10.75
342.396	11.33
342.607	10.91
342.818	9.53
343.029	10.42
343.239	11.48
343.45	11.41
343.661	10.73
343.872	9.64
344.082	9.6
344.293	8.61
344.504	10.89
344.714	10.83
344.925	11.86
345.136	13.05
345.346	11.97
345.557	11.76
345.768	12.58
345.978	14.7
346.189	13.29
346.399	12.73
346.61	14.01
346.821	12.42
347.031	12.9
347.242	9.42
347.452	8.76
347.663	8.29
347.873	6.95
348.084	7.66
348.294	6.15
348.504	8.06
348.715	9.42
348.925	10.01
349.136	11.75
349.346	9.1
349.557	12.35
349.767	12.84
349.977	13.41
350.188	14.31
350.398	14.17
350.608	13.65
350.819	12.73
351.029	11.15
351.239	10.95
351.449	10.85
351.66	11.93
351.87	11.34
352.08	10.43
352.29	10.02
352.501	8.69
352.711	7.86
352.921	7.98
353.131	10.47
353.341	9.49
353.552	10.01
353.762	9.89
353.972	11.63
354.182	11.36
354.392	12.55
354.602	13.44
354.812	13.96
355.022	15.91
355.232	16.33
355.442	14.64
355.652	16.48
355.862	14.69
356.072	12.89
356.282	11.45
356.492	11.51
356.702	10.91
356.912	10.53
357.122	11.93
357.332	10.94
357.542	10.86
357.752	11.3
357.962	10.95
358.171	11.54
358.381	12.6
358.591	13.03
358.801	13.74
359.011	13.06
359.221	13.12
359.43	13.27
359.64	12.76
359.85	13.36
360.06	11.6
360.269	12.02
360.479	11.1
360.689	11.33
360.899	10.8
361.108	10.47
361.318	11.53
361.528	11.19
361.737	10.41
361.947	10.35
362.156	10.19
362.366	11.12
362.576	10.59
362.785	10.94
362.995	10.82
363.204	11.36
363.414	11.25
363.623	11.23
363.833	11.37
364.042	11.97
364.252	12.09
364.461	12.24
364.671	12.4
364.88	11.63
365.09	11.95
365.299	11.98
365.509	12.05
365.718	11.96
365.927	11.01
366.137	10.97
366.346	10.54
366.555	9.99
366.765	9.34
366.974	9.59
367.183	9.67
367.393	10.39
367.602	9.93
367.811	9.82
368.021	10.36
368.23	10.47
368.439	9.35
368.648	9.19
368.857	8.78
369.067	9.31
369.276	8.94
369.485	9.63
369.694	8
369.903	7.91
370.112	8.3
370.321	8.02
370.531	7.73
370.74	8.16
370.949	8.49
371.158	8.95
371.367	8.66
371.576	8.77
371.785	9.04
371.994	9.76
372.203	10.28
372.412	9.96
372.621	9.02
372.83	8.54
373.039	8.61
373.248	8.7
373.457	8.58
373.666	8.72
373.874	9.71
374.083	9.82
374.292	9.27
374.501	8.28
374.71	8.48
374.919	8.84
375.128	8.86
375.336	9.31
375.545	8.73
375.754	8.23
375.963	7.6
376.171	6.49
376.38	6.5
376.589	7.01
376.798	7.73
377.006	7.35
377.215	7.49
377.424	7.64
377.632	7.41
377.841	7.5
378.05	8.88
378.258	8.89
378.467	9.04
378.675	8.65
378.884	8.49
379.093	8.39
379.301	8.68
379.51	9.06
379.718	9.68
379.927	10.64
380.135	10.68
380.344	10.39
380.552	11.96
380.761	12.15
380.969	12.85
381.177	12.94
381.386	13.25
381.594	12.91
381.803	13.14
382.011	12.74
382.219	11.86
382.428	12.2
382.636	11.68
382.845	10.98
383.053	10.82
383.261	10.08
383.469	9.84
383.678	9.49
383.886	9.38
384.094	8.55
384.302	8.64
384.511	8.6
384.719	7.88
384.927	8.22
385.135	7.83
385.343	8.04
385.552	8.22
385.76	8.05
385.968	7.83
386.176	7.6
386.384	7.36
386.592	7.47
386.8	7.51
387.008	7.9
387.216	7.91
387.424	8.08
387.633	7.89
387.841	7.68
388.049	7.71
388.257	7.52
388.465	7.69
388.672	8.03
388.88	7.46
389.088	7.5
389.296	7.06
389.504	6.63
389.712	6.66
389.92	6.74
390.128	6.99
390.336	6.9
390.544	7.14
390.751	7.52
390.959	7.35
391.167	7.21
391.375	6.92
391.583	7.48
391.79	7.44
391.998	6.73
392.206	6.27
392.414	5.72
392.621	5.53
392.829	5.35
393.037	5.45
393.244	5.15
393.452	5.7
393.66	5.41
393.867	5.21
394.075	4.96
394.283	5.21
394.49	5.2
394.698	5.24
394.905	5.24
395.113	5.39
395.32	4.8
395.528	5.24
395.735	5.18
395.943	5.2
396.15	5.05
396.358	5.58
396.565	5.48
396.773	5.68
396.98	5.45
397.188	5.51
397.395	5.62
397.602	5.62
397.81	5.17
398.017	4.53
398.225	4.76
398.432	4.87
398.639	4.7
398.847	5.21
399.054	5.12
399.261	5.44
399.468	5.73
399.676	5.63
399.883	6.15
400.09	6.43
400.297	6.53
400.505	6.62
400.712	6.31
400.919	6.15
401.126	5.69
401.333	6.18
401.54	6.31
401.748	6.37
401.955	6.33
402.162	5.84
402.369	5.95
402.576	6.53
402.783	6.52
402.99	6.38
403.197	6.54
403.404	6.56
403.611	6.26
403.818	6.45
404.025	6.23
404.232	5.94
404.439	6.31
404.646	6.28
404.853	6.07
405.06	6.02
405.267	6.25
405.474	6.36
405.681	6.49
405.887	6.35
406.094	6.1
406.301	6.05
406.508	5.95
406.715	5.68
406.922	5.46
407.128	5.56
407.335	5.5
407.542	5.32
407.749	4.79
407.955	4.74
408.162	4.65
408.369	4.91
408.575	5.16
408.782	5.43
408.989	5.5
409.195	5.43
409.402	5.33
409.609	5.49
409.815	5.16
410.022	5.39
410.228	5.5
410.435	5.63
410.642	5.42
410.848	5.16
411.055	5.21
411.261	5.23
411.468	5.57
411.674	5.21
411.881	5.14
412.087	5.5
412.294	5.51
412.5	5.35
412.706	5.26
412.913	5.36
413.119	5.09
413.326	4.95
413.532	4.62
413.738	4.29
413.945	4.68
414.151	4.49
414.357	4.32
414.564	4.7
414.77	4.36
414.976	4.52
415.182	4.17
415.389	4.6
415.595	4.59
415.801	4.94
416.007	5.23
416.214	5.15
416.42	5.33
416.626	5.64
416.832	5.46
417.038	5.84
417.244	5.88
417.45	6.07
417.657	5.9
417.863	6.13
418.069	6.1
418.275	6
418.481	5.82
418.687	5.91
418.893	5.7
419.099	5.66
419.305	5.44
419.511	5.42
419.717	5.54
419.923	5.6
420.129	5.6
420.335	5.82
420.541	5.76
420.746	5.79
420.952	5.8
421.158	5.87
421.364	5.79
421.57	5.92
421.776	5.99
421.982	5.81
422.187	5.76
422.393	5.76
422.599	5.52
422.805	5.5
423.01	5.56
423.216	5.43
423.422	5.47
423.628	5.47
423.833	5.46
424.039	5.33
424.245	5.44
424.45	5.45
424.656	5.37
424.862	5.42
425.067	5.47
425.273	5.48
425.478	5.35
425.684	5.32
425.889	5.37
426.095	4.99
426.301	5.1
426.506	4.91
426.712	5.05
426.917	5.14
427.123	5.04
427.328	4.87
427.533	4.92
427.739	5.37
427.944	5.26
428.15	5.32
428.355	5.57
428.561	5.43
428.766	5.65
428.971	5.36
429.177	5.25
429.382	5.19
429.587	5.29
429.793	5.09
429.998	4.72
430.203	4.82
430.408	4.69
430.614	5.2
430.819	5.21
431.024	5
431.229	5.31
431.434	5.3
431.64	5.33
431.845	5.53
432.05	5.58
432.255	5.52
432.46	5.32
432.665	5.39
432.87	5.17
433.076	5.15
433.281	5.28
433.486	5.01
433.691	4.96
433.896	5.05
434.101	5.03
434.306	5.23
434.511	5.29
434.716	5.36
434.921	5.41
435.126	5.28
435.331	5.27
435.535	5.34
435.74	5.46
435.945	5.55
436.15	5.38
436.355	5.27
436.56	5.21
436.765	5.27
436.97	5.3
437.174	5.46
437.379	5.48
437.584	5.52
437.789	5.48
437.993	5.43
438.198	5.3
438.403	5.29
438.608	5.23
438.812	5.23
439.017	5.19
439.222	5.42
439.426	5.19
439.631	5.15
439.836	5.07
440.04	5.11
440.245	5.08
440.45	5.21
440.654	5.26
440.859	5.38
441.063	5.41
441.268	5.38
441.472	5.35
441.677	5.32
441.881	5.43
442.086	5.58
442.29	5.62
442.495	5.68
442.699	5.66
442.904	5.57
443.108	5.78
443.312	5.48
443.517	5.54
443.721	5.36
443.925	5.57
444.13	5.67
444.334	5.52
444.538	5.15
444.743	5.23
444.947	5.2
445.151	5.24
445.356	4.94
445.56	5.12
445.764	5.11
445.968	5.1
446.173	5
446.377	4.81
446.581	5
446.785	5.35
446.989	5.36
447.193	5.21
447.398	5.3
447.602	5.31
447.806	5.43
448.01	5.47
448.214	5.4
448.418	5.47
448.622	5.54
448.826	5.25
449.03	5.14
449.234	5.06
449.438	5.17
449.642	5.34
449.846	5.54
450.05	5.27
450.254	5.27
450.458	5.43
450.662	5.32
450.866	5.31
451.069	5.46
451.273	5.38
451.477	5.34
451.681	5.32
451.885	5.06
452.089	4.92
452.292	5.27
452.496	5.25
452.7	5.39
452.904	5.31
453.107	5.51
453.311	5.52
453.515	5.45
453.719	5.56
453.922	5.53
454.126	5.62
454.33	5.57
454.533	5.5
454.737	5.61
454.94	5.64
455.144	5.66
455.348	5.61
455.551	5.46
455.755	5.41
455.958	5.34
456.162	5.53
456.365	5.44
456.569	5.34
456.772	5.25
456.976	5.08
457.179	5.08
457.383	5.09
457.586	4.82
457.79	4.88
457.993	5.02
458.196	5
458.4	5.1
458.603	4.95
458.807	5.03
459.01	4.99
459.213	5
459.417	4.71
459.62	4.74
459.823	4.78
460.026	4.74
460.23	4.82
460.433	4.92
460.636	4.74
460.839	4.85
461.042	4.96
461.246	4.87
461.449	4.85
461.652	5.06
461.855	5.19
462.058	5.41
462.261	5.45
462.464	5.34
462.668	5.11
462.871	5.35
463.074	5.3
463.277	5.01
463.48	5
463.683	5.09
463.886	5.02
464.089	4.91
464.292	4.81
464.495	4.84
464.698	4.7
464.901	4.91
465.104	4.76
465.306	4.87
