Data from 2937812_Reflection_2.txt Node
Date: Wed Jul 15 17:44:31 EDT 2015
User: robert
Spectrometer: USB4E03001
Autoset integration time: false
Trigger mode: 4
Integration Time (sec): 1.000000E-1
Scans to average: 10
Electric dark correction enabled: true
Nonlinearity correction enabled: false
Boxcar width: 5
Stray light correction enabled: false
XAxis mode: Wavelengths
Stop averaging: false
Number of Pixels in Spectrum: 3648
>>>>>Begin Spectral Data<<<<<
177.566	201
177.785	5133.33
178.005	91.35
178.225	79.08
178.445	105.42
178.665	77.78
178.885	74.98
179.105	5.56
179.324	-351.9
179.544	54.62
179.764	114.23
179.984	190.32
180.204	-641.5
180.423	489.86
180.643	-4871.01
180.863	-2626.59
181.083	-321.7
181.302	-231.56
181.522	-81.76
181.742	-126.5
181.961	-261.22
182.181	-166.68
182.401	-428.67
182.621	-126.92
182.84	-84.82
183.06	-2179.65
183.279	225.27
183.499	208.84
183.719	290.77
183.938	136.9
184.158	106.35
184.377	127.54
184.597	100.22
184.816	83
185.036	43.98
185.256	18.28
185.475	3.44
185.695	-21.26
185.914	-35.25
186.134	-15.39
186.353	-15.29
186.572	6.04
186.792	16.58
187.011	38.38
187.231	37.58
187.45	52.38
187.67	77.87
187.889	77.8
188.108	100.94
188.328	86.76
188.547	117.48
188.766	209.72
188.986	337.94
189.205	-213.01
189.424	56.16
189.644	-838.15
189.863	-92.95
190.082	-918.84
190.302	-203.24
190.521	-62.6
190.74	-354.26
190.959	922.04
191.178	-737.56
191.398	598.59
191.617	99.94
191.836	102.77
192.055	124.19
192.274	60.51
192.494	78.61
192.713	123.7
192.932	102.3
193.151	82.33
193.37	-218.33
193.589	-4.8
193.808	-53.96
194.027	36.41
194.246	173.65
194.465	-198.21
194.685	516.74
194.904	-385.47
195.123	1011.63
195.342	1211.94
195.561	765.1
195.78	-406.71
195.999	-298.57
196.218	536.69
196.436	157.06
196.655	231.69
196.874	281.98
197.093	378.63
197.312	2435.11
197.531	-462.21
197.75	211.13
197.969	148.46
198.188	116.17
198.407	83.25
198.625	165.21
198.844	1120.06
199.063	-5862.5
199.282	-64.53
199.501	499.25
199.719	69.44
199.938	195.77
200.157	329.24
200.376	13.2
200.594	41.15
200.813	50.52
201.032	43.03
201.251	53.18
201.469	545.34
201.688	2246.07
201.907	-762.11
202.125	2565.2
202.344	-1025.8
202.563	-478.65
202.781	-157.17
203	-64.97
203.218	-9.4
203.437	10.86
203.656	-9.98
203.874	20.18
204.093	34.37
204.311	36.76
204.53	40.55
204.748	41.38
204.967	31.54
205.185	63.7
205.404	150
205.622	150
205.841	47.37
206.059	195.24
206.278	209.53
206.496	-99.19
206.715	-139.04
206.933	-56.6
207.151	-32.56
207.37	-734.43
207.588	131.89
207.806	-103.22
208.025	-30.67
208.243	81.87
208.461	83.37
208.68	85.85
208.898	125.45
209.116	187.07
209.335	176.25
209.553	-353.93
209.771	-16.54
209.989	536.02
210.208	486.15
210.426	1281.3
210.644	369.8
210.862	155.86
211.081	155.99
211.299	150.76
211.517	207.17
211.735	253.45
211.953	283.78
212.171	296.8
212.39	250.75
212.608	266.66
212.826	175.99
213.044	220.11
213.262	422.11
213.48	167.14
213.698	-12525
213.916	56.17
214.134	-30.02
214.352	-635.95
214.57	-333.61
214.788	2607
215.006	-289.31
215.224	78.56
215.442	394.58
215.66	171.59
215.878	3.88
216.096	84.76
216.314	174.07
216.532	9.97
216.75	-295.16
216.968	-52.93
217.185	-12.39
217.403	-8.78
217.621	5.02
217.839	-80.59
218.057	-691.68
218.275	125.6
218.492	115.81
218.71	132.63
218.928	75.79
219.146	57.44
219.363	116.29
219.581	100.03
219.799	87.67
220.017	52.68
220.234	71.25
220.452	82
220.67	178.56
220.887	-87.03
221.105	-162.37
221.323	-133.53
221.54	-349.68
221.758	494.32
221.976	741.18
222.193	-1728.82
222.411	965.31
222.629	457.71
222.846	626.82
223.064	209.72
223.281	216.12
223.499	201.95
223.716	170.46
223.934	96.57
224.151	582.67
224.369	692.56
224.586	23.66
224.804	11.84
225.021	89.02
225.239	11.41
225.456	30.47
225.674	73.29
225.891	83.52
226.108	134.8
226.326	93.43
226.543	103.5
226.76	84.74
226.978	47.45
227.195	30.48
227.413	22.26
227.63	16.62
227.847	17.84
228.064	9.66
228.282	13.57
228.499	12.07
228.716	13.61
228.934	12.15
229.151	8.56
229.368	12.88
229.585	15.17
229.802	18.2
230.02	19.97
230.237	19.59
230.454	19.44
230.671	18.04
230.888	16.98
231.105	16.56
231.323	18.54
231.54	20.14
231.757	14.65
231.974	7.57
232.191	-0.88
232.408	-2.19
232.625	-5.21
232.842	-3.06
233.059	-2.44
233.276	8.46
233.493	11.3
233.71	10.29
233.927	13.12
234.144	24.52
234.361	26.22
234.578	23.22
234.795	26.4
235.012	24.69
235.229	26.32
235.446	24.21
235.663	17.2
235.879	9.88
236.096	11.12
236.313	6.26
236.53	2.73
236.747	4.76
236.964	12.2
237.181	3.69
237.397	6.2
237.614	-0.56
237.831	1.22
238.048	11.67
238.264	15.94
238.481	12.73
238.698	15.97
238.915	19.37
239.131	20.48
239.348	16.33
239.565	22.48
239.781	8.36
239.998	7.86
240.215	12.06
240.431	5.88
240.648	10.57
240.865	7.95
241.081	10.42
241.298	9.23
241.514	8.42
241.731	8.54
241.947	7.4
242.164	11.35
242.38	11.32
242.597	11.48
242.814	13.26
243.03	12.21
243.246	13.8
243.463	12.36
243.679	11.74
243.896	11.27
244.112	11.78
244.329	13.47
244.545	17.08
244.762	18.43
244.978	19
245.194	18.3
245.411	17.13
245.627	19.39
245.843	20.74
246.06	19.12
246.276	19.17
246.492	20.17
246.709	18.78
246.925	17.91
247.141	18.41
247.357	16.59
247.574	17.16
247.79	16.28
248.006	16.09
248.222	15.77
248.439	16.23
248.655	16.47
248.871	14.23
249.087	13.99
249.303	14.38
249.519	12.67
249.736	14.85
249.952	13.85
250.168	15.36
250.384	13.72
250.6	13.63
250.816	12.21
251.032	12.31
251.248	12.39
251.464	13.8
251.68	10.21
251.896	13.55
252.112	12.52
252.328	11.24
252.544	11.43
252.76	9.34
252.976	11.18
253.192	10.18
253.408	10.86
253.624	12.91
253.84	8.56
254.056	11.43
254.272	9.71
254.487	8.98
254.703	9.44
254.919	11.77
255.135	14.96
255.351	13.35
255.567	16.78
255.782	11.61
255.998	12.13
256.214	16.51
256.43	14.66
256.646	7.77
256.861	7.73
257.077	6.84
257.293	8.54
257.508	8.25
257.724	9.9
257.94	9.55
258.155	10.81
258.371	10.09
258.587	9.63
258.802	10.17
259.018	11.45
259.234	11.66
259.449	12.25
259.665	11.39
259.88	12.58
260.096	11.75
260.312	11.29
260.527	11.51
260.743	11.58
260.958	11.03
261.174	10.64
261.389	11.56
261.605	11.25
261.82	9.83
262.036	9.38
262.251	8.2
262.466	7.6
262.682	8.63
262.897	8.87
263.113	8.49
263.328	7.64
263.543	8.64
263.759	8.89
263.974	7.17
264.189	9.19
264.405	8.22
264.62	8.11
264.835	9.06
265.051	6.81
265.266	6.76
265.481	4.08
265.696	8.23
265.912	8.12
266.127	5.6
266.342	5.64
266.557	5.95
266.773	8.31
266.988	9.58
267.203	9.71
267.418	10.75
267.633	10.34
267.848	11.13
268.064	9.39
268.279	9.27
268.494	11.67
268.709	12.15
268.924	13.42
269.139	12.62
269.354	10.09
269.569	11.67
269.784	13.05
269.999	12.13
270.214	13.53
270.429	15.36
270.644	13.93
270.859	14.47
271.074	15.22
271.289	12.65
271.504	11.49
271.719	11.56
271.934	10.29
272.149	9.09
272.363	9.78
272.578	10.4
272.793	9.45
273.008	10.91
273.223	10.06
273.438	9.44
273.653	10.61
273.867	12.06
274.082	14.83
274.297	15.1
274.512	16.37
274.726	16.01
274.941	15.02
275.156	15.29
275.371	13.06
275.585	11.11
275.8	11.31
276.015	11.08
276.229	9.69
276.444	6.86
276.659	5.52
276.873	3.45
277.088	3.34
277.302	0.79
277.517	0.86
277.732	1.7
277.946	1.8
278.161	3.57
278.375	4.75
278.59	2.91
278.804	2.04
279.019	1.61
279.233	3.16
279.448	3.15
279.662	3.98
279.877	3.84
280.091	3.86
280.306	5.78
280.52	5.74
280.735	5.84
280.949	7.76
281.163	8.44
281.378	6.65
281.592	6.85
281.806	9.22
282.021	10.91
282.235	9.48
282.449	11.78
282.664	10.74
282.878	10.95
283.092	10.52
283.307	10.71
283.521	11
283.735	12.74
283.949	11.26
284.164	10.41
284.378	10.42
284.592	12.67
284.806	12.32
285.02	14.92
285.234	14.5
285.449	14.13
285.663	12.65
285.877	12.03
286.091	11.14
286.305	11.54
286.519	9.75
286.733	9.3
286.947	7.24
287.161	6.65
287.375	4.82
287.589	4.81
287.803	4
288.017	4.19
288.231	4.23
288.445	5.73
288.659	8.33
288.873	10.29
289.087	10.22
289.301	12.07
289.515	13.58
289.729	13.6
289.943	13
290.157	13.64
290.371	14.1
290.584	16.03
290.798	14.81
291.012	13.8
291.226	14.55
291.44	15.21
291.654	15.37
291.867	15.63
292.081	15.15
292.295	15.23
292.509	15.7
292.722	15.43
292.936	14.02
293.15	14.68
293.364	14.07
293.577	14.16
293.791	12.84
294.005	10.31
294.218	8.59
294.432	10.29
294.645	11.44
294.859	12.53
295.073	13.11
295.286	12.91
295.5	14.15
295.713	13.86
295.927	13.47
296.14	13.11
296.354	14.12
296.568	12.54
296.781	11.78
296.994	11.91
297.208	12.14
297.421	12.65
297.635	12.16
297.848	10.35
298.062	10.52
298.275	11.23
298.489	13.19
298.702	14.43
298.915	16.1
299.129	17.08
299.342	16.89
299.555	16.13
299.769	15.6
299.982	16.15
300.195	17.18
300.409	16.39
300.622	15.01
300.835	13.56
301.048	12.87
301.262	12.36
301.475	12.62
301.688	11.38
301.901	10.77
302.115	12.28
302.328	12.42
302.541	13.42
302.754	14.69
302.967	15.7
303.18	15.85
303.393	14.3
303.607	15.69
303.82	15.29
304.033	15.98
304.246	16.17
304.459	15.15
304.672	14.58
304.885	14.19
305.098	13.31
305.311	14.73
305.524	14.55
305.737	14.99
305.95	13.78
306.163	12.82
306.376	12.53
306.589	13.79
306.802	11.36
307.015	11.44
307.228	9.78
307.44	10.78
307.653	10.36
307.866	9.44
308.079	9.72
308.292	9.17
308.505	9.72
308.718	11.84
308.93	11.72
309.143	15.15
309.356	15.32
309.569	16.44
309.781	16.68
309.994	15.21
310.207	17.27
310.42	16.85
310.632	17.17
310.845	16.41
311.058	15.17
311.27	15.7
311.483	14.59
311.696	14.03
311.908	14.13
312.121	12.32
312.333	11.99
312.546	9.36
312.759	10.41
312.971	11.53
313.184	12.65
313.396	13.54
313.609	11.7
313.821	12.49
314.034	12.95
314.246	11.54
314.459	13.94
314.671	14.32
314.884	16.47
315.096	15.18
315.309	12.36
315.521	11.49
315.733	10.94
315.946	11.29
316.158	11.19
316.371	14.25
316.583	16.71
316.795	16.94
317.008	15.53
317.22	14.66
317.432	14.65
317.644	16.39
317.857	17.54
318.069	16.8
318.281	16.6
318.494	15.1
318.706	13.48
318.918	13.99
319.13	14.13
319.342	17.64
319.555	16.7
319.767	17.84
319.979	16.37
320.191	16.03
320.403	16.39
320.615	16.68
320.827	15.88
321.039	15.3
321.252	14.96
321.464	14.4
321.676	13.37
321.888	16.87
322.1	14.77
322.312	15.36
322.524	14.91
322.736	15.48
322.948	15.92
323.16	16.18
323.372	15.72
323.584	14.85
323.796	16.07
324.007	14.63
324.219	12.09
324.431	12.95
324.643	13.54
324.855	14.41
325.067	14.52
325.279	14.14
325.491	15.12
325.702	15.91
325.914	16.29
326.126	14.02
326.338	12.9
326.55	12.75
326.761	13.39
326.973	12.93
327.185	11.97
327.396	12.91
327.608	13.31
327.82	13.63
328.032	13.84
328.243	14.95
328.455	15.58
328.666	18.31
328.878	19.54
329.09	19.6
329.301	19.87
329.513	18.06
329.725	15.7
329.936	15.44
330.148	15.73
330.359	13.76
330.571	12.64
330.782	13.09
330.994	11.11
331.205	11.75
331.417	11.63
331.628	11.33
331.84	15.31
332.051	16.84
332.262	16.83
332.474	15.18
332.685	15.02
332.897	14.76
333.108	14.78
333.319	13.71
333.531	12.45
333.742	12.43
333.953	13.07
334.165	11.77
334.376	11.71
334.587	11.3
334.799	13.65
335.01	15.11
335.221	14.49
335.432	12.24
335.644	12.68
335.855	11.12
336.066	11.99
336.277	11.71
336.488	12.27
336.7	11.82
336.911	13.9
337.122	12.83
337.333	13.54
337.544	13.41
337.755	16.48
337.966	17.15
338.177	17.43
338.388	17.21
338.599	16.15
338.811	15.29
339.022	15.79
339.233	12.77
339.444	12.63
339.655	12.15
339.866	13.12
340.076	12.72
340.287	13.11
340.498	14.49
340.709	14.76
340.92	15.48
341.131	15.47
341.342	14.49
341.553	15.91
341.764	14.37
341.975	13.3
342.185	12.09
342.396	10.04
342.607	9.86
342.818	9.36
343.029	9.14
343.239	10.16
343.45	11.09
343.661	11.36
343.872	10.44
344.082	13.14
344.293	13.87
344.504	15.32
344.714	16.02
344.925	15.63
345.136	16.07
345.346	15.84
345.557	16.23
345.768	14.97
345.978	15.48
346.189	16.97
346.399	15.58
346.61	15.2
346.821	14.21
347.031	14.42
347.242	13.99
347.452	15.09
347.663	15.88
347.873	13.54
348.084	15.9
348.294	15.28
348.504	13.95
348.715	14.17
348.925	14.55
349.136	15.87
349.346	13.62
349.557	14.5
349.767	14.74
349.977	13.05
350.188	14.97
350.398	14.1
350.608	14.35
350.819	13.79
351.029	13.3
351.239	13.27
351.449	11.98
351.66	11.89
351.87	11.18
352.08	9.49
352.29	9.99
352.501	10.02
352.711	10.07
352.921	8.93
353.131	9.74
353.341	10.44
353.552	9.2
353.762	11.42
353.972	14.58
354.182	15.39
354.392	16.39
354.602	15.64
354.812	14.05
355.022	13.7
355.232	14.92
355.442	15.26
355.652	15.24
355.862	16.06
356.072	13.92
356.282	12.93
356.492	12.59
356.702	11.89
356.912	12.91
357.122	14.62
357.332	14.42
357.542	14.23
357.752	14.58
357.962	14.32
358.171	14.87
358.381	15.51
358.591	16.59
358.801	18.14
359.011	18.6
359.221	18.84
359.43	18.62
359.64	19.65
359.85	19.43
360.06	19.07
360.269	18.97
360.479	17.43
360.689	17.25
360.899	16.57
361.108	15.98
361.318	15.7
361.528	15.42
361.737	15.51
361.947	14.64
362.156	14.87
362.366	13.88
362.576	13.88
362.785	14.11
362.995	14.2
363.204	13.91
363.414	13.48
363.623	14.36
363.833	13.96
364.042	14.02
364.252	14.73
364.461	14.08
364.671	15.11
364.88	14.84
365.09	15.42
365.299	15.96
365.509	15.73
365.718	15.62
365.927	13.46
366.137	13.74
366.346	12.59
366.555	11.1
366.765	11.37
366.974	11.66
367.183	12.05
367.393	12.24
367.602	11.3
367.811	12.18
368.021	12.12
368.23	13.59
368.439	13.09
368.648	13.6
368.857	13.74
369.067	12.88
369.276	12.5
369.485	12.33
369.694	11.72
369.903	11.18
370.112	10.61
370.321	10.72
370.531	10.92
370.74	10.81
370.949	9.95
371.158	10.74
371.367	11.8
371.576	12.12
371.785	12.26
371.994	12.35
372.203	13.86
372.412	13.71
372.621	13.39
372.83	11.66
373.039	11.92
373.248	12.76
373.457	12.59
373.666	12.28
373.874	12.93
374.083	13.04
374.292	12.76
374.501	11.53
374.71	11.6
374.919	12.25
375.128	12.91
375.336	13.07
375.545	13.16
375.754	12.85
375.963	12.7
376.171	11.11
376.38	10.67
376.589	9.93
376.798	9.78
377.006	9.34
377.215	9.51
377.424	10.59
377.632	10.71
377.841	9.84
378.05	9.96
378.258	10.26
378.467	10.67
378.675	10.37
378.884	10.87
379.093	11.52
379.301	12.05
379.51	11.86
379.718	11.69
379.927	12.02
380.135	12.42
380.344	12.47
380.552	12.88
380.761	12.78
380.969	14.08
381.177	14.37
381.386	13.98
381.594	14.04
381.803	13.78
382.011	12.98
382.219	13.05
382.428	13.17
382.636	13.29
382.845	12.98
383.053	12.6
383.261	10.76
383.469	11.16
383.678	10.72
383.886	10.53
384.094	9.83
384.302	9.64
384.511	9.26
384.719	8.89
384.927	8.52
385.135	8.27
385.343	8.53
385.552	8.75
385.76	7.54
385.968	7.6
386.176	7.37
386.384	7.82
386.592	8.35
386.8	8.46
387.008	8.72
387.216	8.63
387.424	8.93
387.633	8.92
387.841	9.11
388.049	9.68
388.257	9.88
388.465	9.47
388.672	9.4
388.88	8.86
389.088	8.28
389.296	8.01
389.504	8.12
389.712	7.86
389.92	7.66
390.128	7.72
390.336	8.09
390.544	8.47
390.751	9.37
390.959	9.38
391.167	9.28
391.375	9.45
391.583	9.55
391.79	9.19
391.998	9.06
392.206	8.99
392.414	8.76
392.621	8.29
392.829	7.82
393.037	7.24
393.244	6.76
393.452	7.17
393.66	7.08
393.867	7.15
394.075	7.32
394.283	7.27
394.49	7.28
394.698	7.2
394.905	7.12
395.113	7.3
395.32	7.2
395.528	7.46
395.735	7.32
395.943	7.15
396.15	6.91
396.358	7.33
396.565	7.14
396.773	7.29
396.98	7.26
397.188	7.37
397.395	7.21
397.602	6.8
397.81	7
398.017	6.64
398.225	6.93
398.432	6.88
398.639	6.58
398.847	6.45
399.054	6.51
399.261	6.7
399.468	6.73
399.676	6.76
399.883	7.31
400.09	7.18
400.297	7.2
400.505	6.94
400.712	6.85
400.919	6.88
401.126	6.72
401.333	6.74
401.54	6.92
401.748	7.06
401.955	6.93
402.162	6.96
402.369	7.08
402.576	7.34
402.783	7.33
402.99	7.22
403.197	7.14
403.404	7.51
403.611	7.41
403.818	7.26
404.025	7.11
404.232	7.51
404.439	7.55
404.646	7.45
404.853	7.33
405.06	7.18
405.267	7.53
405.474	7.61
405.681	7.51
405.887	7.42
406.094	7.41
406.301	7.6
406.508	7.06
406.715	6.93
406.922	6.88
407.128	7.03
407.335	7.28
407.542	6.93
407.749	6.37
407.955	6.48
408.162	6.65
408.369	6.91
408.575	6.58
408.782	6.64
408.989	6.73
409.195	6.73
409.402	6.54
409.609	6.46
409.815	6.33
410.022	6.94
410.228	7.16
410.435	7.1
410.642	7.07
410.848	7.19
411.055	7.57
411.261	7.57
411.468	7.52
411.674	7.49
411.881	7.47
412.087	7.84
412.294	7.35
412.5	7.3
412.706	6.97
412.913	6.74
413.119	6.52
413.326	6.36
413.532	6.15
413.738	6.3
413.945	6.42
414.151	6.19
414.357	5.98
414.564	6.5
414.77	6.1
414.976	6.38
415.182	6.18
415.389	6.4
415.595	6.13
415.801	6.4
416.007	6.42
416.214	6.26
416.42	6.55
416.626	6.84
416.832	6.58
417.038	6.76
417.244	7.07
417.45	7.24
417.657	7.11
417.863	7.3
418.069	7.13
418.275	7.06
418.481	7.1
418.687	6.98
418.893	6.85
419.099	6.89
419.305	6.69
419.511	6.49
419.717	6.49
419.923	6.57
420.129	6.72
420.335	6.89
420.541	6.76
420.746	6.9
420.952	7.04
421.158	7
421.364	7.05
421.57	7.1
421.776	7.21
421.982	7.11
422.187	7.21
422.393	7.07
422.599	6.95
422.805	7.06
423.01	6.92
423.216	6.95
423.422	6.99
423.628	7.01
423.833	7.11
424.039	6.92
424.245	7.14
424.45	6.91
424.656	6.87
424.862	6.81
425.067	6.99
425.273	6.99
425.478	6.74
425.684	6.56
425.889	6.42
426.095	6.24
426.301	6.25
426.506	5.98
426.712	6.29
426.917	6.27
427.123	6.32
427.328	5.98
427.533	6.01
427.739	6.1
427.944	6.15
428.15	6.34
428.355	6.39
428.561	6.39
428.766	6.37
428.971	5.91
429.177	6.12
429.382	6.07
429.587	6.06
429.793	6.06
429.998	6.13
430.203	6.15
430.408	5.91
430.614	6.27
430.819	6.37
431.024	6.36
431.229	6.55
431.434	6.32
431.64	6.47
431.845	6.74
432.05	6.76
432.255	6.64
432.46	6.59
432.665	6.86
432.87	6.6
433.076	6.69
433.281	6.84
433.486	6.68
433.691	6.75
433.896	6.6
434.101	6.57
434.306	6.69
434.511	6.83
434.716	6.86
434.921	6.69
435.126	6.71
435.331	6.47
435.535	6.56
435.74	6.76
435.945	6.65
436.15	6.73
436.355	6.53
436.56	6.38
436.765	6.51
436.97	6.49
437.174	6.68
437.379	6.75
437.584	6.83
437.789	6.65
437.993	6.73
438.198	6.8
438.403	6.84
438.608	6.98
438.812	7.05
439.017	7.01
439.222	7.3
439.426	7
439.631	7.01
439.836	7.06
440.04	7.13
440.245	7.1
440.45	7.14
440.654	7.16
440.859	7.29
441.063	7.34
441.268	7.37
441.472	7.27
441.677	7.43
441.881	7.46
442.086	7.53
442.29	7.51
442.495	7.58
442.699	7.57
442.904	7.45
443.108	7.39
443.312	7.23
443.517	6.95
443.721	6.83
443.925	6.97
444.13	6.98
444.334	6.87
444.538	6.74
444.743	6.62
444.947	6.55
445.151	6.59
445.356	6.41
445.56	6.5
445.764	6.68
445.968	6.68
446.173	6.63
446.377	6.46
446.581	6.51
446.785	6.76
446.989	6.9
447.193	7.02
447.398	7.03
447.602	7.09
447.806	7.22
448.01	7.16
448.214	7.12
448.418	7.08
448.622	7.25
448.826	7.07
449.03	6.98
449.234	6.8
449.438	6.68
449.642	6.89
449.846	6.88
450.05	6.69
450.254	6.58
450.458	6.73
450.662	6.66
450.866	6.48
451.069	6.65
451.273	6.46
451.477	6.33
451.681	6.33
451.885	6.05
452.089	6.07
452.292	6.11
452.496	6.1
452.7	6.14
452.904	6
453.107	6.03
453.311	6.07
453.515	6.32
453.719	6.47
453.922	6.38
454.126	6.54
454.33	6.42
454.533	6.44
454.737	6.42
454.94	6.51
455.144	6.87
455.348	6.9
455.551	6.87
455.755	6.61
455.958	6.61
456.162	6.79
456.365	6.67
456.569	6.65
456.772	6.59
456.976	6.73
457.179	6.72
457.383	6.62
457.586	6.59
457.79	6.42
457.993	6.46
458.196	6.47
458.4	6.51
458.603	6.48
458.807	6.54
459.01	6.52
459.213	6.69
459.417	6.6
459.62	6.47
459.823	6.39
460.026	6.38
460.23	6.48
460.433	6.54
460.636	6.56
460.839	6.51
461.042	6.59
461.246	6.6
461.449	6.37
461.652	6.46
