Data from 2937809_Reflection_2.txt Node
Date: Wed Jul 15 17:51:00 EDT 2015
User: robert
Spectrometer: USB4E03001
Autoset integration time: false
Trigger mode: 4
Integration Time (sec): 1.000000E-1
Scans to average: 10
Electric dark correction enabled: true
Nonlinearity correction enabled: false
Boxcar width: 5
Stray light correction enabled: false
XAxis mode: Wavelengths
Stop averaging: false
Number of Pixels in Spectrum: 3648
>>>>>Begin Spectral Data<<<<<
177.566	-16.13
177.785	-75.2
178.005	-100.79
178.225	-754.33
178.445	453.08
178.665	415.93
178.885	173.36
179.105	-51.2
179.324	-37.89
179.544	28.5
179.764	-9.35
179.984	-24.31
180.204	-50.81
180.423	-49.93
180.643	-83.71
180.863	-56.2
181.083	-22.37
181.302	-10.03
181.522	18.23
181.742	57.25
181.961	-9915
182.181	-188.97
182.401	-110.77
182.621	-234.91
182.84	-15.3
183.06	28.97
183.279	22.2
183.499	20.35
183.719	19.58
183.938	26.88
184.158	35.36
184.377	119.81
184.597	211.8
184.816	159.56
185.036	220.18
185.256	61.69
185.475	93.18
185.695	90.91
185.914	126.17
186.134	114
186.353	159.76
186.572	137.35
186.792	132.88
187.011	147.33
187.231	145.55
187.45	112.5
187.67	251.1
187.889	492.08
188.108	257.77
188.328	156.79
188.547	152.57
188.766	68.09
188.986	62.8
189.205	69.08
189.424	42.27
189.644	52.83
189.863	76.93
190.082	66.07
190.302	55.19
190.521	69.31
190.74	60.12
190.959	3.8
191.178	166.81
191.398	564.3
191.617	100.04
191.836	90.37
192.055	53.17
192.274	24.12
192.494	-33.74
192.713	-50.08
192.932	-56.16
193.151	14.72
193.37	20.96
193.589	-25.42
193.808	-72.13
194.027	-105.59
194.246	-47.6
194.465	-35.75
194.685	39.98
194.904	126.73
195.123	148.87
195.342	253.17
195.561	64.8
195.78	93.86
195.999	151.75
196.218	-235.39
196.436	-93.39
196.655	-48.9
196.874	-41.46
197.093	-48.37
197.312	-48.83
197.531	-45.83
197.75	42.44
197.969	67.17
198.188	84.7
198.407	84.5
198.625	56.24
198.844	80.94
199.063	64.99
199.282	56.87
199.501	41.83
199.719	42.4
199.938	38.13
200.157	32.63
200.376	47.39
200.594	48.17
200.813	31.41
201.032	47.61
201.251	150.21
201.469	-42.6
201.688	-63.72
201.907	-91.78
202.125	-142.45
202.344	-685.35
202.563	-326.37
202.781	-319.06
203	-462.76
203.218	-567.47
203.437	3656.62
203.656	177.16
203.874	170.9
204.093	180.98
204.311	134.6
204.53	77.93
204.748	51.5
204.967	66.04
205.185	69.27
205.404	97.3
205.622	86.16
205.841	84.21
206.059	90.83
206.278	-56.92
206.496	-992.54
206.715	37.97
206.933	258.81
207.151	2840.27
207.37	-182.38
207.588	108.81
207.806	-43.57
208.025	28.17
208.243	-11.66
208.461	117.74
208.68	139.55
208.898	195.31
209.116	345.79
209.335	405.96
209.553	492.52
209.771	539.32
209.989	-705.25
210.208	132.1
210.426	42.4
210.644	2641.82
210.862	739.73
211.081	103.6
211.299	-17
211.517	397.49
211.735	7496.87
211.953	188.61
212.171	279.85
212.39	745.47
212.608	765.96
212.826	661.39
213.044	-145.18
213.262	-284.4
213.48	-3262.16
213.698	-1636.98
213.916	410.62
214.134	301.05
214.352	545.39
214.57	-6427.55
214.788	-2500.47
215.006	4483.51
215.224	1644.74
215.442	242.14
215.66	228.23
215.878	248.19
216.096	-38.88
216.314	-29.42
216.532	36.96
216.75	33.11
216.968	-5.93
217.185	-7.91
217.403	67.66
217.621	90.67
217.839	99.71
218.057	108.29
218.275	79.53
218.492	410.85
218.71	-619.66
218.928	-242.7
219.146	-257.46
219.363	-409.11
219.581	-276.7
219.799	-564.88
220.017	-1769.18
220.234	1476.14
220.452	923.27
220.67	-983.02
220.887	99.14
221.105	69.54
221.323	24.55
221.54	5.74
221.758	27.41
221.976	-266.21
222.193	127.68
222.411	88.36
222.629	32.58
222.846	38.27
223.064	37.87
223.281	24.07
223.499	-3.44
223.716	-2.73
223.934	9.05
224.151	21.75
224.369	35.03
224.586	52.9
224.804	42.26
225.021	79.26
225.239	54.75
225.456	68.09
225.674	73.88
225.891	102.45
226.108	146.32
226.326	147.19
226.543	3156.07
226.76	-133.25
226.978	7.37
227.195	-0.33
227.413	19.21
227.63	25.08
227.847	22.52
228.064	20.72
228.282	22.62
228.499	24.15
228.716	19.2
228.934	27.07
229.151	21.65
229.368	14.93
229.585	10.66
229.802	8.8
230.02	12.96
230.237	20.18
230.454	20.22
230.671	26.07
230.888	13.93
231.105	19.69
231.323	10.73
231.54	22.65
231.757	22.56
231.974	26.06
232.191	25.62
232.408	15.01
232.625	3.55
232.842	17.19
233.059	-12.5
233.276	7.61
233.493	0.66
233.71	12.39
233.927	4.84
234.144	13.07
234.361	0.05
234.578	1.06
234.795	-0.54
235.012	7.65
235.229	-11.71
235.446	3.59
235.663	2.49
235.879	5.11
236.096	5.44
236.313	-3.78
236.53	-14.05
236.747	-4.89
236.964	-12.97
237.181	-23.07
237.397	-36.77
237.614	-30.61
237.831	-24.9
238.048	-38.34
238.264	-43.82
238.481	-43.01
238.698	-14.65
238.915	-5.05
239.131	-9.46
239.348	4.51
239.565	8.53
239.781	16.38
239.998	13.52
240.215	14.57
240.431	23.58
240.648	22.94
240.865	27.06
241.081	21.05
241.298	20.18
241.514	22.44
241.731	18.41
241.947	18.88
242.164	17.26
242.38	19.14
242.597	19.58
242.814	19.6
243.03	19.33
243.246	18.57
243.463	20.12
243.679	19.84
243.896	20.66
244.112	20.55
244.329	19.45
244.545	18.08
244.762	21.38
244.978	19.36
245.194	21.29
245.411	19.35
245.627	17.55
245.843	19.03
246.06	18.58
246.276	19.67
246.492	19.62
246.709	20.41
246.925	20.17
247.141	18.67
247.357	17.95
247.574	19.48
247.79	20.37
248.006	20.29
248.222	20.07
248.439	21.58
248.655	19.33
248.871	18.76
249.087	19.3
249.303	21.78
249.519	22.48
249.736	24.78
249.952	19.49
250.168	16.69
250.384	18.44
250.6	19.42
250.816	18.63
251.032	20.05
251.248	21.18
251.464	20.48
251.68	17.03
251.896	18.92
252.112	17.9
252.328	16.56
252.544	17.96
252.76	18.45
252.976	16.64
253.192	15.65
253.408	15.39
253.624	14.49
253.84	10.03
254.056	8.88
254.272	2.89
254.487	-1.37
254.703	2.38
254.919	1.39
255.135	-3
255.351	0.65
255.567	-1.25
255.782	5.91
255.998	9.8
256.214	12.61
256.43	14.32
256.646	11.94
256.861	8.76
257.077	6.08
257.293	6.37
257.508	7.14
257.724	4.83
257.94	5.13
258.155	-0.69
258.371	-5.14
258.587	-1.01
258.802	-1.5
259.018	3.32
259.234	7.7
259.449	7.61
259.665	9.19
259.88	12.01
260.096	12.95
260.312	13.43
260.527	15.34
260.743	16.45
260.958	15.53
261.174	16.04
261.389	14.62
261.605	13.69
261.82	14.46
262.036	14.14
262.251	11.24
262.466	9.75
262.682	9.91
262.897	8.27
263.113	9.07
263.328	9.23
263.543	10.69
263.759	9
263.974	9.92
264.189	13.72
264.405	15.05
264.62	15.18
264.835	14.92
265.051	14.96
265.266	14.55
265.481	13.4
265.696	15.89
265.912	14.71
266.127	20.44
266.342	20.42
266.557	18.3
266.773	15
266.988	16.58
267.203	15.24
267.418	12.59
267.633	13.73
267.848	14.73
268.064	12.92
268.279	15.98
268.494	13.39
268.709	13.16
268.924	13.47
269.139	15.87
269.354	12.46
269.569	13.48
269.784	15.03
269.999	13.91
270.214	13.25
270.429	14.29
270.644	9.76
270.859	12.98
271.074	12.77
271.289	10.66
271.504	8.98
271.719	11.86
271.934	12.64
272.149	11.55
272.363	11.63
272.578	11.4
272.793	10.84
273.008	12.2
273.223	9.46
273.438	9.3
273.653	10.57
273.867	12.56
274.082	10.36
274.297	9.39
274.512	9.32
274.726	9.47
274.941	10.18
275.156	9.92
275.371	9.93
275.585	10.45
275.8	12.01
276.015	12.31
276.229	11.92
276.444	12.38
276.659	12.44
276.873	13
277.088	12.94
277.302	13.02
277.517	12.2
277.732	10.43
277.946	7.88
278.161	4.83
278.375	4.43
278.59	0.65
278.804	3.07
279.019	2.3
279.233	-0.03
279.448	-0.65
279.662	0.43
279.877	2.87
280.091	6.03
280.306	8.29
280.52	10.86
280.735	10.89
280.949	12.17
281.163	10.48
281.378	11.63
281.592	12.79
281.806	14.11
282.021	15.14
282.235	13.93
282.449	13.07
282.664	13.36
282.878	15.75
283.092	17.08
283.307	17.65
283.521	19.42
283.735	21.22
283.949	21.48
284.164	20.85
284.378	21.44
284.592	21.99
284.806	21.77
285.02	21.17
285.234	18.42
285.449	18.92
285.663	17.24
285.877	17.28
286.091	14.47
286.305	15.82
286.519	15.09
286.733	12.42
286.947	11.15
287.161	11.89
287.375	13.04
287.589	13.93
287.803	11.55
288.017	13.61
288.231	12.24
288.445	11.68
288.659	10.76
288.873	11.28
289.087	14.63
289.301	18.13
289.515	17.78
289.729	18.25
289.943	17.84
290.157	19.33
290.371	18.88
290.584	18.06
290.798	21.74
291.012	21.57
291.226	22.4
291.44	19.01
291.654	16.18
291.867	17.12
292.081	15.28
292.295	14.21
292.509	15.57
292.722	15.83
292.936	13.67
293.15	10.89
293.364	13.19
293.577	10.59
293.791	11.42
294.005	11.22
294.218	11.26
294.432	13.84
294.645	15.53
294.859	15.18
295.073	13.97
295.286	17.16
295.5	17.66
295.713	16.65
295.927	16.57
296.14	17.53
296.354	18.15
296.568	17.87
296.781	15.92
296.994	15.93
297.208	16
297.421	16.87
297.635	16.28
297.848	14.78
298.062	14.56
298.275	16.11
298.489	16.03
298.702	15.43
298.915	14.97
299.129	17.04
299.342	16.25
299.555	14.97
299.769	14.64
299.982	15.77
300.195	17.35
300.409	15.86
300.622	13.49
300.835	11.28
301.048	9.14
301.262	8.64
301.475	6.6
301.688	5.07
301.901	4.74
302.115	5.38
302.328	4.63
302.541	4.13
302.754	4.06
302.967	9.35
303.18	9.22
303.393	12.27
303.607	13.28
303.82	14.62
304.033	15.64
304.246	16.33
304.459	17.49
304.672	16.6
304.885	18.66
305.098	21.22
305.311	17.72
305.524	20.45
305.737	18.91
305.95	18.54
306.163	17.59
306.376	18.46
306.589	18.88
306.802	18.17
307.015	18.93
307.228	16.42
307.44	13.48
307.653	14.65
307.866	16.05
308.079	15.36
308.292	14.67
308.505	13.66
308.718	13.44
308.93	13.42
309.143	13.13
309.356	15.06
309.569	15.16
309.781	15.72
309.994	15.08
310.207	13.52
310.42	14.81
310.632	14.04
310.845	14.94
311.058	15.81
311.27	16.11
311.483	13.89
311.696	13.24
311.908	11.65
312.121	10.65
312.333	10.08
312.546	10.83
312.759	10.77
312.971	12.08
313.184	11.49
313.396	8.89
313.609	3.68
313.821	6.13
314.034	5.14
314.246	7.68
314.459	9.02
314.671	9.28
314.884	5.91
315.096	4.69
315.309	3.33
315.521	6.35
315.733	5.99
315.946	11.14
316.158	10.26
316.371	6.11
316.583	7.7
316.795	5.84
317.008	5.59
317.22	6.35
317.432	7.7
317.644	6.9
317.857	5.57
318.069	4.32
318.281	7.18
318.494	8.08
318.706	11.79
318.918	7.8
319.13	12.31
319.342	13.9
319.555	16.09
319.767	14.15
319.979	16.55
320.191	14.96
320.403	15.98
320.615	12.93
320.827	12.7
321.039	10.87
321.252	13.62
321.464	11.3
321.676	11.81
321.888	12.11
322.1	13.34
322.312	12.24
322.524	11.35
322.736	12.61
322.948	10.3
323.16	10.02
323.372	11.82
323.584	12.58
323.796	13.23
324.007	12.48
324.219	12.46
324.431	12.73
324.643	12.03
324.855	13.43
325.067	15.4
325.279	16.67
325.491	16.94
325.702	15.38
325.914	15.13
326.126	15.02
326.338	14.77
326.55	13.78
326.761	13.13
326.973	14.36
327.185	12.27
327.396	8.4
327.608	6.98
327.82	6.56
328.032	7.63
328.243	6.13
328.455	3.88
328.666	3.71
328.878	5.27
329.09	3.68
329.301	0.99
329.513	2.75
329.725	5.69
329.936	6.14
330.148	3.72
330.359	2.47
330.571	2.35
330.782	2.61
330.994	2.15
331.205	2.86
331.417	4.29
331.628	6.26
331.84	8.33
332.051	8.45
332.262	8.02
332.474	12.6
332.685	13.34
332.897	12.81
333.108	12.57
333.319	12.79
333.531	11.32
333.742	11.82
333.953	11.48
334.165	10.4
334.376	11.1
334.587	10.69
334.799	9.72
335.01	9.38
335.221	10.94
335.432	13.19
335.644	11.85
335.855	10.95
336.066	11.08
336.277	11.52
336.488	9.86
336.7	8.71
336.911	10.11
337.122	9.69
337.333	10.62
337.544	8.52
337.755	7.71
337.966	8.33
338.177	9.24
338.388	8.24
338.599	7.59
338.811	9.87
339.022	10.97
339.233	11.4
339.444	11.88
339.655	11.61
339.866	12.74
340.076	12.99
340.287	13.74
340.498	13.46
340.709	12.92
340.92	14.67
341.131	12.89
341.342	11.28
341.553	10.42
341.764	9.1
341.975	9.07
342.185	9.37
342.396	10.5
342.607	11.18
342.818	10.95
343.029	13.32
343.239	13.84
343.45	14.33
343.661	15.53
343.872	17.02
344.082	18.16
344.293	16.66
344.504	17.64
344.714	15.02
344.925	14.91
345.136	15.72
345.346	14.6
345.557	12.92
345.768	13.64
345.978	13.39
346.189	11.02
346.399	10.13
346.61	11.54
346.821	11.51
347.031	13.43
347.242	13.69
347.452	12.61
347.663	11.94
347.873	10.75
348.084	7.47
348.294	6.42
348.504	6.85
348.715	8.27
348.925	8.26
349.136	9.06
349.346	8.27
349.557	6.33
349.767	4.97
349.977	4.23
350.188	3.93
350.398	6.19
350.608	7.21
350.819	9.69
351.029	7.89
351.239	8.81
351.449	5.61
351.66	4.18
351.87	4.92
352.08	6.79
352.29	6.83
352.501	7.1
352.711	8.85
352.921	12.58
353.131	9.69
353.341	9.92
353.552	8.68
353.762	9.28
353.972	10.33
354.182	10.22
354.392	9.88
354.602	11.19
354.812	12.24
355.022	10.22
355.232	6.27
355.442	7.75
355.652	6.98
355.862	7.03
356.072	6.64
356.282	7.28
356.492	6.98
356.702	6.78
356.912	7.36
357.122	6.68
357.332	7.98
357.542	9.49
357.752	10.46
357.962	11.71
358.171	11.98
358.381	12.46
358.591	12.32
358.801	12.41
359.011	12.53
359.221	12
359.43	12.22
359.64	11.39
359.85	9.89
360.06	8.8
360.269	8.01
360.479	8.65
360.689	8.86
360.899	8.52
361.108	8.45
361.318	8.37
361.528	8.18
361.737	8.95
361.947	8.92
362.156	8.4
362.366	8.78
362.576	8.89
362.785	9.06
362.995	8.79
363.204	8.8
363.414	9.17
363.623	10.05
363.833	9.51
364.042	9.25
364.252	10.32
364.461	10.68
364.671	9.69
364.88	10.33
365.09	9.19
365.299	9.05
365.509	10.51
365.718	10.25
365.927	9.4
366.137	9.66
366.346	10.13
366.555	8.04
366.765	6.86
366.974	6.68
367.183	3.57
367.393	4.66
367.602	5.28
367.811	4.14
368.021	4.36
368.23	4.08
368.439	4.66
368.648	4.51
368.857	4.76
369.067	6.31
369.276	7.62
369.485	9.79
369.694	8.99
369.903	8.16
370.112	7.76
370.321	7.53
370.531	7.56
370.74	7.76
370.949	8.28
371.158	8.9
371.367	8.74
371.576	7.9
371.785	8.56
371.994	8.48
372.203	9.08
372.412	8.62
372.621	8.45
372.83	9.37
373.039	9.09
373.248	7.98
373.457	7.61
373.666	7.99
373.874	8.2
374.083	7.59
374.292	8.81
374.501	8.29
374.71	8.09
374.919	8.11
375.128	7.26
375.336	7.64
375.545	7.73
375.754	7.57
375.963	6.45
376.171	6.47
376.38	7.04
376.589	6.6
376.798	7.43
377.006	8.07
377.215	8.44
377.424	8.85
377.632	7.84
377.841	6.92
378.05	7.43
378.258	8.28
378.467	8.57
378.675	7.47
378.884	6.97
379.093	6.34
379.301	6.14
379.51	5.98
379.718	6.09
379.927	7.52
380.135	8.42
380.344	7.81
380.552	7.64
380.761	6.63
380.969	7.35
381.177	7.67
381.386	7.91
381.594	8.39
381.803	8.26
382.011	7.25
382.219	6.22
382.428	6.01
382.636	6.53
382.845	6.34
383.053	6.66
383.261	5.93
383.469	5.55
383.678	5.77
383.886	5.84
384.094	6.08
384.302	6.92
384.511	6.97
384.719	7.25
384.927	6.36
385.135	6.46
385.343	5.73
385.552	6.75
385.76	6.6
385.968	6.28
386.176	5.23
386.384	5.22
386.592	4.55
386.8	4.78
387.008	4.81
387.216	5.87
387.424	5.67
387.633	6.46
387.841	6.43
388.049	6.53
388.257	6.64
388.465	6.9
388.672	6.99
388.88	7.27
389.088	7.37
389.296	6.96
389.504	6.44
389.712	6.15
389.92	6.2
390.128	5.97
390.336	5.95
390.544	5.4
390.751	5.64
390.959	5.36
391.167	4.83
391.375	4.32
391.583	5.05
391.79	4.99
391.998	5.02
392.206	4.77
392.414	4.87
392.621	4.82
392.829	4.9
393.037	4.97
393.244	4.57
393.452	4.93
393.66	5.28
393.867	4.76
394.075	5.12
394.283	5.29
394.49	5.39
394.698	5.2
394.905	5
395.113	5.39
395.32	4.86
395.528	5.26
395.735	5.41
395.943	5.14
396.15	5.18
396.358	4.59
396.565	4.68
396.773	4.68
396.98	4.74
397.188	5
397.395	4.62
397.602	5.13
397.81	5.08
398.017	5.09
398.225	5.33
398.432	5.12
398.639	5.43
398.847	5.26
399.054	5.09
399.261	5.11
399.468	5.27
399.676	5.21
399.883	5.41
400.09	5.47
400.297	5.52
400.505	5.49
400.712	5.52
400.919	5.71
401.126	5.9
401.333	6.06
401.54	5.99
401.748	5.54
401.955	5.53
402.162	5.25
402.369	5.45
402.576	5.4
402.783	5.28
402.99	5.16
403.197	4.93
403.404	5.24
403.611	5.06
403.818	5.07
404.025	5.28
404.232	5.37
404.439	5.48
404.646	5.2
404.853	5.14
405.06	5.46
405.267	5.28
405.474	5.13
405.681	4.86
405.887	5.27
406.094	5.32
406.301	5.35
406.508	5.59
406.715	5.4
406.922	5.67
407.128	5.67
407.335	5.36
407.542	5.45
407.749	5.9
407.955	5.93
408.162	5.7
408.369	5.82
408.575	6.15
408.782	6.01
408.989	6.09
409.195	5.85
409.402	5.51
409.609	5.63
409.815	5.99
410.022	5.68
410.228	5.51
410.435	5.6
410.642	5.51
410.848	4.92
411.055	5.15
411.261	5.58
411.468	5.5
411.674	5.81
411.881	5.49
412.087	5.61
412.294	5.53
412.5	5.42
412.706	5.59
412.913	5.27
413.119	5.51
413.326	4.97
413.532	4.97
413.738	4.95
413.945	4.86
414.151	4.97
414.357	4.61
414.564	4.87
414.77	5.06
414.976	4.64
415.182	5.19
415.389	4.93
415.595	5.13
415.801	4.77
416.007	4.76
416.214	4.82
416.42	4.84
416.626	4.85
416.832	4.76
417.038	4.7
417.244	4.75
417.45	4.49
417.657	4.76
417.863	4.98
418.069	5.15
418.275	5.42
418.481	5.46
418.687	5.36
418.893	5.42
419.099	5.45
419.305	5.55
419.511	5.61
419.717	5.52
419.923	5.5
420.129	5.19
420.335	5.19
420.541	5.02
420.746	4.88
420.952	5.01
421.158	4.97
421.364	4.94
421.57	4.79
421.776	4.81
421.982	4.99
422.187	4.97
422.393	5
422.599	4.97
422.805	5.01
423.01	5.14
423.216	5.2
423.422	5.35
423.628	5.28
423.833	5.35
424.039	5.15
424.245	5.06
424.45	4.99
424.656	5.07
424.862	4.86
425.067	4.83
425.273	4.73
425.478	4.67
425.684	4.64
425.889	4.64
426.095	4.65
426.301	4.68
426.506	4.62
426.712	4.58
426.917	4.56
427.123	4.62
427.328	4.61
427.533	4.59
427.739	4.29
427.944	4.01
428.15	3.94
428.355	3.71
428.561	3.73
428.766	3.55
428.971	3.98
429.177	4.2
429.382	4.35
429.587	4.14
429.793	4.14
429.998	4.32
430.203	4.44
430.408	4.62
430.614	5.07
430.819	5.18
431.024	5.39
431.229	5.02
431.434	4.6
431.64	4.55
431.845	4.73
432.05	4.85
432.255	4.72
432.46	4.8
432.665	4.95
432.87	4.79
433.076	4.44
433.281	4.43
433.486	4.58
433.691	4.79
433.896	4.74
434.101	4.83
434.306	4.67
434.511	5
434.716	4.86
434.921	4.68
435.126	4.78
435.331	5.12
435.535	5.1
435.74	4.85
435.945	4.8
436.15	4.76
436.355	4.52
436.56	4.29
436.765	4
436.97	4.13
437.174	4.22
437.379	4.05
437.584	3.87
437.789	3.77
437.993	3.91
438.198	3.71
438.403	3.54
438.608	3.7
438.812	4.13
439.017	4.28
439.222	4.32
439.426	4.16
439.631	4.13
439.836	4.21
440.04	4.27
440.245	4.33
440.45	4.45
440.654	4.7
440.859	4.57
441.063	4.48
441.268	4.53
441.472	4.48
441.677	4.65
441.881	4.69
442.086	4.72
442.29	4.59
442.495	4.62
442.699	4.34
442.904	4.31
443.108	4.43
443.312	4.44
443.517	4.33
443.721	4.44
443.925	4.4
444.13	4.44
444.334	4.52
444.538	4.5
444.743	4.44
444.947	4.8
445.151	4.78
445.356	4.81
445.56	4.83
445.764	4.82
445.968	4.68
446.173	4.64
446.377	4.71
446.581	4.74
446.785	4.82
446.989	4.72
447.193	4.77
447.398	4.73
447.602	4.64
447.806	4.54
448.01	4.49
448.214	4.48
448.418	4.29
448.622	4.01
448.826	3.82
449.03	3.77
449.234	3.79
449.438	3.75
449.642	3.83
449.846	3.75
450.05	3.76
450.254	3.66
450.458	3.46
450.662	3.6
450.866	3.73
451.069	3.87
451.273	3.8
451.477	3.78
451.681	3.82
451.885	3.85
452.089	3.96
452.292	4.1
452.496	4.25
452.7	4.45
452.904	4.59
453.107	4.57
453.311	4.5
453.515	4.66
453.719	4.65
453.922	4.56
454.126	4.34
454.33	4.23
454.533	4.05
454.737	4.01
454.94	4.08
455.144	3.82
455.348	3.74
455.551	3.78
455.755	3.67
455.958	3.71
456.162	3.53
456.365	3.53
456.569	3.42
456.772	3.45
456.976	3.32
457.179	3.27
457.383	3.24
457.586	3.5
457.79	3.4
457.993	3.41
458.196	3.42
458.4	3.49
458.603	3.58
458.807	3.88
459.01	3.87
459.213	3.8
459.417	3.75
459.62	3.88
459.823	3.8
460.026	3.91
460.23	3.91
460.433	3.88
460.636	3.85
460.839	3.89
461.042	3.72
461.246	3.83
461.449	3.88
461.652	3.95
461.855	3.94
462.058	3.81
462.261	3.74
462.464	3.86
462.668	4.04
462.871	4.02
463.074	3.88
463.277	3.81
463.48	3.63
463.683	3.88
463.886	3.77
464.089	3.75
