Data from 2937824_Reflection_3.txt Node
Date: Wed Jul 15 17:08:44 EDT 2015
User: robert
Spectrometer: USB4E03001
Autoset integration time: false
Trigger mode: 4
Integration Time (sec): 1.000000E-1
Scans to average: 10
Electric dark correction enabled: true
Nonlinearity correction enabled: false
Boxcar width: 5
Stray light correction enabled: false
XAxis mode: Wavelengths
Stop averaging: false
Number of Pixels in Spectrum: 3648
>>>>>Begin Spectral Data<<<<<
177.566	72.66
177.785	66.81
178.005	68.28
178.225	60.32
178.445	54.57
178.665	71.48
178.885	-235.69
179.105	88.76
179.324	100.49
179.544	86.55
179.764	88.44
179.984	64.79
180.204	70.92
180.423	64.27
180.643	72.35
180.863	70.68
181.083	76.81
181.302	64.39
181.522	56.37
181.742	33.19
181.961	46.92
182.181	58.06
182.401	70.54
182.621	65.84
182.84	79.06
183.06	71.76
183.279	70.15
183.499	52.35
183.719	54.86
183.938	79.29
184.158	116.34
184.377	139.61
184.597	149.47
184.816	205.11
185.036	208.23
185.256	774.5
185.475	373.86
185.695	278.76
185.914	572.04
186.134	547.82
186.353	335.85
186.572	270.81
186.792	228.68
187.011	156.67
187.231	104.72
187.45	91.16
187.67	58.31
187.889	60.43
188.108	52.69
188.328	50.86
188.547	43.47
188.766	23.08
188.986	6.58
189.205	28.7
189.424	60
189.644	82.73
189.863	103.75
190.082	137.13
190.302	140.05
190.521	95.9
190.74	95.17
190.959	76.32
191.178	133.43
191.398	129.39
191.617	130.14
191.836	101.81
192.055	87.2
192.274	80.91
192.494	82.37
192.713	87.54
192.932	115.2
193.151	140.69
193.37	151.89
193.589	90.21
193.808	104.28
194.027	67.91
194.246	56.67
194.465	73.29
194.685	59.54
194.904	63.92
195.123	77.82
195.342	87.89
195.561	152.5
195.78	341.03
195.999	184.51
196.218	276.33
196.436	721.51
196.655	-613.74
196.874	-3292.67
197.093	-701.14
197.312	-483.14
197.531	547.18
197.75	462.84
197.969	194.17
198.188	188.38
198.407	177.24
198.625	136.34
198.844	132.11
199.063	134.25
199.282	134.72
199.501	126.31
199.719	120.47
199.938	120.92
200.157	119.19
200.376	115.53
200.594	93.06
200.813	116.71
201.032	149.13
201.251	161.95
201.469	169.51
201.688	162.71
201.907	179.03
202.125	163.34
202.344	159.03
202.563	108.7
202.781	212.5
203	175.06
203.218	142.78
203.437	111.51
203.656	105.22
203.874	63.77
204.093	94.04
204.311	69
204.53	55.92
204.748	92.36
204.967	199.05
205.185	177.84
205.404	1316
205.622	-1553.43
205.841	7520.93
206.059	-221.25
206.278	972.94
206.496	-61.8
206.715	-20.87
206.933	-7.15
207.151	44.49
207.37	108.7
207.588	-123.77
207.806	-33.93
208.025	-47.47
208.243	-3.04
208.461	44.9
208.68	82.76
208.898	88.5
209.116	80.32
209.335	75.27
209.553	72.43
209.771	70.08
209.989	95.16
210.208	91.08
210.426	101.23
210.644	92.45
210.862	85.95
211.081	78.58
211.299	63.74
211.517	63.46
211.735	74.14
211.953	92.36
212.171	130.38
212.39	131.31
212.608	152.23
212.826	128.54
213.044	127.4
213.262	258.02
213.48	193.16
213.698	972.59
213.916	-254.55
214.134	-311.58
214.352	-298.4
214.57	519.56
214.788	-247.55
215.006	-168.01
215.224	272.32
215.442	139.82
215.66	57.7
215.878	115.22
216.096	182.17
216.314	173.36
216.532	151.13
216.75	187.59
216.968	169.41
217.185	153.05
217.403	132.29
217.621	188.59
217.839	249.84
218.057	178.46
218.275	145.41
218.492	102.53
218.71	94.41
218.928	99.35
219.146	85.02
219.363	114.24
219.581	121.58
219.799	141.51
220.017	179.39
220.234	225.73
220.452	530.22
220.67	-1264.73
220.887	-362.32
221.105	-226.18
221.323	-311.26
221.54	-197.92
221.758	-282.32
221.976	-492.99
222.193	-1117.05
222.411	583.47
222.629	444.3
222.846	1169.55
223.064	516.71
223.281	509.12
223.499	350.28
223.716	-227.2
223.934	48.42
224.151	-168.98
224.369	6.58
224.586	-6.78
224.804	-31.87
225.021	-66.93
225.239	-71.61
225.456	-167.29
225.674	-133.24
225.891	-177.27
226.108	3248.58
226.326	-6638.13
226.543	10856.1
226.76	-1096.38
226.978	-2224.65
227.195	-524.01
227.413	-428.31
227.63	-258.26
227.847	-127.32
228.064	-65.18
228.282	-54.49
228.499	-32.4
228.716	-28.14
228.934	-28.69
229.151	-21.01
229.368	-17.98
229.585	-17.69
229.802	-9.93
230.02	-16.37
230.237	-19.36
230.454	-21.98
230.671	-19.98
230.888	-20.24
231.105	-17.72
231.323	-13.2
231.54	-14.2
231.757	-8.25
231.974	-5.77
232.191	-17.6
232.408	-14.87
232.625	-11.01
232.842	-16.89
233.059	-8.69
233.276	-2.58
233.493	-12.42
233.71	-16.15
233.927	-20.83
234.144	-25.94
234.361	-26.61
234.578	-13.58
234.795	-6.92
235.012	-14.65
235.229	-11.16
235.446	-25.81
235.663	-41.45
235.879	-47.41
236.096	-57.89
236.313	-52.46
236.53	-64.23
236.747	-69.49
236.964	-76.92
237.181	-86.45
237.397	-68.22
237.614	-55.39
237.831	-62.02
238.048	-54.11
238.264	-41.99
238.481	-16.96
238.698	-19.76
238.915	-10.88
239.131	-5.18
239.348	-10.1
239.565	-10.2
239.781	-4.31
239.998	-10.22
240.215	-4.16
240.431	-3.48
240.648	-3.18
240.865	-6.7
241.081	-1.03
241.298	-0.45
241.514	-1.52
241.731	-5.04
241.947	-5.27
242.164	-7.17
242.38	-7.29
242.597	-6.54
242.814	-7.85
243.03	-7.25
243.246	-6.94
243.463	-8
243.679	-11.25
243.896	-12.17
244.112	-10.43
244.329	-9.58
244.545	-11.28
244.762	-10.53
244.978	-10.18
245.194	-6.55
245.411	-6.89
245.627	-8.51
245.843	-9.08
246.06	-6.34
246.276	-3.37
246.492	-1.24
246.709	-1.6
246.925	-0.72
247.141	-1.82
247.357	-2.49
247.574	-3.73
247.79	-4.05
248.006	-3.9
248.222	-4.16
248.439	-5.45
248.655	-6.88
248.871	-7.81
249.087	-8.47
249.303	-9.48
249.519	-9.61
249.736	-11.88
249.952	-13.45
250.168	-14.15
250.384	-16.08
250.6	-14.28
250.816	-15.55
251.032	-16.6
251.248	-16.96
251.464	-17.55
251.68	-17.07
251.896	-18.26
252.112	-18.05
252.328	-15.71
252.544	-17.36
252.76	-17.46
252.976	-19.15
253.192	-14.14
253.408	-13.22
253.624	-13.77
253.84	-14.17
254.056	-14.22
254.272	-12.89
254.487	-13.98
254.703	-15.19
254.919	-12.74
255.135	-9.61
255.351	-11.22
255.567	-17.29
255.782	-14.39
255.998	-15.23
256.214	-10.48
256.43	-9.81
256.646	-10.25
256.861	-8.11
257.077	-7.65
257.293	-6.17
257.508	-5.31
257.724	-1.64
257.94	-0.87
258.155	-2.42
258.371	-3.55
258.587	-3.66
258.802	-3.65
259.018	-0.92
259.234	0.72
259.449	2
259.665	1.99
259.88	1.06
260.096	-0.57
260.312	0.03
260.527	-0.25
260.743	0.48
260.958	-0.53
261.174	-0.05
261.389	-1.73
261.605	-0.91
261.82	-2.02
262.036	-3.05
262.251	-2.98
262.466	-2.38
262.682	-3.02
262.897	-4.13
263.113	-6.56
263.328	-5.89
263.543	-9.08
263.759	-7.37
263.974	-13.09
264.189	-13.52
264.405	-15.01
264.62	-14.1
264.835	-14.81
265.051	-14.11
265.266	-11.87
265.481	-7.89
265.696	-7.1
265.912	-4.94
266.127	-3.32
266.342	-2.31
266.557	-2.7
266.773	-3.61
266.988	-5.12
267.203	-5.03
267.418	-5.6
267.633	-5.77
267.848	-6.83
268.064	-7.43
268.279	-6.75
268.494	-10.69
268.709	-9.77
268.924	-9.54
269.139	-6.98
269.354	-7.57
269.569	-9.72
269.784	-11.3
269.999	-11.6
270.214	-12.11
270.429	-12.7
270.644	-13.91
270.859	-12.11
271.074	-10.88
271.289	-9.88
271.504	-10.52
271.719	-9.16
271.934	-5.99
272.149	-6.8
272.363	-7.14
272.578	-5.76
272.793	-4.67
273.008	-2.69
273.223	-2.76
273.438	-5.54
273.653	-6.38
273.867	-6.28
274.082	-7.9
274.297	-10.39
274.512	-9.22
274.726	-8.28
274.941	-8.42
275.156	-9.9
275.371	-14.54
275.585	-11.78
275.8	-8.48
276.015	-10.05
276.229	-9.69
276.444	-10.05
276.659	-9.32
276.873	-7.69
277.088	-9.91
277.302	-12.53
277.517	-11.67
277.732	-8.14
277.946	-10.11
278.161	-12.02
278.375	-11.74
278.59	-10.87
278.804	-8.94
279.019	-8.35
279.233	-10.09
279.448	-6.22
279.662	-3.33
279.877	-4.42
280.091	-7.14
280.306	-7.2
280.52	-8.23
280.735	-6.18
280.949	-7.12
281.163	-6.21
281.378	-6.73
281.592	-8.31
281.806	-9.04
282.021	-7.92
282.235	-7.3
282.449	-7.04
282.664	-9.47
282.878	-9.34
283.092	-10.18
283.307	-11.14
283.521	-11.25
283.735	-10.51
283.949	-9.78
284.164	-10.48
284.378	-11.52
284.592	-10.04
284.806	-9.8
285.02	-7.28
285.234	-6.9
285.449	-5.82
285.663	-3.19
285.877	-2.72
286.091	-3.42
286.305	-1.44
286.519	-0.92
286.733	-1.72
286.947	-3.28
287.161	-3.36
287.375	-3.27
287.589	-3.04
287.803	-4.48
288.017	-5.75
288.231	-6.62
288.445	-6
288.659	-9
288.873	-9.62
289.087	-7.45
289.301	-6.58
289.515	-4
289.729	-5.32
289.943	-2.56
290.157	-1.82
290.371	-2.62
290.584	-3.17
290.798	-2.78
291.012	-2.79
291.226	-2.37
291.44	-4.39
291.654	-2.41
291.867	-4.36
292.081	-4.18
292.295	-6.4
292.509	-6.14
292.722	-4.88
292.936	-3.43
293.15	-4.34
293.364	-4.95
293.577	-4.94
293.791	-4.71
294.005	-6.98
294.218	-6.76
294.432	-5.58
294.645	-5.87
294.859	-7.21
295.073	-7.15
295.286	-8.46
295.5	-8.35
295.713	-4.9
295.927	-6.95
296.14	-4
296.354	-2.96
296.568	-2.84
296.781	-1.58
296.994	-0.47
297.208	2.27
297.421	2.13
297.635	1.4
297.848	2.24
298.062	2.31
298.275	3.02
298.489	2.65
298.702	2.05
298.915	3.28
299.129	3.56
299.342	3.04
299.555	2.04
299.769	1.91
299.982	3.65
300.195	3.98
300.409	2.47
300.622	3.27
300.835	0.98
301.048	1.83
301.262	2.61
301.475	0.87
301.688	2.3
301.901	1.6
302.115	0.76
302.328	1.48
302.541	1.96
302.754	-0.14
302.967	0.5
303.18	2.6
303.393	0.97
303.607	-1.77
303.82	-0.73
304.033	-0.33
304.246	-0.55
304.459	-0.45
304.672	-2.21
304.885	-3.42
305.098	-0.51
305.311	-3.58
305.524	-4.5
305.737	-2.98
305.95	-3.25
306.163	-4.58
306.376	-4.01
306.589	-2.58
306.802	-0.34
307.015	1.29
307.228	1.04
307.44	-0.29
307.653	2.27
307.866	3.38
308.079	1.44
308.292	-0.05
308.505	-0.86
308.718	-2.65
308.93	-2.43
309.143	-3.04
309.356	-2.17
309.569	-1.13
309.781	1.51
309.994	2.46
310.207	0.56
310.42	2.7
310.632	5.97
310.845	6.91
311.058	8.46
311.27	7.77
311.483	8.02
311.696	7.02
311.908	7.59
312.121	6.29
312.333	7.49
312.546	6.97
312.759	5.31
312.971	4.71
313.184	4.6
313.396	2.46
313.609	2.55
313.821	1.33
314.034	1.74
314.246	1.11
314.459	1.02
314.671	0.22
314.884	3.52
315.096	5.28
315.309	6.61
315.521	5.39
315.733	4.89
315.946	4.12
316.158	5.39
316.371	6.28
316.583	6.82
316.795	6.38
317.008	4.56
317.22	2.52
317.432	2.07
317.644	-0.16
317.857	1.42
318.069	1.48
318.281	4.47
318.494	8.42
318.706	7.24
318.918	5.87
319.13	7.65
319.342	8.39
319.555	9.27
319.767	10.11
319.979	8.61
320.191	9.56
320.403	10.77
320.615	9.45
320.827	5.17
321.039	6.13
321.252	5.62
321.464	5.23
321.676	4.61
321.888	5.06
322.1	1.7
322.312	4.56
322.524	4.97
322.736	5.86
322.948	4.93
323.16	6.86
323.372	7.36
323.584	7.67
323.796	9.85
324.007	9.73
324.219	8.13
324.431	10.55
324.643	10.18
324.855	11.03
325.067	11.96
325.279	11.51
325.491	10.83
325.702	11.73
325.914	12.4
326.126	12.02
326.338	12.47
326.55	14.39
326.761	15.1
326.973	13.81
327.185	13.39
327.396	12.85
327.608	13.8
327.82	15.64
328.032	13.85
328.243	13.79
328.455	12.88
328.666	14.9
328.878	15.66
329.09	13.99
329.301	17.31
329.513	18.34
329.725	18.45
329.936	20.2
330.148	19.98
330.359	22.61
330.571	25.16
330.782	25.73
330.994	25.9
331.205	25.95
331.417	28.66
331.628	28.38
331.84	27.53
332.051	29.17
332.262	28.05
332.474	28.05
332.685	31.07
332.897	31.21
333.108	33.18
333.319	33.41
333.531	35.17
333.742	34.11
333.953	36.45
334.165	37.7
334.376	38.44
334.587	39.52
334.799	39.34
335.01	35.12
335.221	34.4
335.432	35.18
335.644	36.11
335.855	34.49
336.066	36.67
336.277	35.71
336.488	35.23
336.7	34.87
336.911	35.67
337.122	38.47
337.333	40.53
337.544	40.7
337.755	40.31
337.966	39.67
338.177	40.67
338.388	40.06
338.599	40.6
338.811	41.65
339.022	41.37
339.233	40.04
339.444	38.21
339.655	40.45
339.866	41.43
340.076	39.75
340.287	40.57
340.498	42.11
340.709	42.98
340.92	42.96
341.131	43.35
341.342	42.83
341.553	43.05
341.764	42.84
341.975	40.27
342.185	41.5
342.396	43.36
342.607	44.32
342.818	42.81
343.029	42.79
343.239	43.78
343.45	43.73
343.661	44.63
343.872	45.35
344.082	46.88
344.293	46.78
344.504	46.54
344.714	44.99
344.925	44.14
345.136	44.69
345.346	43.81
345.557	42.5
345.768	42.99
345.978	43.2
346.189	44.32
346.399	43.38
346.61	44.67
346.821	44.65
347.031	45.03
347.242	45.07
347.452	45.26
347.663	46.83
347.873	47.87
348.084	47.26
348.294	48.47
348.504	48.23
348.715	50.05
348.925	50.8
349.136	51.91
349.346	52.76
349.557	51.96
349.767	52.38
349.977	51.24
350.188	52.71
350.398	52.71
350.608	52.42
350.819	52.68
351.029	50.51
351.239	50.67
351.449	50
351.66	51.18
351.87	51.8
352.08	51.87
352.29	51.61
352.501	48.8
352.711	49.98
352.921	50.85
353.131	51.76
353.341	53.12
353.552	52.85
353.762	52.46
353.972	52.49
354.182	53.79
354.392	53.77
354.602	55.1
354.812	56.72
355.022	56.14
355.232	54.26
355.442	52.48
355.652	51.52
355.862	52.05
356.072	52.75
356.282	51.94
356.492	51.55
356.702	52.78
356.912	52.17
357.122	51.39
357.332	51.75
357.542	51.66
357.752	52.94
357.962	53.43
358.171	52.76
358.381	52.42
358.591	52.8
358.801	52.62
359.011	50.68
359.221	50.28
359.43	50.69
359.64	50.2
359.85	51.02
360.06	50.52
360.269	51.57
360.479	50.25
360.689	50.34
360.899	49.74
361.108	49.11
361.318	50.01
361.528	50.6
361.737	50.65
361.947	50.65
362.156	50.41
362.366	50.73
362.576	48.72
362.785	49.59
362.995	48.97
363.204	48.82
363.414	49.26
363.623	48.54
363.833	48.2
364.042	48.29
364.252	47.93
364.461	47.99
364.671	47.78
364.88	49.34
365.09	48.46
365.299	49.05
365.509	48.58
365.718	47.89
365.927	48.18
366.137	48.01
366.346	47.33
366.555	47.43
366.765	46.49
366.974	45.87
367.183	44.82
367.393	45.81
367.602	45.57
367.811	45.97
368.021	45.4
368.23	45.3
368.439	45.53
368.648	44.88
368.857	44.58
369.067	44.51
369.276	44.6
369.485	44.73
369.694	44.68
369.903	44.99
370.112	45.17
370.321	45.46
370.531	46.21
370.74	45.78
370.949	46.48
371.158	46.25
371.367	46.49
371.576	47.22
371.785	47.02
371.994	45.67
372.203	44.55
372.412	44.26
372.621	44.42
372.83	44.06
373.039	44.08
373.248	44.3
373.457	45.08
373.666	45.97
373.874	44.6
374.083	44.39
374.292	44.68
374.501	44.05
374.71	43.83
374.919	43.65
375.128	43.01
375.336	43.31
375.545	42.79
375.754	42.48
375.963	41.24
376.171	41.58
376.38	41.75
376.589	41.45
376.798	42.32
377.006	42.52
377.215	42.2
377.424	42.17
377.632	41.44
377.841	41.57
378.05	40.27
378.258	40.01
378.467	39.56
378.675	39.19
378.884	38.76
379.093	38.08
379.301	38.37
379.51	38.84
379.718	38.28
379.927	38.48
380.135	38.68
380.344	39.08
380.552	40.24
380.761	40.14
380.969	40.71
381.177	40.75
381.386	41.26
381.594	40.35
381.803	39.66
382.011	39.25
382.219	38.69
382.428	37.43
382.636	37.43
382.845	37.01
383.053	36.73
383.261	36.39
383.469	37.01
383.678	36.64
383.886	36.41
384.094	36.55
384.302	36.63
384.511	36.74
384.719	36.95
384.927	36.92
385.135	36.11
385.343	36.25
385.552	35.92
385.76	35.55
385.968	35.31
386.176	34.85
386.384	34.46
386.592	34.18
386.8	33.75
387.008	33.77
387.216	33.76
387.424	33.33
387.633	32.97
387.841	32.64
388.049	32.48
388.257	32
388.465	32.43
388.672	32.69
388.88	32.67
389.088	32.46
389.296	32.17
389.504	31.78
389.712	32.12
389.92	31.95
390.128	32.3
390.336	32.15
390.544	32.04
390.751	31.65
390.959	31.27
391.167	31.42
391.375	31.69
391.583	31.79
391.79	31.69
391.998	31.54
392.206	31.87
392.414	31.37
392.621	31.61
392.829	31.48
393.037	31.51
393.244	31.33
393.452	31.43
393.66	31.19
393.867	31.06
394.075	31.1
394.283	31.18
394.49	31.06
394.698	31.13
394.905	30.68
395.113	30.81
395.32	30.71
395.528	30.77
395.735	30.59
395.943	30.57
396.15	30.48
396.358	31.17
396.565	31.42
396.773	31.31
396.98	31.33
397.188	31.63
397.395	31.68
397.602	31.92
397.81	32.08
398.017	32.45
398.225	32.51
398.432	32.68
398.639	31.89
398.847	31.59
399.054	31.89
399.261	31.61
399.468	31.67
399.676	31.87
399.883	32.08
400.09	32.23
400.297	31.95
400.505	32.07
400.712	32.45
400.919	32.67
401.126	32.72
401.333	32.66
401.54	32.85
401.748	32.8
401.955	32.49
402.162	32.28
402.369	32.36
402.576	32.33
402.783	32.13
402.99	32.1
403.197	32.03
403.404	31.72
403.611	31.67
403.818	31.93
404.025	31.66
404.232	31.84
404.439	31.81
404.646	31.68
404.853	31.93
405.06	32.53
405.267	32.24
405.474	32.42
405.681	32.6
405.887	32.78
406.094	32.55
406.301	32.6
406.508	32.75
406.715	32.57
406.922	32.51
407.128	32.24
407.335	31.46
407.542	31.41
407.749	31.35
407.955	31.28
408.162	31.14
408.369	31.33
408.575	31.53
408.782	31.43
408.989	31.69
409.195	31.38
409.402	31.4
409.609	31.69
409.815	32.03
410.022	31.71
410.228	31.69
410.435	31.44
410.642	31.47
410.848	31.26
411.055	31.03
411.261	30.76
411.468	31.06
411.674	30.91
411.881	30.98
412.087	30.68
412.294	30.76
412.5	30.92
412.706	30.96
412.913	30.82
413.119	31.05
413.326	31.42
413.532	31.67
413.738	31.51
413.945	31.44
414.151	31.52
414.357	31.57
414.564	31.71
414.77	31.75
414.976	31.8
415.182	31.85
415.389	31.84
415.595	31.54
415.801	31.45
416.007	31.8
416.214	31.82
416.42	31.66
416.626	31.53
416.832	31.49
417.038	31.36
417.244	31.12
417.45	31.13
417.657	30.93
417.863	31.01
418.069	30.97
418.275	30.62
418.481	30.52
418.687	30.49
418.893	30.42
419.099	30.42
419.305	30.46
419.511	30.51
419.717	30.32
419.923	30.35
420.129	30.26
420.335	30.27
420.541	30.29
420.746	30.14
420.952	30.16
421.158	30.32
421.364	30.34
421.57	30.23
421.776	30.29
421.982	30.36
422.187	30.32
422.393	30.24
422.599	30.3
422.805	30.52
423.01	30.7
423.216	30.58
423.422	30.44
423.628	30.32
423.833	30.37
424.039	30.21
424.245	30.23
424.45	30.06
424.656	30.01
424.862	29.9
425.067	29.91
425.273	29.87
425.478	29.93
425.684	29.92
425.889	29.81
426.095	29.73
426.301	29.76
426.506	29.63
426.712	29.86
426.917	29.95
427.123	29.82
427.328	29.49
427.533	29.47
427.739	29.41
427.944	29.31
428.15	29.33
428.355	29.15
428.561	29.21
428.766	29.22
428.971	29.07
429.177	29.13
429.382	29.06
429.587	28.97
429.793	28.88
429.998	28.73
430.203	28.58
430.408	28.75
430.614	29
430.819	28.88
431.024	28.92
431.229	29
431.434	29.11
431.64	29.21
431.845	29.2
432.05	29.19
432.255	29.36
432.46	29.56
432.665	29.49
432.87	29.4
433.076	29.64
433.281	29.64
433.486	29.68
433.691	29.54
433.896	29.58
434.101	29.43
434.306	29.52
434.511	29.48
434.716	29.41
434.921	29.29
435.126	29.29
435.331	28.87
435.535	28.77
435.74	28.78
435.945	28.96
436.15	28.97
436.355	29
436.56	28.66
436.765	28.77
436.97	28.78
437.174	28.83
437.379	28.8
437.584	29.04
437.789	29.25
437.993	29.24
438.198	29.24
438.403	29.27
438.608	29.38
438.812	29.71
439.017	29.45
439.222	29.4
439.426	29.36
439.631	29.39
439.836	29.42
440.04	29.33
440.245	29.3
440.45	29.18
440.654	29.16
440.859	29.2
441.063	29.13
441.268	29.26
441.472	29.25
441.677	29.16
441.881	29.08
442.086	29.01
442.29	29.04
442.495	29.04
442.699	28.9
442.904	28.98
443.108	28.93
443.312	28.98
443.517	28.89
443.721	28.91
443.925	29.03
444.13	29.05
444.334	29.06
444.538	28.94
444.743	28.94
444.947	29.04
445.151	29.06
445.356	28.94
445.56	28.87
445.764	28.88
445.968	28.91
446.173	29.01
446.377	29
446.581	28.95
446.785	29.01
446.989	29.02
447.193	29.01
447.398	28.77
447.602	28.75
447.806	28.78
448.01	28.66
448.214	28.61
448.418	28.48
448.622	28.56
448.826	28.57
449.03	28.36
449.234	28.27
449.438	28.2
449.642	28.21
449.846	28.09
450.05	28.03
450.254	28.09
450.458	27.95
450.662	27.94
450.866	27.79
451.069	27.89
451.273	27.88
451.477	27.79
451.681	27.53
451.885	27.62
452.089	27.78
452.292	27.57
452.496	27.56
452.7	27.43
452.904	27.52
453.107	27.41
453.311	27.22
453.515	27.18
453.719	27.18
453.922	27.45
454.126	27.53
454.33	27.51
454.533	27.41
