Data from 2937821_Reflection_3.txt Node
Date: Wed Jul 15 17:18:28 EDT 2015
User: robert
Spectrometer: USB4E03001
Autoset integration time: false
Trigger mode: 4
Integration Time (sec): 1.000000E-1
Scans to average: 10
Electric dark correction enabled: true
Nonlinearity correction enabled: false
Boxcar width: 5
Stray light correction enabled: false
XAxis mode: Wavelengths
Stop averaging: false
Number of Pixels in Spectrum: 3648
>>>>>Begin Spectral Data<<<<<
177.566	92.91
177.785	81.28
178.005	127
178.225	27.52
178.445	-201.45
178.665	74.53
178.885	589.33
179.105	264.49
179.324	270.19
179.544	55.68
179.764	55.87
179.984	74.97
180.204	77.52
180.423	315.81
180.643	117.89
180.863	114.86
181.083	358.63
181.302	199.14
181.522	207.19
181.742	236.15
181.961	258.49
182.181	568.53
182.401	422.38
182.621	248.08
182.84	106.93
183.06	109.68
183.279	79.04
183.499	69.68
183.719	1.42
183.938	-45.29
184.158	-39.83
184.377	-122.11
184.597	-87.51
184.816	-178.69
185.036	1498.36
185.256	272.49
185.475	189.4
185.695	125.32
185.914	116.47
186.134	104.03
186.353	122.46
186.572	107.98
186.792	57.88
187.011	8.11
187.231	39.91
187.45	-249.64
187.67	203.17
187.889	74.05
188.108	75.03
188.328	50.52
188.547	34.89
188.766	53.67
188.986	58.98
189.205	56.77
189.424	35.85
189.644	38.02
189.863	75.54
190.082	187.85
190.302	-3105.48
190.521	217.87
190.74	195.28
190.959	315.33
191.178	-69.11
191.398	-160.76
191.617	-539.74
191.836	-132.43
192.055	-61.65
192.274	687.92
192.494	194.5
192.713	283.68
192.932	-115.54
193.151	-0.67
193.37	37.35
193.589	-526.79
193.808	1368.03
194.027	-78.41
194.246	-2.13
194.465	275.33
194.685	-14.27
194.904	80.38
195.123	282.81
195.342	421.28
195.561	-96.19
195.78	163.68
195.999	393.23
196.218	1652.78
196.436	-2145.45
196.655	-658.33
196.874	-28.86
197.093	-432.21
197.312	-583.01
197.531	-25.16
197.75	-41.56
197.969	-9.85
198.188	-6.41
198.407	23.27
198.625	-32.45
198.844	13.28
199.063	22.45
199.282	10.97
199.501	32.39
199.719	45.28
199.938	157.65
200.157	146.27
200.376	335.93
200.594	137.49
200.813	235.5
201.032	286.37
201.251	1698.85
201.469	-160
201.688	2094.41
201.907	-459.91
202.125	-53.49
202.344	21.59
202.563	8.99
202.781	45.82
203	61.41
203.218	134.32
203.437	111.56
203.656	105.39
203.874	142.61
204.093	105.09
204.311	90.27
204.53	148.88
204.748	15.95
204.967	109.47
205.185	109.44
205.404	6.39
205.622	-25.11
205.841	-30.12
206.059	-2303.03
206.278	265.54
206.496	-46.63
206.715	428.54
206.933	5673.97
207.151	-356.24
207.37	1029.57
207.588	371.36
207.806	998.98
208.025	907.8
208.243	-228.98
208.461	-522.86
208.68	-849.59
208.898	287.47
209.116	1694.58
209.335	366.11
209.553	91.71
209.771	-25.47
209.989	234.1
210.208	937.57
210.426	132.42
210.644	-5652.05
210.862	-581.55
211.081	-87.48
211.299	-441.67
211.517	313.36
211.735	1141.65
211.953	442.77
212.171	-46.17
212.39	-25.16
212.608	62.79
212.826	-4.93
213.044	2.93
213.262	242.88
213.48	95.52
213.698	36.52
213.916	-22.8
214.134	29.06
214.352	109.51
214.57	61.47
214.788	18.8
215.006	41.83
215.224	17.69
215.442	29.27
215.66	20.5
215.878	10.39
216.096	39.34
216.314	19.83
216.532	16.45
216.75	-9.86
216.968	-80.04
217.185	20.67
217.403	36.64
217.621	58.45
217.839	39.1
218.057	168.31
218.275	-52.94
218.492	80.93
218.71	85.66
218.928	69
219.146	44.39
219.363	83.67
219.581	10.63
219.799	-34.07
220.017	-97.75
220.234	-113.55
220.452	-159.55
220.67	-36.62
220.887	21.46
221.105	118.33
221.323	263.93
221.54	-1578.81
221.758	-57.05
221.976	170.15
222.193	45.89
222.411	49.84
222.629	100
222.846	-720.19
223.064	-224.06
223.281	-261.36
223.499	-104.33
223.716	-96.43
223.934	-51.59
224.151	-21.42
224.369	7.43
224.586	10.76
224.804	24.75
225.021	44.5
225.239	48.03
225.456	49.06
225.674	56.2
225.891	65.07
226.108	49.52
226.326	41.48
226.543	54.07
226.76	41.55
226.978	29.55
227.195	16.93
227.413	14.03
227.63	9.11
227.847	8.12
228.064	13.52
228.282	10.3
228.499	11.11
228.716	10.91
228.934	5.86
229.151	4.36
229.368	7.13
229.585	10.03
229.802	10.53
230.02	9.97
230.237	6.82
230.454	1.13
230.671	2.06
230.888	2.94
231.105	2.39
231.323	4.34
231.54	3.02
231.757	3.74
231.974	0.43
232.191	-9.96
232.408	-9.8
232.625	1.47
232.842	-0.72
233.059	-6.65
233.276	-2.91
233.493	0.4
233.71	-5.46
233.927	-8.49
234.144	-13.62
234.361	-13.87
234.578	-5.29
234.795	0.63
235.012	-17.55
235.229	-7.56
235.446	-0.25
235.663	-9.21
235.879	-12.67
236.096	-10.28
236.313	-0.37
236.53	-1.76
236.747	0.02
236.964	1.65
237.181	4.89
237.397	10.78
237.614	15.24
237.831	16.12
238.048	19.18
238.264	20.18
238.481	21.05
238.698	16.32
238.915	18.12
239.131	19.06
239.348	17.64
239.565	13.7
239.781	13.28
239.998	9.85
240.215	10.56
240.431	11.05
240.648	12.17
240.865	12.41
241.081	13.13
241.298	12.91
241.514	12.95
241.731	11.2
241.947	9.45
242.164	9.36
242.38	8.41
242.597	9.84
242.814	7.75
243.03	7.43
243.246	6.27
243.463	5.55
243.679	4.9
243.896	5.29
244.112	5.36
244.329	5.34
244.545	7.45
244.762	8
244.978	2.22
245.194	4.26
245.411	1.56
245.627	2.86
245.843	2.84
246.06	1.85
246.276	1.53
246.492	2.13
246.709	3.38
246.925	0.68
247.141	1.93
247.357	2.55
247.574	3.1
247.79	3.7
248.006	3.39
248.222	3.85
248.439	4.17
248.655	3.62
248.871	2.94
249.087	2.43
249.303	2.98
249.519	2.41
249.736	3.16
249.952	2.1
250.168	3.04
250.384	1.57
250.6	1.05
250.816	-0.31
251.032	1.92
251.248	-0.66
251.464	-1.48
251.68	2.17
251.896	0.4
252.112	-1.01
252.328	-2.42
252.544	-3.62
252.76	-2.2
252.976	-0.65
253.192	-0.05
253.408	-2.19
253.624	-0.04
253.84	1.45
254.056	-0.17
254.272	0.56
254.487	2.94
254.703	3.48
254.919	2.86
255.135	5.4
255.351	5.46
255.567	4.25
255.782	6.95
255.998	7.03
256.214	2.71
256.43	1.5
256.646	-2.34
256.861	-5
257.077	0.67
257.293	-0.01
257.508	0.43
257.724	-1.82
257.94	-0.96
258.155	-2.08
258.371	-1.39
258.587	-0.34
258.802	-0.4
259.018	0.57
259.234	1.02
259.449	-0.35
259.665	0.36
259.88	-0.4
260.096	-0.27
260.312	-0.12
260.527	0.15
260.743	0.53
260.958	0.07
261.174	-0.74
261.389	0.25
261.605	0.48
261.82	-0.22
262.036	-0.2
262.251	-0.63
262.466	-0.59
262.682	-1.6
262.897	-1.03
263.113	-1.89
263.328	0.5
263.543	3.66
263.759	2.77
263.974	1.66
264.189	1.79
264.405	2.03
264.62	3.16
264.835	1.22
265.051	0.28
265.266	-5.11
265.481	-6.56
265.696	-6.71
265.912	-7.42
266.127	-8.8
266.342	-11.43
266.557	-10.54
266.773	-10.88
266.988	-12.05
267.203	-13.06
267.418	-10.63
267.633	-9.3
267.848	-8.63
268.064	-8.79
268.279	-7.74
268.494	-7.36
268.709	-2.76
268.924	-1.16
269.139	0.21
269.354	1.23
269.569	3.1
269.784	1.88
269.999	4.61
270.214	6.59
270.429	6.27
270.644	5.01
270.859	4.21
271.074	1.73
271.289	0.87
271.504	-0.57
271.719	-0.16
271.934	-0.21
272.149	0.26
272.363	-0.5
272.578	-1.58
272.793	-1.49
273.008	-0.15
273.223	1.34
273.438	2.06
273.653	2.79
273.867	2.5
274.082	3.48
274.297	3.07
274.512	3.46
274.726	3.57
274.941	3.82
275.156	3.26
275.371	1.12
275.585	1.94
275.8	3.72
276.015	2.64
276.229	5.99
276.444	5.1
276.659	6.58
276.873	4.79
277.088	4.89
277.302	5.24
277.517	4.59
277.732	4.32
277.946	0.92
278.161	-0.96
278.375	1.59
278.59	0.82
278.804	-0.12
279.019	-0.05
279.233	-0.28
279.448	-0.94
279.662	0.91
279.877	1.55
280.091	2.72
280.306	3.68
280.52	3.74
280.735	1.05
280.949	0.4
281.163	-0.4
281.378	-0.16
281.592	0.44
281.806	0.99
282.021	-1.35
282.235	-0.32
282.449	-0.38
282.664	-0.71
282.878	1.18
283.092	1.65
283.307	1.01
283.521	2.19
283.735	2.85
283.949	3.9
284.164	3.66
284.378	2.96
284.592	2.8
284.806	1.59
285.02	3.11
285.234	1.5
285.449	2.08
285.663	1.69
285.877	2.33
286.091	1.67
286.305	2.46
286.519	2.05
286.733	2.57
286.947	2.45
287.161	2.55
287.375	1.82
287.589	1.3
287.803	0.26
288.017	0.86
288.231	-1.19
288.445	-2.13
288.659	-1.48
288.873	-2.49
289.087	-2.9
289.301	-3.41
289.515	-2.54
289.729	-3.47
289.943	-3.18
290.157	-2.53
290.371	-3.27
290.584	-1.22
290.798	-1.5
291.012	-3.06
291.226	-2.28
291.44	-1.06
291.654	-0.58
291.867	-0.66
292.081	0.43
292.295	1.49
292.509	1.42
292.722	3.61
292.936	1.44
293.15	4.09
293.364	5.69
293.577	6.36
293.791	6.26
294.005	4.76
294.218	4.31
294.432	2.74
294.645	3.49
294.859	4.26
295.073	3.07
295.286	4.95
295.5	4.66
295.713	3.31
295.927	3.9
296.14	3.36
296.354	4.38
296.568	5.99
296.781	7.23
296.994	5.64
297.208	5.47
297.421	6.08
297.635	6
297.848	5.69
298.062	6.48
298.275	6.43
298.489	6.5
298.702	6.98
298.915	5.58
299.129	6
299.342	7.23
299.555	7.71
299.769	6.74
299.982	6.14
300.195	4.3
300.409	3.57
300.622	3.43
300.835	3.66
301.048	3.49
301.262	4.91
301.475	4.53
301.688	3.71
301.901	2.46
302.115	1.53
302.328	1.58
302.541	2.57
302.754	3.13
302.967	3.05
303.18	4.96
303.393	5.27
303.607	5.38
303.82	4.14
304.033	4.98
304.246	5.72
304.459	7.16
304.672	6.98
304.885	8.43
305.098	9.42
305.311	8.93
305.524	9.03
305.737	9.18
305.95	8.94
306.163	10.79
306.376	10.37
306.589	9.96
306.802	9.53
307.015	9.84
307.228	8.61
307.44	7.5
307.653	7.7
307.866	8.02
308.079	6.2
308.292	6.75
308.505	8.27
308.718	8.46
308.93	8.11
309.143	9.27
309.356	9.78
309.569	10.08
309.781	9.71
309.994	9.84
310.207	8.09
310.42	9.71
310.632	8.04
310.845	5.88
311.058	5.99
311.27	6.45
311.483	6.06
311.696	5.84
311.908	5.04
312.121	4.83
312.333	4.13
312.546	3.58
312.759	1.32
312.971	1.06
313.184	2.14
313.396	2.54
313.609	2.1
313.821	2.94
314.034	3.09
314.246	4.27
314.459	4.69
314.671	6.13
314.884	6.66
315.096	8.34
315.309	9.17
315.521	8.22
315.733	7.58
315.946	7.35
316.158	7.69
316.371	5.18
316.583	4.98
316.795	5.68
317.008	5.55
317.22	6.03
317.432	5.81
317.644	6.34
317.857	6.87
318.069	5.1
318.281	7.32
318.494	6.22
318.706	7.52
318.918	8.34
319.13	6.92
319.342	6.61
319.555	7.9
319.767	7.59
319.979	7.39
320.191	6.06
320.403	6.3
320.615	5.47
320.827	4.02
321.039	5.5
321.252	4.58
321.464	4.04
321.676	3.15
321.888	0.99
322.1	2.54
322.312	3.48
322.524	3.92
322.736	4.44
322.948	3.61
323.16	7.14
323.372	6.85
323.584	8.1
323.796	8.02
324.007	10.55
324.219	11.7
324.431	11.73
324.643	11.86
324.855	11.77
325.067	13.27
325.279	14.37
325.491	12.79
325.702	13.87
325.914	13.59
326.126	15.97
326.338	13.86
326.55	15.63
326.761	15.28
326.973	15.6
327.185	17.14
327.396	17.06
327.608	16.13
327.82	15.59
328.032	16.57
328.243	17.18
328.455	15.86
328.666	17.55
328.878	17.41
329.09	18.58
329.301	19.75
329.513	19.61
329.725	18.7
329.936	21.4
330.148	23.03
330.359	21.71
330.571	23.32
330.782	24.47
330.994	26.64
331.205	24.26
331.417	25.49
331.628	24.24
331.84	25.05
332.051	27.24
332.262	26.28
332.474	26.43
332.685	27.14
332.897	26.32
333.108	27.07
333.319	25.95
333.531	27.44
333.742	26.07
333.953	27.3
334.165	28.21
334.376	28.07
334.587	28.69
334.799	28.56
335.01	29.16
335.221	28.49
335.432	28.11
335.644	27.24
335.855	28.37
336.066	29.28
336.277	28.17
336.488	28.44
336.7	28.4
336.911	28.9
337.122	29.57
337.333	30.63
337.544	30.98
337.755	32.2
337.966	33.13
338.177	32.68
338.388	32.71
338.599	33.69
338.811	33.7
339.022	35.83
339.233	35.67
339.444	35.43
339.655	34.95
339.866	36.78
340.076	35.8
340.287	36.39
340.498	37.79
340.709	37.8
340.92	38.15
341.131	38.02
341.342	36.44
341.553	36.72
341.764	37
341.975	36.8
342.185	36.48
342.396	36.82
342.607	36.75
342.818	35.33
343.029	35.88
343.239	35.9
343.45	36.66
343.661	36.84
343.872	37.36
344.082	36.28
344.293	36.27
344.504	36.32
344.714	36.21
344.925	36.47
345.136	37.63
345.346	36.86
345.557	36.91
345.768	35.63
345.978	35.83
346.189	35.94
346.399	37.1
346.61	37.7
346.821	37.21
347.031	38.59
347.242	38.3
347.452	37.68
347.663	39.09
347.873	40.01
348.084	40.31
348.294	40.88
348.504	40.96
348.715	41.08
348.925	41.02
349.136	41.09
349.346	40.18
349.557	41.09
349.767	41.02
349.977	40.49
350.188	39.31
350.398	39.96
350.608	38.81
350.819	39.22
351.029	39.06
351.239	39.85
351.449	39.86
351.66	39.55
351.87	38.71
352.08	38.28
352.29	38.29
352.501	37.83
352.711	39.31
352.921	39.03
353.131	37.66
353.341	38.15
353.552	36.95
353.762	38.1
353.972	37.69
354.182	38.21
354.392	39.37
354.602	39.37
354.812	40.89
355.022	40.71
355.232	41.17
355.442	41.08
355.652	39.72
355.862	40.43
356.072	38.63
356.282	40.8
356.492	39.99
356.702	40.26
356.912	39.68
357.122	39.27
357.332	38.78
357.542	40.06
357.752	40.78
357.962	43.08
358.171	43.03
358.381	44.19
358.591	43.19
358.801	43.75
359.011	43.22
359.221	42.96
359.43	43.07
359.64	42.63
359.85	41.51
360.06	42.16
360.269	41.19
360.479	41.02
360.689	40.36
360.899	40.18
361.108	40.11
361.318	39.89
361.528	40.54
361.737	39.89
361.947	39.73
362.156	39.99
362.366	39.01
362.576	38.98
362.785	38.7
362.995	39.45
363.204	39.11
363.414	38.9
363.623	39.09
363.833	39.09
364.042	39.66
364.252	40.8
364.461	40.51
364.671	40.93
364.88	40.56
365.09	40.46
365.299	39.78
365.509	39.67
365.718	39.59
365.927	39.72
366.137	39.35
366.346	38.58
366.555	37.42
366.765	37.33
366.974	37.12
367.183	37.8
367.393	37.74
367.602	38.46
367.811	38.76
368.021	39.9
368.23	39.11
368.439	38.67
368.648	39.22
368.857	39.05
369.067	39.26
369.276	39.1
369.485	38.32
369.694	37.59
369.903	36.56
370.112	36.12
370.321	34.69
370.531	33.89
370.74	34.34
370.949	35.11
371.158	35.17
371.367	35.44
371.576	36.08
371.785	35.95
371.994	36.3
372.203	36.65
372.412	36.65
372.621	36.39
372.83	37.77
373.039	37.27
373.248	35.63
373.457	35.8
373.666	35.38
373.874	35.12
374.083	35.23
374.292	35.94
374.501	35.85
374.71	35.99
374.919	36.28
375.128	35.93
375.336	35.64
375.545	35.89
375.754	35.17
375.963	34.42
376.171	34.26
376.38	34.49
376.589	34.37
376.798	34.11
377.006	34.16
377.215	34.4
377.424	34.03
377.632	34.78
377.841	34.83
378.05	35.41
378.258	35.53
378.467	35.58
378.675	35.48
378.884	35.44
379.093	35.43
379.301	35.3
379.51	34.73
379.718	34.71
379.927	34.22
380.135	34.83
380.344	34.69
380.552	34.67
380.761	33.72
380.969	33.52
381.177	32.79
381.386	32.76
381.594	32.61
381.803	33.26
382.011	33.71
382.219	33.43
382.428	32.9
382.636	32.65
382.845	32.91
383.053	33.12
383.261	33.15
383.469	33.08
383.678	32.67
383.886	32.58
384.094	32.32
384.302	31.72
384.511	31.96
384.719	31.72
384.927	31.56
385.135	31.42
385.343	31.64
385.552	31.54
385.76	31.79
385.968	32.14
386.176	32.43
386.384	32.24
386.592	32.23
386.8	32.47
387.008	32.62
387.216	32.83
387.424	32.58
387.633	32.28
387.841	31.88
388.049	31.49
388.257	31.1
388.465	30.98
388.672	31.25
388.88	31.62
389.088	31.32
389.296	31.18
389.504	31.02
389.712	31.1
389.92	31.28
390.128	31.36
390.336	31.16
390.544	31.17
390.751	30.96
390.959	30.47
391.167	30.37
391.375	30.14
391.583	30.23
391.79	30.33
391.998	30.42
392.206	30.56
392.414	30.54
392.621	30.64
392.829	30.25
393.037	30.47
393.244	30.74
393.452	30.93
393.66	31.29
393.867	31.23
394.075	31.2
394.283	31.41
394.49	31.2
394.698	31.53
394.905	31.61
395.113	32.35
395.32	32.33
395.528	32.41
395.735	32.56
395.943	32.62
396.15	32.66
396.358	32.79
396.565	32.99
396.773	32.71
396.98	32.42
397.188	32.98
397.395	33.02
397.602	32.97
397.81	33.17
398.017	33.18
398.225	33.07
398.432	33.45
398.639	33.78
398.847	33.55
399.054	33.97
399.261	34.13
399.468	33.74
399.676	33.72
399.883	33.96
400.09	33.93
400.297	33.96
400.505	34.1
400.712	33.89
400.919	33.41
401.126	33.56
401.333	33.72
401.54	33.87
401.748	33.79
401.955	33.77
402.162	33.39
402.369	33.58
402.576	33.24
402.783	33.08
402.99	33.01
403.197	33.07
403.404	32.91
403.611	33.03
403.818	32.98
404.025	33.11
404.232	33.06
404.439	33.31
404.646	33.32
404.853	33.26
405.06	33.6
405.267	33.7
405.474	34.11
405.681	34.01
405.887	33.98
406.094	34
406.301	33.9
406.508	33.93
406.715	33.75
406.922	33.7
407.128	34
407.335	33.92
407.542	34.08
407.749	34
407.955	34.54
408.162	34.58
408.369	34.67
408.575	34.85
408.782	34.88
408.989	35
409.195	35.08
409.402	34.95
409.609	34.76
409.815	34.62
410.022	34.53
410.228	34.42
410.435	34.17
410.642	34.04
410.848	34.27
411.055	34.46
411.261	34.56
411.468	34.36
411.674	34.31
411.881	34.51
412.087	34.71
412.294	34.46
412.5	34.15
412.706	34.58
412.913	34.28
413.119	34.12
413.326	33.99
413.532	33.58
413.738	33.63
413.945	33.88
414.151	33.57
414.357	33.22
414.564	33.17
414.77	33.33
414.976	33.14
415.182	33.58
415.389	33.34
415.595	33.39
415.801	33.62
416.007	33.28
416.214	33.11
416.42	33.38
416.626	33.56
416.832	33.8
417.038	33.61
417.244	33.56
417.45	33.42
417.657	33.62
417.863	33.68
418.069	33.65
418.275	33.76
418.481	33.55
418.687	33.27
418.893	33.26
419.099	33.12
419.305	33.24
419.511	33.12
419.717	33.03
419.923	32.97
420.129	32.98
420.335	33.02
420.541	33.02
420.746	33.04
420.952	33.1
421.158	32.96
421.364	33.06
421.57	32.91
421.776	32.86
421.982	33.02
422.187	32.98
422.393	32.8
422.599	32.92
422.805	32.94
423.01	32.98
423.216	32.99
423.422	33.01
423.628	32.98
423.833	33.01
424.039	33.11
424.245	32.95
424.45	32.87
424.656	32.93
424.862	32.72
425.067	32.56
425.273	32.69
425.478	32.69
425.684	32.66
425.889	32.58
426.095	32.57
426.301	32.65
426.506	32.71
426.712	32.79
426.917	32.68
427.123	32.65
427.328	32.78
427.533	32.61
427.739	32.52
427.944	32.41
428.15	32.29
428.355	32.16
428.561	31.89
428.766	31.74
428.971	31.78
429.177	31.91
429.382	32.01
429.587	32.15
429.793	32.08
429.998	32.34
430.203	32.46
430.408	32.57
430.614	32.86
430.819	32.82
431.024	32.94
431.229	32.85
431.434	32.74
431.64	32.92
431.845	32.82
432.05	32.94
432.255	32.92
432.46	32.98
432.665	32.96
432.87	32.72
433.076	32.85
433.281	32.81
433.486	32.74
433.691	32.87
433.896	32.71
434.101	32.63
434.306	32.48
434.511	32.35
434.716	32.48
434.921	32.39
435.126	32.46
435.331	32.55
435.535	32.66
435.74	32.77
435.945	32.67
436.15	32.64
436.355	32.68
436.56	32.74
436.765	32.84
436.97	32.69
437.174	32.86
437.379	32.82
437.584	32.61
437.789	32.54
437.993	32.59
438.198	32.56
438.403	32.63
438.608	32.57
438.812	32.58
439.017	32.53
439.222	32.48
439.426	32.42
439.631	32.52
439.836	32.56
440.04	32.56
440.245	32.51
440.45	32.49
440.654	32.55
440.859	32.63
441.063	32.58
441.268	32.57
441.472	32.59
441.677	32.63
441.881	32.68
442.086	32.61
442.29	32.7
442.495	32.71
442.699	32.79
442.904	32.65
443.108	32.56
443.312	32.7
443.517	32.64
443.721	32.49
443.925	32.36
444.13	32.36
444.334	32.6
444.538	32.53
444.743	32.46
444.947	32.46
445.151	32.47
445.356	32.52
445.56	32.47
445.764	32.51
445.968	32.69
446.173	32.65
446.377	32.46
446.581	32.35
446.785	32.39
446.989	32.46
447.193	32.36
447.398	32.22
447.602	32.3
447.806	32.26
448.01	32.33
448.214	32.27
448.418	32.35
448.622	32.51
448.826	32.45
449.03	32.35
449.234	32.31
449.438	32.31
449.642	32.38
449.846	32.37
450.05	32.37
450.254	32.33
450.458	32.34
450.662	32.41
450.866	32.35
451.069	32.28
451.273	32.23
451.477	32.09
451.681	32.19
451.885	32.12
452.089	32.08
452.292	32.04
452.496	31.8
452.7	31.75
452.904	31.57
453.107	31.57
453.311	31.76
453.515	31.72
453.719	31.71
453.922	31.73
454.126	31.77
454.33	31.63
454.533	31.62
454.737	31.64
454.94	31.44
455.144	31.67
455.348	31.63
455.551	31.64
455.755	31.73
455.958	31.88
456.162	31.64
456.365	31.55
456.569	31.4
456.772	31.55
456.976	31.53
457.179	31.75
457.383	31.54
457.586	31.63
457.79	31.52
457.993	31.44
458.196	31.42
458.4	31.67
458.603	31.78
458.807	31.99
459.01	31.97
