Data from 2937885_Reflection_2.txt Node
Date: Wed Jul 15 14:34:42 EDT 2015
User: robert
Spectrometer: USB4E03001
Autoset integration time: false
Trigger mode: 4
Integration Time (sec): 1.000000E-1
Scans to average: 10
Electric dark correction enabled: true
Nonlinearity correction enabled: false
Boxcar width: 5
Stray light correction enabled: false
XAxis mode: Wavelengths
Stop averaging: false
Number of Pixels in Spectrum: 3648
>>>>>Begin Spectral Data<<<<<
177.566	552.53
177.785	828.79
178.005	79.3
178.225	44.31
178.445	141.55
178.665	211.47
178.885	-2321.92
179.105	273.05
179.324	57.05
179.544	2.76
179.764	61.46
179.984	11.73
180.204	30.01
180.423	5.48
180.643	-32.46
180.863	-43.49
181.083	-27.25
181.302	-0.92
181.522	-25.2
181.742	-42.97
181.961	-33.44
182.181	-39.46
182.401	-191.84
182.621	-220.73
182.84	-6.07
183.06	36.85
183.279	66.9
183.499	13.51
183.719	-249.67
183.938	-9.93
184.158	-32.77
184.377	-66.1
184.597	-5.16
184.816	15.8
185.036	16.07
185.256	-28.72
185.475	-54.72
185.695	-34.15
185.914	1.77
186.134	7.03
186.353	-32.5
186.572	-58.36
186.792	-94.07
187.011	-1801.65
187.231	2130.94
187.45	250.53
187.67	387.9
187.889	-272.36
188.108	-121.02
188.328	-785.18
188.547	-1494.91
188.766	-339.56
188.986	-453.62
189.205	-106.11
189.424	-43.44
189.644	-18.85
189.863	-13.45
190.082	-16.61
190.302	-27.69
190.521	-17.59
190.74	8.21
190.959	-0.59
191.178	10.56
191.398	20.49
191.617	21.86
191.836	18.18
192.055	-13.72
192.274	-20.7
192.494	-14.01
192.713	-31.16
192.932	-63.81
193.151	-137.26
193.37	-245.19
193.589	-457.26
193.808	-687.69
194.027	441.04
194.246	326.66
194.465	250.3
194.685	187.54
194.904	186.7
195.123	188.47
195.342	136.63
195.561	144.25
195.78	119.77
195.999	178.17
196.218	156.55
196.436	76.96
196.655	71.83
196.874	-665.75
197.093	200.44
197.312	78.19
197.531	48
197.75	-49.59
197.969	-78.89
198.188	-155.32
198.407	-241.32
198.625	-240.11
198.844	516.48
199.063	21.25
199.282	339.86
199.501	99.45
199.719	-15.11
199.938	-101.67
200.157	-135.91
200.376	-60.41
200.594	-137.58
200.813	1072.94
201.032	-407.9
201.251	1507.83
201.469	-439.64
201.688	812.73
201.907	232.31
202.125	215.04
202.344	149.03
202.563	246.99
202.781	449.75
203	-5088.39
203.218	-214.75
203.437	-512.48
203.656	-124.94
203.874	-158.65
204.093	-115.99
204.311	-128.19
204.53	-113.54
204.748	-61.96
204.967	-54.93
205.185	-33.41
205.404	-53.62
205.622	-74.5
205.841	-44.25
206.059	-45.32
206.278	-23.61
206.496	-2.84
206.715	20.64
206.933	29.36
207.151	-1.34
207.37	21.66
207.588	29.49
207.806	34.28
208.025	25.83
208.243	-9.17
208.461	16.31
208.68	10.04
208.898	-0.72
209.116	74.79
209.335	343.88
209.553	115.57
209.771	89.36
209.989	118.03
210.208	83.86
210.426	74.16
210.644	64.26
210.862	70.26
211.081	45.1
211.299	-6.33
211.517	-51.69
211.735	-81.66
211.953	-145.04
212.171	-249.1
212.39	-781.76
212.608	-201.15
212.826	-164.94
213.044	-218.16
213.262	-135.48
213.48	-207.53
213.698	-138.53
213.916	-107.9
214.134	-91.3
214.352	-35.01
214.57	-8.67
214.788	-14.29
215.006	-32.41
215.224	-10.43
215.442	8.1
215.66	8.5
215.878	42.22
216.096	46.63
216.314	27.9
216.532	-21.1
216.75	-2.93
216.968	1.11
217.185	51.47
217.403	63.91
217.621	71.7
217.839	18.75
218.057	27.81
218.275	-97.56
218.492	53.96
218.71	62.19
218.928	71.41
219.146	80.74
219.363	82.87
219.581	53.48
219.799	21.33
220.017	12.57
220.234	9.51
220.452	30.9
220.67	36.12
220.887	-53.67
221.105	-39.62
221.323	-90.95
221.54	-195.82
221.758	-153.52
221.976	-150.73
222.193	-32.33
222.411	10.35
222.629	17.8
222.846	28.81
223.064	42.2
223.281	42.32
223.499	44.49
223.716	40.18
223.934	45.08
224.151	42.92
224.369	45.43
224.586	35.73
224.804	29.05
225.021	30.81
225.239	15.22
225.456	12.4
225.674	16.39
225.891	6.85
226.108	8.32
226.326	-0.21
226.543	4.01
226.76	-9.88
226.978	10.48
227.195	11.91
227.413	2.93
227.63	9.2
227.847	8.53
228.064	11.34
228.282	14.74
228.499	17.5
228.716	19.04
228.934	17.31
229.151	19.28
229.368	17.72
229.585	17.52
229.802	18
230.02	16.5
230.237	13.41
230.454	8.87
230.671	9.35
230.888	7.55
231.105	4
231.323	6.97
231.54	1.33
231.757	-0.67
231.974	-1.75
232.191	-1.63
232.408	-1.5
232.625	-3.9
232.842	5.27
233.059	3.16
233.276	1.45
233.493	6.46
233.71	-0.64
233.927	6.49
234.144	0.22
234.361	1.24
234.578	1.57
234.795	5.47
235.012	11.41
235.229	11.69
235.446	9.67
235.663	12.81
235.879	7.1
236.096	9.98
236.313	4.72
236.53	8.91
236.747	9.48
236.964	11.36
237.181	13.62
237.397	14.48
237.614	7.7
237.831	9.32
238.048	5.37
238.264	9.53
238.481	14.27
238.698	11.82
238.915	17.93
239.131	17.07
239.348	14.66
239.565	10.09
239.781	10.64
239.998	12.91
240.215	13.39
240.431	14.87
240.648	16.51
240.865	11.06
241.081	12.04
241.298	9.58
241.514	10.52
241.731	10.48
241.947	10.38
242.164	9.95
242.38	10.97
242.597	11.54
242.814	10.31
243.03	11.64
243.246	12.01
243.463	12.21
243.679	11.94
243.896	12.92
244.112	13.79
244.329	13.05
244.545	10.8
244.762	8.51
244.978	7.55
245.194	8.72
245.411	5.06
245.627	8.3
245.843	8.69
246.06	8.29
246.276	7.62
246.492	6.64
246.709	8.33
246.925	10.11
247.141	10.82
247.357	11.16
247.574	10.99
247.79	10.74
248.006	9.65
248.222	10.47
248.439	10.66
248.655	10.83
248.871	11.4
249.087	11
249.303	10.66
249.519	11.47
249.736	12.06
249.952	13.74
250.168	15.02
250.384	16.58
250.6	15.52
250.816	15.25
251.032	16.67
251.248	18.8
251.464	20
251.68	17.94
251.896	16.11
252.112	12.54
252.328	10.84
252.544	12.58
252.76	13.07
252.976	12.72
253.192	14.23
253.408	13
253.624	11.67
253.84	9.06
254.056	9.6
254.272	8.99
254.487	10.42
254.703	8.04
254.919	7.18
255.135	2.79
255.351	4.26
255.567	2.31
255.782	1.61
255.998	3.28
256.214	5.59
256.43	6.53
256.646	5.79
256.861	6.31
257.077	9.07
257.293	8.87
257.508	11.4
257.724	8.15
257.94	9.44
258.155	9.31
258.371	9.22
258.587	8.6
258.802	9.27
259.018	10.05
259.234	10.35
259.449	10.33
259.665	9.55
259.88	8.45
260.096	10.18
260.312	9.66
260.527	9.58
260.743	8.91
260.958	9.02
261.174	8.63
261.389	8.07
261.605	8.36
261.82	7.78
262.036	7
262.251	8.99
262.466	7.37
262.682	5.69
262.897	5.49
263.113	4.92
263.328	6.78
263.543	7.73
263.759	9.05
263.974	8.16
264.189	8.59
264.405	9.34
264.62	9.02
264.835	10.64
265.051	10.52
265.266	10.47
265.481	10.66
265.696	8.37
265.912	6.83
266.127	3.73
266.342	3.75
266.557	4.77
266.773	5.46
266.988	5.28
267.203	3.9
267.418	5.12
267.633	4.22
267.848	4.89
268.064	5.14
268.279	6.02
268.494	8.41
268.709	7.09
268.924	6.33
269.139	8.45
269.354	8.28
269.569	7.55
269.784	4.59
269.999	5.94
270.214	5.89
270.429	5.2
270.644	3.96
270.859	3.2
271.074	4.59
271.289	4.57
271.504	2.45
271.719	2.39
271.934	3.89
272.149	7.19
272.363	8.41
272.578	8.05
272.793	7.56
273.008	9.07
273.223	10.17
273.438	10.75
273.653	12.43
273.867	14.15
274.082	13.8
274.297	12.82
274.512	12.27
274.726	10.09
274.941	10.29
275.156	12.79
275.371	10.52
275.585	8.17
275.8	8.06
276.015	6.26
276.229	4.45
276.444	4.58
276.659	3.94
276.873	3.73
277.088	5.43
277.302	5.77
277.517	5.72
277.732	4.63
277.946	5.24
278.161	5.31
278.375	4.35
278.59	4.21
278.804	4.39
279.019	6.54
279.233	6.87
279.448	5.32
279.662	4.86
279.877	2.73
280.091	5.18
280.306	5.13
280.52	4.09
280.735	3.98
280.949	3.9
281.163	5.17
281.378	3.22
281.592	3.59
281.806	5.82
282.021	6.82
282.235	7.8
282.449	6.4
282.664	6.27
282.878	7.35
283.092	9.24
283.307	9.77
283.521	8.86
283.735	9.15
283.949	7.9
284.164	5.75
284.378	5.08
284.592	5.85
284.806	8.06
285.02	8.91
285.234	6.98
285.449	5.16
285.663	3.7
285.877	4.99
286.091	5.56
286.305	7.16
286.519	8.47
286.733	8.44
286.947	6.67
287.161	6.8
287.375	7.55
287.589	8.88
287.803	10.12
288.017	11.9
288.231	10.88
288.445	11.14
288.659	10.09
288.873	8.65
289.087	9.28
289.301	10.35
289.515	8.97
289.729	7.39
289.943	7.65
290.157	8.14
290.371	8.16
290.584	6.86
290.798	6.62
291.012	6.38
291.226	5.56
291.44	3.62
291.654	3.95
291.867	4.15
292.081	4.47
292.295	2.95
292.509	2.14
292.722	2.45
292.936	3.98
293.15	5.33
293.364	7.79
293.577	10.27
293.791	11.41
294.005	10.15
294.218	10.65
294.432	9.06
294.645	9.82
294.859	8.78
295.073	8.89
295.286	8.86
295.5	7.73
295.713	6.24
295.927	4.89
296.14	6.79
296.354	8.45
296.568	9.28
296.781	10.89
296.994	12.28
297.208	13.17
297.421	12.31
297.635	11.88
297.848	12.13
298.062	11.34
298.275	11.78
298.489	10.76
298.702	9.81
298.915	7.55
299.129	8.36
299.342	7.42
299.555	7.18
299.769	6.65
299.982	6.77
300.195	5.51
300.409	6.2
300.622	7.26
300.835	6.83
301.048	7.14
301.262	8.65
301.475	7.21
301.688	7.89
301.901	7.97
302.115	10.02
302.328	9.72
302.541	10.17
302.754	10.36
302.967	10.39
303.18	9.4
303.393	9.54
303.607	11.21
303.82	9.9
304.033	8.47
304.246	7.69
304.459	5.91
304.672	6.62
304.885	6.88
305.098	6.01
305.311	7.27
305.524	9.85
305.737	8.85
305.95	7.18
306.163	8.68
306.376	11.14
306.589	12.29
306.802	13.27
307.015	13.55
307.228	13.27
307.44	13.89
307.653	12.69
307.866	12.25
308.079	11.59
308.292	9.93
308.505	10.67
308.718	8.66
308.93	7.93
309.143	5.21
309.356	5.5
309.569	5.89
309.781	6.47
309.994	5.06
310.207	5.07
310.42	6.29
310.632	8.57
310.845	8.13
311.058	9.18
311.27	8.73
311.483	10.03
311.696	9.64
311.908	9.98
312.121	8.5
312.333	9.48
312.546	9.15
312.759	9.5
312.971	8.99
313.184	9
313.396	7.93
313.609	8.85
313.821	11.11
314.034	10.95
314.246	12.24
314.459	14.05
314.671	13.07
314.884	13.73
315.096	12.65
315.309	10.87
315.521	11.53
315.733	11.19
315.946	10.78
316.158	11.51
316.371	9.72
316.583	9.24
316.795	8.93
317.008	9.59
317.22	10.76
317.432	13.12
317.644	14.34
317.857	12.57
318.069	12.12
318.281	13.4
318.494	11.99
318.706	14.93
318.918	12.74
319.13	12.84
319.342	13.24
319.555	9.46
319.767	6.48
319.979	5.67
320.191	6.55
320.403	5.39
320.615	4.18
320.827	2.1
321.039	0.88
321.252	3.02
321.464	3.99
321.676	4.19
321.888	5.15
322.1	9.09
322.312	11.59
322.524	12.75
322.736	15.48
322.948	14.91
323.16	17.28
323.372	17.9
323.584	17.48
323.796	17.18
324.007	17.03
324.219	17.16
324.431	15.59
324.643	13.71
324.855	12.47
325.067	12.01
325.279	11.72
325.491	11.52
325.702	10.21
325.914	10.61
326.126	10.2
326.338	8.52
326.55	9.49
326.761	9.71
326.973	9.25
327.185	10.66
327.396	11.06
327.608	10.51
327.82	10.08
328.032	12.11
328.243	11.62
328.455	11.78
328.666	12.65
328.878	12.75
329.09	11.21
329.301	13.28
329.513	12.65
329.725	11.4
329.936	14.49
330.148	14.91
330.359	12.94
330.571	11.55
330.782	12.21
330.994	13.16
331.205	13.25
331.417	15.26
331.628	13.81
331.84	14.53
332.051	16.28
332.262	16.08
332.474	14.5
332.685	14.94
332.897	16.12
333.108	14.78
333.319	13.93
333.531	14.19
333.742	13
333.953	14.04
334.165	13.41
334.376	12.27
334.587	11.74
334.799	13.14
335.01	13.31
335.221	13.34
335.432	13.51
335.644	14.09
335.855	14.46
336.066	15.05
336.277	15.24
336.488	14.37
336.7	15.58
336.911	15.22
337.122	15.25
337.333	15.15
337.544	15.34
337.755	15.47
337.966	16.33
338.177	15.48
338.388	16.28
338.599	15.76
338.811	17.08
339.022	17.26
339.233	18.48
339.444	17.92
339.655	18.27
339.866	18.77
340.076	20.68
340.287	20.63
340.498	21.79
340.709	21.57
340.92	21.13
341.131	21.82
341.342	20.2
341.553	19.49
341.764	19.11
341.975	19.99
342.185	20.65
342.396	18.79
342.607	18.31
342.818	17.46
343.029	17.13
343.239	18.25
343.45	18.38
343.661	17.35
343.872	18.1
344.082	18.83
344.293	18.18
344.504	16.43
344.714	17.34
344.925	17.74
345.136	18.1
345.346	18.98
345.557	18.88
345.768	20.11
345.978	21.06
346.189	20.3
346.399	19.83
346.61	19.67
346.821	19.6
347.031	19.35
347.242	19.5
347.452	19.2
347.663	17.62
347.873	17.68
348.084	16.16
348.294	16.38
348.504	17.47
348.715	17.53
348.925	17.13
349.136	17.52
349.346	17.14
349.557	17.73
349.767	15.61
349.977	16.39
350.188	16.04
350.398	15.01
350.608	16
350.819	14.86
351.029	14.39
351.239	14.97
351.449	13.88
351.66	14.86
351.87	13.75
352.08	16.48
352.29	15.49
352.501	16.19
352.711	16.16
352.921	15.01
353.131	15.16
353.341	15.69
353.552	14.71
353.762	16.98
353.972	17.38
354.182	17.61
354.392	17.99
354.602	19.16
354.812	17.85
355.022	18.06
355.232	19.73
355.442	19.1
355.652	19.27
355.862	20.43
356.072	19.36
356.282	18.56
356.492	18.56
356.702	17.67
356.912	16.58
357.122	18.22
357.332	18.34
357.542	17.19
357.752	17.19
357.962	16.94
358.171	16.15
358.381	16.37
358.591	15.67
358.801	16.68
359.011	16.26
359.221	16.82
359.43	15.72
359.64	15.58
359.85	16.32
360.06	17.3
360.269	18.06
360.479	18.05
360.689	17.98
360.899	18.29
361.108	17.21
361.318	16.92
361.528	16.99
361.737	16.66
361.947	16.49
362.156	15.79
362.366	15.36
362.576	14.05
362.785	13.32
362.995	13.09
363.204	12.94
363.414	12.38
363.623	12.34
363.833	12.11
364.042	12.06
364.252	11.76
364.461	11.93
364.671	10.92
364.88	11.65
365.09	12.04
365.299	12.9
365.509	12.8
365.718	13
365.927	13.16
366.137	12.77
366.346	12.56
366.555	12.28
366.765	12.29
366.974	13.28
367.183	12.69
367.393	12.12
367.602	11.19
367.811	10.79
368.021	10.75
368.23	11.35
368.439	11.51
368.648	12.73
368.857	13.48
369.067	13.6
369.276	13.57
369.485	14.02
369.694	15.79
369.903	14.91
370.112	15.1
370.321	15.75
370.531	15.81
370.74	15.59
370.949	14.4
371.158	14.11
371.367	13.59
371.576	13.36
371.785	13.24
371.994	12.27
372.203	12.38
372.412	12.2
372.621	11.9
372.83	10.94
373.039	11.08
373.248	11.28
373.457	11.27
373.666	11.92
373.874	10.96
374.083	11.07
374.292	11.54
374.501	11.95
374.71	12.25
374.919	11.41
375.128	12.04
375.336	11.97
375.545	11.79
375.754	11.7
375.963	12.14
376.171	12.9
376.38	13.68
376.589	13.99
376.798	14.13
377.006	14.05
377.215	14.96
377.424	14.77
377.632	14.96
377.841	15.2
378.05	15.34
378.258	14.43
378.467	14.04
378.675	13.26
378.884	12.66
379.093	12.9
379.301	13.11
379.51	12.54
379.718	12.28
379.927	12.64
380.135	12.64
380.344	12.83
380.552	13.28
380.761	13.59
380.969	13.81
381.177	14.58
381.386	14.16
381.594	14.25
381.803	14.26
382.011	14.34
382.219	13.5
382.428	13.37
382.636	12.7
382.845	12.28
383.053	12.07
383.261	12.06
383.469	11.65
383.678	11.67
383.886	11.45
384.094	11.55
384.302	12.2
384.511	12.22
384.719	11.88
384.927	11.98
385.135	11.81
385.343	11.97
385.552	12.22
385.76	12.17
385.968	11.85
386.176	11.77
386.384	11.84
386.592	11.19
386.8	11.42
387.008	11.59
387.216	11.63
387.424	11.42
387.633	11.32
387.841	10.86
388.049	10.81
388.257	10.81
388.465	10.76
388.672	10.4
388.88	10.31
389.088	10.06
389.296	10.55
389.504	10.7
389.712	11.25
389.92	10.91
390.128	11.16
390.336	10.85
390.544	10.94
390.751	11.07
390.959	10.76
391.167	10.93
391.375	10.88
391.583	10.35
391.79	10.22
391.998	9.94
392.206	10.1
392.414	9.6
392.621	9.77
392.829	9.57
393.037	8.86
393.244	9.25
393.452	9.15
393.66	9.47
393.867	9.6
394.075	9.63
394.283	9.81
394.49	9.9
394.698	10.28
394.905	10.05
395.113	10.09
395.32	10.14
395.528	9.82
395.735	10.03
395.943	9.65
396.15	9.69
396.358	9.59
396.565	9.39
396.773	9.5
396.98	9.15
397.188	9.43
397.395	9.59
397.602	10.03
397.81	10.25
398.017	10.05
398.225	9.74
398.432	9.86
398.639	9.77
398.847	9.9
399.054	10.01
399.261	10.31
399.468	10.09
399.676	10.4
399.883	10.22
400.09	9.99
400.297	9.62
400.505	9.73
400.712	9.2
400.919	9.36
401.126	9.31
401.333	9.53
401.54	9.16
401.748	8.85
401.955	8.51
402.162	8.77
402.369	8.98
402.576	9.2
402.783	9.08
402.99	9.25
403.197	8.99
403.404	8.89
403.611	8.55
403.818	8.41
404.025	8.87
404.232	8.56
404.439	8.52
404.646	8.32
404.853	8.02
405.06	8.18
405.267	8.34
405.474	8.42
405.681	8.38
405.887	8.09
406.094	8.61
406.301	8.56
406.508	8.73
406.715	8.88
406.922	9.23
407.128	9.59
407.335	9.46
407.542	9.7
407.749	9.58
407.955	9.55
408.162	9.45
408.369	9
408.575	8.88
408.782	8.93
408.989	8.95
409.195	9.01
409.402	8.87
409.609	9.2
409.815	8.69
410.022	8.76
410.228	8.65
410.435	9.09
410.642	9.17
410.848	8.87
411.055	8.91
411.261	8.63
411.468	8.46
411.674	8.56
411.881	8.31
412.087	8.77
412.294	8.87
412.5	9.15
412.706	9.07
412.913	9.28
413.119	9.83
413.326	10.04
413.532	10.08
413.738	10.09
413.945	10.43
414.151	10.46
414.357	9.93
414.564	10.03
414.77	10.02
414.976	9.95
415.182	9.84
415.389	9.67
415.595	9.82
415.801	9.8
416.007	9.71
416.214	9.36
416.42	9.51
416.626	9.62
416.832	9.54
417.038	9.38
417.244	9.37
417.45	9.59
417.657	9.53
417.863	9.29
418.069	9.45
418.275	9.19
418.481	9.35
418.687	9.38
418.893	9.57
419.099	9.77
419.305	9.66
419.511	9.72
419.717	9.62
419.923	9.49
420.129	9.48
420.335	9.42
420.541	9.46
420.746	9.39
420.952	9.44
421.158	9.19
421.364	8.95
421.57	9.1
421.776	9.2
421.982	9.14
422.187	9.32
422.393	9.45
422.599	9.33
422.805	9.5
423.01	9.5
423.216	9.41
423.422	9.64
423.628	9.65
423.833	9.68
424.039	9.59
424.245	9.67
424.45	9.6
424.656	9.54
424.862	9.6
425.067	9.54
425.273	9.49
425.478	9.32
425.684	9.06
425.889	9.07
426.095	8.96
426.301	8.94
426.506	8.82
426.712	8.88
426.917	8.83
427.123	8.72
427.328	8.63
427.533	8.65
427.739	8.87
427.944	9.12
428.15	9.04
428.355	8.98
428.561	8.64
428.766	8.66
428.971	8.54
429.177	8.51
429.382	8.26
429.587	8.02
429.793	7.8
429.998	7.71
430.203	7.65
430.408	7.66
430.614	7.77
430.819	8.2
431.024	7.96
431.229	7.92
431.434	7.88
431.64	8.23
431.845	8.88
432.05	9.11
432.255	9.22
432.46	9.32
432.665	9.44
432.87	9.3
433.076	8.95
433.281	9.09
433.486	9.01
433.691	9.01
433.896	9.12
434.101	8.88
434.306	9
434.511	8.99
434.716	9.01
434.921	8.94
435.126	9.01
435.331	9.26
435.535	9.17
435.74	9.57
435.945	9.45
436.15	9.19
436.355	9.28
436.56	9.05
436.765	9.1
436.97	8.93
437.174	8.95
437.379	9.11
437.584	9.08
437.789	9.18
437.993	8.87
438.198	8.85
438.403	9.03
438.608	8.85
438.812	8.95
439.017	8.97
439.222	9.06
439.426	9.09
439.631	9.07
439.836	9.08
440.04	9.33
440.245	9.3
440.45	9.3
440.654	9.3
440.859	9.21
441.063	9.09
441.268	9.17
441.472	9.14
441.677	9.06
441.881	8.99
442.086	8.98
442.29	8.9
442.495	8.78
442.699	9
442.904	8.82
443.108	8.95
443.312	9.18
443.517	9.04
443.721	8.98
443.925	8.9
444.13	8.95
444.334	8.97
444.538	8.87
444.743	8.96
444.947	8.9
445.151	9.06
445.356	9.1
445.56	9
445.764	8.97
445.968	8.9
446.173	9.03
446.377	9.1
446.581	9.07
446.785	9.01
446.989	9.1
447.193	9.18
447.398	9.19
447.602	9.29
447.806	9.37
448.01	9.31
448.214	9.27
448.418	9.26
448.622	9.21
448.826	9.19
449.03	9.19
449.234	9.12
449.438	8.88
449.642	8.88
449.846	8.79
450.05	8.58
450.254	8.7
450.458	8.75
450.662	8.96
450.866	9.01
451.069	8.92
451.273	9.13
451.477	9.04
451.681	9.19
451.885	9.14
452.089	9.18
452.292	9.29
452.496	9.31
452.7	9.31
452.904	9.03
453.107	8.97
453.311	9.17
453.515	8.86
453.719	9.15
453.922	8.91
454.126	8.86
454.33	8.72
454.533	8.3
454.737	8.36
454.94	8.47
455.144	8.45
455.348	8.29
455.551	8.15
455.755	8.29
455.958	8.01
456.162	8.25
456.365	8.05
456.569	8.16
456.772	8.34
456.976	8.05
457.179	8
457.383	8.28
457.586	8.26
457.79	8.22
457.993	8.26
458.196	8.34
458.4	8.39
458.603	8.56
458.807	8.42
459.01	8.54
459.213	8.78
459.417	8.62
459.62	8.54
459.823	8.65
460.026	8.57
460.23	8.46
460.433	8.51
460.636	8.41
460.839	8.27
461.042	8.34
461.246	8.31
461.449	8.14
461.652	8.3
461.855	8.22
462.058	7.99
462.261	7.96
462.464	8.08
462.668	7.85
462.871	8
463.074	8.1
463.277	7.96
463.48	7.93
463.683	7.92
463.886	8.02
