Data from LC_192_Reflection_2.txt Node
Date: Tue Nov 17 13:36:34 EST 2015
User: robert
Spectrometer: USB4E03001
Autoset integration time: false
Trigger mode: 4
Integration Time (sec): 1.000000E-1
Scans to average: 15
Electric dark correction enabled: true
Nonlinearity correction enabled: false
Boxcar width: 5
Stray light correction enabled: false
XAxis mode: Wavelengths
Stop averaging: false
Number of Pixels in Spectrum: 3648
>>>>>Begin Spectral Data<<<<<
177.566	121.34
177.785	170.85
178.005	-808.58
178.225	181.21
178.445	-213.67
178.665	-41.07
178.885	-84.65
179.105	-93.31
179.324	419.95
179.544	661.19
179.764	243.09
179.984	140.69
180.204	189.63
180.423	400.86
180.643	532.19
180.863	-2188.89
181.083	-3226.53
181.302	684.27
181.522	348.96
181.742	1021.13
181.961	11520.59
182.181	-628.76
182.401	-115.3
182.621	-319.36
182.84	-329.6
183.06	-964.19
183.279	1074.24
183.499	-5931.09
183.719	-706.34
183.938	-263.99
184.158	-440.57
184.377	-535.97
184.597	-448.15
184.816	424.3
185.036	433.67
185.256	542.49
185.475	343.5
185.695	497.65
185.914	376.29
186.134	383.1
186.353	241.64
186.572	258.69
186.792	226.78
187.011	235.42
187.231	948.86
187.45	3263.96
187.67	567.02
187.889	629.95
188.108	404.41
188.328	395.43
188.547	391.8
188.766	-1855.12
188.986	1679.17
189.205	488.93
189.424	580.72
189.644	438.19
189.863	315.58
190.082	345.54
190.302	374.74
190.521	512.49
190.74	11674.03
190.959	1637.29
191.178	392.39
191.398	335.57
191.617	995.49
191.836	667.38
192.055	462.63
192.274	-1205.23
192.494	-627.67
192.713	-1781.24
192.932	-712.56
193.151	1231.87
193.37	19498.41
193.589	-746800
193.808	21777.53
194.027	-2822.71
194.246	-1297.33
194.465	5199.72
194.685	568.09
194.904	405.84
195.123	72470.83
195.342	1782.08
195.561	522.54
195.78	416.19
195.999	535.49
196.218	328.79
196.436	294.01
196.655	201.23
196.874	215.32
197.093	244.6
197.312	206.3
197.531	188.52
197.75	175.07
197.969	204.51
198.188	188.43
198.407	158.92
198.625	177.5
198.844	157.03
199.063	142.43
199.282	146.27
199.501	123.98
199.719	192.38
199.938	160.35
200.157	246.8
200.376	688.22
200.594	408.67
200.813	300.52
201.032	450.77
201.251	486.3
201.469	6962.54
201.688	2311.56
201.907	-10008.47
202.125	2855.92
202.344	2644.43
202.563	2499.65
202.781	1806.57
203	-2147.68
203.218	-405.24
203.437	-606.83
203.656	-336.68
203.874	-851.61
204.093	-1224.04
204.311	-1172.4
204.53	24425
204.748	-1039.01
204.967	3842.38
205.185	670.14
205.404	325.63
205.622	290.55
205.841	209.68
206.059	267.76
206.278	194.13
206.496	170.65
206.715	177.26
206.933	208.92
207.151	195.26
207.37	178.21
207.588	201.83
207.806	238.36
208.025	232.45
208.243	229.29
208.461	261.62
208.68	361.45
208.898	-561.68
209.116	-985.33
209.335	1902.18
209.553	-1190.38
209.771	475.13
209.989	187.33
210.208	221.1
210.426	177.26
210.644	195.37
210.862	140.63
211.081	126.35
211.299	85.07
211.517	113.62
211.735	128.15
211.953	128.35
212.171	156.47
212.39	382.05
212.608	406.28
212.826	607.7
213.044	581.9
213.262	563.39
213.48	-24019.4
213.698	-1332.52
213.916	540.07
214.134	-882.39
214.352	-205.32
214.57	-237.97
214.788	2745.64
215.006	874.17
215.224	775.66
215.442	674.97
215.66	749
215.878	517.07
216.096	210.99
216.314	258.26
216.532	186.63
216.75	160.35
216.968	182.2
217.185	183.74
217.403	191.53
217.621	187.3
217.839	190.35
218.057	201.67
218.275	211.82
218.492	237.69
218.71	246.7
218.928	285.7
219.146	289.86
219.363	288.34
219.581	234.65
219.799	257.01
220.017	255.85
220.234	238.77
220.452	165.36
220.67	136.37
220.887	153.53
221.105	171.19
221.323	144.22
221.54	158.39
221.758	151.82
221.976	149.07
222.193	120.93
222.411	121.34
222.629	123.31
222.846	157.1
223.064	150.84
223.281	162.37
223.499	160.64
223.716	173.7
223.934	154.86
224.151	150.17
224.369	151.58
224.586	182.85
224.804	157.9
225.021	172.13
225.239	152.23
225.456	149.19
225.674	128.6
225.891	117.45
226.108	119.05
226.326	116.87
226.543	104.48
226.76	97.09
226.978	79.09
227.195	75.12
227.413	55.02
227.63	52.25
227.847	51
228.064	52.47
228.282	46.56
228.499	47.04
228.716	43.8
228.934	43.42
229.151	44.34
229.368	41.95
229.585	40.06
229.802	41.48
230.02	42.46
230.237	41.91
230.454	40.68
230.671	45.03
230.888	40.83
231.105	42.38
231.323	38.69
231.54	35.61
231.757	37.98
231.974	40.41
232.191	39.31
232.408	38.01
232.625	37.6
232.842	37.58
233.059	33.15
233.276	40.74
233.493	40.91
233.71	44.13
233.927	46.53
234.144	44.33
234.361	44.87
234.578	47.74
234.795	47.28
235.012	48.35
235.229	48.64
235.446	45.73
235.663	42.83
235.879	38.21
236.096	40.12
236.313	38.82
236.53	41.94
236.747	44.28
236.964	43.29
237.181	45.48
237.397	43.69
237.614	42
237.831	50.04
238.048	48
238.264	48.92
238.481	45.76
238.698	40.93
238.915	40.46
239.131	39.97
239.348	39.54
239.565	37.51
239.781	37.88
239.998	39.66
240.215	36.82
240.431	31.44
240.648	28.31
240.865	29.94
241.081	30.98
241.298	30.35
241.514	28.81
241.731	25.97
241.947	23.82
242.164	21.79
242.38	18.56
242.597	17.55
242.814	20.74
243.03	21.71
243.246	22.37
243.463	21.3
243.679	20.34
243.896	19.41
244.112	19.69
244.329	21.42
244.545	23.33
244.762	24.85
244.978	23.89
245.194	22.36
245.411	21.43
245.627	22.75
245.843	22.55
246.06	21.62
246.276	20.21
246.492	19.32
246.709	18.81
246.925	19.05
247.141	19
247.357	18.66
247.574	18.59
247.79	18.13
248.006	16.17
248.222	17
248.439	16.75
248.655	16.24
248.871	16.76
249.087	16.78
249.303	15.6
249.519	15.92
249.736	17.05
249.952	16.3
250.168	19.92
250.384	20.28
250.6	18.07
250.816	18.28
251.032	19.42
251.248	18.92
251.464	17.18
251.68	19.43
251.896	19.23
252.112	15.88
252.328	18.2
252.544	16.21
252.76	15.69
252.976	15.62
253.192	16.14
253.408	18.77
253.624	20.08
253.84	21.41
254.056	20.21
254.272	19.54
254.487	24.18
254.703	22.59
254.919	22.68
255.135	25.16
255.351	26.8
255.567	25.91
255.782	19.8
255.998	18.86
256.214	19.88
256.43	17.38
256.646	21.27
256.861	19.14
257.077	20.11
257.293	19.93
257.508	20.89
257.724	21.05
257.94	20.9
258.155	21.85
258.371	21.58
258.587	19.19
258.802	18.97
259.018	15.56
259.234	14.46
259.449	13.51
259.665	13.13
259.88	12.19
260.096	11.66
260.312	11.47
260.527	11.48
260.743	11.5
260.958	11.64
261.174	12.43
261.389	12.61
261.605	14.16
261.82	14.5
262.036	14.91
262.251	14.86
262.466	14.41
262.682	15.76
262.897	15.73
263.113	13.95
263.328	15.03
263.543	13.53
263.759	15.79
263.974	13.56
264.189	15.23
264.405	16.73
264.62	20.89
264.835	21.92
265.051	20.81
265.266	22.27
265.481	24.78
265.696	25.67
265.912	26.98
266.127	24.86
266.342	24.33
266.557	20.81
266.773	19.32
266.988	17.32
267.203	18.54
267.418	19.94
267.633	18.95
267.848	16.9
268.064	14.26
268.279	12.9
268.494	12.78
268.709	13.46
268.924	15.06
269.139	14.1
269.354	14.85
269.569	15.24
269.784	13.67
269.999	14.91
270.214	16.13
270.429	18.01
270.644	17.94
270.859	17.72
271.074	17.77
271.289	17.34
271.504	18.13
271.719	17.16
271.934	15.63
272.149	15.22
272.363	15.11
272.578	15.42
272.793	15.08
273.008	15.8
273.223	16.48
273.438	15.46
273.653	15.71
273.867	15.45
274.082	15.53
274.297	15.9
274.512	17.33
274.726	16.08
274.941	15.14
275.156	15.1
275.371	13.93
275.585	15.03
275.8	16.16
276.015	16.79
276.229	16.28
276.444	15.44
276.659	15.32
276.873	13.52
277.088	14.37
277.302	14.6
277.517	13.52
277.732	13.15
277.946	11.49
278.161	13.47
278.375	13.44
278.59	13.37
278.804	13.35
279.019	13.88
279.233	14.27
279.448	13.82
279.662	14.3
279.877	14.94
280.091	15.36
280.306	15.3
280.52	13.18
280.735	13.02
280.949	12.63
281.163	13.18
281.378	13.33
281.592	13.53
281.806	12.7
282.021	13.19
282.235	13.04
282.449	14.21
282.664	14.85
282.878	15.93
283.092	15.1
283.307	16.61
283.521	16.84
283.735	15.81
283.949	14.49
284.164	15.59
284.378	14.57
284.592	14.58
284.806	13.53
285.02	12.01
285.234	10.24
285.449	10.37
285.663	9.89
285.877	10.51
286.091	10.93
286.305	12.01
286.519	10.83
286.733	10.96
286.947	10.67
287.161	10.46
287.375	11.27
287.589	12.99
287.803	12.47
288.017	12.06
288.231	11.45
288.445	11.4
288.659	11.26
288.873	11.66
289.087	12.74
289.301	13.47
289.515	13.72
289.729	14.7
289.943	13.87
290.157	14.45
290.371	14.34
290.584	14.27
290.798	14.37
291.012	15.29
291.226	16.96
291.44	17.1
291.654	17.69
291.867	17.64
292.081	15.49
292.295	16.14
292.509	15.58
292.722	16.12
292.936	16.17
293.15	16.42
293.364	16.11
293.577	15.02
293.791	14.98
294.005	15.03
294.218	14.97
294.432	16.88
294.645	16.75
294.859	17.05
295.073	16.41
295.286	16.14
295.5	15.94
295.713	15.76
295.927	15.59
296.14	14.42
296.354	13.28
296.568	13.67
296.781	13.83
296.994	13.7
297.208	13.75
297.421	14.35
297.635	14.45
297.848	13.57
298.062	13.27
298.275	12.94
298.489	13.01
298.702	13.97
298.915	13.43
299.129	13.47
299.342	13.45
299.555	13.47
299.769	13.74
299.982	14.34
300.195	15.32
300.409	15.06
300.622	15.39
300.835	15.87
301.048	14.96
301.262	15.75
301.475	15.87
301.688	16.28
301.901	16.1
302.115	16.7
302.328	16.19
302.541	16.88
302.754	16.43
302.967	16.89
303.18	16.42
303.393	16.42
303.607	16.08
303.82	15.51
304.033	13.73
304.246	13.73
304.459	13.21
304.672	13.83
304.885	12.7
305.098	14
305.311	14.33
305.524	14.52
305.737	15.24
305.95	16.78
306.163	15.52
306.376	16.85
306.589	17.2
306.802	15.92
307.015	14.99
307.228	16.53
307.44	15.88
307.653	15.81
307.866	15.61
308.079	14.56
308.292	13.41
308.505	14.31
308.718	14.67
308.93	14.8
309.143	14.95
309.356	14.23
309.569	13.69
309.781	15.14
309.994	13.37
310.207	13.58
310.42	13.17
310.632	12.64
310.845	12.53
311.058	11.33
311.27	10.61
311.483	11.23
311.696	11.74
311.908	11.48
312.121	10
312.333	11.52
312.546	11.75
312.759	12.29
312.971	12.42
313.184	13.25
313.396	13.9
313.609	15.13
313.821	15.59
314.034	16.54
314.246	17.12
314.459	18.56
314.671	17.9
314.884	17.24
315.096	17.51
315.309	18.09
315.521	17.95
315.733	18.08
315.946	16.73
316.158	16.85
316.371	15.3
316.583	14.36
316.795	14.02
317.008	14.89
317.22	14.38
317.432	15.4
317.644	14.73
317.857	13.81
318.069	14.47
318.281	14.37
318.494	13.07
318.706	13.8
318.918	14.08
319.13	14.51
319.342	13.82
319.555	14.58
319.767	14.01
319.979	14.43
320.191	15.21
320.403	15.45
320.615	15.75
320.827	16.3
321.039	17.26
321.252	17.11
321.464	16.2
321.676	16.69
321.888	17.15
322.1	17.33
322.312	17.23
322.524	16.57
322.736	15.86
322.948	16.7
323.16	16.07
323.372	15.42
323.584	16.43
323.796	17.52
324.007	17.53
324.219	18.14
324.431	18.69
324.643	18.57
324.855	19.04
325.067	19.96
325.279	19.39
325.491	20.48
325.702	20.42
325.914	19.76
326.126	19.18
326.338	19.51
326.55	17.97
326.761	17.53
326.973	18.23
327.185	18.33
327.396	17.35
327.608	17.91
327.82	16.91
328.032	16.97
328.243	15.75
328.455	15.33
328.666	15.16
328.878	15.7
329.09	15.26
329.301	14.06
329.513	14.59
329.725	15.12
329.936	14.6
330.148	15.96
330.359	16.16
330.571	17.41
330.782	17.84
330.994	17.52
331.205	17.39
331.417	17.57
331.628	19.07
331.84	19.5
332.051	19.2
332.262	19.26
332.474	18.79
332.685	18.78
332.897	18.87
333.108	19.01
333.319	18.79
333.531	18.92
333.742	18.29
333.953	16.7
334.165	15.52
334.376	15.85
334.587	15.72
334.799	15.16
335.01	15.33
335.221	14.8
335.432	13.72
335.644	13.28
335.855	13.43
336.066	13.88
336.277	13.85
336.488	14.65
336.7	14.39
336.911	14.04
337.122	14.16
337.333	14.57
337.544	15.35
337.755	15.37
337.966	15.52
338.177	14.94
338.388	14.33
338.599	15.4
338.811	14.22
339.022	13.93
339.233	13.53
339.444	12.73
339.655	12.1
339.866	12.64
340.076	11.77
340.287	12.23
340.498	12.7
340.709	13.79
340.92	13.38
341.131	12.88
341.342	13.08
341.553	14.53
341.764	15.81
341.975	15.3
342.185	14.21
342.396	14.87
342.607	14.98
342.818	15.53
343.029	14.63
343.239	14.06
343.45	14.07
343.661	14.27
343.872	14.09
344.082	14.16
344.293	14.59
344.504	16.04
344.714	16.19
344.925	15.99
345.136	15.16
345.346	15.76
345.557	15.83
345.768	17.39
345.978	16.85
346.189	16.25
346.399	15.45
346.61	15.34
346.821	14.14
347.031	14.22
347.242	13.68
347.452	14.03
347.663	13.8
347.873	13.99
348.084	13.17
348.294	13.5
348.504	13.23
348.715	13.55
348.925	12.76
349.136	12.35
349.346	12.26
349.557	12.53
349.767	12.23
349.977	11.25
350.188	11.82
350.398	12.03
350.608	12.09
350.819	11.73
351.029	11.07
351.239	12.28
351.449	12.52
351.66	12.26
351.87	11.88
352.08	12.09
352.29	12.9
352.501	12.12
352.711	12.2
352.921	12.63
353.131	13.71
353.341	14.28
353.552	12.99
353.762	13.02
353.972	13.09
354.182	14.47
354.392	14.9
354.602	14.99
354.812	15.46
355.022	15.5
355.232	14.55
355.442	14.5
355.652	14.35
355.862	15.33
356.072	15.35
356.282	15.53
356.492	14.28
356.702	13.55
356.912	13.83
357.122	13.39
357.332	12.51
357.542	12.66
357.752	12.15
357.962	12.19
358.171	11.83
358.381	12.1
358.591	11.65
358.801	12
359.011	12.2
359.221	11.97
359.43	12.26
359.64	12.23
359.85	12.06
360.06	11.79
360.269	11.23
360.479	10.72
360.689	10.3
360.899	10.45
361.108	10.2
361.318	10.32
361.528	9.76
361.737	9.6
361.947	9.65
362.156	9.67
362.366	10.15
362.576	10.33
362.785	10.68
362.995	10.57
363.204	10.49
363.414	10.47
363.623	10.07
363.833	10.42
364.042	10.19
364.252	9.87
364.461	9.99
364.671	9.92
364.88	9.34
365.09	9.49
365.299	9.59
365.509	9.51
365.718	10.07
365.927	10.45
366.137	10.67
366.346	11.28
366.555	11.7
366.765	11.56
366.974	11.29
367.183	12.09
367.393	11.97
367.602	12.03
367.811	12.36
368.021	11.97
368.23	12.16
368.439	11.94
368.648	11.58
368.857	11.7
369.067	11.97
369.276	12.31
369.485	12.27
369.694	12.15
369.903	12.6
370.112	12.58
370.321	12.71
370.531	11.57
370.74	11.07
370.949	10.36
371.158	10.11
371.367	9.81
371.576	9.7
371.785	9.15
371.994	9.11
372.203	8.44
372.412	8.43
372.621	8.01
372.83	8.38
373.039	8.72
373.248	9.14
373.457	9.31
373.666	9.82
373.874	9.41
374.083	9.69
374.292	9.75
374.501	9.98
374.71	9.77
374.919	9.91
375.128	10.03
375.336	10
375.545	10.43
375.754	10.05
375.963	9.57
376.171	9.74
376.38	10.18
376.589	10.18
376.798	9.7
377.006	9.61
377.215	9.7
377.424	9.8
377.632	9.58
377.841	9.17
378.05	9.52
378.258	9.63
378.467	9.61
378.675	8.99
378.884	9.12
379.093	9.34
379.301	9.63
379.51	9.7
379.718	9.61
379.927	9.84
380.135	9.84
380.344	9.99
380.552	10
380.761	10.16
380.969	10.41
381.177	10.33
381.386	9.73
381.594	9.36
381.803	8.88
382.011	8.97
382.219	8.95
382.428	8.99
382.636	9.11
382.845	8.54
383.053	8.19
383.261	7.94
383.469	8.04
383.678	9.15
383.886	8.67
384.094	8.93
384.302	8.72
384.511	8.53
384.719	8.55
384.927	8.17
385.135	8.96
385.343	9.66
385.552	9.87
385.76	9.76
385.968	9.18
386.176	9.88
386.384	9.65
386.592	9.58
386.8	10.1
387.008	9.91
387.216	9.76
387.424	9.34
387.633	8.55
387.841	8.46
388.049	8.53
388.257	8.78
388.465	8.74
388.672	8.96
388.88	9.33
389.088	8.89
389.296	8.76
389.504	9.23
389.712	9.6
389.92	9.75
390.128	9.86
390.336	9.35
390.544	9.16
390.751	9
390.959	9.1
391.167	8.86
391.375	8.86
391.583	8.98
391.79	8.48
391.998	8.2
392.206	8.37
392.414	8.05
392.621	8.52
392.829	8.43
393.037	8.35
393.244	8.21
393.452	8.21
393.66	8.06
393.867	8.33
394.075	8.41
394.283	8.4
394.49	8
394.698	8.39
394.905	8.1
395.113	8.26
395.32	8.38
395.528	8.43
395.735	8.42
395.943	8.45
396.15	8.25
396.358	8.42
396.565	7.91
396.773	8.09
396.98	8.03
397.188	8.15
397.395	8.01
397.602	8.22
397.81	8.28
398.017	8.47
398.225	8.77
398.432	8.87
398.639	8.66
398.847	9.23
399.054	9.01
399.261	9.08
399.468	8.91
399.676	9.23
399.883	9.18
400.09	8.94
400.297	8.75
400.505	8.36
400.712	8.32
400.919	8.6
401.126	8.43
401.333	8.99
401.54	8.77
401.748	8.91
401.955	8.66
402.162	8.73
402.369	8.8
402.576	8.71
402.783	8.61
402.99	8.58
403.197	8.3
403.404	8.44
403.611	8.32
403.818	8.23
404.025	7.93
404.232	7.73
404.439	7.39
404.646	7.52
404.853	7.65
405.06	8.08
405.267	8.15
405.474	7.98
405.681	7.83
405.887	7.88
406.094	8.1
406.301	8.35
406.508	8.39
406.715	8.51
406.922	8.21
407.128	8.23
407.335	7.89
407.542	7.83
407.749	8.23
407.955	8.44
408.162	8.33
408.369	8.46
408.575	8.56
408.782	8.54
408.989	8.54
409.195	8.95
409.402	9.01
409.609	8.88
409.815	8.54
410.022	8.43
410.228	8.02
410.435	7.84
410.642	7.43
410.848	7.36
411.055	7.56
411.261	7.6
411.468	7.7
411.674	7.39
411.881	7.57
412.087	7.91
412.294	7.83
412.5	8.12
412.706	8.16
412.913	8.1
413.119	8.08
413.326	7.81
413.532	7.59
413.738	7.1
413.945	6.86
414.151	6.8
414.357	6.79
414.564	6.88
414.77	6.78
414.976	7.01
415.182	7.14
415.389	7.15
415.595	7.19
415.801	7.28
416.007	7.35
416.214	7.63
416.42	7.67
416.626	7.45
416.832	7.35
417.038	7.27
417.244	7.06
417.45	7.14
417.657	6.92
417.863	7.02
418.069	6.95
418.275	6.77
418.481	6.84
418.687	6.73
418.893	6.86
419.099	6.78
419.305	6.87
419.511	6.9
419.717	6.76
419.923	6.76
420.129	6.5
420.335	6.52
420.541	6.43
420.746	6.26
420.952	6.27
421.158	6.18
421.364	6.16
421.57	6.23
421.776	6.11
421.982	6.19
422.187	6.19
422.393	6.33
422.599	6.4
422.805	6.52
423.01	6.67
423.216	6.7
423.422	6.8
423.628	6.83
423.833	6.64
424.039	6.42
424.245	6.38
424.45	6.38
424.656	6.39
424.862	6.31
425.067	6.27
425.273	6.27
425.478	6.25
425.684	6
425.889	6.12
426.095	6.19
426.301	6.58
426.506	6.62
426.712	6.63
426.917	6.58
427.123	6.62
427.328	6.83
427.533	6.69
427.739	6.73
427.944	6.81
428.15	6.52
428.355	6.63
428.561	6.62
428.766	6.44
428.971	6.46
429.177	6.67
429.382	6.7
429.587	6.69
429.793	6.81
429.998	6.7
430.203	6.96
430.408	7.12
430.614	6.91
430.819	6.73
431.024	6.58
431.229	6.5
431.434	6.5
431.64	6.43
431.845	6.51
432.05	6.49
432.255	6.56
432.46	6.59
432.665	6.62
432.87	6.67
433.076	6.68
433.281	6.9
433.486	7
433.691	6.91
433.896	6.95
434.101	6.69
434.306	6.77
434.511	6.92
434.716	6.8
434.921	6.75
435.126	6.95
435.331	7.01
435.535	7.03
435.74	7.02
435.945	7.15
436.15	7.06
436.355	7.16
436.56	6.98
436.765	7.13
436.97	7.13
437.174	6.98
437.379	6.91
437.584	7.09
437.789	7.04
437.993	7.05
438.198	6.91
438.403	6.96
438.608	6.94
438.812	6.82
439.017	6.43
439.222	6.45
439.426	6.46
439.631	6.35
439.836	6.19
440.04	6.13
440.245	6.16
440.45	6.13
440.654	6.13
440.859	6.04
441.063	6.18
441.268	6.35
441.472	6.4
441.677	6.56
441.881	6.64
442.086	6.76
442.29	6.76
442.495	6.84
442.699	6.9
442.904	6.9
443.108	6.88
443.312	6.85
443.517	6.77
443.721	6.66
443.925	6.59
444.13	6.4
444.334	6.21
444.538	6.28
444.743	6.11
444.947	5.97
445.151	5.93
445.356	6
445.56	6.12
445.764	6.22
445.968	6.25
446.173	6.2
446.377	6.21
446.581	6.26
446.785	6.27
446.989	6.24
447.193	6.39
447.398	6.53
447.602	6.54
447.806	6.56
448.01	6.52
448.214	6.47
448.418	6.51
448.622	6.63
448.826	6.66
449.03	6.58
449.234	6.72
449.438	6.49
449.642	6.5
449.846	6.51
450.05	6.4
450.254	6.26
450.458	6.18
450.662	6.13
450.866	6.03
451.069	5.97
451.273	5.9
451.477	5.86
451.681	5.98
451.885	5.86
452.089	5.77
452.292	5.65
452.496	5.74
452.7	5.78
452.904	5.89
453.107	6.01
453.311	6.09
453.515	6.15
453.719	6.03
453.922	6.05
454.126	5.99
454.33	6.11
454.533	6.17
454.737	6.2
454.94	6.04
455.144	6
455.348	5.99
455.551	5.83
455.755	6.15
455.958	6.17
456.162	6.06
456.365	6.02
456.569	5.91
456.772	6.06
456.976	6.01
457.179	6.31
457.383	6.12
457.586	6.17
457.79	6.22
457.993	6.22
458.196	6.23
458.4	6.39
458.603	6.47
458.807	6.46
459.01	6.43
459.213	6.37
459.417	6.3
459.62	6.48
