Data from LC_194_Reflection_1.txt Node
Date: Tue Nov 17 13:43:29 EST 2015
User: robert
Spectrometer: USB4E03001
Autoset integration time: false
Trigger mode: 4
Integration Time (sec): 1.000000E-1
Scans to average: 15
Electric dark correction enabled: true
Nonlinearity correction enabled: false
Boxcar width: 5
Stray light correction enabled: false
XAxis mode: Wavelengths
Stop averaging: false
Number of Pixels in Spectrum: 3648
>>>>>Begin Spectral Data<<<<<
177.566	209
177.785	289.29
178.005	-1280.97
178.225	461.03
178.445	-619.76
178.665	-229.07
178.885	-107.67
179.105	-364.37
179.324	750.67
179.544	990.8
179.764	275.18
179.984	121.16
180.204	201.35
180.423	412.45
180.643	680.44
180.863	-2387.74
181.083	-3683.67
181.302	731.35
181.522	381.91
181.742	1297.7
181.961	15902.94
182.181	-1030.55
182.401	-248.11
182.621	-551.36
182.84	-663.27
183.06	-1871.25
183.279	2536.91
183.499	-15652.1
183.719	-1731.64
183.938	-514.47
184.158	-728.93
184.377	-963.69
184.597	-841.9
184.816	820.08
185.036	792.44
185.256	830.82
185.475	506.39
185.695	690.94
185.914	450.48
186.134	454.01
186.353	288.58
186.572	357.65
186.792	285.68
187.011	286.71
187.231	902.22
187.45	3562.18
187.67	672.8
187.889	836.84
188.108	547.15
188.328	588.52
188.547	599.01
188.766	-2880.56
188.986	2207.34
189.205	624.72
189.424	728.52
189.644	525.1
189.863	340.84
190.082	354.64
190.302	376.76
190.521	502.91
190.74	10051.95
190.959	1410.27
191.178	388.74
191.398	411.07
191.617	1301.44
191.836	806.64
192.055	550.54
192.274	-1684.72
192.494	-872.53
192.713	-2780.15
192.932	-1329.94
193.151	2419.12
193.37	36126.98
193.589	-1269950
193.808	30889.89
194.027	-4306.17
194.246	-2078.76
194.465	8513.81
194.685	917.3
194.904	699.66
195.123	110216.67
195.342	2572.16
195.561	765.26
195.78	601.55
195.999	683.16
196.218	445.57
196.436	351.98
196.655	242.5
196.874	288
197.093	293.18
197.312	244.18
197.531	211.61
197.75	202.47
197.969	222.2
198.188	233.94
198.407	224.98
198.625	246.44
198.844	242.23
199.063	220.52
199.282	242.76
199.501	234.4
199.719	348.27
199.938	332.29
200.157	404.3
200.376	1266.39
200.594	594.8
200.813	389.14
201.032	611.03
201.251	557.12
201.469	8125.08
201.688	2593.61
201.907	-11737.29
202.125	3693.66
202.344	3231.33
202.563	2791.14
202.781	1949.77
203	-2312.61
203.218	-510.6
203.437	-671.25
203.656	-512.29
203.874	-1216.72
204.093	-1518.43
204.311	-1420.38
204.53	26851.32
204.748	-1258.01
204.967	4880.79
205.185	860.27
205.404	425.11
205.622	400.09
205.841	329.32
206.059	385.26
206.278	262.16
206.496	266.12
206.715	246.85
206.933	294.24
207.151	276.15
207.37	278.21
207.588	339.69
207.806	448.23
208.025	365.51
208.243	355.89
208.461	354.7
208.68	643.23
208.898	-1005.63
209.116	-1755.78
209.335	3338.22
209.553	-2083.46
209.771	909.15
209.989	316.77
210.208	376.86
210.426	412.18
210.644	388.67
210.862	324.05
211.081	235.31
211.299	163.73
211.517	209.39
211.735	227.73
211.953	221.19
212.171	260.09
212.39	722.78
212.608	716.47
212.826	921.2
213.044	891.96
213.262	794.34
213.48	-32476.12
213.698	-1609.48
213.916	701.36
214.134	-1297.75
214.352	-335.98
214.57	-342.42
214.788	3601
215.006	1173.38
215.224	1159.1
215.442	843.29
215.66	966.61
215.878	650.12
216.096	324.73
216.314	369.19
216.532	223.16
216.75	185.28
216.968	217.24
217.185	222.39
217.403	251.54
217.621	233.52
217.839	253.75
218.057	283.9
218.275	276
218.492	300.52
218.71	308.49
218.928	361.46
219.146	391.9
219.363	420.66
219.581	327.12
219.799	324.2
220.017	354.07
220.234	350.68
220.452	252.02
220.67	237.13
220.887	258.83
221.105	264.57
221.323	246.02
221.54	218.61
221.758	174.8
221.976	177.36
222.193	146.15
222.411	139.8
222.629	166.36
222.846	187.99
223.064	186.64
223.281	191.28
223.499	189.17
223.716	196.88
223.934	221.12
224.151	233.73
224.369	222.21
224.586	249.09
224.804	219.97
225.021	193.47
225.239	171.48
225.456	163.19
225.674	138.12
225.891	129.73
226.108	134.18
226.326	121.24
226.543	114.46
226.76	111.26
226.978	100.45
227.195	97.98
227.413	88.48
227.63	82.95
227.847	81.87
228.064	79.1
228.282	72.45
228.499	68.99
228.716	63.08
228.934	60.55
229.151	57.19
229.368	53.33
229.585	49.9
229.802	50.65
230.02	51.05
230.237	50.65
230.454	50.15
230.671	54.34
230.888	54.97
231.105	56.1
231.323	56.04
231.54	58.98
231.757	65.79
231.974	71.29
232.191	70.89
232.408	76.96
232.625	75.22
232.842	75.4
233.059	67.93
233.276	67.44
233.493	69.04
233.71	67.82
233.927	66.12
234.144	64.33
234.361	62.11
234.578	61.94
234.795	49.89
235.012	51.07
235.229	48.89
235.446	50.79
235.663	49.37
235.879	52.66
236.096	55.33
236.313	54.51
236.53	51.55
236.747	53.03
236.964	48.72
237.181	61.76
237.397	61.15
237.614	65.57
237.831	71.65
238.048	73.11
238.264	74.95
238.481	70.48
238.698	65.16
238.915	66.26
239.131	64.99
239.348	67.28
239.565	58.41
239.781	61.14
239.998	59.77
240.215	54.75
240.431	50.47
240.648	43.77
240.865	42.51
241.081	42.65
241.298	38.63
241.514	35.39
241.731	34.1
241.947	32.74
242.164	28.74
242.38	26.3
242.597	25.62
242.814	26.29
243.03	26.89
243.246	27.53
243.463	28.3
243.679	30.13
243.896	32.08
244.112	30.6
244.329	32.88
244.545	34.39
244.762	35.01
244.978	34.61
245.194	34.34
245.411	34.29
245.627	33.96
245.843	31.28
246.06	26.82
246.276	23.54
246.492	20.93
246.709	19.19
246.925	19.23
247.141	20.19
247.357	20.26
247.574	19.99
247.79	19.75
248.006	19.15
248.222	19.66
248.439	20.35
248.655	20.01
248.871	21.6
249.087	22.7
249.303	23.18
249.519	23.26
249.736	25.03
249.952	24.4
250.168	28.2
250.384	29.09
250.6	29.89
250.816	31.05
251.032	34.68
251.248	34.95
251.464	34.95
251.68	32.42
251.896	30.31
252.112	28.2
252.328	30.04
252.544	27.27
252.76	27.39
252.976	27.18
253.192	26.25
253.408	27.49
253.624	27.29
253.84	26.73
254.056	28.78
254.272	29.1
254.487	31.46
254.703	30.59
254.919	30.84
255.135	31.5
255.351	31.47
255.567	31.76
255.782	26.85
255.998	27.35
256.214	28.12
256.43	27.41
256.646	31.48
256.861	30.07
257.077	30.37
257.293	31.13
257.508	31.43
257.724	29.95
257.94	29.2
258.155	30.19
258.371	29.95
258.587	27.01
258.802	24.82
259.018	22.53
259.234	21.73
259.449	21.05
259.665	18.68
259.88	17.79
260.096	17.89
260.312	17.59
260.527	16.37
260.743	16.67
260.958	17.45
261.174	18.51
261.389	17.85
261.605	17.75
261.82	17.31
262.036	18.82
262.251	19.05
262.466	18.93
262.682	20.69
262.897	22.16
263.113	20.52
263.328	20.95
263.543	21.12
263.759	24.9
263.974	26.45
264.189	26.48
264.405	27.77
264.62	28.6
264.835	29.09
265.051	29.69
265.266	30.63
265.481	32.71
265.696	32.8
265.912	32.31
266.127	29.33
266.342	27.65
266.557	25.83
266.773	24.26
266.988	24.15
267.203	23.42
267.418	22.81
267.633	22.35
267.848	21.07
268.064	18.99
268.279	17.38
268.494	16.99
268.709	17.02
268.924	19.72
269.139	19.9
269.354	20.17
269.569	21.39
269.784	20.28
269.999	20.19
270.214	19.44
270.429	20.52
270.644	21.17
270.859	21.56
271.074	21.09
271.289	20.5
271.504	19.27
271.719	18.49
271.934	17.26
272.149	17.3
272.363	18.59
272.578	19.09
272.793	17.9
273.008	18.45
273.223	17.83
273.438	17.64
273.653	18.05
273.867	19.18
274.082	19.95
274.297	19.57
274.512	21.05
274.726	20.16
274.941	18.95
275.156	20.86
275.371	19.4
275.585	21.89
275.8	22.41
276.015	21.81
276.229	20.55
276.444	20.12
276.659	21.57
276.873	19.77
277.088	19.52
277.302	20.95
277.517	19.89
277.732	19.92
277.946	18.27
278.161	19.02
278.375	18.48
278.59	20.65
278.804	18.47
279.019	18.86
279.233	18.63
279.448	18.11
279.662	18.61
279.877	18.63
280.091	18.65
280.306	19.39
280.52	19.43
280.735	20.1
280.949	17.79
281.163	19.61
281.378	18.48
281.592	19.44
281.806	18.8
282.021	18.23
282.235	18.58
282.449	19.78
282.664	18.98
282.878	19.29
283.092	18.79
283.307	19.92
283.521	19.72
283.735	18.85
283.949	19.04
284.164	19.1
284.378	18.42
284.592	17.41
284.806	16.99
285.02	16.6
285.234	14.94
285.449	15.51
285.663	15.21
285.877	14.78
286.091	15.35
286.305	14.69
286.519	15.7
286.733	16.68
286.947	17.29
287.161	17.12
287.375	16.9
287.589	18.06
287.803	17.75
288.017	17.93
288.231	18.56
288.445	18.99
288.659	19.42
288.873	17.61
289.087	17.97
289.301	17.47
289.515	17.82
289.729	19.1
289.943	19.7
290.157	20.09
290.371	20.72
290.584	21.01
290.798	20.78
291.012	21.36
291.226	23.01
291.44	22.05
291.654	22.95
291.867	22.64
292.081	21.77
292.295	22
292.509	21.78
292.722	21.31
292.936	21.4
293.15	21.57
293.364	20.86
293.577	20.6
293.791	19.1
294.005	19.42
294.218	20.49
294.432	20.25
294.645	19.07
294.859	18.22
295.073	17.39
295.286	16.5
295.5	16.15
295.713	16.06
295.927	15
296.14	16.04
296.354	15.81
296.568	14.63
296.781	14.72
296.994	14.47
297.208	14.66
297.421	14.69
297.635	14.85
297.848	14.4
298.062	14.41
298.275	14.62
298.489	14.63
298.702	14.47
298.915	14.89
299.129	15.16
299.342	15.84
299.555	14.94
299.769	15.53
299.982	16.17
300.195	16.48
300.409	16.53
300.622	16.47
300.835	16.79
301.048	16.82
301.262	16.54
301.475	16.16
301.688	16.46
301.901	17.84
302.115	19.16
302.328	19.04
302.541	18.76
302.754	18.58
302.967	19.1
303.18	18.84
303.393	18.35
303.607	18.55
303.82	19.15
304.033	17.77
304.246	17.5
304.459	16.86
304.672	17.08
304.885	18.05
305.098	18.14
305.311	19.12
305.524	18.72
305.737	18.83
305.95	19.91
306.163	18.09
306.376	17.88
306.589	18.22
306.802	17.3
307.015	17.1
307.228	17.85
307.44	18.16
307.653	16.72
307.866	17.89
308.079	17.9
308.292	16.4
308.505	17.28
308.718	18.28
308.93	18.25
309.143	18.96
309.356	18.83
309.569	17.55
309.781	17.25
309.994	16.3
310.207	15.5
310.42	15.45
310.632	14.97
310.845	14.74
311.058	14.38
311.27	13.34
311.483	12.56
311.696	11.92
311.908	12
312.121	11.97
312.333	13.03
312.546	13.17
312.759	12.88
312.971	14.1
313.184	15.34
313.396	15.45
313.609	16.8
313.821	18.33
314.034	19.49
314.246	19.75
314.459	19.67
314.671	20.3
314.884	20.39
315.096	21.37
315.309	20.54
315.521	19.67
315.733	20.06
315.946	20.3
316.158	19.69
316.371	18.86
316.583	19.37
316.795	20.55
317.008	20.27
317.22	20.5
317.432	21.2
317.644	21.46
317.857	21.97
318.069	22.33
318.281	21.48
318.494	20.12
318.706	19.93
318.918	19.73
319.13	20.19
319.342	20.23
319.555	18.15
319.767	18.14
319.979	18.37
320.191	18.66
320.403	19.16
320.615	19.71
320.827	20.41
321.039	21.41
321.252	21.77
321.464	20.84
321.676	20.85
321.888	22.47
322.1	21.85
322.312	21.69
322.524	21.51
322.736	20.59
322.948	20.53
323.16	19.93
323.372	18.46
323.584	18.5
323.796	19.38
324.007	18.5
324.219	18.83
324.431	19.17
324.643	19.44
324.855	19.61
325.067	19.66
325.279	19.34
325.491	20.09
325.702	21.18
325.914	20.24
326.126	19.45
326.338	21.44
326.55	20.26
326.761	19.37
326.973	19.52
327.185	19.21
327.396	19.42
327.608	19.24
327.82	18.22
328.032	17.63
328.243	18.25
328.455	18.26
328.666	17.11
328.878	18.31
329.09	19.69
329.301	20.09
329.513	20.3
329.725	20.79
329.936	21.04
330.148	23.31
330.359	24.03
330.571	24.48
330.782	24.11
330.994	23.32
331.205	22.05
331.417	20.57
331.628	19.15
331.84	19.5
332.051	18.86
332.262	18.99
332.474	17.64
332.685	17.46
332.897	16.5
333.108	16.87
333.319	17.01
333.531	18.01
333.742	18.09
333.953	17.72
334.165	17.18
334.376	17.17
334.587	16.61
334.799	16
335.01	16.65
335.221	16.41
335.432	16.12
335.644	16.23
335.855	16.12
336.066	16.85
336.277	17.93
336.488	17.78
336.7	17.89
336.911	18.5
337.122	18.43
337.333	17.63
337.544	18.61
337.755	18.55
337.966	18.2
338.177	18.45
338.388	17.06
338.599	17.22
338.811	17.42
339.022	16.93
339.233	15.45
339.444	15.63
339.655	16.55
339.866	16.19
340.076	15.68
340.287	16.14
340.498	15.52
340.709	16.6
340.92	15.42
341.131	15.17
341.342	15
341.553	16.48
341.764	16.8
341.975	16.68
342.185	16.92
342.396	16.8
342.607	17.08
342.818	18.27
343.029	18.16
343.239	18.57
343.45	18.28
343.661	18.3
343.872	17.87
344.082	17.96
344.293	17.66
344.504	19.16
344.714	19.36
344.925	19.07
345.136	18.24
345.346	18.01
345.557	17.98
345.768	18.79
345.978	19.41
346.189	20.6
346.399	21.57
346.61	21.69
346.821	20.08
347.031	21.26
347.242	20.69
347.452	21.06
347.663	20.84
347.873	21.84
348.084	21.1
348.294	21.19
348.504	20.27
348.715	19.97
348.925	19.64
349.136	19.16
349.346	18.42
349.557	18.73
349.767	18.65
349.977	18.45
350.188	17.9
350.398	18.56
350.608	17.78
350.819	16.92
351.029	15.74
351.239	16.17
351.449	16.34
351.66	16.83
351.87	17.51
352.08	16.87
352.29	17.91
352.501	17.84
352.711	18.34
352.921	19.47
353.131	20.36
353.341	21.03
353.552	19.83
353.762	20.84
353.972	19.85
354.182	21.1
354.392	21.44
354.602	21.69
354.812	21.21
355.022	20.63
355.232	19.59
355.442	18.96
355.652	18.48
355.862	18.99
356.072	18.11
356.282	18.08
356.492	16.27
356.702	16.31
356.912	16.03
357.122	16.66
357.332	16.36
357.542	16.16
357.752	16.83
357.962	16.94
358.171	16.81
358.381	17
358.591	16.67
358.801	16.8
359.011	16.68
359.221	16.61
359.43	16.21
359.64	15.57
359.85	15.51
360.06	14.84
360.269	14.84
360.479	14.39
360.689	14.05
360.899	14.53
361.108	14.09
361.318	13.76
361.528	13.36
361.737	13.3
361.947	13.78
362.156	13.88
362.366	13.68
362.576	13.49
362.785	14.07
362.995	14.04
363.204	13.98
363.414	14.34
363.623	14.39
363.833	14.85
364.042	14.65
364.252	14.02
364.461	14.03
364.671	14.65
364.88	14.25
365.09	14.45
365.299	14.83
365.509	14.68
365.718	14.94
365.927	15.04
366.137	14.77
366.346	15.2
366.555	15.82
366.765	15.69
366.974	14.78
367.183	15.54
367.393	14.98
367.602	14.54
367.811	14.2
368.021	14.11
368.23	14.51
368.439	14.63
368.648	13.99
368.857	13.95
369.067	14.3
369.276	14.85
369.485	15.34
369.694	15.15
369.903	15.92
370.112	16.08
370.321	15.99
370.531	15.36
370.74	14.94
370.949	14.5
371.158	15.07
371.367	14.89
371.576	15.01
371.785	14.08
371.994	14.4
372.203	13.67
372.412	14.12
372.621	13.9
372.83	14.46
373.039	14.7
373.248	15.39
373.457	14.81
373.666	14.26
373.874	13.7
374.083	13.78
374.292	13.28
374.501	13.4
374.71	13.1
374.919	13.03
375.128	12.3
375.336	12.42
375.545	12.69
375.754	12.14
375.963	12.09
376.171	12.54
376.38	12.82
376.589	13.16
376.798	12.89
377.006	12.67
377.215	13.02
377.424	13.16
377.632	12.43
377.841	12.19
378.05	12.5
378.258	12.56
378.467	12.12
378.675	11.44
378.884	11.66
379.093	11.94
379.301	12.16
379.51	11.82
379.718	11.75
379.927	12.09
380.135	11.82
380.344	12.05
380.552	12.33
380.761	12.65
380.969	13.2
381.177	12.56
381.386	12.45
381.594	12.47
381.803	12.15
382.011	12.4
382.219	12.36
382.428	12.64
382.636	12.49
382.845	12.07
383.053	12.08
383.261	12.13
383.469	12.55
383.678	12.65
383.886	12.37
384.094	12.29
384.302	11.96
384.511	12.26
384.719	11.97
384.927	11.95
385.135	12.73
385.343	12.75
385.552	12.49
385.76	12.25
385.968	12.08
386.176	12.18
386.384	12.46
386.592	12.53
386.8	12.3
387.008	12.15
387.216	12.02
387.424	11.72
387.633	11.45
387.841	11.13
388.049	11.33
388.257	11.41
388.465	11.39
388.672	11.57
388.88	11.85
389.088	11.95
389.296	12.11
389.504	12.36
389.712	12.37
389.92	12.3
390.128	12.3
390.336	11.91
390.544	11.66
390.751	11.57
390.959	11.32
391.167	11.02
391.375	10.76
391.583	10.52
391.79	10.25
391.998	10.25
392.206	10.4
392.414	10.31
392.621	10.49
392.829	10.52
393.037	10.34
393.244	10.37
393.452	10.29
393.66	10.22
393.867	10.42
394.075	10.48
394.283	10.32
394.49	10.22
394.698	10.41
394.905	10.36
395.113	10.41
395.32	10.4
395.528	10.61
395.735	11.04
395.943	10.94
396.15	10.82
396.358	10.64
396.565	10.52
396.773	10.3
396.98	10.52
397.188	10.66
397.395	10.56
397.602	10.84
397.81	10.71
398.017	10.58
398.225	10.9
398.432	11.09
398.639	11.4
398.847	12.03
399.054	12.14
399.261	11.77
399.468	11.53
399.676	11.48
399.883	11.53
400.09	11.31
400.297	11.47
400.505	11.43
400.712	11.52
400.919	11.64
401.126	11.22
401.333	11.3
401.54	11.52
401.748	11.62
401.955	11.78
402.162	11.53
402.369	11.38
402.576	10.94
402.783	10.49
402.99	10.44
403.197	10.22
403.404	10.11
403.611	10
403.818	9.9
404.025	9.73
404.232	9.54
404.439	9.44
404.646	9.44
404.853	9.53
405.06	9.9
405.267	9.74
405.474	9.44
405.681	9.17
405.887	9.42
406.094	9.55
406.301	9.8
406.508	9.65
406.715	9.89
406.922	10.14
407.128	10.3
407.335	9.88
407.542	9.98
407.749	10.27
407.955	10.67
408.162	10.43
408.369	10.43
408.575	10.31
408.782	10.43
408.989	10.13
409.195	10.05
409.402	10
409.609	10.09
409.815	9.82
410.022	9.56
410.228	9.24
410.435	9.46
410.642	9.19
410.848	9.2
411.055	9.22
411.261	9.21
411.468	9.36
411.674	9.1
411.881	9.3
412.087	9.72
412.294	9.91
412.5	10.12
412.706	9.83
412.913	9.79
413.119	10
413.326	9.97
413.532	10.07
413.738	9.85
413.945	9.55
414.151	9.48
414.357	9.3
414.564	9.11
414.77	8.9
414.976	8.89
415.182	9.14
415.389	8.66
415.595	8.7
415.801	8.62
416.007	8.59
416.214	8.9
416.42	8.86
416.626	8.81
416.832	8.9
417.038	8.93
417.244	9
417.45	9.05
417.657	9.11
417.863	9.15
418.069	9.19
418.275	9.05
418.481	9.17
418.687	9.13
418.893	9.14
419.099	9.09
419.305	9.28
419.511	9.16
419.717	8.97
419.923	8.94
420.129	8.72
420.335	8.77
420.541	8.64
420.746	8.44
420.952	8.37
421.158	8.28
421.364	8.25
421.57	8.2
421.776	8.1
421.982	8.02
422.187	7.94
422.393	8.02
422.599	7.89
422.805	7.96
423.01	7.95
423.216	7.96
423.422	8
423.628	8.01
423.833	7.86
424.039	7.71
424.245	7.7
424.45	7.68
424.656	7.69
424.862	7.61
425.067	7.53
425.273	7.63
425.478	7.63
425.684	7.43
425.889	7.44
426.095	7.49
426.301	7.83
426.506	8
426.712	8.03
426.917	8.08
427.123	8.26
427.328	8.45
427.533	8.4
427.739	8.38
427.944	8.5
428.15	8.43
428.355	8.29
428.561	8.19
428.766	7.92
428.971	8.06
429.177	8.15
429.382	8.11
429.587	8.12
429.793	8.22
429.998	8.24
430.203	8.32
430.408	8.33
430.614	8.24
430.819	8.23
431.024	8.24
431.229	8.22
431.434	8.01
431.64	8.15
431.845	8.32
432.05	8.21
432.255	8.14
432.46	8.03
432.665	8.08
432.87	8.21
433.076	8.2
433.281	8.33
433.486	8.33
433.691	8.21
433.896	8.04
434.101	7.86
434.306	7.9
434.511	8.02
434.716	8
434.921	8.07
435.126	8.21
435.331	8.3
435.535	8.27
435.74	8.26
435.945	8.4
436.15	8.34
436.355	8.5
436.56	8.44
436.765	8.49
436.97	8.59
437.174	8.39
437.379	8.38
437.584	8.55
437.789	8.5
437.993	8.51
438.198	8.55
438.403	8.68
438.608	8.54
438.812	8.44
439.017	8.23
439.222	8.26
439.426	8.32
439.631	8.15
439.836	7.97
440.04	7.91
440.245	7.87
440.45	7.81
440.654	7.58
440.859	7.46
441.063	7.6
441.268	7.66
441.472	7.73
441.677	7.84
441.881	7.99
442.086	8.01
442.29	8.04
442.495	8.09
442.699	8.17
442.904	8.45
443.108	8.42
443.312	8.37
443.517	8.34
443.721	8.2
443.925	8.05
444.13	7.84
444.334	7.66
444.538	7.6
444.743	7.36
444.947	7.33
445.151	7.11
445.356	7.3
445.56	7.32
445.764	7.42
445.968	7.53
446.173	7.4
446.377	7.49
446.581	7.59
446.785	7.67
446.989	7.72
447.193	7.76
447.398	7.93
447.602	7.85
447.806	7.9
448.01	7.78
448.214	7.71
448.418	7.88
448.622	7.9
448.826	7.95
449.03	7.9
449.234	8.07
449.438	8.02
449.642	8
449.846	8.05
450.05	7.9
450.254	7.78
450.458	7.61
450.662	7.45
450.866	7.38
451.069	7.32
451.273	7.35
451.477	7.34
451.681	7.27
451.885	7.34
452.089	7.33
452.292	7.36
452.496	7.57
452.7	7.6
452.904	7.73
453.107	7.76
453.311	7.76
453.515	7.69
453.719	7.59
453.922	7.76
454.126	7.58
454.33	7.74
454.533	7.66
454.737	7.63
454.94	7.55
455.144	7.58
455.348	7.62
455.551	7.69
455.755	7.92
455.958	7.98
456.162	7.78
456.365	7.74
456.569	7.63
456.772	7.79
456.976	7.98
