Data from LC_188_Reflection_1.txt Node
Date: Tue Nov 17 13:25:13 EST 2015
User: robert
Spectrometer: USB4E03001
Autoset integration time: false
Trigger mode: 4
Integration Time (sec): 1.000000E-1
Scans to average: 15
Electric dark correction enabled: true
Nonlinearity correction enabled: false
Boxcar width: 5
Stray light correction enabled: false
XAxis mode: Wavelengths
Stop averaging: false
Number of Pixels in Spectrum: 3648
>>>>>Begin Spectral Data<<<<<
177.566	230.35
177.785	210.61
178.005	-865.3
178.225	245.79
178.445	-518.13
178.665	-124.26
178.885	-112.79
179.105	-276.18
179.324	641
179.544	803.36
179.764	229.8
179.984	118.5
180.204	117.3
180.423	162.28
180.643	139.61
180.863	-507.66
181.083	-586.48
181.302	58.53
181.522	-7.62
181.742	-165.37
181.961	-2130.39
182.181	366.07
182.401	123.9
182.621	254.56
182.84	302.93
183.06	815.71
183.279	-661.02
183.499	5736.97
183.719	530.8
183.938	123.67
184.158	149.06
184.377	154.1
184.597	69.14
184.816	29.52
185.036	26.58
185.256	85.92
185.475	49.65
185.695	59.47
185.914	63.87
186.134	73.28
186.353	42.02
186.572	40.94
186.792	48.34
187.011	51.6
187.231	19.63
187.45	439.8
187.67	91.55
187.889	176.87
188.108	114.25
188.328	123.34
188.547	179.74
188.766	-558.31
188.986	609.27
189.205	140.53
189.424	209.9
189.644	148.31
189.863	86.1
190.082	108.18
190.302	118.47
190.521	164.66
190.74	2488.96
190.959	127.64
191.178	118.29
191.398	66.84
191.617	128.49
191.836	-9.49
192.055	57.36
192.274	-20.43
192.494	-121.36
192.713	-346.53
192.932	-155.24
193.151	544.05
193.37	9426.98
193.589	-336600
193.808	12282.02
194.027	-1764.96
194.246	-764.06
194.465	3256.63
194.685	420.41
194.904	303.97
195.123	46900
195.342	1011.75
195.561	289.54
195.78	232.94
195.999	336.36
196.218	200.7
196.436	195.07
196.655	171.61
196.874	196.47
197.093	189.74
197.312	139.03
197.531	120.99
197.75	107.82
197.969	134.83
198.188	126.36
198.407	97.18
198.625	114.03
198.844	97.82
199.063	63.21
199.282	59.59
199.501	64.57
199.719	108.16
199.938	141.77
200.157	181.14
200.376	395.54
200.594	265.93
200.813	176.39
201.032	196.53
201.251	205.32
201.469	2418.27
201.688	729.23
201.907	-3188.56
202.125	787.6
202.344	766.71
202.563	569.74
202.781	504.53
203	-349.76
203.218	9.13
203.437	-87.06
203.656	-27.84
203.874	-275.89
204.093	-518.05
204.311	-481.29
204.53	10448.68
204.748	-420.31
204.967	2510.6
205.185	438.41
205.404	239.38
205.622	237.03
205.841	172.38
206.059	177.8
206.278	133.62
206.496	129.85
206.715	131.71
206.933	146.57
207.151	112.69
207.37	90.28
207.588	96.43
207.806	76.82
208.025	83.91
208.243	83.07
208.461	109.75
208.68	135.02
208.898	-140.84
209.116	-162.78
209.335	800.2
209.553	-332.03
209.771	173.04
209.989	149.4
210.208	224.58
210.426	213.41
210.644	195.06
210.862	133.41
211.081	87.7
211.299	69.25
211.517	93.09
211.735	86.19
211.953	108.42
212.171	127.38
212.39	215.5
212.608	185.06
212.826	266.06
213.044	358.29
213.262	321.45
213.48	-12667.16
213.698	-679.39
213.916	278.6
214.134	-495.03
214.352	-83.88
214.57	-112.6
214.788	1646.38
215.006	492.73
215.224	463.36
215.442	137.88
215.66	189.61
215.878	245.35
216.096	116.52
216.314	111.14
216.532	77.22
216.75	64.93
216.968	51.11
217.185	39.36
217.403	56
217.621	42.01
217.839	53.63
218.057	68.53
218.275	59.08
218.492	59.5
218.71	61.66
218.928	46.08
219.146	73.29
219.363	85.38
219.581	79.34
219.799	94.08
220.017	140.65
220.234	105.51
220.452	78.26
220.67	58.92
220.887	72.31
221.105	62.33
221.323	80.52
221.54	61.57
221.758	55.79
221.976	59.04
222.193	51.25
222.411	48.48
222.629	59.08
222.846	55.64
223.064	37.56
223.281	32.8
223.499	42.58
223.716	42.28
223.934	60.3
224.151	66.49
224.369	50.14
224.586	39.08
224.804	41.63
225.021	52.23
225.239	57.84
225.456	67.21
225.674	57.18
225.891	59.33
226.108	61.64
226.326	63.35
226.543	56.8
226.76	68.18
226.978	69.41
227.195	59.41
227.413	54.29
227.63	49.56
227.847	52.83
228.064	49.85
228.282	43.35
228.499	42.12
228.716	34.7
228.934	36.38
229.151	34.86
229.368	32.82
229.585	29.76
229.802	29.2
230.02	27.98
230.237	25.51
230.454	23.34
230.671	25.6
230.888	23.81
231.105	26.04
231.323	22.62
231.54	23.26
231.757	27.39
231.974	33.58
232.191	26.25
232.408	28.11
232.625	30.75
232.842	34.36
233.059	30.46
233.276	28.05
233.493	23.69
233.71	27.04
233.927	25.79
234.144	20.12
234.361	15.51
234.578	24.38
234.795	21.8
235.012	19.07
235.229	15.79
235.446	15.97
235.663	17.94
235.879	15.17
236.096	16.01
236.313	12.32
236.53	13.97
236.747	18.77
236.964	12.96
237.181	10.58
237.397	11.09
237.614	16.59
237.831	22.56
238.048	24.07
238.264	32.68
238.481	26.33
238.698	27.56
238.915	29.47
239.131	33.26
239.348	38.33
239.565	39.95
239.781	39.55
239.998	37.18
240.215	33.64
240.431	31.66
240.648	27.82
240.865	29.24
241.081	27.22
241.298	23.91
241.514	19.81
241.731	17.2
241.947	15.09
242.164	12.13
242.38	10.27
242.597	10.44
242.814	10.55
243.03	9.99
243.246	8.89
243.463	9.64
243.679	9.42
243.896	9.63
244.112	9.54
244.329	12.42
244.545	14.16
244.762	15.43
244.978	14.72
245.194	15.07
245.411	16.5
245.627	18.06
245.843	18.21
246.06	19.24
246.276	18.04
246.492	17
246.709	15.82
246.925	16.45
247.141	17.06
247.357	17.34
247.574	17.04
247.79	16.58
248.006	16.54
248.222	16.85
248.439	15.93
248.655	15.58
248.871	17.42
249.087	16.85
249.303	17.09
249.519	17.86
249.736	18.06
249.952	17.79
250.168	20.55
250.384	22.01
250.6	22.07
250.816	22.5
251.032	22.96
251.248	21.11
251.464	21.85
251.68	19.17
251.896	17.22
252.112	15.71
252.328	16.16
252.544	14.54
252.76	13.23
252.976	10.84
253.192	11.57
253.408	13.14
253.624	14.22
253.84	16.44
254.056	17.99
254.272	16.98
254.487	19.57
254.703	17.34
254.919	15.99
255.135	15.86
255.351	18.83
255.567	17.83
255.782	11.54
255.998	6.7
256.214	5.55
256.43	4.98
256.646	8.5
256.861	7.57
257.077	8.1
257.293	11.57
257.508	13.79
257.724	13.89
257.94	13.13
258.155	16.09
258.371	17.25
258.587	15.39
258.802	14.37
259.018	12.32
259.234	12.81
259.449	13.78
259.665	11.99
259.88	10.18
260.096	10.19
260.312	10.25
260.527	9.22
260.743	9.27
260.958	9.41
261.174	9.9
261.389	10.01
261.605	9.72
261.82	9.48
262.036	10.02
262.251	9.56
262.466	8.16
262.682	9.4
262.897	10.54
263.113	9.1
263.328	9.31
263.543	9.91
263.759	11.94
263.974	11.62
264.189	11.18
264.405	11.52
264.62	13.75
264.835	14.59
265.051	14.43
265.266	14.74
265.481	16.4
265.696	16.72
265.912	16.03
266.127	14.45
266.342	13.1
266.557	12.32
266.773	12.29
266.988	12.69
267.203	13.29
267.418	13.51
267.633	12.66
267.848	11.47
268.064	10.45
268.279	9.95
268.494	9.41
268.709	9.16
268.924	8.73
269.139	7.66
269.354	6.85
269.569	7.66
269.784	6.36
269.999	7.43
270.214	7.94
270.429	9.77
270.644	9.4
270.859	9.61
271.074	9.72
271.289	10.39
271.504	10.01
271.719	9.9
271.934	9.29
272.149	9.38
272.363	9.61
272.578	9.34
272.793	8.38
273.008	8.4
273.223	9.44
273.438	9.99
273.653	10
273.867	11.6
274.082	13.03
274.297	12.77
274.512	13.54
274.726	12.8
274.941	13.32
275.156	13.22
275.371	11.64
275.585	12.11
275.8	11.77
276.015	12.45
276.229	10.74
276.444	8.53
276.659	8.84
276.873	7.39
277.088	7.65
277.302	6.57
277.517	6.38
277.732	7.7
277.946	6.6
278.161	7.96
278.375	7.94
278.59	9.28
278.804	9.06
279.019	9.72
279.233	9.31
279.448	9.11
279.662	11.6
279.877	12.86
280.091	12.53
280.306	12.83
280.52	12.03
280.735	12.19
280.949	10.32
281.163	11.55
281.378	12.53
281.592	12.52
281.806	12.58
282.021	11.28
282.235	9.51
282.449	10.81
282.664	10.83
282.878	11.09
283.092	10.36
283.307	11.64
283.521	11.65
283.735	9.42
283.949	9.81
284.164	8.69
284.378	8.04
284.592	8.5
284.806	7.49
285.02	6.16
285.234	5.38
285.449	5.16
285.663	5.05
285.877	6.04
286.091	6.22
286.305	6.15
286.519	7.02
286.733	7.59
286.947	7.51
287.161	7.81
287.375	9.45
287.589	9.3
287.803	10.08
288.017	10.05
288.231	8.98
288.445	10.17
288.659	10.23
288.873	9.27
289.087	8.85
289.301	9.58
289.515	10.29
289.729	9.83
289.943	10.82
290.157	10.65
290.371	10.77
290.584	11
290.798	9.83
291.012	11.63
291.226	12.99
291.44	13.31
291.654	13.12
291.867	11.77
292.081	11.28
292.295	10.67
292.509	9.38
292.722	10.05
292.936	9.32
293.15	8.79
293.364	6.87
293.577	6.38
293.791	5.81
294.005	5.8
294.218	6.97
294.432	7.66
294.645	8.56
294.859	9.7
295.073	9.3
295.286	9.6
295.5	10.11
295.713	10.13
295.927	10.03
296.14	10.28
296.354	10.09
296.568	10.48
296.781	11.19
296.994	10.59
297.208	11.01
297.421	11.11
297.635	11.3
297.848	11.34
298.062	11.58
298.275	12.06
298.489	12.27
298.702	13.03
298.915	12.06
299.129	11.34
299.342	11.9
299.555	11.08
299.769	10.56
299.982	10.26
300.195	10.18
300.409	10.5
300.622	8.67
300.835	8.72
301.048	7.6
301.262	7.9
301.475	7.72
301.688	7.78
301.901	8.26
302.115	9.48
302.328	10.64
302.541	10.21
302.754	9.84
302.967	10.95
303.18	11.86
303.393	11.28
303.607	11.94
303.82	12.41
304.033	11.24
304.246	10.71
304.459	10.47
304.672	9.34
304.885	9.76
305.098	10.15
305.311	10.44
305.524	9.33
305.737	11.28
305.95	12.07
306.163	10.33
306.376	10.51
306.589	11.07
306.802	10.02
307.015	10.44
307.228	11.54
307.44	11.03
307.653	10.56
307.866	9.9
308.079	9.02
308.292	7.5
308.505	8.76
308.718	9.11
308.93	8.63
309.143	9.46
309.356	9.11
309.569	8.72
309.781	9.7
309.994	9.01
310.207	9.97
310.42	9.16
310.632	9.46
310.845	9.65
311.058	9.17
311.27	9.01
311.483	8.3
311.696	7.92
311.908	6.63
312.121	6.07
312.333	6.91
312.546	5.96
312.759	6.52
312.971	6.65
313.184	6.54
313.396	6.91
313.609	7.81
313.821	9.19
314.034	9.86
314.246	11.21
314.459	10.82
314.671	10.64
314.884	11.65
315.096	11.77
315.309	12.13
315.521	12.74
315.733	12.58
315.946	11.51
316.158	10.49
316.371	10.31
316.583	11.06
316.795	11.21
317.008	11.25
317.22	10.57
317.432	11.74
317.644	10.22
317.857	9.86
318.069	10.92
318.281	11.86
318.494	11.5
318.706	11.61
318.918	10.7
319.13	12.46
319.342	13.01
319.555	12.84
319.767	12.23
319.979	12.9
320.191	12.63
320.403	12.23
320.615	11.73
320.827	11.93
321.039	13.24
321.252	13.53
321.464	11.42
321.676	11.55
321.888	12.82
322.1	12.14
322.312	12.06
322.524	12.42
322.736	12.18
322.948	12.59
323.16	12.59
323.372	10.55
323.584	11.05
323.796	12.57
324.007	12.25
324.219	12.02
324.431	12.21
324.643	12.53
324.855	12.87
325.067	13.81
325.279	14.08
325.491	14.53
325.702	15.26
325.914	14.83
326.126	14.31
326.338	14.18
326.55	13.53
326.761	14.56
326.973	14.47
327.185	14.31
327.396	13.59
327.608	13.5
327.82	12.8
328.032	13.04
328.243	13.13
328.455	12.96
328.666	13.09
328.878	13.71
329.09	12.86
329.301	12.92
329.513	12.28
329.725	13.12
329.936	13.47
330.148	14.3
330.359	14.7
330.571	15.31
330.782	15.61
330.994	15.89
331.205	15.56
331.417	15.35
331.628	16.01
331.84	16.77
332.051	16.48
332.262	15.4
332.474	15.02
332.685	15.74
332.897	15.14
333.108	15.45
333.319	15.64
333.531	15.46
333.742	15.77
333.953	15.09
334.165	14.85
334.376	14.47
334.587	15.64
334.799	15.85
335.01	15.29
335.221	14.89
335.432	13.03
335.644	13.6
335.855	14.48
336.066	14.66
336.277	15.33
336.488	15.35
336.7	15.42
336.911	15.78
337.122	15.59
337.333	15.53
337.544	16.66
337.755	17.67
337.966	17.27
338.177	16.9
338.388	17.09
338.599	17.39
338.811	16.8
339.022	16.67
339.233	14.89
339.444	14.48
339.655	14.73
339.866	14.08
340.076	13.87
340.287	14.02
340.498	13.76
340.709	14.21
340.92	13.69
341.131	13.6
341.342	13.85
341.553	14.24
341.764	14.8
341.975	14.74
342.185	14.91
342.396	15.39
342.607	15.93
342.818	17.51
343.029	16.19
343.239	16.17
343.45	16.58
343.661	17.03
343.872	17.94
344.082	18.04
344.293	17.37
344.504	18.05
344.714	17.64
344.925	16.98
345.136	15.65
345.346	16.37
345.557	16.06
345.768	16.93
345.978	16.39
346.189	16.45
346.399	16.66
346.61	16.86
346.821	16.4
347.031	16.13
347.242	15.42
347.452	15.72
347.663	15.64
347.873	16.3
348.084	14.98
348.294	15.36
348.504	14.36
348.715	14.1
348.925	14.17
349.136	13.81
349.346	14.15
349.557	14.99
349.767	14.57
349.977	13.64
350.188	13.52
350.398	14.16
350.608	14.05
350.819	13.88
351.029	13.95
351.239	14.29
351.449	14.06
351.66	14.4
351.87	14.25
352.08	14.5
352.29	15.58
352.501	15.64
352.711	16.03
352.921	15.63
353.131	16.38
353.341	16.29
353.552	15.5
353.762	15.83
353.972	14.6
354.182	15.37
354.392	15.61
354.602	15.89
354.812	15.46
355.022	15.08
355.232	14.56
355.442	14.27
355.652	14
355.862	14.76
356.072	14.73
356.282	15.51
356.492	14.57
356.702	14.2
356.912	13.56
357.122	13.69
357.332	13.74
357.542	13.82
357.752	13.89
357.962	14.23
358.171	13.74
358.381	13.47
358.591	12.96
358.801	13.34
359.011	13.22
359.221	13.67
359.43	13.87
359.64	13.53
359.85	13.55
360.06	13.54
360.269	13.11
360.479	13.14
360.689	13.25
360.899	13.86
361.108	13.32
361.318	13.26
361.528	12.84
361.737	12.36
361.947	12.2
362.156	12.31
362.366	12.28
362.576	12.14
362.785	11.97
362.995	11.81
363.204	11.63
363.414	11.71
363.623	11.63
363.833	11.49
364.042	12.14
364.252	12.25
364.461	12.57
364.671	12.06
364.88	12.38
365.09	12.96
365.299	13.13
365.509	12.77
365.718	12.94
365.927	13.13
366.137	13.6
366.346	13.61
366.555	13.66
366.765	13.36
366.974	13.86
367.183	14.02
367.393	13.41
367.602	13.68
367.811	13.71
368.021	13.53
368.23	13.68
368.439	13.4
368.648	12.86
368.857	12.6
369.067	13.05
369.276	13.27
369.485	13.36
369.694	13.58
369.903	13.31
370.112	13.39
370.321	13.71
370.531	13.3
370.74	13.05
370.949	12.67
371.158	13.01
371.367	12.54
371.576	12.5
371.785	12.44
371.994	12.42
372.203	12.36
372.412	12.25
372.621	11.96
372.83	12.21
373.039	12.46
373.248	12.5
373.457	12.57
373.666	12.69
373.874	12.11
374.083	12.11
374.292	11.9
374.501	11.82
374.71	12.29
374.919	12.15
375.128	11.79
375.336	11.98
375.545	12.19
375.754	11.87
375.963	11.95
376.171	12.18
376.38	11.93
376.589	12.2
376.798	12.19
377.006	12.14
377.215	12.76
377.424	12.98
377.632	12.68
377.841	12.42
378.05	12.86
378.258	12.58
378.467	12.47
378.675	12.3
378.884	12.07
379.093	12.11
379.301	11.92
379.51	11.3
379.718	11.23
379.927	11.08
380.135	10.92
380.344	10.61
380.552	10.39
380.761	10.38
380.969	10.41
381.177	10.55
381.386	9.78
381.594	9.81
381.803	9.87
382.011	9.72
382.219	9.87
382.428	10.27
382.636	10.14
382.845	10.34
383.053	10.37
383.261	10.09
383.469	10.5
383.678	11.59
383.886	11.5
384.094	11.56
384.302	11.73
384.511	11.65
384.719	11.29
384.927	11.56
385.135	11.69
385.343	12.02
385.552	12.27
385.76	12.05
385.968	11.4
386.176	11.36
386.384	11.15
386.592	11
386.8	11.39
387.008	11.51
387.216	11.32
387.424	11.18
387.633	10.99
387.841	11.12
388.049	11
388.257	11.19
388.465	11.07
388.672	11.12
388.88	10.95
389.088	10.91
389.296	11.03
389.504	11.39
389.712	11.51
389.92	11.44
390.128	11.5
390.336	11.22
390.544	11.18
390.751	11.15
390.959	11.37
391.167	11.35
391.375	11.06
391.583	10.79
391.79	10.52
391.998	10.51
392.206	10.46
392.414	10.09
392.621	10.19
392.829	9.98
393.037	9.88
393.244	9.59
393.452	9.83
393.66	9.58
393.867	9.79
394.075	9.53
394.283	9.57
394.49	9.46
394.698	9.6
394.905	9.47
395.113	9.65
395.32	9.62
395.528	9.76
395.735	9.77
395.943	9.93
396.15	9.84
396.358	9.85
396.565	9.55
396.773	9.66
396.98	9.91
397.188	10.31
397.395	10.48
397.602	10.79
397.81	10.9
398.017	10.64
398.225	10.93
398.432	10.9
398.639	10.99
398.847	11.2
399.054	10.74
399.261	10.39
399.468	9.96
399.676	9.62
399.883	9.34
400.09	8.85
400.297	9.05
400.505	8.69
400.712	8.75
400.919	8.74
401.126	8.46
401.333	8.98
401.54	9.1
401.748	9.1
401.955	9.2
402.162	9.41
402.369	9.56
402.576	9.23
402.783	8.9
402.99	8.78
403.197	8.89
403.404	8.93
403.611	8.69
403.818	8.61
404.025	8.66
404.232	8.5
404.439	8.5
404.646	8.79
404.853	9.06
405.06	9.52
405.267	9.67
405.474	9.34
405.681	9.25
405.887	9.41
406.094	9.42
406.301	9.58
406.508	9.77
406.715	9.52
406.922	9.22
407.128	9.32
407.335	8.95
407.542	8.92
407.749	9.25
407.955	9.56
408.162	9.66
408.369	9.83
408.575	9.85
408.782	9.78
408.989	9.96
409.195	10.47
409.402	10.48
409.609	10.56
409.815	10.46
410.022	10.19
410.228	9.92
410.435	9.81
410.642	9.71
410.848	9.65
411.055	9.54
411.261	9.34
411.468	9.16
411.674	9.02
411.881	9.1
412.087	9.22
412.294	9.4
412.5	9.31
412.706	9.06
412.913	9.04
413.119	8.99
413.326	9.14
413.532	9.25
413.738	9.12
413.945	8.75
414.151	8.51
414.357	8.75
414.564	8.74
414.77	8.98
414.976	9.31
415.182	9.42
415.389	9.45
415.595	9.41
415.801	9.32
416.007	9.28
416.214	9.52
416.42	9.58
416.626	9.33
416.832	9.26
417.038	9.4
417.244	9.22
417.45	9.11
417.657	8.89
417.863	8.94
418.069	8.91
418.275	8.76
418.481	8.75
418.687	8.69
418.893	8.85
419.099	8.88
419.305	8.88
419.511	8.92
419.717	8.86
419.923	8.97
420.129	8.94
420.335	9
420.541	8.9
420.746	8.85
420.952	8.77
421.158	8.72
421.364	8.6
421.57	8.56
421.776	8.51
421.982	8.55
422.187	8.47
422.393	8.45
422.599	8.37
422.805	8.37
423.01	8.47
423.216	8.64
423.422	8.69
423.628	8.82
423.833	8.71
424.039	8.64
424.245	8.6
424.45	8.63
424.656	8.64
424.862	8.58
425.067	8.69
425.273	8.67
425.478	8.65
425.684	8.43
425.889	8.36
426.095	8.44
426.301	8.51
426.506	8.67
426.712	8.68
426.917	8.78
427.123	8.99
427.328	9.13
427.533	9.1
427.739	8.96
427.944	8.99
428.15	9.06
428.355	8.95
428.561	8.9
428.766	8.68
428.971	8.61
429.177	8.63
429.382	8.45
429.587	8.4
429.793	8.4
429.998	8.48
430.203	8.71
430.408	8.6
430.614	8.58
430.819	8.61
431.024	8.54
431.229	8.67
431.434	8.6
431.64	8.72
431.845	8.54
432.05	8.5
432.255	8.72
432.46	8.74
432.665	8.97
432.87	9.08
433.076	9
433.281	9.18
433.486	9.07
433.691	8.94
433.896	8.86
434.101	8.92
434.306	9.04
434.511	9.06
434.716	8.91
434.921	8.76
435.126	8.68
435.331	8.66
435.535	8.64
435.74	8.63
435.945	8.7
436.15	8.79
436.355	8.85
436.56	8.85
436.765	8.87
436.97	8.93
437.174	8.82
437.379	8.91
437.584	9.17
437.789	9.19
437.993	9.24
438.198	9.29
438.403	9.28
438.608	9.18
438.812	8.89
439.017	8.65
439.222	8.56
439.426	8.61
439.631	8.6
439.836	8.3
440.04	8.1
440.245	7.99
440.45	7.84
440.654	7.79
440.859	7.7
441.063	7.89
441.268	7.99
441.472	8.04
441.677	8.2
441.881	8.22
442.086	8.5
442.29	8.56
442.495	8.82
442.699	8.83
442.904	8.85
443.108	8.9
443.312	8.7
443.517	8.56
443.721	8.64
443.925	8.44
444.13	8.32
444.334	8.02
444.538	8.07
444.743	7.87
444.947	7.97
445.151	8
445.356	8.17
445.56	8.32
445.764	8.38
445.968	8.38
446.173	8.44
446.377	8.48
446.581	8.59
446.785	8.58
446.989	8.65
447.193	8.69
447.398	8.8
447.602	8.82
447.806	8.84
448.01	8.77
448.214	8.79
448.418	8.66
448.622	8.62
448.826	8.58
449.03	8.56
449.234	8.59
449.438	8.37
449.642	8.28
449.846	8.08
450.05	8.02
450.254	8.13
450.458	7.94
450.662	7.99
450.866	7.98
451.069	8.07
451.273	8.02
451.477	7.92
451.681	8.17
451.885	8.1
452.089	8.18
452.292	8
452.496	7.91
452.7	7.87
452.904	7.87
453.107	7.94
453.311	7.84
453.515	7.88
453.719	7.92
453.922	7.76
454.126	7.67
454.33	7.8
454.533	7.83
454.737	7.96
454.94	7.89
455.144	7.98
455.348	8.02
455.551	8.07
455.755	8.26
455.958	8.03
456.162	8.08
456.365	8.06
456.569	7.82
456.772	7.99
456.976	7.92
457.179	8.18
457.383	8.04
457.586	7.98
457.79	8.1
457.993	8.05
458.196	8.26
458.4	8.42
458.603	8.6
458.807	8.61
459.01	8.55
459.213	8.55
459.417	8.48
459.62	8.59
459.823	8.45
460.026	8.35
460.23	8.24
460.433	8.18
460.636	7.97
460.839	7.84
461.042	7.9
461.246	7.91
461.449	7.86
461.652	7.75
