Data from LC_153_Reflection_3.txt Node
Date: Mon Nov 16 22:12:11 EST 2015
User: robert
Spectrometer: USB4E03001
Autoset integration time: false
Trigger mode: 4
Integration Time (sec): 1.000000E-1
Scans to average: 15
Electric dark correction enabled: true
Nonlinearity correction enabled: false
Boxcar width: 5
Stray light correction enabled: false
XAxis mode: Wavelengths
Stop averaging: false
Number of Pixels in Spectrum: 3648
>>>>>Begin Spectral Data<<<<<
177.566	-3516.87
177.785	-110.19
178.005	2156.3
178.225	-216.36
178.445	-607.79
178.665	1460.96
178.885	484.87
179.105	25.23
179.324	-144.86
179.544	7.57
179.764	-224.89
179.984	117.68
180.204	19.35
180.423	-14.93
180.643	-56.13
180.863	-19.13
181.083	-34.66
181.302	-129.05
181.522	-189.54
181.742	-158.27
181.961	-277.14
182.181	-227.31
182.401	-329.65
182.621	-1497.31
182.84	-618.13
183.06	-333.18
183.279	-201.23
183.499	-140.62
183.719	-130.56
183.938	-82.3
184.158	-112.86
184.377	-39.03
184.597	-117.13
184.816	-70.31
185.036	-32.5
185.256	-16.94
185.475	-45.14
185.695	-91.93
185.914	-164.09
186.134	-260.85
186.353	-481.25
186.572	-549.48
186.792	-1005.52
187.011	-375.6
187.231	-337.97
187.45	-260.82
187.67	-760.96
187.889	-2103
188.108	3497.26
188.328	-935.2
188.547	-347.6
188.766	-465.72
188.986	-700.29
189.205	-516.69
189.424	-387.05
189.644	-1247.03
189.863	-1269.81
190.082	-845
190.302	-1746.25
190.521	-1044.65
190.74	968.52
190.959	411.95
191.178	660.5
191.398	519.09
191.617	394.77
191.836	298.11
192.055	289.61
192.274	134.58
192.494	201.35
192.713	146.52
192.932	482.4
193.151	230.71
193.37	466.67
193.589	-236.33
193.808	-35.2
194.027	-163.16
194.246	-2084.92
194.465	609.61
194.685	1449.19
194.904	669.22
195.123	-1021.29
195.342	-525.05
195.561	-286.92
195.78	-431.15
195.999	21297.18
196.218	921.5
196.436	651.46
196.655	-2126.6
196.874	-688.11
197.093	-1034.86
197.312	-823.36
197.531	2012.17
197.75	709.98
197.969	-2200.95
198.188	-525.92
198.407	-126.81
198.625	-114.39
198.844	-107.56
199.063	-111.52
199.282	-179.51
199.501	-114.59
199.719	-51.16
199.938	-23.33
200.157	-30.43
200.376	-40.23
200.594	-49.98
200.813	-148.67
201.032	-117.09
201.251	-95.9
201.469	-101.78
201.688	-63.29
201.907	-112.48
202.125	-264.2
202.344	11036.9
202.563	1857.89
202.781	362.04
203	1045.09
203.218	740.3
203.437	592.27
203.656	327.46
203.874	190.77
204.093	217.91
204.311	268.04
204.53	213.87
204.748	276.22
204.967	140.4
205.185	107.3
205.404	130.1
205.622	78.4
205.841	69.74
206.059	62.05
206.278	-29.62
206.496	-93.87
206.715	22.73
206.933	112.18
207.151	128.86
207.37	164.7
207.588	177.18
207.806	182.27
208.025	382.04
208.243	-700.5
208.461	1183.71
208.68	-16764.71
208.898	630.69
209.116	729.5
209.335	593.7
209.553	611.55
209.771	6354.58
209.989	1268.8
210.208	2266.73
210.426	-4007.17
210.644	2154.8
210.862	-1875.12
211.081	957.73
211.299	-435.56
211.517	1740.76
211.735	-423.67
211.953	-137457.14
212.171	-2267.77
212.39	-6759.46
212.608	-19617.39
212.826	739.75
213.044	511.78
213.262	403.15
213.48	1731.01
213.698	220.14
213.916	297.19
214.134	203.19
214.352	522.45
214.57	334.38
214.788	432.85
215.006	402.77
215.224	299.13
215.442	201.24
215.66	180.3
215.878	145.91
216.096	142.29
216.314	145.4
216.532	259.39
216.75	123.29
216.968	126.53
217.185	280.78
217.403	592.49
217.621	-1746.1
217.839	-647.8
218.057	-722.27
218.275	1555.95
218.492	454.01
218.71	697.11
218.928	199.02
219.146	221.34
219.363	192.22
219.581	132.56
219.799	104.83
220.017	114.49
220.234	118.97
220.452	123.26
220.67	136.48
220.887	142.67
221.105	160.35
221.323	140.08
221.54	151.39
221.758	180.25
221.976	204
222.193	175.67
222.411	131
222.629	133.52
222.846	156.64
223.064	139.67
223.281	124
223.499	103.94
223.716	105.27
223.934	83.47
224.151	85.48
224.369	69.33
224.586	69.51
224.804	68.59
225.021	55.31
225.239	43.12
225.456	59.24
225.674	72.86
225.891	75.96
226.108	85.56
226.326	83.17
226.543	72.37
226.76	66.46
226.978	55.94
227.195	58.27
227.413	53.98
227.63	43.94
227.847	32.19
228.064	27.99
228.282	21.26
228.499	18.25
228.716	16.77
228.934	15.63
229.151	17.02
229.368	18.77
229.585	16.58
229.802	17.43
230.02	18.43
230.237	20.96
230.454	21.18
230.671	23.02
230.888	23.69
231.105	24.82
231.323	26.03
231.54	26.01
231.757	26.18
231.974	25.61
232.191	22.57
232.408	25.45
232.625	23.68
232.842	22.37
233.059	25.68
233.276	26.68
233.493	25.62
233.71	27.03
233.927	32.33
234.144	31.91
234.361	32.39
234.578	33.39
234.795	31.91
235.012	30.44
235.229	33.27
235.446	30.36
235.663	29.65
235.879	31.59
236.096	25.5
236.313	25.57
236.53	24.91
236.747	28.13
236.964	29.09
237.181	28.81
237.397	32.22
237.614	29.97
237.831	28.75
238.048	30.49
238.264	30.86
238.481	30.53
238.698	28.62
238.915	26.19
239.131	25.5
239.348	26.61
239.565	26.27
239.781	28.11
239.998	26.89
240.215	26.46
240.431	24.71
240.648	20.91
240.865	22.2
241.081	19.11
241.298	20.79
241.514	19.31
241.731	16.33
241.947	17.27
242.164	15.31
242.38	14.57
242.597	14.62
242.814	14.32
243.03	15.43
243.246	15.13
243.463	16.49
243.679	15.47
243.896	15.97
244.112	16.37
244.329	15.35
244.545	15.4
244.762	15.01
244.978	16.34
245.194	16.69
245.411	14.99
245.627	14.21
245.843	12.41
246.06	13.48
246.276	13.8
246.492	13.64
246.709	12.97
246.925	12.43
247.141	12.18
247.357	11.16
247.574	10.91
247.79	11.11
248.006	10.93
248.222	10.94
248.439	10.21
248.655	9.6
248.871	9.47
249.087	9.35
249.303	9.23
249.519	10.75
249.736	11.73
249.952	11.27
250.168	12.02
250.384	12.38
250.6	13.15
250.816	13.54
251.032	11.88
251.248	11.31
251.464	11.68
251.68	11.89
251.896	10.95
252.112	9.32
252.328	10.56
252.544	10.28
252.76	10.9
252.976	10.84
253.192	11.14
253.408	12.15
253.624	15.11
253.84	13.83
254.056	15.99
254.272	15.25
254.487	17.6
254.703	14.83
254.919	13.41
255.135	12.37
255.351	13.42
255.567	15.13
255.782	16.96
255.998	12.98
256.214	16.69
256.43	14.45
256.646	13.57
256.861	12.15
257.077	12.85
257.293	11.82
257.508	10.08
257.724	10.77
257.94	10.01
258.155	7.48
258.371	7.84
258.587	6.72
258.802	6.09
259.018	8.35
259.234	8.47
259.449	8.97
259.665	9.07
259.88	10.58
260.096	9.75
260.312	8.68
260.527	8.62
260.743	9.49
260.958	9.47
261.174	10.46
261.389	10.06
261.605	10.39
261.82	10.77
262.036	11.63
262.251	11.67
262.466	12.52
262.682	14.11
262.897	15.65
263.113	14.26
263.328	15.47
263.543	13.55
263.759	14.03
263.974	14.01
264.189	13.31
264.405	12.53
264.62	11.91
264.835	11.33
265.051	11.08
265.266	12.63
265.481	13.83
265.696	13.53
265.912	13.56
266.127	13.26
266.342	12.36
266.557	11.9
266.773	12.61
266.988	13.21
267.203	13.9
267.418	13.64
267.633	12.17
267.848	12.23
268.064	10.91
268.279	12.22
268.494	11.6
268.709	12.5
268.924	13.52
269.139	13.37
269.354	11.88
269.569	10.03
269.784	10.88
269.999	10.87
270.214	10.05
270.429	11.31
270.644	10.31
270.859	9.55
271.074	10.14
271.289	9.09
271.504	8.73
271.719	9.39
271.934	9.92
272.149	9.83
272.363	10.82
272.578	10.3
272.793	9.85
273.008	10.18
273.223	10.12
273.438	8.58
273.653	9.91
273.867	10.1
274.082	9.39
274.297	9.78
274.512	10.04
274.726	9.25
274.941	10.03
275.156	11.46
275.371	11.69
275.585	12.25
275.8	12.78
276.015	12.77
276.229	12.61
276.444	13.77
276.659	14.1
276.873	13.58
277.088	13.75
277.302	14.49
277.517	14.23
277.732	16.17
277.946	15.75
278.161	16.96
278.375	15.62
278.59	15.72
278.804	15.41
279.019	14.42
279.233	13.66
279.448	13.47
279.662	12.32
279.877	12.18
280.091	10.57
280.306	10.52
280.52	10.17
280.735	9.67
280.949	9.47
281.163	9.81
281.378	9.23
281.592	9.98
281.806	10.43
282.021	9.95
282.235	9.53
282.449	9.29
282.664	10.34
282.878	9.28
283.092	11.02
283.307	11.49
283.521	10.61
283.735	10.98
283.949	10.83
284.164	10.68
284.378	11.99
284.592	11.26
284.806	10.15
285.02	10.07
285.234	10.61
285.449	9.22
285.663	8.34
285.877	8.19
286.091	8.03
286.305	8.15
286.519	6.58
286.733	5.53
286.947	6.14
287.161	7.1
287.375	7.52
287.589	7.24
287.803	7.57
288.017	7.51
288.231	7.85
288.445	8.35
288.659	8.24
288.873	9.07
289.087	9.35
289.301	9.14
289.515	8.91
289.729	7.45
289.943	8.19
290.157	8.4
290.371	10.01
290.584	10.1
290.798	10.77
291.012	11.64
291.226	11.36
291.44	12.68
291.654	12.27
291.867	11.98
292.081	12.14
292.295	12.43
292.509	12.37
292.722	11.42
292.936	10.75
293.15	11.38
293.364	10.07
293.577	11.88
293.791	10.24
294.005	11.66
294.218	11.77
294.432	11.71
294.645	11.37
294.859	11.11
295.073	11.87
295.286	12.77
295.5	11.35
295.713	11.05
295.927	10.36
296.14	10.57
296.354	9.99
296.568	9.89
296.781	10.2
296.994	9.87
297.208	9.37
297.421	8.87
297.635	8.28
297.848	8.72
298.062	8.65
298.275	9.28
298.489	9.36
298.702	10.11
298.915	10.47
299.129	11.09
299.342	11.84
299.555	13.42
299.769	14.41
299.982	15.56
300.195	15.89
300.409	17.17
300.622	16.46
300.835	18.4
301.048	17.06
301.262	15.78
301.475	14.6
301.688	14.72
301.901	14.76
302.115	12.87
302.328	12.28
302.541	11.73
302.754	11.27
302.967	11.36
303.18	10.54
303.393	11.22
303.607	11.95
303.82	12.75
304.033	12.43
304.246	11.59
304.459	13
304.672	12.84
304.885	13.44
305.098	12.16
305.311	12.39
305.524	11.11
305.737	9.95
305.95	10.92
306.163	10.66
306.376	9.99
306.589	10.11
306.802	8.72
307.015	9.47
307.228	8.95
307.44	9.67
307.653	9.49
307.866	9.12
308.079	12.03
308.292	11.52
308.505	11.99
308.718	11.84
308.93	11.67
309.143	12.23
309.356	11.33
309.569	11.04
309.781	11.63
309.994	11.44
310.207	11.56
310.42	9.59
310.632	9.02
310.845	8.41
311.058	8.06
311.27	9.11
311.483	10.19
311.696	9.88
311.908	9.95
312.121	9.5
312.333	10.05
312.546	10.01
312.759	10
312.971	10.96
313.184	10.99
313.396	11.56
313.609	11.02
313.821	9.64
314.034	11.57
314.246	12.01
314.459	12.45
314.671	12.05
314.884	12.17
315.096	11.98
315.309	11.37
315.521	13.2
315.733	11.84
315.946	10.78
316.158	11.48
316.371	9.98
316.583	10.64
316.795	10.66
317.008	11.19
317.22	12.51
317.432	13.38
317.644	13.69
317.857	12.58
318.069	14.2
318.281	14.46
318.494	13.73
318.706	14.37
318.918	13.37
319.13	13.4
319.342	12.11
319.555	11.28
319.767	11.55
319.979	11.21
320.191	11.45
320.403	11.3
320.615	11.55
320.827	13.15
321.039	12.77
321.252	13.12
321.464	12.86
321.676	14
321.888	13.37
322.1	13.15
322.312	11.74
322.524	10.51
322.736	11.18
322.948	11
323.16	8.89
323.372	8.98
323.584	8.96
323.796	8.47
324.007	8.35
324.219	9.78
324.431	9.91
324.643	11.3
324.855	11.6
325.067	10.9
325.279	11.65
325.491	12.47
325.702	12
325.914	12.38
326.126	14.28
326.338	14.73
326.55	13.73
326.761	14.04
326.973	14.48
327.185	14.58
327.396	15.08
327.608	14.7
327.82	15.38
328.032	16.01
328.243	15.39
328.455	14.94
328.666	14.58
328.878	15.28
329.09	14.59
329.301	13.91
329.513	14.58
329.725	14.55
329.936	14.88
330.148	14.04
330.359	14.26
330.571	14.3
330.782	13.96
330.994	13.75
331.205	13.63
331.417	14.23
331.628	15
331.84	14.61
332.051	15.18
332.262	15.52
332.474	15.73
332.685	15.82
332.897	15.99
333.108	16.24
333.319	16.17
333.531	16.25
333.742	16.6
333.953	15.75
334.165	15.95
334.376	15.29
334.587	14.61
334.799	15.2
335.01	15.6
335.221	15.41
335.432	14.82
335.644	14.45
335.855	13.71
336.066	14.33
336.277	15.01
336.488	15.57
336.7	15.02
336.911	15.85
337.122	15.14
337.333	15.15
337.544	15.61
337.755	16.4
337.966	16.98
338.177	17.62
338.388	16.84
338.599	17.68
338.811	17.6
339.022	17.73
339.233	18.06
339.444	18.52
339.655	17.11
339.866	17.62
340.076	17.74
340.287	17.58
340.498	17.32
340.709	16.8
340.92	15.15
341.131	14.37
341.342	14.86
341.553	14.3
341.764	14.25
341.975	15.29
342.185	14.4
342.396	13.43
342.607	13.6
342.818	13.95
343.029	14.22
343.239	15.4
343.45	15.85
343.661	15.57
343.872	15.05
344.082	15.35
344.293	15.53
344.504	16.05
344.714	15.37
344.925	15.04
345.136	14.82
345.346	15.09
345.557	15.14
345.768	14.87
345.978	14.95
346.189	14.94
346.399	14.14
346.61	13.83
346.821	14.15
347.031	15.15
347.242	14.85
347.452	15.18
347.663	14.49
347.873	13.74
348.084	13.68
348.294	13.85
348.504	14.51
348.715	14.14
348.925	13.08
349.136	12.22
349.346	11.39
349.557	11.75
349.767	11.41
349.977	11.77
350.188	12.25
350.398	12.81
350.608	12.8
350.819	11.91
351.029	13.07
351.239	13.97
351.449	14.48
351.66	15.47
351.87	15.89
352.08	15.28
352.29	15.38
352.501	14.76
352.711	14.28
352.921	14.46
353.131	14.47
353.341	13.86
353.552	13.7
353.762	13.44
353.972	13.15
354.182	13.26
354.392	13.68
354.602	13.76
354.812	13.97
355.022	14.14
355.232	13.63
355.442	14.07
355.652	14.43
355.862	14.52
356.072	14.82
356.282	14.15
356.492	14.21
356.702	14.27
356.912	14.38
357.122	14.41
357.332	14.12
357.542	14.17
357.752	14.17
357.962	13.8
358.171	13.82
358.381	13.6
358.591	14.21
358.801	13.32
359.011	13.61
359.221	13.36
359.43	13.66
359.64	13.58
359.85	14.11
360.06	13.67
360.269	14.3
360.479	13.61
360.689	13.3
360.899	13.07
361.108	13.27
361.318	12.76
361.528	12.52
361.737	12.15
361.947	11.96
362.156	11.65
362.366	11.75
362.576	11.42
362.785	11.8
362.995	11.94
363.204	12.05
363.414	12.01
363.623	12.04
363.833	12.55
364.042	12.73
364.252	13.02
364.461	12.96
364.671	12.72
364.88	13.07
365.09	13.19
365.299	13.01
365.509	12.3
365.718	12.01
365.927	11.8
366.137	12.11
366.346	11.97
366.555	11.95
366.765	11.46
366.974	11.95
367.183	11.6
367.393	11.06
367.602	10.56
367.811	11.06
368.021	10.96
368.23	11.53
368.439	10.61
368.648	10.84
368.857	11.07
369.067	11.73
369.276	11.6
369.485	12.1
369.694	12.6
369.903	13.62
370.112	13.65
370.321	14.33
370.531	14.17
370.74	14.61
370.949	14.52
371.158	14.25
371.367	13.98
371.576	13.59
371.785	12.79
371.994	12.7
372.203	12.38
372.412	12.4
372.621	12.51
372.83	12.54
373.039	12.71
373.248	12
373.457	12.31
373.666	12.26
373.874	12.29
374.083	12.33
374.292	12.19
374.501	12.07
374.71	11.65
374.919	11.38
375.128	11.29
375.336	10.7
375.545	11.27
375.754	10.35
375.963	10.26
376.171	10.06
376.38	10.45
376.589	10.77
376.798	10.42
377.006	10.83
377.215	10.85
377.424	10.87
377.632	10.85
377.841	10.96
378.05	11.41
378.258	11.6
378.467	11.68
378.675	11.44
378.884	11.21
379.093	11.24
379.301	11
379.51	10.58
379.718	9.97
379.927	10.05
380.135	9.21
380.344	9.41
380.552	8.72
380.761	8.79
380.969	8.76
381.177	9.06
381.386	8.96
381.594	8.82
381.803	9.06
382.011	9.48
382.219	9.35
382.428	9.26
382.636	8.85
382.845	9.39
383.053	9.25
383.261	8.84
383.469	8.44
383.678	8.61
383.886	8.87
384.094	8.56
384.302	8.33
384.511	8.7
384.719	9.27
384.927	9.23
385.135	9.32
385.343	9.52
385.552	9.52
385.76	9.41
385.968	9.43
386.176	9.05
386.384	9.26
386.592	9.22
386.8	8.58
387.008	8.43
387.216	8.47
387.424	8.17
387.633	8.38
387.841	8.66
388.049	8.74
388.257	8.84
388.465	8.72
388.672	8.93
388.88	9.07
389.088	9.69
389.296	9.76
389.504	10.04
389.712	10.13
389.92	9.73
390.128	9.6
390.336	9.71
390.544	9.97
390.751	9.64
390.959	9.52
391.167	9.4
391.375	9.33
391.583	8.84
391.79	8.57
391.998	8.7
392.206	8.87
392.414	8.68
392.621	8.53
392.829	8.25
393.037	8.56
393.244	8.42
393.452	8.45
393.66	8.26
393.867	8.69
394.075	8.67
394.283	8.59
394.49	8.39
394.698	8.59
394.905	8.51
395.113	8.25
395.32	8.44
395.528	8.56
395.735	8.68
395.943	8.41
396.15	8.14
396.358	8.1
396.565	7.93
396.773	8.21
396.98	8.08
397.188	8.15
397.395	8.48
397.602	8.48
397.81	8.29
398.017	8.48
398.225	8.71
398.432	8.86
398.639	9
398.847	9.06
399.054	8.65
399.261	8.46
399.468	8.38
399.676	7.93
399.883	7.63
400.09	7.65
400.297	7.24
400.505	7.28
400.712	7.07
400.919	7.12
401.126	7.2
401.333	7.31
401.54	7.73
401.748	7.85
401.955	8.26
402.162	8.48
402.369	8.3
402.576	8.44
402.783	8.56
402.99	8.75
403.197	8.38
403.404	8.12
403.611	8.22
403.818	8.03
404.025	7.89
404.232	7.76
404.439	7.61
404.646	7.52
404.853	7.43
405.06	7.26
405.267	7.14
405.474	7.22
405.681	7.11
405.887	7.11
406.094	7.07
406.301	7.14
406.508	7.16
406.715	7.19
406.922	7.52
407.128	7.51
407.335	7.42
407.542	7.38
407.749	7.59
407.955	7.93
408.162	7.86
408.369	8.11
408.575	8.04
408.782	8.13
408.989	8.12
409.195	8.05
409.402	8.23
409.609	8.32
409.815	8.58
410.022	8.65
410.228	8.39
410.435	8.51
410.642	7.97
410.848	7.98
411.055	7.77
411.261	7.87
411.468	7.95
411.674	7.7
411.881	7.58
412.087	7.53
412.294	7.5
412.5	7.53
412.706	7.53
412.913	7.85
413.119	7.77
413.326	7.75
413.532	7.82
413.738	7.67
413.945	8
414.151	8.09
414.357	8.06
414.564	7.79
414.77	7.93
414.976	7.64
415.182	7.82
415.389	7.89
415.595	7.87
415.801	7.79
416.007	7.92
416.214	7.69
416.42	7.63
416.626	7.59
416.832	7.7
417.038	7.58
417.244	7.74
417.45	7.55
417.657	7.63
417.863	7.77
418.069	7.8
418.275	7.78
418.481	7.76
418.687	7.74
418.893	7.62
419.099	7.6
419.305	7.69
419.511	7.68
419.717	7.75
419.923	7.66
420.129	7.66
420.335	7.61
420.541	7.56
420.746	7.57
420.952	7.51
421.158	7.62
421.364	7.67
421.57	7.7
421.776	7.7
421.982	7.6
422.187	7.56
422.393	7.53
422.599	7.47
422.805	7.45
423.01	7.42
423.216	7.35
423.422	7.3
423.628	7.26
423.833	7.18
424.039	7.14
424.245	7.22
424.45	7.4
424.656	7.38
424.862	7.37
425.067	7.39
425.273	7.27
425.478	7.48
425.684	7.46
425.889	7.59
426.095	7.57
426.301	7.54
426.506	7.52
426.712	7.45
426.917	7.47
427.123	7.69
427.328	7.74
427.533	8
427.739	7.96
427.944	8.02
428.15	7.8
428.355	7.84
428.561	7.81
428.766	7.73
428.971	7.64
429.177	7.68
429.382	7.62
429.587	7.6
429.793	7.42
429.998	7.31
430.203	7.3
430.408	7.34
430.614	7.29
430.819	7.3
431.024	7.51
431.229	7.57
431.434	7.59
431.64	7.45
431.845	7.31
432.05	7.44
432.255	7.56
432.46	7.42
432.665	7.27
432.87	7.32
433.076	7.44
433.281	7.39
433.486	7.31
433.691	7.12
433.896	6.94
434.101	7
434.306	6.95
434.511	6.82
434.716	6.95
434.921	7.24
435.126	7.29
435.331	7.14
435.535	7.09
435.74	7.19
435.945	7.29
436.15	7.55
436.355	7.67
436.56	7.71
436.765	7.83
436.97	7.68
437.174	7.5
437.379	7.47
437.584	7.59
437.789	7.49
437.993	7.52
438.198	7.48
438.403	7.51
438.608	7.5
438.812	7.43
439.017	7.41
439.222	7.47
439.426	7.51
439.631	7.54
439.836	7.45
440.04	7.52
440.245	7.36
440.45	7.39
440.654	7.31
440.859	7.19
441.063	7.21
441.268	7.15
441.472	7.22
441.677	7.17
441.881	6.93
442.086	6.91
442.29	6.84
442.495	6.93
442.699	7.02
442.904	7.09
443.108	7.13
443.312	7.14
443.517	7.23
443.721	7.02
443.925	7.13
444.13	7.47
444.334	7.53
444.538	7.36
444.743	7.21
444.947	7.13
445.151	7.1
445.356	7.14
445.56	7.21
445.764	7.16
445.968	7.23
446.173	7.19
446.377	7.18
446.581	7.25
446.785	7.43
446.989	7.52
447.193	7.45
447.398	7.41
447.602	7.38
447.806	7.3
448.01	7.34
448.214	7.5
448.418	7.43
448.622	7.4
448.826	7.16
449.03	7.21
449.234	7.29
449.438	7.36
449.642	7.42
449.846	7.28
450.05	7.35
450.254	7.18
450.458	7.16
450.662	7.21
450.866	7.1
451.069	7.2
451.273	7.14
451.477	6.95
451.681	7.08
451.885	6.85
452.089	7.05
452.292	7.03
452.496	7.16
452.7	6.95
452.904	6.84
453.107	6.76
453.311	6.8
453.515	6.73
453.719	6.65
453.922	6.47
454.126	6.51
454.33	6.5
454.533	6.39
454.737	6.42
454.94	6.53
455.144	6.68
455.348	6.81
455.551	6.9
455.755	6.72
455.958	6.9
456.162	7
456.365	7.14
456.569	7.02
456.772	7.01
456.976	6.93
457.179	6.92
457.383	6.95
457.586	7.12
457.79	7.14
457.993	7.41
458.196	7.18
458.4	7.12
458.603	6.99
458.807	7.15
459.01	7.29
459.213	7.19
459.417	7.05
459.62	7.14
459.823	7
460.026	6.88
