Data from LC_168_Reflection_2.txt Node
Date: Mon Nov 16 23:07:07 EST 2015
User: robert
Spectrometer: USB4E03001
Autoset integration time: false
Trigger mode: 4
Integration Time (sec): 1.000000E-1
Scans to average: 15
Electric dark correction enabled: true
Nonlinearity correction enabled: false
Boxcar width: 5
Stray light correction enabled: false
XAxis mode: Wavelengths
Stop averaging: false
Number of Pixels in Spectrum: 3648
>>>>>Begin Spectral Data<<<<<
177.566	4546.99
177.785	406.45
178.005	-2502.52
178.225	205.39
178.445	134.7
178.665	-156.85
178.885	359.66
179.105	1438.32
179.324	2714.02
179.544	-208.75
179.764	-953.15
179.984	-346.59
180.204	-420.43
180.423	-272.5
180.643	-407.44
180.863	-275.32
181.083	-216.53
181.302	-234.48
181.522	-162.68
181.742	-145.53
181.961	-308.05
182.181	-284.66
182.401	-374.25
182.621	-1528.92
182.84	-856.19
183.06	-535.9
183.279	-291.6
183.499	-232.71
183.719	-228.43
183.938	-224.82
184.158	-216.18
184.377	-157.69
184.597	-272.86
184.816	-181.33
185.036	-124.43
185.256	-100.14
185.475	-134.78
185.695	-226.17
185.914	-331.04
186.134	-499.16
186.353	-718.47
186.572	-942.01
186.792	-1275.86
187.011	-452.55
187.231	-482.31
187.45	-348.85
187.67	-873.55
187.889	-2316.88
188.108	3748.52
188.328	-993.45
188.547	-383.76
188.766	-650.43
188.986	-1020.21
189.205	-693.77
189.424	-440.23
189.644	-1217.68
189.863	-1310.23
190.082	-864.15
190.302	-1833.16
190.521	-1025
190.74	972.73
190.959	435.84
191.178	754.55
191.398	612.03
191.617	616.5
191.836	562.02
192.055	1165.7
192.274	477.56
192.494	456.58
192.713	490.05
192.932	1181.77
193.151	1079.09
193.37	1934.81
193.589	-926.85
193.808	-260.92
194.027	-320.02
194.246	-3260.06
194.465	635.79
194.685	1642.71
194.904	827.36
195.123	-1135.73
195.342	-638.48
195.561	-284.95
195.78	-488.75
195.999	20338.03
196.218	578.5
196.436	531.11
196.655	-1822.63
196.874	-694.76
197.093	-868.41
197.312	-708.55
197.531	1984.03
197.75	732.26
197.969	-2525.53
198.188	-564.4
198.407	-166.71
198.625	-286.08
198.844	-218.83
199.063	-227.86
199.282	-428.81
199.501	-263.43
199.719	-173.29
199.938	-101.56
200.157	-108.04
200.376	-119.24
200.594	-165.16
200.813	-398.04
201.032	-211.8
201.251	-187.41
201.469	-165.88
201.688	-135.59
201.907	-301.51
202.125	-491.24
202.344	19728.57
202.563	3273.49
202.781	493.7
203	1455.36
203.218	1038.72
203.437	914.96
203.656	498.78
203.874	282.66
204.093	247.47
204.311	297.31
204.53	324.1
204.748	453.48
204.967	312.98
205.185	324.47
205.404	334.66
205.622	232.19
205.841	197.59
206.059	221.96
206.278	292.48
206.496	817.85
206.715	409.11
206.933	296.89
207.151	294.98
207.37	336.61
207.588	344.57
207.806	324.46
208.025	653.27
208.243	-1257.14
208.461	1717.34
208.68	-17064.71
208.898	704.73
209.116	894.84
209.335	950.75
209.553	974.02
209.771	9364.17
209.989	1744.26
210.208	3822.81
210.426	-6135.15
210.644	3223.68
210.862	-3137.24
211.081	1533.69
211.299	-708.16
211.517	2896.2
211.735	-705.61
211.953	-209628.57
212.171	-3930.42
212.39	-12364.86
212.608	-33002.17
212.826	1446.75
213.044	1109.44
213.262	892.82
213.48	4785.23
213.698	521.54
213.916	689.93
214.134	485.26
214.352	984.87
214.57	574.8
214.788	726.81
215.006	607.35
215.224	467.55
215.442	354.3
215.66	275
215.878	232.63
216.096	225.87
216.314	221.61
216.532	359.82
216.75	306.17
216.968	302.03
217.185	825.28
217.403	1539.27
217.621	-4701.42
217.839	-1349.53
218.057	-1807.73
218.275	2964.18
218.492	958.15
218.71	1649.21
218.928	473.21
219.146	443.76
219.363	361.47
219.581	255.08
219.799	177.09
220.017	162.69
220.234	155.76
220.452	176.54
220.67	193.18
220.887	199.28
221.105	202.78
221.323	163.28
221.54	165.19
221.758	223.14
221.976	242.12
222.193	245.28
222.411	152.07
222.629	151.89
222.846	143.54
223.064	148.3
223.281	144.91
223.499	126.11
223.716	131.52
223.934	97.38
224.151	96.12
224.369	82.61
224.586	84.51
224.804	100.7
225.021	108.59
225.239	86.19
225.456	85.09
225.674	68.65
225.891	70.27
226.108	81.9
226.326	88.17
226.543	77.2
226.76	76.66
226.978	67.4
227.195	71.7
227.413	60.31
227.63	57.07
227.847	52.45
228.064	48.86
228.282	42.66
228.499	37.4
228.716	33.22
228.934	30.54
229.151	29.46
229.368	28.24
229.585	26.02
229.802	26.14
230.02	24.88
230.237	25.93
230.454	26.5
230.671	28.74
230.888	29.92
231.105	30.74
231.323	30.78
231.54	31.21
231.757	31.19
231.974	31.6
232.191	33.37
232.408	39.68
232.625	37.44
232.842	40.82
233.059	37.86
233.276	38.58
233.493	41.28
233.71	43.54
233.927	46.36
234.144	47.17
234.361	42.53
234.578	44.3
234.795	39.27
235.012	39.02
235.229	36.4
235.446	37.85
235.663	37.91
235.879	38.64
236.096	36.59
236.313	33.59
236.53	35
236.747	39.48
236.964	38.43
237.181	42.92
237.397	45.47
237.614	47.77
237.831	50.74
238.048	45.83
238.264	45.31
238.481	42.16
238.698	43.5
238.915	37.49
239.131	36.75
239.348	35.62
239.565	34.26
239.781	35.61
239.998	33.62
240.215	30.09
240.431	31.3
240.648	32.26
240.865	33.28
241.081	31.41
241.298	32.25
241.514	31.96
241.731	30.21
241.947	28.89
242.164	25.8
242.38	24.76
242.597	23.91
242.814	23.04
243.03	20.45
243.246	19.85
243.463	19.64
243.679	19.5
243.896	17.58
244.112	18.5
244.329	18.38
244.545	19.95
244.762	20.32
244.978	21.87
245.194	21.28
245.411	22.13
245.627	20.46
245.843	19.86
246.06	19.03
246.276	19.63
246.492	18.28
246.709	17.74
246.925	16.17
247.141	16.14
247.357	15.84
247.574	15.79
247.79	15.58
248.006	15.78
248.222	16.64
248.439	16.73
248.655	16.75
248.871	16.91
249.087	17.16
249.303	17.54
249.519	17.81
249.736	18.87
249.952	19.57
250.168	22.71
250.384	24.22
250.6	22.34
250.816	21.93
251.032	20.11
251.248	19.71
251.464	18.75
251.68	18.92
251.896	18.33
252.112	18.11
252.328	20.25
252.544	17.68
252.76	18.06
252.976	16.7
253.192	16.63
253.408	18.18
253.624	21.5
253.84	21.47
254.056	24.3
254.272	24.8
254.487	23.71
254.703	20.83
254.919	20.26
255.135	18.15
255.351	24.34
255.567	27.69
255.782	28.91
255.998	24.93
256.214	24.74
256.43	21.57
256.646	22.81
256.861	22.24
257.077	24.9
257.293	25.87
257.508	26.05
257.724	25.07
257.94	22.76
258.155	21.42
258.371	19.79
258.587	18.4
258.802	17.64
259.018	17.42
259.234	15.39
259.449	14.55
259.665	13.7
259.88	14.39
260.096	13.69
260.312	13.01
260.527	12.8
260.743	13.26
260.958	14.05
261.174	14.29
261.389	14.31
261.605	16.11
261.82	16.31
262.036	17.4
262.251	17.55
262.466	17.4
262.682	19.09
262.897	19.44
263.113	18.83
263.328	19.37
263.543	20.08
263.759	20.1
263.974	20.01
264.189	20.25
264.405	20.33
264.62	18.52
264.835	20.38
265.051	20.2
265.266	21.07
265.481	23.07
265.696	23.68
265.912	23.12
266.127	20.31
266.342	17.93
266.557	17.72
266.773	17.44
266.988	17.02
267.203	16.9
267.418	15.37
267.633	13.84
267.848	14.59
268.064	13
268.279	12.53
268.494	13.54
268.709	15.69
268.924	15.54
269.139	16.07
269.354	15.59
269.569	14.8
269.784	16.32
269.999	17.87
270.214	16.41
270.429	18.85
270.644	17.99
270.859	16.51
271.074	15.69
271.289	15.35
271.504	14.77
271.719	15.41
271.934	15.66
272.149	15.98
272.363	15.46
272.578	14.56
272.793	12.35
273.008	12.86
273.223	14.66
273.438	14.36
273.653	14.25
273.867	13.57
274.082	13.91
274.297	13.27
274.512	13.03
274.726	12.57
274.941	14.45
275.156	14.81
275.371	15.28
275.585	15.34
275.8	16.51
276.015	16.08
276.229	17.1
276.444	17.33
276.659	17.27
276.873	17.53
277.088	17.62
277.302	17.44
277.517	18.73
277.732	20.34
277.946	20
278.161	19.67
278.375	20.55
278.59	20.98
278.804	20.62
279.019	21.48
279.233	21.13
279.448	20.85
279.662	18.76
279.877	18.5
280.091	17.23
280.306	16.18
280.52	16.88
280.735	15.6
280.949	14.82
281.163	16.33
281.378	14.67
281.592	13.94
281.806	14.1
282.021	14.14
282.235	15.05
282.449	15.96
282.664	16.97
282.878	15.85
283.092	17.28
283.307	17.29
283.521	15.92
283.735	16.73
283.949	17.64
284.164	17.79
284.378	18.46
284.592	16.06
284.806	14.38
285.02	13.75
285.234	13.53
285.449	12.28
285.663	12.72
285.877	12.75
286.091	12.23
286.305	11.5
286.519	11.32
286.733	10.48
286.947	11.37
287.161	11.45
287.375	11.88
287.589	11.87
287.803	12.63
288.017	12.34
288.231	11.36
288.445	11.6
288.659	12.36
288.873	11.76
289.087	12.16
289.301	12.15
289.515	13.12
289.729	11.92
289.943	12.52
290.157	12.56
290.371	13.66
290.584	14.58
290.798	15.16
291.012	15.2
291.226	15.14
291.44	16.37
291.654	16.48
291.867	15.84
292.081	15.63
292.295	16.14
292.509	16.53
292.722	15.02
292.936	14.11
293.15	14.59
293.364	13.86
293.577	15.04
293.791	13.6
294.005	15.25
294.218	15.24
294.432	16.7
294.645	14.9
294.859	13.84
295.073	14.61
295.286	15.54
295.5	14.42
295.713	15.03
295.927	14.81
296.14	15.71
296.354	13.81
296.568	13.93
296.781	13.41
296.994	13.85
297.208	14.06
297.421	13.6
297.635	13.76
297.848	14.12
298.062	13.8
298.275	14.57
298.489	13.98
298.702	14.7
298.915	14.89
299.129	15.29
299.342	15.8
299.555	16
299.769	16.67
299.982	16.95
300.195	16.11
300.409	16.05
300.622	15.47
300.835	16.95
301.048	16.17
301.262	16.41
301.475	16.83
301.688	17.01
301.901	17.36
302.115	17.03
302.328	17.4
302.541	17.93
302.754	17.85
302.967	18.45
303.18	18.33
303.393	18.95
303.607	18.78
303.82	19.11
304.033	18.18
304.246	18.23
304.459	17.89
304.672	17.41
304.885	18.54
305.098	18.03
305.311	16.82
305.524	16.8
305.737	16.98
305.95	17.61
306.163	16.45
306.376	17.06
306.589	17.04
306.802	17.54
307.015	17.78
307.228	17.49
307.44	18.22
307.653	17.92
307.866	15.42
308.079	16.65
308.292	16.27
308.505	16.52
308.718	16.98
308.93	16.95
309.143	17.33
309.356	17
309.569	16.1
309.781	16.83
309.994	17.34
310.207	18.6
310.42	17.61
310.632	16.97
310.845	16.52
311.058	15.89
311.27	14.88
311.483	13.9
311.696	13.74
311.908	14.01
312.121	13.36
312.333	14.02
312.546	13.62
312.759	12.91
312.971	12.72
313.184	13.78
313.396	14.28
313.609	15.18
313.821	15.47
314.034	15.9
314.246	16.04
314.459	16.44
314.671	15.68
314.884	15.32
315.096	15.17
315.309	15.34
315.521	14.73
315.733	13.62
315.946	13.11
316.158	13.39
316.371	13.54
316.583	14.03
316.795	13.93
317.008	14.9
317.22	16.1
317.432	16.68
317.644	16.57
317.857	16.21
318.069	16.74
318.281	17.34
318.494	15.77
318.706	16.14
318.918	15.04
319.13	14.95
319.342	14.08
319.555	13.67
319.767	14.23
319.979	14.95
320.191	15.04
320.403	15.9
320.615	16.08
320.827	18.07
321.039	16.22
321.252	16.66
321.464	16.32
321.676	15.79
321.888	14.73
322.1	15.56
322.312	13.29
322.524	13.33
322.736	12.35
322.948	12.01
323.16	11.82
323.372	12.5
323.584	11.33
323.796	10.86
324.007	10.96
324.219	12.3
324.431	11.91
324.643	13.03
324.855	12.54
325.067	13.1
325.279	13.28
325.491	12.62
325.702	12.51
325.914	13.94
326.126	15.09
326.338	15.72
326.55	14.96
326.761	14.78
326.973	15.18
327.185	16.69
327.396	17.07
327.608	17.95
327.82	18.35
328.032	18.17
328.243	17.55
328.455	17.62
328.666	16.52
328.878	16.79
329.09	15.75
329.301	15.09
329.513	14.33
329.725	13.3
329.936	12.1
330.148	12.51
330.359	12.05
330.571	12.03
330.782	11.21
330.994	12.59
331.205	12.8
331.417	14.04
331.628	15.54
331.84	15.9
332.051	15.92
332.262	17.18
332.474	16.43
332.685	17.96
332.897	17.32
333.108	18.17
333.319	16.83
333.531	16.26
333.742	16.3
333.953	15.33
334.165	14.35
334.376	14.12
334.587	13.08
334.799	14.27
335.01	13.41
335.221	14.32
335.432	13.58
335.644	13.71
335.855	13.62
336.066	14.18
336.277	14.24
336.488	14.72
336.7	15.04
336.911	15.42
337.122	14.74
337.333	15.21
337.544	15.58
337.755	16.39
337.966	16.87
338.177	17.29
338.388	17.12
338.599	18.39
338.811	18.27
339.022	17.94
339.233	17.64
339.444	17.86
339.655	16.7
339.866	17.25
340.076	17.37
340.287	17.7
340.498	17.34
340.709	16.49
340.92	15.02
341.131	15.69
341.342	16.04
341.553	16.45
341.764	16.05
341.975	17.34
342.185	16.72
342.396	15.72
342.607	15.09
342.818	15.32
343.029	15.37
343.239	15.86
343.45	15.47
343.661	14.88
343.872	14.32
344.082	14.55
344.293	14.13
344.504	15.86
344.714	15.2
344.925	15.49
345.136	15.79
345.346	14.86
345.557	15.15
345.768	15.1
345.978	15.26
346.189	15.81
346.399	15.14
346.61	15.53
346.821	13.44
347.031	14.64
347.242	13.85
347.452	13.3
347.663	14.21
347.873	13.96
348.084	13.41
348.294	14.04
348.504	13.27
348.715	13.77
348.925	13.15
349.136	12.76
349.346	11.64
349.557	12
349.767	12.81
349.977	13.35
350.188	13.7
350.398	14.16
350.608	14
350.819	13.74
351.029	13.91
351.239	13.55
351.449	14.27
351.66	14.69
351.87	15.28
352.08	14.75
352.29	13.55
352.501	12.31
352.711	12.18
352.921	12.4
353.131	13.3
353.341	12.61
353.552	12.69
353.762	12.44
353.972	12.23
354.182	13.23
354.392	12.91
354.602	13.76
354.812	14.23
355.022	14.41
355.232	14.06
355.442	13.76
355.652	14.19
355.862	13.76
356.072	14.19
356.282	13.55
356.492	12.33
356.702	12.69
356.912	13.19
357.122	13.56
357.332	13.31
357.542	13.17
357.752	13.15
357.962	12.98
358.171	13.12
358.381	13.39
358.591	13.7
358.801	14.06
359.011	13.99
359.221	13.56
359.43	13.23
359.64	13.71
359.85	13.47
360.06	13.53
360.269	13.58
360.479	13.68
360.689	12.66
360.899	12.7
361.108	12.27
361.318	12.03
361.528	11.48
361.737	11.37
361.947	10.57
362.156	10.8
362.366	10.57
362.576	10.42
362.785	10.38
362.995	10.47
363.204	10.97
363.414	11.19
363.623	10.82
363.833	11.3
364.042	11.07
364.252	11.65
364.461	11.44
364.671	11.25
364.88	11.46
365.09	11.84
365.299	12.26
365.509	11.67
365.718	11.18
365.927	11.54
366.137	11.47
366.346	12.54
366.555	12.04
366.765	12.22
366.974	12.51
367.183	12.4
367.393	11.76
367.602	11.17
367.811	11.29
368.021	11.09
368.23	11.04
368.439	10.46
368.648	9.35
368.857	9.95
369.067	9.8
369.276	9.27
369.485	9.5
369.694	10.08
369.903	10.77
370.112	10.93
370.321	11.13
370.531	10.95
370.74	10.92
370.949	10.83
371.158	10.57
371.367	10.83
371.576	10.83
371.785	10.14
371.994	9.88
372.203	9.65
372.412	10.2
372.621	10.6
372.83	10.27
373.039	10.71
373.248	10.89
373.457	10.9
373.666	10.79
373.874	10.92
374.083	11.57
374.292	11.32
374.501	11.09
374.71	10.56
374.919	10.78
375.128	11.08
375.336	11.21
375.545	11.5
375.754	11.07
375.963	10.78
376.171	10.77
376.38	10.57
376.589	10.73
376.798	10.9
377.006	10.77
377.215	10.79
377.424	10.9
377.632	10.49
377.841	10.3
378.05	10.33
378.258	10.55
378.467	10.53
378.675	10.63
378.884	10.78
379.093	10.4
379.301	10.22
379.51	9.4
379.718	9.28
379.927	9.58
380.135	8.89
380.344	9.18
380.552	9.21
380.761	9.36
380.969	8.99
381.177	9.01
381.386	8.75
381.594	8.64
381.803	9.1
382.011	8.9
382.219	8.45
382.428	8.6
382.636	8.06
382.845	7.88
383.053	7.64
383.261	7.52
383.469	7.73
383.678	8.35
383.886	8.17
384.094	7.55
384.302	7.92
384.511	8.44
384.719	8.95
384.927	9.19
385.135	9.48
385.343	9.81
385.552	9.98
385.76	9.62
385.968	9.17
386.176	9.29
386.384	9.58
386.592	9.21
386.8	8.65
387.008	8.57
387.216	8.73
387.424	8.57
387.633	8.65
387.841	8.45
388.049	8.44
388.257	8.4
388.465	8.37
388.672	8.64
388.88	8.75
389.088	9.02
389.296	8.58
389.504	8.62
389.712	8.4
389.92	7.85
390.128	7.74
390.336	7.71
390.544	8.21
390.751	8.18
390.959	8.17
391.167	8.1
391.375	8.18
391.583	8.31
391.79	7.98
391.998	7.82
392.206	8.11
392.414	8.14
392.621	8.16
392.829	7.97
393.037	7.85
393.244	7.96
393.452	8.13
393.66	8.2
393.867	8.46
394.075	8.52
394.283	8.61
394.49	8.18
394.698	8.27
394.905	7.99
395.113	7.87
395.32	7.98
395.528	7.68
395.735	7.51
395.943	7.28
396.15	6.96
396.358	7.01
396.565	7.06
396.773	7.66
396.98	7.95
397.188	8.12
397.395	8.04
397.602	8.08
397.81	8.02
398.017	8.36
398.225	8.37
398.432	8.47
398.639	8.61
398.847	8.57
399.054	8.02
399.261	7.46
399.468	7.45
399.676	7.33
399.883	7.28
400.09	7.5
400.297	7.23
400.505	7.22
400.712	7.12
400.919	7.19
401.126	7.29
401.333	7.51
401.54	7.84
401.748	7.8
401.955	8.03
402.162	8.16
402.369	7.8
402.576	7.91
402.783	7.84
402.99	7.72
403.197	7.28
403.404	6.93
403.611	7.16
403.818	7.26
404.025	7.15
404.232	7.02
404.439	6.81
404.646	6.68
404.853	6.41
405.06	6.37
405.267	6.39
405.474	6.5
405.681	6.62
405.887	6.39
406.094	6.2
406.301	6.42
406.508	6.36
406.715	6.46
406.922	6.68
407.128	6.84
407.335	6.79
407.542	6.79
407.749	6.84
407.955	7.25
408.162	7.22
408.369	7.59
408.575	7.22
408.782	7.2
408.989	6.96
409.195	6.96
409.402	7.03
409.609	7.19
409.815	7.17
410.022	7.31
410.228	7.17
410.435	7.25
410.642	6.84
410.848	7.21
411.055	7.23
411.261	7.37
411.468	7.38
411.674	7.28
411.881	7.32
412.087	7.45
412.294	7.21
412.5	6.79
412.706	6.86
412.913	6.84
413.119	6.72
413.326	6.66
413.532	6.96
413.738	6.68
413.945	6.69
414.151	6.43
414.357	6.56
414.564	6.83
414.77	6.94
414.976	6.78
415.182	6.98
415.389	6.99
415.595	7.01
415.801	6.82
416.007	7.18
416.214	7.2
416.42	7.33
416.626	6.92
416.832	6.85
417.038	6.88
417.244	6.95
417.45	6.68
417.657	6.58
417.863	6.66
418.069	6.75
418.275	6.68
418.481	6.56
418.687	6.52
418.893	6.65
419.099	6.47
419.305	6.58
419.511	6.45
419.717	6.62
419.923	6.57
420.129	6.47
420.335	6.33
420.541	6.24
420.746	6.2
420.952	6.26
421.158	6.19
421.364	6.11
421.57	6.09
421.776	6.18
421.982	6.08
422.187	5.93
422.393	5.95
422.599	5.88
422.805	5.85
423.01	5.84
423.216	5.66
423.422	5.65
423.628	5.8
423.833	5.68
424.039	5.62
424.245	5.72
424.45	6.03
424.656	5.97
424.862	6.04
425.067	6.09
425.273	6.11
425.478	6.24
425.684	6.36
425.889	6.54
426.095	6.53
426.301	6.59
426.506	6.53
426.712	6.44
426.917	6.43
427.123	6.48
427.328	6.5
427.533	6.65
427.739	6.47
427.944	6.45
428.15	6.04
428.355	6.14
428.561	6.09
428.766	6
428.971	5.95
429.177	6.12
429.382	6.2
429.587	6.24
429.793	6.08
429.998	6.33
430.203	6.24
430.408	6.44
430.614	6.52
430.819	6.4
431.024	6.53
431.229	6.63
431.434	6.56
431.64	6.3
431.845	6.44
432.05	6.58
432.255	6.56
432.46	6.52
432.665	6.46
432.87	6.42
433.076	6.56
433.281	6.65
433.486	6.46
433.691	6.29
433.896	6.3
434.101	6.14
434.306	6.22
434.511	5.96
434.716	6.17
434.921	6.12
435.126	5.98
435.331	5.79
435.535	5.58
435.74	5.58
435.945	5.85
436.15	5.97
436.355	6.14
436.56	6.15
436.765	6.5
436.97	6.35
437.174	6.36
437.379	6.51
437.584	6.71
437.789	6.78
437.993	6.88
438.198	6.85
438.403	6.83
438.608	6.8
438.812	6.33
439.017	6.12
439.222	6.01
439.426	6.1
439.631	6.1
439.836	5.88
440.04	5.84
440.245	5.84
440.45	5.87
440.654	5.9
440.859	5.66
441.063	5.85
441.268	5.92
441.472	5.94
441.677	5.91
441.881	5.81
442.086	5.86
442.29	5.84
442.495	5.66
442.699	5.53
442.904	5.42
443.108	5.52
443.312	5.51
443.517	5.54
443.721	5.58
443.925	5.51
444.13	5.48
444.334	5.56
444.538	5.61
444.743	5.77
444.947	5.85
445.151	5.85
445.356	5.77
445.56	5.79
445.764	5.79
445.968	5.84
446.173	5.84
446.377	5.9
446.581	5.92
446.785	5.88
446.989	5.81
447.193	5.73
447.398	5.7
447.602	5.83
447.806	5.91
448.01	6.02
448.214	5.96
448.418	6.03
448.622	6.11
448.826	6.13
449.03	6.23
449.234	6.25
449.438	6.26
449.642	6.37
449.846	6.33
450.05	6.32
450.254	6.05
450.458	6.34
450.662	6.24
450.866	6.09
451.069	6.07
451.273	5.98
451.477	6.03
451.681	5.98
451.885	5.91
452.089	5.98
452.292	5.93
452.496	6.11
452.7	5.88
452.904	5.89
453.107	5.94
453.311	5.88
453.515	5.92
453.719	5.89
453.922	6.08
454.126	6
454.33	5.9
454.533	5.77
454.737	5.67
454.94	5.65
455.144	5.71
455.348	5.66
455.551	5.69
455.755	5.49
455.958	5.52
456.162	5.31
456.365	5.56
456.569	5.39
456.772	5.52
456.976	5.56
457.179	5.45
457.383	5.41
457.586	5.66
457.79	5.6
