Data from LC_167_Reflection_1.txt Node
Date: Mon Nov 16 23:04:03 EST 2015
User: robert
Spectrometer: USB4E03001
Autoset integration time: false
Trigger mode: 4
Integration Time (sec): 1.000000E-1
Scans to average: 15
Electric dark correction enabled: true
Nonlinearity correction enabled: false
Boxcar width: 5
Stray light correction enabled: false
XAxis mode: Wavelengths
Stop averaging: false
Number of Pixels in Spectrum: 3648
>>>>>Begin Spectral Data<<<<<
177.566	3345.78
177.785	246.74
178.005	-3606.72
178.225	202.37
178.445	432.79
178.665	73.63
178.885	133.05
179.105	884.11
179.324	744.39
179.544	-126.83
179.764	-1076.43
179.984	-165.54
180.204	-124.31
180.423	-164.71
180.643	-220.92
180.863	-177.47
181.083	-112.98
181.302	-187.2
181.522	-120.69
181.742	-149.22
181.961	-307.33
182.181	-239.9
182.401	-416.79
182.621	-1960.54
182.84	-970.48
183.06	-603.1
183.279	-366.64
183.499	-280.84
183.719	-211.41
183.938	-230.45
184.158	-231.44
184.377	-118.13
184.597	-198.52
184.816	-123.27
185.036	-61.06
185.256	-46.44
185.475	-61.62
185.695	-134.79
185.914	-203.14
186.134	-425.11
186.353	-628.13
186.572	-897.21
186.792	-1476.53
187.011	-654.16
187.231	-579.31
187.45	-425.49
187.67	-1058.17
187.889	-2834.88
188.108	4524.05
188.328	-1108.07
188.547	-412.52
188.766	-670.35
188.986	-858.4
189.205	-684.01
189.424	-438.62
189.644	-1294.73
189.863	-1397.91
190.082	-983
190.302	-2156.54
190.521	-1303.78
190.74	1171.68
190.959	496.76
191.178	676.6
191.398	575.84
191.617	414.72
191.836	342.74
192.055	677.97
192.274	297.33
192.494	313.48
192.713	334.26
192.932	632.6
193.151	684.13
193.37	1382.73
193.589	-812.67
193.808	-234.31
194.027	-340.74
194.246	-3473.46
194.465	635.06
194.685	1734.14
194.904	978.1
195.123	-1288.25
195.342	-822.89
195.561	-342.19
195.78	-480.52
195.999	23080.28
196.218	709.32
196.436	599.32
196.655	-1882.73
196.874	-760.04
197.093	-1114.07
197.312	-700.82
197.531	2275.1
197.75	733.74
197.969	-2558.63
198.188	-560.09
198.407	-137.66
198.625	-194.33
198.844	-149.26
199.063	-159.82
199.282	-252.89
199.501	-101.94
199.719	-93.29
199.938	-38.16
200.157	-55.74
200.376	-47.34
200.594	-116.58
200.813	-225.3
201.032	-176.1
201.251	-217.82
201.469	-168.93
201.688	-155.6
201.907	-307
202.125	-406.76
202.344	15236.9
202.563	3032.16
202.781	505.47
203	1260.85
203.218	1135.4
203.437	965.39
203.656	452.22
203.874	290.19
204.093	307.52
204.311	392.07
204.53	413.52
204.748	640.86
204.967	371.8
205.185	384.19
205.404	455.94
205.622	277.91
205.841	231.71
206.059	256.06
206.278	372.97
206.496	693.1
206.715	388.19
206.933	310.39
207.151	236.01
207.37	300.04
207.588	284.03
207.806	247.9
208.025	563.03
208.243	-867.36
208.461	1279.67
208.68	-9720
208.898	487.38
209.116	556.77
209.335	489.28
209.553	570.97
209.771	6465
209.989	1456.32
210.208	2833.65
210.426	-5304.44
210.644	2962.75
210.862	-2662.92
211.081	1350.31
211.299	-709.19
211.517	3032.25
211.735	-861.81
211.953	-271057.14
212.171	-4646.08
212.39	-12818.92
212.608	-32656.52
212.826	1130.78
213.044	755.26
213.262	620.34
213.48	3256.96
213.698	385.73
213.916	552.74
214.134	369.67
214.352	695.67
214.57	430.85
214.788	524.64
215.006	429.62
215.224	339.35
215.442	285.33
215.66	253.24
215.878	228.06
216.096	198.18
216.314	170.41
216.532	359.73
216.75	330.64
216.968	309.1
217.185	819.6
217.403	1421.76
217.621	-4165.96
217.839	-1231.99
218.057	-1534.37
218.275	2242.38
218.492	701.87
218.71	1091.04
218.928	265.63
219.146	233.53
219.363	200.32
219.581	157.85
219.799	156.75
220.017	154.43
220.234	153.54
220.452	142.78
220.67	189.82
220.887	202.03
221.105	214.68
221.323	193.54
221.54	177.54
221.758	222.64
221.976	208.04
222.193	138.64
222.411	101.43
222.629	93.1
222.846	108.14
223.064	111.76
223.281	107.39
223.499	108.62
223.716	114.98
223.934	97.44
224.151	97.01
224.369	78.76
224.586	90.47
224.804	89.55
225.021	89.76
225.239	72.33
225.456	76.54
225.674	84.24
225.891	70.59
226.108	77.55
226.326	84.62
226.543	75.49
226.76	74.92
226.978	65.82
227.195	68.23
227.413	60.3
227.63	59.56
227.847	48.18
228.064	42.62
228.282	36.1
228.499	30.57
228.716	25.99
228.934	21.08
229.151	22.55
229.368	23.1
229.585	21.36
229.802	23.32
230.02	21.94
230.237	24.18
230.454	23.18
230.671	25.97
230.888	24.17
231.105	26.04
231.323	28.88
231.54	28.84
231.757	26.97
231.974	27.36
232.191	22.78
232.408	27.18
232.625	21.51
232.842	23.29
233.059	23.3
233.276	30.31
233.493	33.82
233.71	32.51
233.927	31.83
234.144	33.29
234.361	35.7
234.578	39.4
234.795	36.8
235.012	37.76
235.229	38.68
235.446	41.96
235.663	39.47
235.879	38.97
236.096	40.19
236.313	38.64
236.53	38.53
236.747	38.66
236.964	33.15
237.181	32.6
237.397	33.59
237.614	37.42
237.831	28.68
238.048	32.72
238.264	29.9
238.481	29.77
238.698	36.27
238.915	35.85
239.131	32.45
239.348	36.46
239.565	33.67
239.781	34.26
239.998	25.99
240.215	26.01
240.431	23.7
240.648	24.48
240.865	23.93
241.081	17.87
241.298	18.07
241.514	19.55
241.731	17.9
241.947	18.28
242.164	17.41
242.38	17.84
242.597	18.05
242.814	17.55
243.03	15.66
243.246	16.13
243.463	17.04
243.679	16.81
243.896	14.2
244.112	14.59
244.329	14.68
244.545	14.62
244.762	14.36
244.978	14.87
245.194	16
245.411	16.68
245.627	16.68
245.843	16.44
246.06	14.67
246.276	15.69
246.492	14.9
246.709	14.92
246.925	14.68
247.141	14.74
247.357	14.79
247.574	14.48
247.79	14.41
248.006	13.38
248.222	13.5
248.439	14.16
248.655	15.09
248.871	15.53
249.087	15.98
249.303	16.2
249.519	16.91
249.736	17.32
249.952	16.01
250.168	18.05
250.384	18.96
250.6	18.82
250.816	19.88
251.032	15.42
251.248	15.04
251.464	13.33
251.68	12.95
251.896	14.22
252.112	15.33
252.328	18.12
252.544	17.29
252.76	17.61
252.976	17.73
253.192	16.5
253.408	17.96
253.624	21.87
253.84	22.21
254.056	24.19
254.272	22.27
254.487	22.06
254.703	20.23
254.919	18.86
255.135	16.87
255.351	18.56
255.567	21.96
255.782	23.93
255.998	19.46
256.214	20.8
256.43	17.22
256.646	19.05
256.861	17.35
257.077	17.53
257.293	17.24
257.508	18.52
257.724	18.3
257.94	15.7
258.155	13.56
258.371	12.66
258.587	10.36
258.802	11.78
259.018	11.99
259.234	11.05
259.449	10.75
259.665	10.14
259.88	11.03
260.096	10.76
260.312	10.4
260.527	10.63
260.743	10.9
260.958	12.21
261.174	11.49
261.389	11.3
261.605	11.68
261.82	12.86
262.036	14.48
262.251	14.87
262.466	14.43
262.682	16.34
262.897	17.76
263.113	17.44
263.328	15.62
263.543	16.57
263.759	16.9
263.974	17.5
264.189	16.49
264.405	15.08
264.62	13.45
264.835	14.98
265.051	14.04
265.266	14.29
265.481	16.23
265.696	19.27
265.912	18.25
266.127	17.63
266.342	16.63
266.557	16.85
266.773	16.56
266.988	15.97
267.203	15.47
267.418	14.38
267.633	12.58
267.848	11.73
268.064	9.92
268.279	10.88
268.494	9.63
268.709	10.76
268.924	10.8
269.139	11.62
269.354	11.69
269.569	9.01
269.784	9.73
269.999	11.48
270.214	11.56
270.429	14.38
270.644	14
270.859	13.72
271.074	13.51
271.289	12.55
271.504	11.96
271.719	12.64
271.934	14.89
272.149	14.35
272.363	14.17
272.578	13.7
272.793	11.74
273.008	11.16
273.223	11.73
273.438	11.06
273.653	12.16
273.867	12.03
274.082	11.17
274.297	10.58
274.512	12.07
274.726	11.62
274.941	12.23
275.156	12.6
275.371	13.34
275.585	14.65
275.8	15.45
276.015	13.34
276.229	14.34
276.444	15.63
276.659	16.43
276.873	16.15
277.088	15.38
277.302	14.69
277.517	15.49
277.732	15.76
277.946	14.52
278.161	15.47
278.375	16.06
278.59	15.7
278.804	15.15
279.019	14.44
279.233	12.73
279.448	13.5
279.662	13.03
279.877	12.21
280.091	11.81
280.306	11.13
280.52	10.22
280.735	9.49
280.949	10.04
281.163	10.07
281.378	8.99
281.592	8.93
281.806	8.57
282.021	8.79
282.235	9.35
282.449	9.39
282.664	10.31
282.878	9.33
283.092	10.32
283.307	10.14
283.521	10.46
283.735	11.53
283.949	13.21
284.164	13.82
284.378	13.7
284.592	12.71
284.806	12.94
285.02	12.95
285.234	12.79
285.449	12.75
285.663	12.25
285.877	11.79
286.091	11.56
286.305	10.8
286.519	9.88
286.733	9.56
286.947	10.21
287.161	10.37
287.375	11.07
287.589	12.1
287.803	12.7
288.017	12.49
288.231	12.27
288.445	12.16
288.659	12.94
288.873	12.85
289.087	13.86
289.301	13.35
289.515	12.42
289.729	11.4
289.943	11.26
290.157	10.42
290.371	11.42
290.584	11.18
290.798	11.98
291.012	11.62
291.226	12.06
291.44	12.07
291.654	12.23
291.867	12.25
292.081	12.42
292.295	12.36
292.509	13.56
292.722	13.55
292.936	14.21
293.15	14.5
293.364	14.06
293.577	15.07
293.791	13.41
294.005	14.51
294.218	14.45
294.432	14.04
294.645	14.21
294.859	12.98
295.073	12.52
295.286	12.28
295.5	10.62
295.713	10.37
295.927	9.68
296.14	11.43
296.354	11.06
296.568	11.11
296.781	11.77
296.994	11.67
297.208	12.15
297.421	11.69
297.635	11.57
297.848	12.19
298.062	12.26
298.275	13.01
298.489	12.71
298.702	12.06
298.915	12.12
299.129	11.9
299.342	12.2
299.555	12.02
299.769	12.96
299.982	12.89
300.195	12.3
300.409	13.07
300.622	12.24
300.835	12.35
301.048	12.5
301.262	12.3
301.475	11.22
301.688	11.82
301.901	11.83
302.115	12.01
302.328	12.72
302.541	12.93
302.754	13.63
302.967	14.48
303.18	14.03
303.393	14.14
303.607	14.4
303.82	16.38
304.033	15.42
304.246	15.54
304.459	14.91
304.672	15.2
304.885	16.22
305.098	15.17
305.311	13.11
305.524	14.63
305.737	15.5
305.95	16.33
306.163	14.59
306.376	14.18
306.589	13.94
306.802	14.08
307.015	14.29
307.228	14.2
307.44	14.3
307.653	15.56
307.866	13.43
308.079	13.7
308.292	13.4
308.505	14.4
308.718	14.55
308.93	14.49
309.143	14.31
309.356	14.32
309.569	14.54
309.781	14.77
309.994	15.08
310.207	15.61
310.42	13.95
310.632	13.38
310.845	13.73
311.058	13.4
311.27	14.19
311.483	14.01
311.696	12.3
311.908	11.39
312.121	11.88
312.333	11.94
312.546	11.67
312.759	12.41
312.971	12.35
313.184	11.8
313.396	11.43
313.609	11.37
313.821	11.19
314.034	13.22
314.246	14.37
314.459	12.65
314.671	12.91
314.884	13.14
315.096	12.54
315.309	12.53
315.521	13.63
315.733	13.95
315.946	12.22
316.158	12.79
316.371	11.77
316.583	11.29
316.795	11.28
317.008	11.02
317.22	12.08
317.432	12.86
317.644	13.71
317.857	12.09
318.069	12.57
318.281	12.83
318.494	12.8
318.706	13.01
318.918	12.73
319.13	14.21
319.342	14.31
319.555	13.49
319.767	14.3
319.979	13.58
320.191	14.18
320.403	14.49
320.615	14.48
320.827	15.04
321.039	15.24
321.252	14.93
321.464	13.29
321.676	13.77
321.888	13.08
322.1	12.52
322.312	11.68
322.524	11.02
322.736	11.63
322.948	11.85
323.16	10.75
323.372	11
323.584	10.99
323.796	10.42
324.007	8.91
324.219	8.42
324.431	8.63
324.643	8.85
324.855	9.12
325.067	8.19
325.279	8.55
325.491	8.67
325.702	7.59
325.914	8
326.126	9.57
326.338	10.46
326.55	10.82
326.761	10.46
326.973	10.89
327.185	11.4
327.396	11.6
327.608	11.39
327.82	11.77
328.032	12.4
328.243	12.25
328.455	12.53
328.666	11.76
328.878	11.87
329.09	12.26
329.301	12.37
329.513	12.42
329.725	12.48
329.936	12.54
330.148	12.51
330.359	12.22
330.571	13.31
330.782	12.41
330.994	14.19
331.205	15.16
331.417	14.72
331.628	15.25
331.84	15.02
332.051	15.39
332.262	15.5
332.474	14.7
332.685	14.65
332.897	12.68
333.108	13.18
333.319	11.14
333.531	10.41
333.742	10.41
333.953	9.66
334.165	9.49
334.376	9.62
334.587	9.6
334.799	9.75
335.01	9.32
335.221	9.75
335.432	9.47
335.644	9.28
335.855	9.56
336.066	9.9
336.277	10.88
336.488	10.84
336.7	9.97
336.911	10.21
337.122	10.51
337.333	11.39
337.544	12.44
337.755	12.51
337.966	13.18
338.177	13.41
338.388	13.12
338.599	12.79
338.811	12.43
339.022	12.95
339.233	12.94
339.444	13.72
339.655	12.04
339.866	11.89
340.076	12.58
340.287	12.2
340.498	12.52
340.709	11.97
340.92	11.67
341.131	12.07
341.342	12.08
341.553	12.16
341.764	11.22
341.975	12.59
342.185	11.33
342.396	10.24
342.607	10.24
342.818	10.52
343.029	10.67
343.239	10.85
343.45	10.12
343.661	9.39
343.872	8.83
344.082	9.1
344.293	9.2
344.504	11.78
344.714	11.51
344.925	11.51
345.136	10.84
345.346	9.67
345.557	9.78
345.768	9.9
345.978	10.55
346.189	11.32
346.399	10.98
346.61	11.25
346.821	9.16
347.031	9.85
347.242	9.45
347.452	9.37
347.663	10.23
347.873	11.02
348.084	10.58
348.294	10.35
348.504	9.48
348.715	9.55
348.925	8.15
349.136	7.77
349.346	6.41
349.557	7.3
349.767	7.65
349.977	7.93
350.188	7.08
350.398	8.47
350.608	8.28
350.819	8.08
351.029	8.3
351.239	9.25
351.449	9.27
351.66	10.13
351.87	10.56
352.08	9.7
352.29	10.14
352.501	10.54
352.711	9.68
352.921	9.93
353.131	10.28
353.341	10.38
353.552	10.21
353.762	10.68
353.972	10.67
354.182	10.4
354.392	10.42
354.602	10.06
354.812	9.59
355.022	10.06
355.232	10.47
355.442	11.1
355.652	11.1
355.862	10.7
356.072	10.61
356.282	10.6
356.492	10.23
356.702	10.42
356.912	11.03
357.122	11.24
357.332	10.92
357.542	10.24
357.752	9.55
357.962	9.07
358.171	9.11
358.381	9.17
358.591	8.96
358.801	9.18
359.011	9.87
359.221	9.26
359.43	8.97
359.64	9.6
359.85	9.89
360.06	10.34
360.269	10.61
360.479	10.27
360.689	9.78
360.899	10
361.108	9.79
361.318	9.71
361.528	9.29
361.737	9.2
361.947	8.42
362.156	8.39
362.366	7.92
362.576	7.87
362.785	8.02
362.995	8.27
363.204	8.39
363.414	8.31
363.623	7.6
363.833	8.38
364.042	8.02
364.252	8.43
364.461	8.33
364.671	8.5
364.88	8.92
365.09	9.33
365.299	9.72
365.509	8.82
365.718	8.74
365.927	8.61
366.137	8.47
366.346	8.95
366.555	8.67
366.765	8.69
366.974	8.39
367.183	8.14
367.393	7.7
367.602	7.24
367.811	7.58
368.021	7.07
368.23	7.4
368.439	6.85
368.648	7.09
368.857	7.32
369.067	7.1
369.276	7.07
369.485	7.31
369.694	7.49
369.903	7.75
370.112	7.6
370.321	8.07
370.531	7.57
370.74	7.61
370.949	7.13
371.158	6.9
371.367	7.12
371.576	7.06
371.785	6.5
371.994	6.2
372.203	6.36
372.412	6.87
372.621	7.15
372.83	7.72
373.039	7.86
373.248	7.59
373.457	7.77
373.666	7.05
373.874	7.04
374.083	7.37
374.292	7.44
374.501	6.9
374.71	6.62
374.919	6.55
375.128	6.3
375.336	6.28
375.545	6.39
375.754	5.76
375.963	6.13
376.171	6.32
376.38	6.34
376.589	6.51
376.798	6.03
377.006	6.43
377.215	6.26
377.424	6.01
377.632	5.92
377.841	5.93
378.05	6.37
378.258	6.14
378.467	6.2
378.675	6.01
378.884	6.02
379.093	6.38
379.301	5.91
379.51	5.88
379.718	6.26
379.927	6.54
380.135	5.85
380.344	5.99
380.552	5.64
380.761	5.41
380.969	5.16
381.177	5.02
381.386	4.68
381.594	4.64
381.803	4.73
382.011	4.4
382.219	4.07
382.428	3.96
382.636	3.36
382.845	4.23
383.053	4.52
383.261	5.03
383.469	5.27
383.678	5.95
383.886	6.02
384.094	5.68
384.302	5.74
384.511	5.93
384.719	6.62
384.927	6.92
385.135	6.67
385.343	6.49
385.552	5.94
385.76	5.55
385.968	5.21
386.176	5.07
386.384	5.18
386.592	5.11
386.8	4.73
387.008	4.92
387.216	5.12
387.424	5.19
387.633	5.28
387.841	5.19
388.049	5.19
388.257	5.14
388.465	4.91
388.672	5.09
388.88	5.32
389.088	5.36
389.296	5
389.504	5.11
389.712	4.81
389.92	4.55
390.128	4.77
390.336	4.89
390.544	5.32
390.751	5.02
390.959	4.98
391.167	4.79
391.375	5.07
391.583	5.13
391.79	4.67
391.998	4.95
392.206	5.06
392.414	4.81
392.621	4.87
392.829	4.77
393.037	5.1
393.244	5.1
393.452	5.18
393.66	4.97
393.867	5.24
394.075	5.08
394.283	4.93
394.49	5.05
394.698	5.42
394.905	5.22
395.113	5.02
395.32	5.09
395.528	4.94
395.735	5.01
395.943	5
396.15	4.64
396.358	5.03
396.565	4.89
396.773	5.04
396.98	4.75
397.188	4.79
397.395	4.76
397.602	4.88
397.81	4.89
398.017	4.96
398.225	4.96
398.432	5.17
398.639	5.23
398.847	5.4
399.054	4.83
399.261	4.9
399.468	5
399.676	4.99
399.883	4.75
400.09	4.72
400.297	4.51
400.505	4.64
400.712	4.34
400.919	4.46
401.126	4.41
401.333	4.92
401.54	4.83
401.748	4.91
401.955	4.86
402.162	5.13
402.369	5.34
402.576	5.17
402.783	5.01
402.99	5.12
403.197	4.83
403.404	4.68
403.611	4.45
403.818	4.69
404.025	4.61
404.232	4.47
404.439	4.34
404.646	4.07
404.853	3.9
405.06	4.05
405.267	3.89
405.474	3.66
405.681	3.51
405.887	3.53
406.094	3.28
406.301	3.37
406.508	3.52
406.715	3.41
406.922	3.56
407.128	3.76
407.335	3.6
407.542	3.86
407.749	4.26
407.955	4.82
408.162	4.65
408.369	4.88
408.575	4.74
408.782	4.45
408.989	4.45
409.195	4.31
409.402	4.49
409.609	4.69
409.815	4.67
410.022	4.72
410.228	4.37
410.435	4.46
410.642	4.19
410.848	4.29
411.055	4.51
411.261	4.59
411.468	4.69
411.674	4.37
411.881	4.18
412.087	4.23
412.294	4.02
412.5	3.81
412.706	4.04
412.913	4.17
413.119	3.93
413.326	3.85
413.532	3.97
413.738	3.71
413.945	4.03
414.151	4.03
414.357	3.92
414.564	4
414.77	4.24
414.976	3.92
415.182	4.08
415.389	4.31
415.595	4.14
415.801	4.06
416.007	4.36
416.214	4.19
416.42	4.16
416.626	4.04
416.832	3.99
417.038	3.93
417.244	3.89
417.45	3.58
417.657	3.56
417.863	3.83
418.069	3.98
418.275	4
418.481	4.04
418.687	4.02
418.893	4.05
419.099	4.02
419.305	4.11
419.511	4.22
419.717	4.22
419.923	4.11
420.129	3.97
420.335	3.84
420.541	3.74
420.746	3.64
420.952	3.73
421.158	3.64
421.364	3.58
421.57	3.57
421.776	3.52
421.982	3.52
422.187	3.37
422.393	3.44
422.599	3.37
422.805	3.36
423.01	3.46
423.216	3.26
423.422	3.35
423.628	3.36
423.833	3.34
424.039	3.44
424.245	3.52
424.45	3.74
424.656	3.62
424.862	3.64
425.067	3.7
425.273	3.56
425.478	3.67
425.684	3.58
425.889	3.82
426.095	3.82
426.301	3.76
426.506	3.73
426.712	3.66
426.917	3.73
427.123	3.86
427.328	3.74
427.533	3.94
427.739	3.99
427.944	4.14
428.15	3.81
428.355	3.79
428.561	3.64
428.766	3.45
428.971	3.55
429.177	3.62
429.382	3.73
429.587	3.91
429.793	3.82
429.998	3.74
430.203	3.72
430.408	3.92
430.614	4.03
430.819	4.15
431.024	4.56
431.229	4.35
431.434	4.33
431.64	4.18
431.845	4.14
432.05	4.22
432.255	4.1
432.46	3.78
432.665	3.49
432.87	3.4
433.076	3.44
433.281	3.31
433.486	3.4
433.691	3.27
433.896	3.12
434.101	3.18
434.306	3.26
434.511	3.39
434.716	3.63
434.921	3.82
435.126	3.79
435.331	3.79
435.535	3.69
435.74	3.71
435.945	3.94
436.15	3.96
436.355	3.91
436.56	3.87
436.765	3.88
436.97	3.87
437.174	3.79
437.379	3.82
437.584	3.86
437.789	3.88
437.993	3.91
438.198	3.88
438.403	4.12
438.608	4.04
438.812	3.8
439.017	3.78
439.222	3.75
439.426	3.81
439.631	3.86
439.836	3.73
440.04	3.77
440.245	3.78
440.45	3.64
440.654	3.38
440.859	3.3
441.063	3.35
441.268	3.29
441.472	3.31
441.677	3.27
441.881	3.14
442.086	3.12
442.29	3.03
442.495	2.95
442.699	3.09
442.904	3.15
443.108	3.21
443.312	3.24
443.517	3.15
443.721	3.03
443.925	2.96
444.13	2.98
444.334	3.01
444.538	2.96
444.743	2.92
444.947	2.92
445.151	2.86
445.356	2.86
445.56	2.98
445.764	3.09
445.968	3.1
446.173	3.05
446.377	3.08
446.581	3.07
446.785	3.17
446.989	3.15
447.193	3.04
447.398	3.04
447.602	3.02
447.806	3.01
448.01	3.15
448.214	3.28
448.418	3.44
448.622	3.48
448.826	3.56
449.03	3.6
449.234	3.65
449.438	3.64
449.642	3.72
449.846	3.82
450.05	3.84
450.254	3.57
450.458	3.76
450.662	3.65
450.866	3.59
451.069	3.48
451.273	3.3
451.477	3.25
451.681	3.34
451.885	3.29
452.089	3.29
452.292	3.26
452.496	3.28
452.7	3.02
452.904	3.01
453.107	3
453.311	3.13
453.515	3.28
453.719	3.15
453.922	3.14
454.126	3.06
454.33	3.03
454.533	2.85
454.737	2.77
454.94	2.81
455.144	2.93
455.348	2.82
455.551	2.68
455.755	2.48
455.958	2.65
456.162	2.55
456.365	2.64
456.569	2.43
456.772	2.41
456.976	2.57
457.179	2.6
457.383	2.45
457.586	2.62
457.79	2.67
457.993	2.85
458.196	2.72
458.4	2.82
458.603	2.88
458.807	3.03
459.01	3.17
459.213	3.05
459.417	2.91
459.62	3
459.823	2.85
460.026	2.91
460.23	2.9
460.433	3
460.636	3.02
