Data from LC_186__Reflection_3.txt Node
Date: Tue Nov 17 13:17:45 EST 2015
User: robert
Spectrometer: USB4E03001
Autoset integration time: false
Trigger mode: 4
Integration Time (sec): 1.000000E-1
Scans to average: 15
Electric dark correction enabled: true
Nonlinearity correction enabled: false
Boxcar width: 5
Stray light correction enabled: false
XAxis mode: Wavelengths
Stop averaging: false
Number of Pixels in Spectrum: 3648
>>>>>Begin Spectral Data<<<<<
177.566	224.08
177.785	254.78
178.005	-870.52
178.225	288.88
178.445	-457.95
178.665	-92.64
178.885	42.2
179.105	-159.45
179.324	497.43
179.544	848.26
179.764	210.42
179.984	107.96
180.204	120.8
180.423	138.24
180.643	198.5
180.863	-693.87
181.083	-1069.9
181.302	129.87
181.522	40.1
181.742	69.82
181.961	-68.63
182.181	105.78
182.401	85.8
182.621	152.87
182.84	126.9
183.06	581.73
183.279	-856.61
183.499	7531.09
183.719	566.86
183.938	150.38
184.158	162.33
184.377	183.48
184.597	158.4
184.816	-16.94
185.036	-26.77
185.256	-75.86
185.475	-13.07
185.695	-28.43
185.914	-49.01
186.134	-35.33
186.353	-29.48
186.572	-104.27
186.792	-43.97
187.011	-5.57
187.231	-206.13
187.45	-855.64
187.67	-70.89
187.889	-64.77
188.108	-18.31
188.328	43.24
188.547	28.85
188.766	303.2
188.986	-108.99
189.205	-60.39
189.424	-119.45
189.644	-60.58
189.863	-16.49
190.082	-39.05
190.302	16.57
190.521	73.38
190.74	-864.29
190.959	-114.44
191.178	78.6
191.398	72.54
191.617	132.37
191.836	40.15
192.055	40.83
192.274	48.77
192.494	-70
192.713	136.78
192.932	161.22
193.151	287.73
193.37	4036.51
193.589	-114800
193.808	4507.87
194.027	-192.78
194.246	-216.77
194.465	1517.68
194.685	176.36
194.904	125.61
195.123	15037.5
195.342	273.8
195.561	46.3
195.78	58.62
195.999	56.95
196.218	34.14
196.436	66.92
196.655	65.19
196.874	38.84
197.093	58.38
197.312	44.13
197.531	58.09
197.75	49.75
197.969	68.13
198.188	76.89
198.407	77.3
198.625	83.1
198.844	73.17
199.063	16.22
199.282	20.14
199.501	3.23
199.719	38.29
199.938	24.4
200.157	58.19
200.376	-176.13
200.594	-26.34
200.813	17.65
201.032	68.34
201.251	109.94
201.469	2079.26
201.688	605.55
201.907	-1551.27
202.125	271.49
202.344	303.3
202.563	69.74
202.781	126.28
203	144.64
203.218	59.79
203.437	117.61
203.656	158.19
203.874	319
204.093	250
204.311	298.94
204.53	-4642.11
204.748	272.07
204.967	-176.16
205.185	29.09
205.404	14.49
205.622	-47.32
205.841	-54.63
206.059	-43.71
206.278	-36.79
206.496	-60.54
206.715	-36.66
206.933	-85.78
207.151	-46.49
207.37	-63
207.588	-77.95
207.806	-138.19
208.025	-65.76
208.243	-55.05
208.461	-106.04
208.68	-212.8
208.898	419.68
209.116	677.65
209.335	-829.9
209.553	778.8
209.771	-289.2
209.989	-54.98
210.208	-47.28
210.426	-109.3
210.644	-93.12
210.862	-48.09
211.081	-2.59
211.299	13.45
211.517	29.45
211.735	17.56
211.953	17.47
212.171	15.68
212.39	-65.93
212.608	-21.23
212.826	27.01
213.044	90.43
213.262	118.17
213.48	-3485.07
213.698	-231.9
213.916	134.84
214.134	-197.28
214.352	-10.13
214.57	-37.64
214.788	922.69
215.006	229.51
215.224	134.92
215.442	41.68
215.66	37.53
215.878	24.28
216.096	12.55
216.314	-4.91
216.532	20.66
216.75	19.12
216.968	-0.62
217.185	4.64
217.403	13.51
217.621	18.83
217.839	7.84
218.057	8.95
218.275	6.97
218.492	18.47
218.71	22.46
218.928	34.08
219.146	52.16
219.363	74.95
219.581	45.37
219.799	18.5
220.017	-5.95
220.234	1
220.452	15.22
220.67	17.81
220.887	20.62
221.105	16.45
221.323	7.84
221.54	19.54
221.758	34.07
221.976	37.37
222.193	55.89
222.411	60.09
222.629	63.44
222.846	61.16
223.064	48.49
223.281	48.44
223.499	45.76
223.716	58.65
223.934	51.38
224.151	36.32
224.369	42.15
224.586	28.27
224.804	41.9
225.021	31.98
225.239	25.09
225.456	27.47
225.674	12.63
225.891	25.35
226.108	12.15
226.326	3.99
226.543	11.28
226.76	17.55
226.978	16.5
227.195	7.62
227.413	9.29
227.63	13.22
227.847	13.7
228.064	13.26
228.282	8.87
228.499	11.65
228.716	11.67
228.934	12.46
229.151	9.97
229.368	10.52
229.585	11.42
229.802	15.26
230.02	17.01
230.237	18.3
230.454	18.5
230.671	22.85
230.888	20.21
231.105	21.25
231.323	18.52
231.54	19.09
231.757	19.72
231.974	19
232.191	17.8
232.408	13.92
232.625	10.36
232.842	14.6
233.059	11.15
233.276	13.58
233.493	7.1
233.71	10.79
233.927	11.61
234.144	11.37
234.361	12.61
234.578	10.47
234.795	12.05
235.012	13.5
235.229	8.59
235.446	1.3
235.663	0.91
235.879	6.16
236.096	7.44
236.313	5.19
236.53	5.58
236.747	7.04
236.964	4.62
237.181	0.8
237.397	-1.66
237.614	0.49
237.831	5.86
238.048	6.74
238.264	12.64
238.481	8.56
238.698	5.51
238.915	10.95
239.131	16.02
239.348	23.37
239.565	22.62
239.781	26.96
239.998	28.23
240.215	29.75
240.431	27.62
240.648	22.19
240.865	20.72
241.081	25.19
241.298	22.33
241.514	19.01
241.731	16.05
241.947	15.58
242.164	12.32
242.38	11.95
242.597	10.27
242.814	9.16
243.03	11.32
243.246	10.74
243.463	10.33
243.679	8.12
243.896	7.26
244.112	3.47
244.329	3.72
244.545	3.09
244.762	3.76
244.978	0.54
245.194	3.3
245.411	2.49
245.627	5.63
245.843	5.63
246.06	7.16
246.276	5.26
246.492	7.84
246.709	8.09
246.925	9.72
247.141	9.65
247.357	11.62
247.574	11.42
247.79	10.17
248.006	8.37
248.222	8.16
248.439	7
248.655	7.72
248.871	6.8
249.087	5.79
249.303	4.98
249.519	4.07
249.736	1.34
249.952	-0.57
250.168	1.05
250.384	3.79
250.6	1.74
250.816	3.09
251.032	3.38
251.248	3.42
251.464	4.64
251.68	4.7
251.896	5.07
252.112	4.09
252.328	5.37
252.544	4.04
252.76	1.83
252.976	2.93
253.192	5.58
253.408	6.72
253.624	8.94
253.84	9.74
254.056	9.8
254.272	9.53
254.487	12.22
254.703	11.31
254.919	10.82
255.135	15.42
255.351	13.46
255.567	12.2
255.782	6.24
255.998	5.55
256.214	6.51
256.43	5.01
256.646	5.51
256.861	5.01
257.077	5.61
257.293	8.11
257.508	7.33
257.724	8.5
257.94	7.55
258.155	10.09
258.371	10.6
258.587	8.25
258.802	7.08
259.018	6.73
259.234	6.84
259.449	7.31
259.665	7.25
259.88	6.41
260.096	6.78
260.312	6.31
260.527	5.68
260.743	5.94
260.958	6.82
261.174	7.85
261.389	7.53
261.605	7.8
261.82	8.12
262.036	7.49
262.251	7.83
262.466	6.34
262.682	8.73
262.897	10.35
263.113	7.14
263.328	6.35
263.543	5.67
263.759	6.75
263.974	6.2
264.189	5.15
264.405	7.19
264.62	8.36
264.835	9.27
265.051	6.26
265.266	6.06
265.481	9.11
265.696	9.93
265.912	10.29
266.127	8.5
266.342	8.27
266.557	6.76
266.773	7.16
266.988	6.77
267.203	7.4
267.418	8.38
267.633	8.26
267.848	7.99
268.064	5.64
268.279	4.79
268.494	5.62
268.709	6.63
268.924	8.45
269.139	6.1
269.354	6.06
269.569	6.47
269.784	4.65
269.999	3.42
270.214	2.95
270.429	4.59
270.644	5.35
270.859	6.68
271.074	6.17
271.289	5.97
271.504	5.71
271.719	5.03
271.934	5.35
272.149	5.87
272.363	7.54
272.578	7.85
272.793	7.27
273.008	6.98
273.223	5.69
273.438	4.84
273.653	4.49
273.867	5.11
274.082	5.79
274.297	5.09
274.512	5.27
274.726	4.73
274.941	3.75
275.156	4.98
275.371	4.34
275.585	5.18
275.8	6.2
276.015	5.75
276.229	5.11
276.444	3.66
276.659	4.98
276.873	4.92
277.088	4.94
277.302	5.09
277.517	4.42
277.732	5.05
277.946	5.49
278.161	6.14
278.375	5.31
278.59	6.01
278.804	8.02
279.019	6.17
279.233	5.85
279.448	6.15
279.662	7.1
279.877	6.59
280.091	6.53
280.306	5.19
280.52	4.59
280.735	6.49
280.949	6.12
281.163	6.11
281.378	7.69
281.592	6.65
281.806	6.15
282.021	5.94
282.235	6.39
282.449	7.21
282.664	8
282.878	9.18
283.092	7.79
283.307	8.5
283.521	8.27
283.735	6.38
283.949	7.59
284.164	7
284.378	6.55
284.592	6.43
284.806	6.1
285.02	5.83
285.234	3.95
285.449	3.87
285.663	3.94
285.877	3.69
286.091	4.78
286.305	4.67
286.519	5.3
286.733	5.96
286.947	6.3
287.161	6.2
287.375	5.67
287.589	6.57
287.803	7.13
288.017	7.6
288.231	7.23
288.445	7.18
288.659	7.67
288.873	6.5
289.087	6.92
289.301	6.32
289.515	7.34
289.729	7.89
289.943	7.25
290.157	7.08
290.371	5.47
290.584	6.45
290.798	6.13
291.012	6.38
291.226	7.29
291.44	5.79
291.654	6.4
291.867	4.93
292.081	4.55
292.295	5.31
292.509	4.89
292.722	5.79
292.936	6.16
293.15	6.38
293.364	4.92
293.577	4.88
293.791	5.72
294.005	5.02
294.218	5.62
294.432	6.5
294.645	5.15
294.859	6.5
295.073	6.86
295.286	5.21
295.5	5.16
295.713	6.64
295.927	6.8
296.14	7.26
296.354	7.43
296.568	7.31
296.781	7.18
296.994	8.33
297.208	7.93
297.421	8.01
297.635	9.02
297.848	8.68
298.062	8.79
298.275	8.45
298.489	7.96
298.702	9.02
298.915	9.09
299.129	9.33
299.342	9.34
299.555	9.16
299.769	9.28
299.982	9.9
300.195	10.04
300.409	8.8
300.622	8.72
300.835	9.01
301.048	7.56
301.262	7.69
301.475	7.84
301.688	8.23
301.901	8.6
302.115	8.32
302.328	8.04
302.541	7.9
302.754	8.74
302.967	9.73
303.18	10.01
303.393	11.1
303.607	11.49
303.82	10.64
304.033	9.32
304.246	8.96
304.459	8.66
304.672	7.76
304.885	8.59
305.098	8.21
305.311	8.07
305.524	7.37
305.737	6.91
305.95	7.19
306.163	6.48
306.376	7.3
306.589	7.79
306.802	7.96
307.015	7.35
307.228	7.65
307.44	7.1
307.653	6.42
307.866	6.61
308.079	6.45
308.292	5.98
308.505	7.03
308.718	6.53
308.93	5.75
309.143	5.47
309.356	5.17
309.569	4.64
309.781	5.54
309.994	4.32
310.207	4.76
310.42	4.22
310.632	2.99
310.845	2.76
311.058	2.92
311.27	3.03
311.483	3.42
311.696	4.37
311.908	3.89
312.121	3.7
312.333	4.54
312.546	4.53
312.759	3.94
312.971	6.07
313.184	6.16
313.396	5.76
313.609	6.68
313.821	7.03
314.034	7.75
314.246	8.71
314.459	9.07
314.671	10.3
314.884	10.99
315.096	12.19
315.309	10.48
315.521	10.5
315.733	11.35
315.946	11.22
316.158	12.13
316.371	11.05
316.583	11.51
316.795	11.25
317.008	10.46
317.22	10.38
317.432	10.54
317.644	9.9
317.857	11.26
318.069	11.37
318.281	11.73
318.494	11.15
318.706	11.17
318.918	10
319.13	10.6
319.342	12.01
319.555	9.99
319.767	10.28
319.979	11.46
320.191	10.79
320.403	11.31
320.615	10.34
320.827	9.95
321.039	11.15
321.252	12.17
321.464	11.82
321.676	11.1
321.888	12.66
322.1	13.25
322.312	13.34
322.524	13.68
322.736	12.91
322.948	13.69
323.16	13.19
323.372	12.39
323.584	12.54
323.796	12.46
324.007	12.87
324.219	13.44
324.431	14.28
324.643	15.6
324.855	15.73
325.067	16.51
325.279	16.64
325.491	17.34
325.702	17.99
325.914	18.09
326.126	18.87
326.338	20.07
326.55	19.93
326.761	18.97
326.973	19.18
327.185	19.57
327.396	19.85
327.608	19.72
327.82	20.34
328.032	21.03
328.243	21.26
328.455	21.21
328.666	20.48
328.878	21.83
329.09	22.89
329.301	23.14
329.513	23.47
329.725	23.55
329.936	23.97
330.148	24.74
330.359	24.6
330.571	24.68
330.782	26.43
330.994	26.85
331.205	25.88
331.417	25.57
331.628	25.77
331.84	26.73
332.051	26.9
332.262	27.67
332.474	28.01
332.685	29.03
332.897	29.74
333.108	30.11
333.319	29.95
333.531	30.8
333.742	31.12
333.953	30.73
334.165	30.49
334.376	31.9
334.587	32.33
334.799	31.72
335.01	31.34
335.221	31.45
335.432	30.98
335.644	31.88
335.855	32.72
336.066	33
336.277	33.96
336.488	33.95
336.7	33.44
336.911	33.39
337.122	33.84
337.333	34.04
337.544	34.86
337.755	34.72
337.966	34.65
338.177	34.31
338.388	34.29
338.599	34.16
338.811	34.73
339.022	34.28
339.233	34.85
339.444	34.83
339.655	36.18
339.866	35.68
340.076	35.06
340.287	34.69
340.498	34.16
340.709	35.08
340.92	35.01
341.131	34.95
341.342	36.07
341.553	36.21
341.764	36.59
341.975	35.96
342.185	36.27
342.396	37.17
342.607	38.32
342.818	39.25
343.029	38.63
343.239	38.79
343.45	39.38
343.661	39.26
343.872	39.68
344.082	40.16
344.293	39.86
344.504	39.92
344.714	39.41
344.925	38.44
345.136	37.93
345.346	37.9
345.557	38.01
345.768	37.66
345.978	37.4
346.189	37.23
346.399	37.21
346.61	37.04
346.821	36.81
347.031	36.83
347.242	36.75
347.452	37.59
347.663	38.24
347.873	38.2
348.084	37.88
348.294	38.36
348.504	37.85
348.715	37.16
348.925	37.48
349.136	36.94
349.346	37.45
349.557	38.46
349.767	37.77
349.977	36.95
350.188	37.63
350.398	38.11
350.608	37.87
350.819	37.36
351.029	37.35
351.239	37.52
351.449	38.04
351.66	37.81
351.87	37.05
352.08	36.98
352.29	37.35
352.501	35.77
352.711	35.65
352.921	35.56
353.131	36.6
353.341	36.68
353.552	35.9
353.762	36.08
353.972	35.84
354.182	36.22
354.392	36.49
354.602	36.82
354.812	37.67
355.022	37.58
355.232	37.67
355.442	37.07
355.652	37.38
355.862	38.28
356.072	38.46
356.282	38.49
356.492	38.06
356.702	37.84
356.912	37.5
357.122	37.27
357.332	36.85
357.542	36.84
357.752	36.9
357.962	37.15
358.171	36.61
358.381	36.13
358.591	35.89
358.801	35.73
359.011	35.56
359.221	35.88
359.43	36.47
359.64	36.38
359.85	35.96
360.06	36.27
360.269	36.29
360.479	36.3
360.689	36.14
360.899	36.63
361.108	36.68
361.318	36.25
361.528	36.01
361.737	35.64
361.947	36.02
362.156	36.16
362.366	35.64
362.576	35.2
362.785	35.34
362.995	35.51
363.204	35.05
363.414	35.42
363.623	36.04
363.833	36.17
364.042	36.23
364.252	35.51
364.461	35.75
364.671	36.04
364.88	35.87
365.09	36
365.299	35.94
365.509	35.79
365.718	35.62
365.927	35.34
366.137	34.88
366.346	34.62
366.555	34.78
366.765	34.28
366.974	34.42
367.183	34.45
367.393	34.01
367.602	33.96
367.811	34.38
368.021	33.77
368.23	34.13
368.439	34.27
368.648	34.23
368.857	34.55
369.067	35.17
369.276	34.84
369.485	35.19
369.694	34.83
369.903	35.27
370.112	34.75
370.321	34.87
370.531	34.02
370.74	33.73
370.949	33.26
371.158	33.29
371.367	32.61
371.576	33.06
371.785	32.65
371.994	33.04
372.203	32.31
372.412	32.54
372.621	32.39
372.83	32.31
373.039	32.92
373.248	33.32
373.457	33.47
373.666	33.56
373.874	33.12
374.083	33.04
374.292	32.36
374.501	32.66
374.71	32.4
374.919	32.48
375.128	32.59
375.336	32.25
375.545	32.35
375.754	32.04
375.963	32.06
376.171	32.24
376.38	32.46
376.589	32.96
376.798	32.77
377.006	33.19
377.215	33.35
377.424	33.21
377.632	32.79
377.841	32.6
378.05	32.53
378.258	32.2
378.467	31.89
378.675	31.6
378.884	31.19
379.093	30.95
379.301	30.84
379.51	30.34
379.718	30.44
379.927	30.57
380.135	30.31
380.344	30.14
380.552	30.53
380.761	30.15
380.969	30.01
381.177	30.23
381.386	30.41
381.594	30.18
381.803	30.29
382.011	30.28
382.219	29.79
382.428	29.93
382.636	29.73
382.845	29.76
383.053	30.27
383.261	29.99
383.469	30.16
383.678	30.62
383.886	30.46
384.094	30.36
384.302	30.45
384.511	30.78
384.719	30.42
384.927	30.53
385.135	30.28
385.343	30.03
385.552	30.4
385.76	30.22
385.968	30.01
386.176	30.1
386.384	30.21
386.592	29.98
386.8	29.89
387.008	30.09
387.216	30.06
387.424	29.8
387.633	29.67
387.841	29.49
388.049	29.43
388.257	29.37
388.465	29.22
388.672	28.76
388.88	29.1
389.088	29.33
389.296	29.17
389.504	29.64
389.712	29.6
389.92	29.73
390.128	29.76
390.336	29.7
390.544	29.15
390.751	29.12
390.959	29.31
391.167	28.96
391.375	28.75
391.583	28.59
391.79	28.17
391.998	28.24
392.206	27.87
392.414	27.7
392.621	27.76
392.829	27.79
393.037	27.5
393.244	27.46
393.452	27.26
393.66	27.02
393.867	27.16
394.075	27.32
394.283	27.41
394.49	27.46
394.698	27.78
394.905	27.44
395.113	27.6
395.32	27.63
395.528	27.81
395.735	28.05
395.943	28.03
396.15	27.91
396.358	27.38
396.565	26.99
396.773	27.03
396.98	26.84
397.188	27.05
397.395	26.79
397.602	26.79
397.81	26.79
398.017	26.57
398.225	26.62
398.432	26.58
398.639	26.78
398.847	26.89
399.054	26.48
399.261	26.09
399.468	25.8
399.676	26.05
399.883	25.93
400.09	25.62
400.297	25.74
400.505	25.91
400.712	25.98
400.919	25.9
401.126	26.1
401.333	26.43
401.54	26.57
401.748	26.55
401.955	26.43
402.162	26.92
402.369	26.85
402.576	26.84
402.783	26.36
402.99	26.11
403.197	26.22
403.404	25.92
403.611	25.93
403.818	26.01
404.025	25.97
404.232	25.87
404.439	25.64
404.646	25.9
404.853	25.58
405.06	25.84
405.267	26.04
405.474	25.92
405.681	25.75
405.887	26.01
406.094	26
406.301	26.01
406.508	25.89
406.715	25.77
406.922	25.6
407.128	25.67
407.335	25.42
407.542	25.3
407.749	25.48
407.955	25.91
408.162	25.53
408.369	25.56
408.575	25.49
408.782	25.62
408.989	25.88
409.195	26.14
409.402	26.14
409.609	26.02
409.815	25.89
410.022	25.66
410.228	25.45
410.435	25.58
410.642	25.51
410.848	25.57
411.055	25.36
411.261	24.96
411.468	24.7
411.674	24.47
411.881	24.74
412.087	24.92
412.294	25.16
412.5	25.16
412.706	25.3
412.913	25.33
413.119	25.65
413.326	25.77
413.532	25.79
413.738	25.83
413.945	25.75
414.151	25.71
414.357	25.68
414.564	25.41
414.77	25.19
414.976	25.16
415.182	25.2
415.389	24.93
415.595	24.94
415.801	25
416.007	25.07
416.214	25.25
416.42	25.33
416.626	25.17
416.832	25.26
417.038	25.35
417.244	25.03
417.45	24.98
417.657	24.71
417.863	24.79
418.069	24.63
418.275	24.4
418.481	24.5
418.687	24.37
418.893	24.38
419.099	24.16
419.305	24.14
419.511	24.29
419.717	24.23
419.923	24.33
420.129	24.18
420.335	24.32
420.541	24.26
420.746	24.26
420.952	24.24
421.158	24.2
421.364	24.32
421.57	24.35
421.776	24.19
421.982	24.13
422.187	24.07
422.393	24.08
422.599	23.97
422.805	23.94
423.01	23.83
423.216	23.78
423.422	23.86
423.628	23.82
423.833	23.81
424.039	23.68
424.245	23.61
424.45	23.62
424.656	23.64
424.862	23.66
425.067	23.73
425.273	23.66
425.478	23.77
425.684	23.51
425.889	23.45
426.095	23.46
426.301	23.62
426.506	23.64
426.712	23.64
426.917	23.54
427.123	23.63
427.328	23.57
427.533	23.58
427.739	23.37
427.944	23.58
428.15	23.59
428.355	23.43
428.561	23.42
428.766	23.37
428.971	23.36
429.177	23.44
429.382	23.22
429.587	23.19
429.793	23.24
429.998	23.27
430.203	23.33
430.408	23.21
430.614	23.11
430.819	23.12
431.024	23.3
431.229	23.32
431.434	23.42
431.64	23.43
431.845	23.53
432.05	23.59
432.255	23.77
432.46	23.73
432.665	23.92
432.87	24.01
433.076	23.77
433.281	23.88
433.486	23.86
433.691	23.8
433.896	23.86
434.101	23.85
434.306	23.81
434.511	23.82
434.716	23.65
434.921	23.51
435.126	23.54
435.331	23.7
435.535	23.67
435.74	23.82
435.945	23.8
436.15	23.67
436.355	23.68
436.56	23.53
436.765	23.64
436.97	23.96
437.174	23.81
437.379	23.82
437.584	23.88
437.789	23.76
437.993	23.74
438.198	23.55
438.403	23.57
438.608	23.58
438.812	23.65
439.017	23.46
439.222	23.2
439.426	23.22
439.631	23.21
439.836	23.17
440.04	22.93
440.245	22.87
440.45	23.01
440.654	22.91
440.859	22.85
441.063	23.04
441.268	23.02
441.472	23.06
441.677	23.19
441.881	23.25
442.086	23.32
442.29	23.54
442.495	23.67
442.699	23.62
442.904	23.76
443.108	23.65
443.312	23.46
443.517	23.39
443.721	23.43
443.925	23.31
444.13	23.25
444.334	23.01
444.538	22.75
444.743	22.46
444.947	22.52
445.151	22.49
445.356	22.63
445.56	22.66
445.764	22.7
445.968	22.75
446.173	22.72
446.377	22.63
446.581	22.77
446.785	22.86
446.989	22.9
447.193	22.94
447.398	23.01
447.602	23.05
447.806	23.01
448.01	22.89
448.214	22.82
448.418	22.79
448.622	22.9
448.826	22.76
449.03	22.83
449.234	22.77
449.438	22.6
449.642	22.48
449.846	22.35
450.05	22.31
450.254	22.3
450.458	22.3
450.662	22.28
450.866	21.98
451.069	22.19
451.273	22.12
451.477	22.37
451.681	22.51
451.885	22.51
452.089	22.49
452.292	22.53
452.496	22.67
452.7	22.66
452.904	22.72
453.107	22.86
453.311	22.7
453.515	22.69
453.719	22.61
453.922	22.48
454.126	22.37
454.33	22.47
454.533	22.35
454.737	22.15
454.94	21.91
455.144	21.97
455.348	21.96
455.551	21.89
455.755	22.1
455.958	21.85
456.162	21.92
456.365	21.97
456.569	21.78
456.772	21.84
456.976	22.06
457.179	22.31
457.383	22.25
457.586	22.31
457.79	22.6
457.993	22.59
458.196	22.7
458.4	22.8
458.603	23.01
458.807	23.1
459.01	23.17
459.213	23.21
459.417	23.11
459.62	23.09
459.823	23.04
460.026	22.82
460.23	22.66
