Data from LC_152_Reflection_1.txt Node
Date: Mon Nov 16 22:08:44 EST 2015
User: robert
Spectrometer: USB4E03001
Autoset integration time: false
Trigger mode: 4
Integration Time (sec): 1.000000E-1
Scans to average: 15
Electric dark correction enabled: true
Nonlinearity correction enabled: false
Boxcar width: 5
Stray light correction enabled: false
XAxis mode: Wavelengths
Stop averaging: false
Number of Pixels in Spectrum: 3648
>>>>>Begin Spectral Data<<<<<
177.566	-3790.36
177.785	-138.69
178.005	1802.52
178.225	-58.08
178.445	35.52
178.665	31.16
178.885	-193
179.105	-656.07
179.324	-1075.23
179.544	175.04
179.764	97.07
179.984	186.66
180.204	103.32
180.423	83.8
180.643	34.8
180.863	-43.4
181.083	-30.94
181.302	-99.45
181.522	-90.75
181.742	-100.51
181.961	-249.25
182.181	-175.02
182.401	-287.8
182.621	-1239.89
182.84	-646.3
183.06	-470.67
183.279	-264.52
183.499	-188.76
183.719	-122.33
183.938	-85.2
184.158	-94.69
184.377	-38.15
184.597	-103.73
184.816	-60.82
185.036	-24.69
185.256	-6.96
185.475	2.83
185.695	-11.72
185.914	-80.38
186.134	-200.84
186.353	-331.86
186.572	-399.25
186.792	-633.26
187.011	-159.01
187.231	-170.3
187.45	-144.48
187.67	-485.69
187.889	-1833
188.108	3118.35
188.328	-627.19
188.547	-184.78
188.766	-399.36
188.986	-526.28
189.205	-326.27
189.424	-283.01
189.644	-681.87
189.863	-765.14
190.082	-425.55
190.302	-781.32
190.521	-410.53
190.74	554.53
190.959	265.1
191.178	323.36
191.398	293.15
191.617	228.08
191.836	145.05
192.055	232.58
192.274	142.32
192.494	162.29
192.713	93.32
192.932	202.13
193.151	321.19
193.37	649.13
193.589	-329.4
193.808	-25.54
194.027	-117.12
194.246	-1833.8
194.465	423.56
194.685	862.15
194.904	489.55
195.123	-560.8
195.342	-304.27
195.561	-88.74
195.78	-135.42
195.999	6353.52
196.218	368.82
196.436	253.5
196.655	-662.35
196.874	-161.52
197.093	-322.27
197.312	-82.32
197.531	813.12
197.75	439.47
197.969	-1229.31
198.188	-337.63
198.407	-78.12
198.625	-77.73
198.844	-71.08
199.063	-75.15
199.282	-186.29
199.501	-72.95
199.719	-13.62
199.938	33.51
200.157	22.54
200.376	-3.15
200.594	-3.03
200.813	-53.18
201.032	-60.17
201.251	-83.82
201.469	-97.62
201.688	-61.07
201.907	-193.54
202.125	-392.02
202.344	17488.1
202.563	2706.43
202.781	345.47
203	968.86
203.218	867.56
203.437	600.99
203.656	245.13
203.874	132.46
204.093	145.03
204.311	137.82
204.53	93.33
204.748	119.23
204.967	61.77
205.185	46.54
205.404	79.25
205.622	58.15
205.841	53.83
206.059	71.85
206.278	103.68
206.496	146.66
206.715	140.42
206.933	139.27
207.151	123.19
207.37	125.33
207.588	160.63
207.806	146.42
208.025	207.98
208.243	-364.98
208.461	643.2
208.68	-6194.12
208.898	365.73
209.116	288.07
209.335	357.26
209.553	318.48
209.771	3407.08
209.989	696.51
210.208	1524.9
210.426	-2502.39
210.644	1538.91
210.862	-1149.6
211.081	531.55
211.299	-181.88
211.517	1118.66
211.735	-280.93
211.953	-115328.57
212.171	-2521.69
212.39	-7085.59
212.608	-16165.22
212.826	751.93
213.044	495.31
213.262	423.52
213.48	2032.28
213.698	223.58
213.916	304.31
214.134	159.34
214.352	278.93
214.57	160.79
214.788	169.35
215.006	195.02
215.224	197.87
215.442	156.91
215.66	128.74
215.878	87.68
216.096	66.5
216.314	46.56
216.532	185.66
216.75	132.48
216.968	68.32
217.185	128.65
217.403	279.91
217.621	-264.3
217.839	-76.97
218.057	-48.07
218.275	531.1
218.492	205.14
218.71	236.71
218.928	66.5
219.146	110.29
219.363	123.76
219.581	115.83
219.799	81.25
220.017	70.33
220.234	56.63
220.452	79.37
220.67	77
220.887	94.34
221.105	129.24
221.323	79.94
221.54	70.45
221.758	87.97
221.976	68.5
222.193	43.8
222.411	41.82
222.629	79.35
222.846	75.56
223.064	83.29
223.281	70.13
223.499	61.88
223.716	73.21
223.934	64.23
224.151	68.04
224.369	60.05
224.586	70.22
224.804	73.14
225.021	62.34
225.239	51.99
225.456	49.04
225.674	53.77
225.891	43.54
226.108	53.53
226.326	54.82
226.543	46.36
226.76	45.93
226.978	38.67
227.195	40.76
227.413	33.47
227.63	28.44
227.847	23.11
228.064	18.64
228.282	18.63
228.499	14.98
228.716	11.78
228.934	11.22
229.151	14.95
229.368	16.9
229.585	15.96
229.802	16.05
230.02	15.99
230.237	16.15
230.454	17.92
230.671	16.03
230.888	14.57
231.105	16.94
231.323	16.81
231.54	12.95
231.757	8.55
231.974	9.71
232.191	6.71
232.408	5.43
232.625	5.46
232.842	2.88
233.059	8.64
233.276	16.38
233.493	11.7
233.71	12.99
233.927	14.01
234.144	15.62
234.361	13.26
234.578	16.12
234.795	16.24
235.012	18.18
235.229	19.96
235.446	20.95
235.663	19.37
235.879	25.21
236.096	20.98
236.313	18.84
236.53	18.46
236.747	17.65
236.964	17.33
237.181	19.49
237.397	16.57
237.614	13.63
237.831	8.73
238.048	9.28
238.264	5.51
238.481	7.7
238.698	8.13
238.915	9.01
239.131	13.91
239.348	16.06
239.565	15.88
239.781	17.08
239.998	18.45
240.215	19.1
240.431	18.66
240.648	18.3
240.865	19.74
241.081	20.72
241.298	20.09
241.514	19.51
241.731	18.12
241.947	19.55
242.164	18.97
242.38	18.48
242.597	18.47
242.814	18.32
243.03	18.38
243.246	18.23
243.463	18.18
243.679	18.54
243.896	17.01
244.112	17.81
244.329	16.12
244.545	15.99
244.762	15.98
244.978	17.07
245.194	18.06
245.411	16.98
245.627	16.96
245.843	16.2
246.06	15.97
246.276	15.84
246.492	14.61
246.709	14.74
246.925	14.05
247.141	13.84
247.357	13.62
247.574	12.72
247.79	12.99
248.006	12.18
248.222	11.94
248.439	10.78
248.655	10.92
248.871	10.68
249.087	10.2
249.303	9.74
249.519	9.87
249.736	10.22
249.952	10.26
250.168	9.79
250.384	10.75
250.6	12.03
250.816	13.25
251.032	13.25
251.248	13.15
251.464	13.44
251.68	14.82
251.896	15.41
252.112	14.18
252.328	15.26
252.544	15.22
252.76	15.06
252.976	13.37
253.192	13.93
253.408	12.39
253.624	15.41
253.84	14.67
254.056	15.68
254.272	15.25
254.487	16.57
254.703	15
254.919	13.47
255.135	13.28
255.351	14.61
255.567	17.58
255.782	19.95
255.998	16.82
256.214	17.59
256.43	15.12
256.646	15.71
256.861	14.04
257.077	13.94
257.293	14.29
257.508	14.56
257.724	16.51
257.94	15.98
258.155	14.77
258.371	14.44
258.587	12.8
258.802	13.09
259.018	13.48
259.234	13.13
259.449	13.13
259.665	12.64
259.88	12.54
260.096	11.91
260.312	11.28
260.527	11.41
260.743	11.53
260.958	12.31
261.174	11.58
261.389	11.34
261.605	11.45
261.82	11.64
262.036	12.58
262.251	13.11
262.466	12.81
262.682	13.79
262.897	13.16
263.113	12.23
263.328	13.03
263.543	13.55
263.759	14.16
263.974	16.11
264.189	15.9
264.405	15.78
264.62	14.9
264.835	15.85
265.051	14.87
265.266	17.4
265.481	18.06
265.696	17.01
265.912	16.75
266.127	15.06
266.342	13.24
266.557	13.39
266.773	13.13
266.988	12.59
267.203	12.68
267.418	11.39
267.633	9.62
267.848	11.06
268.064	10.06
268.279	11.66
268.494	10.85
268.709	11.15
268.924	11.92
269.139	11.4
269.354	11.79
269.569	10.79
269.784	11.55
269.999	11.94
270.214	10.44
270.429	12.04
270.644	10.76
270.859	10.94
271.074	10.57
271.289	10.7
271.504	10.98
271.719	10.72
271.934	11.54
272.149	10.96
272.363	11.12
272.578	10.33
272.793	9.69
273.008	9.66
273.223	9.61
273.438	8.73
273.653	7.95
273.867	8.3
274.082	8.34
274.297	8.27
274.512	8.9
274.726	8.87
274.941	10.43
275.156	10.69
275.371	11.27
275.585	11.97
275.8	14.28
276.015	14.52
276.229	13.94
276.444	14.35
276.659	13.94
276.873	14.09
277.088	12.73
277.302	12.27
277.517	11.14
277.732	12.82
277.946	12.16
278.161	11.77
278.375	11.48
278.59	11.05
278.804	11.4
279.019	10.94
279.233	10.91
279.448	12.63
279.662	11.17
279.877	12.39
280.091	11.62
280.306	11.67
280.52	11.28
280.735	10.52
280.949	10.53
281.163	9.62
281.378	9.09
281.592	7.97
281.806	7.68
282.021	8.09
282.235	8.1
282.449	7.65
282.664	8.85
282.878	8.82
283.092	9.2
283.307	9.55
283.521	9.87
283.735	10.04
283.949	11.12
284.164	11.25
284.378	11.39
284.592	10.25
284.806	10.16
285.02	9.35
285.234	9.26
285.449	9.03
285.663	8.98
285.877	8.69
286.091	8.54
286.305	7.92
286.519	7.08
286.733	6.44
286.947	7.12
287.161	7.44
287.375	7.66
287.589	8.04
287.803	8.78
288.017	9.19
288.231	9.4
288.445	10.31
288.659	11.13
288.873	11.48
289.087	12.32
289.301	11.75
289.515	10.93
289.729	10.05
289.943	8.89
290.157	8.8
290.371	9.52
290.584	9.51
290.798	9.96
291.012	10.21
291.226	10.29
291.44	11.34
291.654	11.66
291.867	11.67
292.081	12.08
292.295	12.76
292.509	12.33
292.722	11.47
292.936	12.08
293.15	12.1
293.364	12.2
293.577	12.68
293.791	11.53
294.005	12.96
294.218	13.72
294.432	14.36
294.645	14.32
294.859	13.89
295.073	13.52
295.286	12.48
295.5	11.18
295.713	10.96
295.927	10.82
296.14	10.82
296.354	9.65
296.568	8.75
296.781	8.82
296.994	9.2
297.208	8.98
297.421	8.99
297.635	9.34
297.848	9.6
298.062	9.34
298.275	9.77
298.489	10.36
298.702	10.62
298.915	11.01
299.129	10.84
299.342	10.16
299.555	10.75
299.769	10.28
299.982	10.18
300.195	10.47
300.409	11.43
300.622	10.99
300.835	11.05
301.048	11.27
301.262	10.97
301.475	10.02
301.688	10.48
301.901	10.63
302.115	11.26
302.328	11.8
302.541	11.61
302.754	11.44
302.967	11.75
303.18	11.83
303.393	11.32
303.607	10.88
303.82	11.4
304.033	11.66
304.246	11.6
304.459	12.44
304.672	11.8
304.885	11.85
305.098	11.19
305.311	10.89
305.524	10.3
305.737	10.66
305.95	12.43
306.163	13.49
306.376	13.52
306.589	13.24
306.802	12.38
307.015	13.17
307.228	14.04
307.44	13.57
307.653	13.78
307.866	12.73
308.079	13.54
308.292	13.14
308.505	12.72
308.718	11.84
308.93	11.62
309.143	11.32
309.356	10.3
309.569	9.64
309.781	10.41
309.994	10.57
310.207	11.25
310.42	10.5
310.632	10.07
310.845	10.48
311.058	10
311.27	11.24
311.483	11.79
311.696	12.14
311.908	11.86
312.121	12.1
312.333	12.85
312.546	13
312.759	13.65
312.971	13.86
313.184	13.89
313.396	14.52
313.609	14.75
313.821	14.26
314.034	14.86
314.246	15.53
314.459	15.12
314.671	14.7
314.884	14.11
315.096	12.77
315.309	12.2
315.521	11.95
315.733	11.46
315.946	9.78
316.158	9.34
316.371	8.09
316.583	7.89
316.795	7.92
317.008	8.07
317.22	10.32
317.432	10.63
317.644	11.1
317.857	9.51
318.069	11.09
318.281	10.84
318.494	11.28
318.706	12.2
318.918	11.75
319.13	12.4
319.342	12.35
319.555	11.53
319.767	11.62
319.979	11.08
320.191	11.59
320.403	11.28
320.615	13.24
320.827	13.55
321.039	13.67
321.252	13.82
321.464	11.79
321.676	11.18
321.888	9.64
322.1	10.17
322.312	9.45
322.524	9.35
322.736	9.5
322.948	8.41
323.16	7.86
323.372	8.51
323.584	9.21
323.796	9.93
324.007	9.02
324.219	9.75
324.431	9.37
324.643	10.4
324.855	11.22
325.067	10.57
325.279	10.08
325.491	10.74
325.702	9.42
325.914	8.61
326.126	9.15
326.338	10.04
326.55	10.18
326.761	11.06
326.973	10.47
327.185	10.64
327.396	11.18
327.608	12.16
327.82	12.82
328.032	13.26
328.243	13.36
328.455	13.88
328.666	13.73
328.878	13.11
329.09	11.76
329.301	12.26
329.513	11.52
329.725	11.78
329.936	10.78
330.148	10.06
330.359	9.84
330.571	9.79
330.782	9.26
330.994	10.49
331.205	11.2
331.417	12.02
331.628	12.37
331.84	12.81
332.051	12.29
332.262	13.79
332.474	12.77
332.685	14.04
332.897	14.17
333.108	14.18
333.319	12.1
333.531	11.92
333.742	11.76
333.953	11.11
334.165	10.65
334.376	10.5
334.587	8.97
334.799	9.85
335.01	9.37
335.221	8.86
335.432	8.44
335.644	8.98
335.855	9.3
336.066	9.68
336.277	10.23
336.488	10.81
336.7	10.07
336.911	10.38
337.122	9.63
337.333	9.73
337.544	10.45
337.755	11.11
337.966	10.91
338.177	10.37
338.388	10.12
338.599	9.94
338.811	9.62
339.022	10.29
339.233	10.26
339.444	10.98
339.655	9.5
339.866	9.19
340.076	8.94
340.287	9.36
340.498	9.76
340.709	9.02
340.92	7.77
341.131	7.61
341.342	7.42
341.553	7.21
341.764	6.95
341.975	8.28
342.185	7.83
342.396	7.34
342.607	7.58
342.818	6.84
343.029	7.36
343.239	8.31
343.45	8.11
343.661	7.61
343.872	7.98
344.082	8.22
344.293	7.49
344.504	8.06
344.714	7.63
344.925	6.87
345.136	7.44
345.346	7.89
345.557	8.59
345.768	8.29
345.978	8.5
346.189	8.71
346.399	8.42
346.61	9.24
346.821	9.29
347.031	10.09
347.242	9.71
347.452	9.69
347.663	9.07
347.873	8.45
348.084	8.62
348.294	9.34
348.504	8.6
348.715	8.29
348.925	7.87
349.136	7.26
349.346	6.18
349.557	6.85
349.767	7.61
349.977	7.52
350.188	8
350.398	8.62
350.608	8.29
350.819	8.5
351.029	8.67
351.239	8.87
351.449	9.65
351.66	10.76
351.87	11.25
352.08	10.29
352.29	10.44
352.501	9.85
352.711	8.83
352.921	8.57
353.131	8.82
353.341	9.02
353.552	8.44
353.762	7.89
353.972	7.19
354.182	7.3
354.392	7.01
354.602	7.09
354.812	7.03
355.022	7.91
355.232	7.69
355.442	7.59
355.652	8.01
355.862	8.21
356.072	8.02
356.282	7.57
356.492	7.3
356.702	7.54
356.912	7.49
357.122	7.5
357.332	7.11
357.542	7.4
357.752	7.86
357.962	7.57
358.171	7.44
358.381	8.26
358.591	9.21
358.801	8.77
359.011	9.39
359.221	9.18
359.43	9.38
359.64	9.89
359.85	10.13
360.06	9.57
360.269	9.62
360.479	9.51
360.689	8.71
360.899	7.96
361.108	8.18
361.318	7.9
361.528	7.7
361.737	7.27
361.947	6.98
362.156	7.05
362.366	7.24
362.576	7.09
362.785	7.06
362.995	7.02
363.204	7.22
363.414	7.13
363.623	7.37
363.833	7.79
364.042	8.34
364.252	8.58
364.461	8.25
364.671	8.13
364.88	8.25
365.09	8.59
365.299	8.78
365.509	8.6
365.718	8.18
365.927	7.17
366.137	7.38
366.346	7.4
366.555	7.2
366.765	7.21
366.974	6.76
367.183	6.58
367.393	6.01
367.602	6.05
367.811	6.44
368.021	6.45
368.23	7.22
368.439	6.32
368.648	6.4
368.857	6.75
369.067	6.81
369.276	6.87
369.485	7.6
369.694	8.1
369.903	8.75
370.112	8.49
370.321	8.79
370.531	8.26
370.74	8.72
370.949	8.1
371.158	7.53
371.367	7.75
371.576	7.87
371.785	6.72
371.994	6.52
372.203	5.89
372.412	6.41
372.621	6.68
372.83	6.88
373.039	7.16
373.248	7.01
373.457	7.14
373.666	6.79
373.874	6.55
374.083	7.25
374.292	7.33
374.501	7.2
374.71	6.91
374.919	6.94
375.128	6.71
375.336	6.51
375.545	6.94
375.754	6.77
375.963	6.66
376.171	6.72
376.38	6.78
376.589	7.12
376.798	6.95
377.006	6.85
377.215	6.98
377.424	7.16
377.632	7.29
377.841	7.56
378.05	7.11
378.258	7.04
378.467	7.26
378.675	7
378.884	6.53
379.093	6.91
379.301	6.51
379.51	5.96
379.718	6.27
379.927	6.11
380.135	5.64
380.344	6.23
380.552	6.13
380.761	5.93
380.969	5.59
381.177	5.57
381.386	5.6
381.594	5.88
381.803	5.98
382.011	5.56
382.219	5.33
382.428	4.83
382.636	4.54
382.845	5.21
383.053	5.24
383.261	5.3
383.469	5.88
383.678	5.66
383.886	5.9
384.094	5.92
384.302	5.83
384.511	6.25
384.719	6.48
384.927	6.63
385.135	6.08
385.343	6.24
385.552	6.04
385.76	5.35
385.968	5.3
386.176	4.87
386.384	4.57
386.592	4.63
386.8	4.02
387.008	4.64
387.216	4.66
387.424	4.56
387.633	4.65
387.841	4.99
388.049	5.39
388.257	5.17
388.465	5.34
388.672	5.73
388.88	5.71
389.088	5.94
389.296	5.58
389.504	5.83
389.712	6.14
389.92	5.97
390.128	5.74
390.336	5.51
390.544	5.82
390.751	5.47
390.959	5.31
391.167	5.45
391.375	5.61
391.583	5.48
391.79	5.05
391.998	4.89
392.206	4.93
392.414	4.88
392.621	5.03
392.829	5.27
393.037	5.58
393.244	5.52
393.452	5.79
393.66	5.83
393.867	5.98
394.075	6.4
394.283	6.45
394.49	6.33
394.698	6.52
394.905	6.18
395.113	5.8
395.32	5.86
395.528	5.84
395.735	5.39
395.943	5.18
396.15	4.92
396.358	4.78
396.565	4.76
396.773	5.22
396.98	5.17
397.188	5.25
397.395	5.34
397.602	5.06
397.81	4.86
398.017	5.22
398.225	4.93
398.432	5.42
398.639	5.51
398.847	5.62
399.054	5.14
399.261	5.22
399.468	5.41
399.676	5.18
399.883	5.61
400.09	5.82
400.297	5.57
400.505	5.95
400.712	5.42
400.919	5.28
401.126	5.25
401.333	5.26
401.54	5.16
401.748	5.23
401.955	5.52
402.162	5.09
402.369	5.09
402.576	5.16
402.783	5.28
402.99	5.69
403.197	5.43
403.404	5.12
403.611	5.07
403.818	5.22
404.025	5.25
404.232	5.02
404.439	5.13
404.646	5.06
404.853	4.89
405.06	4.7
405.267	4.31
405.474	4.46
405.681	4.53
405.887	4.43
406.094	4.34
406.301	4.43
406.508	4.58
406.715	4.79
406.922	4.87
407.128	4.94
407.335	4.96
407.542	5.16
407.749	5.28
407.955	5.41
408.162	5.63
408.369	5.77
408.575	5.54
408.782	5.44
408.989	5.34
409.195	5.46
409.402	5.46
409.609	5.63
409.815	5.72
410.022	5.83
410.228	5.76
410.435	5.78
410.642	5.48
410.848	5.59
411.055	5.66
411.261	5.77
411.468	5.9
411.674	5.78
411.881	5.59
412.087	5.81
412.294	5.64
412.5	5.57
412.706	5.42
412.913	5.55
413.119	5.19
413.326	4.91
413.532	4.77
413.738	4.55
413.945	4.97
414.151	4.85
414.357	4.56
414.564	4.53
414.77	4.59
414.976	4.61
415.182	4.63
415.389	4.82
415.595	4.82
415.801	4.5
416.007	4.6
416.214	4.38
416.42	4.54
416.626	4.48
416.832	4.2
417.038	4.17
417.244	4.38
417.45	4.28
417.657	4.54
417.863	4.76
418.069	4.97
418.275	4.96
418.481	4.93
418.687	4.91
418.893	5
419.099	5.14
419.305	5.33
419.511	5.23
419.717	5.28
419.923	5.02
420.129	5.01
420.335	5.02
420.541	5.11
420.746	5.14
420.952	5.13
421.158	5.04
421.364	4.99
421.57	4.98
421.776	4.91
421.982	4.91
422.187	4.89
422.393	4.89
422.599	4.76
422.805	4.62
423.01	4.58
423.216	4.46
423.422	4.51
423.628	4.58
423.833	4.37
424.039	4.46
424.245	4.49
424.45	4.58
424.656	4.5
424.862	4.57
425.067	4.56
425.273	4.45
425.478	4.65
425.684	4.63
425.889	4.82
426.095	5.02
426.301	5.01
426.506	5.03
426.712	5.1
426.917	5.12
427.123	5.3
427.328	5.39
427.533	5.65
427.739	5.49
427.944	5.62
428.15	5.35
428.355	5.19
428.561	5.11
428.766	4.9
428.971	4.71
429.177	4.82
429.382	4.8
429.587	4.94
429.793	4.82
429.998	4.85
430.203	4.57
430.408	4.68
430.614	4.79
430.819	4.88
431.024	5.06
431.229	5.3
431.434	5.35
431.64	5.12
431.845	5.04
432.05	5.15
432.255	5.25
432.46	5.31
432.665	5.21
432.87	5.1
433.076	5.14
433.281	5.22
433.486	5.05
433.691	4.87
433.896	4.93
434.101	4.83
434.306	4.8
434.511	4.7
434.716	4.8
434.921	4.89
435.126	4.84
435.331	4.77
435.535	4.72
435.74	4.86
435.945	4.95
436.15	4.89
436.355	5.03
436.56	5.05
436.765	5.12
436.97	4.85
437.174	4.86
437.379	5.03
437.584	4.98
437.789	4.91
437.993	4.88
438.198	4.84
438.403	4.93
438.608	4.95
438.812	4.82
439.017	4.74
439.222	4.85
439.426	4.76
439.631	4.72
439.836	4.67
440.04	4.7
440.245	4.6
440.45	4.62
440.654	4.52
440.859	4.32
441.063	4.36
441.268	4.42
441.472	4.49
441.677	4.45
441.881	4.37
442.086	4.44
442.29	4.35
442.495	4.38
442.699	4.38
442.904	4.44
443.108	4.55
443.312	4.51
443.517	4.47
443.721	4.43
443.925	4.35
444.13	4.53
444.334	4.53
444.538	4.58
444.743	4.56
444.947	4.48
445.151	4.42
445.356	4.35
445.56	4.46
445.764	4.46
445.968	4.45
446.173	4.5
446.377	4.59
446.581	4.49
446.785	4.45
446.989	4.5
447.193	4.7
447.398	4.74
447.602	4.74
447.806	4.74
448.01	4.84
448.214	4.88
448.418	4.96
448.622	4.91
448.826	4.96
449.03	5.04
449.234	5.13
449.438	4.88
449.642	4.89
449.846	4.81
450.05	4.67
450.254	4.51
450.458	4.55
450.662	4.51
450.866	4.31
451.069	4.35
451.273	4.25
451.477	4.08
451.681	4.23
451.885	4.15
452.089	4.35
452.292	4.3
452.496	4.35
452.7	4.27
452.904	4.3
453.107	4.36
453.311	4.53
453.515	4.6
453.719	4.62
453.922	4.49
454.126	4.57
454.33	4.51
454.533	4.51
454.737	4.42
454.94	4.35
455.144	4.44
455.348	4.45
455.551	4.34
455.755	4.38
455.958	4.55
456.162	4.59
456.365	4.63
456.569	4.54
456.772	4.53
456.976	4.58
457.179	4.59
457.383	4.45
457.586	4.45
457.79	4.39
457.993	4.39
458.196	4.14
458.4	4.25
458.603	4.17
458.807	4.33
459.01	4.41
459.213	4.39
459.417	4.26
459.62	4.22
459.823	4.15
460.026	4.12
460.23	4.12
460.433	4.22
460.636	4.13
460.839	4.19
461.042	4.15
461.246	4.23
461.449	4.26
461.652	4.44
461.855	4.41
462.058	4.5
462.261	4.37
462.464	4.33
462.668	4.39
462.871	4.42
463.074	4.33
463.277	4.19
463.48	4.24
