Data from LC_164_Reflection_5.txt Node
Date: Mon Nov 16 22:58:58 EST 2015
User: robert
Spectrometer: USB4E03001
Autoset integration time: false
Trigger mode: 4
Integration Time (sec): 1.000000E-1
Scans to average: 15
Electric dark correction enabled: true
Nonlinearity correction enabled: false
Boxcar width: 5
Stray light correction enabled: false
XAxis mode: Wavelengths
Stop averaging: false
Number of Pixels in Spectrum: 3648
>>>>>Begin Spectral Data<<<<<
177.566	3006.02
177.785	208.12
178.005	-1466.39
178.225	20.83
178.445	-180.19
178.665	602.4
178.885	114.01
179.105	888.79
179.324	1708.88
179.544	-113.91
179.764	-801.9
179.984	-332.93
180.204	-183.73
180.423	-221.87
180.643	-244.37
180.863	-157.5
181.083	-182.77
181.302	-334.12
181.522	-264.61
181.742	-199.63
181.961	-446.44
182.181	-366.67
182.401	-522.43
182.621	-2336.24
182.84	-1153.44
183.06	-762.66
183.279	-492.04
183.499	-352.95
183.719	-279.06
183.938	-289.36
184.158	-308.88
184.377	-158.64
184.597	-241.5
184.816	-150.23
185.036	-84.24
185.256	-36.32
185.475	-62.66
185.695	-66.47
185.914	-110.36
186.134	-273.17
186.353	-354.71
186.572	-580.64
186.792	-1064.97
187.011	-421.41
187.231	-356.52
187.45	-276.21
187.67	-730.05
187.889	-2035
188.108	4040.72
188.328	-1007.54
188.547	-351.68
188.766	-599.49
188.986	-767.06
189.205	-384.79
189.424	-326.93
189.644	-996.06
189.863	-1029.23
190.082	-733.09
190.302	-1644.09
190.521	-857.73
190.74	778.64
190.959	353.95
191.178	476.43
191.398	427.83
191.617	449.27
191.836	371.59
192.055	753.91
192.274	380.68
192.494	465.19
192.713	414.53
192.932	877.58
193.151	1017.67
193.37	1946.18
193.589	-1205.02
193.808	-362.58
194.027	-471.64
194.246	-4376.82
194.465	812.68
194.685	1857.18
194.904	982.04
195.123	-1553.55
195.342	-987.24
195.561	-326.4
195.78	-493.96
195.999	23423.94
196.218	815.39
196.436	743.58
196.655	-2661.31
196.874	-1070.65
197.093	-1313.7
197.312	-854.52
197.531	2010.08
197.75	696.72
197.969	-2272.1
198.188	-435.39
198.407	-70.24
198.625	-111.8
198.844	-93.2
199.063	-87.34
199.282	-189.23
199.501	-176.49
199.719	-113.77
199.938	-45.89
200.157	-35.21
200.376	-66.66
200.594	-129.68
200.813	-380.75
201.032	-239.5
201.251	-188.72
201.469	-166.61
201.688	-114.91
201.907	-249.84
202.125	-376.34
202.344	16301.19
202.563	3051.85
202.781	545.25
203	1520.34
203.218	1075.09
203.437	982.08
203.656	524.79
203.874	308.31
204.093	283.48
204.311	342.76
204.53	354.57
204.748	535.19
204.967	379.36
205.185	346.21
205.404	386.2
205.622	226.39
205.841	187.83
206.059	215.44
206.278	291.54
206.496	803.29
206.715	436.01
206.933	384.64
207.151	322.01
207.37	350.62
207.588	344.46
207.806	311.19
208.025	725.54
208.243	-1511.9
208.461	2439.31
208.68	-21064.71
208.898	793.69
209.116	907.48
209.335	779.73
209.553	845.12
209.771	8061.67
209.989	1599.92
210.208	2934.41
210.426	-4637.88
210.644	2224.01
210.862	-1603.49
211.081	716
211.299	-358.7
211.517	1253.62
211.735	-320.36
211.953	-66542.86
212.171	-1027.11
212.39	-2463.06
212.608	-13178.26
212.826	609.99
213.044	402.57
213.262	421.68
213.48	1997.47
213.698	232.23
213.916	331.77
214.134	248.87
214.352	531.56
214.57	307.31
214.788	467.28
215.006	395.48
215.224	332.82
215.442	269.99
215.66	242.33
215.878	213.51
216.096	222.29
216.314	254.08
216.532	413.06
216.75	339.81
216.968	331.53
217.185	667.42
217.403	1143.59
217.621	-3541.37
217.839	-976.46
218.057	-1149.58
218.275	2091.31
218.492	624.11
218.71	866.33
218.928	282.64
219.146	290.55
219.363	252.28
219.581	188.66
219.799	151.03
220.017	151.94
220.234	149.37
220.452	150.29
220.67	168.91
220.887	162.05
221.105	179
221.323	143.38
221.54	146.55
221.758	181.86
221.976	205.35
222.193	209.36
222.411	128.33
222.629	133.66
222.846	138.79
223.064	146.53
223.281	151.32
223.499	129.54
223.716	128.1
223.934	106.84
224.151	110.66
224.369	99.29
224.586	91.91
224.804	100.75
225.021	99.33
225.239	78.85
225.456	72.38
225.674	67.11
225.891	72.15
226.108	88.32
226.326	86.53
226.543	70.54
226.76	68.43
226.978	66.42
227.195	70.56
227.413	56.01
227.63	52.35
227.847	50.11
228.064	43.2
228.282	38.8
228.499	33.49
228.716	29.79
228.934	28.63
229.151	28.09
229.368	24.28
229.585	22.06
229.802	24.64
230.02	26.65
230.237	26.14
230.454	27.78
230.671	27.64
230.888	28.37
231.105	29.86
231.323	30.13
231.54	31.98
231.757	36.17
231.974	34.45
232.191	34.74
232.408	33.22
232.625	33.73
232.842	32.91
233.059	36.57
233.276	33.47
233.493	33.18
233.71	36.6
233.927	39.38
234.144	40.78
234.361	42
234.578	43.6
234.795	44.32
235.012	43.06
235.229	40.27
235.446	42.06
235.663	40.93
235.879	42.47
236.096	40.98
236.313	36.31
236.53	38.4
236.747	38.83
236.964	33.98
237.181	37.49
237.397	39.16
237.614	47.3
237.831	44.09
238.048	45.84
238.264	46.74
238.481	46.56
238.698	48.9
238.915	43.68
239.131	43.31
239.348	44.28
239.565	42.1
239.781	38.34
239.998	31.3
240.215	33
240.431	31.48
240.648	29.85
240.865	25.66
241.081	22.82
241.298	22.2
241.514	21.48
241.731	20.85
241.947	19.8
242.164	19.35
242.38	19.51
242.597	17.7
242.814	18.3
243.03	17.64
243.246	18.74
243.463	19.06
243.679	19.75
243.896	18.19
244.112	18.78
244.329	17.68
244.545	20.16
244.762	20.42
244.978	21.49
245.194	20.89
245.411	19.32
245.627	18.13
245.843	18.11
246.06	16.35
246.276	17.89
246.492	17.01
246.709	17.01
246.925	15.6
247.141	14.8
247.357	14.09
247.574	13.63
247.79	13.81
248.006	13.18
248.222	12.43
248.439	12.86
248.655	12.88
248.871	13.13
249.087	12.74
249.303	12.24
249.519	13.2
249.736	14.64
249.952	14.14
250.168	15.46
250.384	17.2
250.6	18.49
250.816	19.73
251.032	17.31
251.248	16.89
251.464	17.47
251.68	17.96
251.896	18.2
252.112	16.91
252.328	18.07
252.544	18.23
252.76	19.2
252.976	18.55
253.192	17.32
253.408	18.36
253.624	20.89
253.84	20.54
254.056	23.24
254.272	22.17
254.487	23.23
254.703	22.26
254.919	21.41
255.135	18.36
255.351	21.64
255.567	22.21
255.782	22.91
255.998	20.43
256.214	22.56
256.43	18.55
256.646	21.19
256.861	23.46
257.077	24.79
257.293	22.59
257.508	24.96
257.724	24.86
257.94	23.76
258.155	21.71
258.371	20.69
258.587	18.15
258.802	17.87
259.018	16.51
259.234	14.88
259.449	14.7
259.665	14.51
259.88	14.63
260.096	13.99
260.312	13.34
260.527	13.44
260.743	13.19
260.958	13.94
261.174	13.89
261.389	14.48
261.605	15.08
261.82	15.17
262.036	15.64
262.251	16.26
262.466	15.24
262.682	17.19
262.897	16.56
263.113	16.55
263.328	16.32
263.543	17.03
263.759	16.28
263.974	15.72
264.189	15.35
264.405	18.28
264.62	16.9
264.835	17.91
265.051	17.5
265.266	19.76
265.481	20.5
265.696	20.53
265.912	20.01
266.127	18.16
266.342	16.87
266.557	16.61
266.773	14.08
266.988	13.77
267.203	16.07
267.418	15.14
267.633	13.68
267.848	15.09
268.064	13.64
268.279	14.23
268.494	14.23
268.709	14.21
268.924	14.35
269.139	15.63
269.354	14.44
269.569	11.13
269.784	12
269.999	13
270.214	11.69
270.429	16
270.644	15.12
270.859	14.83
271.074	15.55
271.289	15.2
271.504	15.89
271.719	16.87
271.934	17.75
272.149	17.07
272.363	16.98
272.578	16.33
272.793	14.08
273.008	13.68
273.223	14.26
273.438	13.57
273.653	14.54
273.867	13.06
274.082	12.86
274.297	12.7
274.512	13.24
274.726	12.62
274.941	12.75
275.156	12.78
275.371	13.49
275.585	14.36
275.8	15.54
276.015	14.98
276.229	14.31
276.444	14.81
276.659	14.5
276.873	12.81
277.088	13.05
277.302	13.99
277.517	13.34
277.732	14.48
277.946	13.9
278.161	14.7
278.375	14.21
278.59	15.23
278.804	13.73
279.019	14.65
279.233	15.76
279.448	15.93
279.662	15.31
279.877	14.85
280.091	13.58
280.306	12.34
280.52	10.37
280.735	9.59
280.949	9.78
281.163	10.87
281.378	9.96
281.592	9.05
281.806	9.93
282.021	9.52
282.235	10.97
282.449	11.12
282.664	11.64
282.878	12.35
283.092	14.1
283.307	13.83
283.521	14.05
283.735	14.03
283.949	15.82
284.164	15.58
284.378	15.59
284.592	14.49
284.806	14.75
285.02	15.21
285.234	14.56
285.449	13.33
285.663	13.55
285.877	12.97
286.091	12.18
286.305	10.89
286.519	10.28
286.733	9.34
286.947	9.45
287.161	8.41
287.375	9.03
287.589	10.25
287.803	10.5
288.017	10.32
288.231	9.56
288.445	10.7
288.659	11.2
288.873	11.16
289.087	12.56
289.301	11.92
289.515	12.57
289.729	11.56
289.943	10.47
290.157	9.96
290.371	10.71
290.584	11.07
290.798	10.76
291.012	11.01
291.226	10.89
291.44	11.18
291.654	11.23
291.867	11.8
292.081	11.62
292.295	12.86
292.509	13.22
292.722	12.75
292.936	13
293.15	13.41
293.364	13.03
293.577	13.31
293.791	12.5
294.005	13.84
294.218	13.58
294.432	13.55
294.645	12.75
294.859	12.32
295.073	12.11
295.286	12.38
295.5	11.97
295.713	12.51
295.927	11.67
296.14	12.16
296.354	11.68
296.568	11.4
296.781	11.5
296.994	11.62
297.208	11.43
297.421	11.55
297.635	11.31
297.848	11.58
298.062	10.79
298.275	11.77
298.489	11.5
298.702	11.84
298.915	12.09
299.129	13.03
299.342	13.39
299.555	14.01
299.769	14.52
299.982	14.45
300.195	14.65
300.409	15.44
300.622	15.92
300.835	17.61
301.048	17.41
301.262	16.56
301.475	14.87
301.688	14.8
301.901	14.78
302.115	14.54
302.328	15.29
302.541	14.73
302.754	15.23
302.967	15.36
303.18	14.28
303.393	13.61
303.607	13.77
303.82	14.74
304.033	13.42
304.246	14.3
304.459	13.66
304.672	12.79
304.885	13.77
305.098	12.5
305.311	11.06
305.524	11.17
305.737	11.62
305.95	12.72
306.163	10.55
306.376	10.89
306.589	10.12
306.802	9.77
307.015	11.93
307.228	10.81
307.44	12.29
307.653	12.38
307.866	11.42
308.079	12.95
308.292	12.9
308.505	15.47
308.718	15.53
308.93	15.07
309.143	14.98
309.356	13.97
309.569	14.6
309.781	15.46
309.994	16.1
310.207	16.81
310.42	15.62
310.632	14.98
310.845	14.53
311.058	14.06
311.27	14.87
311.483	15.63
311.696	15.04
311.908	14.82
312.121	13.71
312.333	14.01
312.546	13.44
312.759	13.64
312.971	14.61
313.184	14.67
313.396	15.43
313.609	15.97
313.821	15.39
314.034	15.58
314.246	15.66
314.459	15.68
314.671	15.38
314.884	15.74
315.096	15.09
315.309	13.41
315.521	14.48
315.733	13.4
315.946	11.94
316.158	12.5
316.371	12.9
316.583	12.94
316.795	12.98
317.008	12.93
317.22	13.36
317.432	13.15
317.644	14.51
317.857	12.44
318.069	13.7
318.281	14.11
318.494	13.61
318.706	14.46
318.918	14.47
319.13	14.99
319.342	14.89
319.555	14.39
319.767	15.99
319.979	15.18
320.191	16.52
320.403	16.53
320.615	16.52
320.827	17.58
321.039	16.51
321.252	15.77
321.464	15.04
321.676	15.76
321.888	14.84
322.1	14.39
322.312	13.06
322.524	12.63
322.736	12.23
322.948	12.02
323.16	10.7
323.372	10.99
323.584	11.73
323.796	11.43
324.007	10.23
324.219	11.08
324.431	11.6
324.643	11.98
324.855	12.15
325.067	11.68
325.279	11.77
325.491	12.16
325.702	11.42
325.914	10.92
326.126	11.69
326.338	12.25
326.55	12.56
326.761	11.61
326.973	12.45
327.185	11.93
327.396	12.73
327.608	13.11
327.82	13.19
328.032	14.14
328.243	13.26
328.455	13.47
328.666	13.65
328.878	13.55
329.09	12.84
329.301	13.09
329.513	12.93
329.725	13.31
329.936	12.73
330.148	13.03
330.359	11.95
330.571	13.23
330.782	13.33
330.994	13.29
331.205	12.85
331.417	12.89
331.628	12.45
331.84	12.98
332.051	12.41
332.262	12.69
332.474	11.79
332.685	13.01
332.897	12.49
333.108	11.69
333.319	11.4
333.531	11.84
333.742	12.62
333.953	11.72
334.165	11.25
334.376	11.15
334.587	11.28
334.799	11.76
335.01	11.44
335.221	11.51
335.432	10.91
335.644	9.19
335.855	8.23
336.066	8.42
336.277	9
336.488	9.67
336.7	8.45
336.911	8.52
337.122	8.17
337.333	8.85
337.544	9.76
337.755	10.11
337.966	11.07
338.177	12.7
338.388	12.79
338.599	13.21
338.811	12.87
339.022	13.84
339.233	13.28
339.444	13.87
339.655	11.78
339.866	11.13
340.076	12.12
340.287	12.48
340.498	11.29
340.709	10.81
340.92	10.37
341.131	10.19
341.342	9.88
341.553	10.05
341.764	9.59
341.975	10.4
342.185	10.41
342.396	9.39
342.607	9.71
342.818	10.49
343.029	10.88
343.239	11.21
343.45	11.34
343.661	10.85
343.872	10.92
344.082	10.93
344.293	10.98
344.504	12.56
344.714	12.5
344.925	11.2
345.136	10.2
345.346	8.53
345.557	8.58
345.768	8.26
345.978	9.01
346.189	9.53
346.399	9.44
346.61	9.12
346.821	7.39
347.031	7.9
347.242	8.37
347.452	8.87
347.663	9.81
347.873	10.03
348.084	10.6
348.294	11.31
348.504	10.61
348.715	11.35
348.925	11.38
349.136	10.94
349.346	9.85
349.557	10.51
349.767	10.56
349.977	10.72
350.188	10.77
350.398	10.85
350.608	9.91
350.819	9.99
351.029	9.51
351.239	9.92
351.449	10.39
351.66	11.34
351.87	11.81
352.08	11.13
352.29	10.64
352.501	9.75
352.711	9.62
352.921	10.06
353.131	9.83
353.341	9.59
353.552	10.08
353.762	10.13
353.972	9.9
354.182	9.54
354.392	9.31
354.602	10.32
354.812	10.89
355.022	10.95
355.232	10.56
355.442	10.97
355.652	10.91
355.862	9.43
356.072	9.99
356.282	9.65
356.492	9.59
356.702	9.94
356.912	9.55
357.122	9.53
357.332	9.28
357.542	9.3
357.752	8.76
357.962	8.85
358.171	9.7
358.381	9.34
358.591	9.65
358.801	9.16
359.011	9.53
359.221	9.07
359.43	9.09
359.64	9.65
359.85	9.62
360.06	9.6
360.269	9.86
360.479	9.18
360.689	8.63
360.899	8.44
361.108	8.49
361.318	8.04
361.528	8.15
361.737	7.47
361.947	6.41
362.156	6.22
362.366	6.47
362.576	6.5
362.785	6.93
362.995	6.88
363.204	6.89
363.414	6.94
363.623	6.77
363.833	7.53
364.042	7.89
364.252	8.52
364.461	8.64
364.671	8.19
364.88	8.56
365.09	8.71
365.299	9.15
365.509	8.91
365.718	8.57
365.927	8.55
366.137	8.04
366.346	8.2
366.555	7.96
366.765	7.94
366.974	8.42
367.183	7.88
367.393	7.42
367.602	7.27
367.811	7.27
368.021	7.3
368.23	7.46
368.439	6.82
368.648	6.92
368.857	7.44
369.067	7.88
369.276	7.52
369.485	7.76
369.694	7.81
369.903	8.42
370.112	8.61
370.321	8.78
370.531	8.45
370.74	9.01
370.949	9.11
371.158	9
371.367	8.81
371.576	8.56
371.785	7.87
371.994	7.61
372.203	7.32
372.412	7.24
372.621	7.74
372.83	8.24
373.039	8.18
373.248	7.93
373.457	8.08
373.666	7.61
373.874	7.99
374.083	8.67
374.292	8.82
374.501	8.31
374.71	7.91
374.919	7.63
375.128	7.65
375.336	7.17
375.545	7.24
375.754	6.66
375.963	6.83
376.171	6.72
376.38	6.33
376.589	6.92
376.798	6.83
377.006	6.99
377.215	7.18
377.424	6.56
377.632	6.9
377.841	6.92
378.05	6.81
378.258	6.74
378.467	6.76
378.675	6.99
378.884	6.59
379.093	6.74
379.301	6.62
379.51	6.04
379.718	6.21
379.927	6.15
380.135	5.39
380.344	5.61
380.552	5.01
380.761	4.99
380.969	4.44
381.177	4.35
381.386	3.76
381.594	3.63
381.803	3.72
382.011	3.93
382.219	3.55
382.428	3.29
382.636	3.25
382.845	4.17
383.053	4.24
383.261	4.16
383.469	4.25
383.678	4.93
383.886	5.01
384.094	4.81
384.302	4.64
384.511	5.27
384.719	6.07
384.927	5.89
385.135	5.8
385.343	5.99
385.552	6.26
385.76	6.24
385.968	6.23
386.176	6.26
386.384	6.2
386.592	6.22
386.8	5.59
387.008	5.5
387.216	5.78
387.424	5.46
387.633	5.26
387.841	5.04
388.049	5.1
388.257	5.17
388.465	5.33
388.672	5.77
388.88	5.57
389.088	5.86
389.296	5.71
389.504	5.93
389.712	6.07
389.92	5.77
390.128	5.89
390.336	5.91
390.544	6.13
390.751	5.78
390.959	5.4
391.167	5.53
391.375	5.6
391.583	5.55
391.79	5.02
391.998	4.79
392.206	5.18
392.414	4.82
392.621	4.74
392.829	4.62
393.037	4.87
393.244	4.98
393.452	5.26
393.66	5.16
393.867	5.41
394.075	5.51
394.283	5.59
394.49	5.33
394.698	5.77
394.905	5.64
395.113	5.22
395.32	5.34
395.528	5.44
395.735	5.13
395.943	4.73
396.15	4.51
396.358	4.54
396.565	4.59
396.773	5.04
396.98	5.1
397.188	5.16
397.395	5.37
397.602	5.08
397.81	4.9
398.017	5.24
398.225	5.36
398.432	5.61
398.639	5.69
398.847	5.9
399.054	5.43
399.261	5.2
399.468	5.13
399.676	4.95
399.883	5.2
400.09	5.16
400.297	5.02
400.505	5.2
400.712	4.91
400.919	4.98
401.126	5.01
401.333	5.21
401.54	5.39
401.748	5.5
401.955	5.57
402.162	5.53
402.369	5.56
402.576	5.57
402.783	5.84
402.99	5.9
403.197	5.75
403.404	5.44
403.611	5.17
403.818	5.12
404.025	4.97
404.232	4.89
404.439	4.63
404.646	4.45
404.853	4.16
405.06	3.86
405.267	3.67
405.474	3.44
405.681	3.41
405.887	3.53
406.094	3.42
406.301	3.6
406.508	3.8
406.715	4.22
406.922	4.54
407.128	4.41
407.335	4.51
407.542	4.6
407.749	4.81
407.955	5.04
408.162	4.62
408.369	4.83
408.575	4.53
408.782	4.22
408.989	3.72
409.195	3.78
409.402	4.15
409.609	4.12
409.815	4.27
410.022	4.46
410.228	4.2
410.435	4.57
410.642	4.12
410.848	4.31
411.055	4.25
411.261	4.52
411.468	4.37
411.674	3.91
411.881	3.99
412.087	4.1
412.294	3.81
412.5	3.76
412.706	3.97
412.913	4.23
413.119	4.03
413.326	4.11
413.532	4.01
413.738	3.85
413.945	4.34
414.151	4.06
414.357	3.98
414.564	3.91
414.77	4.03
414.976	3.44
415.182	3.67
415.389	3.96
415.595	3.89
415.801	3.72
416.007	4.03
416.214	3.79
416.42	3.96
416.626	3.89
416.832	4.03
417.038	3.84
417.244	4.2
417.45	3.74
417.657	3.79
417.863	4.03
418.069	4.27
418.275	4.19
418.481	4.12
418.687	4.01
418.893	3.98
419.099	3.92
419.305	4.13
419.511	3.97
419.717	4.08
419.923	3.83
420.129	3.67
420.335	3.61
420.541	3.58
420.746	3.55
420.952	3.61
421.158	3.59
421.364	3.53
421.57	3.48
421.776	3.51
421.982	3.5
422.187	3.45
422.393	3.34
422.599	3.14
422.805	3.18
423.01	3.26
423.216	3.14
423.422	3.08
423.628	3.13
423.833	3.03
424.039	3.14
424.245	3.1
424.45	3.25
424.656	3.38
424.862	3.41
425.067	3.38
425.273	3.3
425.478	3.4
425.684	3.41
425.889	3.61
426.095	3.73
426.301	3.54
426.506	3.61
426.712	3.67
426.917	3.63
427.123	3.8
427.328	3.72
427.533	3.91
427.739	3.93
427.944	3.81
428.15	3.5
428.355	3.57
428.561	3.67
428.766	3.53
428.971	3.59
429.177	3.69
429.382	3.82
429.587	3.99
429.793	3.86
429.998	3.94
430.203	4.13
430.408	4.22
430.614	4.28
430.819	4.17
431.024	4.33
431.229	4.1
431.434	4.22
431.64	4.1
431.845	4.14
432.05	4.4
432.255	4.3
432.46	4.15
432.665	4.09
432.87	3.91
433.076	3.97
433.281	4.06
433.486	3.99
433.691	3.73
433.896	3.47
434.101	3.25
434.306	3.14
434.511	2.98
434.716	3.18
434.921	3.31
435.126	3.21
435.331	3.12
435.535	2.93
435.74	2.99
435.945	3.07
436.15	3.22
436.355	3.46
436.56	3.38
436.765	3.47
436.97	3.33
437.174	3.18
437.379	3.33
437.584	3.66
437.789	3.66
437.993	3.7
438.198	3.7
438.403	3.79
438.608	3.64
438.812	3.44
439.017	3.45
439.222	3.43
439.426	3.45
439.631	3.44
439.836	3.15
440.04	3.28
440.245	3.25
440.45	3.34
440.654	3.28
440.859	3.28
441.063	3.29
441.268	3.24
441.472	3.33
441.677	3.36
441.881	3.22
442.086	3.3
442.29	3.19
442.495	3.14
442.699	3.04
442.904	3.13
443.108	3.08
443.312	3.17
443.517	3.29
443.721	3.14
443.925	3.05
444.13	3.19
444.334	3.18
444.538	3.14
444.743	3.13
444.947	3.22
445.151	3.06
445.356	3.03
445.56	3.11
445.764	3.04
445.968	3.01
446.173	2.9
446.377	2.93
446.581	2.97
446.785	3.05
446.989	3.05
447.193	3.02
447.398	3.04
447.602	3.03
447.806	3.08
448.01	3.29
448.214	3.47
448.418	3.66
448.622	3.66
448.826	3.65
449.03	3.61
449.234	3.7
449.438	3.56
449.642	3.65
449.846	3.71
450.05	3.62
450.254	3.28
450.458	3.36
450.662	3.2
450.866	3.1
451.069	3.06
451.273	3
451.477	2.81
451.681	2.92
451.885	2.81
452.089	2.8
452.292	2.79
452.496	2.99
452.7	2.85
452.904	2.96
453.107	3.01
453.311	3.11
453.515	3.08
453.719	3.1
453.922	3.21
454.126	3.2
454.33	3.24
454.533	3.09
454.737	2.95
454.94	2.98
455.144	2.91
455.348	2.85
455.551	2.83
455.755	2.96
455.958	3.18
456.162	2.92
456.365	3
456.569	2.92
456.772	3.11
456.976	3.2
457.179	3.11
457.383	3.14
457.586	3.34
457.79	3.39
457.993	3.45
458.196	3.31
458.4	3.36
458.603	3.33
458.807	3.34
459.01	3.4
459.213	3.22
459.417	3.11
459.62	3.2
459.823	3.12
460.026	2.98
460.23	2.97
460.433	2.98
