Data from LC_164_Reflection_6.txt Node
Date: Mon Nov 16 22:59:04 EST 2015
User: robert
Spectrometer: USB4E03001
Autoset integration time: false
Trigger mode: 4
Integration Time (sec): 1.000000E-1
Scans to average: 15
Electric dark correction enabled: true
Nonlinearity correction enabled: false
Boxcar width: 5
Stray light correction enabled: false
XAxis mode: Wavelengths
Stop averaging: false
Number of Pixels in Spectrum: 3648
>>>>>Begin Spectral Data<<<<<
177.566	-2000
177.785	-14.81
178.005	-1082.35
178.225	55.06
178.445	-128.14
178.665	951.71
178.885	82.91
179.105	4.67
179.324	-323.36
179.544	24.42
179.764	-182.28
179.984	15.12
180.204	-25.39
180.423	-112.32
180.643	-137.89
180.863	-54.66
181.083	-25.54
181.302	-82.79
181.522	-60.07
181.742	-75.13
181.961	-190.3
182.181	-123.29
182.401	-184.95
182.621	-1119.35
182.84	-545.83
183.06	-390.48
183.279	-242.13
183.499	-182.99
183.719	-195.84
183.938	-207.77
184.158	-223.95
184.377	-121.25
184.597	-218.73
184.816	-119.27
185.036	-61.09
185.256	-18.99
185.475	-30.27
185.695	-32.7
185.914	-37.52
186.134	-41.91
186.353	-75.32
186.572	-151.27
186.792	-271.45
187.011	-48.69
187.231	-85.83
187.45	-48.74
187.67	-444.62
187.889	-1215.13
188.108	2278.48
188.328	-610.29
188.547	-176.34
188.766	-299.53
188.986	-316.97
189.205	-224.75
189.424	-184.65
189.644	-529.05
189.863	-559.74
190.082	-235.55
190.302	-617.41
190.521	-401.73
190.74	510.47
190.959	326.02
191.178	518.34
191.398	496.64
191.617	424.71
191.836	334.86
192.055	666.02
192.274	288.45
192.494	330.35
192.713	346.38
192.932	844.2
193.151	616.15
193.37	932.4
193.589	-592.27
193.808	-109.36
194.027	-110.08
194.246	-1397.21
194.465	377.66
194.685	1081.48
194.904	506.46
195.123	-536.99
195.342	-225.87
195.561	-98.84
195.78	-145.69
195.999	6495.77
196.218	296.99
196.436	367.44
196.655	-1602.59
196.874	-555.94
197.093	-542.5
197.312	-365.38
197.531	1296.96
197.75	508.76
197.969	-1729.55
198.188	-367.22
198.407	-58.89
198.625	-99.27
198.844	-46.51
199.063	-28.86
199.282	-141.13
199.501	-114.21
199.719	-78.92
199.938	-39.26
200.157	-37.31
200.376	-20.52
200.594	-56.17
200.813	-144.52
201.032	-90.45
201.251	-122.72
201.469	-84.36
201.688	-70.33
201.907	-177.07
202.125	-264.03
202.344	9065.48
202.563	2110.33
202.781	419.01
203	1119.53
203.218	1002.83
203.437	877.19
203.656	448.86
203.874	289.48
204.093	213.59
204.311	272.34
204.53	290.12
204.748	447.73
204.967	250.42
205.185	240.64
205.404	288.5
205.622	198.06
205.841	146.85
206.059	131.16
206.278	136.01
206.496	446.22
206.715	281.86
206.933	211.91
207.151	180.5
207.37	197.69
207.588	219.28
207.806	203.37
208.025	305.88
208.243	-700
208.461	1466.67
208.68	-14021.18
208.898	596.68
209.116	566.15
209.335	586.45
209.553	580.73
209.771	5951.67
209.989	1102.91
210.208	2250.95
210.426	-4245.05
210.644	2242.22
210.862	-1688.91
211.081	609.95
211.299	-203.9
211.517	1181.7
211.735	-232.82
211.953	-95600
212.171	-1737.65
212.39	-4740.54
212.608	-10789.13
212.826	514.66
213.044	372.43
213.262	266.77
213.48	1798.52
213.698	207.19
213.916	226.28
214.134	131.11
214.352	188.08
214.57	138.38
214.788	195.44
215.006	210.3
215.224	212.07
215.442	182.49
215.66	207.67
215.878	175.33
216.096	211
216.314	278.22
216.532	463.7
216.75	408.06
216.968	398.61
217.185	876.37
217.403	1597.42
217.621	-4329.55
217.839	-1100.79
218.057	-1251.68
218.275	2361.74
218.492	716.17
218.71	1070.59
218.928	354.96
219.146	341.21
219.363	290.89
219.581	231.95
219.799	190.5
220.017	179.83
220.234	169.21
220.452	173.8
220.67	197.29
220.887	204.33
221.105	191.54
221.323	172.96
221.54	158.56
221.758	173.64
221.976	185.91
222.193	147.54
222.411	100.19
222.629	133.72
222.846	122.7
223.064	119.32
223.281	106.39
223.499	98.93
223.716	92.27
223.934	74.25
224.151	81.9
224.369	64.21
224.586	62.12
224.804	73.02
225.021	60.91
225.239	52.81
225.456	65.32
225.674	54.3
225.891	54.98
226.108	70.74
226.326	61.88
226.543	48.82
226.76	56.91
226.978	55.24
227.195	59.71
227.413	46.03
227.63	44.8
227.847	32.89
228.064	28.36
228.282	24.94
228.499	19.64
228.716	20.8
228.934	20.07
229.151	20.12
229.368	19.95
229.585	16.75
229.802	21.29
230.02	19.59
230.237	22.15
230.454	26.25
230.671	28.65
230.888	29.43
231.105	31.45
231.323	31.51
231.54	28.81
231.757	25.9
231.974	25.23
232.191	19.76
232.408	23
232.625	16.56
232.842	12.35
233.059	13.54
233.276	14.2
233.493	15.27
233.71	18.15
233.927	20.02
234.144	21.25
234.361	19.21
234.578	22.34
234.795	20.34
235.012	22.87
235.229	23.69
235.446	25.23
235.663	26.86
235.879	24.2
236.096	22.01
236.313	19.71
236.53	21.66
236.747	26.47
236.964	23.1
237.181	24.05
237.397	22.85
237.614	22.62
237.831	23.16
238.048	21.27
238.264	24.43
238.481	23.13
238.698	29.97
238.915	28.04
239.131	25.8
239.348	28.12
239.565	28.27
239.781	27.99
239.998	25.11
240.215	19.94
240.431	20.79
240.648	19.22
240.865	19.52
241.081	16.04
241.298	16.72
241.514	17.2
241.731	14.75
241.947	15.63
242.164	14.81
242.38	15.35
242.597	15.69
242.814	15.3
243.03	13.89
243.246	14.46
243.463	16.22
243.679	16.48
243.896	14.67
244.112	16.77
244.329	15.31
244.545	16.42
244.762	16.31
244.978	16.05
245.194	15.81
245.411	17.41
245.627	15.85
245.843	13.63
246.06	12.23
246.276	14.64
246.492	13.79
246.709	13.19
246.925	12.84
247.141	12.29
247.357	12.29
247.574	11.98
247.79	11.55
248.006	10.47
248.222	10.74
248.439	10.64
248.655	10.59
248.871	10.46
249.087	10.47
249.303	9.1
249.519	9.09
249.736	9.11
249.952	8.62
250.168	10.77
250.384	13.41
250.6	12.41
250.816	12.72
251.032	9.17
251.248	8.78
251.464	9.55
251.68	12.08
251.896	13.8
252.112	15.3
252.328	15.83
252.544	15.01
252.76	14.87
252.976	15.8
253.192	16.23
253.408	18.76
253.624	21.83
253.84	22.23
254.056	23.58
254.272	22
254.487	19.29
254.703	20.04
254.919	19.24
255.135	18.01
255.351	19.21
255.567	19.75
255.782	20.93
255.998	17.06
256.214	16.47
256.43	12.49
256.646	15.88
256.861	16.97
257.077	18.63
257.293	17.03
257.508	18.32
257.724	17.61
257.94	16.64
258.155	14.19
258.371	12.23
258.587	12.04
258.802	12.31
259.018	11.94
259.234	11.06
259.449	10.19
259.665	9.93
259.88	10.46
260.096	9.57
260.312	9.12
260.527	8.8
260.743	9.68
260.958	9.48
261.174	9.63
261.389	9.36
261.605	9.74
261.82	10.02
262.036	10.12
262.251	9.67
262.466	9.94
262.682	10.52
262.897	11.86
263.113	10.9
263.328	12.58
263.543	12.99
263.759	13.41
263.974	14.99
264.189	16.16
264.405	16.84
264.62	16.73
264.835	18.57
265.051	18.62
265.266	19.91
265.481	21.49
265.696	20.92
265.912	19.96
266.127	18.67
266.342	15.86
266.557	14
266.773	13.98
266.988	14.08
267.203	14.1
267.418	13.63
267.633	10.77
267.848	10.96
268.064	9.09
268.279	10.1
268.494	10.12
268.709	10.47
268.924	11.08
269.139	11.93
269.354	11.41
269.569	9.38
269.784	9.18
269.999	10.5
270.214	9.18
270.429	12.82
270.644	11.95
270.859	11.11
271.074	11.19
271.289	10.59
271.504	9.91
271.719	9.94
271.934	10.88
272.149	11.75
272.363	11.98
272.578	11.8
272.793	9.76
273.008	9.7
273.223	10.38
273.438	10.71
273.653	11.42
273.867	11.79
274.082	11.6
274.297	10.67
274.512	10.37
274.726	9.69
274.941	10.08
275.156	11.05
275.371	11.58
275.585	11.73
275.8	12.6
276.015	11.02
276.229	10.3
276.444	10.65
276.659	11.48
276.873	12.05
277.088	12.42
277.302	12.78
277.517	12.77
277.732	13.43
277.946	13.63
278.161	13.85
278.375	14.78
278.59	14.39
278.804	15.28
279.019	16.01
279.233	14.15
279.448	14.03
279.662	12.18
279.877	12.59
280.091	12.45
280.306	10.42
280.52	10.29
280.735	9.41
280.949	9.56
281.163	9.18
281.378	7.27
281.592	7.83
281.806	8.2
282.021	8.78
282.235	8.45
282.449	8.01
282.664	9.16
282.878	8.3
283.092	9.86
283.307	10.42
283.521	10.21
283.735	11.52
283.949	12.19
284.164	12.52
284.378	12.37
284.592	10.62
284.806	9.91
285.02	9.76
285.234	9.18
285.449	8.07
285.663	8.2
285.877	7.91
286.091	7.71
286.305	7.09
286.519	6.21
286.733	6.4
286.947	7.39
287.161	7.9
287.375	8.85
287.589	10.43
287.803	10.6
288.017	10.83
288.231	10.23
288.445	10.57
288.659	11.66
288.873	12.03
289.087	12.43
289.301	11.85
289.515	12.33
289.729	10.65
289.943	10.16
290.157	10.38
290.371	10.98
290.584	11.64
290.798	11.99
291.012	12.2
291.226	11.93
291.44	12.18
291.654	12.69
291.867	12.27
292.081	11.47
292.295	11.74
292.509	11.59
292.722	10.73
292.936	10
293.15	9.53
293.364	9.2
293.577	10.77
293.791	9.63
294.005	11.11
294.218	11.08
294.432	12.38
294.645	11.96
294.859	11.54
295.073	11.72
295.286	12.75
295.5	12.49
295.713	12.45
295.927	11.22
296.14	12.15
296.354	11.28
296.568	10.67
296.781	11
296.994	11.09
297.208	11.37
297.421	11.53
297.635	11.3
297.848	10.84
298.062	9.93
298.275	10.92
298.489	11.25
298.702	11.44
298.915	12.32
299.129	12.83
299.342	12.82
299.555	13.4
299.769	13.03
299.982	13.47
300.195	14.25
300.409	15.34
300.622	14.94
300.835	15.13
301.048	14.23
301.262	12.85
301.475	12.11
301.688	12.64
301.901	13.14
302.115	13.01
302.328	13.2
302.541	12.64
302.754	13.23
302.967	13.33
303.18	12.7
303.393	13.91
303.607	15.01
303.82	14.86
304.033	14.6
304.246	15.28
304.459	15.13
304.672	14.6
304.885	15.44
305.098	14.92
305.311	14.63
305.524	14.6
305.737	14.59
305.95	15.43
306.163	14.74
306.376	13.84
306.589	11.35
306.802	11.83
307.015	12.57
307.228	12.4
307.44	11.81
307.653	11.41
307.866	10.78
308.079	11.64
308.292	11.58
308.505	12.88
308.718	13.11
308.93	13.73
309.143	14.29
309.356	13.14
309.569	13.03
309.781	13.68
309.994	13.73
310.207	14.77
310.42	12.86
310.632	12
310.845	11.89
311.058	11.57
311.27	11.93
311.483	10.54
311.696	11.17
311.908	11.65
312.121	11.81
312.333	12.81
312.546	11.89
312.759	13.08
312.971	13.26
313.184	13.74
313.396	13.24
313.609	13.99
313.821	15.55
314.034	15.56
314.246	15.07
314.459	14.35
314.671	13.14
314.884	13.3
315.096	12.6
315.309	12.13
315.521	13.25
315.733	13.57
315.946	10.52
316.158	10.64
316.371	10.27
316.583	10.79
316.795	11.22
317.008	11.78
317.22	13.19
317.432	13.27
317.644	14
317.857	11.71
318.069	12.83
318.281	13.61
318.494	12.71
318.706	13.68
318.918	12.63
319.13	13.32
319.342	12.33
319.555	11.28
319.767	12.58
319.979	12.16
320.191	12.36
320.403	12.47
320.615	13.87
320.827	14.02
321.039	13.18
321.252	13.48
321.464	13.96
321.676	14.7
321.888	13.93
322.1	12.96
322.312	11.6
322.524	10.58
322.736	10.49
322.948	9.25
323.16	8.71
323.372	8.62
323.584	8.39
323.796	6.19
324.007	6.14
324.219	6.93
324.431	7.16
324.643	7.75
324.855	8.02
325.067	7.84
325.279	8.42
325.491	8.88
325.702	8.25
325.914	9.13
326.126	10.58
326.338	11.05
326.55	10.99
326.761	11.39
326.973	11.35
327.185	13.11
327.396	14.07
327.608	14.86
327.82	14.98
328.032	16.74
328.243	16.34
328.455	16.55
328.666	16.28
328.878	16.09
329.09	15.21
329.301	16.66
329.513	16.17
329.725	15.45
329.936	14.67
330.148	15.07
330.359	14.08
330.571	13.69
330.782	13.11
330.994	13.17
331.205	14.76
331.417	14.26
331.628	14.13
331.84	14.29
332.051	14.55
332.262	15.72
332.474	15.1
332.685	16.3
332.897	16.75
333.108	17.58
333.319	17.3
333.531	16.8
333.742	18.67
333.953	18.08
334.165	18.14
334.376	18.07
334.587	17.82
334.799	18.46
335.01	17.22
335.221	16.78
335.432	15.65
335.644	14.78
335.855	15.16
336.066	14.79
336.277	14.64
336.488	14.56
336.7	13.44
336.911	14.07
337.122	12.99
337.333	13.57
337.544	14.87
337.755	15.46
337.966	15.6
338.177	15.02
338.388	14.72
338.599	15.76
338.811	15.29
339.022	16.27
339.233	15.69
339.444	16.73
339.655	14.89
339.866	13.78
340.076	14.41
340.287	16.21
340.498	15.91
340.709	15.82
340.92	15.43
341.131	15.94
341.342	15.68
341.553	15.2
341.764	15.8
341.975	17.92
342.185	18.27
342.396	17.59
342.607	16.88
342.818	16.97
343.029	17.19
343.239	17.32
343.45	17.05
343.661	16.93
343.872	16.79
344.082	16.34
344.293	15.8
344.504	17.68
344.714	17.01
344.925	16.02
345.136	16.19
345.346	14.9
345.557	14.91
345.768	14.65
345.978	15.03
346.189	15.3
346.399	14.72
346.61	15.62
346.821	13.76
347.031	14.52
347.242	15.02
347.452	14.84
347.663	15.91
347.873	16.06
348.084	15.83
348.294	16.01
348.504	15.93
348.715	16.45
348.925	14.96
349.136	14.75
349.346	14.34
349.557	15.06
349.767	15.98
349.977	15.28
350.188	15.53
350.398	16.32
350.608	15.4
350.819	15.89
351.029	15.32
351.239	15.96
351.449	15.69
351.66	15.96
351.87	16.2
352.08	15.26
352.29	15.47
352.501	13.86
352.711	13.49
352.921	14.33
353.131	13.75
353.341	14.05
353.552	13.49
353.762	14.3
353.972	14.1
354.182	13.89
354.392	13.57
354.602	13.24
354.812	14.13
355.022	14.06
355.232	13.83
355.442	13.54
355.652	14.28
355.862	14.4
356.072	14.61
356.282	14.7
356.492	14.16
356.702	14.57
356.912	15.33
357.122	15.2
357.332	15.07
357.542	15.04
357.752	14.93
357.962	14.4
358.171	14.61
358.381	14.1
358.591	14.33
358.801	14.23
359.011	14.31
359.221	14.07
359.43	14.57
359.64	14.91
359.85	15.05
360.06	15.96
360.269	15.82
360.479	15.72
360.689	15.4
360.899	15.27
361.108	15.46
361.318	15.37
361.528	15.16
361.737	14.45
361.947	13.85
362.156	13.66
362.366	13.31
362.576	13.3
362.785	13.12
362.995	13.14
363.204	12.99
363.414	13.09
363.623	12.73
363.833	13.52
364.042	14.13
364.252	14.83
364.461	14.9
364.671	14.59
364.88	14.87
365.09	15.55
365.299	16
365.509	15.62
365.718	15.07
365.927	15.31
366.137	15.11
366.346	14.75
366.555	13.92
366.765	13.88
366.974	14.51
367.183	14.3
367.393	13.11
367.602	12.47
367.811	13.07
368.021	12.75
368.23	12.92
368.439	12.34
368.648	12.23
368.857	13.25
369.067	13.35
369.276	12.61
369.485	12.65
369.694	13.15
369.903	13.51
370.112	12.99
370.321	13.5
370.531	12.97
370.74	12.8
370.949	12.9
371.158	12.37
371.367	12.28
371.576	12.19
371.785	11.54
371.994	11.52
372.203	11.7
372.412	11.69
372.621	12.05
372.83	12.49
373.039	12.84
373.248	12.57
373.457	12.71
373.666	12.39
373.874	12.4
374.083	13.08
374.292	12.97
374.501	12.53
374.71	12.36
374.919	12.14
375.128	11.63
375.336	11.14
375.545	11.33
375.754	10.94
375.963	10.87
376.171	10.8
376.38	10.45
376.589	11.05
376.798	10.71
377.006	11.36
377.215	11.31
377.424	11.4
377.632	11.71
377.841	11.59
378.05	11.66
378.258	11.9
378.467	11.83
378.675	12.06
378.884	11.42
379.093	11.64
379.301	11.09
379.51	10.71
379.718	10.73
379.927	10.76
380.135	10.62
380.344	10.62
380.552	9.96
380.761	10.07
380.969	9.66
381.177	10.18
381.386	10.02
381.594	10.02
381.803	10.46
382.011	10.34
382.219	10.14
382.428	9.86
382.636	9.66
382.845	10.31
383.053	10.57
383.261	10.42
383.469	10.12
383.678	10.48
383.886	10.3
384.094	9.74
384.302	9.93
384.511	9.88
384.719	9.91
384.927	9.92
385.135	9.84
385.343	9.87
385.552	10.23
385.76	10
385.968	9.58
386.176	9.37
386.384	9.74
386.592	9.44
386.8	9.47
387.008	9.93
387.216	9.95
387.424	9.99
387.633	9.9
387.841	9.41
388.049	9.42
388.257	9.37
388.465	9.51
388.672	9.66
388.88	9.72
389.088	9.9
389.296	9.27
389.504	9.56
389.712	9.52
389.92	8.99
390.128	9.19
390.336	9.29
390.544	9.81
390.751	9.64
390.959	9.43
391.167	9.31
391.375	9.09
391.583	9.31
391.79	9.12
391.998	8.96
392.206	9.36
392.414	9.14
392.621	9.29
392.829	8.97
393.037	9.09
393.244	8.77
393.452	8.97
393.66	8.79
393.867	8.87
394.075	8.75
394.283	8.96
394.49	8.78
394.698	8.93
394.905	8.56
395.113	8.43
395.32	8.48
395.528	8.67
395.735	8.62
395.943	8.51
396.15	8.46
396.358	8.64
396.565	8.45
396.773	8.79
396.98	8.66
397.188	8.71
397.395	8.59
397.602	8.57
397.81	8.56
398.017	8.68
398.225	8.74
398.432	8.93
398.639	8.67
398.847	8.64
399.054	8.11
399.261	8.11
399.468	8.19
399.676	8.36
399.883	8.45
400.09	8.38
400.297	8.42
400.505	8.92
400.712	8.78
400.919	9.25
401.126	9.29
401.333	9.39
401.54	9.56
401.748	9.31
401.955	9.39
402.162	9.08
402.369	9.17
402.576	8.94
402.783	8.6
402.99	8.56
403.197	8.19
403.404	7.85
403.611	8.06
403.818	8
404.025	8.17
404.232	8.16
404.439	8.15
404.646	7.95
404.853	7.66
405.06	7.5
405.267	7.33
405.474	7.33
405.681	7.4
405.887	7.24
406.094	7.12
406.301	7.11
406.508	7.04
406.715	7.21
406.922	7.21
407.128	7.44
407.335	7.57
407.542	7.67
407.749	7.88
407.955	8.23
408.162	8.12
408.369	8.49
408.575	8.21
408.782	7.95
408.989	7.88
409.195	7.78
409.402	8.04
409.609	8.13
409.815	8.18
410.022	7.98
410.228	7.65
410.435	7.81
410.642	7.61
410.848	8.02
411.055	8.18
411.261	8.21
411.468	8.52
411.674	8.09
411.881	7.93
412.087	8.12
412.294	8.14
412.5	8.12
412.706	7.88
412.913	7.94
413.119	7.66
413.326	7.29
413.532	7.37
413.738	7.06
413.945	7.5
414.151	7.38
414.357	7.34
414.564	7.33
414.77	7.46
414.976	7.59
415.182	7.6
415.389	7.65
415.595	7.86
415.801	7.78
416.007	8.03
416.214	7.62
416.42	7.65
416.626	7.42
416.832	7.32
417.038	7.13
417.244	7.28
417.45	7.03
417.657	7.2
417.863	7.42
418.069	7.56
418.275	7.52
418.481	7.51
418.687	7.52
418.893	7.51
419.099	7.48
419.305	7.77
419.511	7.63
419.717	7.69
419.923	7.58
420.129	7.44
420.335	7.23
420.541	7.18
420.746	7.24
420.952	7.28
421.158	7.18
421.364	7.12
421.57	6.98
421.776	7.04
421.982	7
422.187	6.86
422.393	6.9
422.599	6.87
422.805	6.9
423.01	6.87
423.216	6.66
423.422	6.66
423.628	6.71
423.833	6.63
424.039	6.65
424.245	6.7
424.45	6.84
424.656	6.82
424.862	6.91
425.067	6.98
425.273	7
425.478	7.16
425.684	7.22
425.889	7.39
426.095	7.49
426.301	7.47
426.506	7.46
426.712	7.4
426.917	7.32
427.123	7.45
427.328	7.35
427.533	7.42
427.739	7.45
427.944	7.55
428.15	7.18
428.355	7.08
428.561	7.02
428.766	7.03
428.971	7.08
429.177	7.07
429.382	6.99
429.587	6.98
429.793	6.91
429.998	6.88
430.203	6.81
430.408	7
430.614	7.19
430.819	7
431.024	7.17
431.229	7.12
431.434	7.29
431.64	7.22
431.845	7.21
432.05	7.21
432.255	7.15
432.46	6.86
432.665	6.94
432.87	6.84
433.076	6.97
433.281	6.99
433.486	7.01
433.691	6.78
433.896	6.64
434.101	6.61
434.306	6.7
434.511	6.7
434.716	6.99
434.921	7.01
435.126	6.87
435.331	6.83
435.535	6.71
435.74	6.61
435.945	6.73
436.15	6.74
436.355	6.84
436.56	6.83
436.765	6.9
436.97	6.8
437.174	6.66
437.379	6.86
437.584	6.96
437.789	6.84
437.993	6.99
438.198	6.98
438.403	7.06
438.608	7.03
438.812	6.84
439.017	6.85
439.222	6.84
439.426	6.92
439.631	6.9
439.836	6.81
440.04	7.07
440.245	6.96
440.45	6.92
440.654	6.88
440.859	6.71
441.063	6.78
441.268	6.72
441.472	6.75
441.677	6.67
441.881	6.54
442.086	6.57
442.29	6.32
442.495	6.36
442.699	6.46
442.904	6.48
443.108	6.62
443.312	6.64
443.517	6.63
443.721	6.54
443.925	6.61
444.13	6.65
444.334	6.7
444.538	6.72
444.743	6.77
444.947	6.71
445.151	6.7
445.356	6.61
445.56	6.62
445.764	6.6
445.968	6.64
446.173	6.61
446.377	6.62
446.581	6.5
446.785	6.51
446.989	6.51
447.193	6.52
447.398	6.45
447.602	6.4
447.806	6.47
448.01	6.61
448.214	6.64
448.418	6.56
448.622	6.58
448.826	6.68
449.03	6.65
449.234	6.6
449.438	6.47
449.642	6.38
449.846	6.52
450.05	6.43
450.254	6.27
450.458	6.39
450.662	6.51
450.866	6.37
451.069	6.21
451.273	6.21
451.477	6.09
451.681	6.05
451.885	6.03
452.089	6.02
452.292	5.94
452.496	5.97
452.7	5.88
452.904	5.88
453.107	5.98
453.311	6.14
453.515	6.1
453.719	5.93
453.922	6.09
454.126	6.21
454.33	6.29
454.533	6.23
454.737	6.18
454.94	6.2
455.144	6.21
455.348	6.26
455.551	6.25
455.755	6.23
455.958	6.53
456.162	6.38
456.365	6.46
456.569	6.29
456.772	6.32
456.976	6.29
457.179	6.22
457.383	6.14
457.586	6.21
457.79	6.16
457.993	6.19
458.196	6.03
458.4	6.26
458.603	6.28
458.807	6.43
459.01	6.63
459.213	6.59
459.417	6.51
459.62	6.51
