Data from LC_238_Reflection_1.txt Node
Date: Thu Nov 19 22:15:45 EST 2015
User: robert
Spectrometer: USB4E03001
Autoset integration time: false
Trigger mode: 4
Integration Time (sec): 1.000000E-1
Scans to average: 15
Electric dark correction enabled: true
Nonlinearity correction enabled: false
Boxcar width: 5
Stray light correction enabled: false
XAxis mode: Wavelengths
Stop averaging: false
Number of Pixels in Spectrum: 3648
>>>>>Begin Spectral Data<<<<<
177.566	93.35
177.785	56.4
178.005	48.84
178.225	17.58
178.445	9.23
178.665	7.49
178.885	34.13
179.105	-626.19
179.324	-435.1
179.544	-214.44
179.764	-47.7
179.984	-91.42
180.204	-179.34
180.423	-82.6
180.643	-24.24
180.863	-13.54
181.083	-87.49
181.302	-73.24
181.522	-19.38
181.742	-17.69
181.961	-28.58
182.181	-33.25
182.401	-37.87
182.621	-30.82
182.84	-166.72
183.06	-111.02
183.279	-100
183.499	-8.97
183.719	-289.09
183.938	-2095.96
184.158	1200
184.377	1119.34
184.597	-639.79
184.816	5897.17
185.036	334.9
185.256	-4057.78
185.475	-211.74
185.695	-109.94
185.914	-142.39
186.134	-352.46
186.353	-72.23
186.572	-83.87
186.792	-152.61
187.011	1241.77
187.231	883.3
187.45	1112.52
187.67	140.79
187.889	101.8
188.108	96.44
188.328	83.78
188.547	110.34
188.766	250.93
188.986	133.31
189.205	282.35
189.424	56.97
189.644	28.43
189.863	54.94
190.082	58.41
190.302	39.75
190.521	47.47
190.74	20.79
190.959	-5.39
191.178	-9.99
191.398	-52.73
191.617	-84.36
191.836	-555.36
192.055	-168.13
192.274	-324.15
192.494	-333.21
192.713	-109.82
192.932	-78.17
193.151	-77.24
193.37	-81.85
193.589	-108.11
193.808	-72.07
194.027	-56.93
194.246	-43.6
194.465	-42.5
194.685	-42.03
194.904	-27.66
195.123	-23.13
195.342	-65.17
195.561	-32.98
195.78	0.01
195.999	-1.41
196.218	-13.88
196.436	-8.18
196.655	-26.71
196.874	-16.78
197.093	-30.06
197.312	-94.21
197.531	-62.69
197.75	-81.22
197.969	-67.09
198.188	399.02
198.407	109.14
198.625	121.01
198.844	59.98
199.063	-505.79
199.282	-11.31
199.501	-34.18
199.719	-72.82
199.938	11.8
200.157	-29.36
200.376	-103.36
200.594	139.88
200.813	-48.34
201.032	207.33
201.251	-229.15
201.469	-547.97
201.688	-120.9
201.907	-208.63
202.125	-775.47
202.344	-169.79
202.563	-285.94
202.781	-323.44
203	-292.42
203.218	-166.8
203.437	-220.75
203.656	-133.46
203.874	-200.96
204.093	-376.36
204.311	-111.86
204.53	-58.56
204.748	-79.22
204.967	-30.04
205.185	-62.66
205.404	-101.36
205.622	-121.97
205.841	-59.74
206.059	-192.13
206.278	-132.19
206.496	-134.14
206.715	-90.04
206.933	-160.05
207.151	-55.83
207.37	-248.15
207.588	-376.09
207.806	-198.15
208.025	-245.29
208.243	-590.81
208.461	-669.69
208.68	-546.96
208.898	-330.02
209.116	-361.4
209.335	-469.98
209.553	-2005.33
209.771	10824.37
209.989	-1099.3
210.208	1037.81
210.426	1589.36
210.644	-409.35
210.862	-230.15
211.081	-230.47
211.299	-207.19
211.517	-156.71
211.735	-121.85
211.953	-73.99
212.171	-57.95
212.39	-44.7
212.608	-32.02
212.826	-0.38
213.044	-22.69
213.262	-32.64
213.48	-54.81
213.698	-57.01
213.916	-81.29
214.134	-70.89
214.352	-41.5
214.57	-55.92
214.788	-83.31
215.006	-28.69
215.224	-214.88
215.442	-466.53
215.66	-115.36
215.878	-279.09
216.096	-316.37
216.314	-426.7
216.532	-467.65
216.75	-1310.57
216.968	389.32
217.185	1171.71
217.403	1912.57
217.621	2802.81
217.839	-177.38
218.057	-76.76
218.275	17.68
218.492	31.01
218.71	44.02
218.928	14.37
219.146	-21.49
219.363	-0.44
219.581	-3.49
219.799	2.78
220.017	-11.69
220.234	-24.14
220.452	-2.26
220.67	-42.98
220.887	-51.31
221.105	-41.45
221.323	-28.4
221.54	5.05
221.758	6.45
221.976	3.17
222.193	3.32
222.411	13.3
222.629	18.98
222.846	3.69
223.064	1.41
223.281	6.32
223.499	-22.41
223.716	-22.41
223.934	-34.43
224.151	-30.88
224.369	-31.58
224.586	-48.51
224.804	-49.89
225.021	-46.86
225.239	-44.54
225.456	-51.77
225.674	-58.93
225.891	-34.84
226.108	-25.67
226.326	-23.73
226.543	-15.7
226.76	-19.66
226.978	-3.35
227.195	-15.18
227.413	-19.57
227.63	-24
227.847	-14.86
228.064	-9.41
228.282	-2.35
228.499	0.17
228.716	3.22
228.934	1.57
229.151	2.97
229.368	3.5
229.585	6.08
229.802	4.91
230.02	6.03
230.237	5.67
230.454	5.14
230.671	1.87
230.888	2.17
231.105	-0.72
231.323	1.33
231.54	-0.12
231.757	-5.16
231.974	-5.47
232.191	-3.44
232.408	-4.04
232.625	0.14
232.842	4.68
233.059	9.4
233.276	10.35
233.493	11.17
233.71	8.82
233.927	10.45
234.144	11.97
234.361	7.34
234.578	6.08
234.795	7.69
235.012	4.88
235.229	-2.37
235.446	-3.88
235.663	-13.53
235.879	-11.71
236.096	-16.69
236.313	-20.52
236.53	-12.79
236.747	-6.91
236.964	-2.84
237.181	-7.37
237.397	-10.04
237.614	-4.65
237.831	0.44
238.048	6.15
238.264	2.07
238.481	7.78
238.698	10.09
238.915	13.78
239.131	8.76
239.348	6.74
239.565	11.85
239.781	15.73
239.998	13.24
240.215	8.53
240.431	7.17
240.648	9.88
240.865	9.19
241.081	9.64
241.298	6.65
241.514	8.94
241.731	8.52
241.947	8.99
242.164	6.81
242.38	7.2
242.597	6.74
242.814	7.05
243.03	6.74
243.246	6.91
243.463	5.7
243.679	4.7
243.896	3.32
244.112	2.72
244.329	0.23
244.545	2.06
244.762	2.7
244.978	3.2
245.194	3.97
245.411	3.48
245.627	4.02
245.843	5.63
246.06	7.57
246.276	7.21
246.492	7.93
246.709	9.12
246.925	7.78
247.141	7.58
247.357	7.99
247.574	7.87
247.79	8.42
248.006	8.7
248.222	8.06
248.439	7.4
248.655	7.39
248.871	7.61
249.087	6.58
249.303	6.24
249.519	6.23
249.736	5.04
249.952	4.36
250.168	2.44
250.384	1.19
250.6	2.3
250.816	0.71
251.032	2
251.248	0.56
251.464	1.51
251.68	2.43
251.896	1.69
252.112	2.72
252.328	2.96
252.544	2.38
252.76	3.73
252.976	3.15
253.192	4.26
253.408	3.21
253.624	6.07
253.84	5.15
254.056	5.54
254.272	7.3
254.487	5.32
254.703	4.73
254.919	5.56
255.135	2.15
255.351	2.36
255.567	3.64
255.782	1.48
255.998	-1.78
256.214	-1.16
256.43	-2.63
256.646	-4.02
256.861	-1.42
257.077	0.39
257.293	-0.29
257.508	2.27
257.724	1.83
257.94	2.02
258.155	4.94
258.371	6.12
258.587	5.7
258.802	5.95
259.018	7.42
259.234	7.81
259.449	7.39
259.665	8.02
259.88	7.82
260.096	8.37
260.312	7.2
260.527	6.81
260.743	6.66
260.958	7.4
261.174	8.23
261.389	7.05
261.605	7.43
261.82	6.81
262.036	6.38
262.251	5.19
262.466	4.63
262.682	5.78
262.897	6.1
263.113	5.13
263.328	4.85
263.543	5.33
263.759	5.55
263.974	5.25
264.189	6.85
264.405	7.76
264.62	8.99
264.835	9.29
265.051	8.56
265.266	8.89
265.481	9.63
265.696	9.39
265.912	6.18
266.127	7.89
266.342	6.37
266.557	6.65
266.773	6.09
266.988	5.85
267.203	6.18
267.418	6.19
267.633	5.29
267.848	4.14
268.064	3.57
268.279	3.6
268.494	2.96
268.709	2.79
268.924	1.43
269.139	1.93
269.354	2.72
269.569	2.41
269.784	3.38
269.999	2.46
270.214	2.91
270.429	2.54
270.644	3.65
270.859	3.16
271.074	2.3
271.289	3.19
271.504	3.72
271.719	3.36
271.934	2.75
272.149	2.56
272.363	3.97
272.578	5.08
272.793	5.54
273.008	5.04
273.223	5.84
273.438	6.71
273.653	6.28
273.867	5.51
274.082	5.25
274.297	4.77
274.512	4.99
274.726	5.63
274.941	4.52
275.156	2.8
275.371	2.87
275.585	1.28
275.8	0.53
276.015	1.37
276.229	2.48
276.444	2.41
276.659	3.57
276.873	3.77
277.088	3.13
277.302	3.49
277.517	5.69
277.732	7.24
277.946	8.19
278.161	8.95
278.375	8.51
278.59	7.37
278.804	7.45
279.019	7.46
279.233	6.93
279.448	7.09
279.662	6.63
279.877	6.27
280.091	5.66
280.306	5.08
280.52	5.3
280.735	5.85
280.949	5.5
281.163	5.76
281.378	6.44
281.592	6.92
281.806	6.83
282.021	7.38
282.235	6.76
282.449	5.92
282.664	6.28
282.878	5.81
283.092	5.5
283.307	6.64
283.521	5.83
283.735	4.82
283.949	4.74
284.164	3.84
284.378	3.47
284.592	3.76
284.806	4.11
285.02	4.63
285.234	4.89
285.449	4.02
285.663	3.46
285.877	4.2
286.091	4.11
286.305	4.25
286.519	4.9
286.733	5.1
286.947	5.49
287.161	4.56
287.375	5.06
287.589	4.75
287.803	5.37
288.017	5.62
288.231	6.16
288.445	7.11
288.659	7.2
288.873	6.93
289.087	6.58
289.301	6.17
289.515	7.69
289.729	6.21
289.943	6.96
290.157	7.71
290.371	7.42
290.584	6.25
290.798	5.42
291.012	4.74
291.226	4.83
291.44	5.73
291.654	6.18
291.867	6.04
292.081	5.37
292.295	4.31
292.509	3.48
292.722	4.29
292.936	5.07
293.15	4.63
293.364	5.83
293.577	5.49
293.791	5.32
294.005	4.95
294.218	4.71
294.432	5.03
294.645	5.73
294.859	5.82
295.073	4.98
295.286	4.71
295.5	5.03
295.713	3.93
295.927	4.31
296.14	4.15
296.354	3.78
296.568	4.22
296.781	5.41
296.994	5.73
297.208	5.22
297.421	5.85
297.635	6.6
297.848	6.7
298.062	7.37
298.275	7.28
298.489	7.5
298.702	7.94
298.915	8.44
299.129	8.07
299.342	7.62
299.555	8.11
299.769	7.16
299.982	5.69
300.195	6
300.409	5.26
300.622	5.21
300.835	5.17
301.048	5.67
301.262	4.68
301.475	4.44
301.688	3.54
301.901	3.88
302.115	4.57
302.328	5.9
302.541	4.85
302.754	5.45
302.967	5.25
303.18	4.63
303.393	4.06
303.607	4.23
303.82	4.39
304.033	5.75
304.246	5.48
304.459	5.3
304.672	5.3
304.885	6.46
305.098	5.55
305.311	5.66
305.524	5.95
305.737	6.01
305.95	6.37
306.163	5.93
306.376	6.29
306.589	6.57
306.802	5.64
307.015	5.42
307.228	5.28
307.44	5.87
307.653	6.68
307.866	7.23
308.079	8.27
308.292	8.61
308.505	8.98
308.718	7.86
308.93	6.95
309.143	7.46
309.356	7.15
309.569	7.37
309.781	7.51
309.994	6.43
310.207	5.55
310.42	5.85
310.632	4.67
310.845	5.15
311.058	6.03
311.27	6.5
311.483	6.52
311.696	6.43
311.908	6.38
312.121	6.33
312.333	6.36
312.546	6.62
312.759	5.48
312.971	5.84
313.184	4.91
313.396	4.69
313.609	4.99
313.821	4.71
314.034	5.7
314.246	4.96
314.459	5.57
314.671	5.52
314.884	6.18
315.096	6.19
315.309	6.21
315.521	6.08
315.733	6.43
315.946	6.11
316.158	6.88
316.371	6.37
316.583	7.51
316.795	5.82
317.008	6.03
317.22	5.1
317.432	5.46
317.644	5.77
317.857	5.01
318.069	3.9
318.281	4.1
318.494	5.08
318.706	4.61
318.918	3.38
319.13	3.92
319.342	2.84
319.555	2.79
319.767	2.64
319.979	1.79
320.191	2.5
320.403	3.25
320.615	3.26
320.827	1.66
321.039	0.62
321.252	1.84
321.464	3.36
321.676	4.81
321.888	5.14
322.1	5.88
322.312	6.47
322.524	7.47
322.736	6.49
322.948	7.12
323.16	7.75
323.372	7.44
323.584	6.66
323.796	5.45
324.007	5.04
324.219	5.36
324.431	4.2
324.643	4.06
324.855	3.94
325.067	4.29
325.279	3.57
325.491	3.13
325.702	4.06
325.914	3.28
326.126	4.17
326.338	5.43
326.55	5.07
326.761	5.63
326.973	6.39
327.185	6.23
327.396	6.95
327.608	7.59
327.82	8.38
328.032	8.51
328.243	10.14
328.455	9.38
328.666	8.87
328.878	8.04
329.09	8.02
329.301	8.1
329.513	8.41
329.725	7.34
329.936	7.04
330.148	6.91
330.359	7.87
330.571	8.17
330.782	8.81
330.994	8.61
331.205	10.15
331.417	10.67
331.628	10.45
331.84	10.47
332.051	11.28
332.262	11.37
332.474	11.99
332.685	11.79
332.897	11.65
333.108	11.94
333.319	12.42
333.531	12.72
333.742	12.78
333.953	13.09
334.165	12.83
334.376	12.58
334.587	13.06
334.799	11.73
335.01	11.29
335.221	11.09
335.432	11.51
335.644	10.96
335.855	9.91
336.066	10.07
336.277	9.49
336.488	9.26
336.7	9.15
336.911	8.37
337.122	9.16
337.333	9.32
337.544	8.28
337.755	7.42
337.966	7.14
338.177	8.1
338.388	8.14
338.599	8.69
338.811	9.23
339.022	9.06
339.233	9.15
339.444	8.86
339.655	8.67
339.866	8.82
340.076	9.15
340.287	8.91
340.498	7.92
340.709	8.03
340.92	7.18
341.131	6.9
341.342	7.96
341.553	7.63
341.764	7.21
341.975	7.27
342.185	8.26
342.396	7.92
342.607	9.29
342.818	9.44
343.029	9.45
343.239	9.42
343.45	9.65
343.661	9
343.872	9.48
344.082	9.51
344.293	9.84
344.504	10.03
344.714	10.26
344.925	9.56
345.136	9.54
345.346	9.22
345.557	8.78
345.768	7.92
345.978	8.12
346.189	7.54
346.399	7.59
346.61	6.62
346.821	5.86
347.031	5.33
347.242	6.31
347.452	6.42
347.663	6.02
347.873	7.14
348.084	7.88
348.294	7.48
348.504	7.72
348.715	8.1
348.925	9.02
349.136	9.71
349.346	9.45
349.557	8.8
349.767	8.9
349.977	9.38
350.188	8.93
350.398	8.79
350.608	8.99
350.819	9.09
351.029	8.81
351.239	8.99
351.449	8.38
351.66	9.44
351.87	9.13
352.08	9.19
352.29	9.38
352.501	9.61
352.711	9.71
352.921	9.66
353.131	8.92
353.341	8.51
353.552	8.4
353.762	8.47
353.972	7.96
354.182	7.45
354.392	7.37
354.602	6.28
354.812	6.02
355.022	5.84
355.232	6.34
355.442	7.76
355.652	7.75
355.862	7.44
356.072	7.34
356.282	8.35
356.492	8.79
356.702	8.8
356.912	9.11
357.122	8.8
357.332	9.16
357.542	8.47
357.752	7.61
357.962	8.14
358.171	8.14
358.381	8.39
358.591	7.34
358.801	7.31
359.011	7.46
359.221	7.79
359.43	7.76
359.64	7.43
359.85	7.51
360.06	7.95
360.269	7.82
360.479	8.15
360.689	7.91
360.899	8.11
361.108	8.23
361.318	8.05
361.528	8
361.737	8.72
361.947	8.78
362.156	9.04
362.366	9.11
362.576	9.06
362.785	8.77
362.995	8.5
363.204	8.69
363.414	8.14
363.623	8.09
363.833	7.61
364.042	7.38
364.252	7.43
364.461	7.07
364.671	6.97
364.88	7.44
365.09	7.57
365.299	8.35
365.509	8.39
365.718	8.93
365.927	9.23
366.137	9.61
366.346	9.53
366.555	9.78
366.765	10.53
366.974	9.9
367.183	9.37
367.393	8.48
367.602	8.44
367.811	8.65
368.021	8.98
368.23	8.2
368.439	8.02
368.648	8.05
368.857	8.07
369.067	7.4
369.276	8.14
369.485	8.26
369.694	9.03
369.903	8.24
370.112	7.58
370.321	6.74
370.531	7.23
370.74	7.12
370.949	6.63
371.158	6.08
371.367	6.03
371.576	5.63
371.785	5.54
371.994	5.6
372.203	5.83
372.412	6.28
372.621	6.74
372.83	6.45
373.039	6.45
373.248	6.97
373.457	7.28
373.666	7.52
373.874	7.36
374.083	7.21
374.292	7.13
374.501	7.57
374.71	7.35
374.919	6.94
375.128	7.13
375.336	7.12
375.545	6.57
375.754	6.5
375.963	6.59
376.171	6.97
376.38	7.37
376.589	7.35
376.798	6.81
377.006	6.48
377.215	6.85
377.424	6.32
377.632	6.51
377.841	6.88
378.05	7.29
378.258	7.07
378.467	7.02
378.675	6.72
378.884	6.64
379.093	6.87
379.301	6.94
379.51	6.73
379.718	7.25
379.927	7.31
380.135	7.04
380.344	6.49
380.552	6.62
380.761	6.34
380.969	6.67
381.177	6.55
381.386	6.28
381.594	5.83
381.803	5.77
382.011	5.65
382.219	5.55
382.428	5.67
382.636	5.84
382.845	5.69
383.053	5.76
383.261	5.31
383.469	5.45
383.678	5.7
383.886	6.13
384.094	6.43
384.302	6.49
384.511	6.4
384.719	6.31
384.927	6.01
385.135	6.18
385.343	6.17
385.552	6.33
385.76	6.33
385.968	6.18
386.176	6.12
386.384	5.84
386.592	5.84
386.8	6.09
387.008	5.94
387.216	5.53
387.424	5.41
387.633	5.58
387.841	5.25
388.049	5.33
388.257	5.62
388.465	5.86
388.672	5.92
388.88	5.87
389.088	5.64
389.296	6.05
389.504	6.71
389.712	6.68
389.92	6.53
390.128	6.7
390.336	6.59
390.544	6.58
390.751	6.65
390.959	6.64
391.167	6.92
391.375	6.79
391.583	6.25
391.79	6.2
391.998	6.35
392.206	6.3
392.414	6.65
392.621	6.43
392.829	6.21
393.037	6.15
393.244	6.17
393.452	5.9
393.66	5.9
393.867	6.12
394.075	6
394.283	5.61
394.49	5.48
394.698	5.18
394.905	5.48
395.113	5.47
395.32	5.38
395.528	5.35
395.735	5.65
395.943	5.68
396.15	5.65
396.358	5.5
396.565	5.73
396.773	5.87
396.98	5.96
397.188	5.78
397.395	6.02
397.602	5.79
397.81	5.46
398.017	5.08
398.225	5.16
398.432	4.83
398.639	4.73
398.847	4.62
399.054	4.3
399.261	4.46
399.468	4.37
399.676	4.01
399.883	4.19
400.09	4.52
400.297	4.7
400.505	4.69
400.712	4.99
400.919	5.37
401.126	5.4
401.333	5.62
401.54	5.67
401.748	5.96
401.955	6.1
402.162	6.25
402.369	6.24
402.576	6.41
402.783	6.28
402.99	6.27
403.197	6.3
403.404	6.26
403.611	6.71
403.818	6.54
404.025	6.46
404.232	6.2
404.439	6.18
404.646	5.97
404.853	5.76
405.06	5.64
405.267	5.85
405.474	5.74
405.681	5.87
405.887	5.72
406.094	5.64
406.301	5.68
406.508	6.14
406.715	5.86
406.922	5.85
407.128	5.63
407.335	6.02
407.542	6.07
407.749	6.2
407.955	6.23
408.162	6.13
408.369	6.25
408.575	6.1
408.782	5.83
408.989	6
409.195	6.19
409.402	6.4
409.609	6.13
409.815	5.69
410.022	5.45
410.228	5.34
410.435	5.23
410.642	5.27
410.848	5.3
411.055	5.27
411.261	5.46
411.468	5.34
411.674	5.51
411.881	5.81
412.087	5.9
412.294	6.07
412.5	5.98
412.706	6.21
412.913	5.98
413.119	6.03
413.326	5.86
413.532	5.72
413.738	5.92
413.945	5.77
414.151	5.57
414.357	5.77
414.564	5.7
414.77	5.72
414.976	5.56
415.182	5.46
415.389	5.47
415.595	5.47
415.801	5.34
416.007	5.25
416.214	5.31
416.42	5.25
416.626	5.3
416.832	5.56
417.038	5.55
417.244	5.39
417.45	5.69
417.657	5.78
417.863	6.13
418.069	6.18
418.275	6.36
418.481	6.31
418.687	6.34
418.893	6.35
419.099	6.1
419.305	6.22
419.511	6.35
419.717	6.16
419.923	6.06
420.129	5.9
420.335	5.78
420.541	5.64
420.746	5.67
420.952	5.8
421.158	5.74
421.364	5.76
421.57	5.7
421.776	5.7
421.982	5.77
422.187	5.76
422.393	5.64
422.599	5.72
422.805	5.6
423.01	5.59
423.216	5.41
423.422	5.35
423.628	5.27
423.833	5.22
424.039	5.06
424.245	5.08
424.45	5.09
424.656	5.25
424.862	5.23
425.067	5.2
425.273	5.21
425.478	5.35
425.684	5.46
425.889	5.63
426.095	5.68
426.301	5.86
426.506	5.81
426.712	5.83
426.917	5.8
427.123	5.91
427.328	6.04
427.533	6.15
427.739	6.08
427.944	5.98
428.15	5.81
428.355	5.58
428.561	5.46
428.766	5.52
428.971	5.76
429.177	5.75
429.382	5.68
429.587	5.72
429.793	5.41
429.998	5.33
430.203	5.23
430.408	5.33
430.614	5.54
430.819	5.62
431.024	5.53
431.229	5.33
431.434	5.19
431.64	5.02
431.845	5.21
432.05	5.31
432.255	5.09
432.46	5.25
432.665	5.3
432.87	5.3
433.076	5.12
433.281	5.05
433.486	5.11
433.691	5.19
433.896	5.37
434.101	5.2
434.306	5.22
434.511	5.21
434.716	5.18
434.921	5.05
435.126	5.09
435.331	5.13
435.535	5.21
435.74	5
435.945	5.09
436.15	5.02
436.355	5.13
436.56	5.21
436.765	5.51
436.97	5.41
437.174	5.44
437.379	5.46
437.584	5.5
437.789	5.49
437.993	5.63
438.198	5.52
438.403	5.47
438.608	5.45
438.812	5.29
439.017	5.17
439.222	5.36
439.426	5.33
439.631	5.21
439.836	5.38
440.04	5.5
440.245	5.51
440.45	5.53
440.654	5.6
440.859	5.56
441.063	5.7
441.268	5.82
441.472	5.76
441.677	5.76
441.881	5.79
442.086	5.5
442.29	5.43
442.495	5.37
442.699	5.33
442.904	5.39
443.108	5.37
443.312	5.16
443.517	4.92
443.721	4.84
443.925	4.97
444.13	5.19
444.334	5.57
444.538	5.63
444.743	5.68
444.947	5.8
445.151	5.62
445.356	5.64
445.56	5.74
445.764	5.77
445.968	5.86
446.173	5.85
446.377	5.72
446.581	5.56
446.785	5.6
446.989	5.58
447.193	5.37
447.398	5.36
447.602	5.36
447.806	5.34
448.01	5.33
448.214	5.27
448.418	5.12
448.622	5.04
448.826	5.09
449.03	4.98
449.234	4.78
449.438	4.79
449.642	4.73
449.846	4.51
450.05	4.5
450.254	4.59
450.458	4.49
450.662	4.55
450.866	4.55
451.069	4.52
451.273	4.48
451.477	4.59
451.681	4.62
451.885	4.76
452.089	4.87
452.292	4.82
452.496	4.76
452.7	4.75
452.904	4.77
453.107	4.92
453.311	5.05
453.515	4.97
453.719	5.14
453.922	5.27
454.126	5.17
454.33	5.35
454.533	5.26
454.737	5.13
454.94	5.09
455.144	5.16
455.348	4.98
455.551	4.87
455.755	4.8
455.958	4.86
456.162	4.99
456.365	5.07
456.569	5
456.772	5.06
456.976	5.21
457.179	5.39
457.383	5.25
457.586	5.18
457.79	5.09
457.993	5.1
458.196	4.82
458.4	4.77
458.603	4.82
458.807	4.83
459.01	4.83
459.213	4.83
459.417	4.85
459.62	4.81
459.823	4.94
460.026	4.95
460.23	4.99
460.433	5.05
460.636	4.98
460.839	4.94
461.042	4.91
461.246	4.86
461.449	4.83
461.652	4.71
461.855	4.86
462.058	4.76
462.261	4.83
462.464	4.89
462.668	5.03
462.871	5.24
463.074	5.23
463.277	5.03
463.48	5.18
463.683	5.4
463.886	5.46
464.089	5.35
464.292	5.45
464.495	5.44
464.698	5.36
464.901	5.17
465.104	5.09
465.306	5.15
465.509	5.31
465.712	5.22
465.915	5.12
466.118	5.12
466.321	5.19
466.524	5.17
466.726	5.12
466.929	5.2
467.132	5.3
467.335	5.22
467.538	5.15
467.74	5.18
467.943	5.23
468.146	5.1
468.348	5.21
468.551	5.13
