Data from LC_213__Reflection_3.txt Node
Date: Thu Nov 19 12:45:09 EST 2015
User: robert
Spectrometer: USB4E03001
Autoset integration time: false
Trigger mode: 4
Integration Time (sec): 1.000000E-1
Scans to average: 15
Electric dark correction enabled: true
Nonlinearity correction enabled: false
Boxcar width: 5
Stray light correction enabled: false
XAxis mode: Wavelengths
Stop averaging: false
Number of Pixels in Spectrum: 3648
>>>>>Begin Spectral Data<<<<<
177.566	219.06
177.785	-471.66
178.005	373.41
178.225	176.03
178.445	150.17
178.665	75.34
178.885	53.85
179.105	169.78
179.324	114.1
179.544	659.85
179.764	-32.43
179.984	-268.05
180.204	-29.16
180.423	36.49
180.643	34.04
180.863	4.46
181.083	-9.23
181.302	-83.15
181.522	-135.24
181.742	-40.14
181.961	-80.91
182.181	-65.77
182.401	-27.64
182.621	-54.8
182.84	-20.4
183.06	11.25
183.279	34.76
183.499	33.95
183.719	51.59
183.938	37.96
184.158	85.04
184.377	124.29
184.597	313.39
184.816	-214.17
185.036	-99.15
185.256	-9.48
185.475	17.92
185.695	54.38
185.914	47.02
186.134	57.6
186.353	49.75
186.572	89.76
186.792	174.86
187.011	-530.93
187.231	-289.34
187.45	-283.01
187.67	-126.42
187.889	-89.91
188.108	-675.82
188.328	-55.16
188.547	48.16
188.766	-68.29
188.986	123.81
189.205	92.21
189.424	90.79
189.644	137.07
189.863	146.93
190.082	43.14
190.302	45.78
190.521	45.05
190.74	86.19
190.959	446.82
191.178	671.36
191.398	118.3
191.617	157.55
191.836	40.45
192.055	-36.58
192.274	99.28
192.494	73.8
192.713	92.71
192.932	52.76
193.151	123.16
193.37	88.13
193.589	121.5
193.808	-29.9
194.027	660.28
194.246	278.73
194.465	-123.19
194.685	-689.01
194.904	1.16
195.123	-70.33
195.342	-9.8
195.561	-32.46
195.78	-859.76
195.999	-356.21
196.218	793.16
196.436	-3226.92
196.655	215.13
196.874	87.18
197.093	149.59
197.312	94.06
197.531	259.64
197.75	436.35
197.969	131.99
198.188	-505.38
198.407	59.49
198.625	54.07
198.844	2.54
199.063	44.05
199.282	31.72
199.501	33.65
199.719	37.62
199.938	37.24
200.157	17.01
200.376	-1.69
200.594	28.55
200.813	6.55
201.032	52.71
201.251	154.68
201.469	-2.35
201.688	65.58
201.907	49.67
202.125	47.11
202.344	55.89
202.563	48.73
202.781	59.62
203	35.94
203.218	20.15
203.437	-70.64
203.656	-202.44
203.874	-454.52
204.093	-305.1
204.311	263.3
204.53	86.8
204.748	70.69
204.967	55.46
205.185	61.43
205.404	60.63
205.622	35.21
205.841	5.84
206.059	-116.64
206.278	-2318.93
206.496	-15.45
206.715	1232.69
206.933	-31.38
207.151	7.73
207.37	-6.81
207.588	-7.77
207.806	-34.94
208.025	-46.6
208.243	-183.35
208.461	-954.42
208.68	-1723.95
208.898	-299.71
209.116	8313.46
209.335	-191.57
209.553	232.2
209.771	220.57
209.989	652.46
210.208	169.47
210.426	286.22
210.644	-21.54
210.862	23.57
211.081	-95.08
211.299	6.73
211.517	-17.58
211.735	-2094.23
211.953	-136.52
212.171	44.37
212.39	44.5
212.608	39.75
212.826	34.12
213.044	22.99
213.262	-33.41
213.48	16.14
213.698	-93.05
213.916	-30.54
214.134	-12.01
214.352	14.04
214.57	-37.33
214.788	-271.01
215.006	2922.12
215.224	462.83
215.442	375.72
215.66	155.36
215.878	127.88
216.096	49.38
216.314	10.91
216.532	47.9
216.75	45.01
216.968	33.62
217.185	18.3
217.403	27.68
217.621	-16.66
217.839	-10.67
218.057	1.11
218.275	41.91
218.492	62.54
218.71	69.21
218.928	53.18
219.146	63.42
219.363	56.25
219.581	56.35
219.799	52.99
220.017	62.65
220.234	73.3
220.452	106.94
220.67	91.46
220.887	37.88
221.105	23.18
221.323	87.91
221.54	75.59
221.758	76.66
221.976	45.4
222.193	42.14
222.411	44.62
222.629	40.42
222.846	35.65
223.064	35.25
223.281	40.03
223.499	51.93
223.716	49.93
223.934	23.57
224.151	37.12
224.369	81
224.586	92.25
224.804	112.77
225.021	109.37
225.239	121.88
225.456	113.6
225.674	70.47
225.891	37.47
226.108	34.83
226.326	37.53
226.543	12.82
226.76	-6.91
226.978	-27.88
227.195	10.42
227.413	-5.06
227.63	-9.23
227.847	-6.18
228.064	-7.11
228.282	-3.48
228.499	-7.92
228.716	-3.68
228.934	-0.11
229.151	3.3
229.368	3.52
229.585	3.72
229.802	4.03
230.02	6.56
230.237	8.18
230.454	11.28
230.671	9.46
230.888	8.22
231.105	11.09
231.323	8.94
231.54	10.04
231.757	11.44
231.974	7.73
232.191	13.53
232.408	17.98
232.625	19.91
232.842	31.71
233.059	32.86
233.276	39.07
233.493	26.85
233.71	34.67
233.927	21.66
234.144	23.63
234.361	22.98
234.578	19.21
234.795	10.97
235.012	12.54
235.229	3.52
235.446	4.43
235.663	-1.13
235.879	6.11
236.096	2.95
236.313	6.35
236.53	4.5
236.747	7.61
236.964	4.63
237.181	11.89
237.397	8.55
237.614	7.84
237.831	8.07
238.048	17.47
238.264	22.38
238.481	23.6
238.698	24.7
238.915	30.79
239.131	22.67
239.348	25.11
239.565	22.64
239.781	21.13
239.998	25.33
240.215	24.02
240.431	21.52
240.648	17.82
240.865	20.86
241.081	21.81
241.298	17.45
241.514	18.48
241.731	18.1
241.947	18.47
242.164	17.32
242.38	14.97
242.597	12.81
242.814	12
243.03	11.95
243.246	9.27
243.463	8.35
243.679	11.44
243.896	12.86
244.112	11.76
244.329	9.86
244.545	11.8
244.762	12.47
244.978	14.24
245.194	15.56
245.411	13.61
245.627	13.42
245.843	14.64
246.06	11.44
246.276	10.11
246.492	10.65
246.709	11.48
246.925	11.21
247.141	10.13
247.357	10.67
247.574	10.96
247.79	11.95
248.006	11.97
248.222	11.14
248.439	10.3
248.655	9.78
248.871	9.7
249.087	8.93
249.303	9.26
249.519	10.05
249.736	8.16
249.952	7.38
250.168	7.54
250.384	7.27
250.6	9.36
250.816	12.92
251.032	13.97
251.248	11.94
251.464	12.73
251.68	12.3
251.896	13.23
252.112	15.24
252.328	14.66
252.544	13.37
252.76	14.07
252.976	14.78
253.192	12.51
253.408	11.9
253.624	14.02
253.84	13.43
254.056	13.65
254.272	12.62
254.487	10.21
254.703	11.37
254.919	12.46
255.135	12.69
255.351	7.82
255.567	8.31
255.782	9.14
255.998	4.47
256.214	3.07
256.43	4.05
256.646	4.72
256.861	5.02
257.077	3.05
257.293	3.27
257.508	4.99
257.724	7.69
257.94	10.25
258.155	9.76
258.371	10.81
258.587	10.2
258.802	9.65
259.018	8.78
259.234	9.72
259.449	9.63
259.665	9.2
259.88	8.44
260.096	7.87
260.312	7.34
260.527	7.05
260.743	7.99
260.958	8.48
261.174	7.85
261.389	7.7
261.605	7.39
261.82	7.62
262.036	6.82
262.251	7.24
262.466	7.5
262.682	7.23
262.897	8.52
263.113	6.58
263.328	7.09
263.543	7.02
263.759	9.82
263.974	9.54
264.189	9.25
264.405	9.7
264.62	9.43
264.835	9.23
265.051	8.19
265.266	6.91
265.481	7.32
265.696	7.25
265.912	8.56
266.127	8.21
266.342	8.28
266.557	6.44
266.773	8.13
266.988	8.11
267.203	7.72
267.418	8.47
267.633	9.73
267.848	10.6
268.064	9.15
268.279	8.13
268.494	6.63
268.709	7.33
268.924	9.27
269.139	6.68
269.354	6.38
269.569	5.47
269.784	4.49
269.999	4.76
270.214	5.01
270.429	8.52
270.644	8.83
270.859	9.95
271.074	9.3
271.289	9.98
271.504	11.04
271.719	10.84
271.934	11.34
272.149	12.04
272.363	12.02
272.578	11.19
272.793	9.22
273.008	9.88
273.223	9.03
273.438	9.82
273.653	8.92
273.867	9.92
274.082	10.68
274.297	11.22
274.512	10.51
274.726	9.62
274.941	10.14
275.156	10.39
275.371	11.09
275.585	11.33
275.8	9.44
276.015	9.17
276.229	9.93
276.444	10.15
276.659	9.99
276.873	9.58
277.088	9.84
277.302	9.66
277.517	10.24
277.732	9.63
277.946	8.81
278.161	9.32
278.375	8.47
278.59	7.83
278.804	8.18
279.019	7.91
279.233	9.92
279.448	9.72
279.662	11.26
279.877	10.38
280.091	10.49
280.306	11.52
280.52	12.08
280.735	13.27
280.949	13.84
281.163	13.16
281.378	13.1
281.592	12.07
281.806	12.69
282.021	11.74
282.235	11.09
282.449	10.24
282.664	10.03
282.878	10
283.092	10.81
283.307	10.17
283.521	8.53
283.735	8.11
283.949	8.67
284.164	7.22
284.378	6.25
284.592	8.1
284.806	9.56
285.02	9.1
285.234	9.12
285.449	8.03
285.663	7.35
285.877	8.44
286.091	9.25
286.305	9.61
286.519	10.7
286.733	10.98
286.947	10.23
287.161	8.87
287.375	9.03
287.589	8.74
287.803	8.82
288.017	9.71
288.231	9.43
288.445	8.77
288.659	7.3
288.873	6.34
289.087	8.08
289.301	7.16
289.515	7.76
289.729	7.28
289.943	6.62
290.157	7.53
290.371	7.52
290.584	7.87
290.798	8.12
291.012	9.96
291.226	9.44
291.44	7.1
291.654	7.16
291.867	7.02
292.081	8.55
292.295	9.17
292.509	9.41
292.722	8.66
292.936	8.86
293.15	10.39
293.364	8.47
293.577	10.15
293.791	11.11
294.005	12.26
294.218	12.81
294.432	12.78
294.645	13.48
294.859	12.43
295.073	11.9
295.286	12.32
295.5	10.79
295.713	12.2
295.927	11.41
296.14	11.87
296.354	11.56
296.568	11.44
296.781	11.25
296.994	10.9
297.208	9.37
297.421	10.57
297.635	11.09
297.848	12.2
298.062	12.02
298.275	12.24
298.489	12.44
298.702	12.33
298.915	12.24
299.129	12.16
299.342	11.82
299.555	14.49
299.769	14.39
299.982	14
300.195	13.67
300.409	12.64
300.622	13
300.835	12.41
301.048	13.66
301.262	13.79
301.475	13.83
301.688	14.58
301.901	13.25
302.115	13.92
302.328	13.11
302.541	13.73
302.754	14.41
302.967	14.01
303.18	14.57
303.393	13.42
303.607	13.8
303.82	15.67
304.033	14.61
304.246	16.74
304.459	16.51
304.672	17.6
304.885	16.74
305.098	16.8
305.311	18.09
305.524	18.68
305.737	19.17
305.95	19.12
306.163	16.6
306.376	18.03
306.589	16.17
306.802	15.36
307.015	14.53
307.228	14.78
307.44	13.7
307.653	12.19
307.866	11.56
308.079	12.33
308.292	12.25
308.505	13.04
308.718	12.67
308.93	13.75
309.143	14.01
309.356	14.02
309.569	14.47
309.781	15.29
309.994	15.95
310.207	16.25
310.42	15.21
310.632	15.73
310.845	15.78
311.058	14.77
311.27	14.83
311.483	14.91
311.696	14.88
311.908	14.08
312.121	13.48
312.333	13.47
312.546	13.04
312.759	12.84
312.971	12.4
313.184	12.3
313.396	13.34
313.609	12.89
313.821	13.12
314.034	12.72
314.246	13.47
314.459	15.09
314.671	15.17
314.884	14.22
315.096	15.71
315.309	15.24
315.521	15.43
315.733	15.93
315.946	16.25
316.158	16.8
316.371	17.33
316.583	17.13
316.795	16.8
317.008	15.7
317.22	16.67
317.432	15.67
317.644	15.08
317.857	15.96
318.069	16.84
318.281	17.13
318.494	15.88
318.706	15.68
318.918	15.57
319.13	14.99
319.342	16.29
319.555	18.16
319.767	17.96
319.979	17.89
320.191	17.21
320.403	17.65
320.615	16.18
320.827	15.78
321.039	16.35
321.252	16.66
321.464	15.77
321.676	15.19
321.888	12.98
322.1	13.35
322.312	13.82
322.524	13.64
322.736	12.46
322.948	13.52
323.16	14.69
323.372	14.99
323.584	13.61
323.796	14.09
324.007	14.05
324.219	14.63
324.431	14.95
324.643	16.05
324.855	15.95
325.067	16.89
325.279	15.98
325.491	15.76
325.702	15.38
325.914	15.96
326.126	16.74
326.338	16.95
326.55	17.7
326.761	19.37
326.973	18.88
327.185	19.58
327.396	19.65
327.608	20.85
327.82	22.24
328.032	23.25
328.243	25.24
328.455	25.54
328.666	26.39
328.878	26.71
329.09	25.56
329.301	26.08
329.513	26.13
329.725	26.37
329.936	26.7
330.148	26.92
330.359	27.41
330.571	28.16
330.782	27.76
330.994	29.79
331.205	29.49
331.417	29.86
331.628	30.65
331.84	30.82
332.051	31.5
332.262	31.2
332.474	30.49
332.685	31.26
332.897	30.32
333.108	31.32
333.319	30.93
333.531	31.58
333.742	32.45
333.953	32.81
334.165	33.95
334.376	33.03
334.587	33.75
334.799	34.16
335.01	32.89
335.221	33.21
335.432	33.2
335.644	32.28
335.855	32.2
336.066	31.29
336.277	30.68
336.488	31.15
336.7	31.25
336.911	31.17
337.122	30.75
337.333	31.26
337.544	31.32
337.755	32.37
337.966	33.03
338.177	32.86
338.388	33.68
338.599	34.44
338.811	33.68
339.022	33.77
339.233	34.53
339.444	35.79
339.655	35.35
339.866	35.46
340.076	35.03
340.287	34.97
340.498	35.57
340.709	35.84
340.92	35.03
341.131	34.9
341.342	34.9
341.553	34.61
341.764	34.72
341.975	34.8
342.185	34.22
342.396	33.67
342.607	33.31
342.818	33.07
343.029	32.51
343.239	32.85
343.45	33.12
343.661	32.68
343.872	32.07
344.082	31.13
344.293	31.17
344.504	33.43
344.714	33.61
344.925	33.41
345.136	33.35
345.346	32.88
345.557	33.62
345.768	33.39
345.978	34.42
346.189	34.76
346.399	34.93
346.61	35.33
346.821	34.09
347.031	34.4
347.242	34.83
347.452	34.59
347.663	35.27
347.873	35.11
348.084	35.01
348.294	34.38
348.504	34.08
348.715	34.28
348.925	33.57
349.136	32.77
349.346	32.55
349.557	31.89
349.767	32.27
349.977	32.55
350.188	32.81
350.398	33.06
350.608	32.54
350.819	32.44
351.029	31.89
351.239	31.83
351.449	32.39
351.66	33.05
351.87	33.4
352.08	34.17
352.29	34.53
352.501	33.47
352.711	33.27
352.921	33.05
353.131	34.06
353.341	34.63
353.552	34.95
353.762	35.22
353.972	34.73
354.182	35.15
354.392	34.74
354.602	34.6
354.812	34.76
355.022	35.5
355.232	36.47
355.442	36.61
355.652	36.51
355.862	36.33
356.072	35.64
356.282	34.87
356.492	33.33
356.702	33.4
356.912	33.06
357.122	33.07
357.332	32.75
357.542	32.71
357.752	31.82
357.962	31.61
358.171	32.02
358.381	31.98
358.591	32.3
358.801	33.85
359.011	33.09
359.221	32.86
359.43	32.8
359.64	32.58
359.85	33.09
360.06	33.43
360.269	33.43
360.479	33.4
360.689	33.23
360.899	33.37
361.108	33.43
361.318	33.89
361.528	33.71
361.737	33.35
361.947	33.57
362.156	32.69
362.366	32.4
362.576	32.25
362.785	31.77
362.995	32.02
363.204	32.18
363.414	31.88
363.623	31.26
363.833	31.14
364.042	31.25
364.252	30.97
364.461	31.37
364.671	31.13
364.88	31.32
365.09	31.81
365.299	31.62
365.509	30.8
365.718	30.37
365.927	30.38
366.137	30.48
366.346	30.51
366.555	29.68
366.765	29.05
366.974	29.33
367.183	29.36
367.393	28.8
367.602	28.74
367.811	29.45
368.021	28.95
368.23	28.91
368.439	28.65
368.648	28.35
368.857	29.12
369.067	29.26
369.276	29.78
369.485	29.62
369.694	29.74
369.903	29.81
370.112	29.93
370.321	30.25
370.531	30.4
370.74	30.42
370.949	30.61
371.158	30.31
371.367	30.33
371.576	29.13
371.785	28.79
371.994	28.59
372.203	28.2
372.412	28.2
372.621	28.45
372.83	28.47
373.039	28.7
373.248	28.81
373.457	28.95
373.666	28.82
373.874	28.36
374.083	28.21
374.292	29.02
374.501	29.02
374.71	28.7
374.919	27.9
375.128	27.74
375.336	27.85
375.545	27.65
375.754	27.4
375.963	27.52
376.171	28.1
376.38	28.5
376.589	27.96
376.798	27.78
377.006	27.52
377.215	27.95
377.424	28.1
377.632	27.62
377.841	27.84
378.05	27.75
378.258	27.57
378.467	27.5
378.675	26.85
378.884	26.89
379.093	26.8
379.301	26.72
379.51	26.22
379.718	25.78
379.927	25.92
380.135	25.63
380.344	25.58
380.552	25.46
380.761	25.45
380.969	25.79
381.177	25.82
381.386	25.64
381.594	25.63
381.803	25.75
382.011	25.84
382.219	25.83
382.428	25.65
382.636	25.32
382.845	25.39
383.053	25.25
383.261	25.23
383.469	24.69
383.678	24.49
383.886	24.11
384.094	24.25
384.302	23.93
384.511	23.63
384.719	23.36
384.927	23.35
385.135	23.03
385.343	23.26
385.552	22.95
385.76	22.8
385.968	23.06
386.176	23.23
386.384	23.09
386.592	23.21
386.8	23.07
387.008	23.14
387.216	23.48
387.424	23.57
387.633	23.31
387.841	23.13
388.049	23.24
388.257	23.11
388.465	22.94
388.672	22.92
388.88	22.9
389.088	22.9
389.296	22.84
389.504	22.76
389.712	22.7
389.92	22.87
390.128	22.95
390.336	22.96
390.544	22.88
390.751	22.73
390.959	22.66
391.167	22.77
391.375	22.91
391.583	23.15
391.79	22.92
391.998	22.61
392.206	22.33
392.414	22.12
392.621	22.18
392.829	22
393.037	22.18
393.244	22.12
393.452	22
393.66	21.82
393.867	21.5
394.075	21.26
394.283	21.89
394.49	21.71
394.698	22.27
394.905	21.93
395.113	22.12
395.32	21.89
395.528	21.77
395.735	21.65
395.943	21.59
396.15	21.75
396.358	21.9
396.565	21.27
396.773	21.33
396.98	20.98
397.188	21.33
397.395	21.15
397.602	21.27
397.81	21.48
398.017	21.64
398.225	21.69
398.432	21.78
398.639	21.73
398.847	21.88
399.054	21.74
399.261	21.66
399.468	21.27
399.676	21.19
399.883	21.18
400.09	21.12
400.297	20.98
400.505	20.75
400.712	20.36
400.919	20.2
401.126	20.21
401.333	20.8
401.54	20.63
401.748	20.69
401.955	21.05
402.162	21.12
402.369	20.87
402.576	20.89
402.783	20.92
402.99	21.02
403.197	20.99
403.404	20.67
403.611	20.16
403.818	20.18
404.025	20.24
404.232	20.17
404.439	20.04
404.646	20.06
404.853	19.94
405.06	19.89
405.267	19.88
405.474	19.98
405.681	20.11
405.887	20.08
406.094	20.36
406.301	20.25
406.508	20.05
406.715	20.12
406.922	20.21
407.128	19.95
407.335	19.83
407.542	19.9
407.749	19.84
407.955	19.9
408.162	20.02
408.369	19.68
408.575	19.76
408.782	19.63
408.989	19.18
409.195	18.8
409.402	18.98
409.609	19.14
409.815	18.85
410.022	18.81
410.228	18.82
410.435	18.76
410.642	18.91
410.848	19.03
411.055	19.07
411.261	19.23
411.468	19.75
411.674	19.95
411.881	19.94
412.087	20.18
412.294	20.41
412.5	20.64
412.706	20.47
412.913	20.2
413.119	20.14
413.326	20.5
413.532	20.51
413.738	20.03
413.945	19.63
414.151	19.57
414.357	19.35
414.564	18.85
414.77	18.53
414.976	18.69
415.182	18.81
415.389	18.55
415.595	18.02
415.801	18.15
416.007	18.23
416.214	18.31
416.42	18.37
416.626	18.37
416.832	18.44
417.038	18.31
417.244	18.44
417.45	18.45
417.657	18.47
417.863	18.68
418.069	18.74
418.275	18.94
418.481	18.87
418.687	18.92
418.893	18.79
419.099	18.88
419.305	19.02
419.511	18.76
419.717	18.57
419.923	18.59
420.129	18.55
420.335	18.34
420.541	18.23
420.746	18.32
420.952	18.25
421.158	18.16
421.364	18.14
421.57	17.98
421.776	18.09
421.982	18.1
422.187	17.93
422.393	17.82
422.599	17.75
422.805	17.67
423.01	17.47
423.216	17.31
423.422	17.33
423.628	17.18
423.833	17.29
424.039	17.33
424.245	17.35
424.45	17.42
424.656	17.51
424.862	17.69
425.067	17.64
425.273	17.77
425.478	17.73
425.684	17.9
425.889	18.14
426.095	18.06
426.301	17.96
426.506	18.08
426.712	17.98
426.917	17.86
427.123	17.78
427.328	17.8
427.533	17.66
427.739	17.89
427.944	17.78
428.15	17.56
428.355	17.64
428.561	17.67
428.766	17.37
428.971	17.51
429.177	17.48
429.382	17.34
429.587	17.38
429.793	17.46
429.998	17.45
430.203	17.32
430.408	17.24
430.614	17.07
430.819	17
431.024	17.09
431.229	17.15
431.434	17.32
431.64	17.15
431.845	17.25
432.05	17.32
432.255	17.16
432.46	17.24
432.665	17.36
432.87	17.68
433.076	17.74
433.281	17.79
433.486	17.92
433.691	17.81
433.896	18.04
434.101	17.98
434.306	17.95
434.511	17.85
434.716	17.88
434.921	17.83
435.126	17.64
435.331	17.65
435.535	17.59
435.74	17.51
435.945	17.61
436.15	17.63
436.355	17.67
436.56	17.55
436.765	17.8
436.97	17.88
437.174	17.96
437.379	17.71
437.584	17.83
437.789	17.84
437.993	17.8
438.198	17.66
438.403	17.76
438.608	17.65
438.812	17.69
439.017	17.6
439.222	17.55
439.426	17.38
439.631	17.48
439.836	17.3
440.04	17.34
440.245	17.33
440.45	17.39
440.654	17.4
440.859	17.37
441.063	17.4
441.268	17.39
441.472	17.53
441.677	17.56
441.881	17.74
442.086	17.74
442.29	17.69
442.495	17.69
442.699	17.77
442.904	17.49
443.108	17.68
443.312	17.73
443.517	17.69
443.721	17.5
443.925	17.56
444.13	17.45
444.334	17.5
444.538	17.55
444.743	17.55
444.947	17.42
445.151	17.35
445.356	17.2
445.56	17.14
445.764	17.26
445.968	17.29
446.173	17.27
446.377	17.24
446.581	17.15
446.785	17.12
446.989	17.07
447.193	17.04
447.398	17.13
447.602	17.04
447.806	17.15
448.01	17.09
448.214	17.12
448.418	17.12
448.622	17.05
448.826	16.93
449.03	16.98
449.234	17.02
449.438	17.06
449.642	17.05
449.846	17.23
450.05	17.11
450.254	16.88
450.458	16.65
450.662	16.68
450.866	16.9
451.069	17.24
451.273	17.21
451.477	17.22
451.681	17.4
451.885	17.39
452.089	17.3
452.292	17.38
452.496	17.68
452.7	17.72
452.904	17.59
453.107	17.55
453.311	17.31
453.515	17.25
453.719	17.15
453.922	17.15
454.126	17.12
454.33	17.08
454.533	16.88
454.737	16.7
454.94	16.85
455.144	16.95
455.348	16.84
455.551	16.82
455.755	16.77
455.958	16.67
456.162	16.5
456.365	16.43
456.569	16.58
456.772	16.93
456.976	16.85
457.179	16.7
457.383	16.79
457.586	16.65
457.79	16.72
