Data from LC_244_Reflection_3.txt Node
Date: Thu Nov 19 22:40:51 EST 2015
User: robert
Spectrometer: USB4E03001
Autoset integration time: false
Trigger mode: 4
Integration Time (sec): 1.000000E-1
Scans to average: 15
Electric dark correction enabled: true
Nonlinearity correction enabled: false
Boxcar width: 5
Stray light correction enabled: false
XAxis mode: Wavelengths
Stop averaging: false
Number of Pixels in Spectrum: 3648
>>>>>Begin Spectral Data<<<<<
177.566	-112.59
177.785	-57.22
178.005	-34.33
178.225	-74.18
178.445	-58.17
178.665	-42.96
178.885	10.9
179.105	950
179.324	600.69
179.544	470.77
179.764	230.82
179.984	186.37
180.204	357.98
180.423	311.31
180.643	267.12
180.863	166.55
181.083	246.93
181.302	160.68
181.522	94.85
181.742	113.68
181.961	128.26
182.181	152.98
182.401	257.09
182.621	256.18
182.84	430.06
183.06	340.4
183.279	297.07
183.499	203.26
183.719	570.13
183.938	2663.64
184.158	-1255.4
184.377	-1415.15
184.597	750.87
184.816	-5648.11
185.036	-268.31
185.256	4113.33
185.475	412.19
185.695	372.98
185.914	392.04
186.134	804.19
186.353	457.65
186.572	370.74
186.792	640.53
187.011	-4858.23
187.231	-1950.09
187.45	-2231.96
187.67	-200.3
187.889	-137.33
188.108	-78.21
188.328	-120.62
188.547	-414.56
188.766	-714.99
188.986	-890.7
189.205	11808.82
189.424	397.16
189.644	298.31
189.863	162.54
190.082	136.17
190.302	178.61
190.521	187.24
190.74	185.44
190.959	213.15
191.178	175.43
191.398	192.52
191.617	196.26
191.836	727.48
192.055	261.82
192.274	356.48
192.494	278.91
192.713	137.38
192.932	99.96
193.151	114.53
193.37	103.28
193.589	139.02
193.808	119.08
194.027	111.5
194.246	108.5
194.465	122.59
194.685	126.21
194.904	130.13
195.123	141.02
195.342	184.7
195.561	137.19
195.78	121.91
195.999	86.23
196.218	92.09
196.436	81.53
196.655	71.57
196.874	51.77
197.093	74.25
197.312	61.12
197.531	75.93
197.75	125.9
197.969	197.29
198.188	-516.34
198.407	-177.71
198.625	-214.07
198.844	-157.69
199.063	-1272.15
199.282	-214.75
199.501	-249.86
199.719	-410.82
199.938	-140.17
200.157	-291.94
200.376	-175.86
200.594	713.99
200.813	822.3
201.032	1054.36
201.251	1124.18
201.469	761.47
201.688	268.66
201.907	417.65
202.125	1471.81
202.344	330.27
202.563	416.41
202.781	415.93
203	337.33
203.218	279.14
203.437	300.38
203.656	287.66
203.874	404.96
204.093	571.42
204.311	155.66
204.53	119.53
204.748	134.98
204.967	139.11
205.185	156.63
205.404	160.54
205.622	169.19
205.841	112.73
206.059	88.5
206.278	18.03
206.496	60.25
206.715	121.2
206.933	180.4
207.151	146.71
207.37	128.3
207.588	132.53
207.806	184.49
208.025	175.51
208.243	248.98
208.461	529.58
208.68	387.42
208.898	234.8
209.116	130.9
209.335	136.57
209.553	329.17
209.771	-3152.1
209.989	448.83
210.208	-135.41
210.426	-119.93
210.644	120.71
210.862	72.76
211.081	137.65
211.299	121.89
211.517	167.59
211.735	119.99
211.953	96.08
212.171	82.92
212.39	76.86
212.608	68.35
212.826	90.11
213.044	115.45
213.262	93.38
213.48	89.94
213.698	84.53
213.916	108.32
214.134	108.97
214.352	173.31
214.57	297.41
214.788	706.13
215.006	642.83
215.224	438.4
215.442	862.98
215.66	367.26
215.878	628.87
216.096	732.74
216.314	807.55
216.532	1072.73
216.75	1737.42
216.968	-198.7
217.185	-524.97
217.403	-484.09
217.621	-2555.82
217.839	126.21
218.057	91.84
218.275	78.84
218.492	96.42
218.71	66.45
218.928	55.1
219.146	52.22
219.363	61.56
219.581	76.8
219.799	98.16
220.017	82.12
220.234	125.12
220.452	124.7
220.67	140.33
220.887	111.28
221.105	114.16
221.323	104.52
221.54	97.37
221.758	107.24
221.976	73.99
222.193	70.3
222.411	58.18
222.629	47.89
222.846	45.31
223.064	40.92
223.281	43.49
223.499	40.26
223.716	48.74
223.934	51.27
224.151	47.33
224.369	54.87
224.586	55.44
224.804	69.98
225.021	68.94
225.239	64.86
225.456	59.9
225.674	51.21
225.891	47.6
226.108	58.17
226.326	59.57
226.543	47.02
226.76	47.44
226.978	36.5
227.195	33.82
227.413	24.95
227.63	19.1
227.847	21.22
228.064	18.94
228.282	15.55
228.499	12.78
228.716	12.38
228.934	12.43
229.151	12
229.368	10.5
229.585	9.17
229.802	8.55
230.02	7.74
230.237	6.55
230.454	6.42
230.671	4.91
230.888	4.87
231.105	2.22
231.323	3.8
231.54	3
231.757	4.27
231.974	6.66
232.191	9.22
232.408	9.68
232.625	12.43
232.842	14.12
233.059	18.04
233.276	19.4
233.493	25.78
233.71	26.66
233.927	26.89
234.144	28.8
234.361	25.34
234.578	26.75
234.795	28.74
235.012	27.36
235.229	23.39
235.446	22.89
235.663	19.92
235.879	13.39
236.096	8.84
236.313	7.73
236.53	6.05
236.747	6.1
236.964	5.77
237.181	4.84
237.397	5.28
237.614	7.71
237.831	11.75
238.048	13.44
238.264	12.5
238.481	16.88
238.698	21.96
238.915	26.5
239.131	25.64
239.348	24.01
239.565	26.04
239.781	26.38
239.998	26.27
240.215	21.74
240.431	18.56
240.648	19.23
240.865	18.17
241.081	13.56
241.298	10.52
241.514	10.8
241.731	10.38
241.947	9.37
242.164	8.04
242.38	7.68
242.597	8.31
242.814	9.57
243.03	9.27
243.246	8.86
243.463	9.08
243.679	8.57
243.896	9.41
244.112	9.96
244.329	9.58
244.545	10.49
244.762	10.44
244.978	10.08
245.194	9.08
245.411	8.63
245.627	9.18
245.843	9.64
246.06	10.3
246.276	9.51
246.492	8.67
246.709	8.7
246.925	7.85
247.141	7.64
247.357	7.65
247.574	7.95
247.79	7.55
248.006	7.92
248.222	7.61
248.439	7.89
248.655	7.8
248.871	8.35
249.087	8.22
249.303	9.01
249.519	9.68
249.736	10.22
249.952	9.67
250.168	10.27
250.384	9.01
250.6	8.9
250.816	8.14
251.032	7.55
251.248	6.67
251.464	6.19
251.68	5.77
251.896	5.56
252.112	5.14
252.328	5.26
252.544	5.39
252.76	5.63
252.976	6.46
253.192	5.58
253.408	6.37
253.624	7.59
253.84	9
254.056	8.72
254.272	8.79
254.487	9.14
254.703	9.51
254.919	11.07
255.135	11.56
255.351	12.68
255.567	14.4
255.782	12.32
255.998	12.87
256.214	10.78
256.43	9.27
256.646	10.63
256.861	9.58
257.077	10.55
257.293	10.22
257.508	11.32
257.724	10.99
257.94	9.46
258.155	9.83
258.371	9.05
258.587	8.84
258.802	9.62
259.018	8.9
259.234	9.46
259.449	8.9
259.665	7.75
259.88	7.27
260.096	6.79
260.312	6.06
260.527	6.1
260.743	5.75
260.958	5.96
261.174	5.67
261.389	5.32
261.605	5.8
261.82	5.31
262.036	5.63
262.251	5.45
262.466	5.64
262.682	6.66
262.897	6.65
263.113	6.53
263.328	6.87
263.543	7.59
263.759	7.59
263.974	7.36
264.189	9.33
264.405	9.12
264.62	11.36
264.835	11.97
265.051	13.24
265.266	13.81
265.481	14.46
265.696	13.88
265.912	12.39
266.127	13.12
266.342	10.54
266.557	9.69
266.773	9.93
266.988	7.88
267.203	7.21
267.418	7.16
267.633	7.34
267.848	6.86
268.064	7.76
268.279	8.22
268.494	7.73
268.709	8.07
268.924	6.7
269.139	7
269.354	6.29
269.569	5.64
269.784	4.95
269.999	3.87
270.214	4.48
270.429	3.55
270.644	3.44
270.859	3.46
271.074	3.4
271.289	4.09
271.504	4.35
271.719	4.9
271.934	5.68
272.149	5.74
272.363	6.09
272.578	6.41
272.793	6.56
273.008	6.37
273.223	6.28
273.438	6.91
273.653	6.84
273.867	6.82
274.082	6.06
274.297	6.02
274.512	6.79
274.726	8.4
274.941	8.21
275.156	8.22
275.371	8.76
275.585	8.47
275.8	7.05
276.015	8.15
276.229	8.25
276.444	10.56
276.659	9.99
276.873	8.79
277.088	7.99
277.302	7.56
277.517	6.5
277.732	6.24
277.946	7.03
278.161	7.98
278.375	7
278.59	7.41
278.804	6.12
279.019	6.97
279.233	7.76
279.448	7.82
279.662	9.99
279.877	10.16
280.091	10.16
280.306	8.8
280.52	8.53
280.735	9.26
280.949	7.94
281.163	7.76
281.378	7.65
281.592	8.79
281.806	8.26
282.021	7.33
282.235	7.7
282.449	7.31
282.664	8.52
282.878	9.37
283.092	8.5
283.307	9.96
283.521	10.45
283.735	10.6
283.949	10.66
284.164	10.62
284.378	10
284.592	8.86
284.806	9.53
285.02	9.49
285.234	9.43
285.449	9.73
285.663	9.8
285.877	9.88
286.091	9.5
286.305	8.8
286.519	8.8
286.733	8.79
286.947	10.32
287.161	9.28
287.375	9.59
287.589	8.79
287.803	8.52
288.017	7.53
288.231	7.42
288.445	6.66
288.659	6.6
288.873	5.89
289.087	5.86
289.301	5.99
289.515	6.97
289.729	5.75
289.943	6.78
290.157	7.98
290.371	8.42
290.584	8.2
290.798	9.05
291.012	9.23
291.226	9.47
291.44	10.44
291.654	9.73
291.867	9.78
292.081	10.35
292.295	9.34
292.509	8.45
292.722	8.14
292.936	8
293.15	8.26
293.364	8.73
293.577	8.94
293.791	8.3
294.005	9.01
294.218	9.67
294.432	9.23
294.645	10.16
294.859	9.46
295.073	9.77
295.286	9.93
295.5	9.61
295.713	9.39
295.927	10.2
296.14	9.84
296.354	8.81
296.568	7.92
296.781	8.22
296.994	8.48
297.208	8.57
297.421	8.93
297.635	8.96
297.848	8.75
298.062	8.81
298.275	8.19
298.489	8.6
298.702	9.66
298.915	9.59
299.129	9.62
299.342	9.2
299.555	8.78
299.769	7.63
299.982	7.76
300.195	8.55
300.409	8.44
300.622	7.55
300.835	7.14
301.048	6.52
301.262	6.93
301.475	5.87
301.688	5.12
301.901	6
302.115	6.45
302.328	6.87
302.541	5.72
302.754	5.68
302.967	6.62
303.18	5.77
303.393	5.49
303.607	6.14
303.82	6.97
304.033	8.16
304.246	8.68
304.459	8.58
304.672	8.7
304.885	10.36
305.098	9.89
305.311	10.49
305.524	10.45
305.737	10.78
305.95	10.14
306.163	9.76
306.376	9.73
306.589	9.5
306.802	9.4
307.015	8.79
307.228	8.83
307.44	9.1
307.653	8.23
307.866	9.04
308.079	10.22
308.292	10.71
308.505	11.42
308.718	10.49
308.93	10.24
309.143	10.73
309.356	10.84
309.569	9.96
309.781	10.04
309.994	10.12
310.207	9.88
310.42	9.93
310.632	9.82
310.845	9.65
311.058	10.62
311.27	10.31
311.483	9.94
311.696	9.39
311.908	9.15
312.121	8.72
312.333	9.44
312.546	9.67
312.759	9.23
312.971	9.55
313.184	9.49
313.396	8.72
313.609	9.71
313.821	10.18
314.034	10.9
314.246	10.79
314.459	11.67
314.671	10.51
314.884	10.8
315.096	9.74
315.309	10.39
315.521	10.96
315.733	11.9
315.946	12.39
316.158	12.68
316.371	12.3
316.583	12.65
316.795	12.21
317.008	12.32
317.22	11.54
317.432	11.58
317.644	10.51
317.857	9.27
318.069	8.45
318.281	6.98
318.494	7.23
318.706	7.52
318.918	7.11
319.13	6.25
319.342	5.79
319.555	6.3
319.767	6.4
319.979	6.04
320.191	7.08
320.403	7.55
320.615	7.63
320.827	6.53
321.039	5.59
321.252	6.24
321.464	7.81
321.676	8.67
321.888	8.81
322.1	9.59
322.312	9.04
322.524	10.14
322.736	9.22
322.948	10.29
323.16	10.58
323.372	11.19
323.584	11.14
323.796	10.93
324.007	11.1
324.219	11.9
324.431	12.3
324.643	13.15
324.855	12.71
325.067	13.98
325.279	13.29
325.491	13.96
325.702	14.22
325.914	14.2
326.126	14.89
326.338	15.7
326.55	15.13
326.761	15.3
326.973	16.01
327.185	16.34
327.396	16.78
327.608	17.65
327.82	18.55
328.032	19.09
328.243	20.95
328.455	20.36
328.666	20.07
328.878	21.03
329.09	21.16
329.301	21.94
329.513	22.23
329.725	21.2
329.936	20.75
330.148	20.81
330.359	21.33
330.571	21.32
330.782	22.02
330.994	22.69
331.205	22.29
331.417	22.97
331.628	22.48
331.84	23.27
332.051	24.54
332.262	25.56
332.474	25.31
332.685	25.65
332.897	25.7
333.108	26.13
333.319	26.25
333.531	26.59
333.742	25.68
333.953	26.27
334.165	25.27
334.376	25.51
334.587	25.83
334.799	25.59
335.01	25.01
335.221	23.73
335.432	23.97
335.644	23.21
335.855	22.77
336.066	23.19
336.277	22.17
336.488	23
336.7	22.65
336.911	21.96
337.122	21.81
337.333	22.02
337.544	22.65
337.755	22.43
337.966	22.85
338.177	22.94
338.388	23.89
338.599	24.12
338.811	24.47
339.022	24.21
339.233	24.29
339.444	25.26
339.655	25.8
339.866	25.91
340.076	25.78
340.287	26.15
340.498	26.34
340.709	26.05
340.92	26.43
341.131	26.12
341.342	25.86
341.553	26.12
341.764	25.14
341.975	24.4
342.185	24.37
342.396	24.57
342.607	24.3
342.818	24.03
343.029	24.25
343.239	24.52
343.45	24.38
343.661	24.15
343.872	23.69
344.082	24.75
344.293	25.15
344.504	25.43
344.714	25.58
344.925	25.42
345.136	25.6
345.346	23.98
345.557	23.68
345.768	23.51
345.978	24.45
346.189	24.82
346.399	24.11
346.61	23.7
346.821	23.27
347.031	23
347.242	23.18
347.452	23.73
347.663	24.78
347.873	24.57
348.084	24.68
348.294	24.27
348.504	24.56
348.715	24.97
348.925	25.65
349.136	25.76
349.346	25.51
349.557	25.87
349.767	25.47
349.977	25.9
350.188	25.88
350.398	25.59
350.608	25.73
350.819	25.69
351.029	25.57
351.239	25.32
351.449	24.9
351.66	25.04
351.87	25.12
352.08	24.81
352.29	25.57
352.501	25.67
352.711	26.02
352.921	25.92
353.131	25.63
353.341	25.04
353.552	24.95
353.762	25.36
353.972	25.51
354.182	25.2
354.392	25.25
354.602	23.79
354.812	24.09
355.022	23.46
355.232	23.69
355.442	23.63
355.652	23.43
355.862	23.44
356.072	23.77
356.282	24.34
356.492	24.1
356.702	24.06
356.912	24.53
357.122	24.27
357.332	24.93
357.542	24.1
357.752	23.94
357.962	24.88
358.171	25.45
358.381	25.35
358.591	25.04
358.801	24.91
359.011	25.11
359.221	25.01
359.43	25.4
359.64	25.25
359.85	25.84
360.06	25.92
360.269	25.16
360.479	24.52
360.689	24.34
360.899	23.83
361.108	24.32
361.318	23.96
361.528	23.96
361.737	23.91
361.947	23.48
362.156	23.09
362.366	23.25
362.576	23.39
362.785	23.01
362.995	22.65
363.204	22.69
363.414	22.25
363.623	22.59
363.833	22.6
364.042	22
364.252	22.13
364.461	22.07
364.671	21.94
364.88	22.13
365.09	22.94
365.299	23.13
365.509	23.34
365.718	23.68
365.927	23.92
366.137	23.79
366.346	24.66
366.555	24.19
366.765	24.6
366.974	24.39
367.183	24.42
367.393	24.2
367.602	24.67
367.811	24.79
368.021	24.79
368.23	23.84
368.439	23.93
368.648	22.89
368.857	23.35
369.067	23.28
369.276	23.43
369.485	23.42
369.694	22.51
369.903	22.16
370.112	21.67
370.321	21.31
370.531	22
370.74	21.89
370.949	22.26
371.158	22.28
371.367	22.09
371.576	21.9
371.785	21.69
371.994	22.42
372.203	22.15
372.412	22.54
372.621	22.87
372.83	22.81
373.039	22.68
373.248	22.84
373.457	22.97
373.666	23.28
373.874	23.67
374.083	23.75
374.292	23.72
374.501	24.17
374.71	23.93
374.919	23.63
375.128	23.89
375.336	23.67
375.545	23.65
375.754	23.1
375.963	22.78
376.171	22.54
376.38	22.04
376.589	21.61
376.798	21.19
377.006	20.99
377.215	21.16
377.424	20.72
377.632	21
377.841	20.78
378.05	21.43
378.258	21.11
378.467	21.12
378.675	21.45
378.884	21.83
379.093	21.75
379.301	22.09
379.51	21.76
379.718	21.76
379.927	21.59
380.135	21.6
380.344	21.4
380.552	21.72
380.761	21.34
380.969	21.41
381.177	21.19
381.386	21.71
381.594	21.84
381.803	21.87
382.011	21.92
382.219	22.07
382.428	22.23
382.636	22.14
382.845	22.35
383.053	22.15
383.261	22.21
383.469	22.37
383.678	21.75
383.886	21.3
384.094	21.28
384.302	21.58
384.511	21.19
384.719	20.82
384.927	20.91
385.135	20.87
385.343	21.03
385.552	21.03
385.76	20.8
385.968	21.13
386.176	21.14
386.384	21.13
386.592	20.79
386.8	20.95
387.008	20.74
387.216	20.47
387.424	20.33
387.633	20.44
387.841	19.97
388.049	19.94
388.257	19.59
388.465	19.45
388.672	19.53
388.88	19.27
389.088	18.94
389.296	19.32
389.504	19.33
389.712	19.43
389.92	19.35
390.128	19.69
390.336	20.04
390.544	19.94
390.751	19.97
390.959	19.77
391.167	20
391.375	20.3
391.583	19.87
391.79	19.83
391.998	20.06
392.206	20.27
392.414	20.26
392.621	19.95
392.829	20
393.037	20.15
393.244	20.3
393.452	20.03
393.66	19.98
393.867	20.34
394.075	20.32
394.283	19.73
394.49	19.3
394.698	18.98
394.905	18.94
395.113	19.14
395.32	19.1
395.528	19.07
395.735	19.34
395.943	19.3
396.15	19.15
396.358	19.18
396.565	19.49
396.773	19.61
396.98	20.02
397.188	20.25
397.395	19.95
397.602	19.73
397.81	19.5
398.017	19.26
398.225	19.13
398.432	19.19
398.639	19.13
398.847	18.91
399.054	19.31
399.261	18.98
399.468	18.88
399.676	19.05
399.883	19.23
400.09	19.54
400.297	19.89
400.505	20.09
400.712	20.22
400.919	20.18
401.126	20.42
401.333	20.26
401.54	20.48
401.748	20.56
401.955	20.41
402.162	20.12
402.369	20.06
402.576	19.86
402.783	19.7
402.99	19.6
403.197	19.82
403.404	19.72
403.611	19.78
403.818	19.66
404.025	19.58
404.232	19.59
404.439	20.08
404.646	20.06
404.853	20.18
405.06	20.21
405.267	20.33
405.474	20.21
405.681	20.11
405.887	20.17
406.094	20.16
406.301	20.25
406.508	20.42
406.715	20.06
406.922	19.92
407.128	19.84
407.335	19.88
407.542	19.75
407.749	19.83
407.955	19.87
408.162	19.86
408.369	19.88
408.575	20.02
408.782	19.96
408.989	19.91
409.195	19.76
409.402	19.7
409.609	19.68
409.815	19.57
410.022	19.56
410.228	19.54
410.435	19.43
410.642	19.41
410.848	19.31
411.055	19.25
411.261	19.56
411.468	19.71
411.674	19.75
411.881	19.79
412.087	19.58
412.294	19.56
412.5	19.54
412.706	19.48
412.913	19.46
413.119	19.07
413.326	18.97
413.532	18.94
413.738	18.73
413.945	18.48
414.151	18.87
414.357	19.08
414.564	18.74
414.77	18.77
414.976	18.76
415.182	18.71
415.389	18.73
415.595	18.84
415.801	18.46
416.007	18.48
416.214	18.76
416.42	18.26
416.626	18.14
416.832	18.61
417.038	18.6
417.244	18.55
417.45	18.53
417.657	18.73
417.863	18.73
418.069	18.88
418.275	19.01
418.481	18.88
418.687	18.96
418.893	19.06
419.099	18.8
419.305	18.77
419.511	18.62
419.717	18.59
419.923	18.39
420.129	18.33
420.335	18.21
420.541	18.12
420.746	17.98
420.952	17.96
421.158	17.8
421.364	17.77
421.57	17.72
421.776	17.75
421.982	17.75
422.187	17.93
422.393	17.87
422.599	17.91
422.805	17.87
423.01	17.82
423.216	17.79
423.422	17.75
423.628	17.75
423.833	17.7
424.039	17.74
424.245	17.67
424.45	17.54
424.656	17.58
424.862	17.66
425.067	17.6
425.273	17.73
425.478	17.64
425.684	17.78
425.889	17.88
426.095	17.9
426.301	17.87
426.506	17.83
426.712	17.86
426.917	17.94
427.123	17.77
427.328	17.7
427.533	17.66
427.739	17.96
427.944	17.77
428.15	17.54
428.355	17.41
428.561	17.32
428.766	17.48
428.971	17.38
429.177	17.26
429.382	17.4
429.587	17.77
429.793	17.77
429.998	17.49
430.203	17.55
430.408	17.77
430.614	18.03
430.819	18.04
431.024	17.94
431.229	17.8
431.434	17.57
431.64	17.46
431.845	17.26
432.05	17.26
432.255	17.15
432.46	17.06
432.665	17.08
432.87	17.1
433.076	17.12
433.281	17.04
433.486	17.13
433.691	17.25
433.896	17.24
434.101	17.2
434.306	17.26
434.511	17.39
434.716	17.59
434.921	17.42
435.126	17.49
435.331	17.57
435.535	17.72
435.74	17.57
435.945	17.75
436.15	17.68
436.355	17.85
436.56	17.84
436.765	17.84
436.97	17.7
437.174	17.7
437.379	17.48
437.584	17.35
437.789	17.28
437.993	17.37
438.198	17.11
438.403	17.11
438.608	17.09
438.812	17.04
439.017	16.93
439.222	17.07
439.426	17
439.631	17.02
439.836	17.3
440.04	17.34
440.245	17.48
440.45	17.57
440.654	17.61
440.859	17.5
441.063	17.54
441.268	17.57
441.472	17.54
441.677	17.65
441.881	17.7
442.086	17.37
442.29	17.28
442.495	17.12
442.699	17.18
442.904	17.27
443.108	17.24
443.312	17.01
443.517	17.09
443.721	17.1
443.925	17.13
444.13	17.15
444.334	17.33
444.538	17.41
444.743	17.5
444.947	17.4
445.151	17.35
445.356	17.37
445.56	17.45
445.764	17.39
445.968	17.35
446.173	17.3
446.377	17.19
446.581	17.15
446.785	17.21
446.989	17.14
447.193	17.02
447.398	16.95
447.602	16.94
447.806	16.97
448.01	16.96
448.214	16.89
448.418	16.93
448.622	16.83
448.826	16.86
449.03	16.79
449.234	16.73
449.438	16.91
449.642	17
449.846	17.08
450.05	17.15
450.254	17.2
450.458	17.25
450.662	17.15
450.866	17.27
451.069	17.16
451.273	17.01
451.477	17.06
451.681	17.01
451.885	16.89
452.089	16.91
452.292	16.81
452.496	16.67
452.7	16.65
452.904	16.66
453.107	16.71
453.311	16.79
453.515	16.84
453.719	16.9
453.922	17.02
454.126	16.99
454.33	16.96
454.533	16.85
454.737	16.96
454.94	17.08
455.144	17.17
455.348	17.14
455.551	17.22
455.755	17.16
455.958	17.11
456.162	16.88
456.365	17.08
456.569	16.99
456.772	17.19
456.976	17.26
457.179	17.15
457.383	17.13
457.586	17.2
457.79	17.14
457.993	17.09
458.196	17.01
458.4	17.04
458.603	17
458.807	17
459.01	17.01
459.213	17.06
459.417	17.12
459.62	17.01
