Data from LC_212__Reflection_2.txt Node
Date: Thu Nov 19 12:36:57 EST 2015
User: robert
Spectrometer: USB4E03001
Autoset integration time: false
Trigger mode: 4
Integration Time (sec): 1.000000E-1
Scans to average: 15
Electric dark correction enabled: true
Nonlinearity correction enabled: false
Boxcar width: 5
Stray light correction enabled: false
XAxis mode: Wavelengths
Stop averaging: false
Number of Pixels in Spectrum: 3648
>>>>>Begin Spectral Data<<<<<
177.566	191.97
177.785	-62.35
178.005	30.77
178.225	42.77
178.445	40.97
178.665	14.76
178.885	-268.46
179.105	-283.52
179.324	-49.36
179.544	225.89
179.764	52.09
179.984	113.81
180.204	60.28
180.423	67.16
180.643	39.86
180.863	24.04
181.083	26.5
181.302	-18.62
181.522	-147.1
181.742	-29.73
181.961	-73.39
182.181	-60.34
182.401	-39.06
182.621	-68.59
182.84	-68.35
183.06	-52.06
183.279	-25.85
183.499	-1.51
183.719	-3.14
183.938	25.05
184.158	54.73
184.377	67.88
184.597	42.95
184.816	46.96
185.036	120.67
185.256	65.1
185.475	77.05
185.695	83.32
185.914	83.47
186.134	71.96
186.353	56.36
186.572	165.06
186.792	225.89
187.011	-820.46
187.231	-556.59
187.45	-107.27
187.67	-34.54
187.889	-30.94
188.108	-433.19
188.328	-11.38
188.547	3.9
188.766	329.83
188.986	97.07
189.205	84.96
189.424	39.89
189.644	39.52
189.863	100.35
190.082	55.67
190.302	-32.74
190.521	-15.63
190.74	6.29
190.959	90.47
191.178	380.03
191.398	387.32
191.617	805.98
191.836	669.73
192.055	190.25
192.274	85.6
192.494	71.11
192.713	205.1
192.932	192.31
193.151	338.64
193.37	203.11
193.589	391.42
193.808	-509.06
194.027	913.5
194.246	625.75
194.465	-787.49
194.685	4618.68
194.904	-267.74
195.123	-1208.61
195.342	-280.17
195.561	-211.08
195.78	-1310.06
195.999	-231.72
196.218	1082.26
196.436	-15130.77
196.655	1042.05
196.874	126.09
197.093	170.05
197.312	118.99
197.531	372.78
197.75	921.54
197.969	302.92
198.188	-3476.15
198.407	-298.68
198.625	35.09
198.844	65.38
199.063	111.27
199.282	80.32
199.501	60.61
199.719	67.61
199.938	89.92
200.157	78.21
200.376	95.84
200.594	81.4
200.813	83.07
201.032	9.88
201.251	-40.2
201.469	-135.83
201.688	-190.43
201.907	-73.19
202.125	-122.66
202.344	-64.92
202.563	-41.44
202.781	-39.42
203	-83.32
203.218	-107.4
203.437	-169.01
203.656	-294.22
203.874	-907.69
204.093	-334.4
204.311	189.9
204.53	37.44
204.748	43.74
204.967	17.04
205.185	5.82
205.404	-27.78
205.622	-25.83
205.841	-44.25
206.059	-183.85
206.278	-5387.57
206.496	-550.31
206.715	-2116.92
206.933	190.26
207.151	91.25
207.37	49.64
207.588	58.33
207.806	-19.17
208.025	-3.54
208.243	-73.99
208.461	-387.02
208.68	-962.76
208.898	-248.83
209.116	5890.38
209.335	-47.51
209.553	58.84
209.771	42.63
209.989	65.8
210.208	-75.29
210.426	-77.15
210.644	103.26
210.862	86.94
211.081	-87.04
211.299	7.16
211.517	-23.79
211.735	-4307.69
211.953	-285.24
212.171	-78.46
212.39	-26.49
212.608	-19.78
212.826	-17.8
213.044	-71.34
213.262	-51.81
213.48	-6.59
213.698	-83.79
213.916	-36.73
214.134	-5.56
214.352	-1.91
214.57	22.8
214.788	-60.57
215.006	797.6
215.224	206.89
215.442	104.25
215.66	78.2
215.878	40.15
216.096	-8.14
216.314	8.93
216.532	111.13
216.75	102.35
216.968	131.05
217.185	149.27
217.403	171.89
217.621	223.04
217.839	207.89
218.057	240.49
218.275	180.45
218.492	191.73
218.71	159.98
218.928	104.65
219.146	112.78
219.363	88.01
219.581	94.31
219.799	74.78
220.017	66.71
220.234	91.48
220.452	139.71
220.67	225.08
220.887	75.53
221.105	67.54
221.323	104.64
221.54	63.67
221.758	90.37
221.976	50.3
222.193	28.44
222.411	29.77
222.629	23.45
222.846	25.9
223.064	30.49
223.281	42.92
223.499	41.62
223.716	51.3
223.934	59.06
224.151	55.05
224.369	53.17
224.586	109.24
224.804	232.81
225.021	161.54
225.239	110.89
225.456	116.16
225.674	61.4
225.891	39.58
226.108	21.48
226.326	22.42
226.543	24.23
226.76	11.88
226.978	-10.12
227.195	-2.27
227.413	-12.51
227.63	-9.02
227.847	0.48
228.064	0.44
228.282	3.3
228.499	7.16
228.716	7.94
228.934	9.19
229.151	12.26
229.368	10.88
229.585	13.78
229.802	14.22
230.02	18.14
230.237	16.23
230.454	23.31
230.671	21.32
230.888	17.89
231.105	19.28
231.323	18.31
231.54	20.8
231.757	21.64
231.974	20.97
232.191	32.5
232.408	37.13
232.625	38.51
232.842	36.39
233.059	37.91
233.276	39.61
233.493	36.47
233.71	38.13
233.927	31.18
234.144	29
234.361	25.73
234.578	17.23
234.795	7.84
235.012	12.69
235.229	8.81
235.446	14.38
235.663	13.18
235.879	18.51
236.096	23.22
236.313	26.33
236.53	27.08
236.747	34.76
236.964	36.65
237.181	40.29
237.397	32.84
237.614	29.93
237.831	21.71
238.048	22.26
238.264	21.66
238.481	14.19
238.698	13.54
238.915	16.84
239.131	10.79
239.348	11.83
239.565	10.96
239.781	11.04
239.998	15.29
240.215	19.39
240.431	20.63
240.648	19.12
240.865	20.09
241.081	20.55
241.298	20.53
241.514	20.74
241.731	20.26
241.947	20.82
242.164	21.54
242.38	19.18
242.597	18.09
242.814	19.55
243.03	18.16
243.246	16.03
243.463	16.01
243.679	16.98
243.896	16.53
244.112	18.27
244.329	17.62
244.545	20.38
244.762	23.69
244.978	21.28
245.194	18.48
245.411	17.36
245.627	20.1
245.843	20.64
246.06	19.02
246.276	16.93
246.492	15.2
246.709	13.99
246.925	13.13
247.141	12.34
247.357	12.41
247.574	13.36
247.79	15.29
248.006	14.43
248.222	13.53
248.439	13.03
248.655	14.13
248.871	15.33
249.087	16.87
249.303	16.38
249.519	16.8
249.736	18
249.952	16.54
250.168	15.4
250.384	14.96
250.6	15.19
250.816	17.09
251.032	14.5
251.248	12.73
251.464	10.64
251.68	11.93
251.896	12.75
252.112	13.53
252.328	13.86
252.544	13.08
252.76	15.12
252.976	16.43
253.192	14.76
253.408	18.07
253.624	17.16
253.84	17
254.056	16.29
254.272	16.78
254.487	18.06
254.703	19.36
254.919	19.87
255.135	19.54
255.351	15.87
255.567	18.21
255.782	15.52
255.998	13.16
256.214	12.19
256.43	12.46
256.646	12.54
256.861	10.95
257.077	12.73
257.293	11.55
257.508	13.01
257.724	16.22
257.94	14.09
258.155	13.6
258.371	13.92
258.587	14.35
258.802	14.77
259.018	12.88
259.234	12.48
259.449	12.06
259.665	11.91
259.88	11.45
260.096	10.82
260.312	11.35
260.527	11.47
260.743	12.58
260.958	13.09
261.174	11.48
261.389	12.64
261.605	12.8
261.82	12.77
262.036	12.68
262.251	13.23
262.466	13.72
262.682	13.86
262.897	13.91
263.113	12.94
263.328	12.27
263.543	13.56
263.759	14.32
263.974	13.23
264.189	12.3
264.405	13.24
264.62	11.85
264.835	9.9
265.051	8.06
265.266	7.68
265.481	7.81
265.696	8.65
265.912	9.95
266.127	8.36
266.342	10.59
266.557	10.88
266.773	11.9
266.988	12.61
267.203	14.15
267.418	14.41
267.633	16.02
267.848	16.65
268.064	15.5
268.279	14.99
268.494	15.01
268.709	14.75
268.924	15.28
269.139	14
269.354	13.3
269.569	13
269.784	11.74
269.999	11.57
270.214	10.92
270.429	14.5
270.644	14.94
270.859	14.7
271.074	14.11
271.289	14.35
271.504	14.78
271.719	15.46
271.934	13.23
272.149	13.47
272.363	12.84
272.578	11.25
272.793	8.29
273.008	9.31
273.223	8.7
273.438	8.66
273.653	7.91
273.867	9.65
274.082	9.47
274.297	12.66
274.512	13.57
274.726	13.13
274.941	14.91
275.156	14.9
275.371	14.22
275.585	13.82
275.8	13.42
276.015	13.39
276.229	11.53
276.444	11.89
276.659	11.13
276.873	10.72
277.088	11.53
277.302	11.68
277.517	12.81
277.732	12.56
277.946	13.46
278.161	14.71
278.375	13.56
278.59	12.69
278.804	11.46
279.019	11.61
279.233	12.02
279.448	11.09
279.662	10.76
279.877	10.04
280.091	9.46
280.306	10.7
280.52	9.49
280.735	10.66
280.949	12.41
281.163	12.63
281.378	10.8
281.592	10.91
281.806	11.09
282.021	12.67
282.235	12.11
282.449	13.04
282.664	12.67
282.878	13.39
283.092	14.21
283.307	14.19
283.521	13.54
283.735	14.14
283.949	13.55
284.164	13.64
284.378	12.31
284.592	14.57
284.806	14.57
285.02	12.97
285.234	12.45
285.449	11.51
285.663	10.96
285.877	11.75
286.091	12.01
286.305	12.49
286.519	13.13
286.733	13.4
286.947	12.27
287.161	11.08
287.375	12.18
287.589	12.08
287.803	11.71
288.017	11.13
288.231	10.62
288.445	10.83
288.659	11.57
288.873	11.12
289.087	11.29
289.301	11.69
289.515	12.13
289.729	12.19
289.943	12.96
290.157	13.79
290.371	13.84
290.584	14.08
290.798	14.26
291.012	14.65
291.226	14.2
291.44	14.58
291.654	13.84
291.867	13.76
292.081	13.94
292.295	12.88
292.509	13.36
292.722	13.34
292.936	13.47
293.15	14.96
293.364	12.51
293.577	12.11
293.791	10.96
294.005	12.25
294.218	12.67
294.432	13.58
294.645	14.61
294.859	13.21
295.073	12.6
295.286	11.88
295.5	9.9
295.713	11.46
295.927	11.48
296.14	11.36
296.354	10.63
296.568	10.68
296.781	9.72
296.994	9.57
297.208	9.43
297.421	9.81
297.635	10.58
297.848	11.08
298.062	11.09
298.275	11.73
298.489	12.04
298.702	12.5
298.915	12.42
299.129	12.66
299.342	13.12
299.555	15.33
299.769	16.1
299.982	16.56
300.195	17.02
300.409	16.55
300.622	17.18
300.835	16.92
301.048	17.74
301.262	18.57
301.475	19.1
301.688	17.05
301.901	15.62
302.115	15.93
302.328	15.91
302.541	15.82
302.754	16.44
302.967	15.93
303.18	16.96
303.393	16.02
303.607	14.51
303.82	14.54
304.033	16.39
304.246	17.32
304.459	17.73
304.672	19.07
304.885	17.43
305.098	16.6
305.311	16.3
305.524	16.07
305.737	16.66
305.95	18.41
306.163	17.34
306.376	17.94
306.589	16.3
306.802	13.78
307.015	10.36
307.228	10.92
307.44	11.34
307.653	12.49
307.866	11.08
308.079	10.42
308.292	9.58
308.505	10.39
308.718	10.14
308.93	10.9
309.143	11.56
309.356	11.81
309.569	13.27
309.781	13.39
309.994	13.21
310.207	14.07
310.42	14.31
310.632	14.82
310.845	14.84
311.058	13.63
311.27	13.62
311.483	14.75
311.696	15.12
311.908	14.37
312.121	14.16
312.333	13.57
312.546	12.96
312.759	12.75
312.971	12.59
313.184	12.23
313.396	12.57
313.609	12.65
313.821	11.38
314.034	11.51
314.246	11.6
314.459	10.21
314.671	10.51
314.884	10.72
315.096	9.69
315.309	8.48
315.521	9.11
315.733	9
315.946	9.57
316.158	10.9
316.371	11.46
316.583	10.97
316.795	12.84
317.008	12.33
317.22	13.18
317.432	13.61
317.644	13.4
317.857	14.4
318.069	15.16
318.281	15.83
318.494	14.03
318.706	14.71
318.918	15.32
319.13	14.5
319.342	15.13
319.555	14.84
319.767	15.48
319.979	15.94
320.191	15.28
320.403	17.55
320.615	15.39
320.827	16.77
321.039	16.1
321.252	15.31
321.464	15.4
321.676	14.54
321.888	13.29
322.1	12.61
322.312	12.03
322.524	11.27
322.736	9.39
322.948	9.61
323.16	8.05
323.372	7.62
323.584	7.22
323.796	5.58
324.007	6.06
324.219	7.25
324.431	8.08
324.643	8.12
324.855	7.29
325.067	7.55
325.279	7.55
325.491	9.17
325.702	8.93
325.914	9.68
326.126	11.67
326.338	11.82
326.55	11.97
326.761	11.61
326.973	12.13
327.185	13.69
327.396	12.3
327.608	12.22
327.82	11.99
328.032	12.43
328.243	13.33
328.455	12.49
328.666	13.46
328.878	12.71
329.09	11.34
329.301	12.17
329.513	11.92
329.725	12.93
329.936	12.8
330.148	13.16
330.359	13.41
330.571	14.34
330.782	14.94
330.994	13.45
331.205	14.49
331.417	15.91
331.628	15.35
331.84	15.28
332.051	15.84
332.262	17.25
332.474	16.61
332.685	16.39
332.897	15
333.108	14.92
333.319	16.07
333.531	14.64
333.742	15.28
333.953	15.25
334.165	14.59
334.376	14.12
334.587	13.81
334.799	13.78
335.01	13.16
335.221	13.16
335.432	12.95
335.644	12.37
335.855	13.37
336.066	13.42
336.277	12.77
336.488	13.45
336.7	13.22
336.911	12.89
337.122	13.53
337.333	13.77
337.544	14.15
337.755	14.64
337.966	14.64
338.177	14.56
338.388	13.62
338.599	14.41
338.811	15.24
339.022	15.09
339.233	15.3
339.444	15.29
339.655	15.09
339.866	13.82
340.076	12.84
340.287	13.2
340.498	13.01
340.709	13.91
340.92	14.03
341.131	13.5
341.342	13.85
341.553	13.25
341.764	13.67
341.975	14.07
342.185	14.67
342.396	14.52
342.607	14.3
342.818	15.35
343.029	15.1
343.239	14.7
343.45	14.51
343.661	13.58
343.872	13.06
344.082	11.9
344.293	11.59
344.504	13.34
344.714	14.33
344.925	14.23
345.136	13.6
345.346	13.6
345.557	14.42
345.768	14.52
345.978	15.78
346.189	16.53
346.399	16.45
346.61	17.53
346.821	16.52
347.031	15.77
347.242	15.01
347.452	14.73
347.663	14.9
347.873	15.18
348.084	14.43
348.294	13.62
348.504	13.92
348.715	14.49
348.925	13.83
349.136	13.06
349.346	13.91
349.557	14.34
349.767	14.39
349.977	14.4
350.188	13.31
350.398	13.52
350.608	13.44
350.819	13.07
351.029	11.73
351.239	11.16
351.449	11.29
351.66	10.71
351.87	10.54
352.08	10.61
352.29	10.13
352.501	9.96
352.711	10.62
352.921	11.39
353.131	11.74
353.341	12.48
353.552	12.49
353.762	13.23
353.972	13.73
354.182	14.3
354.392	13.85
354.602	14.16
354.812	13.79
355.022	13.23
355.232	12.81
355.442	13.03
355.652	13.36
355.862	13.86
356.072	13.72
356.282	12.9
356.492	11.82
356.702	12.37
356.912	12.46
357.122	12.56
357.332	12.59
357.542	12.11
357.752	11.53
357.962	11.76
358.171	11.74
358.381	11.47
358.591	12.09
358.801	13.14
359.011	12.23
359.221	11.91
359.43	12.2
359.64	12.54
359.85	13.54
360.06	13.65
360.269	13.26
360.479	13.28
360.689	12.98
360.899	12.85
361.108	13.3
361.318	13.38
361.528	13.12
361.737	12.85
361.947	12.3
362.156	11.65
362.366	11.21
362.576	11.09
362.785	10.85
362.995	11.07
363.204	10.78
363.414	9.98
363.623	10.13
363.833	10.26
364.042	10.52
364.252	10.67
364.461	10.54
364.671	11.42
364.88	11.53
365.09	11.48
365.299	11.49
365.509	11.68
365.718	11.94
365.927	12.04
366.137	11.67
366.346	11.23
366.555	10.74
366.765	10.51
366.974	9.68
367.183	9.36
367.393	9.36
367.602	8.79
367.811	8.97
368.021	8.36
368.23	8.11
368.439	8.23
368.648	8.15
368.857	9.01
369.067	9.29
369.276	9.89
369.485	10.43
369.694	10.57
369.903	10.95
370.112	11.19
370.321	11.67
370.531	12.64
370.74	12.62
370.949	13.21
371.158	12.78
371.367	12.63
371.576	12.62
371.785	11.74
371.994	11.92
372.203	12.02
372.412	11.99
372.621	12.21
372.83	11.65
373.039	11.85
373.248	11.63
373.457	12.04
373.666	11.75
373.874	11.35
374.083	11.8
374.292	11.44
374.501	10.72
374.71	10.32
374.919	10.04
375.128	9.45
375.336	9.42
375.545	9.28
375.754	8.8
375.963	9.62
376.171	9.57
376.38	9.95
376.589	9.94
376.798	9.95
377.006	10.18
377.215	10.16
377.424	10.42
377.632	10.26
377.841	10.02
378.05	10.31
378.258	9.58
378.467	9.99
378.675	9.64
378.884	9.86
379.093	10.34
379.301	9.97
379.51	9.56
379.718	9.54
379.927	9.55
380.135	9.65
380.344	9.44
380.552	10.29
380.761	9.77
380.969	9.77
381.177	9.46
381.386	9.62
381.594	9.74
381.803	10.11
382.011	9.98
382.219	10.25
382.428	10.43
382.636	10.31
382.845	9.83
383.053	10.11
383.261	10.35
383.469	10.27
383.678	9.57
383.886	9.22
384.094	8.66
384.302	8.5
384.511	8.33
384.719	8.06
384.927	7.7
385.135	7.53
385.343	7.44
385.552	6.87
385.76	6.45
385.968	6.57
386.176	6.71
386.384	7.03
386.592	7.08
386.8	7.07
387.008	7.44
387.216	7.8
387.424	8.34
387.633	8.23
387.841	8.57
388.049	8.76
388.257	8.57
388.465	8.67
388.672	8.83
388.88	8.7
389.088	8.8
389.296	8.7
389.504	8.61
389.712	8.12
389.92	8.2
390.128	8.34
390.336	8.62
390.544	8.78
390.751	8.82
390.959	8.7
391.167	9.11
391.375	8.74
391.583	8.66
391.79	8.67
391.998	8.79
392.206	8.91
392.414	8.44
392.621	8.6
392.829	8.54
393.037	8.73
393.244	8.69
393.452	8.48
393.66	8.28
393.867	8.02
394.075	8.04
394.283	8.07
394.49	7.65
394.698	8.06
394.905	7.6
395.113	7.62
395.32	7.14
395.528	6.91
395.735	6.76
395.943	6.95
396.15	6.89
396.358	6.65
396.565	6.31
396.773	6.48
396.98	6.12
397.188	6.35
397.395	6.13
397.602	6.18
397.81	6.23
398.017	6.32
398.225	6.43
398.432	6.88
398.639	7.06
398.847	7.1
399.054	6.82
399.261	7.2
399.468	6.92
399.676	7.21
399.883	7.46
400.09	7.74
400.297	7.94
400.505	8.02
400.712	8.01
400.919	7.76
401.126	8.14
401.333	8.57
401.54	8.37
401.748	8.81
401.955	8.57
402.162	8.35
402.369	8.24
402.576	8.06
402.783	8.04
402.99	7.58
403.197	7.69
403.404	7.53
403.611	7.22
403.818	7.29
404.025	6.86
404.232	7.05
404.439	7.14
404.646	7.12
404.853	7.17
405.06	6.93
405.267	7.12
405.474	6.99
405.681	6.55
405.887	6.64
406.094	6.53
406.301	6.69
406.508	6.53
406.715	6.48
406.922	6.44
407.128	6.17
407.335	6.1
407.542	6.15
407.749	6.44
407.955	7.01
408.162	6.95
408.369	7.1
408.575	7
408.782	7.05
408.989	6.78
409.195	6.6
409.402	6.69
409.609	6.95
409.815	6.7
410.022	6.64
410.228	6.5
410.435	6.66
410.642	6.53
410.848	6.65
411.055	6.58
411.261	6.79
411.468	6.87
411.674	7.03
411.881	7.11
412.087	7.37
412.294	7.19
412.5	7.27
412.706	7.01
412.913	6.7
413.119	6.74
413.326	6.95
413.532	6.87
413.738	6.82
413.945	6.53
414.151	6.28
414.357	6.15
414.564	6.12
414.77	5.93
414.976	6.07
415.182	6.53
415.389	6.52
415.595	6.14
415.801	6.28
416.007	6.31
416.214	6.65
416.42	6.71
416.626	6.79
416.832	6.86
417.038	6.76
417.244	6.99
417.45	6.94
417.657	6.87
417.863	6.91
418.069	6.88
418.275	6.95
418.481	6.83
418.687	7
418.893	7.02
419.099	7.06
419.305	7.17
419.511	6.91
419.717	6.77
419.923	6.91
420.129	7.04
420.335	6.86
420.541	6.76
420.746	6.83
420.952	6.72
421.158	6.67
421.364	6.66
421.57	6.57
421.776	6.67
421.982	6.74
422.187	6.53
422.393	6.43
422.599	6.46
422.805	6.6
423.01	6.5
423.216	6.48
423.422	6.51
423.628	6.45
423.833	6.53
424.039	6.55
424.245	6.46
424.45	6.55
424.656	6.59
424.862	6.63
425.067	6.47
425.273	6.39
425.478	6.3
425.684	6.25
425.889	6.31
426.095	6.26
426.301	6.14
426.506	6.27
426.712	6.19
426.917	6.03
427.123	6.07
427.328	6.14
427.533	6.28
427.739	6.45
427.944	6.53
428.15	6.32
428.355	6.38
428.561	6.41
428.766	6.15
428.971	6.19
429.177	6.3
429.382	6.32
429.587	6.19
429.793	6.22
429.998	6.02
430.203	5.63
430.408	5.59
430.614	5.43
430.819	5.39
431.024	5.48
431.229	5.55
431.434	5.82
431.64	5.64
431.845	5.9
432.05	5.76
432.255	5.83
432.46	6.21
432.665	6.42
432.87	6.64
433.076	6.63
433.281	6.57
433.486	6.69
433.691	6.52
433.896	6.55
434.101	6.43
434.306	6.44
434.511	6.32
434.716	6.11
434.921	5.97
435.126	5.76
435.331	5.79
435.535	5.72
435.74	5.6
435.945	5.62
436.15	5.69
436.355	5.84
436.56	5.69
436.765	5.98
436.97	6.14
437.174	6.29
437.379	6.23
437.584	6.31
437.789	6.36
437.993	6.46
438.198	6.44
438.403	6.51
438.608	6.42
438.812	6.57
439.017	6.47
439.222	6.36
439.426	6.12
439.631	6.16
439.836	6.01
440.04	6.13
440.245	5.94
440.45	5.84
440.654	5.84
440.859	5.67
441.063	5.71
441.268	5.67
441.472	5.72
441.677	5.92
441.881	5.98
442.086	6.04
442.29	5.97
442.495	6.04
442.699	6.27
442.904	6.15
443.108	6.26
443.312	6.22
443.517	6.19
443.721	6.03
443.925	5.9
444.13	5.9
444.334	5.94
444.538	5.87
444.743	5.84
444.947	5.73
445.151	5.73
445.356	5.69
445.56	5.67
445.764	5.67
445.968	5.72
446.173	5.78
446.377	5.77
446.581	5.7
446.785	5.77
446.989	5.76
447.193	5.74
447.398	5.71
447.602	5.79
447.806	5.77
448.01	5.71
448.214	5.8
448.418	5.7
448.622	5.6
448.826	5.61
449.03	5.61
449.234	5.59
449.438	5.51
449.642	5.46
449.846	5.56
450.05	5.64
450.254	5.68
450.458	5.47
450.662	5.59
450.866	5.68
451.069	5.85
451.273	5.83
451.477	5.82
451.681	5.92
451.885	5.91
452.089	5.68
452.292	5.63
452.496	5.79
452.7	5.85
452.904	5.72
453.107	5.75
453.311	5.63
453.515	5.74
453.719	5.76
453.922	5.69
454.126	5.78
454.33	5.71
454.533	5.67
454.737	5.52
454.94	5.63
455.144	5.73
455.348	5.87
455.551	5.72
455.755	5.4
455.958	5.3
456.162	5.23
456.365	5.29
456.569	5.54
456.772	5.59
456.976	5.67
457.179	5.73
457.383	5.59
457.586	5.28
457.79	5.32
457.993	5.48
458.196	5.44
458.4	5.5
458.603	5.43
458.807	5.24
459.01	5.3
459.213	5.27
459.417	5.15
459.62	5.24
459.823	5.32
460.026	5.46
460.23	5.49
460.433	5.62
460.636	5.66
460.839	5.66
461.042	5.69
461.246	5.53
461.449	5.51
