Data from LC_240_Reflection_1.txt Node
Date: Thu Nov 19 22:26:30 EST 2015
User: robert
Spectrometer: USB4E03001
Autoset integration time: false
Trigger mode: 4
Integration Time (sec): 1.000000E-1
Scans to average: 15
Electric dark correction enabled: true
Nonlinearity correction enabled: false
Boxcar width: 5
Stray light correction enabled: false
XAxis mode: Wavelengths
Stop averaging: false
Number of Pixels in Spectrum: 3648
>>>>>Begin Spectral Data<<<<<
177.566	-89.62
177.785	-4.88
178.005	25.2
178.225	-24.63
178.445	18.96
178.665	-1.45
178.885	63.61
179.105	895.83
179.324	308.98
179.544	137.28
179.764	125.4
179.984	67.37
180.204	23.52
180.423	3.71
180.643	100.6
180.863	32.48
181.083	90.09
181.302	96.54
181.522	67.45
181.742	102.83
181.961	118.54
182.181	148.95
182.401	274.2
182.621	323.43
182.84	592.91
183.06	430.83
183.279	444.5
183.499	257.94
183.719	661.3
183.938	1862.63
184.158	-913.16
184.377	-1045.07
184.597	684.49
184.816	-2030.19
185.036	77.26
185.256	148.33
185.475	104.8
185.695	124.91
185.914	129.29
186.134	64.96
186.353	126.83
186.572	78.63
186.792	194.77
187.011	-681.53
187.231	-483.99
187.45	-630.65
187.67	-19.59
187.889	-4.25
188.108	24.4
188.328	10.8
188.547	-144.63
188.766	-158.54
188.986	-190.78
189.205	1995.1
189.424	150.28
189.644	136.45
189.863	91.98
190.082	75.33
190.302	94.1
190.521	102.59
190.74	90.6
190.959	102.83
191.178	105.63
191.398	121.91
191.617	85.32
191.836	151.31
192.055	46.25
192.274	126.1
192.494	111.04
192.713	79.55
192.932	73.74
193.151	107.02
193.37	144.7
193.589	169.5
193.808	150.29
194.027	171.27
194.246	143.95
194.465	167.41
194.685	154.53
194.904	151.69
195.123	147.23
195.342	192.42
195.561	151.5
195.78	95.36
195.999	87.06
196.218	84.01
196.436	72.13
196.655	62.31
196.874	71.09
197.093	104.02
197.312	135.36
197.531	191.17
197.75	270.74
197.969	248.81
198.188	-827.26
198.407	-184.65
198.625	-258.27
198.844	-160.21
199.063	-1544.3
199.282	-131.51
199.501	-133.07
199.719	-163.46
199.938	33.79
200.157	105.93
200.376	96.06
200.594	-431.25
200.813	90.51
201.032	416.69
201.251	288.1
201.469	-44.42
201.688	34.68
201.907	36.75
202.125	263.84
202.344	157.93
202.563	214.67
202.781	167.23
203	132.59
203.218	121.06
203.437	114.55
203.656	160.97
203.874	328.46
204.093	513.61
204.311	203.32
204.53	155.21
204.748	138.85
204.967	145.13
205.185	179.27
205.404	224.7
205.622	303.04
205.841	223.46
206.059	286.07
206.278	296.15
206.496	386.33
206.715	416.2
206.933	405.93
207.151	294.73
207.37	381.43
207.588	361.86
207.806	276.33
208.025	213.49
208.243	194.09
208.461	270.71
208.68	39.86
208.898	13.38
209.116	-21.22
209.335	78.54
209.553	331
209.771	-857.98
209.989	99.53
210.208	202.69
210.426	65.1
210.644	134.62
210.862	109.65
211.081	175.97
211.299	158.41
211.517	185.85
211.735	131
211.953	88.19
212.171	88.52
212.39	99.16
212.608	98.28
212.826	103.68
213.044	144.32
213.262	141.2
213.48	106.55
213.698	127.69
213.916	183.65
214.134	170.37
214.352	339.94
214.57	500.16
214.788	914.76
215.006	786.76
215.224	607.7
215.442	1072.62
215.66	394.25
215.878	853.54
216.096	763.14
216.314	491.55
216.532	546.57
216.75	784.23
216.968	-36.85
217.185	-58.88
217.403	414.93
217.621	519.28
217.839	-72.3
218.057	-36.75
218.275	11.16
218.492	23.09
218.71	39.59
218.928	6.07
219.146	-28.49
219.363	8.84
219.581	1
219.799	3.19
220.017	23.94
220.234	42.21
220.452	42.45
220.67	27.36
220.887	5.35
221.105	21.46
221.323	51.26
221.54	59.26
221.758	46.33
221.976	32.59
222.193	37.17
222.411	21.87
222.629	24.7
222.846	16.57
223.064	19.78
223.281	25.27
223.499	24.48
223.716	10.56
223.934	-2.56
224.151	5.79
224.369	18.27
224.586	18.39
224.804	30.93
225.021	28.68
225.239	40.92
225.456	32.03
225.674	16.87
225.891	11.59
226.108	14.85
226.326	15.24
226.543	19.58
226.76	15.81
226.978	12.15
227.195	9.94
227.413	7.75
227.63	-6.62
227.847	0.96
228.064	7.67
228.282	8.41
228.499	8.96
228.716	10.93
228.934	8.71
229.151	10.34
229.368	9.11
229.585	9.66
229.802	9.54
230.02	12.07
230.237	11.88
230.454	10.22
230.671	9.63
230.888	11.29
231.105	8.84
231.323	11.52
231.54	9.24
231.757	9.29
231.974	9.48
232.191	10.72
232.408	11.73
232.625	11.84
232.842	16.34
233.059	18.17
233.276	21.29
233.493	25.84
233.71	25.99
233.927	27.64
234.144	29.94
234.361	28.14
234.578	28.05
234.795	27.77
235.012	31.18
235.229	31.49
235.446	34.71
235.663	31.67
235.879	31.58
236.096	32.64
236.313	31.08
236.53	31.01
236.747	31.83
236.964	36.09
237.181	37.65
237.397	37.26
237.614	34.84
237.831	38.03
238.048	38.26
238.264	31.67
238.481	27.36
238.698	30.84
238.915	34.25
239.131	28.63
239.348	26.15
239.565	27.03
239.781	24.48
239.998	25.07
240.215	20.8
240.431	16.58
240.648	18.74
240.865	19.51
241.081	17.61
241.298	15.46
241.514	17.64
241.731	16.27
241.947	14.49
242.164	14.36
242.38	14.1
242.597	13.65
242.814	14.55
243.03	14.7
243.246	15.77
243.463	15.98
243.679	14.37
243.896	15.38
244.112	15.79
244.329	15.57
244.545	16.22
244.762	15.15
244.978	15.31
245.194	15.87
245.411	16.08
245.627	14.32
245.843	13.98
246.06	15.74
246.276	13.69
246.492	13.28
246.709	13.42
246.925	12.99
247.141	12.6
247.357	12.66
247.574	12.5
247.79	11.86
248.006	12.14
248.222	11.56
248.439	11.2
248.655	12.06
248.871	12.68
249.087	13.12
249.303	12.77
249.519	13.18
249.736	13.24
249.952	14.55
250.168	15.4
250.384	14.41
250.6	15.98
250.816	16.27
251.032	14.09
251.248	13.38
251.464	11.57
251.68	11.6
251.896	12.54
252.112	13.43
252.328	12.17
252.544	11.36
252.76	11.79
252.976	11.69
253.192	10.59
253.408	12.03
253.624	13.22
253.84	13.51
254.056	11.84
254.272	11.33
254.487	10.01
254.703	10.5
254.919	11.48
255.135	10.85
255.351	11.29
255.567	14.52
255.782	15.35
255.998	15.56
256.214	16.26
256.43	19.76
256.646	20.1
256.861	21.16
257.077	19.45
257.293	20.7
257.508	21.59
257.724	19.27
257.94	18.23
258.155	18.33
258.371	15.3
258.587	14.2
258.802	13.22
259.018	12.75
259.234	11.74
259.449	12.11
259.665	10.63
259.88	10.1
260.096	10.5
260.312	9.93
260.527	9.1
260.743	9.58
260.958	10.13
261.174	10.22
261.389	10.55
261.605	11.07
261.82	10.3
262.036	10.81
262.251	11.6
262.466	11.55
262.682	10.79
262.897	11.22
263.113	11.73
263.328	11.95
263.543	13.39
263.759	12.65
263.974	12.23
264.189	13.05
264.405	13.17
264.62	14.3
264.835	13.88
265.051	14.55
265.266	13.81
265.481	13.5
265.696	13.31
265.912	11.59
266.127	12.49
266.342	11.3
266.557	12.07
266.773	13.47
266.988	11.85
267.203	11.69
267.418	12.48
267.633	12.49
267.848	10.97
268.064	10.4
268.279	9.89
268.494	9.04
268.709	9.46
268.924	8.55
269.139	7.93
269.354	7.06
269.569	6.2
269.784	5.39
269.999	4.46
270.214	6.23
270.429	6.8
270.644	7.95
270.859	7.45
271.074	7.06
271.289	7.4
271.504	6.79
271.719	7.43
271.934	9.09
272.149	9.27
272.363	10.19
272.578	10.59
272.793	10.37
273.008	9.91
273.223	10.25
273.438	11.33
273.653	10.88
273.867	10.94
274.082	10.61
274.297	9.2
274.512	9.2
274.726	9.47
274.941	8.2
275.156	6.94
275.371	6.96
275.585	7.41
275.8	6.5
276.015	7.19
276.229	7.97
276.444	8.83
276.659	8.97
276.873	8.49
277.088	7.84
277.302	7.92
277.517	9.54
277.732	9.41
277.946	8.54
278.161	8.47
278.375	9.51
278.59	9.37
278.804	9.84
279.019	10.32
279.233	10.56
279.448	11.04
279.662	12.49
279.877	11.78
280.091	12.41
280.306	12.72
280.52	12.47
280.735	12.19
280.949	12.01
281.163	12.57
281.378	12.54
281.592	13.68
281.806	14.32
282.021	13.97
282.235	13.54
282.449	13.15
282.664	13.49
282.878	14.21
283.092	13.9
283.307	14
283.521	13.63
283.735	14.59
283.949	14.61
284.164	13.9
284.378	13.06
284.592	13.7
284.806	14.24
285.02	14.13
285.234	14.95
285.449	14.92
285.663	14.69
285.877	13.92
286.091	14.26
286.305	13.57
286.519	13.9
286.733	13.55
286.947	13.62
287.161	12.37
287.375	12.51
287.589	10.51
287.803	10.52
288.017	10.67
288.231	11.38
288.445	10.7
288.659	10.84
288.873	9.72
289.087	10.3
289.301	10.79
289.515	11.14
289.729	10.71
289.943	11.89
290.157	12.15
290.371	12.33
290.584	11.15
290.798	10.55
291.012	10.79
291.226	10.81
291.44	11.62
291.654	10.39
291.867	11.06
292.081	11.23
292.295	10.5
292.509	9.46
292.722	8.57
292.936	8.34
293.15	7.17
293.364	8.01
293.577	9.37
293.791	8.13
294.005	8.82
294.218	8.66
294.432	8.59
294.645	8.65
294.859	8.01
295.073	8.44
295.286	9.09
295.5	10.35
295.713	9.21
295.927	8.43
296.14	8.93
296.354	8.64
296.568	8.99
296.781	8.79
296.994	9.64
297.208	9.82
297.421	10.12
297.635	10.87
297.848	10.78
298.062	11.63
298.275	11.8
298.489	11.57
298.702	12.12
298.915	12.44
299.129	12.84
299.342	12.35
299.555	12.77
299.769	11.53
299.982	11.28
300.195	11.49
300.409	11.56
300.622	11.57
300.835	11.91
301.048	11.56
301.262	10.29
301.475	9.04
301.688	9.09
301.901	9.15
302.115	10.39
302.328	10.47
302.541	9.13
302.754	7.72
302.967	7.93
303.18	7.7
303.393	7.8
303.607	8.28
303.82	8.84
304.033	9.69
304.246	9.23
304.459	8.59
304.672	8.35
304.885	10
305.098	9.8
305.311	9.58
305.524	10.1
305.737	9.31
305.95	9.13
306.163	9.66
306.376	7.97
306.589	8.47
306.802	7.98
307.015	7.45
307.228	6.96
307.44	7.67
307.653	7.64
307.866	6.94
308.079	8.27
308.292	8.73
308.505	8.15
308.718	8.02
308.93	7.58
309.143	7.69
309.356	8.07
309.569	7.99
309.781	8.2
309.994	7.44
310.207	7.4
310.42	8.16
310.632	8.03
310.845	8.47
311.058	9.43
311.27	9.59
311.483	9.42
311.696	9.11
311.908	9.66
312.121	9.08
312.333	9.58
312.546	9.36
312.759	9.02
312.971	8.94
313.184	9.06
313.396	8.94
313.609	9.47
313.821	10.41
314.034	10.72
314.246	9.26
314.459	9.8
314.671	10.31
314.884	10.49
315.096	9.31
315.309	9.66
315.521	9.55
315.733	9.49
315.946	9.4
316.158	9.67
316.371	9.25
316.583	9.62
316.795	9.51
317.008	9.73
317.22	9.16
317.432	9.43
317.644	9.39
317.857	8.45
318.069	8.1
318.281	7.53
318.494	7.88
318.706	7.59
318.918	6.84
319.13	6.77
319.342	5.54
319.555	5.9
319.767	5.28
319.979	4.95
320.191	5.33
320.403	5.96
320.615	6.32
320.827	5.45
321.039	4.69
321.252	5.45
321.464	5.57
321.676	6.23
321.888	6.84
322.1	7.88
322.312	7.44
322.524	8.84
322.736	7.48
322.948	7.64
323.16	8.22
323.372	8.36
323.584	8.99
323.796	9.2
324.007	9.69
324.219	9.52
324.431	8.74
324.643	8.75
324.855	8.25
325.067	9.14
325.279	8.81
325.491	8.83
325.702	9.47
325.914	8.55
326.126	9.43
326.338	8.97
326.55	8.63
326.761	8.3
326.973	8.39
327.185	7.64
327.396	7.35
327.608	7.44
327.82	7.12
328.032	7.28
328.243	8.36
328.455	7.45
328.666	8.03
328.878	8.28
329.09	9.39
329.301	10.15
329.513	11.07
329.725	10.7
329.936	11.64
330.148	12.16
330.359	12.86
330.571	12.09
330.782	11.37
330.994	11.26
331.205	11.09
331.417	11.14
331.628	10.55
331.84	10.08
332.051	10.84
332.262	10.75
332.474	10.41
332.685	9.72
332.897	11.2
333.108	11.55
333.319	10.65
333.531	10.87
333.742	10.14
333.953	10.37
334.165	10.89
334.376	11.29
334.587	11.03
334.799	10.26
335.01	10.12
335.221	9.1
335.432	9.84
335.644	10.33
335.855	10.05
336.066	10.62
336.277	10.2
336.488	9.53
336.7	8.45
336.911	7.96
337.122	9.1
337.333	10.07
337.544	10.35
337.755	9
337.966	8.31
338.177	9.12
338.388	8.74
338.599	8.93
338.811	9.8
339.022	9.67
339.233	10.06
339.444	10.05
339.655	9.17
339.866	8.84
340.076	9.14
340.287	9.69
340.498	9.49
340.709	10.28
340.92	9.85
341.131	9.23
341.342	9.83
341.553	10.24
341.764	9.47
341.975	9.47
342.185	9.39
342.396	9.98
342.607	10.15
342.818	9.6
343.029	9.32
343.239	9.4
343.45	8.94
343.661	8.61
343.872	7.86
344.082	8.05
344.293	8.38
344.504	8.21
344.714	8.15
344.925	8.53
345.136	8.7
345.346	8.84
345.557	9.6
345.768	9.93
345.978	10.48
346.189	10.29
346.399	10.19
346.61	9.66
346.821	9.9
347.031	10.21
347.242	9.83
347.452	9.94
347.663	8.98
347.873	8.93
348.084	9.53
348.294	9.18
348.504	9.39
348.715	10.23
348.925	10.44
349.136	10.04
349.346	10.13
349.557	9.89
349.767	10.23
349.977	10.84
350.188	10.29
350.398	10
350.608	10.37
350.819	10.37
351.029	9.6
351.239	9.9
351.449	10.26
351.66	9.96
351.87	10.21
352.08	10.27
352.29	10.88
352.501	10.67
352.711	10.56
352.921	10.52
353.131	10.24
353.341	9.45
353.552	9.88
353.762	9.33
353.972	9.29
354.182	9.22
354.392	9.32
354.602	8.59
354.812	8.95
355.022	8.61
355.232	8.86
355.442	9.28
355.652	9.77
355.862	9.04
356.072	9.47
356.282	9.8
356.492	9.66
356.702	8.72
356.912	8.8
357.122	8.73
357.332	9.24
357.542	8.25
357.752	7.77
357.962	8.27
358.171	8.53
358.381	8.63
358.591	7.8
358.801	7.85
359.011	8.25
359.221	8.21
359.43	8.19
359.64	7.65
359.85	7.85
360.06	8.46
360.269	8.12
360.479	7.95
360.689	7.79
360.899	7.71
361.108	7.74
361.318	7.73
361.528	8.05
361.737	8.11
361.947	7.91
362.156	8.57
362.366	8.61
362.576	8.4
362.785	8.34
362.995	8.02
363.204	8.5
363.414	8.44
363.623	8.3
363.833	7.84
364.042	7.44
364.252	7.66
364.461	6.94
364.671	6.42
364.88	6.92
365.09	6.99
365.299	7.51
365.509	7.26
365.718	7.39
365.927	7.49
366.137	7.47
366.346	7.95
366.555	7.65
366.765	8.25
366.974	8.43
367.183	8.12
367.393	7.86
367.602	8.01
367.811	8.7
368.021	8.58
368.23	7.58
368.439	7.7
368.648	7.45
368.857	8.4
369.067	7.83
369.276	8.23
369.485	8.31
369.694	8.42
369.903	8.12
370.112	6.98
370.321	6.77
370.531	8.12
370.74	7.52
370.949	7.33
371.158	6.56
371.367	6.58
371.576	5.68
371.785	5.84
371.994	6.29
372.203	6.37
372.412	6.94
372.621	6.99
372.83	6.69
373.039	6.94
373.248	7.06
373.457	7.4
373.666	7.88
373.874	8.6
374.083	8.16
374.292	7.56
374.501	7.44
374.71	7.22
374.919	7.17
375.128	7.47
375.336	7.19
375.545	6.94
375.754	6.98
375.963	6.48
376.171	5.91
376.38	5.92
376.589	5.65
376.798	5.28
377.006	5.32
377.215	5.73
377.424	5.25
377.632	6.14
377.841	6.3
378.05	6.32
378.258	6.2
378.467	6.38
378.675	6.58
378.884	7.28
379.093	7.37
379.301	7.55
379.51	7.41
379.718	7.64
379.927	6.89
380.135	7.18
380.344	7.16
380.552	7.23
380.761	6.82
380.969	6.99
381.177	6.54
381.386	6.49
381.594	6.41
381.803	6.18
382.011	5.99
382.219	6.67
382.428	6.52
382.636	6.14
382.845	6.26
383.053	6.56
383.261	6.05
383.469	6.31
383.678	6.49
383.886	6.33
384.094	6.64
384.302	6.71
384.511	6.04
384.719	6.01
384.927	6.09
385.135	6.12
385.343	6.18
385.552	6.52
385.76	6.25
385.968	6.25
386.176	6.04
386.384	5.76
386.592	5.63
386.8	5.75
387.008	5.33
387.216	5.08
387.424	4.95
387.633	4.95
387.841	4.53
388.049	4.55
388.257	4.65
388.465	5.12
388.672	5.01
388.88	4.9
389.088	4.86
389.296	5.23
389.504	5.51
389.712	5.73
389.92	5.62
390.128	6.01
390.336	6.06
390.544	6.06
390.751	5.72
390.959	5.47
391.167	5.75
391.375	5.77
391.583	5.48
391.79	5.36
391.998	5.53
392.206	5.6
392.414	5.52
392.621	5.55
392.829	5.33
393.037	5.67
393.244	5.86
393.452	5.64
393.66	5.55
393.867	5.82
394.075	6.07
394.283	5.48
394.49	5.54
394.698	5.54
394.905	5.5
395.113	5.75
395.32	5.59
395.528	5.74
395.735	6.01
395.943	6.14
396.15	5.64
396.358	5.4
396.565	5.75
396.773	5.48
396.98	5.45
397.188	5.63
397.395	5.34
397.602	4.92
397.81	4.95
398.017	4.61
398.225	4.63
398.432	5.09
398.639	5.21
398.847	5.11
399.054	5.2
399.261	5.2
399.468	4.95
399.676	4.94
399.883	5.14
400.09	4.79
400.297	5.35
400.505	5.23
400.712	5.34
400.919	5.54
401.126	5.73
401.333	6.03
401.54	6.03
401.748	6.34
401.955	6.56
402.162	6.84
402.369	7.21
402.576	6.89
402.783	7.1
402.99	6.91
403.197	6.74
403.404	6.62
403.611	6.46
403.818	6.52
404.025	6.34
404.232	6.19
404.439	5.94
404.646	5.77
404.853	5.76
405.06	5.51
405.267	5.71
405.474	5.46
405.681	5.37
405.887	5.54
406.094	5.56
406.301	5.51
406.508	5.63
406.715	5.51
406.922	5.29
407.128	4.95
407.335	4.97
407.542	4.89
407.749	4.97
407.955	5.13
408.162	5.08
408.369	4.95
408.575	5.18
408.782	4.97
408.989	5.17
409.195	5.3
409.402	5.64
409.609	5.6
409.815	5.33
410.022	5.52
410.228	5.46
410.435	5.44
410.642	5.49
410.848	5.08
411.055	5.03
411.261	5.04
411.468	5.12
411.674	5.09
411.881	5.33
412.087	5.3
412.294	5.2
412.5	4.98
412.706	4.69
412.913	4.53
413.119	4.83
413.326	4.87
413.532	4.84
413.738	4.8
413.945	4.7
414.151	4.81
414.357	5.22
414.564	5.27
414.77	5.42
414.976	5.5
415.182	5.48
415.389	5.55
415.595	5.44
415.801	5.44
416.007	5.54
416.214	5.56
416.42	5.38
416.626	5.17
416.832	5.25
417.038	5.29
417.244	5.26
417.45	5.37
417.657	5.43
417.863	5.7
418.069	5.85
418.275	5.82
418.481	5.72
418.687	5.55
418.893	5.62
419.099	5.63
419.305	5.64
419.511	5.51
419.717	5.45
419.923	5.33
420.129	5.15
420.335	5.04
420.541	5.04
420.746	5.01
420.952	5.08
421.158	4.89
421.364	4.75
421.57	4.62
421.776	4.82
421.982	4.82
422.187	4.72
422.393	4.68
422.599	4.65
422.805	4.56
423.01	4.55
423.216	4.42
423.422	4.47
423.628	4.46
423.833	4.39
424.039	4.26
424.245	4.21
424.45	4.38
424.656	4.54
424.862	4.49
425.067	4.38
425.273	4.49
425.478	4.57
425.684	4.72
425.889	4.89
426.095	5.01
426.301	5.02
426.506	5.11
426.712	5.06
426.917	5
427.123	5.16
427.328	5.24
427.533	5.32
427.739	5.48
427.944	5.42
428.15	5.29
428.355	5.22
428.561	5.22
428.766	5.24
428.971	5.22
429.177	5.2
429.382	5.16
429.587	5.31
429.793	5.07
429.998	4.9
430.203	4.6
430.408	4.57
430.614	4.73
430.819	4.68
431.024	4.45
431.229	4.14
431.434	4.07
431.64	4
431.845	4.04
432.05	4.13
432.255	4.15
432.46	4.33
432.665	4.44
432.87	4.32
433.076	4.34
433.281	4.5
433.486	4.77
433.691	4.75
433.896	4.63
434.101	4.57
434.306	4.53
434.511	4.49
434.716	4.55
434.921	4.38
435.126	4.58
435.331	4.69
435.535	4.51
435.74	4.34
435.945	4.54
436.15	4.57
436.355	4.63
436.56	4.64
436.765	4.84
436.97	4.72
437.174	4.83
437.379	4.69
437.584	4.55
437.789	4.68
437.993	4.6
438.198	4.36
438.403	4.39
438.608	4.38
438.812	4.32
439.017	4.21
439.222	4.2
439.426	4.11
439.631	4.1
439.836	4.26
440.04	4.39
440.245	4.53
440.45	4.52
440.654	4.62
440.859	4.65
441.063	4.81
441.268	4.81
441.472	4.89
441.677	4.88
441.881	4.79
442.086	4.6
442.29	4.38
442.495	4.4
442.699	4.51
442.904	4.5
443.108	4.45
443.312	4.25
443.517	4.21
443.721	4.17
443.925	4.31
444.13	4.49
444.334	4.62
444.538	4.76
444.743	4.66
444.947	4.55
445.151	4.49
445.356	4.55
445.56	4.63
445.764	4.59
445.968	4.59
446.173	4.49
446.377	4.42
446.581	4.41
446.785	4.38
446.989	4.36
447.193	4.29
447.398	4.14
447.602	4.16
447.806	4.08
448.01	4.05
448.214	4
448.418	3.99
448.622	3.96
448.826	4.07
449.03	4.1
449.234	3.99
449.438	4.11
449.642	4.28
449.846	4.07
450.05	4.24
450.254	4.3
450.458	4.31
450.662	4.28
450.866	4.16
451.069	4.06
451.273	4.01
451.477	4.21
451.681	4.19
451.885	4.18
452.089	4.29
452.292	4.24
452.496	4.34
452.7	4.17
452.904	4.07
453.107	4.14
453.311	4.2
453.515	4.19
453.719	4.3
453.922	4.41
454.126	4.29
454.33	4.23
454.533	4.05
454.737	3.88
454.94	3.86
455.144	4.08
455.348	4.1
455.551	4.05
455.755	3.96
455.958	3.85
456.162	3.74
456.365	3.93
456.569	3.89
456.772	4.17
456.976	4.3
457.179	4.58
457.383	4.51
457.586	4.64
457.79	4.56
457.993	4.46
458.196	4.26
458.4	4.27
458.603	4.16
458.807	4.27
459.01	4.13
459.213	4.11
459.417	4.08
459.62	4.07
459.823	3.98
460.026	3.94
460.23	4.05
460.433	4.13
460.636	4.15
460.839	4.21
461.042	4.19
461.246	4.18
461.449	4.21
461.652	4.1
461.855	4.14
462.058	4.13
462.261	4.3
462.464	4.28
462.668	4.22
462.871	4.4
463.074	4.26
463.277	4.09
463.48	4.31
463.683	4.27
463.886	4.45
464.089	4.47
464.292	4.54
464.495	4.61
464.698	4.41
464.901	4.49
465.104	4.41
465.306	4.53
465.509	4.71
465.712	4.55
465.915	4.48
466.118	4.28
466.321	4.2
466.524	4.07
