Data from LC_210__Reflection_2.txt Node
Date: Thu Nov 19 12:16:22 EST 2015
User: robert
Spectrometer: USB4E03001
Autoset integration time: false
Trigger mode: 4
Integration Time (sec): 1.000000E-1
Scans to average: 15
Electric dark correction enabled: true
Nonlinearity correction enabled: false
Boxcar width: 5
Stray light correction enabled: false
XAxis mode: Wavelengths
Stop averaging: false
Number of Pixels in Spectrum: 3648
>>>>>Begin Spectral Data<<<<<
177.566	1802.68
177.785	-2054.66
178.005	519.57
178.225	161.74
178.445	82.97
178.665	162.16
178.885	-131.35
179.105	-1098.35
179.324	-373.48
179.544	-1018.39
179.764	354.65
179.984	1378.3
180.204	941.1
180.423	257.46
180.643	169.33
180.863	93.34
181.083	156.19
181.302	217.45
181.522	368.25
181.742	195.53
181.961	187.97
182.181	232.36
182.401	172.02
182.621	177.55
182.84	190.24
183.06	179.54
183.279	225.84
183.499	143.38
183.719	138.69
183.938	129.73
184.158	255.99
184.377	271.82
184.597	523.65
184.816	-468.99
185.036	-187.66
185.256	-43.2
185.475	6.77
185.695	24.01
185.914	7.1
186.134	-22.09
186.353	-17.28
186.572	-175.02
186.792	-118.65
187.011	873.49
187.231	603.63
187.45	455.54
187.67	300.33
187.889	305.76
188.108	2021.54
188.328	434.62
188.547	294.59
188.766	-646
188.986	7.45
189.205	19.76
189.424	15.96
189.644	-10.39
189.863	-95.81
190.082	-109.39
190.302	-110.13
190.521	-82.75
190.74	-91.11
190.959	-814.21
191.178	-926.68
191.398	-943.97
191.617	-2057.55
191.836	-1695.29
192.055	-449.24
192.274	-290.46
192.494	-26.41
192.713	-6.57
192.932	-1.22
193.151	66.55
193.37	68.76
193.589	133.63
193.808	-294.29
194.027	270.33
194.246	241.27
194.465	-336.51
194.685	1553.3
194.904	-11.07
195.123	-303.48
195.342	-11.3
195.561	143.77
195.78	1509.76
195.999	625.44
196.218	-1029.27
196.436	22276.92
196.655	-938.46
196.874	-33.74
197.093	7
197.312	-8.5
197.531	-75.03
197.75	-286.35
197.969	4.09
198.188	645.38
198.407	244.32
198.625	132.86
198.844	80.71
199.063	135.61
199.282	107.1
199.501	136
199.719	138.4
199.938	143.27
200.157	159.04
200.376	160.08
200.594	125.8
200.813	133.39
201.032	187.76
201.251	317.62
201.469	135.45
201.688	148.09
201.907	148.73
202.125	67.59
202.344	62.91
202.563	56.05
202.781	59.22
203	73.5
203.218	67.74
203.437	50.64
203.656	20.37
203.874	536.88
204.093	219.71
204.311	-160.89
204.53	-34.7
204.748	-8.07
204.967	-9.08
205.185	-9.47
205.404	-4.49
205.622	-27.08
205.841	-56.64
206.059	-178.09
206.278	-3242.6
206.496	-355.19
206.715	-1832.69
206.933	158.76
207.151	95.76
207.37	106.31
207.588	119.46
207.806	98.83
208.025	114.61
208.243	154.54
208.461	580.67
208.68	1246.68
208.898	364.31
209.116	-15238.46
209.335	735.69
209.553	-404.01
209.771	-294.3
209.989	-1060.89
210.208	-333.28
210.426	-619.8
210.644	553.66
210.862	357.94
211.081	628.41
211.299	271.88
211.517	235.34
211.735	3381.73
211.953	326.61
212.171	199.49
212.39	160.62
212.608	129.21
212.826	110.75
213.044	151.92
213.262	121.75
213.48	99.7
213.698	165.19
213.916	136.07
214.134	136.86
214.352	134.63
214.57	115.35
214.788	154.22
215.006	-1747.12
215.224	-150.83
215.442	-134.94
215.66	-32.83
215.878	-24.88
216.096	-104.66
216.314	-69.56
216.532	-46.78
216.75	-73.79
216.968	-52.77
217.185	-92.03
217.403	-53.63
217.621	-118.49
217.839	-129
218.057	-162.48
218.275	-84.49
218.492	-40.59
218.71	-26.56
218.928	-39.9
219.146	-32.24
219.363	-45.38
219.581	-34.38
219.799	-73.8
220.017	-51.81
220.234	-65.38
220.452	-94.55
220.67	-249.68
220.887	-219.3
221.105	-185.85
221.323	-115.1
221.54	-90.52
221.758	-88.4
221.976	-87.88
222.193	-30.68
222.411	-21.29
222.629	-19.32
222.846	-28.27
223.064	-29.94
223.281	-34.69
223.499	-48.33
223.716	-58.84
223.934	-68
224.151	-74.15
224.369	-78.9
224.586	-67.8
224.804	-217.77
225.021	-105.38
225.239	-89.16
225.456	-135.7
225.674	-122.92
225.891	-32.36
226.108	-5.91
226.326	-14.51
226.543	-29
226.76	-28.43
226.978	-63.82
227.195	-48.78
227.413	-52.34
227.63	-46.81
227.847	-28.49
228.064	-24.35
228.282	-16.27
228.499	-20.36
228.716	-15.9
228.934	-8.95
229.151	-3.03
229.368	0.95
229.585	2.72
229.802	5.3
230.02	10.15
230.237	7.23
230.454	10.93
230.671	8.56
230.888	8.75
231.105	11.09
231.323	9.44
231.54	8.01
231.757	6.97
231.974	1.85
232.191	6.59
232.408	5.38
232.625	7.07
232.842	4.09
233.059	0.21
233.276	0.38
233.493	-1.19
233.71	4.39
233.927	0.58
234.144	0.73
234.361	9.88
234.578	-3.55
234.795	-9.97
235.012	-6.03
235.229	-8.36
235.446	-2.22
235.663	-3.84
235.879	-2.74
236.096	-9.46
236.313	-10.55
236.53	-17.86
236.747	-18.25
236.964	-12.94
237.181	-9.11
237.397	-14.46
237.614	-13.62
237.831	-21.63
238.048	-15.85
238.264	-21.07
238.481	-13.99
238.698	-8.9
238.915	3.48
239.131	1.89
239.348	5.23
239.565	12.82
239.781	15.43
239.998	18.31
240.215	20.98
240.431	23.01
240.648	26.12
240.865	26.11
241.081	25.58
241.298	21.22
241.514	20.72
241.731	18.54
241.947	16.85
242.164	15.39
242.38	15.24
242.597	13.71
242.814	12.5
243.03	11.2
243.246	9.04
243.463	10.21
243.679	12.22
243.896	12.44
244.112	14.47
244.329	13.35
244.545	14.63
244.762	13.77
244.978	13.85
245.194	13.83
245.411	13.24
245.627	15.27
245.843	15.57
246.06	14.49
246.276	12.18
246.492	11.57
246.709	11.68
246.925	11.35
247.141	10.42
247.357	10.77
247.574	11.51
247.79	12.02
248.006	11.34
248.222	10.29
248.439	9.59
248.655	10.08
248.871	10.1
249.087	9.51
249.303	9.74
249.519	8.56
249.736	7.33
249.952	5.37
250.168	4.5
250.384	3.94
250.6	4.16
250.816	4.8
251.032	4.84
251.248	0.97
251.464	1.8
251.68	3.7
251.896	7.07
252.112	7.64
252.328	6.98
252.544	7.58
252.76	7.69
252.976	8.54
253.192	7.82
253.408	6.41
253.624	8.34
253.84	7.24
254.056	6.83
254.272	5.81
254.487	3.76
254.703	6.07
254.919	4
255.135	7.4
255.351	5.97
255.567	8.47
255.782	8.64
255.998	8.25
256.214	9.39
256.43	8.93
256.646	11.58
256.861	12.93
257.077	12.6
257.293	15.05
257.508	13.07
257.724	14.21
257.94	12.48
258.155	12.98
258.371	12.76
258.587	11.49
258.802	10.34
259.018	9.64
259.234	10.36
259.449	10.42
259.665	9.53
259.88	9.34
260.096	8.57
260.312	8.03
260.527	8.07
260.743	8.1
260.958	8.72
261.174	8.28
261.389	7.82
261.605	6.91
261.82	7.35
262.036	6.94
262.251	5.91
262.466	5.91
262.682	6.1
262.897	6.09
263.113	8.12
263.328	7.64
263.543	7.39
263.759	7.09
263.974	6.63
264.189	2.99
264.405	3.48
264.62	4.27
264.835	3.53
265.051	3.08
265.266	1.81
265.481	-2.58
265.696	-2.2
265.912	-0.89
266.127	0.49
266.342	1.92
266.557	3.17
266.773	3.95
266.988	4.99
267.203	6.14
267.418	7.21
267.633	8.92
267.848	9.55
268.064	8.91
268.279	9.21
268.494	8.73
268.709	8.58
268.924	8.73
269.139	8.25
269.354	6.85
269.569	6.2
269.784	4.58
269.999	4.49
270.214	5.02
270.429	6.54
270.644	6.29
270.859	7.86
271.074	8.01
271.289	8.71
271.504	9.06
271.719	10.79
271.934	10.17
272.149	10.88
272.363	10.9
272.578	10.46
272.793	10.07
273.008	10.76
273.223	9.22
273.438	9.4
273.653	8.06
273.867	8.7
274.082	8
274.297	9.6
274.512	9.78
274.726	9.04
274.941	10.47
275.156	9.26
275.371	8.96
275.585	8.88
275.8	8.04
276.015	9.4
276.229	9.66
276.444	10.38
276.659	9.35
276.873	7.17
277.088	6.89
277.302	7.17
277.517	8.11
277.732	8.17
277.946	7.7
278.161	9.3
278.375	9.43
278.59	7.29
278.804	4.59
279.019	5.05
279.233	7.52
279.448	6.96
279.662	6
279.877	7.32
280.091	6.65
280.306	8.97
280.52	8.24
280.735	8.35
280.949	9.77
281.163	9.97
281.378	9.95
281.592	9.27
281.806	9.04
282.021	10.02
282.235	8.22
282.449	7.97
282.664	7.73
282.878	7.37
283.092	7.76
283.307	7.61
283.521	8.4
283.735	7.78
283.949	8.07
284.164	9.35
284.378	7.45
284.592	8.87
284.806	10.67
285.02	8.3
285.234	7.89
285.449	7.27
285.663	6.41
285.877	5.94
286.091	6.1
286.305	6.16
286.519	5.96
286.733	6.16
286.947	5.93
287.161	3.52
287.375	4.67
287.589	4.62
287.803	3.92
288.017	4.7
288.231	4.28
288.445	4.01
288.659	3.44
288.873	4.34
289.087	6.27
289.301	5.26
289.515	5.85
289.729	6.43
289.943	5.95
290.157	7.43
290.371	7.62
290.584	8.43
290.798	8.39
291.012	9.41
291.226	8.33
291.44	7.19
291.654	8.08
291.867	9.16
292.081	9
292.295	9.18
292.509	8.81
292.722	8.41
292.936	8.28
293.15	10.44
293.364	9.54
293.577	9.02
293.791	10.15
294.005	10.17
294.218	9.95
294.432	10.78
294.645	11.02
294.859	10.75
295.073	9.89
295.286	10.19
295.5	8.65
295.713	9.85
295.927	9.81
296.14	8.83
296.354	8.48
296.568	8.39
296.781	8.29
296.994	8.26
297.208	8.45
297.421	9.08
297.635	9.16
297.848	9.39
298.062	9.15
298.275	10.04
298.489	10.08
298.702	9.71
298.915	9.71
299.129	9.41
299.342	9.49
299.555	9.74
299.769	11.2
299.982	11.44
300.195	11
300.409	10.37
300.622	10.31
300.835	8.97
301.048	9.77
301.262	10.03
301.475	10.1
301.688	10.37
301.901	10.01
302.115	9.4
302.328	9.11
302.541	10.14
302.754	9.95
302.967	9.28
303.18	11.03
303.393	10.5
303.607	9.82
303.82	11.83
304.033	12.1
304.246	13.07
304.459	11.9
304.672	12.71
304.885	11.11
305.098	11.5
305.311	11.73
305.524	12.52
305.737	13.59
305.95	14.32
306.163	10.96
306.376	11.65
306.589	10.75
306.802	9.38
307.015	8.51
307.228	9.43
307.44	7.75
307.653	8.09
307.866	7.75
308.079	6.62
308.292	7.18
308.505	8.53
308.718	8.95
308.93	9.32
309.143	11.64
309.356	10.19
309.569	10.1
309.781	11.56
309.994	11.29
310.207	12.16
310.42	12.58
310.632	11.63
310.845	11.9
311.058	9.83
311.27	9.9
311.483	9.01
311.696	9.81
311.908	9.94
312.121	9.77
312.333	9.07
312.546	7.15
312.759	6.91
312.971	8.27
313.184	7.77
313.396	9.06
313.609	7.69
313.821	8.73
314.034	8.19
314.246	7.66
314.459	7.16
314.671	8.41
314.884	7.77
315.096	6.43
315.309	4.19
315.521	3.66
315.733	3.54
315.946	4.74
316.158	3.64
316.371	4.96
316.583	5.87
316.795	5.4
317.008	5.05
317.22	5.77
317.432	6.34
317.644	6.76
317.857	7.82
318.069	7.53
318.281	8.67
318.494	8.57
318.706	8.11
318.918	8.06
319.13	8.96
319.342	8.58
319.555	9.67
319.767	10.33
319.979	10.81
320.191	10.96
320.403	13.41
320.615	9.62
320.827	9.69
321.039	9.07
321.252	7.02
321.464	4.89
321.676	5.32
321.888	3.88
322.1	2.98
322.312	4.13
322.524	4.07
322.736	1.93
322.948	3
323.16	2.95
323.372	4.02
323.584	5.11
323.796	4.83
324.007	5.1
324.219	6
324.431	7.07
324.643	6.11
324.855	5.13
325.067	5.53
325.279	6.66
325.491	6.98
325.702	6.18
325.914	6.04
326.126	8.28
326.338	8.79
326.55	9.45
326.761	9.45
326.973	9.2
327.185	9.47
327.396	8.35
327.608	7.3
327.82	7.57
328.032	8.65
328.243	9.02
328.455	8.98
328.666	8.19
328.878	7.37
329.09	7.29
329.301	8.05
329.513	9.49
329.725	10.41
329.936	9.92
330.148	10.19
330.359	10.09
330.571	11.74
330.782	11.98
330.994	11.84
331.205	12.25
331.417	11.76
331.628	11.21
331.84	10.62
332.051	11.89
332.262	12.79
332.474	11.14
332.685	11.7
332.897	10.25
333.108	9.93
333.319	10.52
333.531	9.56
333.742	10.53
333.953	11.16
334.165	10.43
334.376	8.95
334.587	10.02
334.799	11.48
335.01	10.1
335.221	10.47
335.432	10.38
335.644	10.3
335.855	11.4
336.066	10.74
336.277	10.87
336.488	11.75
336.7	12.11
336.911	12.09
337.122	10.67
337.333	10.29
337.544	9.91
337.755	9.75
337.966	9.8
338.177	9.69
338.388	9.66
338.599	8.99
338.811	8.43
339.022	8.75
339.233	9.03
339.444	9.99
339.655	9.97
339.866	10.34
340.076	10.49
340.287	10.73
340.498	10.27
340.709	11.13
340.92	11.94
341.131	11.93
341.342	11.68
341.553	11.24
341.764	11.7
341.975	12.64
342.185	12.2
342.396	12.33
342.607	11.84
342.818	11.83
343.029	10.77
343.239	9.91
343.45	9.61
343.661	9.22
343.872	8.16
344.082	7.57
344.293	7.53
344.504	9.41
344.714	9.56
344.925	9.95
345.136	9.98
345.346	10.15
345.557	10.44
345.768	10.99
345.978	11.44
346.189	11.77
346.399	11.7
346.61	11.59
346.821	10.24
347.031	9.74
347.242	8.69
347.452	8.77
347.663	8.52
347.873	8.71
348.084	7.93
348.294	7.51
348.504	8.26
348.715	8.69
348.925	8.31
349.136	7.39
349.346	7.51
349.557	7.64
349.767	8.1
349.977	9.14
350.188	8.78
350.398	8.73
350.608	9.39
350.819	7.94
351.029	7.46
351.239	7.58
351.449	8.68
351.66	8.27
351.87	8.65
352.08	8.52
352.29	8.25
352.501	7.93
352.711	8.22
352.921	7.37
353.131	8.66
353.341	9.09
353.552	9.33
353.762	9.15
353.972	9.69
354.182	9.74
354.392	9.09
354.602	9.3
354.812	9.76
355.022	9.98
355.232	10.25
355.442	10.55
355.652	10.08
355.862	9.31
356.072	8.81
356.282	8.49
356.492	7.95
356.702	8.42
356.912	8.62
357.122	8.24
357.332	8.33
357.542	8.26
357.752	8.12
357.962	8.03
358.171	8.89
358.381	8.52
358.591	8.4
358.801	9.47
359.011	9.92
359.221	8.98
359.43	9.46
359.64	9.44
359.85	9.93
360.06	9.82
360.269	10.15
360.479	10.25
360.689	10.59
360.899	10.76
361.108	10.61
361.318	9.91
361.528	9.91
361.737	10.31
361.947	10.21
362.156	9.46
362.366	8.79
362.576	9.03
362.785	8.68
362.995	8.78
363.204	8.85
363.414	8.26
363.623	8.08
363.833	8.36
364.042	7.38
364.252	7.63
364.461	7.95
364.671	8.73
364.88	8.09
365.09	8.14
365.299	7.7
365.509	7.56
365.718	7.85
365.927	8.68
366.137	8.71
366.346	8.02
366.555	7.07
366.765	7.05
366.974	6.98
367.183	7.41
367.393	7.03
367.602	6.87
367.811	6.27
368.021	5.62
368.23	4.73
368.439	4.46
368.648	5.32
368.857	5.75
369.067	5.26
369.276	5.12
369.485	4.45
369.694	5.07
369.903	5.85
370.112	6.53
370.321	6.71
370.531	7.22
370.74	7.28
370.949	7.7
371.158	7.76
371.367	8.21
371.576	7.99
371.785	7.78
371.994	7.21
372.203	7.2
372.412	7.58
372.621	7.9
372.83	7.72
373.039	7.51
373.248	7.24
373.457	7.41
373.666	7.16
373.874	6.69
374.083	7.05
374.292	7.68
374.501	7.33
374.71	6.97
374.919	6.97
375.128	6.35
375.336	6.57
375.545	6.62
375.754	6.23
375.963	6.45
376.171	7.11
376.38	7.21
376.589	6.73
376.798	6.49
377.006	7.09
377.215	6.58
377.424	7.06
377.632	7.05
377.841	6.94
378.05	7.45
378.258	7.19
378.467	6.72
378.675	6.43
378.884	6.35
379.093	6.86
379.301	6.05
379.51	5.96
379.718	6.03
379.927	5.83
380.135	6.04
380.344	5.57
380.552	5.73
380.761	5.83
380.969	6.46
381.177	6.61
381.386	6.78
381.594	7.14
381.803	7.89
382.011	8.02
382.219	8.04
382.428	7.9
382.636	7.63
382.845	7.34
383.053	7.56
383.261	7.47
383.469	7.55
383.678	6.82
383.886	6.25
384.094	6.16
384.302	5.8
384.511	5.77
384.719	5.32
384.927	5.44
385.135	5.58
385.343	5.68
385.552	5.25
385.76	5.14
385.968	5.71
386.176	5.91
386.384	5.52
386.592	5.5
386.8	5.29
387.008	5.7
387.216	5.73
387.424	6.16
387.633	6.09
387.841	6.45
388.049	6.74
388.257	6.14
388.465	6.12
388.672	6.27
388.88	6.16
389.088	6.46
389.296	6.37
389.504	6.58
389.712	6.41
389.92	6.59
390.128	6.19
390.336	5.78
390.544	6.12
390.751	6.31
390.959	6.41
391.167	6.61
391.375	6.61
391.583	6.6
391.79	6.69
391.998	6.3
392.206	6.04
392.414	6.06
392.621	6.17
392.829	6.21
393.037	6.28
393.244	6.2
393.452	5.89
393.66	5.51
393.867	5.37
394.075	5.04
394.283	5.46
394.49	5.21
394.698	5.64
394.905	5.56
395.113	5.42
395.32	5.16
395.528	4.83
395.735	5.04
395.943	5.39
396.15	5.3
396.358	5.31
396.565	4.75
396.773	4.9
396.98	4.28
397.188	4.51
397.395	4.43
397.602	4.26
397.81	4.51
398.017	4.6
398.225	4.8
398.432	5.12
398.639	5.15
398.847	5.41
399.054	5.21
399.261	5.48
399.468	5.04
399.676	4.97
399.883	5.13
400.09	5.03
400.297	4.98
400.505	4.79
400.712	4.75
400.919	4.72
401.126	4.66
401.333	5.07
401.54	4.95
401.748	5.4
401.955	5.53
402.162	5.29
402.369	5.48
402.576	5.41
402.783	5.48
402.99	5.24
403.197	5.25
403.404	5.25
403.611	5.15
403.818	5.43
404.025	5.16
404.232	5.13
404.439	5.45
404.646	5.23
404.853	5.32
405.06	4.99
405.267	5.05
405.474	5.16
405.681	5.2
405.887	5.16
406.094	5.17
406.301	5.36
406.508	5.14
406.715	5.1
406.922	5.36
407.128	5.31
407.335	5.38
407.542	5.48
407.749	5.37
407.955	5.41
408.162	5.3
408.369	5.18
408.575	5.11
408.782	5.24
408.989	5.01
409.195	4.89
409.402	4.73
409.609	4.95
409.815	4.92
410.022	5.06
410.228	5.07
410.435	4.9
410.642	4.85
410.848	4.8
411.055	4.5
411.261	4.57
411.468	4.76
411.674	4.83
411.881	4.71
412.087	4.89
412.294	4.81
412.5	4.85
412.706	4.92
412.913	4.73
413.119	4.67
413.326	5.34
413.532	5.52
413.738	5.23
413.945	5.05
414.151	5.01
414.357	4.71
414.564	4.69
414.77	4.62
414.976	4.81
415.182	5.12
415.389	5.1
415.595	4.67
415.801	4.67
416.007	4.91
416.214	4.88
416.42	5.12
416.626	5.05
416.832	5.04
417.038	5.03
417.244	5.21
417.45	5.07
417.657	5.22
417.863	5.29
418.069	5.13
418.275	5.24
418.481	5.34
418.687	5.25
418.893	5.38
419.099	5.45
419.305	5.43
419.511	5.15
419.717	5.07
419.923	5.05
420.129	5.05
420.335	5.03
420.541	4.86
420.746	5.03
420.952	4.96
421.158	4.94
421.364	4.87
421.57	4.88
421.776	5
421.982	5.01
422.187	4.88
422.393	4.9
422.599	4.84
422.805	4.95
423.01	4.73
423.216	4.67
423.422	4.64
423.628	4.69
423.833	4.8
424.039	4.93
424.245	4.96
424.45	5
424.656	5.1
424.862	5.23
425.067	5.12
425.273	5.1
425.478	5.14
425.684	5.22
425.889	5.31
426.095	5.2
426.301	5.01
426.506	5.07
426.712	5.04
426.917	4.85
427.123	4.71
427.328	4.69
427.533	4.83
427.739	4.96
427.944	4.9
428.15	4.58
428.355	4.69
428.561	4.63
428.766	4.6
428.971	4.61
429.177	4.72
429.382	4.8
429.587	4.75
429.793	4.79
429.998	4.68
430.203	4.43
430.408	4.52
430.614	4.33
430.819	4.3
431.024	4.19
431.229	4.37
431.434	4.44
431.64	4.42
431.845	4.54
432.05	4.65
432.255	4.59
432.46	4.73
432.665	4.73
432.87	4.91
433.076	5.03
433.281	5.09
433.486	5.04
433.691	4.92
433.896	4.8
434.101	4.67
434.306	4.69
434.511	4.65
434.716	4.6
434.921	4.68
435.126	4.65
435.331	4.6
435.535	4.54
435.74	4.52
435.945	4.63
436.15	4.95
436.355	4.96
436.56	4.78
436.765	4.95
436.97	5.09
437.174	5.11
437.379	4.95
437.584	5.05
437.789	5.12
437.993	5.19
438.198	5.05
438.403	4.99
438.608	5.2
438.812	5.26
439.017	5.31
439.222	5.29
439.426	5.12
439.631	5.01
439.836	4.94
440.04	4.87
440.245	4.88
440.45	4.96
440.654	5.09
440.859	4.92
441.063	4.78
441.268	4.72
441.472	4.76
441.677	4.83
441.881	5.05
442.086	5.14
442.29	5.15
442.495	5.12
442.699	5.16
442.904	4.9
443.108	4.83
443.312	4.89
443.517	4.68
443.721	4.76
443.925	4.78
444.13	4.81
444.334	4.64
444.538	4.74
444.743	4.75
444.947	4.81
445.151	4.67
445.356	4.9
445.56	4.89
445.764	5.1
445.968	5
446.173	5.07
446.377	4.97
446.581	5.04
446.785	4.97
446.989	4.94
447.193	4.84
447.398	4.99
447.602	4.94
447.806	5.02
448.01	4.87
448.214	4.92
448.418	4.82
448.622	4.76
448.826	4.66
449.03	4.69
449.234	4.61
449.438	4.64
449.642	4.63
449.846	4.61
450.05	4.45
450.254	4.43
450.458	4.27
450.662	4.21
450.866	4.26
451.069	4.55
451.273	4.46
451.477	4.38
451.681	4.32
451.885	4.35
452.089	4.39
452.292	4.39
452.496	4.63
452.7	4.64
452.904	4.69
453.107	4.73
453.311	4.54
453.515	4.53
453.719	4.71
453.922	4.62
454.126	4.56
454.33	4.34
454.533	4.46
454.737	4.24
454.94	4.28
455.144	4.41
455.348	4.47
455.551	4.59
455.755	4.65
455.958	4.58
456.162	4.67
456.365	4.69
456.569	4.99
456.772	5.11
456.976	5.19
457.179	5.28
457.383	5.24
457.586	5.1
457.79	4.87
457.993	4.95
458.196	4.96
458.4	4.93
458.603	4.89
458.807	4.67
459.01	4.68
459.213	4.64
459.417	4.58
459.62	4.52
459.823	4.67
460.026	4.72
460.23	4.61
460.433	4.67
460.636	4.73
460.839	4.72
461.042	4.84
461.246	4.71
461.449	4.66
461.652	4.67
461.855	4.58
462.058	4.35
462.261	4.4
462.464	4.55
462.668	4.36
462.871	4.36
463.074	4.46
463.277	4.51
463.48	4.68
463.683	4.86
463.886	4.78
464.089	4.9
464.292	5.02
464.495	5.03
464.698	4.78
464.901	4.96
465.104	4.93
465.306	4.85
465.509	4.73
465.712	4.64
465.915	4.54
466.118	4.54
466.321	4.52
466.524	4.5
