Data from LC_270_Reflection_3.txt Node
Date: Sat Nov 21 12:08:42 EST 2015
User: robert
Spectrometer: USB4E03001
Autoset integration time: false
Trigger mode: 4
Integration Time (sec): 1.000000E-1
Scans to average: 15
Electric dark correction enabled: true
Nonlinearity correction enabled: false
Boxcar width: 5
Stray light correction enabled: false
XAxis mode: Wavelengths
Stop averaging: false
Number of Pixels in Spectrum: 3648
>>>>>Begin Spectral Data<<<<<
177.566	54.81
177.785	86.42
178.005	503.9
178.225	-48.3
178.445	204.09
178.665	534.12
178.885	-535.05
179.105	33.08
179.324	66.49
179.544	25.64
179.764	405.98
179.984	80.74
180.204	89.52
180.423	47.84
180.643	87.7
180.863	173.22
181.083	210.03
181.302	235.8
181.522	239.19
181.742	256.32
181.961	242.04
182.181	220.36
182.401	421.76
182.621	356.09
182.84	399.46
183.06	316.16
183.279	241.9
183.499	208.22
183.719	175.03
183.938	156.49
184.158	169.03
184.377	179.21
184.597	168.87
184.816	152.52
185.036	145.32
185.256	144.64
185.475	128.59
185.695	122.08
185.914	121.16
186.134	128.38
186.353	132.35
186.572	141.49
186.792	123.77
187.011	126.34
187.231	126.98
187.45	124.33
187.67	129.05
187.889	135.56
188.108	206.66
188.328	246.24
188.547	235.02
188.766	198.8
188.986	203.43
189.205	306.04
189.424	577
189.644	346.25
189.863	-110.71
190.082	-137.86
190.302	546.07
190.521	18.97
190.74	46.06
190.959	108.3
191.178	138.87
191.398	84.51
191.617	82.02
191.836	92.88
192.055	113.26
192.274	89.43
192.494	108.34
192.713	103.06
192.932	138.36
193.151	133.61
193.37	116.69
193.589	117.79
193.808	153.18
194.027	160.5
194.246	145.9
194.465	135.44
194.685	130.98
194.904	107.78
195.123	122.31
195.342	140.97
195.561	150.2
195.78	129.17
195.999	157.06
196.218	166.5
196.436	169.71
196.655	152.69
196.874	156.5
197.093	204.27
197.312	256.4
197.531	234.56
197.75	174.27
197.969	149.18
198.188	183.05
198.407	186.97
198.625	170.61
198.844	166.9
199.063	170.44
199.282	177.2
199.501	191.7
199.719	153.84
199.938	157.68
200.157	152.3
200.376	163.22
200.594	159.57
200.813	136.8
201.032	147.97
201.251	131.29
201.469	129.67
201.688	139.94
201.907	137.27
202.125	159.81
202.344	152.96
202.563	198.07
202.781	240.94
203	251.03
203.218	228.42
203.437	417.39
203.656	772.1
203.874	798.62
204.093	431.77
204.311	340.47
204.53	501.58
204.748	488.84
204.967	521.21
205.185	344.96
205.404	340.99
205.622	806.92
205.841	469.45
206.059	363.91
206.278	383.41
206.496	398.13
206.715	807.14
206.933	519.15
207.151	401.63
207.37	267.57
207.588	332.72
207.806	278.16
208.025	149.18
208.243	179.35
208.461	192.79
208.68	186.67
208.898	242.67
209.116	161.53
209.335	170.65
209.553	212.95
209.771	238.39
209.989	241.68
210.208	311.83
210.426	371.84
210.644	359.18
210.862	475.75
211.081	384.2
211.299	188.6
211.517	255.53
211.735	224.65
211.953	176.96
212.171	152.19
212.39	169.41
212.608	116.29
212.826	138.45
213.044	136.12
213.262	128.93
213.48	132.95
213.698	141.64
213.916	160.94
214.134	135.34
214.352	150.41
214.57	138.37
214.788	137.85
215.006	161.03
215.224	159.15
215.442	161.6
215.66	172.04
215.878	169.28
216.096	201.86
216.314	185.27
216.532	206.65
216.75	182.58
216.968	210.96
217.185	177.35
217.403	194
217.621	193
217.839	173.55
218.057	186.54
218.275	188.01
218.492	154.61
218.71	162.42
218.928	165.4
219.146	164.96
219.363	170.89
219.581	306.7
219.799	206.97
220.017	165.78
220.234	181.83
220.452	154.78
220.67	143.48
220.887	160.35
221.105	131.05
221.323	128.91
221.54	114.55
221.758	88.61
221.976	75.49
222.193	74.35
222.411	76.05
222.629	75.95
222.846	75.35
223.064	70.46
223.281	65.36
223.499	74.13
223.716	91.58
223.934	97.14
224.151	107.58
224.369	97.2
224.586	95.26
224.804	84.68
225.021	82.27
225.239	80.07
225.456	82.96
225.674	81.47
225.891	70.35
226.108	58.3
226.326	57.81
226.543	52.17
226.76	55.05
226.978	55.12
227.195	49.19
227.413	43.15
227.63	45.77
227.847	41.91
228.064	41.41
228.282	37.77
228.499	35.12
228.716	33.99
228.934	33.01
229.151	31.36
229.368	27.76
229.585	28.44
229.802	29.21
230.02	24.62
230.237	23.93
230.454	24.16
230.671	25
230.888	25.56
231.105	22.49
231.323	21.42
231.54	25.49
231.757	29.48
231.974	31.45
232.191	33.2
232.408	39.24
232.625	39.08
232.842	35.87
233.059	39.74
233.276	39.21
233.493	42.79
233.71	46.25
233.927	39.79
234.144	36.09
234.361	31.98
234.578	32.36
234.795	28.57
235.012	28.67
235.229	30.74
235.446	27.93
235.663	27.37
235.879	21.67
236.096	21.56
236.313	27.16
236.53	29.22
236.747	33.37
236.964	33.32
237.181	38.48
237.397	36.34
237.614	35.45
237.831	39.92
238.048	38.71
238.264	41.63
238.481	37.61
238.698	39.46
238.915	38.17
239.131	33.75
239.348	32.52
239.565	29.82
239.781	32.3
239.998	30.01
240.215	23.88
240.431	25.14
240.648	24.48
240.865	21.36
241.081	13.28
241.298	12.56
241.514	16.05
241.731	12.12
241.947	12.51
242.164	11.44
242.38	10.37
242.597	11.08
242.814	10.56
243.03	11.71
243.246	12.59
243.463	13.74
243.679	14.15
243.896	12.86
244.112	17.45
244.329	17.41
244.545	17.74
244.762	20.85
244.978	21.26
245.194	21.12
245.411	19.25
245.627	19.55
245.843	18.79
246.06	18.04
246.276	16.41
246.492	13.78
246.709	12.66
246.925	12.65
247.141	11.82
247.357	10.87
247.574	10.92
247.79	10.76
248.006	10.81
248.222	10.43
248.439	10.18
248.655	10.82
248.871	11.22
249.087	11.84
249.303	12.24
249.519	12.13
249.736	13.99
249.952	14.17
250.168	15.14
250.384	15.9
250.6	16.88
250.816	18.18
251.032	19.94
251.248	19.98
251.464	19.8
251.68	18.64
251.896	18.74
252.112	18.54
252.328	18.31
252.544	19.12
252.76	18.06
252.976	18.79
253.192	18.24
253.408	17.85
253.624	19.39
253.84	19.79
254.056	21.7
254.272	20.04
254.487	18.64
254.703	20.03
254.919	19.77
255.135	18.74
255.351	18.67
255.567	21.2
255.782	18.73
255.998	17.6
256.214	17.53
256.43	16.12
256.646	19.12
256.861	19.13
257.077	18.41
257.293	19.49
257.508	19.32
257.724	18.7
257.94	17.29
258.155	17.41
258.371	15.84
258.587	14.33
258.802	13.68
259.018	12.28
259.234	11.5
259.449	10.75
259.665	9.44
259.88	9.96
260.096	9.84
260.312	10.15
260.527	9.62
260.743	9.69
260.958	9.45
261.174	9.01
261.389	9.63
261.605	10.07
261.82	10.72
262.036	11.13
262.251	10.63
262.466	10.92
262.682	9.62
262.897	9.55
263.113	9.51
263.328	11.41
263.543	11.94
263.759	12.06
263.974	12.97
264.189	13.98
264.405	15.58
264.62	17.52
264.835	17.57
265.051	18.3
265.266	20.12
265.481	19
265.696	18.88
265.912	19.08
266.127	17.34
266.342	17.68
266.557	16.5
266.773	14.96
266.988	12.85
267.203	10.89
267.418	11.06
267.633	10.94
267.848	10.93
268.064	8.28
268.279	8.47
268.494	9.14
268.709	8.81
268.924	7.88
269.139	7.28
269.354	8.39
269.569	9.5
269.784	9.11
269.999	8.27
270.214	9.63
270.429	12.26
270.644	11.22
270.859	10.26
271.074	8.59
271.289	8.96
271.504	9.59
271.719	9.82
271.934	10.04
272.149	9.77
272.363	9.32
272.578	7.95
272.793	7.31
273.008	8.66
273.223	9.1
273.438	10.24
273.653	11.69
273.867	12.3
274.082	12.52
274.297	11.81
274.512	11.96
274.726	12.89
274.941	13.88
275.156	15.15
275.371	13.88
275.585	14.37
275.8	13.8
276.015	12.6
276.229	11.95
276.444	11.45
276.659	12.15
276.873	13.18
277.088	12.88
277.302	13.97
277.517	12.58
277.732	13.31
277.946	13.81
278.161	14.18
278.375	13.6
278.59	14.12
278.804	13.8
279.019	12.83
279.233	12.29
279.448	11.24
279.662	9.7
279.877	9.22
280.091	9.01
280.306	8.36
280.52	8.52
280.735	9.48
280.949	8.4
281.163	7.82
281.378	8.25
281.592	7.87
281.806	8.63
282.021	9.2
282.235	9.47
282.449	9.14
282.664	8.73
282.878	8.79
283.092	8.31
283.307	8.37
283.521	9.04
283.735	9.09
283.949	9.72
284.164	8.76
284.378	8.54
284.592	8.45
284.806	8.99
285.02	8.88
285.234	8.61
285.449	7.86
285.663	8.82
285.877	8.48
286.091	9.76
286.305	9.56
286.519	10.51
286.733	10.3
286.947	10.26
287.161	10.25
287.375	11.38
287.589	11.67
287.803	12.24
288.017	11.79
288.231	12.26
288.445	11
288.659	11.11
288.873	11.2
289.087	11.14
289.301	11.69
289.515	12.39
289.729	12.1
289.943	12.18
290.157	11.74
290.371	12.17
290.584	12.24
290.798	12.92
291.012	12.98
291.226	12.74
291.44	13.14
291.654	13.3
291.867	12.82
292.081	13.38
292.295	13.28
292.509	14.36
292.722	13.86
292.936	13.88
293.15	13.13
293.364	12.84
293.577	12.14
293.791	12.41
294.005	12.72
294.218	11.98
294.432	11.3
294.645	11.86
294.859	10.91
295.073	9.76
295.286	10.14
295.5	10.32
295.713	9.86
295.927	10.79
296.14	11.14
296.354	10.61
296.568	10.68
296.781	10.54
296.994	10.74
297.208	11.05
297.421	12.08
297.635	11.6
297.848	11.16
298.062	11.69
298.275	12.03
298.489	11.41
298.702	11.72
298.915	11.65
299.129	11.82
299.342	10.96
299.555	12.18
299.769	12.27
299.982	12.27
300.195	12.17
300.409	12.02
300.622	12.23
300.835	12.97
301.048	13.84
301.262	13.99
301.475	13.77
301.688	14.88
301.901	13.67
302.115	14.02
302.328	14.69
302.541	16.13
302.754	16.82
302.967	16.59
303.18	16.81
303.393	16.71
303.607	16.69
303.82	16.76
304.033	16.05
304.246	17.1
304.459	17.48
304.672	17.64
304.885	17.38
305.098	17
305.311	16.03
305.524	15.19
305.737	14.73
305.95	14.62
306.163	13.52
306.376	12.79
306.589	12.03
306.802	10.04
307.015	9.08
307.228	9
307.44	8.14
307.653	9.99
307.866	11.35
308.079	10.41
308.292	9.67
308.505	11.73
308.718	12.52
308.93	13.52
309.143	13.07
309.356	12.36
309.569	11.29
309.781	11.82
309.994	10.93
310.207	10.16
310.42	10.29
310.632	10.84
310.845	9.94
311.058	9.92
311.27	9.2
311.483	9.52
311.696	9.63
311.908	10.3
312.121	9.74
312.333	10.42
312.546	10.92
312.759	11.53
312.971	12.26
313.184	13.27
313.396	13.07
313.609	13.31
313.821	14.16
314.034	15.26
314.246	15
314.459	16.12
314.671	14.98
314.884	14.57
315.096	14.37
315.309	13.5
315.521	13.1
315.733	13.92
315.946	14.02
316.158	13.86
316.371	14.13
316.583	15.35
316.795	15.56
317.008	15.96
317.22	14.83
317.432	15.51
317.644	16.23
317.857	15.54
318.069	14.95
318.281	15.27
318.494	15.3
318.706	15.56
318.918	14.92
319.13	13.13
319.342	13.01
319.555	13.96
319.767	13.62
319.979	12.95
320.191	13.94
320.403	13.98
320.615	12.52
320.827	12.88
321.039	11.65
321.252	11.19
321.464	12.52
321.676	10.87
321.888	11.78
322.1	11.12
322.312	11.1
322.524	10.16
322.736	9.93
322.948	11.99
323.16	11.05
323.372	11.09
323.584	11.55
323.796	11.72
324.007	13.7
324.219	13.41
324.431	13.61
324.643	14.29
324.855	14.25
325.067	14.55
325.279	13.5
325.491	13.5
325.702	13.31
325.914	13.37
326.126	12.64
326.338	11.83
326.55	12.26
326.761	11.86
326.973	11.39
327.185	11.9
327.396	11.64
327.608	10.95
327.82	11.34
328.032	11.88
328.243	11.28
328.455	11.34
328.666	11.84
328.878	11.62
329.09	11.51
329.301	12.32
329.513	12.73
329.725	13.47
329.936	14.96
330.148	14.84
330.359	15.15
330.571	15.59
330.782	16.85
330.994	17.3
331.205	18.26
331.417	19.25
331.628	19.54
331.84	18.9
332.051	18.93
332.262	18.25
332.474	18.68
332.685	18.45
332.897	18.59
333.108	18.16
333.319	18.6
333.531	17.6
333.742	17.46
333.953	17.43
334.165	18.25
334.376	17.63
334.587	18.32
334.799	18.36
335.01	18.67
335.221	19.74
335.432	19.57
335.644	19.05
335.855	18.98
336.066	19.8
336.277	19.8
336.488	18.83
336.7	19.5
336.911	19.49
337.122	20.25
337.333	20.74
337.544	20.32
337.755	20.5
337.966	20.46
338.177	20.52
338.388	19.87
338.599	19.12
338.811	19.89
339.022	19.67
339.233	18.72
339.444	17.59
339.655	17.8
339.866	18.13
340.076	18.33
340.287	17.78
340.498	18.29
340.709	17.96
340.92	18.24
341.131	18.29
341.342	18.22
341.553	18.94
341.764	19.36
341.975	18.75
342.185	16.97
342.396	17.01
342.607	17.96
342.818	16.81
343.029	16.9
343.239	17.16
343.45	15.97
343.661	15.34
343.872	14.89
344.082	15.77
344.293	15.51
344.504	16.76
344.714	16.63
344.925	16.24
345.136	16.87
345.346	17
345.557	17.08
345.768	17.31
345.978	17.63
346.189	17.28
346.399	16.62
346.61	16.74
346.821	16.75
347.031	16.45
347.242	16.43
347.452	16.15
347.663	16.15
347.873	16.42
348.084	16.59
348.294	16.56
348.504	16.97
348.715	17.11
348.925	16.87
349.136	17.06
349.346	17.33
349.557	17.23
349.767	17.17
349.977	16.99
350.188	16.74
350.398	17.09
350.608	17.03
350.819	17.39
351.029	17.16
351.239	17
351.449	16.88
351.66	16.83
351.87	16.72
352.08	16.9
352.29	17.51
352.501	16.85
352.711	17.02
352.921	16.79
353.131	16.94
353.341	16.45
353.552	15.86
353.762	15.39
353.972	15.6
354.182	15.61
354.392	15.8
354.602	15.22
354.812	15.76
355.022	15.35
355.232	15.51
355.442	14.96
355.652	15.32
355.862	16.04
356.072	15.75
356.282	15.11
356.492	14.96
356.702	14.15
356.912	14.42
357.122	14.23
357.332	14.13
357.542	14.05
357.752	14.21
357.962	13.96
358.171	13.42
358.381	13.71
358.591	13.73
358.801	14
359.011	14.91
359.221	14.66
359.43	14.96
359.64	14.93
359.85	15.12
360.06	14.92
360.269	15.24
360.479	15.5
360.689	14.97
360.899	15.26
361.108	14.84
361.318	14.2
361.528	13.96
361.737	13.62
361.947	13.68
362.156	13.48
362.366	13.52
362.576	12.83
362.785	13.03
362.995	13.56
363.204	13.29
363.414	13.21
363.623	14.05
363.833	14.34
364.042	14.38
364.252	14.31
364.461	14.53
364.671	14.56
364.88	15.15
365.09	14.9
365.299	14.78
365.509	14.87
365.718	15.17
365.927	14.85
366.137	14.17
366.346	14.23
366.555	14.33
366.765	14.72
366.974	14.52
367.183	14.41
367.393	14.67
367.602	14.53
367.811	14.5
368.021	14.24
368.23	13.8
368.439	14.07
368.648	13.84
368.857	13.86
369.067	13.13
369.276	13.53
369.485	13.69
369.694	13.53
369.903	13.53
370.112	13.49
370.321	13.95
370.531	13.61
370.74	13.58
370.949	13.11
371.158	13.08
371.367	13.21
371.576	12.88
371.785	12.83
371.994	12.64
372.203	12.53
372.412	12.83
372.621	12.76
372.83	12.61
373.039	12.8
373.248	12.97
373.457	12.73
373.666	12.63
373.874	11.85
374.083	11.73
374.292	12.05
374.501	12.18
374.71	11.37
374.919	11.23
375.128	12
375.336	12.22
375.545	12.84
375.754	13.24
375.963	13.07
376.171	13.37
376.38	13.25
376.589	12.72
376.798	12.3
377.006	12.64
377.215	12.48
377.424	11.95
377.632	11.74
377.841	11.19
378.05	10.73
378.258	10.84
378.467	10.88
378.675	10.82
378.884	10.99
379.093	10.99
379.301	11.05
379.51	10.97
379.718	11.47
379.927	11.46
380.135	11.53
380.344	11.8
380.552	11.63
380.761	11.57
380.969	11.52
381.177	11.77
381.386	11.67
381.594	11.41
381.803	11.12
382.011	10.69
382.219	10.56
382.428	10.74
382.636	10.57
382.845	11
383.053	10.97
383.261	11.06
383.469	10.74
383.678	11.09
383.886	11.22
384.094	11.63
384.302	11.28
384.511	11.22
384.719	10.97
384.927	11.27
385.135	11.02
385.343	11.24
385.552	11.1
385.76	11.24
385.968	11.28
386.176	11.13
386.384	10.97
386.592	11.09
386.8	11.09
387.008	11.17
387.216	11.2
387.424	11.17
387.633	10.89
387.841	10.83
388.049	10.79
388.257	10.59
388.465	10.53
388.672	10.31
388.88	10
389.088	10.09
389.296	10.13
389.504	9.49
389.712	9.09
389.92	9.05
390.128	9.11
390.336	8.84
390.544	8.65
390.751	8.82
390.959	9.14
391.167	9.52
391.375	9.3
391.583	9.04
391.79	9.11
391.998	9.31
392.206	9.55
392.414	9.3
392.621	9.36
392.829	9.12
393.037	9.17
393.244	8.89
393.452	8.69
393.66	8.71
393.867	8.97
394.075	9.28
394.283	8.85
394.49	8.66
394.698	8.81
394.905	8.86
395.113	9.19
395.32	9.09
395.528	9.14
395.735	9
395.943	8.89
396.15	8.9
396.358	8.39
396.565	8.65
396.773	8.96
396.98	9.05
397.188	8.78
397.395	8.77
397.602	8.85
397.81	8.72
398.017	8.83
398.225	9.01
398.432	8.95
398.639	9.1
398.847	9.06
399.054	8.58
399.261	8.68
399.468	9.13
399.676	9.4
399.883	9.16
400.09	9.35
400.297	9.49
400.505	9.38
400.712	9.12
400.919	8.92
401.126	9.3
401.333	9.51
401.54	9.61
401.748	9.23
401.955	8.9
402.162	8.93
402.369	8.69
402.576	8.27
402.783	8.17
402.99	8.12
403.197	8.6
403.404	8.42
403.611	8.52
403.818	8.3
404.025	8.24
404.232	8.23
404.439	8.18
404.646	8.16
404.853	8.55
405.06	8.68
405.267	8.9
405.474	8.68
405.681	8.72
405.887	8.43
406.094	8.48
406.301	8.54
406.508	8.51
406.715	8.43
406.922	8.42
407.128	8.53
407.335	8.36
407.542	8.19
407.749	8.04
407.955	7.91
408.162	7.79
408.369	7.93
408.575	8.02
408.782	8.01
408.989	8.11
409.195	8
409.402	7.79
409.609	7.73
409.815	7.44
410.022	7.64
410.228	7.72
410.435	8.02
410.642	7.65
410.848	7.75
411.055	7.73
411.261	7.64
411.468	7.96
411.674	7.96
411.881	8.15
412.087	8.52
412.294	8.6
412.5	8.51
412.706	8.46
412.913	8.79
413.119	8.61
413.326	8.71
413.532	8.86
413.738	8.86
413.945	8.71
414.151	8.66
414.357	8.4
414.564	8.66
414.77	8.96
414.976	8.96
415.182	8.73
415.389	8.72
415.595	8.73
415.801	8.47
416.007	8.32
416.214	8.44
416.42	8.39
416.626	8.55
416.832	8.15
417.038	7.95
417.244	7.86
417.45	7.93
417.657	7.91
417.863	7.85
418.069	7.99
418.275	7.84
418.481	7.68
418.687	7.61
418.893	7.38
419.099	7.31
419.305	7.24
419.511	7.34
419.717	7.21
419.923	7.21
420.129	7.31
420.335	7.22
420.541	7.22
420.746	7.19
420.952	7.27
421.158	7.42
421.364	7.57
421.57	7.5
421.776	7.41
421.982	7.43
422.187	7.38
422.393	7.24
422.599	7.11
422.805	7.17
423.01	7.26
423.216	7.33
423.422	7.17
423.628	7.17
423.833	7.21
424.039	7.14
424.245	7.13
424.45	7.16
424.656	7.13
424.862	7.27
425.067	7.17
425.273	7.09
425.478	7.03
425.684	7.26
425.889	7.24
426.095	7.31
426.301	7.47
426.506	7.48
426.712	7.33
426.917	7.33
427.123	7.31
427.328	7.36
427.533	7.52
427.739	7.53
427.944	7.34
428.15	7.26
428.355	7.28
428.561	7.18
428.766	7.25
428.971	7.52
429.177	7.79
429.382	7.96
429.587	8.09
429.793	8.13
429.998	8.07
430.203	8.13
430.408	8.28
430.614	8.15
430.819	8.17
431.024	8.06
431.229	7.96
431.434	7.77
431.64	7.52
431.845	7.51
432.05	7.43
432.255	7.47
432.46	7.42
432.665	7.14
432.87	7.12
433.076	7.13
433.281	7.17
433.486	7.17
433.691	7.3
433.896	7.3
434.101	7.15
434.306	7
434.511	6.86
434.716	6.78
434.921	6.77
435.126	6.85
435.331	6.8
435.535	6.83
435.74	6.78
435.945	6.53
436.15	6.62
436.355	6.9
436.56	6.95
436.765	7.05
436.97	7.12
437.174	7.31
437.379	7.35
437.584	7.49
437.789	7.4
437.993	7.45
438.198	7.61
438.403	7.53
438.608	7.45
438.812	7.47
439.017	7.44
439.222	7.48
439.426	7.36
439.631	7.35
439.836	7.19
440.04	7.26
440.245	7.21
440.45	7.05
440.654	6.9
440.859	6.83
441.063	6.8
441.268	6.84
441.472	6.77
441.677	6.86
441.881	6.89
442.086	6.95
442.29	6.97
442.495	7.02
442.699	7.12
442.904	7.35
443.108	7.26
443.312	7.35
443.517	7.3
443.721	7.33
443.925	7.15
444.13	7
444.334	6.99
444.538	6.89
444.743	6.78
444.947	6.74
445.151	6.63
445.356	6.63
445.56	6.67
445.764	6.76
445.968	6.73
446.173	6.74
446.377	6.75
446.581	6.75
446.785	6.77
446.989	6.83
447.193	6.98
447.398	6.99
447.602	7.02
447.806	6.95
448.01	6.82
448.214	6.84
448.418	6.8
448.622	6.79
448.826	6.69
449.03	6.6
449.234	6.52
449.438	6.37
449.642	6.28
449.846	6.51
450.05	6.64
450.254	6.66
450.458	6.6
450.662	6.82
450.866	6.83
451.069	7.01
451.273	7.09
451.477	7.21
451.681	7.05
451.885	7.15
452.089	6.89
452.292	6.78
452.496	6.79
452.7	6.82
452.904	6.53
453.107	6.54
453.311	6.46
453.515	6.4
453.719	6.38
453.922	6.73
454.126	6.78
454.33	6.89
454.533	6.78
454.737	6.75
454.94	7.06
455.144	7.39
455.348	7.35
455.551	7.4
455.755	7.61
455.958	7.89
456.162	7.7
456.365	7.69
456.569	7.68
456.772	7.67
456.976	7.62
457.179	7.39
457.383	7.27
457.586	7.22
457.79	7
457.993	7.05
458.196	6.82
458.4	6.68
458.603	6.64
458.807	6.52
459.01	6.6
459.213	6.56
459.417	6.48
459.62	6.5
459.823	6.5
460.026	6.58
460.23	6.42
460.433	6.32
460.636	6.37
460.839	6.42
461.042	6.54
