Data from LC_249_Reflection_1.txt Node
Date: Thu Nov 19 22:58:11 EST 2015
User: robert
Spectrometer: USB4E03001
Autoset integration time: false
Trigger mode: 4
Integration Time (sec): 1.000000E-1
Scans to average: 15
Electric dark correction enabled: true
Nonlinearity correction enabled: false
Boxcar width: 5
Stray light correction enabled: false
XAxis mode: Wavelengths
Stop averaging: false
Number of Pixels in Spectrum: 3648
>>>>>Begin Spectral Data<<<<<
177.566	39.77
177.785	47.91
178.005	64.97
178.225	75.14
178.445	76.97
178.665	75.01
178.885	83.3
179.105	-112.5
179.324	-124.28
179.544	-137.76
179.764	-18.56
179.984	87.16
180.204	126.9
180.423	102.64
180.643	112.53
180.863	88.95
181.083	131.12
181.302	93.64
181.522	107.48
181.742	127.32
181.961	140.37
182.181	172.8
182.401	211.38
182.621	215.22
182.84	378.82
183.06	272.63
183.279	222.08
183.499	149.9
183.719	471.52
183.938	1277.78
184.158	-500.39
184.377	-716.24
184.597	414.45
184.816	-1814.15
185.036	-28.16
185.256	851.67
185.475	140.42
185.695	162.39
185.914	152.73
186.134	318.42
186.353	238.08
186.572	167.1
186.792	287.86
187.011	-1988.76
187.231	-684.16
187.45	-847.85
187.67	-53.49
187.889	-33.31
188.108	-7.47
188.328	-30.91
188.547	-222.56
188.766	-398.36
188.986	-596.85
189.205	7467.65
189.424	292.53
189.644	296.45
189.863	196.35
190.082	160.95
190.302	247.99
190.521	235.77
190.74	268.92
190.959	268.65
191.178	222.41
191.398	231.82
191.617	259.53
191.836	846.62
192.055	267.87
192.274	331.3
192.494	241.44
192.713	105.38
192.932	108.91
193.151	107.63
193.37	99.6
193.589	105.36
193.808	99.51
194.027	103.07
194.246	100.37
194.465	113.34
194.685	94.85
194.904	96.28
195.123	95.38
195.342	74.28
195.561	64.09
195.78	67.05
195.999	74.69
196.218	82.57
196.436	74.86
196.655	72.81
196.874	70.8
197.093	103.27
197.312	98.81
197.531	90.99
197.75	195.39
197.969	207.72
198.188	-562.89
198.407	-182.49
198.625	-260.32
198.844	-168.77
199.063	-1817.38
199.282	-238.76
199.501	-275.3
199.719	-477
199.938	-235.44
200.157	-684.45
200.376	-673.01
200.594	3485.71
200.813	2218.1
201.032	1497.09
201.251	1235.29
201.469	562.68
201.688	177.59
201.907	290.71
202.125	1216.06
202.344	261.68
202.563	302.84
202.781	354.19
203	245.5
203.218	170.15
203.437	177.89
203.656	235.48
203.874	293.5
204.093	431.4
204.311	120.16
204.53	85.15
204.748	59.68
204.967	66.43
205.185	16.43
205.404	-19.32
205.622	16.2
205.841	47.38
206.059	5.99
206.278	1.37
206.496	53.73
206.715	116.16
206.933	155.69
207.151	157.94
207.37	190.3
207.588	243.87
207.806	247.1
208.025	263.8
208.243	306.06
208.461	545.06
208.68	415.18
208.898	168.86
209.116	127.72
209.335	138.9
209.553	561.43
209.771	-4041.18
209.989	599.77
210.208	-113.44
210.426	72.52
210.644	113.96
210.862	66.67
211.081	85.4
211.299	82.02
211.517	68.62
211.735	63.9
211.953	42.17
212.171	37.31
212.39	70.35
212.608	93.58
212.826	110.07
213.044	152.96
213.262	145.65
213.48	147.17
213.698	170.07
213.916	239.16
214.134	241.64
214.352	455.49
214.57	584.88
214.788	1023.61
215.006	698.04
215.224	630.8
215.442	1055.98
215.66	350.4
215.878	724.42
216.096	797.46
216.314	725.28
216.532	998.31
216.75	1620.47
216.968	-222.81
217.185	-470.45
217.403	-1172.1
217.621	-2745.78
217.839	262.08
218.057	237.19
218.275	127.1
218.492	151.4
218.71	149.25
218.928	138.18
219.146	125.92
219.363	98.74
219.581	117.44
219.799	117.66
220.017	120.75
220.234	138.51
220.452	130.87
220.67	165.05
220.887	123.66
221.105	121.52
221.323	108.9
221.54	105.04
221.758	113.44
221.976	90.92
222.193	87.01
222.411	71.12
222.629	67.84
222.846	58.18
223.064	51.2
223.281	51.81
223.499	45.49
223.716	50.96
223.934	27.18
224.151	28.9
224.369	31.58
224.586	9.24
224.804	17.91
225.021	17.17
225.239	14.44
225.456	2.76
225.674	-5.32
225.891	-3.06
226.108	-4.09
226.326	-7.92
226.543	-20.5
226.76	-15.69
226.978	6.08
227.195	-3.58
227.413	-6.29
227.63	-10.34
227.847	2.26
228.064	6.57
228.282	9.83
228.499	11.62
228.716	15.32
228.934	15.7
229.151	13.95
229.368	13.21
229.585	13.21
229.802	13.19
230.02	14.69
230.237	14.86
230.454	14.44
230.671	11.27
230.888	12.04
231.105	10.58
231.323	9.02
231.54	7.2
231.757	5.9
231.974	9.7
232.191	14.26
232.408	16.98
232.625	14.02
232.842	16.28
233.059	24.59
233.276	24.59
233.493	25.83
233.71	27.33
233.927	30.98
234.144	33.93
234.361	27.13
234.578	22.4
234.795	21.89
235.012	23.95
235.229	21.1
235.446	18.28
235.663	12.62
235.879	10.28
236.096	7.63
236.313	7.42
236.53	9.39
236.747	15.28
236.964	17.07
237.181	18
237.397	18.08
237.614	18.55
237.831	17.08
238.048	25.39
238.264	27.37
238.481	29.56
238.698	26.35
238.915	22.8
239.131	18.27
239.348	19.77
239.565	18.02
239.781	17.99
239.998	17.21
240.215	15.37
240.431	11.98
240.648	12.58
240.865	12.28
241.081	13.19
241.298	12.55
241.514	14.78
241.731	12.82
241.947	13.29
242.164	12.03
242.38	11.86
242.597	12.4
242.814	13.3
243.03	12.6
243.246	13.9
243.463	12.37
243.679	12.46
243.896	11.84
244.112	12.01
244.329	10.81
244.545	12.62
244.762	12.35
244.978	12.66
245.194	10.91
245.411	11.91
245.627	10.48
245.843	11.67
246.06	12.4
246.276	12.33
246.492	12.21
246.709	12.71
246.925	11.34
247.141	12.37
247.357	11.31
247.574	11.89
247.79	11.27
248.006	11.62
248.222	11.79
248.439	11.57
248.655	11.22
248.871	12.16
249.087	11.6
249.303	12.17
249.519	10.86
249.736	13.11
249.952	12.54
250.168	12.86
250.384	11.79
250.6	11.34
250.816	9.95
251.032	10.81
251.248	10.77
251.464	10.53
251.68	9.79
251.896	9.49
252.112	7.57
252.328	9.18
252.544	9.03
252.76	8.83
252.976	9.9
253.192	9.88
253.408	9.71
253.624	9.21
253.84	10.67
254.056	10.92
254.272	11.75
254.487	11.88
254.703	8.81
254.919	10.9
255.135	12.01
255.351	11.69
255.567	13.71
255.782	13.05
255.998	13.89
256.214	14
256.43	13.18
256.646	16.16
256.861	18.22
257.077	20.08
257.293	18.73
257.508	18.1
257.724	17.86
257.94	18.15
258.155	18.54
258.371	17.19
258.587	15.06
258.802	15.61
259.018	14.51
259.234	13.08
259.449	12.48
259.665	12.62
259.88	12.46
260.096	12.51
260.312	11.43
260.527	10.62
260.743	10.65
260.958	10.6
261.174	10.4
261.389	9.57
261.605	10.57
261.82	10.42
262.036	9.65
262.251	9.09
262.466	8.76
262.682	9.26
262.897	11.3
263.113	11.15
263.328	12.29
263.543	12.92
263.759	13.88
263.974	13.23
264.189	14.52
264.405	15.07
264.62	14.82
264.835	14.84
265.051	14.44
265.266	11.19
265.481	10.68
265.696	10.12
265.912	9.78
266.127	10.52
266.342	10.68
266.557	10.28
266.773	10.23
266.988	10.45
267.203	10.79
267.418	11.39
267.633	11.02
267.848	11.15
268.064	10.98
268.279	10.91
268.494	10.66
268.709	10.14
268.924	9.39
269.139	10.25
269.354	10.02
269.569	8.95
269.784	8.64
269.999	9.92
270.214	10.43
270.429	10.21
270.644	9.91
270.859	8.79
271.074	7.99
271.289	8.78
271.504	8.31
271.719	9.13
271.934	9.68
272.149	9.28
272.363	9.49
272.578	9.42
272.793	9.74
273.008	9.6
273.223	10.05
273.438	11.76
273.653	11.39
273.867	10.71
274.082	9.87
274.297	9.57
274.512	9.79
274.726	9.57
274.941	9.11
275.156	9.63
275.371	9.42
275.585	9.71
275.8	7.95
276.015	7.64
276.229	8.7
276.444	9.88
276.659	9.54
276.873	10.13
277.088	10.25
277.302	10.23
277.517	9.8
277.732	10.21
277.946	11.14
278.161	10.84
278.375	10.94
278.59	9.76
278.804	9.49
279.019	9.85
279.233	8.81
279.448	9.74
279.662	10.65
279.877	9.85
280.091	9.3
280.306	7.33
280.52	7.91
280.735	8.36
280.949	10.2
281.163	9.95
281.378	10.28
281.592	11.32
281.806	11.29
282.021	11.25
282.235	11.44
282.449	11.18
282.664	11.87
282.878	12.03
283.092	11.9
283.307	11.26
283.521	10.85
283.735	10.12
283.949	10.52
284.164	10.03
284.378	9.38
284.592	8.82
284.806	9.7
285.02	9.65
285.234	10.34
285.449	10
285.663	9.41
285.877	10.09
286.091	10.15
286.305	9.9
286.519	9.76
286.733	9.68
286.947	11.05
287.161	10.11
287.375	10.77
287.589	9.09
287.803	9.49
288.017	9.09
288.231	8.67
288.445	8.65
288.659	7.92
288.873	7.22
289.087	6.64
289.301	6.91
289.515	7.68
289.729	7.28
289.943	8.58
290.157	8.61
290.371	9.31
290.584	9.41
290.798	9.9
291.012	10.66
291.226	11.84
291.44	14.31
291.654	13.13
291.867	13.45
292.081	13.16
292.295	13.21
292.509	12.7
292.722	13.36
292.936	13.12
293.15	12.02
293.364	13.3
293.577	12.75
293.791	10.54
294.005	11.94
294.218	12.33
294.432	12.18
294.645	12.26
294.859	13.16
295.073	12.22
295.286	13.09
295.5	14.04
295.713	12.52
295.927	13.28
296.14	13.25
296.354	11.95
296.568	12.11
296.781	12.11
296.994	12.2
297.208	11.81
297.421	12.74
297.635	12.65
297.848	12.37
298.062	12.91
298.275	11.7
298.489	12.21
298.702	13.2
298.915	13.69
299.129	14.2
299.342	14.36
299.555	14.39
299.769	13.54
299.982	14.25
300.195	14.89
300.409	15.31
300.622	16.7
300.835	17.06
301.048	16.74
301.262	14.66
301.475	14.09
301.688	12.72
301.901	12.99
302.115	13.7
302.328	13.55
302.541	12.43
302.754	12.23
302.967	12.63
303.18	12.23
303.393	11.87
303.607	13.61
303.82	14.28
304.033	15.97
304.246	17.16
304.459	17.43
304.672	16.69
304.885	17.52
305.098	17.25
305.311	16.3
305.524	15.97
305.737	15.83
305.95	15.25
306.163	14.66
306.376	13.37
306.589	11.97
306.802	10.73
307.015	10.34
307.228	10.95
307.44	10.63
307.653	11.15
307.866	12.28
308.079	13.8
308.292	13.59
308.505	14.16
308.718	13.73
308.93	14.37
309.143	15.05
309.356	15.19
309.569	14.92
309.781	14.98
309.994	14.74
310.207	14.34
310.42	14.53
310.632	14.67
310.845	14.39
311.058	15.47
311.27	14.26
311.483	13.7
311.696	14.02
311.908	14.43
312.121	14.09
312.333	14.17
312.546	13.75
312.759	13.21
312.971	13.84
313.184	13.75
313.396	13.94
313.609	15.15
313.821	16.25
314.034	16.59
314.246	15.6
314.459	16.14
314.671	16.17
314.884	17.19
315.096	16.73
315.309	15.94
315.521	16.99
315.733	16.17
315.946	16.94
316.158	16.98
316.371	16.12
316.583	16.93
316.795	16.46
317.008	17.02
317.22	16.31
317.432	16.68
317.644	17.41
317.857	16.18
318.069	16.06
318.281	15.38
318.494	15.23
318.706	15.06
318.918	14.98
319.13	15.63
319.342	13.5
319.555	13.65
319.767	13.45
319.979	12.33
320.191	12.21
320.403	13.28
320.615	12.63
320.827	13.04
321.039	11.85
321.252	11.37
321.464	11.46
321.676	12.9
321.888	12.63
322.1	12.94
322.312	13.71
322.524	15.34
322.736	14.1
322.948	14.84
323.16	14.36
323.372	14.52
323.584	14.53
323.796	14.74
324.007	14.73
324.219	14.39
324.431	13.56
324.643	13.71
324.855	13.18
325.067	13.78
325.279	13.66
325.491	13.61
325.702	15
325.914	15.33
326.126	15.46
326.338	16.27
326.55	17
326.761	17.87
326.973	17.49
327.185	16.97
327.396	17.35
327.608	17.37
327.82	18.05
328.032	18.25
328.243	18.48
328.455	17.86
328.666	17.58
328.878	17.79
329.09	17.72
329.301	18.96
329.513	19.51
329.725	18.78
329.936	19.47
330.148	18.91
330.359	18.71
330.571	18.89
330.782	19.01
330.994	18.89
331.205	18.66
331.417	19.54
331.628	18.53
331.84	18.5
332.051	18.78
332.262	18.22
332.474	18.5
332.685	18.84
332.897	19.04
333.108	18.77
333.319	19.3
333.531	19.02
333.742	18.28
333.953	18.22
334.165	18.94
334.376	19.63
334.587	19.91
334.799	19.01
335.01	17.96
335.221	17.45
335.432	17.64
335.644	16.69
335.855	16.44
336.066	16.27
336.277	15.86
336.488	14.59
336.7	13.72
336.911	13.29
337.122	14.08
337.333	15.29
337.544	15.03
337.755	15.18
337.966	15.38
338.177	15.7
338.388	15.67
338.599	15.64
338.811	17.23
339.022	17.09
339.233	16.09
339.444	15.89
339.655	15.51
339.866	15.38
340.076	15.65
340.287	15.82
340.498	15.65
340.709	15.83
340.92	16.13
341.131	15.5
341.342	16.07
341.553	17.41
341.764	17.21
341.975	16.54
342.185	17.06
342.396	17.11
342.607	16.98
342.818	17.13
343.029	17.07
343.239	17.43
343.45	16.81
343.661	16.6
343.872	15.86
344.082	15.61
344.293	16
344.504	16.24
344.714	16.25
344.925	16.41
345.136	16.28
345.346	14.61
345.557	14.46
345.768	14.89
345.978	15
346.189	15.1
346.399	15.37
346.61	14.9
346.821	14.29
347.031	13.78
347.242	13.8
347.452	13.74
347.663	14.78
347.873	15.27
348.084	15.1
348.294	15.12
348.504	15.94
348.715	16.03
348.925	16.15
349.136	16.38
349.346	15.93
349.557	15.96
349.767	16.31
349.977	16.79
350.188	16.02
350.398	15.82
350.608	15.58
350.819	14.92
351.029	14.68
351.239	14.71
351.449	14.04
351.66	14.17
351.87	14.48
352.08	13.33
352.29	13.96
352.501	13.82
352.711	14.09
352.921	14.39
353.131	14.12
353.341	13.9
353.552	14.02
353.762	14.21
353.972	14.85
354.182	14.99
354.392	16.1
354.602	14.81
354.812	14.99
355.022	14.74
355.232	14.89
355.442	15.24
355.652	15.29
355.862	15.04
356.072	15.37
356.282	15.72
356.492	14.6
356.702	14.5
356.912	14.83
357.122	14.72
357.332	14.86
357.542	14.13
357.752	13.83
357.962	13.7
358.171	13.97
358.381	14.25
358.591	13.38
358.801	13.75
359.011	13.74
359.221	13.76
359.43	13.74
359.64	13.27
359.85	13.5
360.06	13.36
360.269	13.97
360.479	13.72
360.689	13.2
360.899	13.35
361.108	13.21
361.318	12.9
361.528	12.78
361.737	12.75
361.947	13.19
362.156	13.07
362.366	13.44
362.576	13.05
362.785	12.88
362.995	12.65
363.204	12.97
363.414	12.68
363.623	12.36
363.833	12.6
364.042	12.39
364.252	12.18
364.461	11.93
364.671	11.72
364.88	12.09
365.09	12.38
365.299	12.8
365.509	12.48
365.718	12.01
365.927	12.67
366.137	12.76
366.346	13.37
366.555	13.39
366.765	13.84
366.974	13.73
367.183	13.57
367.393	13.21
367.602	13.34
367.811	13.56
368.021	14.68
368.23	13.83
368.439	13.28
368.648	12.49
368.857	12.07
369.067	11.58
369.276	12.31
369.485	11.97
369.694	12.33
369.903	11.59
370.112	10.86
370.321	10.46
370.531	10.91
370.74	10.7
370.949	10.84
371.158	11.23
371.367	11.71
371.576	10.99
371.785	11.12
371.994	10.87
372.203	11.29
372.412	11.87
372.621	11.79
372.83	11.75
373.039	12.16
373.248	12.41
373.457	12.81
373.666	12.62
373.874	12.47
374.083	11.93
374.292	12.31
374.501	11.98
374.71	12.21
374.919	12.03
375.128	12.5
375.336	12.47
375.545	12.46
375.754	11.81
375.963	11.7
376.171	11.88
376.38	12.17
376.589	11.41
376.798	11.49
377.006	11.06
377.215	11.35
377.424	10.64
377.632	10.76
377.841	10.63
378.05	11.04
378.258	11.04
378.467	10.72
378.675	10.57
378.884	11.27
379.093	11.37
379.301	11.54
379.51	11.05
379.718	11.27
379.927	10.73
380.135	11
380.344	10.25
380.552	10.8
380.761	10.97
380.969	11.49
381.177	11.12
381.386	11.16
381.594	10.96
381.803	11.15
382.011	11.26
382.219	11.47
382.428	11.39
382.636	11.59
382.845	11.29
383.053	11.19
383.261	10.44
383.469	10.56
383.678	10.47
383.886	10.5
384.094	10.69
384.302	10.71
384.511	10.65
384.719	10.37
384.927	10.16
385.135	9.91
385.343	9.7
385.552	9.99
385.76	9.78
385.968	9.61
386.176	9.45
386.384	9.32
386.592	9.18
386.8	9.41
387.008	9.25
387.216	9.17
387.424	9.22
387.633	9.56
387.841	9.61
388.049	9.29
388.257	9.42
388.465	9.43
388.672	9.5
388.88	9.32
389.088	9.06
389.296	9.43
389.504	9.52
389.712	9.3
389.92	8.83
390.128	8.89
390.336	9.33
390.544	9.16
390.751	9.16
390.959	8.95
391.167	9.19
391.375	9.22
391.583	8.7
391.79	8.55
391.998	8.79
392.206	9.26
392.414	9.26
392.621	9.05
392.829	9.15
393.037	9.32
393.244	9.45
393.452	9.34
393.66	9.21
393.867	9.59
394.075	9.89
394.283	9.71
394.49	9.42
394.698	9.29
394.905	9.44
395.113	9.59
395.32	9.41
395.528	9.43
395.735	9.67
395.943	9.73
396.15	9.25
396.358	9.01
396.565	8.99
396.773	9.28
396.98	9.17
397.188	9.15
397.395	9.08
397.602	9.15
397.81	8.88
398.017	8.47
398.225	8.39
398.432	8.67
398.639	8.65
398.847	8.47
399.054	8.17
399.261	8.21
399.468	8.13
399.676	7.94
399.883	7.71
400.09	7.84
400.297	8.17
400.505	8.5
400.712	8.59
400.919	8.7
401.126	9.13
401.333	9.38
401.54	9.33
401.748	9.33
401.955	9.62
402.162	9.92
402.369	10.27
402.576	10.25
402.783	9.86
402.99	9.86
403.197	9.88
403.404	9.75
403.611	9.65
403.818	9.75
404.025	9.8
404.232	9.35
404.439	9.4
404.646	9.03
404.853	9.01
405.06	9.15
405.267	9.43
405.474	9.34
405.681	9.35
405.887	9.43
406.094	9.31
406.301	9.46
406.508	9.66
406.715	9.5
406.922	9.35
407.128	9.01
407.335	9.02
407.542	8.85
407.749	8.96
407.955	9.01
408.162	9.05
408.369	8.93
408.575	8.92
408.782	8.89
408.989	8.76
409.195	9.06
409.402	9.35
409.609	9.28
409.815	9.01
410.022	8.92
410.228	8.84
410.435	8.64
410.642	8.86
410.848	8.8
411.055	8.91
411.261	9.12
411.468	8.88
411.674	8.8
411.881	8.9
412.087	8.75
412.294	8.82
412.5	8.54
412.706	8.57
412.913	8.43
413.119	8.38
413.326	8.26
413.532	7.98
413.738	8.09
413.945	8.17
414.151	8.34
414.357	8.87
414.564	8.85
414.77	9.22
414.976	9.39
415.182	9.4
415.389	9.06
415.595	9.07
415.801	9.25
416.007	9.33
416.214	9.3
416.42	9.08
416.626	8.7
416.832	8.85
417.038	8.76
417.244	8.5
417.45	8.56
417.657	8.71
417.863	8.78
418.069	8.79
418.275	8.92
418.481	8.94
418.687	8.98
418.893	9.16
419.099	9.04
419.305	9.13
419.511	9.18
419.717	9.07
419.923	9.07
420.129	9.07
420.335	8.94
420.541	8.86
420.746	8.68
420.952	8.67
421.158	8.51
421.364	8.44
421.57	8.34
421.776	8.45
421.982	8.5
422.187	8.53
422.393	8.39
422.599	8.42
422.805	8.3
423.01	8.38
423.216	8.29
423.422	8.34
423.628	8.28
423.833	8.26
424.039	8.22
424.245	8.22
424.45	8.27
424.656	8.36
424.862	8.44
425.067	8.5
425.273	8.59
425.478	8.66
425.684	8.84
425.889	9.05
426.095	9.06
426.301	9.01
426.506	9.06
426.712	9.13
426.917	9.29
427.123	9.37
427.328	9.3
427.533	9.32
427.739	9.48
427.944	9.24
428.15	9.12
428.355	8.9
428.561	9.03
428.766	9.05
428.971	9.01
429.177	8.84
429.382	8.83
429.587	9.08
429.793	8.89
429.998	8.78
430.203	8.95
430.408	9.06
430.614	9.5
430.819	9.34
431.024	9.42
431.229	9.22
431.434	9.07
431.64	9.06
431.845	9.19
432.05	9.38
432.255	9.28
432.46	9.22
432.665	9.3
432.87	9.21
433.076	9.17
433.281	8.89
433.486	9.14
433.691	9.31
433.896	9.22
434.101	9.03
434.306	8.95
434.511	8.94
434.716	9.16
434.921	9.02
435.126	9.01
435.331	9.04
435.535	9.21
435.74	8.94
435.945	8.97
436.15	8.89
436.355	9.19
436.56	9.18
436.765	9.26
436.97	8.91
437.174	8.92
437.379	8.82
437.584	8.76
437.789	8.84
437.993	8.9
438.198	8.63
438.403	8.58
438.608	8.4
438.812	8.52
439.017	8.55
439.222	8.72
439.426	8.75
439.631	8.79
439.836	9
440.04	9
440.245	9.08
440.45	9.2
440.654	9.32
440.859	9.24
441.063	9.29
441.268	9.36
441.472	9.29
441.677	9.22
441.881	9.31
442.086	9.12
442.29	9.12
442.495	9.01
442.699	9
442.904	8.98
443.108	9.03
443.312	8.9
443.517	8.81
443.721	8.99
443.925	9.11
444.13	9.09
444.334	9.2
444.538	9.23
444.743	9.28
444.947	9.27
445.151	9.17
445.356	9.25
445.56	9.31
445.764	9.35
445.968	9.32
446.173	9.3
446.377	9.19
446.581	9.21
446.785	9.18
446.989	9.19
447.193	9.11
447.398	9.11
447.602	9.02
447.806	8.88
448.01	8.76
448.214	8.78
448.418	8.74
448.622	8.75
448.826	8.8
449.03	8.85
449.234	8.87
449.438	9.09
449.642	9.24
449.846	9.3
450.05	9.35
450.254	9.5
450.458	9.39
450.662	9.25
450.866	9.36
451.069	9.13
451.273	9.05
451.477	9.04
451.681	8.86
451.885	8.82
452.089	8.88
452.292	8.91
452.496	8.8
452.7	8.7
452.904	8.87
453.107	8.84
453.311	9
453.515	8.93
453.719	8.9
453.922	9.11
454.126	8.91
454.33	8.81
454.533	8.74
454.737	8.6
454.94	8.59
455.144	8.62
455.348	8.69
455.551	8.73
455.755	8.79
455.958	8.83
456.162	8.71
456.365	9
456.569	8.94
456.772	9.12
456.976	9.48
457.179	9.72
457.383	9.7
457.586	9.58
457.79	9.51
457.993	9.43
458.196	9.41
458.4	9.53
458.603	9.4
458.807	9.43
459.01	9.45
459.213	9.31
459.417	9.14
459.62	9.13
459.823	9.15
460.026	9.09
460.23	9.1
460.433	9.1
460.636	8.87
460.839	8.94
461.042	8.98
461.246	8.95
461.449	8.89
