Data from LC_251_Reflection_2.txt Node
Date: Thu Nov 19 23:04:23 EST 2015
User: robert
Spectrometer: USB4E03001
Autoset integration time: false
Trigger mode: 4
Integration Time (sec): 1.000000E-1
Scans to average: 15
Electric dark correction enabled: true
Nonlinearity correction enabled: false
Boxcar width: 5
Stray light correction enabled: false
XAxis mode: Wavelengths
Stop averaging: false
Number of Pixels in Spectrum: 3648
>>>>>Begin Spectral Data<<<<<
177.566	-93.06
177.785	-45.7
178.005	-9.5
178.225	-4.38
178.445	27.22
178.665	4.69
178.885	60.48
179.105	451.19
179.324	210.36
179.544	292.92
179.764	120.08
179.984	157.81
180.204	310.42
180.423	257.4
180.643	190.68
180.863	114.78
181.083	169.89
181.302	99.53
181.522	90.4
181.742	116.43
181.961	121.02
182.181	151.71
182.401	175.23
182.621	206.32
182.84	258.2
183.06	177.93
183.279	163.84
183.499	202.38
183.719	706.41
183.938	2484.51
184.158	-665.62
184.377	-862.59
184.597	437.86
184.816	-5158.49
185.036	-72.65
185.256	2142.22
185.475	239.01
185.695	199.97
185.914	147.65
186.134	274.67
186.353	234.28
186.572	239.92
186.792	369.48
187.011	-3610.84
187.231	-997.96
187.45	-1313.64
187.67	-108.38
187.889	-81.47
188.108	-58.29
188.328	-76.01
188.547	-308.27
188.766	-389.34
188.986	-411.56
189.205	8636.27
189.424	233.32
189.644	250.28
189.863	168.39
190.082	128.54
190.302	173.72
190.521	158.84
190.74	157.59
190.959	148.71
191.178	120.67
191.398	132.51
191.617	68.87
191.836	217.47
192.055	88.73
192.274	78.55
192.494	33.75
192.713	34.92
192.932	36.73
193.151	60.83
193.37	59.24
193.589	82.13
193.808	97.08
194.027	113.15
194.246	100.25
194.465	113.09
194.685	90.09
194.904	89.3
195.123	90.1
195.342	97.9
195.561	82.74
195.78	80.77
195.999	77.01
196.218	62.93
196.436	58.35
196.655	49.49
196.874	48.59
197.093	98.66
197.312	118.02
197.531	155.31
197.75	271.13
197.969	274.1
198.188	-712.2
198.407	-174.65
198.625	-346.11
198.844	-242.96
199.063	-1969.72
199.282	-227.74
199.501	-261.53
199.719	-438.73
199.938	-121.29
200.157	-330.98
200.376	-317.75
200.594	1987.2
200.813	1382.12
201.032	888.5
201.251	832.03
201.469	437.4
201.688	162.3
201.907	286.06
202.125	1176.11
202.344	302.16
202.563	379.05
202.781	353.05
203	262.7
203.218	250.15
203.437	277.08
203.656	270.79
203.874	358.74
204.093	529.88
204.311	136.87
204.53	121.47
204.748	163.52
204.967	110.82
205.185	129.17
205.404	134.46
205.622	172.59
205.841	163.91
206.059	243.67
206.278	264.69
206.496	317.69
206.715	412.91
206.933	314.68
207.151	205.83
207.37	304.94
207.588	256.29
207.806	248.26
208.025	205.59
208.243	183.16
208.461	116.79
208.68	99.13
208.898	70.46
209.116	45.27
209.335	129.16
209.553	117.81
209.771	-2563.03
209.989	406.43
210.208	-145.49
210.426	-71.78
210.644	149.11
210.862	108.79
211.081	122.16
211.299	108.14
211.517	131.1
211.735	109.71
211.953	79.91
212.171	81.56
212.39	81.69
212.608	75.21
212.826	96.85
213.044	115.01
213.262	103.33
213.48	114.25
213.698	119.83
213.916	132.33
214.134	127.58
214.352	208.44
214.57	241.44
214.788	837.87
215.006	636.34
215.224	486.82
215.442	981.74
215.66	398.85
215.878	602.88
216.096	591.54
216.314	599.55
216.532	744.79
216.75	1214.09
216.968	-186.54
217.185	-218.33
217.403	-504.72
217.621	-1115.26
217.839	96.26
218.057	79.98
218.275	69.18
218.492	84.78
218.71	78.1
218.928	63.75
219.146	69.34
219.363	63.29
219.581	74.82
219.799	65.39
220.017	88.96
220.234	119.22
220.452	113.06
220.67	128.48
220.887	109.91
221.105	101.64
221.323	91.41
221.54	106.49
221.758	109.27
221.976	77.78
222.193	80.92
222.411	59.3
222.629	46.59
222.846	34.59
223.064	39.06
223.281	35.06
223.499	27.13
223.716	37.01
223.934	15.89
224.151	13.2
224.369	22.5
224.586	15.16
224.804	34.16
225.021	40.37
225.239	43.16
225.456	31.25
225.674	30.04
225.891	41.01
226.108	32.37
226.326	33.1
226.543	33.94
226.76	15.82
226.978	29.66
227.195	23.03
227.413	12.92
227.63	13.54
227.847	20.63
228.064	24.51
228.282	19.38
228.499	18.59
228.716	18.99
228.934	18.61
229.151	21.2
229.368	18
229.585	16.82
229.802	17.93
230.02	18.26
230.237	16.83
230.454	13.39
230.671	12.52
230.888	14.68
231.105	12.01
231.323	13.55
231.54	11.63
231.757	12.58
231.974	16.4
232.191	18.1
232.408	17.93
232.625	17.73
232.842	23.98
233.059	30.51
233.276	29.92
233.493	31.92
233.71	27.83
233.927	29.44
234.144	30.78
234.361	25.02
234.578	24.68
234.795	23.92
235.012	24.66
235.229	20.86
235.446	22.21
235.663	19.14
235.879	17.49
236.096	17.02
236.313	14.99
236.53	14.15
236.747	14.16
236.964	10.83
237.181	8.91
237.397	11.88
237.614	12.36
237.831	9.53
238.048	11.7
238.264	10.82
238.481	15.59
238.698	17.65
238.915	23.56
239.131	21.35
239.348	25.17
239.565	24.6
239.781	22
239.998	19.48
240.215	19.26
240.431	17.13
240.648	16.71
240.865	13.81
241.081	10.85
241.298	6.71
241.514	10.04
241.731	9.75
241.947	11.26
242.164	10.62
242.38	11.2
242.597	10
242.814	11.07
243.03	10.75
243.246	11.79
243.463	11.87
243.679	11.82
243.896	11.75
244.112	12.04
244.329	10.89
244.545	12.76
244.762	13.35
244.978	13.14
245.194	11.9
245.411	14.2
245.627	12.48
245.843	12.81
246.06	14.79
246.276	13.14
246.492	12.24
246.709	12.54
246.925	11.02
247.141	10.26
247.357	10.2
247.574	10.76
247.79	10.37
248.006	11.77
248.222	11.57
248.439	10.27
248.655	10.14
248.871	10.28
249.087	9.81
249.303	10.65
249.519	11.58
249.736	12.05
249.952	11.7
250.168	10.16
250.384	8.04
250.6	11.03
250.816	12.15
251.032	12.61
251.248	11.85
251.464	12.01
251.68	11.09
251.896	11.27
252.112	12.89
252.328	14.48
252.544	15.18
252.76	16.2
252.976	14.71
253.192	14.13
253.408	14.43
253.624	15.91
253.84	16.19
254.056	16.28
254.272	16.44
254.487	14.28
254.703	12.63
254.919	14.82
255.135	13.36
255.351	15.24
255.567	17.92
255.782	16.88
255.998	16.64
256.214	15.47
256.43	15.9
256.646	16.55
256.861	19.14
257.077	19.45
257.293	18.49
257.508	18.4
257.724	17.26
257.94	16.72
258.155	17.67
258.371	16.26
258.587	14.99
258.802	13
259.018	12.61
259.234	11.32
259.449	10.99
259.665	9.93
259.88	10.09
260.096	9.46
260.312	8.38
260.527	8.2
260.743	8.55
260.958	9.26
261.174	9.91
261.389	9.15
261.605	10.5
261.82	10.26
262.036	10.82
262.251	10.79
262.466	11.16
262.682	12.2
262.897	13.16
263.113	12.33
263.328	12.88
263.543	13.13
263.759	13.4
263.974	11.27
264.189	12.67
264.405	12.48
264.62	11.62
264.835	13.06
265.051	12.54
265.266	11.04
265.481	11.72
265.696	11.47
265.912	11.7
266.127	12.04
266.342	12.01
266.557	11.16
266.773	11.14
266.988	11.17
267.203	10
267.418	10.42
267.633	9.74
267.848	8.97
268.064	7.99
268.279	7.19
268.494	7.33
268.709	7.59
268.924	7.23
269.139	8.41
269.354	8.17
269.569	7.21
269.784	8.07
269.999	7.77
270.214	8.22
270.429	8.4
270.644	8.05
270.859	7.38
271.074	5.43
271.289	6.04
271.504	5.35
271.719	5.91
271.934	6.59
272.149	6
272.363	7.11
272.578	7.27
272.793	7.24
273.008	8.37
273.223	9.35
273.438	11
273.653	10.09
273.867	10.19
274.082	9.13
274.297	8.99
274.512	8.92
274.726	8.42
274.941	8.26
275.156	7.67
275.371	6.65
275.585	5.33
275.8	4.97
276.015	6.29
276.229	8.04
276.444	9.81
276.659	9.7
276.873	9.46
277.088	9.58
277.302	9.45
277.517	10.36
277.732	12.05
277.946	12.93
278.161	12.66
278.375	12.82
278.59	10.52
278.804	9.74
279.019	9.82
279.233	10.28
279.448	10.85
279.662	11.34
279.877	10.45
280.091	9.38
280.306	9.27
280.52	9.09
280.735	8.96
280.949	9.69
281.163	9.63
281.378	9.9
281.592	10.82
281.806	10.06
282.021	9.47
282.235	10.18
282.449	10.22
282.664	9.59
282.878	9.39
283.092	8.33
283.307	9.46
283.521	8.74
283.735	9.29
283.949	8.05
284.164	8.27
284.378	7.73
284.592	6.72
284.806	6.6
285.02	7.02
285.234	7.72
285.449	7.85
285.663	7.67
285.877	8.38
286.091	8.25
286.305	8.16
286.519	8.06
286.733	8.65
286.947	9.52
287.161	8.75
287.375	8.67
287.589	7.67
287.803	7.94
288.017	7.42
288.231	7.41
288.445	6.54
288.659	7.47
288.873	7.25
289.087	6.54
289.301	7.28
289.515	7.64
289.729	6.97
289.943	7.14
290.157	7.75
290.371	7.37
290.584	6.88
290.798	7.53
291.012	7.7
291.226	8.4
291.44	11.03
291.654	9.81
291.867	10.49
292.081	11.22
292.295	11.28
292.509	10.59
292.722	11.27
292.936	12.11
293.15	11.17
293.364	11.69
293.577	10.18
293.791	8.17
294.005	9.06
294.218	8.38
294.432	8.02
294.645	8.36
294.859	8.03
295.073	7.13
295.286	6.65
295.5	6.67
295.713	5.55
295.927	6.92
296.14	7.37
296.354	6.75
296.568	7.65
296.781	7.77
296.994	8.44
297.208	8.44
297.421	9.15
297.635	9.93
297.848	10.26
298.062	11.17
298.275	10.8
298.489	10.45
298.702	10.94
298.915	11.01
299.129	11.2
299.342	10.87
299.555	11.47
299.769	10.54
299.982	9.7
300.195	10.13
300.409	9.57
300.622	9.18
300.835	8.86
301.048	9.11
301.262	8.51
301.475	8.13
301.688	7.66
301.901	7.76
302.115	9.01
302.328	9.37
302.541	8.29
302.754	7.89
302.967	9.35
303.18	9.41
303.393	8.93
303.607	9.34
303.82	10.05
304.033	10.22
304.246	10.9
304.459	9.76
304.672	10.76
304.885	11.67
305.098	11.21
305.311	9.53
305.524	9.44
305.737	9.44
305.95	9.52
306.163	8.51
306.376	8.79
306.589	7.89
306.802	7.67
307.015	5.84
307.228	5.87
307.44	6.17
307.653	6.94
307.866	7.77
308.079	8.97
308.292	8.83
308.505	9.85
308.718	8.86
308.93	8.59
309.143	9.28
309.356	9.67
309.569	9.48
309.781	9.7
309.994	10.1
310.207	9.65
310.42	9.47
310.632	8.92
310.845	8.35
311.058	9.15
311.27	9.69
311.483	9.54
311.696	9.37
311.908	9.25
312.121	9.03
312.333	8.77
312.546	8.39
312.759	8.03
312.971	8.81
313.184	9.06
313.396	9.4
313.609	9.28
313.821	9.98
314.034	11.41
314.246	10.91
314.459	11.48
314.671	12.19
314.884	12.2
315.096	11.83
315.309	12.3
315.521	12.74
315.733	12.56
315.946	12.61
316.158	12.89
316.371	11.48
316.583	13
316.795	11.76
317.008	11.28
317.22	11.67
317.432	11.83
317.644	11.69
317.857	10.52
318.069	9.72
318.281	9.07
318.494	9.46
318.706	9.23
318.918	8.06
319.13	8.89
319.342	7.52
319.555	8.28
319.767	7.38
319.979	7.29
320.191	8.76
320.403	8.99
320.615	9.05
320.827	6.71
321.039	6.68
321.252	7.76
321.464	8.93
321.676	9.84
321.888	8.23
322.1	9.9
322.312	8.72
322.524	9.14
322.736	8.84
322.948	10.11
323.16	10.9
323.372	10.8
323.584	9.66
323.796	7.88
324.007	7.75
324.219	9.54
324.431	9.19
324.643	9.43
324.855	8.67
325.067	8.91
325.279	7.69
325.491	7.8
325.702	8.46
325.914	8.59
326.126	9.79
326.338	10.19
326.55	9.21
326.761	9.02
326.973	8.95
327.185	9.09
327.396	9.55
327.608	10.23
327.82	10.84
328.032	10.75
328.243	11.38
328.455	11.47
328.666	12.26
328.878	11.92
329.09	11.86
329.301	13.11
329.513	13.18
329.725	13.36
329.936	13.25
330.148	13.19
330.359	13.4
330.571	13.86
330.782	13.57
330.994	13.55
331.205	14.91
331.417	15.77
331.628	14.44
331.84	13.64
332.051	13.44
332.262	14.05
332.474	14.83
332.685	15.01
332.897	14.94
333.108	15.01
333.319	14.52
333.531	14.37
333.742	13.78
333.953	14.78
334.165	15.93
334.376	15.41
334.587	15.14
334.799	13.51
335.01	13.15
335.221	13.23
335.432	13.21
335.644	12.65
335.855	12.14
336.066	12.52
336.277	11.3
336.488	10.54
336.7	10.56
336.911	10.44
337.122	11.2
337.333	11.61
337.544	11.28
337.755	10.84
337.966	10.29
338.177	10.38
338.388	10.36
338.599	10.58
338.811	10.95
339.022	11.01
339.233	9.47
339.444	9.15
339.655	8.93
339.866	8.85
340.076	8.91
340.287	10.11
340.498	10.13
340.709	10.22
340.92	9.94
341.131	10.3
341.342	11.09
341.553	13.09
341.764	13.33
341.975	13.32
342.185	13.56
342.396	13.81
342.607	13.92
342.818	13.76
343.029	13.46
343.239	14.18
343.45	13.45
343.661	12.78
343.872	12.45
344.082	12.06
344.293	12.19
344.504	12.67
344.714	12.61
344.925	12.39
345.136	12.25
345.346	10.81
345.557	10.87
345.768	11.01
345.978	11.27
346.189	10.1
346.399	10.05
346.61	9.65
346.821	8.39
347.031	8.09
347.242	8.59
347.452	9.17
347.663	9.98
347.873	10.37
348.084	10.77
348.294	10.54
348.504	10.53
348.715	11.2
348.925	11.84
349.136	12.96
349.346	12.45
349.557	11.72
349.767	11.56
349.977	11.82
350.188	10.63
350.398	10.23
350.608	10.43
350.819	11.72
351.029	10.86
351.239	11.13
351.449	10.1
351.66	10.36
351.87	10.82
352.08	10.77
352.29	11.39
352.501	11.79
352.711	11.51
352.921	11.29
353.131	9.9
353.341	9.89
353.552	10.07
353.762	10.58
353.972	10.64
354.182	10.28
354.392	10.2
354.602	9.8
354.812	9.71
355.022	9.79
355.232	10.11
355.442	11.11
355.652	11.26
355.862	10.39
356.072	10.47
356.282	10.99
356.492	10.9
356.702	10.84
356.912	10.77
357.122	11.21
357.332	11.71
357.542	11.3
357.752	10.95
357.962	10.85
358.171	10.91
358.381	11.04
358.591	10.59
358.801	10.18
359.011	10.04
359.221	9.53
359.43	8.76
359.64	8.47
359.85	8.49
360.06	8.61
360.269	9.11
360.479	8.79
360.689	8.22
360.899	8.07
361.108	8.85
361.318	8.71
361.528	9.23
361.737	9.7
361.947	9.41
362.156	9.39
362.366	9.4
362.576	9.36
362.785	9.28
362.995	9.35
363.204	9.87
363.414	9.23
363.623	9.29
363.833	9.03
364.042	8.65
364.252	9.01
364.461	8.98
364.671	9.2
364.88	9.29
365.09	9.35
365.299	9.74
365.509	9.7
365.718	9.47
365.927	9.31
366.137	9.6
366.346	10.18
366.555	9.68
366.765	9.56
366.974	9.87
367.183	9.31
367.393	8.89
367.602	9.13
367.811	9.3
368.021	9.83
368.23	9.53
368.439	9.08
368.648	8.94
368.857	9.62
369.067	10
369.276	9.85
369.485	9.46
369.694	10.06
369.903	9.22
370.112	8.56
370.321	8.17
370.531	8.81
370.74	9.36
370.949	9.04
371.158	8.72
371.367	8.29
371.576	7.62
371.785	8.21
371.994	8.02
372.203	8.22
372.412	8.65
372.621	8.91
372.83	8.74
373.039	8.15
373.248	8.68
373.457	9.1
373.666	9.32
373.874	9.43
374.083	9.07
374.292	9.03
374.501	9.24
374.71	9.18
374.919	8.79
375.128	9.18
375.336	9.11
375.545	8.55
375.754	7.86
375.963	7.77
376.171	7.94
376.38	8.16
376.589	8.16
376.798	7.75
377.006	7.55
377.215	7.86
377.424	7.07
377.632	7.33
377.841	7.39
378.05	7.91
378.258	7.91
378.467	7.79
378.675	7.63
378.884	7.79
379.093	7.92
379.301	8.15
379.51	8.37
379.718	8.75
379.927	8.59
380.135	8.7
380.344	8.18
380.552	8.86
380.761	8.58
380.969	8.78
381.177	8.91
381.386	8.43
381.594	8.21
381.803	7.97
382.011	8.19
382.219	8.81
382.428	8.72
382.636	8.89
382.845	8.47
383.053	8.44
383.261	7.85
383.469	7.89
383.678	8.27
383.886	8.45
384.094	8.52
384.302	8.52
384.511	7.95
384.719	7.59
384.927	7.66
385.135	7.93
385.343	8.14
385.552	8.65
385.76	8.4
385.968	8.42
386.176	8.21
386.384	8.03
386.592	7.92
386.8	7.65
387.008	7.68
387.216	7.6
387.424	7.32
387.633	7.3
387.841	7.03
388.049	7.08
388.257	7.28
388.465	6.98
388.672	6.84
388.88	6.49
389.088	6.55
389.296	6.75
389.504	6.65
389.712	6.53
389.92	6.62
390.128	6.64
390.336	6.44
390.544	5.99
390.751	6.02
390.959	5.99
391.167	6.5
391.375	6.69
391.583	6.28
391.79	6.44
391.998	6.85
392.206	6.71
392.414	6.83
392.621	7.04
392.829	7.13
393.037	7.35
393.244	7.43
393.452	7.18
393.66	7.06
393.867	7.38
394.075	7.26
394.283	6.65
394.49	6.6
394.698	6.65
394.905	6.57
395.113	6.65
395.32	6.6
395.528	6.76
395.735	7.05
395.943	7.03
396.15	6.88
396.358	6.86
396.565	7.02
396.773	6.92
396.98	6.78
397.188	6.82
397.395	6.71
397.602	6.59
397.81	6.37
398.017	5.86
398.225	5.97
398.432	5.97
398.639	5.78
398.847	5.87
399.054	5.97
399.261	5.99
399.468	5.89
399.676	6.08
399.883	5.83
400.09	5.93
400.297	6.29
400.505	6.22
400.712	6.51
400.919	6.75
401.126	6.91
401.333	6.95
401.54	6.94
401.748	7.11
401.955	7.23
402.162	7.56
402.369	7.77
402.576	7.74
402.783	7.85
402.99	7.81
403.197	7.83
403.404	7.39
403.611	7.4
403.818	7.43
404.025	7.36
404.232	7.04
404.439	7.27
404.646	7.1
404.853	6.85
405.06	6.84
405.267	7.08
405.474	7.04
405.681	7.17
405.887	7.41
406.094	7.39
406.301	7.43
406.508	7.77
406.715	7.5
406.922	7.26
407.128	7.22
407.335	7.23
407.542	6.96
407.749	7.04
407.955	7.12
408.162	7.04
408.369	7.16
408.575	7.18
408.782	6.9
408.989	7.07
409.195	7.06
409.402	7.43
409.609	7.4
409.815	7.16
410.022	7.06
410.228	6.94
410.435	6.78
410.642	6.69
410.848	6.62
411.055	6.81
411.261	6.91
411.468	7.09
411.674	6.9
411.881	6.88
412.087	6.88
412.294	6.98
412.5	6.9
412.706	6.93
412.913	7
413.119	6.97
413.326	6.59
413.532	6.48
413.738	6.38
413.945	6.35
414.151	6.46
414.357	6.69
414.564	6.65
414.77	6.84
414.976	6.68
415.182	6.28
415.389	6.2
415.595	6.38
415.801	6.19
416.007	6.43
416.214	6.38
416.42	6.19
416.626	5.94
416.832	5.92
417.038	5.77
417.244	5.81
417.45	6.22
417.657	6.38
417.863	6.49
418.069	6.63
418.275	6.62
418.481	6.71
418.687	6.77
418.893	6.86
419.099	6.71
419.305	6.94
419.511	6.99
419.717	6.85
419.923	6.69
420.129	6.55
420.335	6.43
420.541	6.32
420.746	6.26
420.952	6.32
421.158	6.28
421.364	6.29
421.57	6.2
421.776	6.18
421.982	6.14
422.187	6.18
422.393	6.13
422.599	6.13
422.805	6.05
423.01	5.94
423.216	5.78
423.422	5.68
423.628	5.71
423.833	5.65
424.039	5.66
424.245	5.63
424.45	5.69
424.656	5.86
424.862	5.87
425.067	5.94
425.273	6.09
425.478	6.23
425.684	6.43
425.889	6.53
426.095	6.55
426.301	6.53
426.506	6.71
426.712	6.7
426.917	6.75
427.123	6.85
427.328	6.82
427.533	6.94
427.739	6.98
427.944	6.86
428.15	6.77
428.355	6.82
428.561	6.84
428.766	6.82
428.971	6.88
429.177	6.64
429.382	6.63
429.587	6.82
429.793	6.56
429.998	6.45
430.203	6.68
430.408	6.74
430.614	6.89
430.819	6.75
431.024	6.74
431.229	6.59
431.434	6.48
431.64	6.34
431.845	6.37
432.05	6.47
432.255	6.49
432.46	6.38
432.665	6.31
432.87	6.2
433.076	6.26
433.281	6.12
433.486	6.21
433.691	6.32
433.896	6.3
434.101	6.14
434.306	6
434.511	5.92
434.716	5.91
434.921	5.94
435.126	5.92
435.331	5.96
435.535	5.91
435.74	5.86
435.945	6.05
436.15	5.95
436.355	6.16
436.56	6.32
436.765	6.37
436.97	6.35
437.174	6.31
437.379	6.17
437.584	6.13
437.789	6.22
437.993	6.12
438.198	5.84
438.403	5.85
438.608	5.89
438.812	5.82
439.017	5.89
439.222	5.96
439.426	5.92
439.631	5.98
439.836	6.06
440.04	6.21
440.245	6.3
440.45	6.41
440.654	6.54
440.859	6.45
441.063	6.64
441.268	6.65
441.472	6.52
441.677	6.57
441.881	6.66
442.086	6.49
442.29	6.35
442.495	6.23
442.699	6.24
442.904	6.31
443.108	6.26
443.312	5.97
443.517	5.92
443.721	6.11
443.925	6.18
444.13	6.13
444.334	6.39
444.538	6.46
444.743	6.63
444.947	6.69
445.151	6.6
445.356	6.66
445.56	6.71
445.764	6.66
445.968	6.65
446.173	6.69
446.377	6.72
446.581	6.66
446.785	6.6
446.989	6.59
447.193	6.5
447.398	6.4
447.602	6.32
447.806	6.4
448.01	6.33
448.214	6.26
448.418	6.18
448.622	6
448.826	5.91
449.03	5.88
449.234	5.71
449.438	5.71
449.642	5.85
449.846	5.82
450.05	5.7
450.254	5.89
450.458	5.91
450.662	5.92
450.866	6.04
451.069	6.05
451.273	6.05
451.477	6.25
451.681	6.28
451.885	6.41
452.089	6.51
452.292	6.52
452.496	6.43
452.7	6.39
452.904	6.18
453.107	6.25
453.311	6.48
453.515	6.44
453.719	6.26
453.922	6.33
454.126	6.06
454.33	5.98
454.533	6.1
454.737	6.01
454.94	5.95
455.144	6.11
455.348	6.2
455.551	6.19
455.755	6.16
455.958	6.19
456.162	6.16
456.365	6.32
456.569	6.34
456.772	6.33
456.976	6.59
457.179	6.71
457.383	6.66
457.586	6.59
457.79	6.49
457.993	6.56
458.196	6.6
458.4	6.54
458.603	6.41
458.807	6.46
459.01	6.38
459.213	6.34
459.417	6.35
459.62	6.32
459.823	6.29
460.026	6.22
460.23	6.15
460.433	6.08
460.636	6.02
460.839	6.09
461.042	6.11
461.246	6.14
461.449	6.13
461.652	6.07
461.855	6.15
462.058	6.11
462.261	6.28
462.464	6.38
462.668	6.55
462.871	6.78
463.074	6.68
463.277	6.63
463.48	6.59
463.683	6.54
463.886	6.6
464.089	6.48
464.292	6.6
464.495	6.59
464.698	6.48
464.901	6.39
465.104	6.27
