Data from LC_239_Reflection_3.txt Node
Date: Thu Nov 19 22:19:04 EST 2015
User: robert
Spectrometer: USB4E03001
Autoset integration time: false
Trigger mode: 4
Integration Time (sec): 1.000000E-1
Scans to average: 15
Electric dark correction enabled: true
Nonlinearity correction enabled: false
Boxcar width: 5
Stray light correction enabled: false
XAxis mode: Wavelengths
Stop averaging: false
Number of Pixels in Spectrum: 3648
>>>>>Begin Spectral Data<<<<<
177.566	-70.93
177.785	5.18
178.005	23.64
178.225	5.48
178.445	5.91
178.665	25.97
178.885	61.74
179.105	482.14
179.324	-135.21
179.544	-222.97
179.764	-20.75
179.984	-42.3
180.204	-217.51
180.423	-157.23
180.643	-124.85
180.863	-33.91
181.083	-75.17
181.302	-73.35
181.522	-14.73
181.742	34.37
181.961	32.32
182.181	52.23
182.401	47.29
182.621	65.21
182.84	13.35
183.06	11.3
183.279	-88.55
183.499	-108.57
183.719	-381.99
183.938	-1516.16
184.158	1321.41
184.377	835.95
184.597	-565.32
184.816	5253.77
185.036	336.39
185.256	-3541.67
185.475	-71.97
185.695	25.57
185.914	76.62
186.134	49.78
186.353	-11.59
186.572	-9.67
186.792	-53.63
187.011	524.1
187.231	240.03
187.45	-3.93
187.67	8.85
187.889	22.23
188.108	53.86
188.328	46.45
188.547	29.44
188.766	-35.5
188.986	-130.96
189.205	1868.63
189.424	149.94
189.644	122.98
189.863	85.54
190.082	73.01
190.302	84.93
190.521	68.77
190.74	62.58
190.959	71.97
191.178	52.37
191.398	36.21
191.617	16.39
191.836	-360.76
192.055	-139.67
192.274	-177.63
192.494	-125.45
192.713	-44.24
192.932	-6.69
193.151	-8.12
193.37	-28.04
193.589	-19.68
193.808	14.29
194.027	32.67
194.246	45.39
194.465	50.35
194.685	37.72
194.904	23.07
195.123	21.27
195.342	10.4
195.561	7.1
195.78	28.03
195.999	13.46
196.218	-5.46
196.436	-9.26
196.655	-45.18
196.874	-25.51
197.093	-84.15
197.312	-157.02
197.531	-132.68
197.75	-227.34
197.969	-146.71
198.188	722.15
198.407	212.76
198.625	336.28
198.844	276.03
199.063	465.05
199.282	164.89
199.501	79.22
199.719	266.65
199.938	163.82
200.157	343.79
200.376	496.32
200.594	-2179.76
200.813	-1935.32
201.032	-886.47
201.251	-741.57
201.469	-781.56
201.688	-71.68
201.907	-169.21
202.125	-178.13
202.344	-14.02
202.563	-162.44
202.781	-124.05
203	-144.85
203.218	-87.17
203.437	-120.14
203.656	-81.98
203.874	-144.71
204.093	-441.59
204.311	-126.75
204.53	-107.26
204.748	-146.56
204.967	-46.84
205.185	-71.08
205.404	-155.06
205.622	-165.76
205.841	-69.08
206.059	-138.48
206.278	-135.87
206.496	-126.5
206.715	-105.47
206.933	-123.21
207.151	-43.7
207.37	-195.92
207.588	-236.05
207.806	-83.44
208.025	-151.69
208.243	-526.58
208.461	-837.43
208.68	-581.18
208.898	-302.65
209.116	-309.54
209.335	-402.13
209.553	-1442.92
209.771	7454.62
209.989	-1119.86
210.208	977.35
210.426	1105.94
210.644	-284.4
210.862	-130.85
211.081	-136.14
211.299	-182.72
211.517	-119.36
211.735	-105.51
211.953	-70.57
212.171	-77.8
212.39	-51.89
212.608	-40.09
212.826	-12.34
213.044	-22.77
213.262	-47.89
213.48	-47.94
213.698	-39.63
213.916	-54.07
214.134	-50.97
214.352	-71.57
214.57	-2.27
214.788	8.92
215.006	-8.76
215.224	-160.83
215.442	-446.15
215.66	-45.83
215.878	-359.3
216.096	-390.17
216.314	-604.19
216.532	-644.37
216.75	-1499.33
216.968	526.56
217.185	1675.83
217.403	2976.42
217.621	6256.63
217.839	-441.32
218.057	-278.74
218.275	-64.38
218.492	-100.24
218.71	-68.09
218.928	-85.03
219.146	-111.39
219.363	-16.61
219.581	-34.32
219.799	-15.42
220.017	-8.27
220.234	-22.57
220.452	-8.09
220.67	-71.26
220.887	-42.95
221.105	-32.75
221.323	-23.15
221.54	-8.72
221.758	-38.77
221.976	-40.64
222.193	-48.84
222.411	-50.67
222.629	-36.43
222.846	-45.06
223.064	-17.75
223.281	-21.93
223.499	-32.77
223.716	-30.42
223.934	-32.19
224.151	-17.29
224.369	-0.2
224.586	-10.76
224.804	2.51
225.021	6.31
225.239	7.5
225.456	-8.11
225.674	-6.61
225.891	-7.36
226.108	-9.05
226.326	-2.62
226.543	-4.58
226.76	-34.64
226.978	-16.7
227.195	-15.86
227.413	-26.42
227.63	-30.24
227.847	-20.84
228.064	-9.86
228.282	-3.8
228.499	-0.57
228.716	2.96
228.934	3.47
229.151	8.94
229.368	8.29
229.585	7.47
229.802	9.48
230.02	9.58
230.237	8.74
230.454	6.33
230.671	2.89
230.888	2.22
231.105	-3.87
231.323	-1.93
231.54	-5.09
231.757	-6.41
231.974	-5.26
232.191	-4.96
232.408	-2.58
232.625	0.91
232.842	-1.12
233.059	4.36
233.276	7.72
233.493	12.12
233.71	7.48
233.927	8.55
234.144	10.29
234.361	5.61
234.578	5.07
234.795	4.2
235.012	-1.72
235.229	-0.06
235.446	1.33
235.663	-4.03
235.879	-5.08
236.096	-9.1
236.313	-14.61
236.53	-10.16
236.747	-8.48
236.964	-8.43
237.181	-12
237.397	-9.3
237.614	-8.37
237.831	-7.09
238.048	-6.52
238.264	-9.7
238.481	-5.19
238.698	-2.03
238.915	1.4
239.131	-0.2
239.348	1.44
239.565	5.16
239.781	8.79
239.998	9.6
240.215	5.6
240.431	6.23
240.648	9.15
240.865	7.76
241.081	8.47
241.298	5.41
241.514	6.24
241.731	6.91
241.947	7.27
242.164	4.57
242.38	4.23
242.597	5.07
242.814	5.44
243.03	4.64
243.246	5.36
243.463	4.55
243.679	4.53
243.896	5.28
244.112	4.55
244.329	4.38
244.545	7.28
244.762	7.33
244.978	6.16
245.194	4.96
245.411	6.53
245.627	7.95
245.843	7.77
246.06	8.96
246.276	8.05
246.492	7.48
246.709	7.23
246.925	6.75
247.141	6.88
247.357	7.35
247.574	8.52
247.79	8.33
248.006	8.32
248.222	8.67
248.439	8.13
248.655	8.26
248.871	8.69
249.087	8.45
249.303	8.62
249.519	8.68
249.736	8.82
249.952	6.67
250.168	6.46
250.384	5.29
250.6	4.84
250.816	5.23
251.032	5.94
251.248	7.05
251.464	7.52
251.68	6.09
251.896	5.63
252.112	5.32
252.328	5.38
252.544	5.21
252.76	5.53
252.976	6.85
253.192	6.04
253.408	5.77
253.624	6.82
253.84	5.46
254.056	5.87
254.272	5.93
254.487	6.85
254.703	9.47
254.919	8.66
255.135	7.57
255.351	6.85
255.567	8.77
255.782	7.27
255.998	4.93
256.214	6.94
256.43	6.37
256.646	8.79
256.861	8.29
257.077	6.45
257.293	8.65
257.508	11.64
257.724	11.43
257.94	10.3
258.155	10.27
258.371	8.74
258.587	7.29
258.802	7.33
259.018	6.86
259.234	6.81
259.449	7.87
259.665	7.43
259.88	5.7
260.096	5.81
260.312	5.27
260.527	5.01
260.743	5.48
260.958	6.05
261.174	6.47
261.389	5.53
261.605	5.3
261.82	4.25
262.036	3.25
262.251	3.68
262.466	3.74
262.682	4.44
262.897	4.98
263.113	4.11
263.328	4.87
263.543	4.94
263.759	7.31
263.974	7.03
264.189	7.75
264.405	8.77
264.62	9.18
264.835	8.57
265.051	8.02
265.266	7.92
265.481	9.21
265.696	6.75
265.912	6.37
266.127	6.48
266.342	6.17
266.557	6.65
266.773	6.19
266.988	5.66
267.203	5.09
267.418	5.29
267.633	4.36
267.848	2.92
268.064	3.69
268.279	3.31
268.494	2.62
268.709	2.74
268.924	0.78
269.139	1.15
269.354	1.47
269.569	0.78
269.784	0.48
269.999	0.24
270.214	2.02
270.429	3.17
270.644	2.45
270.859	2.25
271.074	1.23
271.289	2.53
271.504	2.29
271.719	2.82
271.934	3.46
272.149	3.53
272.363	4.63
272.578	4.55
272.793	3.87
273.008	4.43
273.223	5.02
273.438	7.4
273.653	6.73
273.867	6.9
274.082	6.33
274.297	6.17
274.512	6.07
274.726	6.88
274.941	6.49
275.156	5.57
275.371	6.52
275.585	5.59
275.8	3.86
276.015	4.49
276.229	4.61
276.444	5.91
276.659	5.47
276.873	5.1
277.088	4.48
277.302	3.34
277.517	4.51
277.732	4.31
277.946	4.77
278.161	5.19
278.375	4.18
278.59	4.99
278.804	4.32
279.019	4.93
279.233	5.99
279.448	6.62
279.662	7.79
279.877	6.86
280.091	5.96
280.306	5.94
280.52	5.58
280.735	7.03
280.949	5.92
281.163	6.22
281.378	6.24
281.592	6.57
281.806	5.62
282.021	6.2
282.235	5.83
282.449	6.18
282.664	6.11
282.878	6.19
283.092	6.11
283.307	7.23
283.521	7.31
283.735	6.85
283.949	5.93
284.164	5.75
284.378	4.71
284.592	4.56
284.806	4.88
285.02	5.3
285.234	5.78
285.449	4.88
285.663	4.54
285.877	5.14
286.091	6.11
286.305	5.98
286.519	5.59
286.733	5.48
286.947	6.69
287.161	5.48
287.375	5.21
287.589	4.43
287.803	5.45
288.017	5.02
288.231	3.86
288.445	3.6
288.659	4.31
288.873	4.29
289.087	4.14
289.301	4.54
289.515	5.24
289.729	5.11
289.943	5.24
290.157	5.29
290.371	5.66
290.584	5.5
290.798	5.88
291.012	5.92
291.226	6.39
291.44	7.4
291.654	6.3
291.867	7.03
292.081	7
292.295	7.54
292.509	6.23
292.722	5.96
292.936	5.37
293.15	4
293.364	6.28
293.577	6.24
293.791	6.02
294.005	6.63
294.218	6.25
294.432	6.09
294.645	5.77
294.859	6.12
295.073	5.61
295.286	6.55
295.5	7.14
295.713	4.98
295.927	5.81
296.14	5.54
296.354	4.83
296.568	5.21
296.781	5.56
296.994	5.71
297.208	5.98
297.421	6.91
297.635	7.49
297.848	7.49
298.062	7.87
298.275	7.4
298.489	7.79
298.702	8.65
298.915	8.82
299.129	8.88
299.342	8.95
299.555	9.27
299.769	7.6
299.982	6.85
300.195	6.83
300.409	6.34
300.622	5.33
300.835	4.91
301.048	5.13
301.262	4.38
301.475	3.59
301.688	2.4
301.901	3.14
302.115	4.39
302.328	4.45
302.541	3.7
302.754	3.78
302.967	5.52
303.18	5.76
303.393	4.49
303.607	5.09
303.82	6.04
304.033	7.02
304.246	6.77
304.459	7.13
304.672	7.37
304.885	7.86
305.098	7.42
305.311	6.76
305.524	5.89
305.737	6.45
305.95	5.98
306.163	4.73
306.376	5.22
306.589	4.31
306.802	3.34
307.015	3.5
307.228	4.39
307.44	4.86
307.653	6.11
307.866	7.52
308.079	8.63
308.292	9
308.505	10.03
308.718	9.49
308.93	9.43
309.143	8.96
309.356	8.02
309.569	7.65
309.781	7.25
309.994	5.67
310.207	4.72
310.42	4.64
310.632	4.37
310.845	4.17
311.058	4.69
311.27	4.08
311.483	4.98
311.696	5.55
311.908	5.85
312.121	5.61
312.333	6.09
312.546	6.35
312.759	5.9
312.971	6.41
313.184	6.27
313.396	6.03
313.609	7.42
313.821	7.52
314.034	6.85
314.246	6.11
314.459	7.46
314.671	8.29
314.884	8.51
315.096	8.88
315.309	7.69
315.521	7.88
315.733	7.88
315.946	8.23
316.158	8.08
316.371	8.16
316.583	8.84
316.795	7.24
317.008	6.8
317.22	6.25
317.432	6.99
317.644	8.51
317.857	7.63
318.069	7.27
318.281	7.05
318.494	7.23
318.706	7.31
318.918	5.77
319.13	6.96
319.342	6.3
319.555	6.33
319.767	5.8
319.979	5.1
320.191	6.83
320.403	7.17
320.615	6.34
320.827	6.01
321.039	5.65
321.252	7.47
321.464	8.31
321.676	8.73
321.888	8.54
322.1	8.68
322.312	9.05
322.524	9.22
322.736	8.74
322.948	9.26
323.16	9.46
323.372	9.63
323.584	8.75
323.796	7.76
324.007	8.31
324.219	9.15
324.431	8.47
324.643	8.56
324.855	8.42
325.067	9.45
325.279	9.26
325.491	9.86
325.702	10.99
325.914	10.73
326.126	11.8
326.338	12.02
326.55	11.29
326.761	11.24
326.973	11.12
327.185	10.68
327.396	11.11
327.608	11.72
327.82	11.94
328.032	11.55
328.243	12.42
328.455	12.09
328.666	12.39
328.878	13.5
329.09	14.06
329.301	15.4
329.513	16.12
329.725	14.42
329.936	14.12
330.148	14.64
330.359	15.45
330.571	16
330.782	16.02
330.994	16.76
331.205	17.38
331.417	18.95
331.628	18.25
331.84	18.33
332.051	19.98
332.262	21.1
332.474	21.55
332.685	22.23
332.897	22.62
333.108	23
333.319	22.53
333.531	22.56
333.742	21.97
333.953	22.92
334.165	24.05
334.376	23.95
334.587	23.55
334.799	22.71
335.01	21.85
335.221	21.6
335.432	22.63
335.644	22.82
335.855	22.77
336.066	23.28
336.277	22.53
336.488	21.68
336.7	21.67
336.911	21.7
337.122	22.51
337.333	23.66
337.544	23.4
337.755	22.84
337.966	22.7
338.177	22.8
338.388	22.27
338.599	22.11
338.811	22.61
339.022	22.74
339.233	23.09
339.444	23.13
339.655	22.69
339.866	23.11
340.076	22.81
340.287	23.09
340.498	23.32
340.709	23.57
340.92	23.85
341.131	23.46
341.342	23.49
341.553	23.52
341.764	22.77
341.975	22.61
342.185	22.82
342.396	23.74
342.607	23.88
342.818	23.46
343.029	23.9
343.239	23.84
343.45	23.68
343.661	23.71
343.872	23.1
344.082	23.16
344.293	23.21
344.504	23.49
344.714	23.08
344.925	23.19
345.136	23.57
345.346	23.05
345.557	23.39
345.768	23.41
345.978	24.05
346.189	23.97
346.399	24.3
346.61	24
346.821	23.56
347.031	23.7
347.242	24.27
347.452	24.61
347.663	24.36
347.873	24.33
348.084	24.95
348.294	24.21
348.504	24.89
348.715	25.19
348.925	25.83
349.136	26.39
349.346	26.17
349.557	25.31
349.767	25.02
349.977	25.91
350.188	25.59
350.398	25.3
350.608	25.59
350.819	25.39
351.029	24.48
351.239	24.4
351.449	24.22
351.66	23.98
351.87	23.81
352.08	23.26
352.29	23.47
352.501	23.23
352.711	23.23
352.921	22.99
353.131	22.59
353.341	22.95
353.552	22.63
353.762	22.36
353.972	22.79
354.182	23.06
354.392	23.35
354.602	22.01
354.812	22.51
355.022	22.28
355.232	23.14
355.442	24.2
355.652	24.03
355.862	23.8
356.072	24.18
356.282	24.53
356.492	24.16
356.702	24.16
356.912	24.85
357.122	24.52
357.332	24.99
357.542	23.81
357.752	22.99
357.962	23.4
358.171	23.79
358.381	23.14
358.591	22.53
358.801	22.59
359.011	22.55
359.221	22.23
359.43	22.27
359.64	22.02
359.85	22.77
360.06	23.08
360.269	23.69
360.479	23.46
360.689	23.69
360.899	23.53
361.108	23.7
361.318	23.56
361.528	24.01
361.737	24.04
361.947	23.9
362.156	23.8
362.366	24.04
362.576	23.52
362.785	23.34
362.995	23.04
363.204	23.16
363.414	23.01
363.623	22.96
363.833	22.71
364.042	22.53
364.252	22.97
364.461	22.69
364.671	22.18
364.88	22.65
365.09	22.8
365.299	23.41
365.509	23.55
365.718	23.52
365.927	23.83
366.137	23.87
366.346	24.06
366.555	23.78
366.765	24.08
366.974	24.66
367.183	23.92
367.393	23.87
367.602	23.96
367.811	24.17
368.021	23.95
368.23	23.2
368.439	22.83
368.648	22.65
368.857	22.96
369.067	22.5
369.276	22.42
369.485	22.12
369.694	22.1
369.903	21.42
370.112	21.23
370.321	21.32
370.531	21.55
370.74	21.49
370.949	21.54
371.158	21.14
371.367	21.62
371.576	21.3
371.785	21.45
371.994	21.86
372.203	21.96
372.412	21.72
372.621	21.74
372.83	22.23
373.039	22.49
373.248	22.72
373.457	22.48
373.666	22.19
373.874	22.3
374.083	22.22
374.292	22.04
374.501	22.3
374.71	22.78
374.919	22.71
375.128	22.61
375.336	22.48
375.545	22.2
375.754	22.28
375.963	22.53
376.171	22.25
376.38	22
376.589	22.19
376.798	21.82
377.006	21.53
377.215	21.48
377.424	21.1
377.632	21.08
377.841	21.23
378.05	21.65
378.258	21.1
378.467	21.39
378.675	21.7
378.884	21.13
379.093	21.56
379.301	21.63
379.51	21.64
379.718	21.8
379.927	21.86
380.135	21.98
380.344	21.36
380.552	22.01
380.761	21.82
380.969	22.14
381.177	22.22
381.386	21.75
381.594	22.06
381.803	22.21
382.011	22.39
382.219	22.24
382.428	22.26
382.636	22.64
382.845	22.25
383.053	21.76
383.261	21.52
383.469	22.14
383.678	22.24
383.886	22.02
384.094	21.84
384.302	21.73
384.511	21.84
384.719	21.79
384.927	21.45
385.135	21.72
385.343	21.88
385.552	22.01
385.76	21.47
385.968	21.36
386.176	21.1
386.384	21.04
386.592	20.81
386.8	21.08
387.008	20.64
387.216	20.56
387.424	20.56
387.633	20.91
387.841	20.86
388.049	20.97
388.257	20.99
388.465	21.14
388.672	21.53
388.88	21.68
389.088	21.4
389.296	21.6
389.504	21.67
389.712	21.47
389.92	20.93
390.128	20.52
390.336	20.62
390.544	20.51
390.751	20.56
390.959	20.16
391.167	20.26
391.375	19.99
391.583	19.67
391.79	19.75
391.998	19.95
392.206	20.48
392.414	20.73
392.621	20.57
392.829	20.65
393.037	20.68
393.244	20.61
393.452	20.38
393.66	20.19
393.867	20.64
394.075	20.71
394.283	20.33
394.49	20.03
394.698	19.86
394.905	19.91
395.113	20.03
395.32	20.01
395.528	20.35
395.735	20.58
395.943	20.85
396.15	20.54
396.358	20.52
396.565	20.69
396.773	20.69
396.98	20.93
397.188	21.07
397.395	20.9
397.602	20.63
397.81	20.52
398.017	20.34
398.225	20.34
398.432	20.22
398.639	20.2
398.847	20.09
399.054	20.06
399.261	19.97
399.468	19.94
399.676	19.82
399.883	19.93
400.09	19.6
400.297	20.01
400.505	20.07
400.712	20.52
400.919	20.35
401.126	20.37
401.333	20.32
401.54	20.46
401.748	20.37
401.955	20.46
402.162	20.41
402.369	20.72
402.576	20.64
402.783	20.59
402.99	20.5
403.197	20.76
403.404	20.76
403.611	21.05
403.818	21.02
404.025	21.04
404.232	20.91
404.439	21.06
404.646	21.08
404.853	21.07
405.06	21.07
405.267	21.24
405.474	21.12
405.681	21.29
405.887	21.31
406.094	21.22
406.301	21.26
406.508	21.65
406.715	21.49
406.922	21.28
407.128	21.05
407.335	21.22
407.542	21.18
407.749	21.31
407.955	20.95
408.162	20.79
408.369	20.81
408.575	20.76
408.782	20.64
408.989	20.64
409.195	20.89
409.402	20.95
409.609	20.86
409.815	20.54
410.022	20.41
410.228	20.57
410.435	20.68
410.642	20.69
410.848	20.58
411.055	20.55
411.261	20.73
411.468	20.72
411.674	20.83
411.881	21.06
412.087	21.13
412.294	21.01
412.5	20.83
412.706	20.59
412.913	20.63
413.119	20.49
413.326	20.27
413.532	20.29
413.738	20.11
413.945	19.86
414.151	19.71
414.357	19.8
414.564	19.81
414.77	20
414.976	19.94
415.182	19.77
415.389	19.79
415.595	19.89
415.801	19.71
416.007	19.89
416.214	20.14
416.42	20.02
416.626	19.98
416.832	20.12
417.038	20.18
417.244	20.21
417.45	20.38
417.657	20.63
417.863	20.7
418.069	20.71
418.275	20.73
418.481	20.69
418.687	20.71
418.893	20.74
419.099	20.72
419.305	20.76
419.511	20.73
419.717	20.59
419.923	20.44
420.129	20.29
420.335	20.25
420.541	20.16
420.746	20.04
420.952	20.15
421.158	20.1
421.364	20.02
421.57	19.96
421.776	20.09
421.982	20.08
422.187	20.18
422.393	20.19
422.599	20.25
422.805	20.22
423.01	20.24
423.216	20.11
423.422	19.95
423.628	20.06
423.833	20.02
424.039	19.89
424.245	20.05
424.45	20.04
424.656	20.16
424.862	20.15
425.067	20.18
425.273	20.26
425.478	20.27
425.684	20.55
425.889	20.52
426.095	20.56
426.301	20.64
426.506	20.52
426.712	20.46
426.917	20.46
427.123	20.51
427.328	20.45
427.533	20.43
427.739	20.4
427.944	20.31
428.15	20.11
428.355	20.08
428.561	20.09
428.766	20.07
428.971	19.96
429.177	19.98
429.382	19.79
429.587	20.04
429.793	20.11
429.998	20.11
430.203	20.01
430.408	20.14
430.614	20.29
430.819	20.22
431.024	20.19
431.229	20.24
431.434	20.07
431.64	20.13
431.845	20.12
432.05	19.99
432.255	20.01
432.46	19.99
432.665	20.07
432.87	20.03
433.076	20
433.281	20
433.486	20.06
433.691	20.11
433.896	20.04
434.101	19.9
434.306	19.86
434.511	19.82
434.716	19.89
434.921	19.95
435.126	19.91
435.331	19.86
435.535	19.76
435.74	19.72
435.945	19.88
436.15	19.85
436.355	19.99
436.56	19.97
436.765	20.13
436.97	20.03
437.174	19.84
437.379	19.73
437.584	19.77
437.789	19.86
437.993	19.78
438.198	19.61
438.403	19.62
438.608	19.56
438.812	19.59
439.017	19.44
439.222	19.53
439.426	19.44
439.631	19.49
439.836	19.62
440.04	19.72
440.245	19.87
440.45	20.02
440.654	20.12
440.859	20.11
441.063	20.16
441.268	20.16
441.472	20.02
441.677	20.15
441.881	20.17
442.086	20.02
442.29	19.94
442.495	19.74
442.699	19.62
442.904	19.52
443.108	19.53
443.312	19.39
443.517	19.12
443.721	19.29
443.925	19.19
444.13	19.26
444.334	19.5
444.538	19.52
444.743	19.72
444.947	19.82
445.151	19.88
445.356	19.94
445.56	20.11
445.764	20.34
445.968	20.31
446.173	20.37
446.377	20.24
446.581	20.18
446.785	20.07
446.989	19.97
447.193	19.89
447.398	19.79
447.602	19.64
447.806	19.62
448.01	19.62
448.214	19.62
448.418	19.6
448.622	19.48
448.826	19.49
449.03	19.53
449.234	19.47
449.438	19.37
449.642	19.4
449.846	19.48
450.05	19.41
450.254	19.31
450.458	19.38
450.662	19.38
450.866	19.52
451.069	19.36
451.273	19.42
451.477	19.49
451.681	19.56
451.885	19.52
452.089	19.58
452.292	19.58
452.496	19.58
452.7	19.37
452.904	19.27
453.107	19.47
453.311	19.68
453.515	19.62
453.719	19.64
453.922	19.58
454.126	19.46
454.33	19.39
454.533	19.13
454.737	19.14
454.94	19.39
455.144	19.4
455.348	19.2
455.551	19.17
455.755	19.21
455.958	19.19
456.162	19.23
456.365	19.39
456.569	19.51
456.772	19.69
456.976	19.93
457.179	19.83
457.383	19.93
457.586	19.85
457.79	19.66
457.993	19.52
458.196	19.63
458.4	19.78
458.603	19.88
458.807	19.73
459.01	19.63
459.213	19.53
459.417	19.59
459.62	19.54
