Data from LC_241_Reflection_2.txt Node
Date: Thu Nov 19 22:29:45 EST 2015
User: robert
Spectrometer: USB4E03001
Autoset integration time: false
Trigger mode: 4
Integration Time (sec): 1.000000E-1
Scans to average: 15
Electric dark correction enabled: true
Nonlinearity correction enabled: false
Boxcar width: 5
Stray light correction enabled: false
XAxis mode: Wavelengths
Stop averaging: false
Number of Pixels in Spectrum: 3648
>>>>>Begin Spectral Data<<<<<
177.566	43.17
177.785	11.81
178.005	32.77
178.225	57.94
178.445	54.83
178.665	50.43
178.885	37.1
179.105	-380.95
179.324	-412.08
179.544	-231.98
179.764	-101.9
179.984	-45.9
180.204	-25.31
180.423	-68.94
180.643	-64.49
180.863	-4.48
181.083	-28.55
181.302	12.86
181.522	36.64
181.742	66.16
181.961	87.76
182.181	139.44
182.401	217.86
182.621	212.08
182.84	395.56
183.06	244
183.279	215.55
183.499	188.24
183.719	590.39
183.938	2033.33
184.158	-941.26
184.377	-489.96
184.597	95.86
184.816	2556.6
185.036	248.87
185.256	-3289.44
185.475	-118.67
185.695	-8.04
185.914	-18.51
186.134	-17.75
186.353	-8.36
186.572	8.99
186.792	88.81
187.011	-300.4
187.231	-475.13
187.45	-1153.08
187.67	-125.39
187.889	-93.04
188.108	-39.37
188.328	-33.48
188.547	-117.75
188.766	-428.04
188.986	-412.53
189.205	6379.41
189.424	171.31
189.644	136.45
189.863	84
190.082	74.17
190.302	126.54
190.521	107.13
190.74	91.12
190.959	105.18
191.178	62.04
191.398	43.26
191.617	27.28
191.836	108.98
192.055	78.51
192.274	89.63
192.494	93.67
192.713	45.49
192.932	34.59
193.151	56.39
193.37	54.24
193.589	91.36
193.808	116.69
194.027	116.79
194.246	98.34
194.465	101.61
194.685	95.46
194.904	81.62
195.123	68.65
195.342	111.96
195.561	96.16
195.78	82.08
195.999	65.94
196.218	57.4
196.436	43.91
196.655	34.27
196.874	37.83
197.093	57.99
197.312	60.15
197.531	87.81
197.75	106.03
197.969	81.62
198.188	129.82
198.407	75.81
198.625	146.2
198.844	99.71
199.063	3.55
199.282	70.09
199.501	84.87
199.719	123.31
199.938	91.45
200.157	201.75
200.376	73.4
200.594	388.99
200.813	30.24
201.032	347.66
201.251	269.41
201.469	112.03
201.688	122.07
201.907	190.46
202.125	674.72
202.344	139.41
202.563	167.26
202.781	184.07
203	118.74
203.218	95.37
203.437	60.01
203.656	100.87
203.874	84.74
204.093	-27.11
204.311	-3.24
204.53	25.63
204.748	29.24
204.967	32.05
205.185	-19.05
205.404	-37.37
205.622	2.21
205.841	21.92
206.059	-1.1
206.278	11.73
206.496	79.08
206.715	33.45
206.933	-70.03
207.151	28.83
207.37	-47.32
207.588	-88.74
207.806	22.26
208.025	6.45
208.243	-118.48
208.461	-224.35
208.68	-156.83
208.898	-104.35
209.116	-55.55
209.335	20.52
209.553	-396.49
209.771	1687.39
209.989	-125.23
210.208	450.96
210.426	806.81
210.644	-81.06
210.862	-60.05
211.081	-36.99
211.299	-57.55
211.517	-40.03
211.735	-21.03
211.953	-6.66
212.171	-6.9
212.39	7.65
212.608	7.33
212.826	28.18
213.044	-5.03
213.262	-3.95
213.48	-8.66
213.698	0.78
213.916	-1.31
214.134	-20.66
214.352	57.51
214.57	103.99
214.788	299.07
215.006	265.98
215.224	160.93
215.442	78.5
215.66	64.58
215.878	-128.99
216.096	-94.29
216.314	-274.64
216.532	-469.43
216.75	-1113.42
216.968	410.25
217.185	1465.98
217.403	2465.82
217.621	4147.79
217.839	-269.99
218.057	-160.28
218.275	-6.38
218.492	-17.71
218.71	-10.42
218.928	6.48
219.146	-32.26
219.363	15.45
219.581	15.62
219.799	18.44
220.017	8.29
220.234	16.3
220.452	35.25
220.67	19.81
220.887	22.59
221.105	30.33
221.323	16.87
221.54	27.05
221.758	33.63
221.976	26.9
222.193	32.71
222.411	23.8
222.629	31.84
222.846	21.66
223.064	21.57
223.281	17.26
223.499	14.73
223.716	16.69
223.934	13.6
224.151	12.93
224.369	22.02
224.586	14.55
224.804	26.67
225.021	37.83
225.239	41.94
225.456	31.74
225.674	35.57
225.891	37.47
226.108	43.16
226.326	41.36
226.543	42.47
226.76	33.82
226.978	35.23
227.195	30.59
227.413	16.68
227.63	12.34
227.847	13.15
228.064	12.26
228.282	12.32
228.499	11.7
228.716	14.79
228.934	13.18
229.151	14.45
229.368	12.11
229.585	12.95
229.802	9.89
230.02	12.05
230.237	11.96
230.454	11.98
230.671	9.48
230.888	10.26
231.105	4.49
231.323	8.54
231.54	6.63
231.757	6.66
231.974	5.68
232.191	8.87
232.408	6.71
232.625	8.74
232.842	10.51
233.059	14.06
233.276	16.42
233.493	20.95
233.71	17.31
233.927	21.04
234.144	23.44
234.361	18.1
234.578	15.83
234.795	18.04
235.012	17.4
235.229	12.83
235.446	16.07
235.663	9.35
235.879	8.94
236.096	4.44
236.313	-2
236.53	1.05
236.747	5.91
236.964	9.27
237.181	8.18
237.397	9.19
237.614	9.49
237.831	9.93
238.048	11.16
238.264	10.44
238.481	16.88
238.698	19.69
238.915	21.98
239.131	19.52
239.348	18.2
239.565	15.31
239.781	13.55
239.998	13.9
240.215	8.98
240.431	8.63
240.648	11.91
240.865	10.11
241.081	9.42
241.298	9.19
241.514	10.86
241.731	11.94
241.947	11.67
242.164	11.55
242.38	12.86
242.597	14.02
242.814	14.56
243.03	12.32
243.246	13.23
243.463	12.7
243.679	10.51
243.896	9.94
244.112	9.82
244.329	10.13
244.545	10.35
244.762	7.23
244.978	5.88
245.194	5.36
245.411	7.24
245.627	6.67
245.843	7.35
246.06	10.12
246.276	9.44
246.492	9.65
246.709	10.55
246.925	10.11
247.141	10.92
247.357	11.59
247.574	11.72
247.79	11.65
248.006	11.96
248.222	12
248.439	10.8
248.655	11.14
248.871	10.81
249.087	9.35
249.303	9.7
249.519	9.89
249.736	9.25
249.952	8.81
250.168	7.83
250.384	5.76
250.6	5.34
250.816	5.49
251.032	5.29
251.248	6.24
251.464	7.31
251.68	8.29
251.896	7.73
252.112	7.04
252.328	7.92
252.544	8.67
252.76	9.61
252.976	10.68
253.192	10.26
253.408	9.56
253.624	10.93
253.84	10.28
254.056	9.38
254.272	9.99
254.487	10.33
254.703	10.1
254.919	9.18
255.135	10.45
255.351	9.2
255.567	11.16
255.782	11.34
255.998	10.45
256.214	11.39
256.43	9.86
256.646	12.35
256.861	13.86
257.077	12.22
257.293	12.8
257.508	12.36
257.724	13.07
257.94	13.15
258.155	13.65
258.371	13.09
258.587	12.05
258.802	12.23
259.018	11.49
259.234	11.03
259.449	11.17
259.665	10.76
259.88	10.08
260.096	9.98
260.312	9.48
260.527	9.07
260.743	8.5
260.958	8.61
261.174	8.68
261.389	8.11
261.605	8.59
261.82	7.77
262.036	8.03
262.251	8.19
262.466	8.3
262.682	8.98
262.897	9.68
263.113	9.36
263.328	10.31
263.543	10.45
263.759	11.01
263.974	10.99
264.189	13.72
264.405	13.28
264.62	14.71
264.835	13.96
265.051	13.7
265.266	13.78
265.481	14.58
265.696	13.42
265.912	11.98
266.127	11.58
266.342	10.16
266.557	9.2
266.773	8.69
266.988	7.48
267.203	7.26
267.418	7.22
267.633	6.79
267.848	5.99
268.064	6.64
268.279	7.09
268.494	7.29
268.709	6.43
268.924	5.6
269.139	6.99
269.354	7.32
269.569	6.29
269.784	5.14
269.999	5.38
270.214	6.81
270.429	6.14
270.644	6.49
270.859	5.79
271.074	6.34
271.289	7.15
271.504	6.97
271.719	7.69
271.934	8.2
272.149	9.52
272.363	10.08
272.578	9.96
272.793	10.02
273.008	9.64
273.223	10.61
273.438	11.58
273.653	11.2
273.867	10.01
274.082	8.67
274.297	8.27
274.512	7.55
274.726	7.66
274.941	6.97
275.156	6.23
275.371	6.48
275.585	5.49
275.8	4.71
276.015	5.88
276.229	6.83
276.444	9
276.659	9.78
276.873	10.42
277.088	9.56
277.302	9.87
277.517	10.23
277.732	11.42
277.946	11.49
278.161	11.47
278.375	11.19
278.59	11.13
278.804	10.73
279.019	11.83
279.233	11.57
279.448	12.72
279.662	13.54
279.877	13.59
280.091	13.39
280.306	12.67
280.52	12.49
280.735	12.35
280.949	11.75
281.163	11.47
281.378	10.89
281.592	10.96
281.806	10.29
282.021	10.05
282.235	10.84
282.449	10.41
282.664	10.95
282.878	10.74
283.092	10.44
283.307	11.8
283.521	11.05
283.735	11.4
283.949	11.23
284.164	10.66
284.378	9.63
284.592	8.62
284.806	8.89
285.02	8.89
285.234	9.6
285.449	8.91
285.663	8.59
285.877	9.17
286.091	8.38
286.305	7.99
286.519	8.91
286.733	9.52
286.947	10.62
287.161	9.91
287.375	9.73
287.589	8.81
287.803	8.98
288.017	8.88
288.231	9.35
288.445	9.98
288.659	10.41
288.873	9.93
289.087	8.73
289.301	8.08
289.515	8.78
289.729	8.47
289.943	9.5
290.157	10.67
290.371	10.93
290.584	9.21
290.798	9.31
291.012	8.64
291.226	8.11
291.44	10.03
291.654	8.61
291.867	8.41
292.081	8.52
292.295	8.01
292.509	6.22
292.722	6.29
292.936	6.8
293.15	5.92
293.364	7.93
293.577	8.8
293.791	8.17
294.005	10.73
294.218	10.42
294.432	10.71
294.645	10.61
294.859	11.47
295.073	9.92
295.286	10.89
295.5	11.38
295.713	10.43
295.927	9.43
296.14	9.08
296.354	8.11
296.568	9.34
296.781	9.34
296.994	10.12
297.208	10
297.421	10.71
297.635	10.53
297.848	10.72
298.062	11.09
298.275	11.16
298.489	11.3
298.702	11.64
298.915	11.22
299.129	11.84
299.342	10.71
299.555	10.98
299.769	10.87
299.982	10.54
300.195	10.52
300.409	10.55
300.622	10.72
300.835	10.67
301.048	10.45
301.262	10.04
301.475	9.04
301.688	9.14
301.901	8.81
302.115	8.55
302.328	9.18
302.541	8.64
302.754	8.68
302.967	9.76
303.18	9.4
303.393	9.23
303.607	9.57
303.82	9.97
304.033	10.98
304.246	11.72
304.459	12.36
304.672	12.29
304.885	12.79
305.098	11.77
305.311	11.54
305.524	11.24
305.737	11.08
305.95	10.14
306.163	9.44
306.376	8.14
306.589	7.95
306.802	6.89
307.015	6.64
307.228	6.72
307.44	7.13
307.653	6.95
307.866	8.29
308.079	9.25
308.292	9.39
308.505	9.7
308.718	9.8
308.93	9.02
309.143	9.42
309.356	9.18
309.569	8.41
309.781	9.24
309.994	8.62
310.207	7.92
310.42	8.18
310.632	8.12
310.845	8.29
311.058	9.77
311.27	9.01
311.483	8.8
311.696	8.99
311.908	10.27
312.121	8.86
312.333	8.8
312.546	8.41
312.759	8.13
312.971	9.17
313.184	8.6
313.396	7.83
313.609	9.3
313.821	9.96
314.034	10.71
314.246	10.32
314.459	11.18
314.671	12.11
314.884	13.11
315.096	12.45
315.309	11.23
315.521	11.82
315.733	11.7
315.946	12
316.158	12.54
316.371	11.76
316.583	10.96
316.795	10.65
317.008	9.95
317.22	9.41
317.432	10.48
317.644	11.79
317.857	11.38
318.069	10.49
318.281	10.48
318.494	10.81
318.706	10.44
318.918	10.54
319.13	10.63
319.342	10.41
319.555	10.39
319.767	8.88
319.979	7.39
320.191	8.16
320.403	8.68
320.615	8.02
320.827	7.14
321.039	6.8
321.252	6.66
321.464	7.47
321.676	7.72
321.888	7.41
322.1	8.47
322.312	8.59
322.524	9.02
322.736	7.68
322.948	8.6
323.16	8.49
323.372	8.38
323.584	8.56
323.796	6.93
324.007	7.04
324.219	7.32
324.431	6.75
324.643	6.67
324.855	6.16
325.067	8.04
325.279	7.37
325.491	7.96
325.702	8.74
325.914	8.16
326.126	9.24
326.338	9.62
326.55	9.45
326.761	9.14
326.973	9.4
327.185	8.87
327.396	8.72
327.608	8.85
327.82	8.61
328.032	8.25
328.243	8.29
328.455	8.68
328.666	8.94
328.878	9.31
329.09	10.41
329.301	11.48
329.513	12.43
329.725	11.56
329.936	11.66
330.148	10.4
330.359	11.03
330.571	12.55
330.782	11.59
330.994	11.48
331.205	12.01
331.417	11.85
331.628	11.37
331.84	11.03
332.051	11.98
332.262	12.73
332.474	13.82
332.685	13.79
332.897	12.63
333.108	12.45
333.319	12.61
333.531	12.09
333.742	11.53
333.953	12.23
334.165	12.92
334.376	12.97
334.587	12.19
334.799	11.77
335.01	10.48
335.221	9.89
335.432	10.85
335.644	10.09
335.855	9.71
336.066	10.26
336.277	8.36
336.488	8.31
336.7	8.03
336.911	7.07
337.122	7.29
337.333	7.79
337.544	8.41
337.755	7.86
337.966	7.61
338.177	8.11
338.388	8.09
338.599	8.83
338.811	8.61
339.022	7.94
339.233	8.03
339.444	7.91
339.655	8.57
339.866	8.47
340.076	8.15
340.287	8.69
340.498	7.76
340.709	7.08
340.92	7.06
341.131	6.58
341.342	7.51
341.553	8.11
341.764	7.32
341.975	6.56
342.185	6.64
342.396	6.44
342.607	6.58
342.818	6.9
343.029	7.48
343.239	7.51
343.45	7.67
343.661	7.01
343.872	7.19
344.082	7.87
344.293	8.74
344.504	8.88
344.714	8.84
344.925	8.45
345.136	8.91
345.346	8.93
345.557	9.18
345.768	9.53
345.978	9.44
346.189	8.78
346.399	8.92
346.61	8.27
346.821	7.8
347.031	8.56
347.242	9.68
347.452	9.99
347.663	9.75
347.873	9.92
348.084	9.22
348.294	9.46
348.504	10.18
348.715	9.95
348.925	10.34
349.136	11.61
349.346	11.18
349.557	10.62
349.767	10.27
349.977	10.54
350.188	9.73
350.398	9.35
350.608	9.46
350.819	9.56
351.029	9.85
351.239	9.93
351.449	8.88
351.66	8.76
351.87	8.17
352.08	8.19
352.29	8.59
352.501	9.09
352.711	9.93
352.921	10.38
353.131	9.53
353.341	8.91
353.552	9.2
353.762	9.19
353.972	9.44
354.182	9.74
354.392	9.9
354.602	9.15
354.812	8.41
355.022	8.22
355.232	7.91
355.442	8.58
355.652	8.48
355.862	8.11
356.072	8.54
356.282	9.39
356.492	9.11
356.702	9.07
356.912	9.48
357.122	10.11
357.332	10.37
357.542	9.62
357.752	9.2
357.962	10.03
358.171	9.84
358.381	9.99
358.591	8.7
358.801	8.68
359.011	8.32
359.221	8.05
359.43	7.8
359.64	7.68
359.85	8.14
360.06	8.36
360.269	7.99
360.479	8.1
360.689	7.42
360.899	7.43
361.108	7.57
361.318	7.61
361.528	7.59
361.737	8.09
361.947	7.85
362.156	7.73
362.366	7.88
362.576	7.86
362.785	7.35
362.995	7.33
363.204	7.71
363.414	7.45
363.623	7.22
363.833	7.08
364.042	6.26
364.252	6.32
364.461	6.04
364.671	6.03
364.88	6.4
365.09	6.94
365.299	7.42
365.509	7.49
365.718	7.71
365.927	8.54
366.137	8.37
366.346	8.5
366.555	8.43
366.765	8.8
366.974	8.39
367.183	7.67
367.393	7.06
367.602	7.02
367.811	7.7
368.021	8.03
368.23	6.8
368.439	6.89
368.648	7.11
368.857	7.27
369.067	6.9
369.276	7.69
369.485	7.56
369.694	7.65
369.903	7.15
370.112	5.99
370.321	5.57
370.531	6.27
370.74	6.27
370.949	5.98
371.158	6.05
371.367	6.58
371.576	5.85
371.785	6.31
371.994	6.99
372.203	6.98
372.412	7.64
372.621	7.51
372.83	7.62
373.039	7.34
373.248	8
373.457	7.94
373.666	7.77
373.874	8.09
374.083	7.7
374.292	7.45
374.501	7.9
374.71	7.46
374.919	7.54
375.128	7.55
375.336	7.84
375.545	7.47
375.754	7.03
375.963	6.86
376.171	6.6
376.38	6.9
376.589	6.67
376.798	6.05
377.006	5.8
377.215	5.84
377.424	5.62
377.632	5.74
377.841	5.61
378.05	5.78
378.258	5.74
378.467	6
378.675	5.75
378.884	5.72
379.093	6.37
379.301	6.86
379.51	6.98
379.718	6.94
379.927	6.48
380.135	6.4
380.344	6.5
380.552	6.74
380.761	6.25
380.969	6.86
381.177	6.77
381.386	7.02
381.594	6.66
381.803	6.23
382.011	6.28
382.219	6.71
382.428	6.73
382.636	6.72
382.845	6.67
383.053	6.65
383.261	6.19
383.469	6.68
383.678	5.84
383.886	6.14
384.094	6.65
384.302	7.08
384.511	6.82
384.719	6.77
384.927	6.67
385.135	6.54
385.343	6.54
385.552	6.5
385.76	6.26
385.968	6.66
386.176	6.25
386.384	5.72
386.592	5.28
386.8	5.21
387.008	5.08
387.216	4.71
387.424	4.82
387.633	5
387.841	4.84
388.049	4.91
388.257	4.93
388.465	5.12
388.672	5.64
388.88	5.65
389.088	5.66
389.296	5.81
389.504	6.33
389.712	6.26
389.92	6.37
390.128	6.43
390.336	6.23
390.544	6.13
390.751	6.19
390.959	5.84
391.167	5.77
391.375	5.87
391.583	5.52
391.79	5.37
391.998	5.38
392.206	5.42
392.414	5.74
392.621	5.7
392.829	5.77
393.037	5.89
393.244	5.85
393.452	5.74
393.66	5.78
393.867	6.17
394.075	6.3
394.283	5.93
394.49	5.8
394.698	5.5
394.905	5.55
395.113	5.53
395.32	5.22
395.528	5.53
395.735	5.98
395.943	5.82
396.15	5.48
396.358	5.32
396.565	5.9
396.773	5.64
396.98	5.67
397.188	5.63
397.395	5.65
397.602	5.49
397.81	5.08
398.017	4.55
398.225	4.5
398.432	4.57
398.639	4.49
398.847	4.18
399.054	4.36
399.261	4.29
399.468	4.4
399.676	3.99
399.883	4.31
400.09	4.49
400.297	4.84
400.505	5.03
400.712	5.31
400.919	5.55
401.126	5.76
401.333	5.8
401.54	5.69
401.748	5.95
401.955	6.26
402.162	6.24
402.369	6.35
402.576	6.06
402.783	6.18
402.99	6.18
403.197	6.1
403.404	6.11
403.611	6.06
403.818	6.28
404.025	5.92
404.232	5.68
404.439	5.69
404.646	5.54
404.853	5.64
405.06	5.43
405.267	5.43
405.474	5.31
405.681	5.13
405.887	5.26
406.094	5.01
406.301	5.03
406.508	5.37
406.715	5.19
406.922	5.02
407.128	4.85
407.335	5.03
407.542	5.18
407.749	5.23
407.955	5.39
408.162	5.3
408.369	5.38
408.575	5.43
408.782	5.13
408.989	5.19
409.195	5.3
409.402	5.55
409.609	5.34
409.815	5
410.022	5.05
410.228	5.23
410.435	5.3
410.642	5.45
410.848	5.51
411.055	5.78
411.261	5.77
411.468	5.93
411.674	5.86
411.881	6.07
412.087	6.07
412.294	5.91
412.5	5.33
412.706	5.17
412.913	5.11
413.119	4.97
413.326	4.75
413.532	5.06
413.738	4.88
413.945	4.85
414.151	5.05
414.357	5.47
414.564	5.43
414.77	5.81
414.976	5.91
415.182	5.78
415.389	5.72
415.595	5.71
415.801	5.45
416.007	5.49
416.214	5.41
416.42	5.35
416.626	5.14
416.832	5.37
417.038	5.36
417.244	5.43
417.45	5.54
417.657	5.57
417.863	5.65
418.069	5.72
418.275	5.86
418.481	5.93
418.687	5.74
418.893	5.8
419.099	5.63
419.305	5.66
419.511	5.52
419.717	5.48
419.923	5.5
420.129	5.48
420.335	5.38
420.541	5.33
420.746	5.33
420.952	5.46
421.158	5.37
421.364	5.38
421.57	5.27
421.776	5.45
421.982	5.38
422.187	5.4
422.393	5.3
422.599	5.29
422.805	5.17
423.01	5.13
423.216	4.99
423.422	4.89
423.628	4.92
423.833	4.94
424.039	4.77
424.245	4.88
424.45	4.93
424.656	4.98
424.862	5.02
425.067	5.01
425.273	5.07
425.478	5.09
425.684	5.23
425.889	5.39
426.095	5.37
426.301	5.37
426.506	5.44
426.712	5.35
426.917	5.61
427.123	5.69
427.328	5.75
427.533	5.76
427.739	5.91
427.944	5.86
428.15	5.68
428.355	5.63
428.561	5.61
428.766	5.55
428.971	5.61
429.177	5.26
429.382	5.19
429.587	5.3
429.793	5.1
429.998	4.83
430.203	4.84
430.408	4.8
430.614	4.98
430.819	4.94
431.024	4.81
431.229	4.71
431.434	4.67
431.64	4.63
431.845	4.61
432.05	4.84
432.255	4.9
432.46	4.96
432.665	5.11
432.87	5.12
433.076	5.27
433.281	5.25
433.486	5.42
433.691	5.47
433.896	5.44
434.101	5.45
434.306	5.38
434.511	5.4
434.716	5.38
434.921	5.35
435.126	5.27
435.331	5.19
435.535	5.21
435.74	5.02
435.945	5.18
436.15	5.09
436.355	5.2
436.56	5.25
436.765	5.38
436.97	5.35
437.174	5.24
437.379	5.16
437.584	5.15
437.789	5.27
437.993	5.31
438.198	5.18
438.403	5.31
438.608	5.32
438.812	5.21
439.017	5.11
439.222	5.14
439.426	5.08
439.631	5.13
439.836	5.28
440.04	5.26
440.245	5.3
440.45	5.27
440.654	5.32
440.859	5.16
441.063	5.31
441.268	5.41
441.472	5.37
441.677	5.39
441.881	5.52
442.086	5.22
442.29	5.18
442.495	5.25
442.699	5.39
442.904	5.43
443.108	5.49
443.312	5.39
443.517	5.14
443.721	5.32
443.925	5.44
444.13	5.36
444.334	5.6
444.538	5.69
444.743	5.64
444.947	5.53
445.151	5.43
445.356	5.45
445.56	5.47
445.764	5.61
445.968	5.53
446.173	5.5
446.377	5.48
446.581	5.51
446.785	5.47
446.989	5.4
447.193	5.35
447.398	5.19
447.602	5.14
447.806	5.15
448.01	4.98
448.214	4.85
448.418	4.81
448.622	4.73
448.826	4.67
449.03	4.72
449.234	4.67
449.438	4.64
449.642	4.76
449.846	4.82
450.05	4.86
450.254	5.01
450.458	5.04
450.662	5.1
450.866	5.06
451.069	4.97
451.273	4.84
451.477	4.83
451.681	4.9
451.885	4.92
452.089	4.9
452.292	4.78
452.496	4.8
452.7	4.81
452.904	4.58
453.107	4.74
453.311	4.85
453.515	4.86
453.719	5
453.922	5.11
454.126	5.19
454.33	5.25
454.533	5.24
454.737	5.15
454.94	5.12
455.144	5.31
455.348	5.3
455.551	5.26
455.755	5.16
455.958	5.03
456.162	4.98
456.365	5.05
456.569	4.92
456.772	5.01
456.976	5.3
457.179	5.43
457.383	5.32
457.586	5.24
457.79	5.21
457.993	5.23
458.196	5.23
458.4	5.31
458.603	5.19
458.807	5.27
459.01	5.12
459.213	4.99
459.417	5
459.62	5.02
459.823	5.05
460.026	4.95
460.23	4.97
460.433	5.01
460.636	4.96
460.839	4.99
461.042	4.95
461.246	5.02
461.449	5.01
461.652	5
461.855	5.1
462.058	5.12
462.261	5.31
462.464	5.36
462.668	5.34
462.871	5.31
463.074	5.28
463.277	5.19
463.48	5.19
463.683	5.32
463.886	5.4
464.089	5.12
464.292	5.21
464.495	5.26
464.698	5.07
464.901	5.14
465.104	5.17
465.306	5.23
465.509	5.33
465.712	5.36
465.915	5.19
466.118	5.05
466.321	5.28
466.524	5.06
466.726	4.92
466.929	5.08
467.132	5.09
467.335	5.1
467.538	4.98
467.74	4.91
