Data from LC_237_Reflection_3.txt Node
Date: Thu Nov 19 22:11:48 EST 2015
User: robert
Spectrometer: USB4E03001
Autoset integration time: false
Trigger mode: 4
Integration Time (sec): 1.000000E-1
Scans to average: 15
Electric dark correction enabled: true
Nonlinearity correction enabled: false
Boxcar width: 5
Stray light correction enabled: false
XAxis mode: Wavelengths
Stop averaging: false
Number of Pixels in Spectrum: 3648
>>>>>Begin Spectral Data<<<<<
177.566	-66.37
177.785	-3.14
178.005	10.39
178.225	-13.41
178.445	11.72
178.665	25.62
178.885	25.98
179.105	233.33
179.324	4.95
179.544	83.43
179.764	63.13
179.984	103.74
180.204	143
180.423	245.52
180.643	208.08
180.863	145
181.083	227.59
181.302	165.72
181.522	126.02
181.742	146.08
181.961	145.51
182.181	194.99
182.401	280.98
182.621	277.61
182.84	373.95
183.06	345.34
183.279	322.83
183.499	210.1
183.719	709.44
183.938	2001.68
184.158	-846.17
184.377	-1167.88
184.597	476.3
184.816	-4566.04
185.036	-178.25
185.256	3324.44
185.475	233.03
185.695	154.98
185.914	165.86
186.134	250.5
186.353	178.2
186.572	151.85
186.792	264.76
187.011	-1813.25
187.231	-306.3
187.45	-498.88
187.67	18.41
187.889	0.14
188.108	25.9
188.328	14.7
188.547	-59.78
188.766	-26.47
188.986	48.02
189.205	628.43
189.424	58.84
189.644	56.85
189.863	48.37
190.082	62.04
190.302	92.95
190.521	125.11
190.74	99.21
190.959	98.46
191.178	108.26
191.398	150.89
191.617	109.56
191.836	498.01
192.055	161.7
192.274	186.93
192.494	151.46
192.713	48.52
192.932	32.43
193.151	59.66
193.37	48.53
193.589	47.87
193.808	60.55
194.027	81.11
194.246	57.88
194.465	99.18
194.685	95.33
194.904	81.39
195.123	87.26
195.342	119.98
195.561	89.7
195.78	99.67
195.999	86.54
196.218	81.91
196.436	90.36
196.655	97.09
196.874	79.74
197.093	105.93
197.312	140.13
197.531	154.76
197.75	220.81
197.969	241.75
198.188	-431.59
198.407	-129.39
198.625	-189.1
198.844	-52.62
199.063	-1266.73
199.282	-87.09
199.501	-88.02
199.719	-135.44
199.938	-46.23
200.157	-102.56
200.376	-56.49
200.594	802.08
200.813	569.09
201.032	465.61
201.251	440.65
201.469	-54.81
201.688	62.79
201.907	149.34
202.125	674.34
202.344	177.79
202.563	177.67
202.781	193.86
203	101.33
203.218	132.78
203.437	179.54
203.656	243.08
203.874	345.71
204.093	434.49
204.311	117.56
204.53	103.23
204.748	93.37
204.967	78.22
205.185	66.04
205.404	81.91
205.622	80.21
205.841	73.88
206.059	29.86
206.278	64.83
206.496	88.02
206.715	190.81
206.933	155.88
207.151	151.33
207.37	320
207.588	253.11
207.806	222.29
208.025	236.2
208.243	301.14
208.461	490.63
208.68	266.7
208.898	225.18
209.116	128.97
209.335	160.4
209.553	113.6
209.771	641.18
209.989	166
210.208	262.86
210.426	709.03
210.644	-112.23
210.862	-50.08
211.081	22.61
211.299	37.93
211.517	67.5
211.735	80.04
211.953	70.43
212.171	68.46
212.39	68.21
212.608	77.07
212.826	87.74
213.044	103.23
213.262	97.89
213.48	78.29
213.698	57.6
213.916	24.78
214.134	-4.82
214.352	17.47
214.57	44.24
214.788	47.57
215.006	248.82
215.224	152.71
215.442	250.91
215.66	149.19
215.878	233.06
216.096	277.44
216.314	351.31
216.532	388.91
216.75	615.77
216.968	-76.15
217.185	-426.35
217.403	-289.39
217.621	-2183.94
217.839	160.14
218.057	94.31
218.275	73.2
218.492	74.76
218.71	72.56
218.928	53.95
219.146	47.94
219.363	49.49
219.581	51.04
219.799	53.83
220.017	36.77
220.234	58.54
220.452	62.71
220.67	72.95
220.887	76.03
221.105	75.32
221.323	63.17
221.54	66.44
221.758	66
221.976	54.93
222.193	52.07
222.411	48.88
222.629	40.07
222.846	31.04
223.064	45.72
223.281	33.26
223.499	17.81
223.716	42.41
223.934	37.78
224.151	30.98
224.369	25.75
224.586	28.3
224.804	41.34
225.021	54.43
225.239	49.86
225.456	38.47
225.674	39
225.891	48.87
226.108	37.42
226.326	36.51
226.543	39.34
226.76	50.65
226.978	40.92
227.195	30.64
227.413	14.52
227.63	14.5
227.847	14.21
228.064	14.14
228.282	9.32
228.499	11.38
228.716	11.53
228.934	10.55
229.151	11.86
229.368	9.9
229.585	8.83
229.802	9.13
230.02	9.22
230.237	8.07
230.454	7.73
230.671	8.08
230.888	8.59
231.105	5.98
231.323	6.92
231.54	4.09
231.757	5.45
231.974	6.95
232.191	10.64
232.408	11.02
232.625	12.08
232.842	16.91
233.059	17.53
233.276	20.34
233.493	21.93
233.71	24.01
233.927	23.64
234.144	23.89
234.361	20.9
234.578	18.71
234.795	16.9
235.012	18.15
235.229	9.89
235.446	14.08
235.663	5.86
235.879	4.02
236.096	-0.88
236.313	-2.22
236.53	-2.79
236.747	0.84
236.964	3.58
237.181	3.86
237.397	1.22
237.614	5.61
237.831	7.18
238.048	16.93
238.264	18.66
238.481	21.48
238.698	21.26
238.915	28.38
239.131	26.56
239.348	25.54
239.565	29.28
239.781	29.41
239.998	28.8
240.215	27.65
240.431	22.09
240.648	20.96
240.865	19.81
241.081	19.33
241.298	16.97
241.514	14.89
241.731	13.22
241.947	13.35
242.164	12.36
242.38	12.25
242.597	11.5
242.814	12.11
243.03	11.99
243.246	11.66
243.463	10.18
243.679	8.95
243.896	10.25
244.112	10.48
244.329	9.09
244.545	10.32
244.762	11.11
244.978	10.38
245.194	11.08
245.411	11.59
245.627	11.61
245.843	12.17
246.06	13.57
246.276	13.44
246.492	13.21
246.709	13.23
246.925	11.94
247.141	11.22
247.357	10.95
247.574	10.56
247.79	10.3
248.006	10.71
248.222	11.7
248.439	11.19
248.655	10.92
248.871	11.35
249.087	11.05
249.303	11.42
249.519	10.94
249.736	11.38
249.952	11.34
250.168	12.37
250.384	11.84
250.6	11.93
250.816	13.12
251.032	12.6
251.248	13.26
251.464	12.24
251.68	11.82
251.896	12.72
252.112	13.56
252.328	13.39
252.544	12.4
252.76	14
252.976	12.42
253.192	11.8
253.408	11.32
253.624	12.4
253.84	13.5
254.056	13.68
254.272	14.29
254.487	13.37
254.703	14.38
254.919	13.65
255.135	11.55
255.351	12.29
255.567	12.01
255.782	12.23
255.998	9.86
256.214	8.09
256.43	8.09
256.646	9.71
256.861	10.83
257.077	10.31
257.293	10.76
257.508	12.62
257.724	13.86
257.94	13.32
258.155	14.12
258.371	13.35
258.587	13.22
258.802	12.25
259.018	11.2
259.234	11.08
259.449	11.15
259.665	10.89
259.88	9.92
260.096	9.26
260.312	8.71
260.527	8.76
260.743	8.66
260.958	8.89
261.174	9.02
261.389	8.54
261.605	8.76
261.82	7.75
262.036	7.9
262.251	8.17
262.466	8.63
262.682	8.54
262.897	8.06
263.113	6.9
263.328	7.64
263.543	7.95
263.759	8.48
263.974	7.5
264.189	9.86
264.405	10.02
264.62	9.24
264.835	9.21
265.051	7.69
265.266	8.27
265.481	8.61
265.696	6.9
265.912	6.85
266.127	7.04
266.342	7.61
266.557	7.9
266.773	7.89
266.988	7.09
267.203	7.15
267.418	9.13
267.633	7.02
267.848	7.25
268.064	8.22
268.279	7.95
268.494	7.9
268.709	7.17
268.924	4.71
269.139	4.6
269.354	5.2
269.569	5.05
269.784	5.03
269.999	5.63
270.214	7.16
270.429	6.56
270.644	6.65
270.859	5.67
271.074	5.53
271.289	7.85
271.504	7.62
271.719	9.05
271.934	8.89
272.149	9.33
272.363	9.79
272.578	9.41
272.793	9.91
273.008	9.18
273.223	10.45
273.438	11.61
273.653	10.15
273.867	10.4
274.082	9.09
274.297	9.71
274.512	8.46
274.726	8.79
274.941	8.08
275.156	6.59
275.371	7.14
275.585	6.76
275.8	5.21
276.015	6.82
276.229	7.73
276.444	8.98
276.659	8.16
276.873	8.26
277.088	8.29
277.302	8.55
277.517	9.67
277.732	10.71
277.946	10.88
278.161	12.24
278.375	11.67
278.59	9.76
278.804	9.37
279.019	9.2
279.233	9.58
279.448	10.62
279.662	11.69
279.877	10.89
280.091	10.37
280.306	9.53
280.52	8.62
280.735	8.89
280.949	9.7
281.163	8.96
281.378	9.05
281.592	9.89
281.806	9.04
282.021	8.57
282.235	8.62
282.449	9.05
282.664	10.03
282.878	10.19
283.092	9.68
283.307	10.46
283.521	11.15
283.735	11.39
283.949	10.5
284.164	10.66
284.378	9.29
284.592	8.77
284.806	8.63
285.02	8.59
285.234	8.24
285.449	8.08
285.663	7.37
285.877	7.27
286.091	7.24
286.305	7.49
286.519	8.07
286.733	8.73
286.947	9.08
287.161	7.94
287.375	7.67
287.589	7.31
287.803	7.39
288.017	7.62
288.231	7.31
288.445	6.98
288.659	7.16
288.873	6.12
289.087	5.84
289.301	6.9
289.515	7.83
289.729	6.99
289.943	7.73
290.157	8.12
290.371	8.39
290.584	7.29
290.798	7.41
291.012	7.67
291.226	7.34
291.44	8.27
291.654	7.01
291.867	6.81
292.081	6.9
292.295	6.48
292.509	6.04
292.722	6.31
292.936	7.71
293.15	7.46
293.364	7.9
293.577	9.17
293.791	8.26
294.005	8.65
294.218	9.12
294.432	9.29
294.645	8.67
294.859	8.34
295.073	7.39
295.286	8.08
295.5	7.86
295.713	7.05
295.927	6.71
296.14	6.4
296.354	6.39
296.568	6.71
296.781	7.29
296.994	8.42
297.208	7.93
297.421	8.93
297.635	9.23
297.848	9.92
298.062	10.44
298.275	10.46
298.489	11.26
298.702	12.27
298.915	12.22
299.129	12.01
299.342	11.44
299.555	12.42
299.769	11.79
299.982	10.43
300.195	9.97
300.409	9.74
300.622	8.18
300.835	7.82
301.048	7.39
301.262	6.86
301.475	6.26
301.688	5.54
301.901	5.88
302.115	5.87
302.328	6.59
302.541	5.84
302.754	5.99
302.967	7.39
303.18	7.44
303.393	6.33
303.607	6.91
303.82	7.32
304.033	8.72
304.246	8.78
304.459	8.54
304.672	8.27
304.885	9.09
305.098	7.92
305.311	8.24
305.524	7.78
305.737	8.74
305.95	8.28
306.163	8.3
306.376	8.66
306.589	9
306.802	8.37
307.015	7.52
307.228	8.25
307.44	8.61
307.653	8.1
307.866	8.81
308.079	8.43
308.292	8.57
308.505	8.7
308.718	6.91
308.93	6.03
309.143	6.42
309.356	6.63
309.569	6.38
309.781	7.49
309.994	7.2
310.207	6.62
310.42	7.06
310.632	7.34
310.845	7.6
311.058	9
311.27	9.44
311.483	9.14
311.696	9.47
311.908	9.81
312.121	8.64
312.333	9.06
312.546	9.02
312.759	9.08
312.971	9.26
313.184	8.93
313.396	8.47
313.609	8.22
313.821	9.04
314.034	9.02
314.246	8.49
314.459	8.98
314.671	9.96
314.884	10.29
315.096	9.06
315.309	8.56
315.521	8.72
315.733	8.56
315.946	9.11
316.158	9.37
316.371	9.29
316.583	9.29
316.795	8.12
317.008	5.73
317.22	5.9
317.432	6.48
317.644	7.12
317.857	5.87
318.069	5.65
318.281	4.94
318.494	5.61
318.706	5.49
318.918	5.07
319.13	6.24
319.342	6.49
319.555	6.24
319.767	6.54
319.979	5.22
320.191	6.75
320.403	7.78
320.615	7.41
320.827	6.07
321.039	5.42
321.252	5.17
321.464	5.14
321.676	6.42
321.888	6.26
322.1	6.27
322.312	6.96
322.524	6.85
322.736	6.05
322.948	7.71
323.16	8.1
323.372	7.81
323.584	7.95
323.796	8.18
324.007	8.04
324.219	8.36
324.431	7.52
324.643	7.41
324.855	7.72
325.067	7.92
325.279	6.56
325.491	6.57
325.702	7.97
325.914	7
326.126	7.65
326.338	8.06
326.55	8.51
326.761	9.26
326.973	9.36
327.185	9.08
327.396	9.4
327.608	9.85
327.82	9.76
328.032	8.92
328.243	11.23
328.455	10.8
328.666	11.01
328.878	10.33
329.09	11.24
329.301	11.8
329.513	11.48
329.725	10.19
329.936	9.65
330.148	9.62
330.359	10.29
330.571	9.73
330.782	9.58
330.994	9.95
331.205	10.35
331.417	10.09
331.628	9.35
331.84	9.44
332.051	10.18
332.262	11.85
332.474	12.55
332.685	13.37
332.897	13.45
333.108	13.01
333.319	12.64
333.531	13.07
333.742	12.23
333.953	12.64
334.165	14.21
334.376	14.06
334.587	12.5
334.799	11.6
335.01	9.76
335.221	9.99
335.432	10.5
335.644	9.8
335.855	9.02
336.066	9.56
336.277	8.81
336.488	7.37
336.7	7.17
336.911	7.64
337.122	7.74
337.333	9.02
337.544	7.5
337.755	7.34
337.966	6.85
338.177	6.72
338.388	6.83
338.599	7.06
338.811	7.71
339.022	7
339.233	7.13
339.444	7.9
339.655	7.82
339.866	9.21
340.076	8.89
340.287	9.71
340.498	10.04
340.709	9.83
340.92	10.03
341.131	8.87
341.342	10.29
341.553	10.55
341.764	9.77
341.975	9.72
342.185	9.11
342.396	9.15
342.607	9.14
342.818	8.81
343.029	9.16
343.239	8.98
343.45	9.61
343.661	9.45
343.872	9.68
344.082	9.66
344.293	10
344.504	10.36
344.714	10.81
344.925	10.62
345.136	10.52
345.346	10.5
345.557	10.69
345.768	10.74
345.978	10.16
346.189	9.38
346.399	9.72
346.61	9.3
346.821	8.87
347.031	8.68
347.242	9.14
347.452	9.58
347.663	9.67
347.873	9.32
348.084	9.61
348.294	9.86
348.504	9.88
348.715	10.13
348.925	10.6
349.136	10.73
349.346	10.71
349.557	10.73
349.767	10.68
349.977	10.58
350.188	10.91
350.398	10.43
350.608	10.71
350.819	11.18
351.029	10.47
351.239	10.63
351.449	10.33
351.66	9.78
351.87	9.56
352.08	9.31
352.29	9.73
352.501	9.54
352.711	10.02
352.921	9.77
353.131	8.81
353.341	8.65
353.552	8.56
353.762	8.27
353.972	9.35
354.182	9.15
354.392	9.12
354.602	7.96
354.812	8
355.022	7.2
355.232	7.23
355.442	8.27
355.652	8.5
355.862	7.99
356.072	8.29
356.282	7.96
356.492	7.78
356.702	7.91
356.912	8.37
357.122	8.2
357.332	8.58
357.542	8.56
357.752	8.16
357.962	8.21
358.171	8.35
358.381	8.61
358.591	8.46
358.801	8.41
359.011	8.14
359.221	7.98
359.43	8.01
359.64	7.96
359.85	7.87
360.06	7.85
360.269	7.82
360.479	7.54
360.689	7.31
360.899	6.88
361.108	7.3
361.318	7.36
361.528	7.38
361.737	7.61
361.947	7.45
362.156	7.79
362.366	7.82
362.576	7.74
362.785	7.58
362.995	7.77
363.204	8.24
363.414	7.85
363.623	7.86
363.833	7.85
364.042	7.77
364.252	8.05
364.461	7.46
364.671	7.41
364.88	7.88
365.09	8.34
365.299	8.09
365.509	8.12
365.718	8.54
365.927	8.72
366.137	8.7
366.346	8.9
366.555	8.89
366.765	9.12
366.974	9.28
367.183	8.65
367.393	8.01
367.602	8.7
367.811	8.91
368.021	8.84
368.23	8.38
368.439	8.14
368.648	7.63
368.857	8.08
369.067	7.96
369.276	8.27
369.485	8.14
369.694	8.1
369.903	7.65
370.112	7.48
370.321	7.01
370.531	7.53
370.74	7.79
370.949	7.99
371.158	7.68
371.367	7.62
371.576	7.08
371.785	7.35
371.994	7.86
372.203	7.83
372.412	7.42
372.621	7.54
372.83	7.59
373.039	7.69
373.248	7.96
373.457	7.72
373.666	8.11
373.874	8.06
374.083	7.9
374.292	7.96
374.501	8.06
374.71	8.42
374.919	8.11
375.128	7.82
375.336	7.37
375.545	7.03
375.754	6.78
375.963	6.69
376.171	6.35
376.38	6.26
376.589	6.08
376.798	5.7
377.006	5.63
377.215	5.85
377.424	5.81
377.632	6.3
377.841	6.44
378.05	6.63
378.258	6.59
378.467	6.74
378.675	6.91
378.884	6.62
379.093	6.74
379.301	6.97
379.51	7.23
379.718	7.3
379.927	6.9
380.135	6.97
380.344	6.8
380.552	6.88
380.761	6.71
380.969	6.7
381.177	6.86
381.386	6.67
381.594	6.35
381.803	6.13
382.011	6.16
382.219	6.23
382.428	5.87
382.636	5.93
382.845	5.78
383.053	6.23
383.261	6.22
383.469	6.63
383.678	6.79
383.886	6.92
384.094	7.26
384.302	7.41
384.511	6.98
384.719	6.97
384.927	7
385.135	7.3
385.343	7.17
385.552	7.01
385.76	6.41
385.968	6.26
386.176	6.35
386.384	6.05
386.592	5.79
386.8	6.15
387.008	6.06
387.216	5.92
387.424	5.92
387.633	6.13
387.841	6.41
388.049	6.75
388.257	6.65
388.465	6.48
388.672	6.34
388.88	6.48
389.088	6.5
389.296	6.64
389.504	6.78
389.712	6.2
389.92	6.02
390.128	5.71
390.336	5.39
390.544	5.59
390.751	5.57
390.959	5.41
391.167	5.5
391.375	5.23
391.583	5.02
391.79	4.82
391.998	5.14
392.206	5.05
392.414	5.29
392.621	5.31
392.829	5.08
393.037	5.17
393.244	5.33
393.452	5.04
393.66	5.42
393.867	5.72
394.075	5.79
394.283	5.44
394.49	5.55
394.698	5.62
394.905	5.67
395.113	5.93
395.32	6.05
395.528	6.27
395.735	6.51
395.943	6.32
396.15	6.13
396.358	6.23
396.565	6.35
396.773	6.08
396.98	5.87
397.188	6.23
397.395	5.97
397.602	5.77
397.81	5.57
398.017	5.3
398.225	5.41
398.432	5.35
398.639	5.31
398.847	5.41
399.054	5.3
399.261	5.3
399.468	5.03
399.676	5.43
399.883	5.33
400.09	5.22
400.297	5.68
400.505	5.48
400.712	5.79
400.919	5.73
401.126	6.01
401.333	6.26
401.54	6.21
401.748	6.37
401.955	6.13
402.162	6.06
402.369	6.55
402.576	6.27
402.783	6.04
402.99	5.9
403.197	5.88
403.404	5.31
403.611	5.42
403.818	5.46
404.025	5.44
404.232	5.15
404.439	5.32
404.646	5
404.853	5.12
405.06	5.23
405.267	5.48
405.474	5.63
405.681	5.88
405.887	5.87
406.094	5.74
406.301	5.62
406.508	5.96
406.715	5.68
406.922	5.34
407.128	4.96
407.335	5.04
407.542	4.68
407.749	4.54
407.955	4.75
408.162	4.84
408.369	5.08
408.575	5.2
408.782	4.98
408.989	5.19
409.195	5.57
409.402	5.77
409.609	5.81
409.815	5.79
410.022	5.73
410.228	5.59
410.435	5.43
410.642	5.35
410.848	5.24
411.055	4.97
411.261	5.16
411.468	5.13
411.674	5.23
411.881	5.47
412.087	5.5
412.294	5.74
412.5	5.34
412.706	5.22
412.913	5.28
413.119	5.22
413.326	5.52
413.532	5.45
413.738	5.25
413.945	5.07
414.151	5
414.357	5.32
414.564	5.12
414.77	5.55
414.976	5.54
415.182	5.42
415.389	5.47
415.595	5.44
415.801	5.28
416.007	5.49
416.214	5.53
416.42	5.38
416.626	5.16
416.832	5.27
417.038	5.13
417.244	5
417.45	5.03
417.657	4.99
417.863	5.22
418.069	5.23
418.275	5.24
418.481	5.33
418.687	5.19
418.893	5.24
419.099	5.15
419.305	5.16
419.511	5.23
419.717	5.05
419.923	4.95
420.129	4.71
420.335	4.62
420.541	4.51
420.746	4.32
420.952	4.44
421.158	4.37
421.364	4.37
421.57	4.38
421.776	4.51
421.982	4.63
422.187	4.91
422.393	4.89
422.599	4.94
422.805	4.89
423.01	4.96
423.216	4.9
423.422	4.83
423.628	4.79
423.833	4.65
424.039	4.6
424.245	4.52
424.45	4.39
424.656	4.48
424.862	4.48
425.067	4.41
425.273	4.45
425.478	4.53
425.684	4.65
425.889	4.74
426.095	4.92
426.301	4.89
426.506	5.06
426.712	5.09
426.917	5.19
427.123	5.31
427.328	5.31
427.533	5.27
427.739	5.4
427.944	5.36
428.15	5.12
428.355	4.82
428.561	4.69
428.766	4.63
428.971	4.51
429.177	4.37
429.382	4.27
429.587	4.4
429.793	4.43
429.998	4.28
430.203	4.23
430.408	4.34
430.614	4.69
430.819	4.57
431.024	4.62
431.229	4.51
431.434	4.5
431.64	4.47
431.845	4.61
432.05	4.6
432.255	4.44
432.46	4.46
432.665	4.67
432.87	4.55
433.076	4.73
433.281	4.58
433.486	4.7
433.691	4.72
433.896	4.64
434.101	4.53
434.306	4.49
434.511	4.62
434.716	4.69
434.921	4.55
435.126	4.63
435.331	4.49
435.535	4.62
435.74	4.58
435.945	4.69
436.15	4.66
436.355	4.84
436.56	4.79
436.765	4.82
436.97	4.64
437.174	4.52
437.379	4.37
437.584	4.24
437.789	4.2
437.993	4.12
438.198	4.09
438.403	4.01
438.608	4.12
438.812	4.14
439.017	4.09
439.222	4.27
439.426	4.38
439.631	4.39
439.836	4.58
440.04	4.53
440.245	4.71
440.45	4.61
440.654	4.82
440.859	4.66
441.063	4.83
441.268	4.79
441.472	4.7
441.677	4.58
441.881	4.62
442.086	4.46
442.29	4.51
442.495	4.32
442.699	4.4
442.904	4.32
443.108	4.35
443.312	4.17
443.517	4.1
443.721	4.18
443.925	4.39
444.13	4.51
444.334	4.72
444.538	4.79
444.743	4.94
444.947	4.96
445.151	4.92
445.356	4.94
445.56	5.04
445.764	5.1
445.968	4.98
446.173	4.94
446.377	4.82
446.581	4.75
446.785	4.65
446.989	4.59
447.193	4.47
447.398	4.41
447.602	4.31
447.806	4.21
448.01	4.14
448.214	4.11
448.418	3.95
448.622	4.05
448.826	4.18
449.03	4.13
449.234	3.98
449.438	3.98
449.642	4.03
449.846	4.06
450.05	4.06
450.254	4.12
450.458	4.15
450.662	4.21
450.866	4.03
451.069	3.87
451.273	3.95
451.477	3.97
451.681	3.96
451.885	3.94
452.089	4.05
452.292	4.09
452.496	4.07
452.7	4
452.904	4.04
453.107	4.05
453.311	4.27
453.515	4.19
453.719	4.32
453.922	4.45
454.126	4.36
454.33	4.34
454.533	4.19
454.737	4.13
454.94	4.26
455.144	4.28
455.348	4.39
455.551	4.36
455.755	4.33
455.958	4.43
456.162	4.31
456.365	4.48
456.569	4.45
456.772	4.53
456.976	4.69
457.179	4.77
457.383	4.79
457.586	4.74
457.79	4.71
457.993	4.8
458.196	4.62
458.4	4.71
458.603	4.59
458.807	4.58
459.01	4.56
459.213	4.57
459.417	4.44
459.62	4.41
459.823	4.34
460.026	4.24
460.23	4.22
460.433	4.2
460.636	4.23
460.839	4.13
461.042	4.18
461.246	4.18
461.449	4.14
461.652	4.23
461.855	4.26
462.058	4.36
462.261	4.4
462.464	4.45
462.668	4.55
462.871	4.43
463.074	4.44
463.277	4.24
463.48	4.3
463.683	4.24
463.886	4.33
464.089	4.32
464.292	4.34
464.495	4.51
464.698	4.41
464.901	4.35
465.104	4.38
465.306	4.67
465.509	4.89
465.712	4.7
465.915	4.71
466.118	4.59
466.321	4.54
466.524	4.44
466.726	4.23
466.929	4.33
467.132	4.34
467.335	4.41
467.538	4.3
467.74	4.18
467.943	4.33
468.146	4.27
468.348	4.17
468.551	4.08
