Data from LC_273_Reflection_3.txt Node
Date: Sat Nov 21 12:16:27 EST 2015
User: robert
Spectrometer: USB4E03001
Autoset integration time: false
Trigger mode: 4
Integration Time (sec): 1.000000E-1
Scans to average: 15
Electric dark correction enabled: true
Nonlinearity correction enabled: false
Boxcar width: 5
Stray light correction enabled: false
XAxis mode: Wavelengths
Stop averaging: false
Number of Pixels in Spectrum: 3648
>>>>>Begin Spectral Data<<<<<
177.566	-129.09
177.785	-81.56
178.005	-320.81
178.225	89.83
178.445	243.15
178.665	-66.47
178.885	373.2
179.105	324.49
179.324	132.76
179.544	248.85
179.764	1306.37
179.984	136.38
180.204	140.39
180.423	104.72
180.643	92.51
180.863	127.39
181.083	101.31
181.302	141.48
181.522	158.51
181.742	175.54
181.961	125.67
182.181	100.35
182.401	196.26
182.621	203.17
182.84	238.06
183.06	192.53
183.279	159.73
183.499	159.41
183.719	125.63
183.938	105.67
184.158	111.49
184.377	119.5
184.597	126.8
184.816	121.05
185.036	100.5
185.256	108.25
185.475	102.91
185.695	105.72
185.914	95.96
186.134	114.2
186.353	123.42
186.572	124.18
186.792	116.23
187.011	113.93
187.231	113.1
187.45	108.06
187.67	110.6
187.889	122
188.108	148.32
188.328	180.09
188.547	154.44
188.766	128.41
188.986	139.78
189.205	140
189.424	90.95
189.644	123.6
189.863	6.2
190.082	30.83
190.302	-178.46
190.521	-42.74
190.74	-16.84
190.959	-1.05
191.178	18.67
191.398	19.14
191.617	40.42
191.836	34.81
192.055	8.05
192.274	35.51
192.494	44
192.713	55.58
192.932	64.31
193.151	65.91
193.37	67.92
193.589	75.44
193.808	105.27
194.027	107.24
194.246	121.42
194.465	129.76
194.685	123.49
194.904	121.67
195.123	121.3
195.342	153.17
195.561	178.7
195.78	133.75
195.999	157.54
196.218	150.37
196.436	176.3
196.655	154.34
196.874	152.47
197.093	165.72
197.312	176.34
197.531	185.64
197.75	135.2
197.969	108.6
198.188	127.21
198.407	141.4
198.625	128.48
198.844	119.88
199.063	132.13
199.282	121.51
199.501	128.48
199.719	115.71
199.938	101.99
200.157	101.81
200.376	132.06
200.594	157.61
200.813	113.14
201.032	122.98
201.251	107.13
201.469	105.6
201.688	166.76
201.907	151.79
202.125	130.59
202.344	129.61
202.563	178.19
202.781	154.34
203	151.7
203.218	140.11
203.437	219.73
203.656	441.31
203.874	407.41
204.093	127.35
204.311	108.4
204.53	125.36
204.748	106.72
204.967	118.23
205.185	90.55
205.404	72.54
205.622	274.32
205.841	158.76
206.059	106.02
206.278	120.16
206.496	164.52
206.715	282.98
206.933	215.1
207.151	219.96
207.37	161.63
207.588	244.9
207.806	227.46
208.025	116.11
208.243	115.45
208.461	96.34
208.68	92
208.898	121.2
209.116	94.73
209.335	104.66
209.553	107.96
209.771	98.63
209.989	101.79
210.208	104.9
210.426	122.2
210.644	102.6
210.862	187.67
211.081	123.02
211.299	56.59
211.517	104.21
211.735	89.87
211.953	68.36
212.171	87.9
212.39	91.45
212.608	83.16
212.826	88.91
213.044	98.3
213.262	87.32
213.48	95.89
213.698	105.33
213.916	113.28
214.134	112.76
214.352	123
214.57	111.68
214.788	115.52
215.006	119.15
215.224	104.86
215.442	112.71
215.66	140.07
215.878	131.65
216.096	156.06
216.314	150.31
216.532	146.85
216.75	132.94
216.968	151.34
217.185	126.25
217.403	147.77
217.621	150.72
217.839	136.26
218.057	121.81
218.275	122.94
218.492	102.68
218.71	95.45
218.928	103.16
219.146	121.12
219.363	118.93
219.581	204.78
219.799	128.56
220.017	111.48
220.234	129.98
220.452	129.81
220.67	110.13
220.887	114.19
221.105	113.61
221.323	112.98
221.54	94.54
221.758	61.65
221.976	60.54
222.193	70.49
222.411	70.83
222.629	52.78
222.846	53.46
223.064	66.98
223.281	65.33
223.499	59.6
223.716	65.64
223.934	60.34
224.151	72.93
224.369	64.02
224.586	74.98
224.804	67.53
225.021	81.45
225.239	65.37
225.456	60.79
225.674	65.52
225.891	63.69
226.108	58.14
226.326	57.56
226.543	51.23
226.76	48.9
226.978	40.63
227.195	35.43
227.413	28.91
227.63	31.53
227.847	29.1
228.064	23.62
228.282	21.27
228.499	23.08
228.716	23.02
228.934	20.49
229.151	20.03
229.368	17.74
229.585	19.43
229.802	21.61
230.02	20.23
230.237	20.18
230.454	22.36
230.671	21.01
230.888	18.78
231.105	18.83
231.323	20.75
231.54	22.62
231.757	24.83
231.974	26.02
232.191	21.03
232.408	24.63
232.625	25.22
232.842	25.76
233.059	27.78
233.276	32.51
233.493	37.44
233.71	41.13
233.927	37.4
234.144	38.47
234.361	36.45
234.578	37.95
234.795	34.82
235.012	33.28
235.229	30.4
235.446	29.18
235.663	27.88
235.879	21.41
236.096	16.06
236.313	19.59
236.53	18.59
236.747	20.23
236.964	20.46
237.181	24.38
237.397	24.58
237.614	24.42
237.831	26.65
238.048	22.16
238.264	21.28
238.481	17.97
238.698	18.17
238.915	17.19
239.131	11.06
239.348	15.29
239.565	13.2
239.781	15.2
239.998	16.8
240.215	13.86
240.431	9.52
240.648	12.38
240.865	16.72
241.081	12.51
241.298	12.43
241.514	15.71
241.731	13.57
241.947	14.51
242.164	14.54
242.38	13.53
242.597	14.25
242.814	16.19
243.03	16.5
243.246	16.38
243.463	16.91
243.679	18.05
243.896	19.45
244.112	20.35
244.329	20.45
244.545	19.63
244.762	20.85
244.978	20.87
245.194	19.87
245.411	18.74
245.627	16.18
245.843	14.1
246.06	11.65
246.276	9.42
246.492	9.47
246.709	8.43
246.925	9.12
247.141	9.14
247.357	8.69
247.574	8.4
247.79	7.43
248.006	8.23
248.222	9.16
248.439	10.23
248.655	10.97
248.871	11.38
249.087	12.98
249.303	13.12
249.519	13.09
249.736	14.47
249.952	15.98
250.168	19.05
250.384	19.39
250.6	19.63
250.816	19.83
251.032	20.34
251.248	20.25
251.464	19.8
251.68	18.47
251.896	18.35
252.112	18.06
252.328	16.49
252.544	16.87
252.76	16.52
252.976	17.13
253.192	16.45
253.408	16.31
253.624	16.05
253.84	16.3
254.056	17.23
254.272	15.74
254.487	14.73
254.703	14.79
254.919	13.18
255.135	13.46
255.351	13.65
255.567	12.91
255.782	10.51
255.998	10.77
256.214	7.97
256.43	9.36
256.646	10.6
256.861	10.79
257.077	13.45
257.293	15.18
257.508	14.93
257.724	14.02
257.94	15.18
258.155	14.95
258.371	14.48
258.587	14.15
258.802	13.12
259.018	12.71
259.234	12.14
259.449	10.59
259.665	9.47
259.88	9.91
260.096	9.59
260.312	9.78
260.527	9.63
260.743	9.62
260.958	9.74
261.174	9.11
261.389	9.75
261.605	10.17
261.82	11.63
262.036	12.83
262.251	12.05
262.466	13.04
262.682	12.28
262.897	11.04
263.113	10.15
263.328	11
263.543	12.57
263.759	12.58
263.974	13.38
264.189	13.9
264.405	13.78
264.62	16.56
264.835	16.79
265.051	17.13
265.266	20.16
265.481	20.32
265.696	20.5
265.912	19.71
266.127	18.61
266.342	16.99
266.557	15.51
266.773	13.82
266.988	13
267.203	11.66
267.418	10.39
267.633	10.1
267.848	9.77
268.064	8.06
268.279	8.64
268.494	8.86
268.709	9.86
268.924	10.27
269.139	10.08
269.354	9.45
269.569	9.62
269.784	11.45
269.999	10.46
270.214	11.22
270.429	12.39
270.644	11.08
270.859	10.81
271.074	9.7
271.289	8.56
271.504	9.61
271.719	8.42
271.934	9.58
272.149	8.68
272.363	8.71
272.578	7.41
272.793	6.95
273.008	8.07
273.223	8.77
273.438	9.34
273.653	11.87
273.867	12.26
274.082	13.47
274.297	12.21
274.512	12.2
274.726	13.48
274.941	14.82
275.156	16.02
275.371	15.89
275.585	15.38
275.8	14.71
276.015	11.88
276.229	9.99
276.444	10.63
276.659	11.27
276.873	12.29
277.088	13.09
277.302	12.45
277.517	12.09
277.732	11.32
277.946	11.42
278.161	11.55
278.375	11.98
278.59	13.08
278.804	12.09
279.019	12.62
279.233	12.56
279.448	10.49
279.662	10.58
279.877	8.71
280.091	9.63
280.306	8.33
280.52	8.62
280.735	9.44
280.949	8.53
281.163	8.05
281.378	7.21
281.592	5.83
281.806	6.22
282.021	6.11
282.235	6.87
282.449	6.34
282.664	6.05
282.878	5.47
283.092	6.15
283.307	7
283.521	7.12
283.735	7.08
283.949	8.29
284.164	7.27
284.378	7.99
284.592	7.1
284.806	7.85
285.02	8.99
285.234	8.95
285.449	7.42
285.663	8.09
285.877	8.25
286.091	9.45
286.305	9.39
286.519	10.11
286.733	10.26
286.947	11.76
287.161	11.82
287.375	11.88
287.589	12.81
287.803	13.3
288.017	12.7
288.231	12.82
288.445	11.8
288.659	11.59
288.873	11.62
289.087	11.25
289.301	10.7
289.515	10.3
289.729	10.53
289.943	9.7
290.157	9.65
290.371	10.28
290.584	10.71
290.798	10.9
291.012	10.19
291.226	10.94
291.44	10.53
291.654	10.88
291.867	10.49
292.081	10.39
292.295	11.65
292.509	12.47
292.722	11.98
292.936	11.96
293.15	11.08
293.364	11.63
293.577	9.97
293.791	10.69
294.005	10.24
294.218	10.16
294.432	10.2
294.645	10.04
294.859	9.17
295.073	8.91
295.286	8.73
295.5	10.05
295.713	10.2
295.927	10.22
296.14	10.02
296.354	9.98
296.568	10.57
296.781	10.4
296.994	10.31
297.208	10.22
297.421	10.25
297.635	10.09
297.848	9.08
298.062	9.74
298.275	10.49
298.489	10.31
298.702	11.08
298.915	10.52
299.129	10.38
299.342	9.15
299.555	9.87
299.769	10.62
299.982	10.75
300.195	11.88
300.409	10.81
300.622	10.74
300.835	11.62
301.048	11.48
301.262	11.64
301.475	11.72
301.688	12.41
301.901	12.08
302.115	11.35
302.328	11.75
302.541	11.56
302.754	11.9
302.967	12.03
303.18	11.47
303.393	11.17
303.607	10.9
303.82	11.43
304.033	10.66
304.246	12.04
304.459	12.4
304.672	12.86
304.885	13.32
305.098	13.38
305.311	13.32
305.524	13.23
305.737	12.84
305.95	13.03
306.163	12.07
306.376	13.4
306.589	11.71
306.802	12.29
307.015	10.51
307.228	10.58
307.44	11.03
307.653	11.45
307.866	12.86
308.079	12.85
308.292	12.7
308.505	13.44
308.718	14.23
308.93	15.15
309.143	13.31
309.356	14.21
309.569	13.29
309.781	13.85
309.994	13.27
310.207	12.84
310.42	12.7
310.632	13.22
310.845	12.98
311.058	12.25
311.27	12.18
311.483	13.23
311.696	13.48
311.908	14.71
312.121	12.99
312.333	13.81
312.546	13.71
312.759	14.13
312.971	15
313.184	15.83
313.396	16.07
313.609	14.76
313.821	14.99
314.034	15.49
314.246	14.46
314.459	16.83
314.671	16.1
314.884	16.03
315.096	16.82
315.309	15.07
315.521	14.13
315.733	15.27
315.946	16.01
316.158	15.07
316.371	15.65
316.583	16.23
316.795	15.65
317.008	16.47
317.22	16.37
317.432	15.89
317.644	17.13
317.857	17.12
318.069	14.93
318.281	15.15
318.494	16.46
318.706	15.32
318.918	15.53
319.13	14.36
319.342	14.05
319.555	13.76
319.767	13.56
319.979	13.34
320.191	14.18
320.403	15.73
320.615	15.6
320.827	15.44
321.039	15.82
321.252	15.06
321.464	15.47
321.676	14.63
321.888	15.99
322.1	15.82
322.312	16.66
322.524	16.21
322.736	15.87
322.948	18.02
323.16	17.79
323.372	17.94
323.584	18.97
323.796	20.54
324.007	21.26
324.219	20.74
324.431	21.12
324.643	20.19
324.855	20.2
325.067	21.26
325.279	20.83
325.491	20.84
325.702	20.74
325.914	20.47
326.126	19.07
326.338	18.26
326.55	19.28
326.761	19.63
326.973	20.97
327.185	22.27
327.396	21.66
327.608	21.07
327.82	21.49
328.032	22.3
328.243	22.44
328.455	24.44
328.666	25.98
328.878	26.25
329.09	26.43
329.301	27.17
329.513	27.45
329.725	29.27
329.936	30.75
330.148	31.48
330.359	31.66
330.571	32.57
330.782	32.14
330.994	33.6
331.205	33.52
331.417	34.17
331.628	35.02
331.84	35.35
332.051	34.93
332.262	34.84
332.474	35.77
332.685	35.94
332.897	35.87
333.108	36.16
333.319	35.84
333.531	36.38
333.742	36.13
333.953	35.94
334.165	35.69
334.376	35.33
334.587	35.21
334.799	35.27
335.01	35.62
335.221	35.83
335.432	36.75
335.644	36.52
335.855	37.08
336.066	38.65
336.277	38.4
336.488	38.38
336.7	38.28
336.911	39.03
337.122	38.7
337.333	39.06
337.544	39.26
337.755	38.77
337.966	39.12
338.177	38.93
338.388	38.12
338.599	38.06
338.811	38.32
339.022	38.76
339.233	37.71
339.444	37.98
339.655	37.68
339.866	37.06
340.076	36.94
340.287	36.81
340.498	37.47
340.709	37.21
340.92	37.4
341.131	37.29
341.342	37.24
341.553	37.59
341.764	36.89
341.975	36.54
342.185	36.68
342.396	37.18
342.607	37.21
342.818	36.44
343.029	36.75
343.239	36.68
343.45	35.29
343.661	35.54
343.872	35.19
344.082	35.69
344.293	36.08
344.504	36.33
344.714	35.97
344.925	35.58
345.136	35.27
345.346	35.16
345.557	34.8
345.768	35.85
345.978	35.43
346.189	35.95
346.399	35.59
346.61	35.61
346.821	35.32
347.031	34.88
347.242	35.29
347.452	35.02
347.663	35.31
347.873	35.34
348.084	35.44
348.294	35.43
348.504	34.59
348.715	34.74
348.925	33.84
349.136	34.04
349.346	34.48
349.557	33.2
349.767	34.07
349.977	33.49
350.188	33.59
350.398	33.82
350.608	33.42
350.819	34.49
351.029	34.49
351.239	34.8
351.449	34.99
351.66	34.84
351.87	36.15
352.08	36.35
352.29	36.15
352.501	35.62
352.711	35.46
352.921	36.16
353.131	36.15
353.341	36.7
353.552	36.49
353.762	35.83
353.972	35.66
354.182	35.72
354.392	34.97
354.602	35.22
354.812	36.4
355.022	35.82
355.232	35.43
355.442	34.92
355.652	34.31
355.862	34.56
356.072	35.21
356.282	34.85
356.492	34.4
356.702	34.11
356.912	34.2
357.122	34.04
357.332	34.03
357.542	33.64
357.752	34.06
357.962	34.23
358.171	34.49
358.381	34.34
358.591	34.5
358.801	34.75
359.011	35.24
359.221	34.63
359.43	34.17
359.64	34.46
359.85	34.85
360.06	34.22
360.269	34.05
360.479	33.58
360.689	33.52
360.899	33.31
361.108	33.05
361.318	32.58
361.528	32.68
361.737	32.52
361.947	32.52
362.156	32.32
362.366	32.45
362.576	32.18
362.785	31.86
362.995	32.07
363.204	32.05
363.414	32.22
363.623	32.21
363.833	32.35
364.042	32.51
364.252	32.64
364.461	32.7
364.671	32.53
364.88	32.68
365.09	33.48
365.299	33.17
365.509	33.04
365.718	32.98
365.927	33.35
366.137	33.02
366.346	32.81
366.555	32.29
366.765	32.68
366.974	32.28
367.183	31.86
367.393	31.78
367.602	31.63
367.811	32.11
368.021	31.85
368.23	31.54
368.439	31.31
368.648	31.19
368.857	31.42
369.067	30.26
369.276	30.64
369.485	31.21
369.694	30.73
369.903	30.49
370.112	30.38
370.321	30.17
370.531	29.77
370.74	29.85
370.949	29.61
371.158	29.73
371.367	30.15
371.576	29.96
371.785	29.92
371.994	29.73
372.203	29.78
372.412	29.61
372.621	29.45
372.83	29.45
373.039	29.2
373.248	29.31
373.457	29.23
373.666	28.61
373.874	27.75
374.083	27.76
374.292	27.74
374.501	27.56
374.71	26.96
374.919	26.34
375.128	26.59
375.336	26.71
375.545	27.01
375.754	26.54
375.963	26.89
376.171	27.36
376.38	26.76
376.589	26.45
376.798	26.03
377.006	26.59
377.215	26.84
377.424	26.97
377.632	27.13
377.841	26.64
378.05	26.75
378.258	26.92
378.467	26.94
378.675	27.06
378.884	27.2
379.093	27.34
379.301	27.09
379.51	27.27
379.718	26.6
379.927	26.26
380.135	26.36
380.344	26.07
380.552	25.58
380.761	25.45
380.969	25.53
381.177	25.29
381.386	25.19
381.594	24.5
381.803	23.95
382.011	24.3
382.219	24.15
382.428	23.93
382.636	23.72
382.845	23.93
383.053	23.89
383.261	23.34
383.469	23.24
383.678	23.03
383.886	23.17
384.094	23.11
384.302	22.48
384.511	22.52
384.719	22.27
384.927	22.5
385.135	22.62
385.343	22.54
385.552	22.86
385.76	23.13
385.968	23.5
386.176	23.73
386.384	24.01
386.592	24.07
386.8	24.03
387.008	24.14
387.216	24.09
387.424	23.88
387.633	23.77
387.841	23.51
388.049	22.97
388.257	22.68
388.465	22.43
388.672	22.48
388.88	22.64
389.088	22.53
389.296	21.94
389.504	21.64
389.712	21.35
389.92	21.04
390.128	20.95
390.336	21.15
390.544	21.02
390.751	20.85
390.959	20.52
391.167	20.37
391.375	20
391.583	20.1
391.79	19.98
391.998	20.07
392.206	20.28
392.414	20.15
392.621	19.99
392.829	19.82
393.037	19.92
393.244	20
393.452	19.74
393.66	19.97
393.867	19.83
394.075	20.06
394.283	19.77
394.49	19.61
394.698	19.65
394.905	19.55
395.113	19.48
395.32	19.27
395.528	18.97
395.735	19
395.943	19.04
396.15	19.23
396.358	18.76
396.565	18.77
396.773	18.57
396.98	18.48
397.188	18.6
397.395	18.38
397.602	18.43
397.81	18.42
398.017	18.15
398.225	17.96
398.432	17.92
398.639	17.83
398.847	17.44
399.054	17.47
399.261	17.64
399.468	17.6
399.676	17.82
399.883	17.93
400.09	18.24
400.297	18.48
400.505	18.31
400.712	18.15
400.919	18.21
401.126	18.75
401.333	18.68
401.54	18.56
401.748	18.47
401.955	18.29
402.162	18.44
402.369	18.32
402.576	18.25
402.783	18.12
402.99	17.83
403.197	18.01
403.404	18
403.611	18.3
403.818	17.99
404.025	17.88
404.232	17.9
404.439	17.43
404.646	17.34
404.853	17.67
405.06	17.75
405.267	18.11
405.474	18.03
405.681	18
405.887	17.74
406.094	17.73
406.301	17.82
406.508	17.85
406.715	17.75
406.922	17.54
407.128	17.57
407.335	17.53
407.542	17.45
407.749	17.66
407.955	17.42
408.162	17.28
408.369	17.59
408.575	17.56
408.782	17.6
408.989	17.97
409.195	18.05
409.402	17.76
409.609	17.88
409.815	17.7
410.022	17.45
410.228	17.49
410.435	17.51
410.642	17.12
410.848	17.26
411.055	17.15
411.261	16.76
411.468	16.74
411.674	16.5
411.881	16.55
412.087	16.58
412.294	16.78
412.5	16.62
412.706	16.69
412.913	16.77
413.119	16.59
413.326	16.92
413.532	17.38
413.738	17.55
413.945	17.92
414.151	17.63
414.357	17.51
414.564	17.46
414.77	17.7
414.976	17.71
415.182	17.67
415.389	17.78
415.595	17.61
415.801	17.3
416.007	17.3
416.214	17.08
416.42	17.31
416.626	17.67
416.832	17.5
417.038	17.38
417.244	17.47
417.45	17.59
417.657	17.46
417.863	17.44
418.069	17.6
418.275	17.5
418.481	17.55
418.687	17.37
418.893	17.07
419.099	17.02
419.305	17.09
419.511	16.94
419.717	16.79
419.923	16.74
420.129	16.72
420.335	16.57
420.541	16.44
420.746	16.25
420.952	16.3
421.158	16.38
421.364	16.37
421.57	16.29
421.776	16.37
421.982	16.44
422.187	16.39
422.393	16.3
422.599	16.22
422.805	16.3
423.01	16.48
423.216	16.41
423.422	16.35
423.628	16.36
423.833	16.27
424.039	16.28
424.245	16.19
424.45	16.3
424.656	16.23
424.862	16.29
425.067	16.15
425.273	16.06
425.478	16.06
425.684	16.08
425.889	16.04
426.095	16.12
426.301	16.14
426.506	16.26
426.712	15.96
426.917	15.95
427.123	15.87
427.328	16
427.533	16.12
427.739	16.15
427.944	16.21
428.15	16.16
428.355	16.21
428.561	16.11
428.766	15.94
428.971	16.3
429.177	16.53
429.382	16.71
429.587	16.49
429.793	16.42
429.998	16.53
430.203	16.4
430.408	16.33
430.614	16.17
430.819	16.17
431.024	16.25
431.229	16.11
431.434	16.04
431.64	15.92
431.845	16.11
432.05	16.18
432.255	16.13
432.46	16.07
432.665	16.2
432.87	16.13
433.076	16.07
433.281	16.09
433.486	16.09
433.691	16.26
433.896	16.21
434.101	16.11
434.306	15.92
434.511	15.72
434.716	15.69
434.921	15.61
435.126	15.71
435.331	15.78
435.535	15.69
435.74	15.7
435.945	15.48
436.15	15.65
436.355	15.9
436.56	16.02
436.765	16.21
436.97	16.33
437.174	16.49
437.379	16.5
437.584	16.58
437.789	16.48
437.993	16.46
438.198	16.45
438.403	16.38
438.608	16.29
438.812	16.19
439.017	16.18
439.222	16.13
439.426	16.06
439.631	16.21
439.836	16.07
440.04	16.17
440.245	16.16
440.45	16.13
440.654	15.94
440.859	15.86
441.063	15.85
441.268	15.82
441.472	15.84
441.677	15.81
441.881	15.67
442.086	15.63
442.29	15.81
442.495	15.68
442.699	15.75
442.904	15.8
443.108	15.76
443.312	15.8
443.517	15.78
443.721	15.8
443.925	15.59
444.13	15.46
444.334	15.49
444.538	15.21
444.743	15.25
444.947	15.05
445.151	15.12
445.356	15.05
445.56	15.13
445.764	15.08
445.968	15.01
446.173	15.13
446.377	15.14
446.581	15.03
446.785	15.05
446.989	15.01
447.193	15.15
447.398	15.2
447.602	15.19
447.806	15.03
448.01	14.98
448.214	14.95
448.418	14.8
448.622	14.67
448.826	14.71
449.03	14.72
449.234	14.82
449.438	14.64
449.642	14.34
449.846	14.52
450.05	14.5
450.254	14.49
450.458	14.24
450.662	14.46
450.866	14.4
451.069	14.34
451.273	14.15
451.477	13.98
451.681	13.92
451.885	13.95
452.089	13.84
452.292	13.98
452.496	14.09
452.7	14.16
452.904	14.02
453.107	14.15
453.311	14.07
453.515	14.01
453.719	14.08
453.922	14.33
454.126	14.34
454.33	14.29
454.533	14.18
454.737	14.01
454.94	14.23
455.144	14.32
455.348	14.27
455.551	14.48
455.755	14.72
455.958	14.83
456.162	14.8
456.365	14.94
456.569	14.82
