Data from LC_219__Reflection_4.txt Node
Date: Thu Nov 19 13:32:17 EST 2015
User: robert
Spectrometer: USB4E03001
Autoset integration time: false
Trigger mode: 4
Integration Time (sec): 1.000000E-1
Scans to average: 15
Electric dark correction enabled: true
Nonlinearity correction enabled: false
Boxcar width: 5
Stray light correction enabled: false
XAxis mode: Wavelengths
Stop averaging: false
Number of Pixels in Spectrum: 3648
>>>>>Begin Spectral Data<<<<<
177.566	330.72
177.785	607.83
178.005	599.89
178.225	290.79
178.445	760.91
178.665	-9500
178.885	105.69
179.105	496.25
179.324	-299.93
179.544	-721.35
179.764	-294.34
179.984	-441.76
180.204	-252.21
180.423	-260.95
180.643	-1696.14
180.863	-1344.32
181.083	-235.68
181.302	-180.81
181.522	-164.3
181.742	-1203.3
181.961	2238.35
182.181	1482.97
182.401	200.54
182.621	334.21
182.84	590.75
183.06	1046.46
183.279	995.84
183.499	487.16
183.719	468.19
183.938	245.35
184.158	391.23
184.377	534.62
184.597	452.19
184.816	3914.63
185.036	15623.91
185.256	984.49
185.475	573.2
185.695	531.32
185.914	373.73
186.134	289.53
186.353	283.95
186.572	267.31
186.792	299.47
187.011	2060.2
187.231	341.99
187.45	448.74
187.67	908.23
187.889	13762.12
188.108	471.52
188.328	-2044.27
188.547	-217.2
188.766	-163.96
188.986	-142.21
189.205	-279.72
189.424	511.77
189.644	996.86
189.863	433.13
190.082	558.34
190.302	2383.93
190.521	-117.55
190.74	-558.46
190.959	-6350.7
191.178	9603.39
191.398	-3976.14
191.617	911.76
191.836	3423.53
192.055	-979.86
192.274	-370.58
192.494	-639.99
192.713	-357.18
192.932	-253.16
193.151	-271.21
193.37	-441.74
193.589	-346.58
193.808	-287.57
194.027	-322.46
194.246	-717.09
194.465	-543.23
194.685	35415
194.904	613.34
195.123	338.26
195.342	215.63
195.561	195.52
195.78	263.68
195.999	350.11
196.218	546.51
196.436	1005.09
196.655	572.84
196.874	427.25
197.093	445.36
197.312	1303.75
197.531	1370.4
197.75	2496.67
197.969	-874.26
198.188	-908.05
198.407	-5891.12
198.625	473.95
198.844	629.9
199.063	1751.77
199.282	1929.05
199.501	-954.13
199.719	-1177.84
199.938	-2044.8
200.157	2572.53
200.376	842.45
200.594	553.41
200.813	544.7
201.032	369.56
201.251	452.67
201.469	710.93
201.688	549.77
201.907	441.86
202.125	484.06
202.344	370.25
202.563	263.87
202.781	379
203	309.46
203.218	285.68
203.437	724.22
203.656	428.12
203.874	269.85
204.093	281.57
204.311	281.84
204.53	219.99
204.748	204.73
204.967	283.09
205.185	198.16
205.404	298.62
205.622	408.71
205.841	292.36
206.059	286.95
206.278	344.87
206.496	426.02
206.715	569.92
206.933	907.19
207.151	-1975.31
207.37	-1345.36
207.588	-3730.58
207.806	2956.05
208.025	1198.89
208.243	-1808.45
208.461	-1584.89
208.68	-3446.06
208.898	5006.35
209.116	2305.76
209.335	4877.23
209.553	1428.59
209.771	3690.58
209.989	-3087.62
210.208	-1832.63
210.426	-1014.32
210.644	-921.35
210.862	-453.66
211.081	-428.27
211.299	-199.53
211.517	-241.24
211.735	-248.32
211.953	-657.42
212.171	440.19
212.39	676.7
212.608	743.58
212.826	321.66
213.044	161.9
213.262	147.89
213.48	131.56
213.698	134.55
213.916	183.82
214.134	179.7
214.352	337.2
214.57	-483.14
214.788	537.21
215.006	3405.11
215.224	-984.8
215.442	-365.06
215.66	-373.12
215.878	834.66
216.096	245.14
216.314	245.73
216.532	203.74
216.75	163.91
216.968	173.66
217.185	144.13
217.403	168.14
217.621	204.61
217.839	240.73
218.057	227.19
218.275	317.47
218.492	570.09
218.71	281.06
218.928	258.2
219.146	266.69
219.363	380.55
219.581	417.59
219.799	799.32
220.017	258.77
220.234	241.39
220.452	262.32
220.67	180.95
220.887	160.74
221.105	314.7
221.323	412.85
221.54	414.87
221.758	253.89
221.976	225.57
222.193	175.31
222.411	201.22
222.629	172.7
222.846	193.95
223.064	201.58
223.281	204.25
223.499	209.59
223.716	225.46
223.934	186.93
224.151	198.3
224.369	192.78
224.586	178.55
224.804	183.12
225.021	157.81
225.239	140.93
225.456	141.62
225.674	124.57
225.891	118.68
226.108	107.49
226.326	106.04
226.543	108.03
226.76	96.23
226.978	97.21
227.195	84.04
227.413	78.3
227.63	66.8
227.847	58.69
228.064	52.96
228.282	42.84
228.499	38.46
228.716	34.61
228.934	25.12
229.151	24.65
229.368	22.64
229.585	21.73
229.802	22.3
230.02	19.19
230.237	19.76
230.454	23.22
230.671	26.69
230.888	27.28
231.105	28.34
231.323	32.3
231.54	36.12
231.757	36.65
231.974	44.56
232.191	49.54
232.408	58.53
232.625	61.3
232.842	58.75
233.059	54.15
233.276	64.52
233.493	64.05
233.71	65.16
233.927	62.9
234.144	63.95
234.361	55.98
234.578	57.82
234.795	54.16
235.012	47.05
235.229	41.9
235.446	39.45
235.663	34.83
235.879	35.46
236.096	38.82
236.313	39.22
236.53	41.13
236.747	42.98
236.964	34.26
237.181	37.12
237.397	41.87
237.614	49.65
237.831	56.92
238.048	54.77
238.264	47.57
238.481	44.74
238.698	44.4
238.915	37.38
239.131	30.35
239.348	29.37
239.565	25.46
239.781	24.04
239.998	14.63
240.215	12.54
240.431	11.12
240.648	16.52
240.865	11.16
241.081	13.78
241.298	12.89
241.514	14.74
241.731	17.47
241.947	16.02
242.164	14.65
242.38	15.29
242.597	14.6
242.814	18.17
243.03	17.72
243.246	20.98
243.463	20.09
243.679	22.51
243.896	22.54
244.112	21.38
244.329	22.77
244.545	25.72
244.762	26.84
244.978	28.02
245.194	25.37
245.411	24.58
245.627	20.9
245.843	18.29
246.06	15.91
246.276	14.91
246.492	13.83
246.709	13.68
246.925	13.49
247.141	12.04
247.357	11.48
247.574	12.02
247.79	11.78
248.006	11.3
248.222	11.56
248.439	12.02
248.655	12.08
248.871	12.97
249.087	13.11
249.303	12.39
249.519	13.36
249.736	12.84
249.952	10.9
250.168	11.85
250.384	16.26
250.6	17.91
250.816	18.52
251.032	21.02
251.248	19.23
251.464	18.65
251.68	16.83
251.896	17.36
252.112	17.58
252.328	16.39
252.544	15.65
252.76	12.35
252.976	10.38
253.192	10.46
253.408	7.9
253.624	10.14
253.84	10.57
254.056	15.89
254.272	16.99
254.487	19.86
254.703	22.03
254.919	24.08
255.135	27.51
255.351	27.53
255.567	26.86
255.782	27.98
255.998	26.76
256.214	22.43
256.43	17.92
256.646	18.58
256.861	15.45
257.077	17.48
257.293	18.91
257.508	16.15
257.724	16.03
257.94	15.34
258.155	15.02
258.371	13.98
258.587	15.18
258.802	13.08
259.018	11.54
259.234	10.66
259.449	9.29
259.665	7.35
259.88	8.01
260.096	7.67
260.312	7.71
260.527	7.41
260.743	7.34
260.958	7.39
261.174	7.94
261.389	9.03
261.605	9.45
261.82	8.45
262.036	8.55
262.251	8.58
262.466	9.09
262.682	9.24
262.897	9.12
263.113	8.69
263.328	9.21
263.543	8.92
263.759	8.8
263.974	8.62
264.189	11.02
264.405	13.76
264.62	14.08
264.835	12.83
265.051	14.12
265.266	16.14
265.481	16.54
265.696	16.54
265.912	16.96
266.127	14.63
266.342	14.75
266.557	15.32
266.773	12.66
266.988	11.79
267.203	13.08
267.418	13.05
267.633	11.69
267.848	11.74
268.064	10.91
268.279	10.99
268.494	11.74
268.709	12
268.924	13.47
269.139	15.27
269.354	16.87
269.569	17.65
269.784	14.96
269.999	15.8
270.214	15.16
270.429	16.22
270.644	17.38
270.859	16.76
271.074	16.16
271.289	15.2
271.504	14.36
271.719	14.43
271.934	12.38
272.149	13.75
272.363	12.06
272.578	12.98
272.793	12.15
273.008	10.94
273.223	9.64
273.438	11.08
273.653	10.32
273.867	9.71
274.082	8.43
274.297	9.78
274.512	10.05
274.726	12.44
274.941	11.55
275.156	11.53
275.371	11.55
275.585	15.29
275.8	14.42
276.015	14.01
276.229	14.9
276.444	15.44
276.659	15.97
276.873	16.08
277.088	15.6
277.302	16.19
277.517	17.92
277.732	16.99
277.946	15.91
278.161	16.17
278.375	16.63
278.59	15.07
278.804	13.47
279.019	13.1
279.233	12.36
279.448	12.34
279.662	9.97
279.877	8.14
280.091	8.62
280.306	7.02
280.52	7.14
280.735	6.64
280.949	8.07
281.163	9.54
281.378	8.59
281.592	8.34
281.806	8.46
282.021	11.46
282.235	12.07
282.449	12.66
282.664	12.18
282.878	12.05
283.092	13.14
283.307	13.08
283.521	12.92
283.735	13.3
283.949	13.75
284.164	12.77
284.378	11.07
284.592	10.28
284.806	9.74
285.02	10.33
285.234	8.96
285.449	9.23
285.663	9.56
285.877	9.82
286.091	10.27
286.305	11.84
286.519	12.1
286.733	12.4
286.947	13.29
287.161	13.55
287.375	14.99
287.589	16.6
287.803	15.75
288.017	16.59
288.231	16.16
288.445	16.02
288.659	15.23
288.873	15.5
289.087	16
289.301	16.14
289.515	15.2
289.729	13.26
289.943	13.37
290.157	14.34
290.371	13.5
290.584	13.29
290.798	13.4
291.012	12.7
291.226	12.66
291.44	13.82
291.654	13.07
291.867	14.06
292.081	14.6
292.295	15.45
292.509	13.85
292.722	14.02
292.936	14.18
293.15	15.71
293.364	15.88
293.577	15.69
293.791	13.01
294.005	13.61
294.218	12.68
294.432	12.27
294.645	10.78
294.859	11.71
295.073	11.05
295.286	12.04
295.5	10.23
295.713	9.47
295.927	10.09
296.14	10.85
296.354	11.11
296.568	11.56
296.781	12.66
296.994	11.99
297.208	12.19
297.421	13.14
297.635	12.14
297.848	12.04
298.062	12.45
298.275	12.32
298.489	12.74
298.702	13.12
298.915	13.12
299.129	13.66
299.342	15.08
299.555	15.73
299.769	15.74
299.982	18.13
300.195	19.02
300.409	19.83
300.622	20.79
300.835	22.55
301.048	21.73
301.262	22.64
301.475	21.49
301.688	21.62
301.901	20.04
302.115	19.79
302.328	18.26
302.541	17.67
302.754	18.23
302.967	17.62
303.18	16.63
303.393	17.97
303.607	18.04
303.82	18.97
304.033	19.67
304.246	22.15
304.459	23.18
304.672	22.87
304.885	24.2
305.098	23.81
305.311	23.81
305.524	22.93
305.737	22.25
305.95	21.57
306.163	20.1
306.376	19.02
306.589	17.36
306.802	16.96
307.015	17.97
307.228	17.97
307.44	17.3
307.653	17.77
307.866	18.45
308.079	18.36
308.292	19.12
308.505	20.06
308.718	20.6
308.93	20.45
309.143	20.15
309.356	20.24
309.569	20.4
309.781	21.89
309.994	21.69
310.207	20.03
310.42	19.33
310.632	18.64
310.845	18.19
311.058	18.16
311.27	18.94
311.483	19.36
311.696	19.36
311.908	19.1
312.121	18.34
312.333	19.36
312.546	20.88
312.759	21.03
312.971	21.14
313.184	22.38
313.396	22.66
313.609	21.84
313.821	21.44
314.034	21.21
314.246	22.38
314.459	21.64
314.671	19.45
314.884	19.22
315.096	20.22
315.309	20.59
315.521	20.22
315.733	20.3
315.946	19.88
316.158	20.69
316.371	21.35
316.583	19.14
316.795	20.52
317.008	20.64
317.22	20.21
317.432	20.19
317.644	22.4
317.857	22.12
318.069	21.77
318.281	23.73
318.494	23.04
318.706	22.09
318.918	23.49
319.13	22.71
319.342	23.17
319.555	22.37
319.767	23.07
319.979	20.61
320.191	21.16
320.403	20.31
320.615	17.51
320.827	18.78
321.039	18.98
321.252	18.91
321.464	19.51
321.676	20.39
321.888	21.09
322.1	20.16
322.312	20.32
322.524	20.47
322.736	20.37
322.948	22.53
323.16	20.91
323.372	21.09
323.584	21.19
323.796	22.24
324.007	22.24
324.219	23.93
324.431	24.41
324.643	24.98
324.855	25.4
325.067	25.55
325.279	25.25
325.491	25.76
325.702	25.45
325.914	24.74
326.126	23.32
326.338	22.77
326.55	22.36
326.761	22.37
326.973	22.07
327.185	21.62
327.396	22.2
327.608	22.78
327.82	22.24
328.032	23.53
328.243	24.32
328.455	25.25
328.666	25.84
328.878	25.66
329.09	24.95
329.301	26.52
329.513	27.32
329.725	28.13
329.936	27.24
330.148	28.57
330.359	28.98
330.571	30.38
330.782	30.2
330.994	31.91
331.205	31.83
331.417	32.43
331.628	31.43
331.84	30.82
332.051	30.27
332.262	31.13
332.474	30.58
332.685	30.36
332.897	29.55
333.108	29.58
333.319	28.36
333.531	29.33
333.742	29.62
333.953	29.69
334.165	29.7
334.376	30.9
334.587	30.41
334.799	30.49
335.01	30.28
335.221	29.35
335.432	29.66
335.644	29.75
335.855	29.14
336.066	30.39
336.277	31.5
336.488	31.59
336.7	30.68
336.911	30.96
337.122	31.24
337.333	31.65
337.544	33.21
337.755	33.86
337.966	34.09
338.177	34.38
338.388	33.37
338.599	32.84
338.811	33.41
339.022	34.23
339.233	33.6
339.444	34.14
339.655	33.1
339.866	33.07
340.076	32.17
340.287	31.86
340.498	31.87
340.709	31.5
340.92	31.33
341.131	32.12
341.342	32.81
341.553	34.43
341.764	34.16
341.975	34.98
342.185	34.74
342.396	35.46
342.607	36.36
342.818	35.64
343.029	35.91
343.239	36.14
343.45	34.69
343.661	33.8
343.872	32.81
344.082	32.61
344.293	32.14
344.504	32.3
344.714	30.95
344.925	30.88
345.136	30.72
345.346	30.8
345.557	30.91
345.768	30.99
345.978	30.74
346.189	31.52
346.399	31.28
346.61	31.57
346.821	30.88
347.031	32.5
347.242	32.26
347.452	33.43
347.663	33.86
347.873	34.3
348.084	34.05
348.294	34.86
348.504	34.88
348.715	35.08
348.925	34.56
349.136	34.74
349.346	34.61
349.557	34.21
349.767	33.45
349.977	33.84
350.188	33.11
350.398	33.96
350.608	33.38
350.819	33.4
351.029	34.19
351.239	35.22
351.449	35.52
351.66	35.16
351.87	34.95
352.08	34.97
352.29	34.66
352.501	33.83
352.711	34.89
352.921	34.8
353.131	33.92
353.341	33.79
353.552	33.59
353.762	32.65
353.972	32.8
354.182	33.57
354.392	34.07
354.602	34.01
354.812	34.83
355.022	33.23
355.232	33.16
355.442	33.74
355.652	33.54
355.862	33.16
356.072	34.14
356.282	33.78
356.492	32.58
356.702	32.09
356.912	32.05
357.122	32.85
357.332	33.2
357.542	32.91
357.752	33.27
357.962	32.86
358.171	32.82
358.381	32.87
358.591	32.31
358.801	33.24
359.011	33.37
359.221	33.13
359.43	32.73
359.64	32.3
359.85	32.61
360.06	31.91
360.269	32
360.479	32.25
360.689	31.55
360.899	31.71
361.108	31.48
361.318	31.59
361.528	31.02
361.737	30.71
361.947	30.8
362.156	30.58
362.366	30.36
362.576	30.06
362.785	29.98
362.995	30.53
363.204	31.01
363.414	30.68
363.623	30.21
363.833	30.66
364.042	30.85
364.252	31.33
364.461	31.41
364.671	32.13
364.88	32.16
365.09	32.21
365.299	31.99
365.509	32.35
365.718	32.6
365.927	32.82
366.137	33.08
366.346	32.16
366.555	31.23
366.765	31.32
366.974	31.07
367.183	31.43
367.393	30.94
367.602	31.07
367.811	30.53
368.021	30.82
368.23	30.91
368.439	30.64
368.648	31.19
368.857	31.49
369.067	31.53
369.276	30.77
369.485	30.67
369.694	30.73
369.903	30.13
370.112	29.81
370.321	29.52
370.531	29.53
370.74	28.97
370.949	28.92
371.158	28.79
371.367	28.19
371.576	28.38
371.785	28.54
371.994	28.59
372.203	28.69
372.412	28.49
372.621	28.63
372.83	28.63
373.039	28.97
373.248	28.56
373.457	28.86
373.666	29.06
373.874	29.06
374.083	28.5
374.292	28.28
374.501	27.84
374.71	27.82
374.919	27.06
375.128	27.1
375.336	27.18
375.545	27.37
375.754	27.47
375.963	27.39
376.171	27.5
376.38	27.86
376.589	27.69
376.798	27.77
377.006	28.62
377.215	29.24
377.424	28.62
377.632	28.4
377.841	28.54
378.05	28.83
378.258	28.79
378.467	28.54
378.675	28.47
378.884	28.65
379.093	28.59
379.301	27.9
379.51	27.65
379.718	27.7
379.927	27.91
380.135	27.65
380.344	27.21
380.552	27.34
380.761	27.79
380.969	27.77
381.177	27.67
381.386	27.81
381.594	27.22
381.803	26.97
382.011	27.51
382.219	27.28
382.428	27.29
382.636	27.01
382.845	26.34
383.053	26.27
383.261	25.62
383.469	25.34
383.678	25.13
383.886	24.97
384.094	24.86
384.302	24.3
384.511	24.43
384.719	23.98
384.927	24.29
385.135	24.78
385.343	24.57
385.552	25.25
385.76	25.5
385.968	25.52
386.176	25.72
386.384	25.85
386.592	25.98
386.8	25.66
387.008	25.93
387.216	25.29
387.424	25.35
387.633	25.1
387.841	24.55
388.049	24.88
388.257	24.53
388.465	24.69
388.672	24.71
388.88	24.64
389.088	24.95
389.296	24.84
389.504	24.68
389.712	24.63
389.92	24.39
390.128	24.44
390.336	23.38
390.544	23.81
390.751	24.16
390.959	23.92
391.167	23.83
391.375	23.86
391.583	23.82
391.79	23.93
391.998	23.77
392.206	24.01
392.414	24.02
392.621	24.4
392.829	24.31
393.037	23.91
393.244	23.85
393.452	23.5
393.66	23.23
393.867	23.34
394.075	23.36
394.283	23.48
394.49	23.41
394.698	23.5
394.905	23.5
395.113	23.53
395.32	23.39
395.528	23.65
395.735	23.98
395.943	23.94
396.15	23.83
396.358	23.96
396.565	23.88
396.773	23.67
396.98	23.52
397.188	23.49
397.395	23.37
397.602	23.57
397.81	23.6
398.017	23.64
398.225	23.51
398.432	23.39
398.639	23.68
398.847	23.88
399.054	23.94
399.261	23.98
399.468	23.99
399.676	24.09
399.883	24
400.09	23.95
400.297	24.45
400.505	24.58
400.712	24.93
400.919	24.57
401.126	24.2
401.333	24.32
401.54	24.37
401.748	24.66
401.955	24.72
402.162	24.72
402.369	24.57
402.576	24.19
402.783	23.73
402.99	23.55
403.197	23.49
403.404	23.26
403.611	23.27
403.818	23.43
404.025	23.28
404.232	22.87
404.439	22.84
404.646	22.43
404.853	22.48
405.06	22.94
405.267	22.94
405.474	22.96
405.681	23.19
405.887	23.16
406.094	23.02
406.301	22.92
406.508	23.22
406.715	23.47
406.922	23.83
407.128	23.63
407.335	23.53
407.542	23.7
407.749	23.69
407.955	23.86
408.162	23.74
408.369	23.64
408.575	23.69
408.782	23.42
408.989	23.12
409.195	22.82
409.402	22.71
409.609	22.97
409.815	22.95
410.022	22.82
410.228	22.71
410.435	23
410.642	22.87
410.848	22.66
411.055	22.54
411.261	22.69
411.468	23.07
411.674	23.11
411.881	22.79
412.087	22.51
412.294	22.53
412.5	22.3
412.706	22.15
412.913	22.47
413.119	22.61
413.326	23.08
413.532	23.23
413.738	23.21
413.945	22.96
414.151	23.13
414.357	23.35
414.564	23.56
414.77	23.61
414.976	23.29
415.182	23.23
415.389	23.3
415.595	22.98
415.801	22.65
416.007	22.63
416.214	22.81
416.42	22.37
416.626	22.18
416.832	22.05
417.038	22.08
417.244	22.35
417.45	22.11
417.657	21.92
417.863	21.87
418.069	21.93
418.275	21.82
418.481	21.83
418.687	22.04
418.893	21.89
419.099	21.8
419.305	21.86
419.511	21.77
419.717	21.62
419.923	21.37
420.129	21.33
420.335	21.39
420.541	21.21
420.746	21.14
420.952	20.98
421.158	21.03
421.364	21.06
421.57	20.85
421.776	20.72
421.982	20.92
422.187	21.08
422.393	21.06
422.599	20.98
422.805	21.01
423.01	20.97
423.216	21.04
423.422	20.96
423.628	20.93
423.833	20.91
424.039	20.92
424.245	20.87
424.45	20.77
424.656	20.71
424.862	20.54
425.067	20.53
425.273	20.54
425.478	20.54
425.684	20.64
425.889	20.67
426.095	20.69
426.301	20.68
426.506	20.55
426.712	20.59
426.917	20.77
427.123	20.77
427.328	20.85
427.533	20.98
427.739	20.86
427.944	20.86
428.15	20.91
428.355	20.97
428.561	20.91
428.766	20.83
428.971	20.99
429.177	20.93
429.382	21.27
429.587	21.36
429.793	21.27
429.998	21.13
430.203	21.1
430.408	21.02
430.614	21.04
430.819	21.16
431.024	21.36
431.229	21.44
431.434	21.48
431.64	21.41
431.845	21.36
432.05	21.29
432.255	21.58
432.46	21.58
432.665	21.49
432.87	21.48
433.076	21.49
433.281	21.34
433.486	21.19
433.691	21.12
433.896	21.02
434.101	20.95
434.306	20.78
434.511	20.73
434.716	20.64
434.921	20.74
435.126	20.79
435.331	20.6
435.535	20.59
435.74	20.63
435.945	20.62
436.15	20.77
436.355	20.95
436.56	21.2
436.765	21.28
436.97	21.16
437.174	21.01
437.379	21.1
437.584	21.33
437.789	21.29
437.993	21.26
438.198	21.23
438.403	20.99
438.608	20.85
438.812	20.67
439.017	20.44
439.222	20.58
439.426	20.63
439.631	20.4
439.836	20.38
440.04	20.44
440.245	20.44
440.45	20.38
440.654	20.41
440.859	20.31
441.063	20.32
441.268	20.48
441.472	20.52
441.677	20.62
441.881	20.77
442.086	20.73
442.29	20.91
442.495	20.94
442.699	21.04
442.904	21.09
443.108	20.99
443.312	21.1
443.517	20.99
443.721	20.96
443.925	20.83
444.13	20.7
444.334	20.61
444.538	20.54
444.743	20.59
444.947	20.59
445.151	20.51
445.356	20.62
445.56	20.62
445.764	20.53
445.968	20.49
446.173	20.46
446.377	20.42
446.581	20.37
446.785	20.22
446.989	20.14
447.193	20.14
447.398	20.18
447.602	20.24
447.806	20.31
448.01	20.49
448.214	20.57
448.418	20.64
448.622	20.83
448.826	20.92
449.03	21.15
449.234	21.17
449.438	21.05
449.642	21.12
449.846	21.16
450.05	21.11
450.254	21.08
450.458	21.07
450.662	21.11
450.866	20.99
451.069	21
451.273	20.76
451.477	20.89
451.681	20.97
451.885	20.89
452.089	20.88
452.292	20.73
452.496	20.64
452.7	20.69
452.904	20.6
453.107	20.67
453.311	20.72
