Data from LC_219__Reflection_1.txt Node
Date: Thu Nov 19 13:31:17 EST 2015
User: robert
Spectrometer: USB4E03001
Autoset integration time: false
Trigger mode: 4
Integration Time (sec): 1.000000E-1
Scans to average: 15
Electric dark correction enabled: true
Nonlinearity correction enabled: false
Boxcar width: 5
Stray light correction enabled: false
XAxis mode: Wavelengths
Stop averaging: false
Number of Pixels in Spectrum: 3648
>>>>>Begin Spectral Data<<<<<
177.566	251.17
177.785	511.46
178.005	320.09
178.225	120.89
178.445	121.19
178.665	116300
178.885	185.58
179.105	205.12
179.324	-188.63
179.544	-981.7
179.764	-336.92
179.984	-507.76
180.204	-477.01
180.423	-456.48
180.643	-2574.78
180.863	-2142.77
181.083	-651.63
181.302	-459.29
181.522	-512.41
181.742	-3381.76
181.961	6367.55
182.181	4939.57
182.401	625.79
182.621	636.91
182.84	969.64
183.06	2148.65
183.279	2038.67
183.499	888.89
183.719	821.23
183.938	423.97
184.158	810.02
184.377	959.73
184.597	727.68
184.816	5435.25
185.036	25582.61
185.256	1760.1
185.475	847.99
185.695	662.36
185.914	542.92
186.134	399.4
186.353	343.74
186.572	269.77
186.792	278.64
187.011	1898.18
187.231	396.54
187.45	429.11
187.67	800.99
187.889	14978.79
188.108	421.68
188.328	-1712.25
188.547	-193.18
188.766	-187.27
188.986	-280.61
189.205	-401.02
189.424	752.99
189.644	1317.35
189.863	728.22
190.082	889.91
190.302	3449.4
190.521	-340.58
190.74	-1091.98
190.959	-10285.21
191.178	13533.9
191.398	-5352.63
191.617	1083.95
191.836	3821.74
192.055	-1053.53
192.274	-354.31
192.494	-613.25
192.713	-378.69
192.932	-256.51
193.151	-289.37
193.37	-479.44
193.589	-357.19
193.808	-278.44
194.027	-365.06
194.246	-729.96
194.465	-685.79
194.685	41907.5
194.904	663.21
195.123	387.24
195.342	239.51
195.561	193.41
195.78	240.35
195.999	340.45
196.218	564.75
196.436	979.2
196.655	660.43
196.874	447.82
197.093	429.81
197.312	1158.86
197.531	1152.31
197.75	2196.67
197.969	-842.28
198.188	-1000.95
198.407	-6793.44
198.625	489.26
198.844	617.67
199.063	1393.93
199.282	1427.89
199.501	-825.36
199.719	-1262.75
199.938	-2067.56
200.157	2153.47
200.376	726
200.594	474.67
200.813	436.38
201.032	267.42
201.251	348.76
201.469	570.6
201.688	437.7
201.907	337.26
202.125	339.61
202.344	280.74
202.563	222.63
202.781	285.68
203	222.66
203.218	230.58
203.437	694.17
203.656	462.12
203.874	343.15
204.093	371.62
204.311	381.38
204.53	343.06
204.748	372.53
204.967	467.37
205.185	309.56
205.404	413.22
205.622	514.67
205.841	315.96
206.059	236.43
206.278	243.45
206.496	283.69
206.715	427.15
206.933	541.76
207.151	-1121.06
207.37	-788.12
207.588	-3042.15
207.806	2446.45
208.025	1165.37
208.243	-1734.44
208.461	-1732.24
208.68	-3705.5
208.898	6061.38
209.116	2420
209.335	5320.54
209.553	1556.32
209.771	3789.88
209.989	-2994.22
210.208	-1933.69
210.426	-850.82
210.644	-929.56
210.862	-434.02
211.081	-332.14
211.299	-146.76
211.517	-220.12
211.735	-247.25
211.953	-546.68
212.171	438.45
212.39	527.39
212.608	501.8
212.826	309.85
213.044	168.79
213.262	122.32
213.48	140.5
213.698	111.49
213.916	181.17
214.134	270.41
214.352	548.35
214.57	-1257.41
214.788	883.85
215.006	5719.34
215.224	-1429.69
215.442	-464.99
215.66	-556.66
215.878	1225.5
216.096	344.36
216.314	308.35
216.532	222.33
216.75	195.87
216.968	193.21
217.185	176.99
217.403	190.48
217.621	227.65
217.839	273.78
218.057	236.16
218.275	360.97
218.492	665.34
218.71	361.99
218.928	306.17
219.146	301.9
219.363	476.21
219.581	533.89
219.799	1139.4
220.017	384.33
220.234	332.72
220.452	479.58
220.67	307.23
220.887	313.83
221.105	571.78
221.323	661.01
221.54	550.79
221.758	303.5
221.976	247.68
222.193	187.99
222.411	234.19
222.629	244
222.846	282.55
223.064	239.35
223.281	234.58
223.499	201.23
223.716	233.17
223.934	221.85
224.151	274.19
224.369	276.55
224.586	263.48
224.804	246.27
225.021	196.6
225.239	151.8
225.456	165.9
225.674	144.16
225.891	150.02
226.108	136.42
226.326	125.01
226.543	101.22
226.76	85.9
226.978	83.32
227.195	81.05
227.413	74.83
227.63	70.86
227.847	61.98
228.064	59.76
228.282	49.94
228.499	48.47
228.716	44.52
228.934	41.92
229.151	43.27
229.368	40.96
229.585	38
229.802	37.71
230.02	35.37
230.237	34.37
230.454	34
230.671	34.67
230.888	32.97
231.105	37.64
231.323	44.56
231.54	43.27
231.757	45.93
231.974	54.24
232.191	56.57
232.408	60.89
232.625	66.77
232.842	64.36
233.059	60.57
233.276	67.56
233.493	63.85
233.71	57.64
233.927	59.34
234.144	61.96
234.361	53.7
234.578	51.87
234.795	46.81
235.012	48.43
235.229	47.27
235.446	52.08
235.663	47.28
235.879	51.24
236.096	51.53
236.313	54.04
236.53	47.7
236.747	54.6
236.964	52.31
237.181	57.75
237.397	52.51
237.614	56.11
237.831	52.36
238.048	55.28
238.264	52.67
238.481	52.25
238.698	50.98
238.915	50.96
239.131	36.63
239.348	35.75
239.565	29.88
239.781	36.75
239.998	34.58
240.215	34.95
240.431	34.8
240.648	33.49
240.865	31.52
241.081	31.68
241.298	31.05
241.514	33.48
241.731	34.15
241.947	32.42
242.164	29.36
242.38	27.86
242.597	27.8
242.814	26.67
243.03	25.5
243.246	26.77
243.463	24.7
243.679	26.75
243.896	26.09
244.112	26.02
244.329	27.07
244.545	28.01
244.762	27.78
244.978	28.5
245.194	29.15
245.411	29.05
245.627	26.7
245.843	28.07
246.06	24.31
246.276	24.03
246.492	22.53
246.709	21.86
246.925	21.25
247.141	20.25
247.357	18.63
247.574	18.29
247.79	18.33
248.006	17.34
248.222	16.5
248.439	17.56
248.655	15.49
248.871	14.67
249.087	13.89
249.303	14.27
249.519	15.08
249.736	15.25
249.952	13.27
250.168	15.07
250.384	18.74
250.6	19.43
250.816	18.63
251.032	22.25
251.248	22.9
251.464	24.53
251.68	21.8
251.896	21.1
252.112	21.39
252.328	22.9
252.544	20.54
252.76	19.27
252.976	18.35
253.192	19.05
253.408	17.13
253.624	17.73
253.84	17.26
254.056	21.46
254.272	24.04
254.487	28.23
254.703	29.52
254.919	32.34
255.135	34.23
255.351	34.51
255.567	35.52
255.782	37.13
255.998	36.42
256.214	34.93
256.43	32.3
256.646	31.52
256.861	28.3
257.077	27.79
257.293	26.06
257.508	24.04
257.724	22.33
257.94	20.17
258.155	20.4
258.371	20.8
258.587	20.42
258.802	17.3
259.018	16.37
259.234	14.97
259.449	14.04
259.665	13.99
259.88	13.52
260.096	12.88
260.312	13.07
260.527	13.05
260.743	12.55
260.958	12.39
261.174	13.44
261.389	13.81
261.605	15.14
261.82	13.92
262.036	14.35
262.251	14.86
262.466	15.35
262.682	15.32
262.897	15.55
263.113	15.61
263.328	16.72
263.543	19.01
263.759	20.9
263.974	19.12
264.189	20.87
264.405	20
264.62	21.53
264.835	24.07
265.051	26.57
265.266	25.7
265.481	25.34
265.696	27.39
265.912	25.28
266.127	22.52
266.342	21.94
266.557	23.77
266.773	20.9
266.988	20.22
267.203	18.81
267.418	16.89
267.633	17.13
267.848	18.62
268.064	16.55
268.279	16.58
268.494	16.56
268.709	17.15
268.924	18.37
269.139	21.2
269.354	21.84
269.569	22.31
269.784	22.63
269.999	22.19
270.214	20.3
270.429	20.5
270.644	20.66
270.859	20.32
271.074	21.48
271.289	20.55
271.504	19.72
271.719	19.2
271.934	19.14
272.149	18.75
272.363	18.48
272.578	18.66
272.793	17.99
273.008	17.46
273.223	17.06
273.438	15.71
273.653	14.9
273.867	13.87
274.082	13.9
274.297	14.31
274.512	14.48
274.726	15.69
274.941	15.9
275.156	16.93
275.371	17
275.585	18.33
275.8	18.86
276.015	18.15
276.229	20.57
276.444	19.17
276.659	19.79
276.873	20.04
277.088	18.75
277.302	18.56
277.517	18.63
277.732	20.05
277.946	21.07
278.161	22.35
278.375	22.52
278.59	20.79
278.804	21.76
279.019	20.83
279.233	20.69
279.448	20.44
279.662	18.22
279.877	17.27
280.091	15.58
280.306	13.73
280.52	10.62
280.735	10.21
280.949	10.08
281.163	11.02
281.378	11.35
281.592	10.36
281.806	11.57
282.021	13.66
282.235	13.84
282.449	14.74
282.664	15.32
282.878	16.25
283.092	17.05
283.307	18.39
283.521	17.24
283.735	16.63
283.949	17.52
284.164	17.26
284.378	16.89
284.592	15.82
284.806	14.79
285.02	13.96
285.234	13.76
285.449	14.49
285.663	14.02
285.877	13.89
286.091	14.33
286.305	15.39
286.519	15.46
286.733	14.57
286.947	15.65
287.161	15.18
287.375	15.3
287.589	16.67
287.803	15.52
288.017	17.07
288.231	16.31
288.445	16.51
288.659	16.64
288.873	15.63
289.087	16.99
289.301	15.9
289.515	16.44
289.729	16.49
289.943	16.34
290.157	16.29
290.371	14
290.584	14.87
290.798	15.18
291.012	13.69
291.226	14.06
291.44	14.44
291.654	15.01
291.867	14.54
292.081	14.64
292.295	15.07
292.509	14.26
292.722	15.43
292.936	14.96
293.15	16.11
293.364	17.13
293.577	17.3
293.791	16.55
294.005	17.59
294.218	17.71
294.432	16.61
294.645	16.21
294.859	17.34
295.073	17.75
295.286	18.68
295.5	17.33
295.713	16.93
295.927	17.86
296.14	17.15
296.354	16.93
296.568	17.23
296.781	17.02
296.994	15.69
297.208	15.56
297.421	15.18
297.635	14.8
297.848	14.24
298.062	13.67
298.275	12.38
298.489	13.28
298.702	12.91
298.915	12.89
299.129	14.75
299.342	16.56
299.555	16.58
299.769	17.08
299.982	17.98
300.195	19.44
300.409	19.29
300.622	20.77
300.835	20.76
301.048	19.99
301.262	19.36
301.475	18.51
301.688	16.83
301.901	16.94
302.115	15.85
302.328	15.66
302.541	14.19
302.754	15.31
302.967	15.27
303.18	14.7
303.393	17.51
303.607	18.7
303.82	18.57
304.033	20.77
304.246	22.78
304.459	23.58
304.672	22.72
304.885	22.99
305.098	23.16
305.311	22.77
305.524	23.47
305.737	23.09
305.95	23.73
306.163	22.74
306.376	21.06
306.589	19.45
306.802	19.54
307.015	21.27
307.228	22.11
307.44	22.09
307.653	21.83
307.866	22.49
308.079	21.03
308.292	19.61
308.505	21.88
308.718	22.01
308.93	21.54
309.143	21.59
309.356	20.68
309.569	20.97
309.781	20.78
309.994	21.38
310.207	20.06
310.42	19.54
310.632	19.66
310.845	18.5
311.058	18.36
311.27	18.46
311.483	18.88
311.696	18.73
311.908	18.04
312.121	19.3
312.333	18.64
312.546	19.44
312.759	19.89
312.971	20.44
313.184	22.09
313.396	22.89
313.609	22.78
313.821	21.45
314.034	21.49
314.246	21.49
314.459	19.6
314.671	19.92
314.884	19.39
315.096	20.29
315.309	20.53
315.521	18.66
315.733	17.46
315.946	17.64
316.158	17.57
316.371	18.47
316.583	19.08
316.795	19.75
317.008	18.38
317.22	17.21
317.432	16.14
317.644	16.94
317.857	17.46
318.069	17.82
318.281	19.14
318.494	19.71
318.706	19.12
318.918	19.44
319.13	18.15
319.342	19.45
319.555	20.39
319.767	21.76
319.979	19.54
320.191	19.82
320.403	18.9
320.615	16.74
320.827	17.02
321.039	16.92
321.252	16.41
321.464	17.9
321.676	18.64
321.888	18.61
322.1	16.95
322.312	18.56
322.524	20.02
322.736	19.53
322.948	20.42
323.16	20.02
323.372	18.98
323.584	18.13
323.796	18.52
324.007	17.8
324.219	17.87
324.431	19.36
324.643	19.04
324.855	17.24
325.067	17.82
325.279	17.51
325.491	17.58
325.702	17.11
325.914	17.96
326.126	16.65
326.338	16.81
326.55	16.87
326.761	17.25
326.973	16.35
327.185	16.17
327.396	16.21
327.608	16.11
327.82	15.11
328.032	16.23
328.243	16.42
328.455	16.17
328.666	16.68
328.878	16.77
329.09	15.45
329.301	16.32
329.513	16.83
329.725	17.5
329.936	18.67
330.148	20.19
330.359	20.14
330.571	19.32
330.782	20.5
330.994	20.51
331.205	19.28
331.417	19.5
331.628	19.14
331.84	19.46
332.051	18.61
332.262	18.21
332.474	17.43
332.685	17.96
332.897	17.3
333.108	17.09
333.319	16.76
333.531	17.21
333.742	17.15
333.953	16.87
334.165	16.6
334.376	17.23
334.587	16.26
334.799	16.8
335.01	15.51
335.221	16.15
335.432	15.11
335.644	14.98
335.855	16.34
336.066	16.83
336.277	17.86
336.488	17.56
336.7	17.71
336.911	17.64
337.122	17.07
337.333	18.48
337.544	18.56
337.755	19.78
337.966	19.23
338.177	17.89
338.388	17.62
338.599	17.34
338.811	17.44
339.022	17.69
339.233	18.32
339.444	18.63
339.655	17.71
339.866	16.93
340.076	16.59
340.287	17.88
340.498	18.35
340.709	17.87
340.92	16.65
341.131	17.35
341.342	16.64
341.553	16.81
341.764	16.54
341.975	16.78
342.185	17.29
342.396	17.23
342.607	16.61
342.818	17.05
343.029	17.15
343.239	17.46
343.45	16.51
343.661	16.03
343.872	15.44
344.082	15.38
344.293	15.44
344.504	15.69
344.714	15.63
344.925	15.97
345.136	15.33
345.346	15.02
345.557	15.62
345.768	15.88
345.978	15.99
346.189	16.09
346.399	16.43
346.61	15.76
346.821	15.56
347.031	15.85
347.242	14.7
347.452	15.03
347.663	14.76
347.873	15.1
348.084	14.49
348.294	14.67
348.504	14.75
348.715	15.31
348.925	15.81
349.136	15.33
349.346	14.35
349.557	15.37
349.767	15.16
349.977	15.48
350.188	14.1
350.398	14.8
350.608	15.07
350.819	15.57
351.029	14.96
351.239	15.08
351.449	15.49
351.66	16.06
351.87	15.6
352.08	14.97
352.29	14.79
352.501	15.48
352.711	15.63
352.921	16.08
353.131	15.46
353.341	15.4
353.552	15.33
353.762	14.88
353.972	15.23
354.182	15.06
354.392	16
354.602	16.06
354.812	16.11
355.022	15.55
355.232	14.59
355.442	14.67
355.652	14.74
355.862	14.53
356.072	15.19
356.282	14.17
356.492	14.35
356.702	13.62
356.912	13.59
357.122	13.58
357.332	13.37
357.542	13.6
357.752	13.08
357.962	12.8
358.171	12.75
358.381	12.14
358.591	12.42
358.801	12.78
359.011	12.79
359.221	12.78
359.43	13.04
359.64	13.01
359.85	13.21
360.06	13.35
360.269	13.53
360.479	13.36
360.689	13.24
360.899	13.29
361.108	12.99
361.318	13.46
361.528	12.78
361.737	12.44
361.947	12.53
362.156	12.42
362.366	12.55
362.576	12.37
362.785	12.34
362.995	12.91
363.204	13.17
363.414	13.39
363.623	12.61
363.833	13.14
364.042	13.15
364.252	13.59
364.461	13.61
364.671	13.64
364.88	13.92
365.09	14.27
365.299	14.37
365.509	14.13
365.718	13.77
365.927	13.78
366.137	14.02
366.346	13.46
366.555	12.96
366.765	12.93
366.974	12.98
367.183	12.77
367.393	12.13
367.602	11.84
367.811	11.95
368.021	11.74
368.23	12.5
368.439	12.19
368.648	13.14
368.857	12.88
369.067	12.96
369.276	12.84
369.485	12.52
369.694	12.25
369.903	12.01
370.112	12.33
370.321	12.06
370.531	11.84
370.74	11.5
370.949	10.88
371.158	11.11
371.367	10.43
371.576	10.6
371.785	10.27
371.994	10.77
372.203	10.25
372.412	9.38
372.621	10.08
372.83	10.26
373.039	10.47
373.248	10.33
373.457	10.52
373.666	10.43
373.874	9.29
374.083	9.76
374.292	9.25
374.501	9.44
374.71	9.7
374.919	9.3
375.128	8.99
375.336	9.07
375.545	9.47
375.754	9.45
375.963	9.67
376.171	10.61
376.38	10.87
376.589	11.3
376.798	11.26
377.006	11.38
377.215	11.47
377.424	11.45
377.632	11.21
377.841	10.7
378.05	11.1
378.258	11.32
378.467	10.6
378.675	10.07
378.884	10.11
379.093	10.38
379.301	10.43
379.51	10.26
379.718	9.91
379.927	10.61
380.135	10.58
380.344	10.04
380.552	10.15
380.761	10.8
380.969	10.98
381.177	10.88
381.386	10.8
381.594	10.5
381.803	10.16
382.011	10.62
382.219	9.85
382.428	9.73
382.636	9.75
382.845	9.29
383.053	9.37
383.261	9.13
383.469	9.05
383.678	8.73
383.886	8.37
384.094	8.79
384.302	8.45
384.511	8.45
384.719	8.49
384.927	8.54
385.135	8.8
385.343	8.51
385.552	8.52
385.76	8.61
385.968	8.92
386.176	9.16
386.384	8.69
386.592	8.94
386.8	9.06
387.008	9.33
387.216	9.17
387.424	9.4
387.633	9.23
387.841	9.17
388.049	9.41
388.257	9.22
388.465	9.21
388.672	9.47
388.88	9.48
389.088	9.56
389.296	9.5
389.504	9.59
389.712	9.45
389.92	9.32
390.128	9.42
390.336	9.04
390.544	8.87
390.751	9.19
390.959	9.12
391.167	8.82
391.375	8.93
391.583	8.56
391.79	8.19
391.998	8.03
392.206	8.37
392.414	8.51
392.621	8.29
392.829	8.33
393.037	8.19
393.244	8.28
393.452	8.23
393.66	7.84
393.867	7.97
394.075	8.23
394.283	8.11
394.49	8.04
394.698	7.98
394.905	8.03
395.113	8.06
395.32	7.85
395.528	7.78
395.735	7.99
395.943	8.13
396.15	7.98
396.358	8
396.565	7.89
396.773	7.67
396.98	7.53
397.188	7.41
397.395	7.3
397.602	7.53
397.81	7.41
398.017	7.38
398.225	7.36
398.432	7.88
398.639	7.75
398.847	8.13
399.054	7.98
399.261	8.04
399.468	8.14
399.676	8.27
399.883	8.01
400.09	8.08
400.297	8.21
400.505	8.22
400.712	7.92
400.919	7.95
401.126	7.7
401.333	7.84
401.54	7.91
401.748	7.89
401.955	7.71
402.162	7.66
402.369	7.44
402.576	7.25
402.783	6.81
402.99	7.1
403.197	7
403.404	7.11
403.611	7.41
403.818	7.55
404.025	7.52
404.232	7.45
404.439	7.54
404.646	7.5
404.853	7.26
405.06	7.49
405.267	7.19
405.474	7.16
405.681	7.11
405.887	6.79
406.094	6.75
406.301	6.8
406.508	6.95
406.715	7.25
406.922	7.44
407.128	7.67
407.335	7.89
407.542	7.96
407.749	7.88
407.955	7.99
408.162	7.95
408.369	7.73
408.575	7.84
408.782	7.95
408.989	7.75
409.195	7.78
409.402	7.81
409.609	8
409.815	8.14
410.022	8.18
410.228	7.83
410.435	8.17
410.642	7.99
410.848	7.68
411.055	7.41
411.261	7.46
411.468	7.38
411.674	7.27
411.881	6.78
412.087	6.28
412.294	6.42
412.5	6.3
412.706	5.96
412.913	6.27
413.119	6.63
413.326	6.88
413.532	6.81
413.738	6.64
413.945	6.54
414.151	6.76
414.357	7.1
414.564	7.03
414.77	7.15
414.976	7.05
415.182	7.22
415.389	6.84
415.595	6.66
415.801	6.59
416.007	6.72
416.214	6.69
416.42	6.64
416.626	6.62
416.832	6.47
417.038	6.52
417.244	6.68
417.45	6.29
417.657	6.37
417.863	6.18
418.069	6.03
418.275	6.04
418.481	6.03
418.687	6.01
418.893	5.91
419.099	5.95
419.305	5.87
419.511	5.89
419.717	5.81
419.923	5.84
420.129	5.96
420.335	6.04
420.541	5.95
420.746	6.07
420.952	5.92
421.158	5.96
421.364	5.96
421.57	5.97
421.776	5.9
421.982	5.96
422.187	6
422.393	5.93
422.599	5.91
422.805	5.87
423.01	5.74
423.216	5.92
423.422	5.92
423.628	6
423.833	6.11
424.039	6.31
424.245	6.26
424.45	6.17
424.656	6.24
424.862	6.19
425.067	6.28
425.273	6.23
425.478	6.19
425.684	6.2
425.889	6.19
426.095	6.11
426.301	5.74
426.506	5.92
426.712	5.84
426.917	5.89
427.123	5.83
427.328	5.86
427.533	6.06
427.739	5.92
427.944	5.99
428.15	5.92
428.355	5.93
428.561	6.32
428.766	6.02
428.971	6.23
429.177	6.12
429.382	6.2
429.587	6.14
429.793	6.1
429.998	6.3
430.203	6.21
430.408	6.22
430.614	6.17
430.819	5.91
431.024	6.04
431.229	6.04
431.434	6.25
431.64	6.3
431.845	6.39
432.05	6.49
432.255	6.36
432.46	6.34
432.665	6.08
432.87	6.18
433.076	6.44
433.281	6.49
433.486	6.4
433.691	6.31
433.896	6.26
434.101	6.09
434.306	5.85
434.511	5.8
434.716	5.62
434.921	5.89
435.126	5.76
435.331	5.37
435.535	5.22
435.74	5.37
435.945	5.17
436.15	5.28
436.355	5.32
436.56	5.47
436.765	5.7
436.97	5.85
437.174	5.83
437.379	5.93
437.584	6.21
437.789	6.15
437.993	6.06
438.198	6.19
438.403	6.03
438.608	5.97
438.812	5.98
439.017	5.71
439.222	5.81
439.426	5.71
439.631	5.58
439.836	5.39
440.04	5.53
440.245	5.45
440.45	5.27
440.654	5.37
440.859	5.44
441.063	5.31
441.268	5.59
441.472	5.45
441.677	5.64
441.881	5.75
442.086	5.91
442.29	5.99
442.495	5.99
442.699	6.13
442.904	5.96
443.108	5.89
443.312	6.03
443.517	5.85
443.721	5.95
443.925	5.73
444.13	5.78
444.334	5.72
444.538	5.6
444.743	5.67
444.947	5.59
445.151	5.65
445.356	5.72
445.56	5.68
445.764	5.62
445.968	5.54
446.173	5.49
446.377	5.31
446.581	5.38
446.785	5.37
446.989	5.27
447.193	5.37
447.398	5.47
447.602	5.51
447.806	5.54
448.01	5.53
448.214	5.63
448.418	5.8
448.622	6
448.826	5.99
449.03	5.96
449.234	5.97
449.438	5.91
449.642	5.77
449.846	5.74
450.05	5.71
450.254	5.79
450.458	5.71
450.662	5.65
450.866	5.4
451.069	5.4
451.273	5.51
451.477	5.68
451.681	5.78
451.885	5.85
452.089	5.88
452.292	5.82
452.496	5.75
452.7	5.89
452.904	5.91
453.107	6.06
453.311	5.93
453.515	6
453.719	5.97
453.922	5.95
454.126	6.01
454.33	5.91
454.533	6.08
454.737	6.04
454.94	5.82
455.144	5.82
455.348	5.9
455.551	6
455.755	5.92
455.958	6.1
456.162	6
456.365	5.91
456.569	5.97
456.772	5.88
456.976	5.88
457.179	5.99
457.383	5.95
457.586	5.89
457.79	5.76
457.993	5.91
458.196	5.79
