Data from LC_211__Reflection_6.txt Node
Date: Thu Nov 19 12:29:16 EST 2015
User: robert
Spectrometer: USB4E03001
Autoset integration time: false
Trigger mode: 4
Integration Time (sec): 1.000000E-1
Scans to average: 15
Electric dark correction enabled: true
Nonlinearity correction enabled: false
Boxcar width: 5
Stray light correction enabled: false
XAxis mode: Wavelengths
Stop averaging: false
Number of Pixels in Spectrum: 3648
>>>>>Begin Spectral Data<<<<<
177.566	191.64
177.785	-515.38
178.005	257.49
178.225	131.38
178.445	133.41
178.665	74.57
178.885	43.27
179.105	-70.33
179.324	-74.68
179.544	-204.13
179.764	192.4
179.984	737.67
180.204	693.57
180.423	277.53
180.643	188.47
180.863	141.02
181.083	137.2
181.302	221.53
181.522	339.75
181.742	137.6
181.961	143.72
182.181	132.15
182.401	87.67
182.621	46.05
182.84	49.32
183.06	56.3
183.279	71.57
183.499	71.56
183.719	71.46
183.938	52.35
184.158	101.87
184.377	138.8
184.597	312.68
184.816	-218.62
185.036	-159.72
185.256	-22.11
185.475	28.4
185.695	44.34
185.914	34.8
186.134	38.11
186.353	-24.6
186.572	-189.84
186.792	-229.86
187.011	941.9
187.231	756.7
187.45	741.42
187.67	636.45
187.889	709.12
188.108	3610.55
188.328	899.1
188.547	937.46
188.766	-1860.6
188.986	-150.62
189.205	-98.87
189.424	-86.08
189.644	-102.34
189.863	-221.74
190.082	-123.21
190.302	-26.8
190.521	-37.18
190.74	-4.05
190.959	-36.29
191.178	30.44
191.398	57.17
191.617	-384.05
191.836	-682.88
192.055	-191.1
192.274	-41.52
192.494	46.09
192.713	75.02
192.932	148.56
193.151	235.03
193.37	81.62
193.589	98.27
193.808	51.12
194.027	614.91
194.246	302.88
194.465	57.75
194.685	-654.95
194.904	46.08
195.123	392.12
195.342	259.92
195.561	173.03
195.78	183.43
195.999	108.76
196.218	-365.81
196.436	10434.62
196.655	-345.64
196.874	76.54
197.093	103.96
197.312	58.23
197.531	234.08
197.75	170.77
197.969	122.35
198.188	-933.08
198.407	148.28
198.625	102.84
198.844	68.86
199.063	95.81
199.282	64.66
199.501	66.38
199.719	61.5
199.938	81.37
200.157	66.48
200.376	97.25
200.594	80.4
200.813	57.46
201.032	55.13
201.251	127.56
201.469	5.64
201.688	40.04
201.907	67.75
202.125	15.47
202.344	7.14
202.563	25.33
202.781	10.82
203	15.04
203.218	33.19
203.437	31.54
203.656	100.48
203.874	628.51
204.093	332.24
204.311	-316.5
204.53	-122.15
204.748	-41.33
204.967	-25.82
205.185	-49.96
205.404	-61.47
205.622	-53.17
205.841	-125.56
206.059	-336.66
206.278	-5159.17
206.496	-385.47
206.715	-1513.46
206.933	77.07
207.151	49.87
207.37	58.6
207.588	38.11
207.806	-18.2
208.025	-4.33
208.243	-132.79
208.461	-616.63
208.68	-848.43
208.898	-67.27
209.116	-1742.31
209.335	201.98
209.553	-72.18
209.771	13.27
209.989	-41.8
210.208	-97.6
210.426	-200.52
210.644	245.27
210.862	154.6
211.081	169.09
211.299	74.74
211.517	32.31
211.735	-866.35
211.953	25.85
212.171	99.54
212.39	107
212.608	96.91
212.826	97.09
213.044	224.98
213.262	162.79
213.48	108.69
213.698	124.18
213.916	89.93
214.134	136.68
214.352	181.35
214.57	181.33
214.788	419.37
215.006	-2960.58
215.224	-329.35
215.442	-108.77
215.66	-87.8
215.878	-128.17
216.096	-193.14
216.314	-198.67
216.532	-149.07
216.75	-110.66
216.968	-86.13
217.185	-60.36
217.403	-30.27
217.621	-22.83
217.839	-27.63
218.057	10.1
218.275	49.07
218.492	68.03
218.71	65.18
218.928	49.44
219.146	58.05
219.363	55.58
219.581	43.4
219.799	52.47
220.017	33.28
220.234	31.71
220.452	0.98
220.67	-51.84
220.887	19.19
221.105	23.77
221.323	-12.14
221.54	-24.03
221.758	-30.49
221.976	-31.33
222.193	8.9
222.411	4.7
222.629	-1.62
222.846	-0.21
223.064	-17.5
223.281	-25.61
223.499	-45.86
223.716	-29.86
223.934	-42.18
224.151	-53.53
224.369	-47.58
224.586	-66.91
224.804	-289.85
225.021	-125.98
225.239	-129.88
225.456	-60.03
225.674	-145
225.891	-61.37
226.108	-43.28
226.326	-20.39
226.543	-12.21
226.76	-35.31
226.978	-55.22
227.195	-29.78
227.413	-36.28
227.63	-30.94
227.847	-25.25
228.064	-12.75
228.282	-9.25
228.499	-6.08
228.716	-4.59
228.934	-1.57
229.151	6.63
229.368	6.73
229.585	11.75
229.802	11.76
230.02	15.75
230.237	17.02
230.454	20.02
230.671	17.64
230.888	15.46
231.105	13.42
231.323	14.21
231.54	10.49
231.757	12.43
231.974	8.65
232.191	19.24
232.408	15.55
232.625	16.43
232.842	11.6
233.059	13.49
233.276	16.49
233.493	17.48
233.71	14.02
233.927	9.32
234.144	9.48
234.361	10.04
234.578	-3.28
234.795	-11.57
235.012	-8.84
235.229	-10.92
235.446	-6.44
235.663	-11.49
235.879	-3.63
236.096	-2.83
236.313	1.63
236.53	-0.49
236.747	3.58
236.964	9.44
237.181	18.48
237.397	11.39
237.614	14.31
237.831	9.74
238.048	12.42
238.264	2.45
238.481	5.35
238.698	7.81
238.915	10.17
239.131	5.69
239.348	2.92
239.565	4.54
239.781	6.49
239.998	8.88
240.215	13.06
240.431	12.71
240.648	14.46
240.865	13.24
241.081	11.61
241.298	9.26
241.514	8.53
241.731	8.19
241.947	7.25
242.164	7.82
242.38	7.03
242.597	4.57
242.814	3.36
243.03	2.36
243.246	2.83
243.463	3.23
243.679	6.06
243.896	7.96
244.112	9.58
244.329	10.11
244.545	11.62
244.762	12.46
244.978	17
245.194	18.19
245.411	17.53
245.627	17.1
245.843	17.71
246.06	14.96
246.276	13.63
246.492	11.83
246.709	10.67
246.925	9.75
247.141	8.89
247.357	8.01
247.574	7.94
247.79	9.01
248.006	8.34
248.222	6.82
248.439	6.81
248.655	6.17
248.871	7.06
249.087	6.52
249.303	5.3
249.519	5.08
249.736	4.75
249.952	5.89
250.168	4.42
250.384	4.61
250.6	6.74
250.816	5.89
251.032	5.84
251.248	5.34
251.464	7.82
251.68	12.77
251.896	14.28
252.112	12.17
252.328	10.74
252.544	10.94
252.76	12.07
252.976	12.96
253.192	14.7
253.408	15.41
253.624	14.43
253.84	13.44
254.056	11.16
254.272	9.41
254.487	9.33
254.703	11.11
254.919	10.64
255.135	9.43
255.351	7.13
255.567	4.57
255.782	1.87
255.998	2.08
256.214	1.82
256.43	3.33
256.646	5.99
256.861	5.75
257.077	3.18
257.293	4.67
257.508	5.6
257.724	6.84
257.94	7.12
258.155	8.07
258.371	6.8
258.587	6.63
258.802	6.71
259.018	5.63
259.234	6.98
259.449	8
259.665	6.91
259.88	7.28
260.096	6.77
260.312	6.99
260.527	7.13
260.743	8.1
260.958	8.55
261.174	7.56
261.389	7.3
261.605	7.54
261.82	7.1
262.036	6.68
262.251	6.34
262.466	6.28
262.682	5.55
262.897	6.18
263.113	5.45
263.328	5.18
263.543	6.4
263.759	7.49
263.974	6.31
264.189	4.45
264.405	5.78
264.62	5.1
264.835	4.17
265.051	4.79
265.266	2.03
265.481	0.84
265.696	1.18
265.912	1.58
266.127	2.71
266.342	1.73
266.557	2.67
266.773	4.57
266.988	3.66
267.203	5.03
267.418	4.4
267.633	5.64
267.848	5.62
268.064	5.85
268.279	5.51
268.494	2.79
268.709	4.32
268.924	5.08
269.139	4.5
269.354	6.15
269.569	4.76
269.784	4.09
269.999	5.49
270.214	6.28
270.429	6.03
270.644	6.52
270.859	9.1
271.074	8.26
271.289	7.79
271.504	6.99
271.719	7.2
271.934	6.72
272.149	8.4
272.363	7.94
272.578	6.94
272.793	7.08
273.008	7.27
273.223	5.59
273.438	5.89
273.653	5.19
273.867	6.05
274.082	5.23
274.297	6.41
274.512	6.34
274.726	5.49
274.941	7.41
275.156	6
275.371	5.92
275.585	6.81
275.8	4.52
276.015	5.32
276.229	3.73
276.444	4.13
276.659	3.47
276.873	0.4
277.088	0.66
277.302	-1.37
277.517	-0.67
277.732	-1.16
277.946	-2.57
278.161	-0.34
278.375	-1.72
278.59	0.24
278.804	-0.16
279.019	0.96
279.233	4.32
279.448	3.37
279.662	4.3
279.877	3.87
280.091	4.52
280.306	7.14
280.52	6.65
280.735	8.37
280.949	8.55
281.163	8.74
281.378	7.14
281.592	5.96
281.806	6.34
282.021	7.02
282.235	6.57
282.449	5.33
282.664	3.99
282.878	5.05
283.092	4.97
283.307	5.76
283.521	5
283.735	5.17
283.949	5.72
284.164	6.54
284.378	5.54
284.592	7.65
284.806	9.19
285.02	8.72
285.234	8.51
285.449	8.14
285.663	6.73
285.877	6.67
286.091	7.71
286.305	8.06
286.519	7.8
286.733	7.88
286.947	6.83
287.161	5.07
287.375	5.83
287.589	4.54
287.803	3.85
288.017	4.53
288.231	4.91
288.445	4.33
288.659	3.59
288.873	3.92
289.087	5.69
289.301	5.32
289.515	5.41
289.729	4.39
289.943	4.8
290.157	6.59
290.371	6.33
290.584	6.66
290.798	7.02
291.012	7.65
291.226	6.89
291.44	6.57
291.654	7.51
291.867	8.83
292.081	9.69
292.295	10.26
292.509	10.51
292.722	11.15
292.936	10.48
293.15	12.19
293.364	10.56
293.577	10.79
293.791	9.64
294.005	10.1
294.218	9.58
294.432	11.65
294.645	12.31
294.859	10.08
295.073	8.83
295.286	9.74
295.5	8.57
295.713	10.92
295.927	11.06
296.14	11.71
296.354	11.24
296.568	10.98
296.781	9.4
296.994	8.12
297.208	7.84
297.421	8.79
297.635	8.9
297.848	9.2
298.062	8.78
298.275	9.3
298.489	8.48
298.702	8.11
298.915	8.47
299.129	9.84
299.342	11.18
299.555	13.95
299.769	14.71
299.982	14.93
300.195	14.57
300.409	13.24
300.622	13.77
300.835	14.5
301.048	15.46
301.262	16.46
301.475	15.17
301.688	15.04
301.901	14.24
302.115	14.08
302.328	14.87
302.541	15.44
302.754	16.18
302.967	13.99
303.18	14.41
303.393	14.56
303.607	14.01
303.82	15.53
304.033	14.87
304.246	15.86
304.459	15.1
304.672	15.67
304.885	14.84
305.098	13.97
305.311	15.7
305.524	16.33
305.737	16.25
305.95	16.96
306.163	15.52
306.376	16.68
306.589	14.38
306.802	14.17
307.015	11.69
307.228	12.07
307.44	13.06
307.653	12.55
307.866	11.23
308.079	11.29
308.292	10.94
308.505	11.78
308.718	12.4
308.93	13.36
309.143	13.27
309.356	13.58
309.569	13.62
309.781	14.36
309.994	14.53
310.207	15.37
310.42	14.06
310.632	13.98
310.845	14.17
311.058	12.78
311.27	13.68
311.483	14.2
311.696	13.96
311.908	14.7
312.121	13.97
312.333	13.48
312.546	12.58
312.759	13.27
312.971	13.39
313.184	12.98
313.396	13.45
313.609	13.28
313.821	12.52
314.034	13.8
314.246	12.82
314.459	12.76
314.671	14.94
314.884	15.32
315.096	15.74
315.309	15.68
315.521	16.25
315.733	16.37
315.946	15.08
316.158	15.13
316.371	14.84
316.583	15.55
316.795	15.72
317.008	13.74
317.22	14.05
317.432	13.55
317.644	12.67
317.857	12.03
318.069	13.03
318.281	13.89
318.494	13.91
318.706	13.33
318.918	12.97
319.13	13.51
319.342	14.58
319.555	14.92
319.767	15.5
319.979	16.37
320.191	16.8
320.403	17.68
320.615	16.73
320.827	16.73
321.039	17.56
321.252	18.56
321.464	17.57
321.676	17.57
321.888	16.84
322.1	15.05
322.312	14.89
322.524	13.97
322.736	13.28
322.948	13.53
323.16	13.01
323.372	12.65
323.584	12.55
323.796	12.52
324.007	12.47
324.219	12.94
324.431	14.36
324.643	14.54
324.855	14.8
325.067	14.1
325.279	14.02
325.491	15.52
325.702	15.16
325.914	14.39
326.126	15.77
326.338	16.2
326.55	16.46
326.761	16.84
326.973	17.7
327.185	17.67
327.396	17.47
327.608	17.36
327.82	17.62
328.032	18.49
328.243	20.16
328.455	20.14
328.666	21.01
328.878	22.53
329.09	22.14
329.301	22.52
329.513	23.15
329.725	23.3
329.936	24.18
330.148	24.16
330.359	25.09
330.571	24.84
330.782	24.3
330.994	23.83
331.205	21.89
331.417	22.65
331.628	22.19
331.84	22.85
332.051	23.52
332.262	23.77
332.474	23.74
332.685	24.66
332.897	23.7
333.108	24.85
333.319	26.05
333.531	26.65
333.742	27.09
333.953	26.82
334.165	26.33
334.376	27.34
334.587	28.88
334.799	29.42
335.01	27.49
335.221	29.31
335.432	29.37
335.644	28.82
335.855	29.07
336.066	29.66
336.277	30.16
336.488	30.77
336.7	30.41
336.911	29.5
337.122	29.31
337.333	30.38
337.544	29.42
337.755	30.03
337.966	29.81
338.177	30.54
338.388	30.57
338.599	30.35
338.811	30.52
339.022	30.68
339.233	31.06
339.444	31.09
339.655	30.48
339.866	30.75
340.076	30.25
340.287	30.83
340.498	30.14
340.709	30.09
340.92	30.53
341.131	30.97
341.342	30.27
341.553	29.82
341.764	30.34
341.975	30.91
342.185	30.91
342.396	30.88
342.607	30.54
342.818	31.14
343.029	30.27
343.239	29.64
343.45	29.15
343.661	29.54
343.872	29.85
344.082	29.43
344.293	29.32
344.504	31.49
344.714	31.27
344.925	31.43
345.136	31.4
345.346	32.49
345.557	33.52
345.768	33.8
345.978	33.84
346.189	33.26
346.399	32.37
346.61	32.44
346.821	30.26
347.031	30.23
347.242	29.86
347.452	29.25
347.663	28.63
347.873	29.1
348.084	28.71
348.294	29.51
348.504	29.98
348.715	31.05
348.925	31.44
349.136	31.43
349.346	31.51
349.557	30.97
349.767	31.47
349.977	31.09
350.188	29.93
350.398	30.37
350.608	29.29
350.819	29.21
351.029	28.61
351.239	28.41
351.449	28.38
351.66	28.49
351.87	29.31
352.08	29.32
352.29	29.92
352.501	30.06
352.711	30.45
352.921	30.69
353.131	30.54
353.341	31.13
353.552	30.57
353.762	30.4
353.972	30.44
354.182	31.08
354.392	30.81
354.602	31.06
354.812	30.89
355.022	30.49
355.232	31.17
355.442	31.52
355.652	31.54
355.862	31.57
356.072	31.41
356.282	31.26
356.492	30.13
356.702	30.51
356.912	30.53
357.122	29.98
357.332	29.64
357.542	28.57
357.752	28.4
357.962	28.1
358.171	28.06
358.381	28.17
358.591	27.94
358.801	28.59
359.011	27.96
359.221	27.35
359.43	28.11
359.64	28.54
359.85	29.81
360.06	29.64
360.269	30.03
360.479	30.45
360.689	30.5
360.899	30.43
361.108	30.49
361.318	31.13
361.528	31.19
361.737	31.42
361.947	31.34
362.156	30.89
362.366	30.86
362.576	30.19
362.785	30.1
362.995	30.51
363.204	30.55
363.414	29.77
363.623	28.96
363.833	28.73
364.042	27.61
364.252	27.5
364.461	27.53
364.671	27.71
364.88	27.35
365.09	26.78
365.299	26.11
365.509	25.85
365.718	25.88
365.927	26.61
366.137	26.73
366.346	27
366.555	26.22
366.765	25.87
366.974	25.5
367.183	25.72
367.393	25.63
367.602	25.83
367.811	25.75
368.021	25.51
368.23	24.87
368.439	25.21
368.648	25.12
368.857	25.98
369.067	25.25
369.276	25.54
369.485	25.62
369.694	26.01
369.903	26.31
370.112	26.91
370.321	27.39
370.531	27.62
370.74	27.24
370.949	27.74
371.158	27.2
371.367	27.79
371.576	27.17
371.785	27.05
371.994	26.69
372.203	26.19
372.412	25.86
372.621	25.5
372.83	25.4
373.039	25.07
373.248	25.03
373.457	25.22
373.666	24.89
373.874	24.54
374.083	24.44
374.292	24.41
374.501	24.24
374.71	24.01
374.919	24.28
375.128	23.75
375.336	24.21
375.545	23.94
375.754	23.61
375.963	23.87
376.171	24.63
376.38	25.09
376.589	24.86
376.798	24.46
377.006	24.66
377.215	24.28
377.424	24.31
377.632	23.83
377.841	24.1
378.05	24.12
378.258	23.75
378.467	23.53
378.675	23.17
378.884	23.38
379.093	23.46
379.301	23.35
379.51	23.46
379.718	23.75
379.927	24.05
380.135	23.21
380.344	22.9
380.552	23.32
380.761	23.24
380.969	23.44
381.177	23.73
381.386	24.52
381.594	24.34
381.803	24.37
382.011	24.21
382.219	23.81
382.428	24.02
382.636	23.96
382.845	23.59
383.053	23.38
383.261	23.07
383.469	22.62
383.678	21.69
383.886	21.63
384.094	21.36
384.302	21.15
384.511	21
384.719	21.11
384.927	20.96
385.135	20.73
385.343	20.95
385.552	20.52
385.76	20.35
385.968	20.43
386.176	20.3
386.384	20.09
386.592	19.98
386.8	20.12
387.008	20.1
387.216	20.46
387.424	20.82
387.633	20.81
387.841	21.1
388.049	21.11
388.257	20.87
388.465	20.93
388.672	21.33
388.88	21.31
389.088	21.19
389.296	21.16
389.504	20.8
389.712	20.56
389.92	20.41
390.128	20.35
390.336	20.04
390.544	20.47
390.751	20.31
390.959	20.05
391.167	20.3
391.375	20.41
391.583	20.13
391.79	20.33
391.998	20.36
392.206	20.01
392.414	19.84
392.621	20.07
392.829	20.21
393.037	20.38
393.244	20.26
393.452	20.1
393.66	19.86
393.867	19.84
394.075	19.53
394.283	19.42
394.49	19.5
394.698	19.73
394.905	19.55
395.113	19.23
395.32	18.67
395.528	18.43
395.735	18.18
395.943	18.26
396.15	18.19
396.358	18.42
396.565	18.31
396.773	18.27
396.98	18.02
397.188	18.22
397.395	18.18
397.602	18.41
397.81	18.44
398.017	18.63
398.225	18.65
398.432	18.71
398.639	18.57
398.847	18.39
399.054	18.39
399.261	18.53
399.468	18.35
399.676	18.16
399.883	18.25
400.09	18.39
400.297	18.42
400.505	18.12
400.712	18.08
400.919	17.98
401.126	18.1
401.333	18.3
401.54	17.98
401.748	18.35
401.955	18.59
402.162	18.67
402.369	18.88
402.576	18.83
402.783	19
402.99	18.95
403.197	19.16
403.404	18.7
403.611	18.49
403.818	18.78
404.025	18.58
404.232	18.46
404.439	18.28
404.646	18.01
404.853	17.97
405.06	17.81
405.267	17.8
405.474	17.71
405.681	17.81
405.887	17.7
406.094	17.45
406.301	17.38
406.508	17.07
406.715	17.08
406.922	17.3
407.128	17.24
407.335	17.11
407.542	17.16
407.749	17.03
407.955	17.46
408.162	17.48
408.369	17.73
408.575	17.55
408.782	17.87
408.989	17.64
409.195	17.3
409.402	17.15
409.609	17.51
409.815	17.52
410.022	17.53
410.228	17.48
410.435	17.32
410.642	17.21
410.848	17.35
411.055	17.25
411.261	17.35
411.468	17.42
411.674	17.63
411.881	17.72
412.087	17.76
412.294	17.89
412.5	17.89
412.706	18.09
412.913	17.89
413.119	17.96
413.326	18.2
413.532	18.25
413.738	18.22
413.945	17.78
414.151	17.45
414.357	17.42
414.564	17.34
414.77	17.14
414.976	17.24
415.182	17.37
415.389	17.23
415.595	16.81
415.801	16.85
416.007	17.01
416.214	17.08
416.42	17.26
416.626	17.24
416.832	17.09
417.038	17.06
417.244	17.24
417.45	17.23
417.657	17.14
417.863	17.33
418.069	17.23
418.275	17.1
418.481	17.13
418.687	17.22
418.893	17.11
419.099	17.16
419.305	17.21
419.511	16.91
419.717	16.92
419.923	17.03
420.129	17.01
420.335	16.94
420.541	16.9
420.746	17.07
420.952	17
421.158	17.06
421.364	16.94
421.57	16.92
421.776	16.99
421.982	16.96
422.187	16.72
422.393	16.69
422.599	16.68
422.805	16.78
423.01	16.58
423.216	16.46
423.422	16.41
423.628	16.46
423.833	16.44
424.039	16.55
424.245	16.44
424.45	16.59
424.656	16.55
424.862	16.59
425.067	16.52
425.273	16.58
425.478	16.6
425.684	16.67
425.889	16.79
426.095	16.8
426.301	16.74
426.506	16.96
426.712	16.9
426.917	16.84
427.123	16.93
427.328	16.99
427.533	16.98
427.739	17.09
427.944	17.07
428.15	16.86
428.355	16.83
428.561	16.73
428.766	16.6
428.971	16.69
429.177	16.81
429.382	16.82
429.587	16.8
429.793	16.79
429.998	16.66
430.203	16.42
430.408	16.45
430.614	16.52
430.819	16.4
431.024	16.23
431.229	16.26
431.434	16.18
431.64	15.98
431.845	15.95
432.05	15.96
432.255	15.88
432.46	16.11
432.665	16.1
432.87	16.12
433.076	16.23
433.281	16.29
433.486	16.47
433.691	16.45
433.896	16.53
434.101	16.5
434.306	16.7
434.511	16.62
434.716	16.43
434.921	16.4
435.126	16.43
435.331	16.38
435.535	16.29
435.74	16.06
435.945	16.04
436.15	16.28
436.355	16.44
436.56	16.01
436.765	16.21
436.97	16.44
437.174	16.61
437.379	16.37
437.584	16.5
437.789	16.61
437.993	16.76
438.198	16.85
438.403	16.73
438.608	16.58
438.812	16.75
439.017	16.84
439.222	16.93
439.426	16.72
439.631	16.8
439.836	16.75
440.04	16.76
440.245	16.71
440.45	16.68
440.654	16.72
440.859	16.62
441.063	16.64
441.268	16.5
441.472	16.29
441.677	16.34
441.881	16.41
442.086	16.38
442.29	16.4
442.495	16.38
442.699	16.36
442.904	16.18
443.108	16.25
443.312	16.22
443.517	16.19
443.721	16.16
443.925	16.24
444.13	16.19
444.334	16.18
444.538	16.24
444.743	16.3
444.947	16.4
445.151	16.34
445.356	16.35
445.56	16.37
445.764	16.41
445.968	16.53
446.173	16.59
446.377	16.54
446.581	16.48
446.785	16.44
446.989	16.38
447.193	16.29
447.398	16.44
447.602	16.41
447.806	16.51
448.01	16.51
448.214	16.53
448.418	16.46
448.622	16.49
448.826	16.46
449.03	16.44
449.234	16.33
449.438	16.37
449.642	16.26
449.846	16.46
450.05	16.32
450.254	16.24
450.458	16.08
450.662	16.06
450.866	16.09
451.069	16.4
451.273	16.26
451.477	16.37
451.681	16.33
451.885	16.24
452.089	16.24
452.292	16.28
452.496	16.48
452.7	16.45
452.904	16.39
453.107	16.38
453.311	16.22
453.515	16.31
453.719	16.27
453.922	16.21
454.126	16.16
454.33	16.05
454.533	15.91
454.737	15.56
454.94	15.77
455.144	15.99
455.348	16
455.551	15.88
455.755	15.7
455.958	15.74
456.162	15.75
456.365	15.76
456.569	15.82
456.772	16.02
456.976	16.24
457.179	16.18
457.383	15.98
457.586	15.91
457.79	15.86
457.993	16.11
