Data from LC_220__Reflection_2.txt Node
Date: Thu Nov 19 13:38:30 EST 2015
User: robert
Spectrometer: USB4E03001
Autoset integration time: false
Trigger mode: 4
Integration Time (sec): 1.000000E-1
Scans to average: 15
Electric dark correction enabled: true
Nonlinearity correction enabled: false
Boxcar width: 5
Stray light correction enabled: false
XAxis mode: Wavelengths
Stop averaging: false
Number of Pixels in Spectrum: 3648
>>>>>Begin Spectral Data<<<<<
177.566	403.14
177.785	713.05
178.005	530.52
178.225	293.41
178.445	790.74
178.665	-127500
178.885	57.87
179.105	645.39
179.324	-515.89
179.544	-1569.02
179.764	-573.24
179.984	-766.55
180.204	-589.79
180.423	-596.6
180.643	-3089.61
180.863	-2647.4
181.083	-672.48
181.302	-501.72
181.522	-418.42
181.742	-2614.15
181.961	5264.9
182.181	4124.22
182.401	494.18
182.621	608.05
182.84	1007.89
183.06	2326.29
183.279	1986.12
183.499	1028.57
183.719	995.51
183.938	583.37
184.158	1216.85
184.377	1322.55
184.597	928.92
184.816	7971.22
185.036	32216.3
185.256	2076.66
185.475	1048.61
185.695	1011.08
185.914	751.93
186.134	495.89
186.353	444.21
186.572	339.26
186.792	404.91
187.011	3220.81
187.231	600.15
187.45	832.52
187.67	1920.52
187.889	32872.73
188.108	886.55
188.328	-4141.3
188.547	-601.33
188.766	-526.02
188.986	-756.97
189.205	-981.32
189.424	1677.55
189.644	2973.69
189.863	1447.24
190.082	1570.01
190.302	6755.4
190.521	-636.41
190.74	-2219.41
190.959	-20835.92
191.178	26098.31
191.398	-10276.49
191.617	2233.53
191.836	7696.68
192.055	-2170.65
192.274	-835.87
192.494	-1423.43
192.713	-891.52
192.932	-604.18
193.151	-567.5
193.37	-903.1
193.589	-732.79
193.808	-612.74
194.027	-738.76
194.246	-1357.04
194.465	-1180.24
194.685	69515
194.904	1059.37
195.123	566.89
195.342	339.76
195.561	288.08
195.78	365.37
195.999	509.73
196.218	816.08
196.436	1297
196.655	855.57
196.874	569.76
197.093	496.74
197.312	1588.56
197.531	1658.38
197.75	3102.29
197.969	-1042.68
198.188	-1234.79
198.407	-7995.37
198.625	563.23
198.844	868.82
199.063	2137.21
199.282	2385.05
199.501	-1625.45
199.719	-2470.03
199.938	-3843.91
200.157	3882.57
200.376	1418.08
200.594	911.85
200.813	937.48
201.032	599.26
201.251	703.45
201.469	1189.14
201.688	875.4
201.907	682.05
202.125	679.95
202.344	519.21
202.563	407.74
202.781	558.33
203	455.87
203.218	393.29
203.437	1112.11
203.656	704.23
203.874	465.75
204.093	511.48
204.311	502.49
204.53	425.78
204.748	460.36
204.967	577.88
205.185	367.7
205.404	468.55
205.622	666.58
205.841	446.36
206.059	448.94
206.278	464.52
206.496	581.8
206.715	777.25
206.933	960.56
207.151	-1910.87
207.37	-1294.48
207.588	-4458.4
207.806	3423.22
208.025	1339.54
208.243	-1753.16
208.461	-1395
208.68	-3186.61
208.898	4766.4
209.116	2096.05
209.335	4131.44
209.553	1279.38
209.771	3409.77
209.989	-2825.17
210.208	-1974.3
210.426	-1043.92
210.644	-1122.51
210.862	-492.84
211.081	-514.25
211.299	-222.15
211.517	-317.22
211.735	-425.41
211.953	-1109.5
212.171	700.21
212.39	1060.24
212.608	1177.41
212.826	586.9
213.044	324.28
213.262	301.91
213.48	331.58
213.698	339.53
213.916	438.23
214.134	551.06
214.352	1009.49
214.57	-2654.65
214.788	1380.56
215.006	7481.75
215.224	-2037.49
215.442	-715.06
215.66	-777.87
215.878	1724.61
216.096	480.46
216.314	520.13
216.532	360.36
216.75	320.57
216.968	296.23
217.185	303.92
217.403	340.35
217.621	382.17
217.839	439.11
218.057	373.69
218.275	508.7
218.492	835.46
218.71	436.05
218.928	385.83
219.146	405.37
219.363	612.9
219.581	597.67
219.799	1285.98
220.017	423.93
220.234	347.1
220.452	476.07
220.67	373.58
220.887	391.38
221.105	648.56
221.323	828.77
221.54	718.75
221.758	458.44
221.976	425.59
222.193	291.62
222.411	357.39
222.629	400.64
222.846	443.96
223.064	365.45
223.281	352.6
223.499	331.31
223.716	343.87
223.934	261.46
224.151	325.96
224.369	300.9
224.586	311.51
224.804	301.55
225.021	233.58
225.239	193.51
225.456	218.29
225.674	186.31
225.891	172.37
226.108	166.49
226.326	169.73
226.543	134.79
226.76	125.09
226.978	120.41
227.195	112.97
227.413	95.19
227.63	82.49
227.847	69.45
228.064	61.56
228.282	55.36
228.499	53.82
228.716	48.3
228.934	46.98
229.151	47.86
229.368	43.36
229.585	40.92
229.802	44.32
230.02	42.13
230.237	39.27
230.454	42.94
230.671	47.88
230.888	46.84
231.105	50.66
231.323	57.01
231.54	54.38
231.757	59.42
231.974	66.15
232.191	65.78
232.408	74.09
232.625	86.79
232.842	88.17
233.059	84.52
233.276	85.37
233.493	88.8
233.71	79.11
233.927	80.59
234.144	80.98
234.361	76.48
234.578	80.51
234.795	69.05
235.012	63.16
235.229	59.04
235.446	60.81
235.663	61.53
235.879	61.78
236.096	68.47
236.313	74.35
236.53	71.73
236.747	80.89
236.964	79.48
237.181	87.41
237.397	85.59
237.614	91.58
237.831	93.1
238.048	98.16
238.264	98.51
238.481	89.1
238.698	82.74
238.915	84.79
239.131	67.01
239.348	62.9
239.565	54.66
239.781	60.97
239.998	53.17
240.215	51.49
240.431	48.61
240.648	45.51
240.865	43.26
241.081	41.09
241.298	37.43
241.514	38.15
241.731	37.14
241.947	35.39
242.164	31.06
242.38	30.93
242.597	30.29
242.814	30.64
243.03	27.37
243.246	29.31
243.463	29.66
243.679	31.64
243.896	32.69
244.112	31.24
244.329	32.22
244.545	35.15
244.762	36.65
244.978	37.01
245.194	36.69
245.411	38.36
245.627	34.93
245.843	31.86
246.06	27.04
246.276	25.53
246.492	24.95
246.709	23.93
246.925	22.42
247.141	20.94
247.357	20.15
247.574	19.91
247.79	19.78
248.006	18.7
248.222	18.46
248.439	19.54
248.655	18.72
248.871	19.12
249.087	18.95
249.303	19.29
249.519	21.16
249.736	21.85
249.952	20.95
250.168	25.35
250.384	30.46
250.6	32.23
250.816	35.07
251.032	37.52
251.248	37.19
251.464	37.65
251.68	36.7
251.896	32.61
252.112	31.88
252.328	30.82
252.544	27.48
252.76	25.59
252.976	25.55
253.192	24.95
253.408	24.57
253.624	25.92
253.84	26.72
254.056	29.96
254.272	34.23
254.487	36.24
254.703	37.98
254.919	39.24
255.135	40.83
255.351	38.52
255.567	38.5
255.782	38.02
255.998	38.19
256.214	39.25
256.43	36.71
256.646	37.76
256.861	34.76
257.077	37.76
257.293	38.05
257.508	34.93
257.724	35.78
257.94	31.15
258.155	30.19
258.371	28.47
258.587	26.47
258.802	24.24
259.018	21.22
259.234	19.94
259.449	17.06
259.665	15.89
259.88	15.94
260.096	15.11
260.312	15.2
260.527	15.11
260.743	14.55
260.958	14.56
261.174	15.19
261.389	17.05
261.605	17.53
261.82	17.51
262.036	17.84
262.251	17.88
262.466	18.49
262.682	19.52
262.897	19.96
263.113	21.93
263.328	22.75
263.543	23.44
263.759	21.16
263.974	21.64
264.189	23.21
264.405	25.84
264.62	28.83
264.835	29.56
265.051	31.06
265.266	29.84
265.481	28.79
265.696	31.99
265.912	30.98
266.127	28.76
266.342	28.75
266.557	28.37
266.773	24.44
266.988	22.8
267.203	21.84
267.418	20.67
267.633	21.33
267.848	21.14
268.064	18.35
268.279	17.32
268.494	18.53
268.709	19.04
268.924	20.29
269.139	23.56
269.354	25.67
269.569	25.54
269.784	24.62
269.999	24.59
270.214	24.68
270.429	26.34
270.644	27.26
270.859	26.97
271.074	26.43
271.289	26
271.504	24.59
271.719	22.55
271.934	23.01
272.149	23.72
272.363	22.8
272.578	22.7
272.793	20.18
273.008	19.19
273.223	18.67
273.438	18.44
273.653	17.86
273.867	17.04
274.082	18.14
274.297	18.96
274.512	19.67
274.726	19.5
274.941	19.29
275.156	21.96
275.371	23.45
275.585	25.46
275.8	25.92
276.015	25.71
276.229	27.7
276.444	26.21
276.659	26.57
276.873	26.28
277.088	26.75
277.302	27.75
277.517	26.1
277.732	25.87
277.946	24.98
278.161	26.96
278.375	27.82
278.59	26.32
278.804	27.17
279.019	27.93
279.233	26.99
279.448	26.99
279.662	25.12
279.877	24.05
280.091	23.05
280.306	22.03
280.52	18.71
280.735	17.7
280.949	16.67
281.163	16.32
281.378	13.46
281.592	13.59
281.806	14.02
282.021	15.51
282.235	17.4
282.449	18.68
282.664	18.84
282.878	19.13
283.092	20.55
283.307	21.22
283.521	21.12
283.735	22.36
283.949	23.18
284.164	24.99
284.378	24.4
284.592	22.44
284.806	21.05
285.02	20.81
285.234	19.88
285.449	19.58
285.663	20.83
285.877	21.06
286.091	21.92
286.305	21.86
286.519	20
286.733	18.91
286.947	20.05
287.161	20.06
287.375	21.2
287.589	23.22
287.803	21.42
288.017	20.61
288.231	19.92
288.445	17.38
288.659	18.31
288.873	18.61
289.087	20.63
289.301	20.65
289.515	20.86
289.729	19.64
289.943	20.08
290.157	20.95
290.371	20.3
290.584	20.35
290.798	21.41
291.012	20.38
291.226	20.9
291.44	21.72
291.654	20.43
291.867	19.71
292.081	20.36
292.295	19.28
292.509	18.98
292.722	20.12
292.936	20.39
293.15	21.49
293.364	21.34
293.577	20.04
293.791	16.93
294.005	18.83
294.218	18.75
294.432	18.62
294.645	19.2
294.859	19.77
295.073	19.16
295.286	19.96
295.5	19.25
295.713	18.04
295.927	18.13
296.14	18.68
296.354	18.08
296.568	18.2
296.781	17.82
296.994	17.23
297.208	16.94
297.421	16.74
297.635	16.09
297.848	15.58
298.062	15.98
298.275	16.23
298.489	16.92
298.702	17.19
298.915	16.39
299.129	17.83
299.342	19.11
299.555	21.25
299.769	22.12
299.982	23.86
300.195	24.97
300.409	25.53
300.622	25.33
300.835	26.41
301.048	26
301.262	28.22
301.475	27.26
301.688	26.82
301.901	23.56
302.115	24.32
302.328	22.27
302.541	20.93
302.754	21.26
302.967	22.23
303.18	20.89
303.393	21.68
303.607	20.72
303.82	21.49
304.033	21.33
304.246	24.71
304.459	24.61
304.672	25.72
304.885	26.46
305.098	26.87
305.311	26.22
305.524	26.15
305.737	27.06
305.95	27.42
306.163	25.39
306.376	25.2
306.589	23.93
306.802	23.23
307.015	23.37
307.228	23.94
307.44	22.07
307.653	22.91
307.866	24.53
308.079	24.06
308.292	23.21
308.505	24.49
308.718	24.23
308.93	23.6
309.143	23.05
309.356	22.21
309.569	21.64
309.781	23.51
309.994	23.11
310.207	21.63
310.42	20.12
310.632	20.65
310.845	20.62
311.058	20.06
311.27	20.81
311.483	21.03
311.696	21.02
311.908	20.98
312.121	20.85
312.333	21.38
312.546	22.4
312.759	22
312.971	21.88
313.184	22.2
313.396	23.78
313.609	22.21
313.821	22.19
314.034	22.95
314.246	24.01
314.459	23.14
314.671	22.47
314.884	21.25
315.096	23.53
315.309	24.29
315.521	24.3
315.733	22.83
315.946	22.76
316.158	23.98
316.371	24.33
316.583	23.23
316.795	22.71
317.008	21.61
317.22	22.95
317.432	21.77
317.644	22.68
317.857	22.19
318.069	23.31
318.281	24.74
318.494	24.09
318.706	24.36
318.918	25.67
319.13	26.21
319.342	27.24
319.555	27.35
319.767	28.24
319.979	27.5
320.191	26.49
320.403	24.75
320.615	22.51
320.827	22.84
321.039	21.53
321.252	20.65
321.464	20.76
321.676	22.96
321.888	20.75
322.1	18.72
322.312	17.86
322.524	20.83
322.736	20.3
322.948	22.42
323.16	21.7
323.372	21.13
323.584	21.78
323.796	22.8
324.007	21.15
324.219	22.84
324.431	24.52
324.643	24.79
324.855	23.65
325.067	24.63
325.279	24.37
325.491	24.39
325.702	24.9
325.914	25.08
326.126	23.98
326.338	23.32
326.55	21.95
326.761	22.03
326.973	22.27
327.185	22.79
327.396	22.96
327.608	22.91
327.82	22.37
328.032	23.03
328.243	22.41
328.455	23.24
328.666	23.68
328.878	24.56
329.09	24.76
329.301	24.39
329.513	23.39
329.725	23.45
329.936	23.63
330.148	23.61
330.359	23.5
330.571	24.02
330.782	23.99
330.994	25.58
331.205	24.43
331.417	23.27
331.628	22.65
331.84	22.8
332.051	23.3
332.262	23.47
332.474	23.74
332.685	24.19
332.897	22.69
333.108	22.37
333.319	20.98
333.531	22.38
333.742	22.49
333.953	22.56
334.165	23.29
334.376	22.83
334.587	21.92
334.799	22.01
335.01	20.81
335.221	22.12
335.432	21.35
335.644	21.36
335.855	21.05
336.066	22.69
336.277	23.46
336.488	21.67
336.7	21.34
336.911	21.53
337.122	20.8
337.333	21.98
337.544	21.72
337.755	22.73
337.966	22.51
338.177	22.47
338.388	21.01
338.599	20.58
338.811	21.87
339.022	22.66
339.233	22.86
339.444	22.89
339.655	21.78
339.866	21.8
340.076	20.08
340.287	20.93
340.498	20.51
340.709	20.05
340.92	20.53
341.131	20.77
341.342	19.89
341.553	20.62
341.764	21.12
341.975	21.11
342.185	21.03
342.396	21.25
342.607	20.56
342.818	20.6
343.029	20.51
343.239	20.61
343.45	18.91
343.661	18.5
343.872	17.78
344.082	17.72
344.293	17.85
344.504	18.44
344.714	19.19
344.925	19.8
345.136	19.65
345.346	19.62
345.557	19.23
345.768	19.9
345.978	20.35
346.189	19.82
346.399	19.95
346.61	19.84
346.821	18.82
347.031	19.32
347.242	18.18
347.452	18.7
347.663	19.07
347.873	20.36
348.084	20.08
348.294	20.43
348.504	20.43
348.715	20.94
348.925	21.13
349.136	21.02
349.346	20.61
349.557	20.41
349.767	19.54
349.977	19.59
350.188	18.58
350.398	19.92
350.608	20.07
350.819	20.79
351.029	20.44
351.239	21.05
351.449	21.71
351.66	21.93
351.87	22.12
352.08	22.03
352.29	21.57
352.501	20.94
352.711	21.25
352.921	21.27
353.131	20.88
353.341	20.72
353.552	19.91
353.762	18.61
353.972	18.65
354.182	19.09
354.392	19.96
354.602	21
354.812	21.47
355.022	19.54
355.232	18.74
355.442	18.56
355.652	18.87
355.862	18.43
356.072	20.24
356.282	19.42
356.492	19.47
356.702	18.64
356.912	18.31
357.122	18.33
357.332	18.71
357.542	19.03
357.752	19.36
357.962	19.22
358.171	19.36
358.381	18.76
358.591	18.1
358.801	18.49
359.011	18.32
359.221	18.15
359.43	18.16
359.64	18.38
359.85	18.35
360.06	17.84
360.269	17.29
360.479	17.46
360.689	16.84
360.899	17.02
361.108	15.88
361.318	16.35
361.528	15.33
361.737	14.86
361.947	14.52
362.156	13.93
362.366	13.81
362.576	14.1
362.785	13.8
362.995	14.27
363.204	14.66
363.414	15.53
363.623	14.75
363.833	15.72
364.042	15.92
364.252	16.26
364.461	17.25
364.671	17.33
364.88	17.1
365.09	17.84
365.299	17.61
365.509	17.89
365.718	17.08
365.927	17.27
366.137	17.48
366.346	16.51
366.555	15.8
366.765	15.36
366.974	15.7
367.183	15.94
367.393	15.03
367.602	14.72
367.811	14.33
368.021	14.42
368.23	14.78
368.439	13.86
368.648	14.84
368.857	15.94
369.067	15.3
369.276	14.93
369.485	14.87
369.694	14.71
369.903	14.62
370.112	14.75
370.321	14.15
370.531	14.15
370.74	14.11
370.949	13.66
371.158	12.92
371.367	13.14
371.576	13.32
371.785	12.96
371.994	13.55
372.203	13.35
372.412	13.17
372.621	14.36
372.83	14.54
373.039	15.12
373.248	15.18
373.457	15.55
373.666	15.61
373.874	15.21
374.083	15.55
374.292	15.12
374.501	15.29
374.71	15.17
374.919	14.63
375.128	14.59
375.336	14.48
375.545	14.71
375.754	14.76
375.963	14.7
376.171	14.97
376.38	15.15
376.589	15.44
376.798	14.96
377.006	15.4
377.215	15.63
377.424	14.88
377.632	14.7
377.841	14.3
378.05	14.36
378.258	14.42
378.467	13.94
378.675	13.46
378.884	13.58
379.093	13.82
379.301	13.6
379.51	13.26
379.718	13.52
379.927	13.47
380.135	13.64
380.344	13.41
380.552	13.89
380.761	14.43
380.969	14.53
381.177	13.78
381.386	13.83
381.594	13.28
381.803	13.11
382.011	13.3
382.219	13.09
382.428	13.11
382.636	13.04
382.845	12.16
383.053	12.27
383.261	11.7
383.469	11.63
383.678	11.85
383.886	12.02
384.094	12.39
384.302	12.4
384.511	12.56
384.719	12.26
384.927	12.19
385.135	12.34
385.343	12.05
385.552	12.47
385.76	12.46
385.968	12.53
386.176	12.36
386.384	12.09
386.592	12.32
386.8	12.19
387.008	12.52
387.216	12.23
387.424	12.3
387.633	12.21
387.841	11.94
388.049	12.52
388.257	12.19
388.465	12.04
388.672	12
388.88	11.93
389.088	11.97
389.296	11.75
389.504	11.75
389.712	12.01
389.92	11.87
390.128	12.02
390.336	11.73
390.544	11.71
390.751	12.08
390.959	11.97
391.167	11.58
391.375	11.76
391.583	11.58
391.79	11.58
391.998	11.43
392.206	11.66
392.414	11.46
392.621	11.5
392.829	11.62
393.037	11.42
393.244	11.54
393.452	11.37
393.66	11.1
393.867	11.2
394.075	11.17
394.283	11.01
394.49	10.54
394.698	10.83
394.905	10.76
395.113	10.69
395.32	10.34
395.528	10.23
395.735	10.54
395.943	10.63
396.15	10.56
396.358	10.64
396.565	10.69
396.773	10.77
396.98	10.48
397.188	10.13
397.395	10
397.602	10.44
397.81	10.49
398.017	10.49
398.225	10.32
398.432	10.5
398.639	10.65
398.847	10.81
399.054	10.85
399.261	10.86
399.468	10.99
399.676	11.04
399.883	11.07
400.09	10.72
400.297	10.98
400.505	11.05
400.712	11.11
400.919	10.94
401.126	10.71
401.333	10.95
401.54	11.21
401.748	11.24
401.955	11.19
402.162	10.95
402.369	11.16
402.576	10.91
402.783	10.56
402.99	10.41
403.197	10.28
403.404	10.36
403.611	10.38
403.818	10.38
404.025	10.28
404.232	10.09
404.439	10.13
404.646	9.85
404.853	9.8
405.06	10.05
405.267	9.85
405.474	9.96
405.681	9.87
405.887	9.68
406.094	9.82
406.301	10.07
406.508	10.28
406.715	10.64
406.922	10.92
407.128	10.87
407.335	10.61
407.542	10.77
407.749	10.64
407.955	10.67
408.162	10.57
408.369	10.27
408.575	10.2
408.782	10.25
408.989	9.77
409.195	9.63
409.402	9.79
409.609	10.16
409.815	10.17
410.022	10.15
410.228	10.05
410.435	10.32
410.642	9.85
410.848	9.86
411.055	9.65
411.261	10.16
411.468	10.18
411.674	9.8
411.881	9.67
412.087	9.52
412.294	9.53
412.5	9.45
412.706	9.59
412.913	10.17
413.119	9.98
413.326	10.22
413.532	10.11
413.738	10.33
413.945	10.6
414.151	10.62
414.357	10.73
414.564	10.88
414.77	10.7
414.976	10.21
415.182	10.31
415.389	10.15
415.595	9.74
415.801	9.38
416.007	9.24
416.214	9.33
416.42	9.25
416.626	9.47
416.832	9.45
417.038	9.62
417.244	9.83
417.45	9.45
417.657	9.59
417.863	9.68
418.069	9.74
418.275	9.72
418.481	9.45
418.687	9.38
418.893	9.15
419.099	9.04
419.305	9.07
419.511	8.97
419.717	9.03
419.923	8.86
420.129	8.79
420.335	8.8
420.541	8.74
420.746	8.8
420.952	8.75
421.158	8.78
421.364	8.75
421.57	8.65
421.776	8.62
421.982	8.59
422.187	8.56
422.393	8.62
422.599	8.61
422.805	8.55
423.01	8.63
423.216	8.75
423.422	8.68
423.628	8.68
423.833	8.72
424.039	8.75
424.245	8.76
424.45	8.76
424.656	8.7
424.862	8.6
425.067	8.7
425.273	8.61
425.478	8.55
425.684	8.5
425.889	8.62
426.095	8.61
426.301	8.61
426.506	8.57
426.712	8.75
426.917	9.04
427.123	8.94
427.328	8.86
427.533	8.89
427.739	8.79
427.944	9.05
428.15	8.99
428.355	9.06
428.561	9.18
428.766	9.09
428.971	9.22
429.177	8.95
429.382	9.3
429.587	9.6
429.793	9.53
429.998	9.64
430.203	9.85
430.408	9.79
430.614	9.9
430.819	9.81
431.024	10.08
431.229	10.16
431.434	10.28
431.64	10.22
431.845	10.28
432.05	10.44
432.255	10.47
432.46	10.1
432.665	10.03
432.87	9.8
433.076	9.92
433.281	9.81
433.486	9.58
433.691	9.49
433.896	9.49
434.101	9.22
434.306	9.08
434.511	8.87
434.716	8.89
434.921	8.9
435.126	9.02
435.331	8.73
435.535	8.55
435.74	8.7
435.945	8.67
436.15	8.56
436.355	8.64
436.56	8.71
436.765	9.08
436.97	8.98
437.174	9.14
437.379	9.06
437.584	9.35
437.789	9.52
437.993	9.47
438.198	9.39
438.403	9.32
438.608	9.26
438.812	9.08
439.017	8.85
439.222	9.08
439.426	8.99
439.631	8.89
439.836	8.69
440.04	8.76
440.245	8.8
440.45	8.74
440.654	8.75
440.859	8.65
441.063	8.65
441.268	8.79
441.472	8.67
441.677	8.83
441.881	9.02
442.086	9.05
442.29	8.99
442.495	8.85
442.699	9.07
442.904	9.1
443.108	9.06
443.312	9.3
443.517	9.21
443.721	9.23
443.925	8.93
444.13	8.93
444.334	8.99
444.538	9.04
444.743	9.12
444.947	9.01
445.151	8.98
445.356	9.05
445.56	9.13
445.764	9.1
445.968	9.01
446.173	9.08
446.377	8.86
446.581	8.78
446.785	8.71
446.989	8.65
447.193	8.68
447.398	8.75
447.602	8.75
447.806	8.6
448.01	8.77
448.214	8.87
448.418	8.89
448.622	9.02
448.826	9.1
449.03	9.11
449.234	9.14
449.438	9.02
449.642	8.9
449.846	9.06
450.05	9.08
450.254	8.74
450.458	8.76
450.662	8.87
450.866	8.83
451.069	8.78
451.273	8.76
451.477	8.73
451.681	8.96
451.885	9.1
452.089	9.06
452.292	9.09
452.496	9.05
452.7	9.08
452.904	8.94
453.107	9.01
453.311	9.1
453.515	9.32
453.719	9.4
453.922	9.41
454.126	9.25
454.33	9.21
454.533	9.13
454.737	9.27
454.94	9.09
