Data from LC_209__Reflection_2.txt Node
Date: Thu Nov 19 12:09:26 EST 2015
User: robert
Spectrometer: USB4E03001
Autoset integration time: false
Trigger mode: 4
Integration Time (sec): 1.000000E-1
Scans to average: 15
Electric dark correction enabled: true
Nonlinearity correction enabled: false
Boxcar width: 5
Stray light correction enabled: false
XAxis mode: Wavelengths
Stop averaging: false
Number of Pixels in Spectrum: 3648
>>>>>Begin Spectral Data<<<<<
177.566	1128.43
177.785	-1070.85
178.005	416.46
178.225	169.03
178.445	143.95
178.665	70.72
178.885	-337.12
179.105	-1085.16
179.324	-518.59
179.544	-1414.26
179.764	467.81
179.984	2030.37
180.204	1089.32
180.423	373.42
180.643	219.74
180.863	160.16
181.083	195.41
181.302	265.09
181.522	484.16
181.742	192.29
181.961	183.9
182.181	184.56
182.401	144.71
182.621	166.04
182.84	164.74
183.06	157.83
183.279	197.87
183.499	121.22
183.719	141.12
183.938	122.45
184.158	377.63
184.377	309.12
184.597	834.12
184.816	-739.84
185.036	-255.96
185.256	-107.83
185.475	-54.62
185.695	-9.44
185.914	2.05
186.134	-12.9
186.353	-10.56
186.572	-16.23
186.792	-51.53
187.011	-0.33
187.231	132.64
187.45	545.98
187.67	320.4
187.889	266.58
188.108	1470.99
188.328	455.37
188.547	406.41
188.766	-1262.95
188.986	-137.7
189.205	-86.29
189.424	-105.08
189.644	-131.23
189.863	-292.05
190.082	-218.27
190.302	-205.69
190.521	-271.37
190.74	-262.44
190.959	-1910.54
191.178	-1774.14
191.398	-1225.47
191.617	-4147.58
191.836	-3818.86
192.055	-917.2
192.274	-466.1
192.494	-137.69
192.713	-246.38
192.932	-242.9
193.151	-395.91
193.37	-162.12
193.589	-494.13
193.808	1338.46
194.027	-920.09
194.246	-197.26
194.465	752.01
194.685	-3698.9
194.904	326.34
195.123	1804.4
195.342	550.66
195.561	387.41
195.78	2360.95
195.999	658.22
196.218	-1052.35
196.436	22892.31
196.655	-1652.82
196.874	-51.81
197.093	-114.4
197.312	-62.76
197.531	55.5
197.75	-162.12
197.969	31.74
198.188	-521.54
198.407	178.9
198.625	115.64
198.844	110.64
199.063	114.11
199.282	89.05
199.501	93.82
199.719	98.06
199.938	121.65
200.157	113.66
200.376	164.17
200.594	159.42
200.813	149.96
201.032	182.43
201.251	173.17
201.469	58.58
201.688	104.64
201.907	128.25
202.125	142.03
202.344	119.37
202.563	120.42
202.781	117.72
203	164.88
203.218	196.22
203.437	306.19
203.656	586.79
203.874	3084.84
204.093	1109.94
204.311	-1127.53
204.53	-223.42
204.748	-99.26
204.967	-71.99
205.185	-45.28
205.404	-52.53
205.622	-47.83
205.841	-123.31
206.059	-357.8
206.278	-5060.36
206.496	-526.86
206.715	-2319.23
206.933	163.06
207.151	101.31
207.37	121.49
207.588	195.91
207.806	116.85
208.025	150.5
208.243	115.81
208.461	288.56
208.68	804.2
208.898	365.74
209.116	-20221.15
209.335	785.92
209.553	-439.28
209.771	-363.49
209.989	-1050.42
210.208	-408.08
210.426	-670.03
210.644	689
210.862	442.21
211.081	862.92
211.299	343.18
211.517	248.59
211.735	5960.58
211.953	516.08
212.171	158.89
212.39	160.21
212.608	124.94
212.826	172.02
213.044	343.67
213.262	263.55
213.48	150.8
213.698	304.59
213.916	182.09
214.134	155.71
214.352	177.62
214.57	241.03
214.788	550.94
215.006	-4136.54
215.224	-329.48
215.442	-183.71
215.66	-122.49
215.878	-173.46
216.096	-160.77
216.314	-229.54
216.532	-202.2
216.75	-189.96
216.968	-109.55
217.185	-97.72
217.403	-71.77
217.621	-158.92
217.839	-168.98
218.057	-164.27
218.275	-38.21
218.492	-33.41
218.71	-4.55
218.928	-14.73
219.146	-20.27
219.363	-24.85
219.581	-26.89
219.799	-39.81
220.017	-6.05
220.234	-16.34
220.452	-34.47
220.67	-264.28
220.887	-110.4
221.105	-60.28
221.323	-51.83
221.54	0.46
221.758	20.58
221.976	1.72
222.193	-6.01
222.411	-5.32
222.629	-3.11
222.846	-4.35
223.064	-3.91
223.281	-15.65
223.499	-21
223.716	-14.78
223.934	-41.7
224.151	-82.06
224.369	-99.97
224.586	-90.85
224.804	-428.42
225.021	-233.7
225.239	-297.51
225.456	-385.81
225.674	-379.67
225.891	-161.99
226.108	-141.61
226.326	-124.59
226.543	-116.69
226.76	-114.96
226.978	-130.13
227.195	-66.26
227.413	-59.99
227.63	-46.11
227.847	-25.38
228.064	-20.27
228.282	-15.64
228.499	-16.17
228.716	-7.46
228.934	-1.89
229.151	2.53
229.368	2.19
229.585	2.91
229.802	3.13
230.02	9.39
230.237	8.46
230.454	10.33
230.671	7.86
230.888	8.22
231.105	3.92
231.323	4.27
231.54	3.61
231.757	4.06
231.974	2.21
232.191	9.08
232.408	2.72
232.625	4.49
232.842	4.78
233.059	11.26
233.276	12.48
233.493	14.37
233.71	17.13
233.927	16.36
234.144	18.02
234.361	16.13
234.578	7.69
234.795	9.99
235.012	10.09
235.229	2.68
235.446	3.64
235.663	-2.52
235.879	2.34
236.096	-4.54
236.313	-11.99
236.53	-14.82
236.747	-7.52
236.964	-5.14
237.181	-1.88
237.397	-4.24
237.614	5.53
237.831	-1.3
238.048	4.21
238.264	0.31
238.481	4.02
238.698	11.55
238.915	14.46
239.131	7.16
239.348	8.62
239.565	10.97
239.781	9
239.998	8.66
240.215	10.61
240.431	12.13
240.648	10.86
240.865	14.4
241.081	14.08
241.298	15.53
241.514	15.96
241.731	15.8
241.947	14.22
242.164	13.33
242.38	12.48
242.597	12.74
242.814	14.23
243.03	13.68
243.246	11.95
243.463	12.02
243.679	12.61
243.896	12.8
244.112	12.59
244.329	11.7
244.545	15.01
244.762	15.37
244.978	13.82
245.194	10.78
245.411	10.48
245.627	11.31
245.843	13.16
246.06	10.4
246.276	9.51
246.492	10.56
246.709	11.55
246.925	10.79
247.141	9.98
247.357	11.59
247.574	12.62
247.79	13.89
248.006	13.22
248.222	11.51
248.439	11.93
248.655	11.94
248.871	11.08
249.087	10.04
249.303	9.35
249.519	9.54
249.736	6.92
249.952	5.59
250.168	3.61
250.384	3
250.6	4.81
250.816	5.24
251.032	4.28
251.248	3.14
251.464	4.71
251.68	7.25
251.896	8.07
252.112	9.1
252.328	7.22
252.544	8.85
252.76	9.85
252.976	9.23
253.192	8.38
253.408	9.98
253.624	9.94
253.84	7.42
254.056	5.68
254.272	4.13
254.487	2.85
254.703	6.41
254.919	3.71
255.135	3.74
255.351	4.23
255.567	2.44
255.782	-2.37
255.998	-4.33
256.214	-6.13
256.43	-5.03
256.646	-3.75
256.861	-3.83
257.077	-7.05
257.293	-5.4
257.508	-5.52
257.724	-4.52
257.94	-2.48
258.155	0.98
258.371	3.21
258.587	4
258.802	5.5
259.018	5.5
259.234	6.9
259.449	7.8
259.665	7.33
259.88	7.24
260.096	6.48
260.312	7.2
260.527	6.49
260.743	6.97
260.958	8.32
261.174	7.82
261.389	7.91
261.605	8.27
261.82	7.97
262.036	7.01
262.251	7.69
262.466	9.08
262.682	7.87
262.897	7.96
263.113	6.9
263.328	6.79
263.543	5.48
263.759	5.41
263.974	2.09
264.189	0.81
264.405	1.63
264.62	-0.59
264.835	-0.88
265.051	-3.1
265.266	-2.68
265.481	-2.28
265.696	-3.47
265.912	-2.63
266.127	-1.26
266.342	1.09
266.557	2.82
266.773	4.58
266.988	4.73
267.203	4.85
267.418	6.6
267.633	8.54
267.848	8.61
268.064	8.16
268.279	9.04
268.494	8.02
268.709	8.44
268.924	8.38
269.139	8.89
269.354	8.52
269.569	7.78
269.784	6.71
269.999	5.85
270.214	5.48
270.429	7.1
270.644	5.69
270.859	6.44
271.074	5.5
271.289	5.61
271.504	5.42
271.719	6.56
271.934	6.39
272.149	6.93
272.363	7.04
272.578	6.63
272.793	5.85
273.008	8.23
273.223	7.86
273.438	7.95
273.653	7.52
273.867	7.82
274.082	7.92
274.297	8.68
274.512	8.58
274.726	7.29
274.941	9.71
275.156	9.08
275.371	7.25
275.585	8.53
275.8	6.97
276.015	6.15
276.229	5.62
276.444	5.32
276.659	4.93
276.873	4.65
277.088	5.23
277.302	3.55
277.517	4.66
277.732	5.25
277.946	3.5
278.161	5.13
278.375	4.76
278.59	4.68
278.804	5.17
279.019	4.52
279.233	5.7
279.448	6.24
279.662	5.76
279.877	5.26
280.091	4.02
280.306	4.84
280.52	5.32
280.735	6.35
280.949	7.32
281.163	7.05
281.378	7.04
281.592	6.7
281.806	5.8
282.021	6.49
282.235	5.51
282.449	5.54
282.664	5.6
282.878	5.32
283.092	6.14
283.307	5.68
283.521	4.89
283.735	5.07
283.949	5.85
284.164	5.86
284.378	5.27
284.592	6.66
284.806	7.76
285.02	6.84
285.234	6.83
285.449	6.11
285.663	5.44
285.877	5.68
286.091	6.13
286.305	5.45
286.519	5.8
286.733	6.13
286.947	6.21
287.161	4.94
287.375	5.67
287.589	5.82
287.803	6.19
288.017	7.04
288.231	7.11
288.445	7.09
288.659	6.62
288.873	6.27
289.087	7.06
289.301	6.57
289.515	6.75
289.729	6.81
289.943	5.95
290.157	6.03
290.371	5.84
290.584	6.27
290.798	6.2
291.012	6.63
291.226	7.57
291.44	6.39
291.654	6.43
291.867	6.9
292.081	6.72
292.295	8.83
292.509	8.23
292.722	8.19
292.936	7.65
293.15	9.21
293.364	8.71
293.577	7.43
293.791	8.02
294.005	8.31
294.218	9
294.432	9.29
294.645	9.3
294.859	8.73
295.073	7.7
295.286	8.89
295.5	7.71
295.713	8.54
295.927	8.76
296.14	8.45
296.354	8.51
296.568	8.4
296.781	8.9
296.994	7.99
297.208	8.27
297.421	8.47
297.635	9.28
297.848	10.06
298.062	10.66
298.275	11.96
298.489	12.68
298.702	12.37
298.915	13.18
299.129	13.39
299.342	13.22
299.555	13.94
299.769	14.43
299.982	13.45
300.195	13.2
300.409	12.87
300.622	12.39
300.835	11.07
301.048	12.54
301.262	12.02
301.475	11.79
301.688	11.28
301.901	11.33
302.115	13.03
302.328	12.93
302.541	13.24
302.754	13.7
302.967	13.28
303.18	14.98
303.393	13.66
303.607	13.19
303.82	13.76
304.033	14.07
304.246	15.06
304.459	13.43
304.672	13.8
304.885	12.24
305.098	11.98
305.311	13.02
305.524	12.79
305.737	12.79
305.95	13.29
306.163	12.17
306.376	12.96
306.589	11.83
306.802	11.37
307.015	10.8
307.228	12
307.44	11.62
307.653	9.97
307.866	9.44
308.079	9.89
308.292	9.42
308.505	10.85
308.718	11.88
308.93	11.95
309.143	12.54
309.356	12.16
309.569	12.44
309.781	12.12
309.994	13.19
310.207	13.84
310.42	13.42
310.632	14.12
310.845	12.74
311.058	11.29
311.27	11.63
311.483	12.25
311.696	13.64
311.908	13.34
312.121	13.23
312.333	12.78
312.546	11.58
312.759	12.68
312.971	12.38
313.184	13
313.396	13.14
313.609	12.53
313.821	11.44
314.034	10.49
314.246	10.16
314.459	10.07
314.671	10.25
314.884	10.67
315.096	8.87
315.309	7.72
315.521	7.38
315.733	8.88
315.946	10.24
316.158	11.51
316.371	12.24
316.583	12.55
316.795	13.91
317.008	13.42
317.22	13.18
317.432	13.86
317.644	13.56
317.857	14.29
318.069	13.37
318.281	12.74
318.494	10.86
318.706	9.05
318.918	8.98
319.13	8.23
319.342	9.17
319.555	9.76
319.767	9.86
319.979	9.95
320.191	10.28
320.403	12.27
320.615	11.11
320.827	12.39
321.039	13.48
321.252	12.78
321.464	11.91
321.676	11.21
321.888	10.1
322.1	10.3
322.312	11.13
322.524	10.23
322.736	8.63
322.948	8.83
323.16	8.76
323.372	9.31
323.584	10.04
323.796	8.65
324.007	8.83
324.219	10.33
324.431	10.7
324.643	10.14
324.855	10.14
325.067	10.41
325.279	10.46
325.491	10.06
325.702	8.99
325.914	7.72
326.126	9.69
326.338	9.23
326.55	8.45
326.761	7.56
326.973	8.46
327.185	8.41
327.396	7.6
327.608	7.15
327.82	8.24
328.032	8.61
328.243	9.7
328.455	9
328.666	10.43
328.878	11.17
329.09	11.22
329.301	11.34
329.513	11.64
329.725	11.01
329.936	10.86
330.148	10.84
330.359	10.07
330.571	10.85
330.782	10.48
330.994	8.96
331.205	7.84
331.417	8
331.628	7.08
331.84	7.02
332.051	9.08
332.262	10.76
332.474	10.32
332.685	10.95
332.897	10.23
333.108	10.7
333.319	12.22
333.531	12.51
333.742	13.35
333.953	13.87
334.165	12.87
334.376	11.9
334.587	11.68
334.799	11.56
335.01	11.37
335.221	11.26
335.432	11.41
335.644	10.56
335.855	10.34
336.066	9.82
336.277	9.47
336.488	10.33
336.7	10.36
336.911	10.46
337.122	9.78
337.333	9.27
337.544	9.67
337.755	10.3
337.966	9.94
338.177	10.31
338.388	10.45
338.599	10.04
338.811	10.12
339.022	10.24
339.233	9.63
339.444	10.07
339.655	10.32
339.866	9.2
340.076	8.62
340.287	8.98
340.498	8.03
340.709	8.19
340.92	8.2
341.131	7.85
341.342	7.65
341.553	7.99
341.764	7.95
341.975	8.21
342.185	8.52
342.396	8.63
342.607	7.85
342.818	8.79
343.029	8.12
343.239	8
343.45	8.25
343.661	8.31
343.872	7.31
344.082	7.6
344.293	7.65
344.504	8.34
344.714	8.33
344.925	8.51
345.136	8.51
345.346	8.38
345.557	9.07
345.768	8.47
345.978	8.79
346.189	9.48
346.399	8.89
346.61	9.46
346.821	9.34
347.031	8.62
347.242	8.49
347.452	8.78
347.663	9.1
347.873	9.39
348.084	10.27
348.294	10.38
348.504	11.09
348.715	12.79
348.925	11.51
349.136	11.18
349.346	12.33
349.557	12.99
349.767	12.75
349.977	13.07
350.188	12.91
350.398	12.14
350.608	11.63
350.819	11
351.029	9.24
351.239	9.68
351.449	9.27
351.66	8.2
351.87	7.25
352.08	7.41
352.29	7.65
352.501	7.34
352.711	7.03
352.921	7.11
353.131	6.66
353.341	7.26
353.552	7.13
353.762	7.67
353.972	8.34
354.182	9.56
354.392	8.78
354.602	8.7
354.812	8.28
355.022	8.95
355.232	9.5
355.442	10.12
355.652	9.91
355.862	10
356.072	9.24
356.282	9.07
356.492	8.29
356.702	9.08
356.912	8.92
357.122	8.58
357.332	8.79
357.542	7.64
357.752	7.57
357.962	7.2
358.171	7.67
358.381	7.62
358.591	7.71
358.801	8.1
359.011	6.99
359.221	5.87
359.43	7.02
359.64	7.02
359.85	8.21
360.06	8.28
360.269	8.38
360.479	8.34
360.689	9
360.899	8.68
361.108	9.25
361.318	9.68
361.528	10.02
361.737	9.84
361.947	9.56
362.156	9
362.366	8.36
362.576	8.8
362.785	8.67
362.995	9.15
363.204	8.96
363.414	8.08
363.623	8.28
363.833	8.11
364.042	7.47
364.252	7.73
364.461	7.73
364.671	8.3
364.88	7.78
365.09	7.44
365.299	6.35
365.509	6.26
365.718	6.74
365.927	6.57
366.137	6.64
366.346	6.43
366.555	5.78
366.765	5.52
366.974	5.35
367.183	5.93
367.393	5.85
367.602	5.56
367.811	5.66
368.021	4.71
368.23	4.62
368.439	5.55
368.648	5.65
368.857	6.14
369.067	6.15
369.276	6.22
369.485	5.79
369.694	6.41
369.903	7.08
370.112	7.52
370.321	8.03
370.531	8.25
370.74	7.91
370.949	8.35
371.158	8.46
371.367	8.78
371.576	8.69
371.785	8.12
371.994	7.71
372.203	7.4
372.412	7.46
372.621	7.67
372.83	7.96
373.039	7.47
373.248	7.34
373.457	6.95
373.666	6.77
373.874	6.56
374.083	6.83
374.292	7.16
374.501	7.24
374.71	7
374.919	6.94
375.128	5.8
375.336	5.78
375.545	5.58
375.754	5.75
375.963	5.84
376.171	6
376.38	6.04
376.589	5.34
376.798	4.79
377.006	5.21
377.215	5.16
377.424	6.08
377.632	6.33
377.841	6.38
378.05	6.6
378.258	6.28
378.467	6.31
378.675	6.55
378.884	6.8
379.093	7.43
379.301	7.03
379.51	6.76
379.718	6.3
379.927	5.95
380.135	5.71
380.344	5.65
380.552	5.74
380.761	5.73
380.969	6.11
381.177	5.94
381.386	5.86
381.594	5.88
381.803	6.51
382.011	6.72
382.219	7.03
382.428	7.62
382.636	7.35
382.845	7.3
383.053	7.16
383.261	6.96
383.469	7.58
383.678	7.12
383.886	6.9
384.094	6.17
384.302	5.86
384.511	5.83
384.719	5.79
384.927	5.48
385.135	5.53
385.343	5.88
385.552	5.55
385.76	4.78
385.968	4.97
386.176	4.91
386.384	5.17
386.592	5.38
386.8	5.03
387.008	5.05
387.216	5.33
387.424	5.94
387.633	6.1
387.841	6.11
388.049	6.49
388.257	6.65
388.465	6.72
388.672	6.86
388.88	6.56
389.088	6.91
389.296	6.5
389.504	6.41
389.712	5.83
389.92	5.82
390.128	5.79
390.336	5.71
390.544	5.57
390.751	5.65
390.959	5.62
391.167	5.93
391.375	5.93
391.583	5.93
391.79	6.1
391.998	5.91
392.206	5.55
392.414	5.32
392.621	5.31
392.829	5.38
393.037	5.46
393.244	5.33
393.452	5.14
393.66	4.71
393.867	4.85
394.075	4.95
394.283	5.07
394.49	4.87
394.698	5.32
394.905	5.29
395.113	5.19
395.32	4.93
395.528	4.76
395.735	4.67
395.943	5.01
396.15	4.9
396.358	4.81
396.565	4.86
396.773	5.12
396.98	4.87
397.188	4.91
397.395	5.12
397.602	5.14
397.81	5.3
398.017	5.45
398.225	5.32
398.432	5.48
398.639	5.36
398.847	5.45
399.054	5.14
399.261	5.13
399.468	4.97
399.676	4.68
399.883	4.81
400.09	4.73
400.297	4.89
400.505	4.91
400.712	4.88
400.919	4.75
401.126	4.54
401.333	5.09
401.54	4.85
401.748	5.17
401.955	5.21
402.162	5.17
402.369	5.28
402.576	5.24
402.783	5.37
402.99	5.07
403.197	5.09
403.404	5.27
403.611	5.2
403.818	5.55
404.025	5.5
404.232	5.55
404.439	5.58
404.646	5.61
404.853	5.48
405.06	5.3
405.267	5.6
405.474	5.53
405.681	5.38
405.887	5.16
406.094	4.94
406.301	4.8
406.508	4.58
406.715	4.68
406.922	4.63
407.128	4.54
407.335	4.6
407.542	4.38
407.749	4.53
407.955	4.69
408.162	4.6
408.369	4.77
408.575	4.74
408.782	4.92
408.989	4.68
409.195	4.53
409.402	4.45
409.609	4.48
409.815	4.51
410.022	4.35
410.228	4.62
410.435	4.48
410.642	4.32
410.848	4.39
411.055	4.17
411.261	4.17
411.468	4.4
411.674	4.66
411.881	4.76
412.087	4.9
412.294	5.03
412.5	4.72
412.706	4.79
412.913	4.61
413.119	4.52
413.326	5.07
413.532	5.29
413.738	5.21
413.945	4.6
414.151	4.43
414.357	4.23
414.564	4.14
414.77	4.36
414.976	4.36
415.182	4.82
415.389	4.93
415.595	4.43
415.801	4.34
416.007	4.26
416.214	4.71
416.42	4.79
416.626	4.77
416.832	4.79
417.038	4.47
417.244	4.85
417.45	4.63
417.657	4.6
417.863	4.87
418.069	5.01
418.275	5.25
418.481	5.27
418.687	5.41
418.893	5.47
419.099	5.45
419.305	5.65
419.511	5.33
419.717	5.31
419.923	5.38
420.129	5.28
420.335	5.01
420.541	4.85
420.746	4.89
420.952	4.84
421.158	4.75
421.364	4.67
421.57	4.65
421.776	4.78
421.982	4.83
422.187	4.7
422.393	4.74
422.599	4.81
422.805	5.06
423.01	4.92
423.216	4.92
423.422	5.01
423.628	5.12
423.833	5.09
424.039	5.01
424.245	4.93
424.45	5.02
424.656	5.13
424.862	5.28
425.067	4.93
425.273	4.93
425.478	4.85
425.684	4.85
425.889	4.87
426.095	4.85
426.301	4.81
426.506	4.88
426.712	4.81
426.917	4.52
427.123	4.51
427.328	4.69
427.533	4.79
427.739	4.87
427.944	4.8
428.15	4.66
428.355	4.67
428.561	4.73
428.766	4.66
428.971	4.74
429.177	5
429.382	4.73
429.587	4.73
429.793	4.66
429.998	4.72
430.203	4.63
430.408	4.64
430.614	4.64
430.819	4.53
431.024	4.53
431.229	4.48
431.434	4.52
431.64	4.4
431.845	4.38
432.05	4.28
432.255	4.11
432.46	4.32
432.665	4.33
432.87	4.43
433.076	4.57
433.281	4.53
433.486	4.6
433.691	4.42
433.896	4.71
434.101	4.58
434.306	4.67
434.511	4.58
434.716	4.4
434.921	4.38
435.126	4.28
435.331	4.23
435.535	4.21
435.74	4.28
435.945	4.5
436.15	4.53
436.355	4.68
436.56	4.75
436.765	5.03
436.97	5.07
437.174	5.21
437.379	5.02
437.584	5.15
437.789	5.15
437.993	5.05
438.198	4.79
438.403	4.75
438.608	4.58
438.812	4.48
439.017	4.42
439.222	4.52
439.426	4.49
439.631	4.6
439.836	4.54
440.04	4.59
440.245	4.6
440.45	4.67
440.654	4.69
440.859	4.74
441.063	4.73
441.268	4.66
441.472	4.6
441.677	4.56
441.881	4.63
442.086	4.62
442.29	4.76
442.495	4.71
442.699	4.74
442.904	4.57
443.108	4.57
443.312	4.57
443.517	4.53
443.721	4.63
443.925	4.74
444.13	4.67
444.334	4.63
444.538	4.55
444.743	4.62
444.947	4.5
445.151	4.32
445.356	4.38
445.56	4.46
445.764	4.66
445.968	4.64
446.173	4.63
446.377	4.61
446.581	4.58
446.785	4.5
446.989	4.44
447.193	4.49
447.398	4.68
447.602	4.63
447.806	4.58
448.01	4.36
448.214	4.32
448.418	4.35
448.622	4.24
448.826	4.11
449.03	4.09
449.234	4.13
449.438	4.19
449.642	4.16
449.846	4.25
450.05	4.25
450.254	4.31
450.458	4.36
450.662	4.18
450.866	4.34
451.069	4.76
451.273	4.79
451.477	4.69
451.681	4.53
451.885	4.56
452.089	4.58
452.292	4.53
452.496	4.71
452.7	4.8
452.904	4.75
453.107	4.65
453.311	4.42
453.515	4.53
453.719	4.59
453.922	4.73
454.126	4.75
454.33	4.47
454.533	4.44
454.737	4.23
454.94	4.11
455.144	4.11
455.348	4.22
455.551	4.1
455.755	3.98
455.958	4.07
456.162	4.02
456.365	3.9
456.569	4.23
456.772	4.47
456.976	4.45
457.179	4.51
457.383	4.7
457.586	4.53
457.79	4.59
457.993	4.74
458.196	4.66
458.4	4.65
458.603	4.84
458.807	4.68
459.01	4.6
459.213	4.72
459.417	4.63
459.62	4.5
459.823	4.56
460.026	4.69
460.23	4.58
460.433	4.57
460.636	4.57
460.839	4.46
461.042	4.51
461.246	4.39
461.449	4.26
461.652	4.3
461.855	4.35
462.058	4.45
462.261	4.36
462.464	4.39
462.668	4.3
462.871	4.21
463.074	4.17
463.277	4.05
463.48	4.11
463.683	4.13
463.886	4.15
464.089	4.1
464.292	3.88
464.495	3.79
464.698	3.72
464.901	3.95
465.104	4.08
465.306	4.19
