Data from LC_252_Reflection_3.txt Node
Date: Thu Nov 19 23:09:29 EST 2015
User: robert
Spectrometer: USB4E03001
Autoset integration time: false
Trigger mode: 4
Integration Time (sec): 1.000000E-1
Scans to average: 15
Electric dark correction enabled: true
Nonlinearity correction enabled: false
Boxcar width: 5
Stray light correction enabled: false
XAxis mode: Wavelengths
Stop averaging: false
Number of Pixels in Spectrum: 3648
>>>>>Begin Spectral Data<<<<<
177.566	-2.15
177.785	22.55
178.005	32.54
178.225	30.75
178.445	21.87
178.665	-3.09
178.885	8.01
179.105	20.83
179.324	-20.37
179.544	-98.01
179.764	37.22
179.984	21.94
180.204	-0.38
180.423	-16.8
180.643	-11.65
180.863	20.55
181.083	97.82
181.302	39.37
181.522	34.66
181.742	65.4
181.961	97.76
182.181	141.06
182.401	154.37
182.621	117.79
182.84	240.54
183.06	192.51
183.279	174.95
183.499	85.14
183.719	323.46
183.938	439.39
184.158	149.71
184.377	51.28
184.597	-229.96
184.816	1565.09
185.036	150.81
185.256	-1058.89
185.475	-7.9
185.695	30.28
185.914	11.6
186.134	159.15
186.353	157.4
186.572	150.78
186.792	261.89
187.011	-2273.09
187.231	-614.31
187.45	-924.3
187.67	-43.39
187.889	-64.24
188.108	-13.25
188.328	-30.29
188.547	-60.4
188.766	-176.81
188.986	-30.88
189.205	1241.18
189.424	51.98
189.644	88.07
189.863	66.95
190.082	61.62
190.302	41.68
190.521	65.22
190.74	84.52
190.959	113.46
191.178	92.91
191.398	111.68
191.617	95.58
191.836	257.51
192.055	140.33
192.274	225.66
192.494	175.06
192.713	97.32
192.932	76.45
193.151	61.15
193.37	58.24
193.589	63.29
193.808	52.13
194.027	47.47
194.246	55.44
194.465	43.66
194.685	29.03
194.904	50.93
195.123	47.8
195.342	41.07
195.561	20.79
195.78	31.59
195.999	26.19
196.218	21.91
196.436	25.92
196.655	-7.56
196.874	6.63
197.093	8.68
197.312	-22.81
197.531	-5.37
197.75	-16.48
197.969	65.94
198.188	104.43
198.407	17.6
198.625	10.67
198.844	-9.4
199.063	-1084.67
199.282	-67.33
199.501	-22.63
199.719	-2.98
199.938	47.61
200.157	-37.66
200.376	25.69
200.594	241.37
200.813	-113.69
201.032	23.64
201.251	-101.31
201.469	-122.25
201.688	21.65
201.907	131.35
202.125	424.65
202.344	115.15
202.563	83.95
202.781	39.82
203	4.38
203.218	23.99
203.437	53.94
203.656	81.98
203.874	41.53
204.093	27.77
204.311	5.68
204.53	3.56
204.748	10.67
204.967	24.4
205.185	2.78
205.404	-68.67
205.622	-73.89
205.841	-6.21
206.059	-22.99
206.278	-15.26
206.496	-6.13
206.715	-4.09
206.933	-20.32
207.151	30.24
207.37	31.58
207.588	38.41
207.806	146.88
208.025	119
208.243	-1.04
208.461	-156.47
208.68	-221.8
208.898	-103.52
209.116	-65.58
209.335	-59.42
209.553	-362.13
209.771	1984.03
209.989	-234.81
210.208	365.07
210.426	401.61
210.644	-9.43
210.862	80.98
211.081	155.15
211.299	126.61
211.517	115.22
211.735	80.96
211.953	78.85
212.171	71.95
212.39	100.29
212.608	94.68
212.826	108.65
213.044	154.98
213.262	132.59
213.48	109.21
213.698	96.84
213.916	118.36
214.134	105.27
214.352	152.27
214.57	194.65
214.788	379.6
215.006	161.2
215.224	-26.61
215.442	-41.68
215.66	1.82
215.878	-129.93
216.096	-63.14
216.314	71.35
216.532	297.63
216.75	362.92
216.968	6.39
217.185	251.09
217.403	139.49
217.621	-330.92
217.839	-32.66
218.057	-18.09
218.275	36.21
218.492	28.9
218.71	10.28
218.928	-21.12
219.146	-54.74
219.363	-12.2
219.581	-14.34
219.799	5.57
220.017	14.42
220.234	24.2
220.452	31.38
220.67	34.74
220.887	32.63
221.105	46.84
221.323	46.25
221.54	44.66
221.758	57.17
221.976	46.01
222.193	49.54
222.411	51.85
222.629	54.59
222.846	58.14
223.064	60.8
223.281	58.36
223.499	51.55
223.716	57.48
223.934	58.11
224.151	40.37
224.369	37.29
224.586	33.57
224.804	31.33
225.021	39.16
225.239	37.25
225.456	29.96
225.674	24.79
225.891	22.85
226.108	22.41
226.326	18.45
226.543	30.42
226.76	29.08
226.978	17.65
227.195	10.23
227.413	4.46
227.63	2.89
227.847	5.57
228.064	9.19
228.282	8.53
228.499	8.44
228.716	7.47
228.934	5.72
229.151	7.96
229.368	6.75
229.585	8.76
229.802	7.91
230.02	6.55
230.237	5.99
230.454	5.23
230.671	4.97
230.888	5.54
231.105	4.9
231.323	5.63
231.54	-0.34
231.757	0.93
231.974	1.16
232.191	0.88
232.408	5.81
232.625	7.88
232.842	12.06
233.059	17.71
233.276	21.22
233.493	25.52
233.71	25.85
233.927	31.72
234.144	32.99
234.361	25.57
234.578	25.25
234.795	23.51
235.012	22.95
235.229	16.68
235.446	14.36
235.663	6.59
235.879	2.8
236.096	-1.37
236.313	-7
236.53	-3.2
236.747	3.03
236.964	7.28
237.181	4.81
237.397	3.02
237.614	3.23
237.831	5.85
238.048	14.14
238.264	17.01
238.481	15.87
238.698	17.5
238.915	20.37
239.131	14.51
239.348	12.55
239.565	16.19
239.781	16.82
239.998	17.13
240.215	11.98
240.431	8.98
240.648	9.6
240.865	11
241.081	9.17
241.298	5.88
241.514	7.08
241.731	8.28
241.947	6.98
242.164	5.85
242.38	6.6
242.597	7.71
242.814	7.59
243.03	6.59
243.246	7.39
243.463	7.89
243.679	7.15
243.896	8.14
244.112	7.92
244.329	7.71
244.545	9.55
244.762	9.44
244.978	8.63
245.194	8.46
245.411	10.1
245.627	9.09
245.843	10.56
246.06	11.98
246.276	11.44
246.492	11.62
246.709	11.57
246.925	10.6
247.141	9.85
247.357	10.42
247.574	10.64
247.79	10.18
248.006	10.48
248.222	9.88
248.439	9.74
248.655	8.9
248.871	7.88
249.087	8.27
249.303	8.04
249.519	7.45
249.736	7.55
249.952	6.49
250.168	6.06
250.384	5.79
250.6	4.99
250.816	4.63
251.032	6.15
251.248	6.84
251.464	5.98
251.68	6.64
251.896	7.35
252.112	6.74
252.328	7.74
252.544	7.74
252.76	7.82
252.976	9.71
253.192	9.07
253.408	7.66
253.624	7.97
253.84	7.44
254.056	6.88
254.272	7.33
254.487	5.57
254.703	4.53
254.919	5.02
255.135	4.87
255.351	4.79
255.567	7.69
255.782	9.4
255.998	10.05
256.214	10.08
256.43	8.54
256.646	11.53
256.861	12.8
257.077	13.18
257.293	13
257.508	14.15
257.724	12.88
257.94	10.93
258.155	10.56
258.371	10
258.587	9.65
258.802	9.73
259.018	8.96
259.234	9.61
259.449	9.35
259.665	9.31
259.88	8.73
260.096	8.59
260.312	8.01
260.527	8.47
260.743	8.39
260.958	8.31
261.174	8.71
261.389	8.49
261.605	8.25
261.82	8.4
262.036	7.63
262.251	7.37
262.466	7.51
262.682	8.42
262.897	8.59
263.113	8.16
263.328	9.83
263.543	10.3
263.759	9.8
263.974	8.41
264.189	9.99
264.405	9.06
264.62	8.51
264.835	8.49
265.051	8.22
265.266	7.84
265.481	9.16
265.696	9.02
265.912	8.16
266.127	9.7
266.342	9.63
266.557	9.41
266.773	10.82
266.988	11.1
267.203	10.33
267.418	10.96
267.633	9.38
267.848	8.3
268.064	7.58
268.279	7.51
268.494	6.66
268.709	6.5
268.924	5.25
269.139	4.79
269.354	4.51
269.569	4
269.784	3.8
269.999	4.22
270.214	4.81
270.429	4.73
270.644	4.6
270.859	4.26
271.074	4.03
271.289	4.48
271.504	4.91
271.719	5.49
271.934	5.41
272.149	4.96
272.363	5.15
272.578	5.9
272.793	6.16
273.008	6.56
273.223	6.43
273.438	7.89
273.653	7.65
273.867	7.42
274.082	6.79
274.297	6.6
274.512	7.05
274.726	8.24
274.941	6.27
275.156	5.42
275.371	4.92
275.585	5.16
275.8	3.76
276.015	4.05
276.229	4.92
276.444	5.11
276.659	6.02
276.873	5.13
277.088	4.15
277.302	4.62
277.517	4.67
277.732	5.5
277.946	5.91
278.161	7
278.375	6.01
278.59	5.01
278.804	5.21
279.019	5.94
279.233	6.27
279.448	8.06
279.662	9.27
279.877	9.44
280.091	9.05
280.306	8.6
280.52	8.26
280.735	9.87
280.949	10.25
281.163	9.85
281.378	9.46
281.592	10.76
281.806	10.26
282.021	10.9
282.235	10.66
282.449	10.64
282.664	10.85
282.878	10.67
283.092	9.42
283.307	10.51
283.521	11.08
283.735	11.71
283.949	10.96
284.164	9.98
284.378	8.42
284.592	7.92
284.806	8.27
285.02	8.8
285.234	9.51
285.449	9.64
285.663	9.22
285.877	10
286.091	9.35
286.305	9.02
286.519	9.26
286.733	9.02
286.947	10.12
287.161	9.01
287.375	8.49
287.589	6.85
287.803	7.34
288.017	7.15
288.231	6.18
288.445	5.79
288.659	6.07
288.873	5.88
289.087	5.92
289.301	5.55
289.515	5.96
289.729	5.73
289.943	6.9
290.157	7.63
290.371	7.35
290.584	7.76
290.798	8.53
291.012	8.77
291.226	8.54
291.44	9.7
291.654	9.22
291.867	9.37
292.081	9.04
292.295	9.15
292.509	7.41
292.722	7.87
292.936	7.45
293.15	7.11
293.364	8.2
293.577	8.28
293.791	6.9
294.005	8.17
294.218	8.44
294.432	9.45
294.645	9.77
294.859	10.05
295.073	9.29
295.286	9.35
295.5	9.55
295.713	8.65
295.927	9.2
296.14	9.94
296.354	8.98
296.568	9.11
296.781	8.65
296.994	8.86
297.208	9.05
297.421	9.68
297.635	10.03
297.848	9.93
298.062	10.5
298.275	10.37
298.489	10.43
298.702	11.17
298.915	11.42
299.129	12.42
299.342	11.31
299.555	11.7
299.769	10.28
299.982	9.65
300.195	10.15
300.409	9.6
300.622	8.79
300.835	9.26
301.048	9.65
301.262	8.72
301.475	7.06
301.688	7.53
301.901	7.79
302.115	7.91
302.328	8.11
302.541	6.7
302.754	6.94
302.967	8.15
303.18	7.45
303.393	6.7
303.607	7.93
303.82	8.88
304.033	9.45
304.246	9.45
304.459	10.65
304.672	10.72
304.885	11.83
305.098	11.63
305.311	11.32
305.524	11.04
305.737	10.2
305.95	10.06
306.163	9.26
306.376	9.1
306.589	8.71
306.802	7.57
307.015	7.22
307.228	7.76
307.44	6.88
307.653	6.8
307.866	8.27
308.079	9.36
308.292	9.63
308.505	10.38
308.718	10
308.93	9.95
309.143	10.56
309.356	10.76
309.569	10.33
309.781	10.66
309.994	10.84
310.207	10.32
310.42	10.95
310.632	10.09
310.845	10.24
311.058	10.36
311.27	10.14
311.483	10.19
311.696	9.54
311.908	9.92
312.121	9.8
312.333	9.53
312.546	8.95
312.759	8.36
312.971	9.07
313.184	8.69
313.396	9.39
313.609	9.4
313.821	9.8
314.034	10.93
314.246	10.01
314.459	10.64
314.671	11.3
314.884	12.01
315.096	12.46
315.309	12.43
315.521	12.52
315.733	11.3
315.946	12.73
316.158	12.88
316.371	12.66
316.583	13.14
316.795	11.79
317.008	10.81
317.22	10.46
317.432	9.73
317.644	10.14
317.857	9.09
318.069	9.14
318.281	7.44
318.494	8.04
318.706	7.08
318.918	6.14
319.13	7.5
319.342	6.52
319.555	6.15
319.767	6.45
319.979	5.98
320.191	7.03
320.403	7.6
320.615	8.78
320.827	8.15
321.039	7.02
321.252	7.87
321.464	7.83
321.676	9.12
321.888	8.88
322.1	8.75
322.312	7.9
322.524	9.32
322.736	8.45
322.948	8.72
323.16	8.3
323.372	9.63
323.584	9.5
323.796	7.61
324.007	8.11
324.219	8.66
324.431	9.25
324.643	9.74
324.855	8.9
325.067	9.09
325.279	8.53
325.491	9.08
325.702	9.1
325.914	9.29
326.126	10.55
326.338	10.52
326.55	10.15
326.761	10.49
326.973	10.69
327.185	10.74
327.396	11.73
327.608	12.32
327.82	12.08
328.032	12.09
328.243	12.57
328.455	12.82
328.666	12.89
328.878	12.14
329.09	11.62
329.301	12.22
329.513	12.2
329.725	11.5
329.936	10.6
330.148	10.86
330.359	11.57
330.571	11.88
330.782	12.32
330.994	12.11
331.205	13.38
331.417	13.57
331.628	13.31
331.84	13.3
332.051	13.55
332.262	13.79
332.474	14.54
332.685	14.48
332.897	14.17
333.108	13.49
333.319	14.37
333.531	14.37
333.742	14.51
333.953	14.42
334.165	14.65
334.376	15.46
334.587	15.66
334.799	14.57
335.01	14.14
335.221	13.6
335.432	13.97
335.644	12.96
335.855	12.82
336.066	13.11
336.277	12.51
336.488	12.05
336.7	11.41
336.911	11.17
337.122	11.46
337.333	11.73
337.544	11.25
337.755	11.2
337.966	10.95
338.177	11.29
338.388	10.86
338.599	11.35
338.811	11.49
339.022	10.43
339.233	9.3
339.444	9.74
339.655	9.29
339.866	9.41
340.076	9.05
340.287	9.3
340.498	8.88
340.709	8.62
340.92	8.57
341.131	8.33
341.342	8.92
341.553	10.55
341.764	9.34
341.975	9.55
342.185	9.87
342.396	9.98
342.607	10.25
342.818	10.04
343.029	10.42
343.239	10.25
343.45	10.45
343.661	11.12
343.872	11.2
344.082	11.65
344.293	12.13
344.504	12.56
344.714	12.79
344.925	12.66
345.136	12.4
345.346	11.09
345.557	10.76
345.768	10.28
345.978	9.94
346.189	8.85
346.399	9.21
346.61	8.66
346.821	8.21
347.031	7.65
347.242	8.41
347.452	9.64
347.663	10.44
347.873	11.22
348.084	12.16
348.294	12.28
348.504	12.99
348.715	13.42
348.925	13.46
349.136	14.09
349.346	14.31
349.557	13.88
349.767	13.14
349.977	13.45
350.188	12.66
350.398	11.93
350.608	12.32
350.819	12.8
351.029	11.69
351.239	11.84
351.449	11.16
351.66	11.42
351.87	11.27
352.08	11.15
352.29	11.31
352.501	11.1
352.711	11.3
352.921	10.68
353.131	9.38
353.341	9.27
353.552	9.45
353.762	8.84
353.972	8.52
354.182	8.53
354.392	8.48
354.602	7.74
354.812	7.61
355.022	7.69
355.232	7.98
355.442	8.44
355.652	8.37
355.862	8.34
356.072	8.73
356.282	9.39
356.492	9.07
356.702	9
356.912	9.03
357.122	10.22
357.332	10.37
357.542	9.94
357.752	9.51
357.962	9.92
358.171	10.04
358.381	10.45
358.591	9.96
358.801	9.72
359.011	10.14
359.221	10.33
359.43	9.57
359.64	9.12
359.85	9.63
360.06	10.02
360.269	10.27
360.479	9.57
360.689	8.66
360.899	8.63
361.108	8.81
361.318	8.51
361.528	8.82
361.737	8.46
361.947	8.64
362.156	8.33
362.366	8.55
362.576	8.35
362.785	8.45
362.995	8.75
363.204	8.91
363.414	9
363.623	9.15
363.833	9.31
364.042	9.7
364.252	9.92
364.461	9.55
364.671	9.04
364.88	9.56
365.09	9.67
365.299	10.27
365.509	10.62
365.718	10.51
365.927	10.61
366.137	10.03
366.346	9.91
366.555	9.35
366.765	9.47
366.974	9.6
367.183	9.01
367.393	8.66
367.602	9.14
367.811	9.27
368.021	9.64
368.23	8.72
368.439	8.82
368.648	9.03
368.857	9.73
369.067	9.78
369.276	10.19
369.485	10.05
369.694	10.2
369.903	8.92
370.112	8.25
370.321	7.73
370.531	8.54
370.74	8.16
370.949	7.87
371.158	7.17
371.367	7.33
371.576	6.68
371.785	6.91
371.994	7.35
372.203	7.84
372.412	8.01
372.621	7.78
372.83	7.54
373.039	7.76
373.248	8.21
373.457	8.73
373.666	9.29
373.874	9.23
374.083	8.64
374.292	8.86
374.501	8.63
374.71	8.74
374.919	8.86
375.128	8.9
375.336	8.69
375.545	8.37
375.754	7.71
375.963	7.25
376.171	7.4
376.38	7.78
376.589	7.17
376.798	6.9
377.006	6.75
377.215	6.72
377.424	6.31
377.632	6.58
377.841	6.53
378.05	7.07
378.258	6.78
378.467	6.76
378.675	6.73
378.884	7.06
379.093	7.44
379.301	7.24
379.51	7.42
379.718	7.78
379.927	7.62
380.135	7.88
380.344	7.09
380.552	7.64
380.761	7.62
380.969	7.54
381.177	7.47
381.386	7.05
381.594	7.36
381.803	6.92
382.011	6.59
382.219	6.77
382.428	6.86
382.636	7
382.845	6.92
383.053	6.8
383.261	6.92
383.469	6.83
383.678	7.19
383.886	6.93
384.094	7.21
384.302	7.6
384.511	7.3
384.719	7
384.927	7.18
385.135	7.01
385.343	7.16
385.552	7.16
385.76	6.93
385.968	6.77
386.176	6.77
386.384	6.89
386.592	6.82
386.8	7.03
387.008	6.65
387.216	6.51
387.424	6.5
387.633	6.42
387.841	6.1
388.049	5.97
388.257	6.23
388.465	6
388.672	5.84
388.88	5.61
389.088	5.35
389.296	5.56
389.504	5.38
389.712	5.37
389.92	5.38
390.128	5.48
390.336	5.61
390.544	5.1
390.751	5.24
390.959	5.26
391.167	5.49
391.375	5.53
391.583	5.23
391.79	5.37
391.998	5.3
392.206	5.45
392.414	5.41
392.621	5.59
392.829	5.88
393.037	5.99
393.244	5.96
393.452	5.79
393.66	5.6
393.867	5.95
394.075	6.04
394.283	5.85
394.49	5.69
394.698	5.57
394.905	5.55
395.113	5.36
395.32	5.38
395.528	5.46
395.735	5.58
395.943	5.64
396.15	5.37
396.358	5.42
396.565	5.83
396.773	5.83
396.98	6.25
397.188	6.07
397.395	5.82
397.602	5.45
397.81	5.27
398.017	5.19
398.225	5.19
398.432	5.19
398.639	5.05
398.847	4.61
399.054	4.22
399.261	4.05
399.468	4.2
399.676	4.55
399.883	4.52
400.09	4.46
400.297	4.44
400.505	4.93
400.712	5.13
400.919	5.27
401.126	5.52
401.333	6.01
401.54	5.83
401.748	6
401.955	5.99
402.162	6.18
402.369	6.5
402.576	6.59
402.783	5.99
402.99	6.32
403.197	6.38
403.404	6.26
403.611	6.11
403.818	6.23
404.025	5.83
404.232	5.63
404.439	5.85
404.646	5.82
404.853	5.85
405.06	6.02
405.267	5.8
405.474	5.79
405.681	5.78
405.887	5.97
406.094	5.9
406.301	5.96
406.508	6.23
406.715	5.78
406.922	5.54
407.128	5.32
407.335	5.15
407.542	5.04
407.749	4.93
407.955	4.95
408.162	4.87
408.369	4.65
408.575	4.97
408.782	4.68
408.989	4.97
409.195	5.02
409.402	5.13
409.609	5.13
409.815	5.11
410.022	4.95
410.228	5.11
410.435	5.01
410.642	5.32
410.848	5.16
411.055	5.32
411.261	5.41
411.468	5.56
411.674	5.52
411.881	5.77
412.087	5.6
412.294	5.74
412.5	5.48
412.706	5.53
412.913	5.37
413.119	5.1
413.326	4.8
413.532	4.69
413.738	4.67
413.945	4.53
414.151	4.42
414.357	4.75
414.564	4.72
414.77	4.76
414.976	4.72
415.182	4.76
415.389	5.09
415.595	5.23
415.801	5.08
416.007	4.98
416.214	5.06
416.42	5.06
416.626	4.91
416.832	4.97
417.038	4.81
417.244	4.86
417.45	4.99
417.657	4.91
417.863	5.09
418.069	5.28
418.275	5.31
418.481	5.26
418.687	5.17
418.893	5.26
419.099	5.27
419.305	5.48
419.511	5.4
419.717	5.13
419.923	5.06
420.129	4.87
420.335	4.67
420.541	4.58
420.746	4.53
420.952	4.62
421.158	4.63
421.364	4.47
421.57	4.3
421.776	4.43
421.982	4.48
422.187	4.55
422.393	4.64
422.599	4.71
422.805	4.74
423.01	4.77
423.216	4.69
423.422	4.5
423.628	4.61
423.833	4.6
424.039	4.56
424.245	4.61
424.45	4.61
424.656	4.67
424.862	4.75
425.067	4.69
425.273	4.76
425.478	4.89
425.684	5.1
425.889	5.16
426.095	5.21
426.301	5.16
426.506	5.2
426.712	5.14
426.917	5.16
427.123	5.06
427.328	5.04
427.533	5.07
427.739	5.11
427.944	5.02
428.15	4.89
428.355	4.8
428.561	4.77
428.766	4.77
428.971	4.86
429.177	4.74
429.382	4.75
429.587	5.03
429.793	5.02
429.998	4.8
430.203	4.61
430.408	4.59
430.614	4.93
430.819	4.78
431.024	4.78
431.229	4.6
431.434	4.45
431.64	4.41
431.845	4.47
432.05	4.44
432.255	4.37
432.46	4.43
432.665	4.45
432.87	4.29
433.076	4.29
433.281	4.25
433.486	4.43
433.691	4.47
433.896	4.48
434.101	4.34
434.306	4.19
434.511	4.22
434.716	4.28
434.921	4.37
435.126	4.52
435.331	4.64
435.535	4.62
435.74	4.42
435.945	4.58
436.15	4.59
436.355	4.57
436.56	4.68
436.765	4.77
436.97	4.75
437.174	4.62
437.379	4.32
437.584	4.32
437.789	4.35
437.993	4.29
438.198	4.11
438.403	3.95
438.608	4.08
438.812	4.13
439.017	4.1
439.222	4.13
439.426	4.11
439.631	4.21
439.836	4.27
440.04	4.36
440.245	4.48
440.45	4.58
440.654	4.68
440.859	4.54
441.063	4.62
441.268	4.63
441.472	4.48
441.677	4.48
441.881	4.47
442.086	4.24
442.29	4.22
442.495	4.11
442.699	4.13
442.904	4.38
443.108	4.5
443.312	4.32
443.517	4.33
443.721	4.51
443.925	4.67
444.13	4.65
444.334	4.82
444.538	4.82
444.743	4.91
444.947	4.84
445.151	4.56
445.356	4.64
445.56	4.6
445.764	4.56
445.968	4.58
446.173	4.52
446.377	4.58
446.581	4.6
446.785	4.55
446.989	4.56
447.193	4.49
447.398	4.39
447.602	4.1
447.806	4.21
448.01	4.22
448.214	4.15
448.418	4.03
448.622	3.92
448.826	3.88
449.03	3.75
449.234	3.51
449.438	3.54
449.642	3.6
449.846	3.73
450.05	3.78
450.254	3.82
450.458	3.78
450.662	3.86
450.866	3.88
451.069	3.92
451.273	4.08
451.477	4.17
451.681	4.17
451.885	4.32
452.089	4.4
452.292	4.26
452.496	4.13
452.7	4.23
452.904	4.13
453.107	4.31
453.311	4.42
453.515	4.41
453.719	4.6
453.922	4.65
454.126	4.46
454.33	4.48
454.533	4.39
454.737	4.45
454.94	4.39
455.144	4.48
455.348	4.3
455.551	4.2
455.755	3.97
455.958	3.92
456.162	3.94
456.365	4.08
456.569	4.04
456.772	4.2
456.976	4.26
457.179	4.43
457.383	4.45
457.586	4.48
457.79	4.56
457.993	4.64
458.196	4.63
458.4	4.68
458.603	4.74
458.807	4.79
459.01	4.72
459.213	4.76
459.417	4.57
459.62	4.61
459.823	4.62
460.026	4.51
460.23	4.66
460.433	4.62
460.636	4.52
460.839	4.46
461.042	4.46
461.246	4.47
461.449	4.35
461.652	4.38
461.855	4.26
462.058	4.12
462.261	4.2
462.464	4.08
462.668	4.14
462.871	4.34
463.074	4.38
463.277	4.21
463.48	4.23
463.683	4.23
463.886	4.34
464.089	4.36
464.292	4.48
464.495	4.57
464.698	4.39
464.901	4.29
465.104	4.18
465.306	4.11
465.509	4.15
465.712	4.14
465.915	4.23
466.118	4.12
466.321	4.23
466.524	4.2
466.726	3.99
466.929	4.12
467.132	4.27
467.335	4.3
467.538	4.11
467.74	4.11
467.943	4.02
468.146	4.07
468.348	4.19
468.551	3.96
