Data from LC_273_Reflection_2.txt Node
Date: Sat Nov 21 12:16:19 EST 2015
User: robert
Spectrometer: USB4E03001
Autoset integration time: false
Trigger mode: 4
Integration Time (sec): 1.000000E-1
Scans to average: 15
Electric dark correction enabled: true
Nonlinearity correction enabled: false
Boxcar width: 5
Stray light correction enabled: false
XAxis mode: Wavelengths
Stop averaging: false
Number of Pixels in Spectrum: 3648
>>>>>Begin Spectral Data<<<<<
177.566	-106.49
177.785	-59.19
178.005	-182.44
178.225	62.97
178.445	125.97
178.665	-1193.53
178.885	784.54
179.105	297.22
179.324	137.75
179.544	134.88
179.764	687.25
179.984	70.45
180.204	32.13
180.423	54.05
180.643	53.44
180.863	77.16
181.083	31.24
181.302	91.25
181.522	96.54
181.742	92.07
181.961	100.44
182.181	100.39
182.401	211.67
182.621	212.25
182.84	236.23
183.06	192.43
183.279	163.55
183.499	146.61
183.719	132.7
183.938	136.13
184.158	157.93
184.377	166.69
184.597	182.33
184.816	158.93
185.036	172.83
185.256	164.83
185.475	167.28
185.695	163.37
185.914	167.18
186.134	173.25
186.353	188.01
186.572	183.13
186.792	179.84
187.011	162.27
187.231	174.5
187.45	172.53
187.67	180.46
187.889	175.85
188.108	230.59
188.328	302.76
188.547	314.79
188.766	306.23
188.986	293.4
189.205	442.68
189.424	790.86
189.644	561.89
189.863	-194.62
190.082	-415.56
190.302	742.14
190.521	110.56
190.74	95.52
190.959	82.32
191.178	95.87
191.398	71.18
191.617	75.14
191.836	81.15
192.055	43.99
192.274	50.34
192.494	43.94
192.713	38.91
192.932	73.24
193.151	67.77
193.37	79.7
193.589	89.91
193.808	116.2
194.027	125.14
194.246	112.4
194.465	107.76
194.685	111.82
194.904	124.06
195.123	136.48
195.342	147.09
195.561	155.9
195.78	110.68
195.999	99.09
196.218	105.96
196.436	107.28
196.655	95.43
196.874	124.58
197.093	126.22
197.312	106.78
197.531	122.7
197.75	86.9
197.969	85.84
198.188	120.97
198.407	121.84
198.625	101.51
198.844	97.86
199.063	101.29
199.282	93.41
199.501	128.16
199.719	132.8
199.938	135.85
200.157	135.72
200.376	132.4
200.594	103.08
200.813	98.4
201.032	114.67
201.251	98.98
201.469	141.81
201.688	224.09
201.907	167.19
202.125	121.04
202.344	118.44
202.563	146.07
202.781	180.46
203	216.65
203.218	184.2
203.437	318.07
203.656	631.98
203.874	455.2
204.093	140.12
204.311	153.8
204.53	294.88
204.748	258.67
204.967	263.5
205.185	170.56
205.404	196.41
205.622	471.08
205.841	299.77
206.059	229.43
206.278	258.3
206.496	255.22
206.715	572.43
206.933	361.12
207.151	261.87
207.37	180.46
207.588	262.75
207.806	205.07
208.025	163.4
208.243	186.57
208.461	180.44
208.68	164.94
208.898	224.74
209.116	135.53
209.335	121.13
209.553	167.91
209.771	222.44
209.989	202.19
210.208	230.77
210.426	224.15
210.644	154.66
210.862	245.23
211.081	259.68
211.299	159.91
211.517	210.96
211.735	176.31
211.953	156.46
212.171	124.99
212.39	127.91
212.608	114.65
212.826	126.66
213.044	118.36
213.262	108.31
213.48	101.76
213.698	95.84
213.916	108.77
214.134	127.43
214.352	129.42
214.57	132.75
214.788	142.16
215.006	142.6
215.224	134.71
215.442	161.93
215.66	163.62
215.878	172.51
216.096	223.39
216.314	201.7
216.532	217.38
216.75	193.66
216.968	206.27
217.185	168.25
217.403	200.89
217.621	198.32
217.839	173.35
218.057	172.11
218.275	171.59
218.492	132.32
218.71	123.29
218.928	120.47
219.146	116.31
219.363	136.87
219.581	232.04
219.799	149.37
220.017	135.04
220.234	154.94
220.452	140.59
220.67	137.91
220.887	151.28
221.105	149.72
221.323	158.85
221.54	162.78
221.758	125.67
221.976	111.53
222.193	119.67
222.411	118.81
222.629	94.72
222.846	99.13
223.064	77.35
223.281	75.22
223.499	73.84
223.716	65.59
223.934	60.7
224.151	52.08
224.369	37.82
224.586	47.49
224.804	49.08
225.021	50.6
225.239	56.21
225.456	53.52
225.674	44.43
225.891	48.97
226.108	48.1
226.326	54.87
226.543	56.16
226.76	53.22
226.978	45.21
227.195	37.51
227.413	35.62
227.63	32.46
227.847	33.97
228.064	33.61
228.282	28.82
228.499	26.6
228.716	22.24
228.934	23.32
229.151	24.34
229.368	23.2
229.585	24.31
229.802	26.31
230.02	26.28
230.237	26.2
230.454	29.29
230.671	28.5
230.888	32.03
231.105	34.53
231.323	34.27
231.54	33.13
231.757	33.9
231.974	37.12
232.191	31.52
232.408	36
232.625	36.4
232.842	33.46
233.059	33.44
233.276	36.74
233.493	37.89
233.71	37.51
233.927	36.81
234.144	37.53
234.361	33.65
234.578	33.93
234.795	31.74
235.012	30.5
235.229	31.72
235.446	33.03
235.663	29.11
235.879	25.1
236.096	21.19
236.313	26.73
236.53	23.52
236.747	26.44
236.964	29.57
237.181	31.25
237.397	31.31
237.614	26.99
237.831	24.36
238.048	23.19
238.264	21.57
238.481	24.29
238.698	21.38
238.915	19.37
239.131	14.62
239.348	13.34
239.565	10.21
239.781	11.27
239.998	15.75
240.215	18.08
240.431	13.4
240.648	15.22
240.865	13.37
241.081	10.39
241.298	10.81
241.514	15.23
241.731	14.49
241.947	16.04
242.164	15.7
242.38	14.38
242.597	14.11
242.814	14.84
243.03	15.73
243.246	17.17
243.463	18.26
243.679	19.95
243.896	19.09
244.112	22.12
244.329	22.93
244.545	22.96
244.762	25.37
244.978	25.34
245.194	25.42
245.411	25.17
245.627	23.35
245.843	21.39
246.06	19.83
246.276	18.13
246.492	15.02
246.709	14.17
246.925	14.79
247.141	13.57
247.357	13.36
247.574	13.7
247.79	13.17
248.006	13.49
248.222	14.01
248.439	15.09
248.655	15.61
248.871	17.12
249.087	17.68
249.303	17.65
249.519	18.1
249.736	18.56
249.952	19.47
250.168	20.25
250.384	19.99
250.6	21.63
250.816	19.53
251.032	19.19
251.248	18.5
251.464	17.38
251.68	17.44
251.896	17.36
252.112	18.94
252.328	17.23
252.544	18.95
252.76	19.36
252.976	18.02
253.192	18.72
253.408	20.04
253.624	21.39
253.84	23.61
254.056	24.3
254.272	23.94
254.487	22.12
254.703	23.63
254.919	21.59
255.135	20.26
255.351	20.33
255.567	18.15
255.782	16.27
255.998	13.73
256.214	10.27
256.43	7.6
256.646	8.64
256.861	8.73
257.077	9.55
257.293	10.5
257.508	10.77
257.724	11.19
257.94	12.96
258.155	12.37
258.371	11.22
258.587	11.9
258.802	12.25
259.018	11.52
259.234	11.55
259.449	11.19
259.665	10.38
259.88	10.76
260.096	10.2
260.312	10.23
260.527	10.74
260.743	11.12
260.958	10.98
261.174	10.44
261.389	11.28
261.605	11.31
261.82	11.82
262.036	12.59
262.251	12.21
262.466	13.32
262.682	12.47
262.897	10.82
263.113	10.68
263.328	11.23
263.543	13.26
263.759	12.12
263.974	12.9
264.189	13.87
264.405	13.76
264.62	14.06
264.835	13.81
265.051	15.08
265.266	16.76
265.481	17.42
265.696	17.85
265.912	17.44
266.127	17.01
266.342	16.27
266.557	14.32
266.773	12.77
266.988	13.08
267.203	12.11
267.418	11.12
267.633	10.44
267.848	9.72
268.064	8.21
268.279	8.02
268.494	8.31
268.709	8.77
268.924	8.04
269.139	9.42
269.354	9.57
269.569	8.74
269.784	9.88
269.999	10.64
270.214	11.11
270.429	12.44
270.644	11.6
270.859	12.45
271.074	10.16
271.289	11.13
271.504	10.14
271.719	9.63
271.934	10.99
272.149	10.45
272.363	10.26
272.578	10.18
272.793	9.21
273.008	10.89
273.223	10.63
273.438	11.82
273.653	12.54
273.867	13.49
274.082	13.84
274.297	13.41
274.512	13.5
274.726	13.31
274.941	13.38
275.156	14.82
275.371	13.02
275.585	13.37
275.8	13.04
276.015	10.85
276.229	10.06
276.444	11.42
276.659	11.58
276.873	11.42
277.088	12.51
277.302	12.18
277.517	11.61
277.732	12.53
277.946	12.98
278.161	13.2
278.375	13.49
278.59	14.33
278.804	12.75
279.019	13.48
279.233	13.35
279.448	12.63
279.662	12.5
279.877	12.45
280.091	12.81
280.306	11.37
280.52	10.52
280.735	11.9
280.949	10.92
281.163	10.39
281.378	9.28
281.592	9.45
281.806	8.82
282.021	8.55
282.235	8.49
282.449	8.06
282.664	9.08
282.878	9.85
283.092	9.97
283.307	10.64
283.521	11.03
283.735	10.74
283.949	10.51
284.164	10.25
284.378	10.57
284.592	9.14
284.806	9.24
285.02	8.56
285.234	8.38
285.449	7.44
285.663	7.59
285.877	8.02
286.091	9.03
286.305	8.94
286.519	9.38
286.733	10.27
286.947	11.25
287.161	10.7
287.375	11.72
287.589	12.16
287.803	12.52
288.017	11.9
288.231	11.54
288.445	10.87
288.659	10.93
288.873	11.03
289.087	10.62
289.301	10.63
289.515	10.69
289.729	10.61
289.943	10.72
290.157	11.09
290.371	11.83
290.584	12.32
290.798	12.53
291.012	12.92
291.226	12.97
291.44	12.12
291.654	12.16
291.867	12.88
292.081	13.18
292.295	13.22
292.509	13.63
292.722	13.42
292.936	13.92
293.15	13.9
293.364	14.4
293.577	14.11
293.791	14.96
294.005	15.2
294.218	14.19
294.432	13.11
294.645	13.63
294.859	13.07
295.073	11.89
295.286	11.18
295.5	12.4
295.713	11.47
295.927	11.34
296.14	10.86
296.354	10.7
296.568	11.9
296.781	11.36
296.994	10.73
297.208	10.21
297.421	11.49
297.635	11.06
297.848	10.03
298.062	10.52
298.275	11.22
298.489	11.27
298.702	11.18
298.915	10.82
299.129	11.64
299.342	11.42
299.555	11.84
299.769	11.93
299.982	12.92
300.195	14
300.409	13.91
300.622	13.49
300.835	14.26
301.048	14.51
301.262	14.39
301.475	14.59
301.688	15.1
301.901	15.44
302.115	15.06
302.328	14.97
302.541	13.87
302.754	14.52
302.967	14.7
303.18	14.46
303.393	15.05
303.607	14.71
303.82	14.44
304.033	14.26
304.246	15.05
304.459	15.4
304.672	16.07
304.885	17.08
305.098	17.3
305.311	17.13
305.524	16.09
305.737	15.4
305.95	15.32
306.163	14.76
306.376	14.84
306.589	13.84
306.802	12.89
307.015	11.34
307.228	11.09
307.44	10.24
307.653	11.8
307.866	13.49
308.079	13.92
308.292	13.33
308.505	13.9
308.718	14.22
308.93	15.05
309.143	14.22
309.356	15.42
309.569	14.78
309.781	15.32
309.994	14.11
310.207	13.65
310.42	12.62
310.632	13.33
310.845	13.05
311.058	12.76
311.27	13.04
311.483	14.27
311.696	12.92
311.908	13.29
312.121	12.49
312.333	13.12
312.546	13.42
312.759	14.38
312.971	15
313.184	16.22
313.396	15.84
313.609	14.28
313.821	14.03
314.034	14.95
314.246	14.47
314.459	15.04
314.671	14.49
314.884	14.13
315.096	14.48
315.309	13.53
315.521	13.02
315.733	13.9
315.946	14.97
316.158	13.97
316.371	15.08
316.583	16.1
316.795	16.13
317.008	16.9
317.22	17.48
317.432	17.81
317.644	17.83
317.857	16.99
318.069	16.52
318.281	17.14
318.494	18.95
318.706	18.42
318.918	18.3
319.13	17.91
319.342	17.37
319.555	17.03
319.767	17.46
319.979	17.7
320.191	18.69
320.403	19.41
320.615	18.16
320.827	17.75
321.039	16.58
321.252	16.46
321.464	17.18
321.676	16.09
321.888	17.51
322.1	16.97
322.312	17.73
322.524	16.83
322.736	17.67
322.948	19.33
323.16	19.59
323.372	20.29
323.584	20.71
323.796	22.08
324.007	23.28
324.219	22.24
324.431	22.6
324.643	22.57
324.855	23.02
325.067	23.25
325.279	23.27
325.491	23.01
325.702	23.74
325.914	23.9
326.126	23.67
326.338	23.15
326.55	24.47
326.761	24.23
326.973	24.56
327.185	25.66
327.396	25.54
327.608	25.72
327.82	26.96
328.032	28.16
328.243	28.85
328.455	28.77
328.666	30.02
328.878	30.2
329.09	32.13
329.301	33.13
329.513	33.32
329.725	34.89
329.936	36.68
330.148	36.85
330.359	36.58
330.571	37.22
330.782	37.79
330.994	38.48
331.205	38.99
331.417	37.96
331.628	38.33
331.84	38.22
332.051	37.98
332.262	36.98
332.474	36.82
332.685	36.05
332.897	35.79
333.108	35.54
333.319	35.37
333.531	35.01
333.742	35.19
333.953	35.3
334.165	36.3
334.376	35.81
334.587	36.45
334.799	36.54
335.01	37.72
335.221	38.7
335.432	38.99
335.644	40.13
335.855	41.24
336.066	42.02
336.277	42.61
336.488	41.96
336.7	41.77
336.911	41.48
337.122	41.35
337.333	41.85
337.544	41.99
337.755	42.53
337.966	41.51
338.177	41.12
338.388	41
338.599	40.42
338.811	40.33
339.022	40.89
339.233	40.15
339.444	40.19
339.655	39.66
339.866	39.11
340.076	38.95
340.287	39.17
340.498	39.56
340.709	39.02
340.92	39.12
341.131	40.13
341.342	39.77
341.553	40.87
341.764	41.47
341.975	41.05
342.185	40.76
342.396	40.5
342.607	40.81
342.818	40.79
343.029	41.94
343.239	42.02
343.45	41.29
343.661	41.47
343.872	41.22
344.082	41.02
344.293	41.01
344.504	40.67
344.714	40.52
344.925	39.97
345.136	39.26
345.346	38.65
345.557	38.22
345.768	38.02
345.978	37.57
346.189	37.38
346.399	37.22
346.61	38.78
346.821	39.26
347.031	39.19
347.242	39.8
347.452	39.92
347.663	40.02
347.873	39.7
348.084	39.76
348.294	40.2
348.504	40.15
348.715	40.57
348.925	38.87
349.136	38.71
349.346	38.41
349.557	37.97
349.767	38.17
349.977	38.03
350.188	39.37
350.398	40.31
350.608	40.34
350.819	40.45
351.029	39.87
351.239	40.46
351.449	40.47
351.66	41.45
351.87	41.24
352.08	41.25
352.29	41.31
352.501	39.93
352.711	39.42
352.921	39.57
353.131	39.34
353.341	39.4
353.552	38.59
353.762	38.19
353.972	37.66
354.182	38.02
354.392	37.68
354.602	37.35
354.812	38.14
355.022	38.24
355.232	38.83
355.442	38.58
355.652	38.64
355.862	38.84
356.072	38.64
356.282	38.4
356.492	38.31
356.702	38.23
356.912	38.12
357.122	38.11
357.332	37.54
357.542	36.23
357.752	36.65
357.962	36.33
358.171	36.32
358.381	37.15
358.591	37.13
358.801	37.61
359.011	38
359.221	37.3
359.43	37.28
359.64	37.02
359.85	37.61
360.06	37.25
360.269	37.8
360.479	37.4
360.689	36.63
360.899	37.03
361.108	36.18
361.318	36.09
361.528	36.49
361.737	36.17
361.947	36.43
362.156	36.57
362.366	36.64
362.576	36.12
362.785	36.5
362.995	36.68
363.204	36.26
363.414	36.24
363.623	36.21
363.833	35.84
364.042	35.89
364.252	35.89
364.461	35.47
364.671	35.35
364.88	35.46
365.09	35.32
365.299	35.48
365.509	35.1
365.718	35.63
365.927	35.85
366.137	35.57
366.346	35.37
366.555	35
366.765	35.59
366.974	35.06
367.183	34.94
367.393	34.89
367.602	34.79
367.811	35.12
368.021	35.01
368.23	34.29
368.439	34.23
368.648	34.08
368.857	33.82
369.067	32.55
369.276	32.92
369.485	33.03
369.694	32.7
369.903	31.97
370.112	31.81
370.321	31.48
370.531	30.91
370.74	31.08
370.949	31.2
371.158	31.63
371.367	31.93
371.576	31.78
371.785	31.4
371.994	31.45
372.203	31.84
372.412	31.88
372.621	32.01
372.83	32.4
373.039	32.57
373.248	32.07
373.457	31.61
373.666	31.31
373.874	30.48
374.083	30.46
374.292	30.51
374.501	30.25
374.71	29.97
374.919	29.27
375.128	29.29
375.336	29.4
375.545	29.72
375.754	29.7
375.963	29.64
376.171	29.94
376.38	29.62
376.589	29.1
376.798	29.11
377.006	29.15
377.215	29.48
377.424	29.29
377.632	28.92
377.841	28.63
378.05	28.63
378.258	28.51
378.467	28.54
378.675	28.5
378.884	28.42
379.093	28.37
379.301	28.12
379.51	27.94
379.718	27.93
379.927	27.74
380.135	27.82
380.344	27.72
380.552	27.91
380.761	28.03
380.969	28.29
381.177	28.05
381.386	27.36
381.594	27.24
381.803	27.22
382.011	26.93
382.219	26.97
382.428	26.87
382.636	26.83
382.845	26.74
383.053	26.4
383.261	26.3
383.469	26.13
383.678	26.52
383.886	26.52
384.094	26.12
384.302	25.97
384.511	25.78
384.719	25.25
384.927	25.27
385.135	25.47
385.343	25.36
385.552	25.34
385.76	25.56
385.968	25.41
386.176	25.31
386.384	25.71
386.592	25.49
386.8	25.46
387.008	25.66
387.216	25.32
387.424	24.95
387.633	24.87
387.841	24.21
388.049	24.06
388.257	23.89
388.465	23.91
388.672	23.42
388.88	23.09
389.088	22.75
389.296	22.68
389.504	23.03
389.712	22.79
389.92	22.68
390.128	22.85
390.336	22.58
390.544	22.69
390.751	22.79
390.959	22.61
391.167	22.89
391.375	22.79
391.583	22.53
391.79	22
391.998	22.12
392.206	22.4
392.414	22.08
392.621	22.32
392.829	21.92
393.037	21.68
393.244	21.72
393.452	21.54
393.66	21.73
393.867	21.72
394.075	21.73
394.283	21.3
394.49	21.23
394.698	21.65
394.905	21.58
395.113	21.6
395.32	21.52
395.528	21.27
395.735	21.21
395.943	21.19
396.15	21.27
396.358	20.96
396.565	20.88
396.773	20.89
396.98	20.62
397.188	20.55
397.395	20.44
397.602	20.14
397.81	20.29
398.017	20.35
398.225	20.2
398.432	20.09
398.639	20.34
398.847	20.47
399.054	20.02
399.261	20.1
399.468	20.16
399.676	20.53
399.883	20.71
400.09	20.69
400.297	20.54
400.505	20.64
400.712	20.23
400.919	20.17
401.126	20.43
401.333	20.38
401.54	20.27
401.748	19.93
401.955	19.71
402.162	19.63
402.369	19.38
402.576	19.08
402.783	18.83
402.99	18.93
403.197	19.13
403.404	18.71
403.611	18.81
403.818	18.54
404.025	18.43
404.232	18.55
404.439	18.59
404.646	18.54
404.853	19.05
405.06	19.38
405.267	19.64
405.474	19.37
405.681	19.53
405.887	19.35
406.094	19.63
406.301	19.67
406.508	19.42
406.715	19.25
406.922	19.25
407.128	19.08
407.335	18.73
407.542	18.83
407.749	18.82
407.955	18.77
408.162	18.73
408.369	18.72
408.575	19.14
408.782	19.22
408.989	19.33
409.195	19.62
409.402	19.64
409.609	19.6
409.815	19.2
410.022	19.25
410.228	19.22
410.435	19.28
410.642	19.11
410.848	18.82
411.055	19.01
411.261	18.98
411.468	18.66
411.674	18.53
411.881	18.63
412.087	18.82
412.294	19.03
412.5	19.11
412.706	18.93
412.913	19.16
413.119	18.9
413.326	18.58
413.532	18.31
413.738	18.46
413.945	18.59
414.151	18.43
414.357	18.34
414.564	18.16
414.77	18.37
414.976	18.54
415.182	18.42
415.389	18.66
415.595	18.7
415.801	18.8
416.007	18.69
416.214	18.45
416.42	18.56
416.626	18.55
416.832	18.34
417.038	18.05
417.244	17.88
417.45	17.71
417.657	17.59
417.863	17.63
418.069	17.77
418.275	17.76
418.481	17.74
418.687	17.66
418.893	17.5
419.099	17.4
419.305	17.3
419.511	17.33
419.717	17.36
419.923	17.38
420.129	17.35
420.335	17.19
420.541	17.12
420.746	17.06
420.952	17.01
421.158	17.01
421.364	17.17
421.57	17.24
421.776	17.32
421.982	17.34
422.187	17.23
422.393	17.14
422.599	17.06
422.805	17.24
423.01	17.22
423.216	17.21
423.422	17.26
423.628	17.11
423.833	16.97
424.039	16.92
424.245	16.82
424.45	16.92
424.656	16.91
424.862	16.99
425.067	16.84
425.273	16.88
425.478	16.89
425.684	16.89
425.889	16.98
426.095	17.03
426.301	17.04
426.506	17.09
426.712	16.92
426.917	16.93
427.123	16.92
427.328	16.92
427.533	17.08
427.739	17.11
427.944	17
428.15	16.96
428.355	17.14
428.561	17.09
428.766	17.03
428.971	17.12
429.177	17.2
429.382	17.2
429.587	17.11
429.793	17.09
429.998	16.98
430.203	16.97
430.408	17.02
430.614	16.83
430.819	16.84
431.024	16.93
431.229	16.98
431.434	16.92
431.64	16.84
431.845	16.98
432.05	16.87
432.255	16.85
432.46	16.88
432.665	16.77
432.87	16.77
433.076	16.79
433.281	16.61
433.486	16.65
433.691	16.69
433.896	16.67
434.101	16.58
434.306	16.41
434.511	16.35
434.716	16.34
434.921	16.23
435.126	16.28
435.331	16.32
435.535	16.44
435.74	16.26
435.945	16.08
436.15	16.07
436.355	16.13
436.56	16.32
436.765	16.45
436.97	16.49
437.174	16.69
437.379	16.79
437.584	16.74
437.789	16.8
437.993	16.99
438.198	17
438.403	17.14
438.608	17.14
438.812	16.92
439.017	16.92
439.222	17.01
439.426	16.95
439.631	16.91
439.836	16.87
440.04	16.8
440.245	16.8
440.45	16.83
440.654	16.62
440.859	16.57
441.063	16.68
441.268	16.67
441.472	16.67
441.677	16.68
441.881	16.72
442.086	16.6
442.29	16.64
442.495	16.51
442.699	16.51
442.904	16.58
443.108	16.47
443.312	16.5
443.517	16.51
443.721	16.43
443.925	16.31
444.13	16.17
444.334	16.23
444.538	16.15
444.743	16.17
444.947	16.1
445.151	15.86
445.356	15.9
445.56	15.73
445.764	15.6
445.968	15.48
446.173	15.47
446.377	15.38
446.581	15.33
446.785	15.29
446.989	15.19
447.193	15.26
447.398	15.48
447.602	15.49
447.806	15.51
448.01	15.52
448.214	15.52
448.418	15.45
448.622	15.38
448.826	15.35
449.03	15.2
449.234	15.21
449.438	15.03
449.642	14.9
449.846	14.92
450.05	15.01
450.254	14.87
450.458	14.71
450.662	14.96
450.866	14.81
451.069	14.84
451.273	14.98
451.477	14.86
451.681	14.77
451.885	14.75
452.089	14.54
452.292	14.63
452.496	14.71
452.7	14.81
452.904	14.55
453.107	14.69
453.311	14.69
453.515	14.56
453.719	14.62
453.922	14.79
454.126	14.59
454.33	14.91
454.533	14.64
454.737	14.72
454.94	14.82
455.144	14.99
455.348	14.91
