Data from LC_268_Reflection_4.txt Node
Date: Sat Nov 21 12:01:53 EST 2015
User: robert
Spectrometer: USB4E03001
Autoset integration time: false
Trigger mode: 4
Integration Time (sec): 1.000000E-1
Scans to average: 15
Electric dark correction enabled: true
Nonlinearity correction enabled: false
Boxcar width: 5
Stray light correction enabled: false
XAxis mode: Wavelengths
Stop averaging: false
Number of Pixels in Spectrum: 3648
>>>>>Begin Spectral Data<<<<<
177.566	-7.24
177.785	-16.38
178.005	-78.7
178.225	161.01
178.445	389.57
178.665	601.76
178.885	397.42
179.105	210.61
179.324	116.19
179.544	129.57
179.764	563.35
179.984	122.1
180.204	116.27
180.423	114.91
180.643	129.89
180.863	168.08
181.083	183.81
181.302	162.56
181.522	143.52
181.742	122.99
181.961	115.51
182.181	86.21
182.401	128.34
182.621	124.68
182.84	100.29
183.06	101.8
183.279	80.53
183.499	76.86
183.719	61.19
183.938	87.02
184.158	123.83
184.377	131.33
184.597	160.78
184.816	136.63
185.036	160.82
185.256	158.7
185.475	127.01
185.695	137.05
185.914	138.9
186.134	156.22
186.353	146.62
186.572	128.46
186.792	121.02
187.011	108.23
187.231	102.82
187.45	91.7
187.67	91.1
187.889	102.09
188.108	131.56
188.328	141.91
188.547	120.09
188.766	142.93
188.986	179.23
189.205	125.82
189.424	-15.88
189.644	110.98
189.863	127.73
190.082	211.62
190.302	-185.38
190.521	-65.09
190.74	-40.09
190.959	-13.2
191.178	-4.61
191.398	-19.72
191.617	20.51
191.836	59.26
192.055	32.95
192.274	42.53
192.494	51
192.713	43.97
192.932	73.27
193.151	61.27
193.37	70.94
193.589	61.08
193.808	85.97
194.027	80.96
194.246	55.54
194.465	66.03
194.685	62.73
194.904	55.78
195.123	74.03
195.342	71.92
195.561	74.34
195.78	45.25
195.999	61.19
196.218	94.12
196.436	104.85
196.655	138.47
196.874	134.84
197.093	156.86
197.312	207.27
197.531	177.07
197.75	143.9
197.969	137.11
198.188	149
198.407	148.55
198.625	138.9
198.844	147.22
199.063	135.56
199.282	156.97
199.501	176.02
199.719	159.28
199.938	188.39
200.157	176.55
200.376	156.51
200.594	160.62
200.813	125.14
201.032	115.91
201.251	77.44
201.469	97.09
201.688	79.08
201.907	58.82
202.125	64.08
202.344	64.56
202.563	67.06
202.781	90
203	90.23
203.218	114.25
203.437	167.93
203.656	300.35
203.874	168.79
204.093	119.4
204.311	139.06
204.53	213.4
204.748	145.77
204.967	165.38
205.185	90.04
205.404	79.74
205.622	127.34
205.841	121.37
206.059	122.13
206.278	186.37
206.496	212.42
206.715	430.08
206.933	329
207.151	274.18
207.37	197.18
207.588	316.95
207.806	283.2
208.025	176.64
208.243	158.67
208.461	161.75
208.68	151.47
208.898	185.91
209.116	134.59
209.335	120.05
209.553	139.19
209.771	161.94
209.989	132.24
210.208	169.57
210.426	206.4
210.644	200.14
210.862	231.61
211.081	125.96
211.299	44.57
211.517	54.59
211.735	48.18
211.953	51.45
212.171	56.91
212.39	72.03
212.608	45.56
212.826	67.35
213.044	61.97
213.262	58.55
213.48	62.4
213.698	61.59
213.916	53.28
214.134	60.13
214.352	61.88
214.57	64.31
214.788	78.2
215.006	98.34
215.224	62.45
215.442	63.49
215.66	75.5
215.878	75.07
216.096	110.26
216.314	123.2
216.532	115.99
216.75	114.93
216.968	127.75
217.185	99.44
217.403	101.87
217.621	121.73
217.839	121.47
218.057	125.38
218.275	111.74
218.492	89.72
218.71	74.61
218.928	91.06
219.146	83.88
219.363	75.04
219.581	130.31
219.799	89.52
220.017	71.6
220.234	89.95
220.452	70.33
220.67	86.76
220.887	85.59
221.105	102.81
221.323	111.86
221.54	96.01
221.758	82.24
221.976	66.06
222.193	70.74
222.411	80.67
222.629	61.63
222.846	69.19
223.064	84.71
223.281	82
223.499	74.43
223.716	74.79
223.934	81.24
224.151	95.08
224.369	90.7
224.586	98.66
224.804	87.07
225.021	94.01
225.239	87.07
225.456	76.39
225.674	75.51
225.891	69.25
226.108	58.17
226.326	56.78
226.543	49.32
226.76	50.48
226.978	37.2
227.195	32.97
227.413	33.2
227.63	32.74
227.847	31.72
228.064	28.57
228.282	22.63
228.499	25.74
228.716	22.46
228.934	20.38
229.151	20.39
229.368	19.28
229.585	21.33
229.802	20.4
230.02	19.17
230.237	18.25
230.454	21.41
230.671	22.79
230.888	23.38
231.105	22.47
231.323	22.07
231.54	22.27
231.757	26.35
231.974	27.17
232.191	25.98
232.408	26.21
232.625	21.59
232.842	18.38
233.059	19.19
233.276	20.04
233.493	32.11
233.71	36.89
233.927	35.06
234.144	33.49
234.361	31.66
234.578	32.47
234.795	34.13
235.012	34.16
235.229	30.83
235.446	27.34
235.663	19.39
235.879	9.53
236.096	4.16
236.313	10.61
236.53	7.12
236.747	6.96
236.964	3.8
237.181	2.19
237.397	2.5
237.614	-0.51
237.831	-0.65
238.048	6.16
238.264	7.42
238.481	6.3
238.698	0.52
238.915	4.05
239.131	-3.44
239.348	-1.86
239.565	-0.66
239.781	2.79
239.998	5.55
240.215	8.45
240.431	3.74
240.648	3.28
240.865	1.7
241.081	2.43
241.298	4.5
241.514	10.95
241.731	11.78
241.947	13.52
242.164	14.75
242.38	14.22
242.597	14.5
242.814	14.38
243.03	15.91
243.246	18.41
243.463	17.21
243.679	17.83
243.896	15.6
244.112	17.47
244.329	18.68
244.545	15.6
244.762	16.76
244.978	17.26
245.194	18.76
245.411	18.96
245.627	16.21
245.843	14.95
246.06	14.28
246.276	14.52
246.492	13.2
246.709	11.22
246.925	12.28
247.141	11.41
247.357	10.59
247.574	10.21
247.79	9.1
248.006	9.84
248.222	10.7
248.439	11.02
248.655	11.31
248.871	12.26
249.087	12.66
249.303	12.63
249.519	13.79
249.736	14.55
249.952	15.7
250.168	16.51
250.384	17.73
250.6	18.27
250.816	17.71
251.032	17.8
251.248	15.33
251.464	14.91
251.68	15.25
251.896	16.14
252.112	15.75
252.328	15.14
252.544	16.47
252.76	15.84
252.976	15.71
253.192	16.04
253.408	17.45
253.624	17.61
253.84	17.68
254.056	16.03
254.272	14.22
254.487	15.02
254.703	16.19
254.919	14.4
255.135	15.19
255.351	14.71
255.567	12.91
255.782	9.79
255.998	11.78
256.214	12.26
256.43	13.79
256.646	11.77
256.861	8.93
257.077	8.29
257.293	10.87
257.508	9.8
257.724	9.9
257.94	11.32
258.155	11.73
258.371	10.84
258.587	10.95
258.802	10.86
259.018	11.43
259.234	12.02
259.449	11.72
259.665	10.87
259.88	11.22
260.096	11.21
260.312	11.43
260.527	11.39
260.743	11.68
260.958	11.57
261.174	11.13
261.389	11.91
261.605	12.14
261.82	12.34
262.036	13.54
262.251	13.09
262.466	13.87
262.682	13.06
262.897	12.11
263.113	11.12
263.328	11.9
263.543	13.3
263.759	11.78
263.974	13.07
264.189	14.51
264.405	13.18
264.62	13.73
264.835	14.64
265.051	14.72
265.266	16.47
265.481	17
265.696	15.81
265.912	15.24
266.127	15.6
266.342	15.33
266.557	14.19
266.773	13.2
266.988	13.53
267.203	11.1
267.418	10.19
267.633	10
267.848	10.18
268.064	10.71
268.279	11.57
268.494	11.18
268.709	10.81
268.924	10.33
269.139	10.82
269.354	9.42
269.569	9.85
269.784	10.9
269.999	9.77
270.214	9.86
270.429	9.68
270.644	7.97
270.859	8.17
271.074	7.9
271.289	8.62
271.504	8.99
271.719	8.84
271.934	9.68
272.149	9.7
272.363	9.96
272.578	9.29
272.793	8.47
273.008	10.35
273.223	10.48
273.438	10.66
273.653	11.25
273.867	11.26
274.082	12.77
274.297	11.84
274.512	11.97
274.726	12.67
274.941	13.31
275.156	14.64
275.371	13.4
275.585	14.39
275.8	14.17
276.015	12.48
276.229	11.76
276.444	10.99
276.659	11.94
276.873	11.8
277.088	12.13
277.302	12.4
277.517	11.52
277.732	10.85
277.946	10.32
278.161	10.22
278.375	10.71
278.59	11.95
278.804	11.51
279.019	12.25
279.233	12.69
279.448	11.16
279.662	11.1
279.877	11.43
280.091	12.96
280.306	11.11
280.52	10.3
280.735	10.46
280.949	9.26
281.163	9.22
281.378	7.9
281.592	6.92
281.806	8.97
282.021	8.73
282.235	8.6
282.449	8.81
282.664	9.58
282.878	10.27
283.092	11.64
283.307	12.56
283.521	12.53
283.735	13.02
283.949	12.28
284.164	10.96
284.378	11.02
284.592	10.11
284.806	8.63
285.02	8.36
285.234	8.49
285.449	6.69
285.663	6.74
285.877	6.73
286.091	7.35
286.305	7.79
286.519	7.42
286.733	7.68
286.947	8.33
287.161	9.12
287.375	9.98
287.589	10.49
287.803	11.06
288.017	11.51
288.231	10.98
288.445	10.95
288.659	11.02
288.873	11.89
289.087	11.56
289.301	12.41
289.515	12.33
289.729	12.41
289.943	11.98
290.157	12.37
290.371	11.46
290.584	13.15
290.798	12.62
291.012	12.67
291.226	12.57
291.44	12.14
291.654	11.23
291.867	10.82
292.081	11.45
292.295	11.45
292.509	11.31
292.722	10.74
292.936	9.87
293.15	9.19
293.364	9.27
293.577	8.76
293.791	9.63
294.005	10.23
294.218	10.26
294.432	8.76
294.645	10.19
294.859	10.75
295.073	11.25
295.286	10.99
295.5	11.59
295.713	12.51
295.927	12.65
296.14	12.55
296.354	12.71
296.568	13.86
296.781	14.24
296.994	13.32
297.208	12.46
297.421	13.28
297.635	13.06
297.848	12.4
298.062	12.12
298.275	12.63
298.489	12.19
298.702	12.24
298.915	11.69
299.129	11.65
299.342	10.64
299.555	11.71
299.769	11.04
299.982	11.72
300.195	12.69
300.409	12.96
300.622	12.45
300.835	13.29
301.048	13.76
301.262	12.53
301.475	13.56
301.688	14.67
301.901	14.44
302.115	14.3
302.328	14.26
302.541	14.25
302.754	14.98
302.967	15.64
303.18	16.11
303.393	15.59
303.607	15.6
303.82	14.51
304.033	14.33
304.246	14.59
304.459	15.46
304.672	15.71
304.885	16.16
305.098	15.74
305.311	15.35
305.524	14.61
305.737	14.03
305.95	14.69
306.163	14.93
306.376	14.08
306.589	13.91
306.802	12.86
307.015	12.37
307.228	12.46
307.44	11.51
307.653	12.37
307.866	13.08
308.079	13.59
308.292	12.68
308.505	12.13
308.718	12.53
308.93	11.86
309.143	10.71
309.356	9.94
309.569	9.62
309.781	10.21
309.994	9.4
310.207	9
310.42	8.71
310.632	8.69
310.845	8.65
311.058	9.13
311.27	10.16
311.483	11.59
311.696	11.64
311.908	11.86
312.121	11.72
312.333	12.25
312.546	12.69
312.759	12.65
312.971	13.33
313.184	14.02
313.396	13.62
313.609	11.9
313.821	10.46
314.034	11.6
314.246	11.66
314.459	11.61
314.671	10.28
314.884	9.4
315.096	9.84
315.309	8.81
315.521	8.9
315.733	9.74
315.946	10.48
316.158	10.96
316.371	11.62
316.583	12.21
316.795	12.74
317.008	13.72
317.22	13.42
317.432	14.17
317.644	15.89
317.857	15.61
318.069	14.83
318.281	15.32
318.494	15.54
318.706	14.85
318.918	13.33
319.13	12.15
319.342	12.15
319.555	12.22
319.767	12.33
319.979	11.21
320.191	11.31
320.403	12.45
320.615	11.36
320.827	11.11
321.039	9.53
321.252	9.67
321.464	10.05
321.676	8.39
321.888	8.96
322.1	8.19
322.312	8.45
322.524	7.57
322.736	7.42
322.948	9.08
323.16	9.76
323.372	11.74
323.584	12.63
323.796	12.57
324.007	13.15
324.219	12.68
324.431	12.51
324.643	13.15
324.855	12.56
325.067	13.37
325.279	13.01
325.491	13.11
325.702	12.08
325.914	11.4
326.126	11.54
326.338	10.17
326.55	11
326.761	10.37
326.973	10.59
327.185	11.84
327.396	11.1
327.608	10.08
327.82	9.9
328.032	10.08
328.243	9.67
328.455	10.21
328.666	12.06
328.878	12.6
329.09	12.78
329.301	13.2
329.513	13.47
329.725	13.53
329.936	15.31
330.148	14.71
330.359	15.08
330.571	15.98
330.782	15.39
330.994	15.79
331.205	15.55
331.417	16.77
331.628	17.03
331.84	16.88
332.051	16.65
332.262	15.79
332.474	16.49
332.685	15.61
332.897	15.32
333.108	14.95
333.319	15.1
333.531	14.48
333.742	14.5
333.953	13.96
334.165	13.99
334.376	13.74
334.587	14.23
334.799	13.83
335.01	14.53
335.221	15.27
335.432	15.83
335.644	16.13
335.855	16.46
336.066	16.84
336.277	16.67
336.488	16.24
336.7	15.43
336.911	15.1
337.122	16.3
337.333	16.65
337.544	17.07
337.755	17.1
337.966	16.59
338.177	16.72
338.388	16.28
338.599	15.68
338.811	16.54
339.022	17.88
339.233	16.54
339.444	15.82
339.655	15.56
339.866	14.52
340.076	14.11
340.287	14.31
340.498	14.39
340.709	14.24
340.92	14.62
341.131	14.32
341.342	13.85
341.553	15.37
341.764	15.42
341.975	15.13
342.185	14.49
342.396	15.21
342.607	15.12
342.818	14.66
343.029	14.92
343.239	15.89
343.45	15.08
343.661	15.66
343.872	15.01
344.082	15.67
344.293	15.68
344.504	16.01
344.714	15.25
344.925	14.89
345.136	14.57
345.346	14.68
345.557	13.72
345.768	14.03
345.978	13.24
346.189	13.5
346.399	12.31
346.61	12.33
346.821	13.05
347.031	13.17
347.242	13.83
347.452	14.52
347.663	14.18
347.873	15.05
348.084	14.9
348.294	14.68
348.504	14.82
348.715	15.66
348.925	15.55
349.136	14.97
349.346	15.36
349.557	13.97
349.767	13.61
349.977	13.51
350.188	12.23
350.398	12.52
350.608	12.82
350.819	13.14
351.029	12.54
351.239	12.23
351.449	12.37
351.66	12.64
351.87	13.34
352.08	13.75
352.29	14.06
352.501	14.31
352.711	14.19
352.921	14.83
353.131	14.36
353.341	14.5
353.552	14.51
353.762	13.65
353.972	13.56
354.182	14.01
354.392	14.06
354.602	13.74
354.812	14.11
355.022	13.99
355.232	13.33
355.442	13.09
355.652	13.25
355.862	13.44
356.072	13.33
356.282	12.73
356.492	12.41
356.702	11.57
356.912	10.8
357.122	10.95
357.332	10.91
357.542	10.94
357.752	10.8
357.962	10.72
358.171	10.24
358.381	11.04
358.591	11.12
358.801	11.62
359.011	12.47
359.221	12.66
359.43	12.44
359.64	12.77
359.85	12.87
360.06	13.1
360.269	13.36
360.479	13.92
360.689	13.34
360.899	13.82
361.108	13.07
361.318	12.06
361.528	12.36
361.737	12.34
361.947	12.16
362.156	12.33
362.366	12.63
362.576	11.86
362.785	11.72
362.995	12.14
363.204	11.65
363.414	11.66
363.623	12.53
363.833	12.79
364.042	12.97
364.252	12.82
364.461	12.39
364.671	12.03
364.88	12.34
365.09	12.23
365.299	12.08
365.509	11.64
365.718	12.14
365.927	12.31
366.137	11.67
366.346	11.31
366.555	11.62
366.765	12.35
366.974	12.07
367.183	12.03
367.393	12.42
367.602	12.64
367.811	13.05
368.021	12.72
368.23	11.98
368.439	12.17
368.648	11.97
368.857	11.91
369.067	11.58
369.276	11.97
369.485	12.34
369.694	11.73
369.903	11.18
370.112	11.3
370.321	11.45
370.531	10.94
370.74	10.68
370.949	10.65
371.158	10.39
371.367	10.19
371.576	10.21
371.785	10.04
371.994	10.25
372.203	10.28
372.412	9.89
372.621	9.69
372.83	9.93
373.039	10.13
373.248	10.06
373.457	10.21
373.666	10.04
373.874	9.41
374.083	9.67
374.292	9.89
374.501	10.07
374.71	9.92
374.919	9.93
375.128	10.47
375.336	10.52
375.545	10.82
375.754	10.61
375.963	10.27
376.171	10.56
376.38	10.36
376.589	9.97
376.798	9.37
377.006	9.72
377.215	9.92
377.424	9.6
377.632	9.86
377.841	9.74
378.05	9.74
378.258	10.06
378.467	10.02
378.675	10.08
378.884	10.1
379.093	10.45
379.301	10.37
379.51	10.5
379.718	10.48
379.927	10.48
380.135	10.17
380.344	10.6
380.552	10.25
380.761	10.3
380.969	10.45
381.177	10.29
381.386	10.09
381.594	9.95
381.803	9.35
382.011	9.72
382.219	9.26
382.428	9.32
382.636	8.73
382.845	9.12
383.053	9.07
383.261	8.93
383.469	9.14
383.678	9.74
383.886	9.81
384.094	9.82
384.302	9.09
384.511	9.48
384.719	9.51
384.927	9.55
385.135	9.47
385.343	9.55
385.552	9.7
385.76	9.67
385.968	9.41
386.176	9.28
386.384	9.52
386.592	9.72
386.8	9.5
387.008	9.83
387.216	10.18
387.424	10
387.633	9.96
387.841	9.59
388.049	9.55
388.257	9.69
388.465	9.82
388.672	9.66
388.88	9.76
389.088	9.51
389.296	9.25
389.504	9.09
389.712	9.31
389.92	9.28
390.128	9.22
390.336	9.22
390.544	8.96
390.751	9.13
390.959	9.24
391.167	9.25
391.375	9.14
391.583	8.99
391.79	8.66
391.998	8.79
392.206	8.91
392.414	8.73
392.621	8.66
392.829	8.55
393.037	8.12
393.244	8.22
393.452	8.15
393.66	8.52
393.867	8.69
394.075	9.21
394.283	8.83
394.49	8.78
394.698	8.86
394.905	8.99
395.113	8.99
395.32	9.44
395.528	9.21
395.735	9.23
395.943	9.23
396.15	9.31
396.358	8.88
396.565	8.84
396.773	8.73
396.98	8.98
397.188	8.69
397.395	8.72
397.602	8.61
397.81	8.62
398.017	8.61
398.225	8.39
398.432	8.23
398.639	8.3
398.847	8.51
399.054	8.51
399.261	8.46
399.468	8.64
399.676	8.92
399.883	8.82
400.09	9.1
400.297	9.3
400.505	9.41
400.712	9.06
400.919	9.06
401.126	9.08
401.333	9.05
401.54	9.05
401.748	8.97
401.955	8.7
402.162	8.79
402.369	8.46
402.576	8.03
402.783	7.94
402.99	7.9
403.197	7.91
403.404	8.06
403.611	8.23
403.818	8.2
404.025	8.06
404.232	8.08
404.439	8.05
404.646	8.21
404.853	8.76
405.06	8.8
405.267	9.28
405.474	9.28
405.681	9.1
405.887	8.67
406.094	8.67
406.301	8.85
406.508	8.83
406.715	8.72
406.922	8.53
407.128	8.18
407.335	8.14
407.542	8.06
407.749	8.1
407.955	7.96
408.162	7.94
408.369	8
408.575	8.06
408.782	7.93
408.989	8.2
409.195	8.19
409.402	8.25
409.609	8.09
409.815	7.9
410.022	7.94
410.228	7.9
410.435	7.94
410.642	7.88
410.848	7.95
411.055	8.16
411.261	7.67
411.468	7.67
411.674	7.46
411.881	7.81
412.087	7.89
412.294	7.95
412.5	7.9
412.706	7.93
412.913	7.91
413.119	7.91
413.326	8.07
413.532	8.38
413.738	8.52
413.945	8.67
414.151	8.37
414.357	8.33
414.564	8.57
414.77	8.94
414.976	9.03
415.182	8.89
415.389	8.98
415.595	8.97
415.801	8.83
416.007	8.62
416.214	8.64
416.42	8.72
416.626	8.83
416.832	8.45
417.038	8.39
417.244	8.55
417.45	8.63
417.657	8.44
417.863	8.16
418.069	8.42
418.275	8.63
418.481	8.58
418.687	8.54
418.893	8.35
419.099	8.32
419.305	8.27
419.511	8.29
419.717	8.24
419.923	8.2
420.129	8.33
420.335	8.1
420.541	7.98
420.746	7.98
420.952	8.06
421.158	8.15
421.364	8.15
421.57	8.07
421.776	7.98
421.982	8.06
422.187	8.18
422.393	8.04
422.599	7.96
422.805	8.05
423.01	8.11
423.216	8.08
423.422	8.06
423.628	8.16
423.833	8.27
424.039	8.31
424.245	8.23
424.45	8.27
424.656	8.33
424.862	8.56
425.067	8.54
425.273	8.52
425.478	8.42
425.684	8.56
425.889	8.58
426.095	8.46
426.301	8.43
426.506	8.5
426.712	8.25
426.917	8.18
427.123	8.12
427.328	8.09
427.533	8.17
427.739	8.34
427.944	8.2
428.15	8.1
428.355	8.3
428.561	8.32
428.766	8.24
428.971	8.45
429.177	8.74
429.382	8.88
429.587	8.74
429.793	8.58
429.998	8.6
430.203	8.53
430.408	8.58
430.614	8.27
430.819	8.18
431.024	8.15
431.229	8.09
431.434	8.07
431.64	7.9
431.845	8.07
432.05	8.06
432.255	7.98
432.46	7.92
432.665	7.88
432.87	7.99
433.076	7.98
433.281	8.05
433.486	8.04
433.691	8.03
433.896	8.03
434.101	7.96
434.306	7.89
434.511	7.74
434.716	7.92
434.921	7.78
435.126	7.85
435.331	8.18
435.535	8.18
435.74	8.07
435.945	7.89
436.15	7.87
436.355	7.98
436.56	8.06
436.765	8.21
436.97	8.28
437.174	8.51
437.379	8.58
437.584	8.37
437.789	8.41
437.993	8.52
438.198	8.59
438.403	8.66
438.608	8.7
438.812	8.61
439.017	8.71
439.222	8.67
439.426	8.62
439.631	8.65
439.836	8.57
440.04	8.6
440.245	8.51
440.45	8.51
440.654	8.38
440.859	8.29
441.063	8.4
441.268	8.26
441.472	8.26
441.677	8.3
441.881	8.26
442.086	8.24
442.29	8.18
442.495	8.15
442.699	8.22
442.904	8.25
443.108	8.21
443.312	8.16
443.517	8.27
443.721	8.39
443.925	8.18
444.13	8.05
444.334	8.06
444.538	8.06
444.743	8.03
444.947	7.91
445.151	7.95
445.356	7.9
445.56	8
445.764	7.88
445.968	7.74
446.173	7.87
446.377	8.02
446.581	7.99
446.785	7.92
446.989	7.89
447.193	7.96
447.398	7.97
447.602	8.06
447.806	8.05
448.01	8.2
448.214	8.2
448.418	8.15
448.622	8.14
448.826	8.2
449.03	8.27
449.234	8.43
449.438	8.33
449.642	8.3
449.846	8.36
450.05	8.25
450.254	8.3
450.458	8.12
450.662	8.27
450.866	8.13
451.069	8.17
451.273	8.21
451.477	8.23
451.681	8.14
451.885	8.08
452.089	8
452.292	8.03
452.496	7.98
452.7	8.2
452.904	8.15
453.107	8.02
453.311	7.98
453.515	7.87
453.719	7.9
453.922	8.06
454.126	8.09
454.33	8.17
454.533	8.07
454.737	8.05
454.94	8.01
455.144	8.07
455.348	8.12
455.551	8.17
455.755	8.35
455.958	8.44
456.162	8.47
456.365	8.51
456.569	8.45
456.772	8.46
456.976	8.28
457.179	8.29
457.383	8.16
457.586	8.33
457.79	8.26
457.993	8.24
458.196	8.06
458.4	8.05
458.603	8.05
458.807	8
459.01	8.09
459.213	8.14
459.417	8.07
459.62	8.08
459.823	7.92
460.026	7.98
460.23	7.86
460.433	7.9
460.636	7.86
460.839	7.83
461.042	7.9
461.246	7.84
461.449	7.93
461.652	7.92
461.855	7.86
462.058	7.99
462.261	7.87
462.464	8.05
462.668	7.89
462.871	8.11
