Data from LC_273_Reflection_4.txt Node
Date: Sat Nov 21 12:22:34 EST 2015
User: robert
Spectrometer: USB4E03001
Autoset integration time: false
Trigger mode: 4
Integration Time (sec): 1.000000E-1
Scans to average: 15
Electric dark correction enabled: true
Nonlinearity correction enabled: false
Boxcar width: 5
Stray light correction enabled: false
XAxis mode: Wavelengths
Stop averaging: false
Number of Pixels in Spectrum: 3648
>>>>>Begin Spectral Data<<<<<
177.566	-50.56
177.785	25.46
178.005	202.76
178.225	-110.05
178.445	-165.24
178.665	-181.76
178.885	58.76
179.105	142.42
179.324	71.95
179.544	210.29
179.764	1069.99
179.984	156.7
180.204	144.09
180.423	110.78
180.643	124.03
180.863	226.63
181.083	318.78
181.302	318.77
181.522	282.09
181.742	342.24
181.961	272.47
182.181	235.03
182.401	495.82
182.621	403.62
182.84	442.58
183.06	346.2
183.279	263.52
183.499	218.74
183.719	200.75
183.938	208.44
184.158	229.7
184.377	225.67
184.597	236.07
184.816	207.75
185.036	216.1
185.256	214.13
185.475	177.01
185.695	180.94
185.914	181.91
186.134	192.22
186.353	199.6
186.572	170.07
186.792	157.85
187.011	168.63
187.231	184.72
187.45	179.2
187.67	201.57
187.889	224.51
188.108	292.13
188.328	343.07
188.547	388.29
188.766	424.38
188.986	496.14
189.205	835.7
189.424	1303.46
189.644	769.15
189.863	-464.27
190.082	-834.3
190.302	1777.83
190.521	277.77
190.74	278.45
190.959	331.34
191.178	261.19
191.398	160.01
191.617	192.05
191.836	190.09
192.055	195.03
192.274	152.86
192.494	148.18
192.713	151.97
192.932	172.32
193.151	145.03
193.37	124.94
193.589	138.65
193.808	186.74
194.027	187.8
194.246	181.76
194.465	177.96
194.685	190.17
194.904	190.28
195.123	223.55
195.342	263.33
195.561	346.04
195.78	281.98
195.999	323.74
196.218	293.42
196.436	324.62
196.655	388.39
196.874	349.29
197.093	367.04
197.312	420.69
197.531	357.67
197.75	265.6
197.969	216.45
198.188	268.46
198.407	271.65
198.625	278.85
198.844	253.12
199.063	212.41
199.282	225.75
199.501	240.82
199.719	233.8
199.938	239.09
200.157	231.3
200.376	229.22
200.594	219.64
200.813	207.07
201.032	212.82
201.251	217.06
201.469	284.59
201.688	361.46
201.907	332.85
202.125	250.79
202.344	270.24
202.563	348.52
202.781	390.7
203	430.52
203.218	372.39
203.437	623.17
203.656	1035.2
203.874	921.9
204.093	410.27
204.311	351.65
204.53	509.12
204.748	409.74
204.967	426.25
205.185	323.08
205.404	276.87
205.622	698.65
205.841	533.39
206.059	444.33
206.278	513.25
206.496	574.35
206.715	1147.67
206.933	785.37
207.151	658.29
207.37	430.65
207.588	578.55
207.806	516.16
208.025	315.97
208.243	249.34
208.461	247.16
208.68	231.23
208.898	278.76
209.116	199.88
209.335	209.37
209.553	242.49
209.771	326
209.989	310.61
210.208	405.17
210.426	500.83
210.644	574.54
210.862	864.43
211.081	759.27
211.299	417.68
211.517	439.12
211.735	392.45
211.953	312.33
212.171	250.76
212.39	253.84
212.608	205.78
212.826	207.27
213.044	211.63
213.262	194.75
213.48	192.5
213.698	202.8
213.916	260.19
214.134	217.07
214.352	232.97
214.57	213.87
214.788	213.92
215.006	214.63
215.224	209.86
215.442	218.82
215.66	226.15
215.878	217.68
216.096	231.46
216.314	205.14
216.532	213.69
216.75	191.26
216.968	209.09
217.185	186.01
217.403	233.26
217.621	228.48
217.839	201.35
218.057	212.45
218.275	224.67
218.492	203.08
218.71	215.73
218.928	238.65
219.146	232.33
219.363	236.25
219.581	433.78
219.799	295.2
220.017	234.25
220.234	271.12
220.452	233.16
220.67	189.15
220.887	215.36
221.105	201.47
221.323	227.92
221.54	242.17
221.758	202.71
221.976	167.27
222.193	198.27
222.411	199.32
222.629	162.22
222.846	175.85
223.064	176.06
223.281	160.91
223.499	169.8
223.716	136.26
223.934	134.22
224.151	145.52
224.369	143.27
224.586	127.01
224.804	116.09
225.021	132.2
225.239	117.81
225.456	130.26
225.674	119.13
225.891	103.17
226.108	100.36
226.326	94.34
226.543	86.12
226.76	86.03
226.978	78.53
227.195	69.55
227.413	54.88
227.63	56.89
227.847	50.58
228.064	42.93
228.282	38.01
228.499	34.08
228.716	32.03
228.934	29.26
229.151	29.28
229.368	26.15
229.585	26.14
229.802	29.32
230.02	26.06
230.237	24.87
230.454	27.17
230.671	28.51
230.888	30.55
231.105	33.7
231.323	35.74
231.54	33.97
231.757	37.21
231.974	39.96
232.191	39.01
232.408	44.96
232.625	44.78
232.842	44.76
233.059	45.95
233.276	45.09
233.493	47.14
233.71	45.5
233.927	44.46
234.144	45.64
234.361	47.11
234.578	48.81
234.795	45.72
235.012	45.43
235.229	46.55
235.446	46.95
235.663	45.91
235.879	41.39
236.096	43.5
236.313	46.03
236.53	43.01
236.747	43.68
236.964	38.47
237.181	42
237.397	42.98
237.614	43.14
237.831	38.63
238.048	40.91
238.264	38.11
238.481	35.94
238.698	39.65
238.915	40.24
239.131	36.44
239.348	39.71
239.565	38.52
239.781	39.1
239.998	36.21
240.215	37
240.431	31.46
240.648	31.38
240.865	27.46
241.081	21.21
241.298	19.72
241.514	22.75
241.731	21.27
241.947	19.04
242.164	17.97
242.38	17.11
242.597	16.98
242.814	18.68
243.03	18.65
243.246	20.96
243.463	20.08
243.679	21.95
243.896	20.76
244.112	23.71
244.329	26.39
244.545	26.96
244.762	30.36
244.978	31.56
245.194	30.43
245.411	31.92
245.627	30.8
245.843	30.93
246.06	26.93
246.276	23.96
246.492	20.57
246.709	17.64
246.925	16.6
247.141	14.92
247.357	13.28
247.574	13.17
247.79	12.31
248.006	11.73
248.222	11.1
248.439	11.39
248.655	12.3
248.871	13.72
249.087	14.66
249.303	15.06
249.519	16.69
249.736	18.91
249.952	20.5
250.168	22.56
250.384	23.93
250.6	27.44
250.816	29.69
251.032	30.46
251.248	29.28
251.464	28.4
251.68	29.32
251.896	26.97
252.112	26.54
252.328	25.07
252.544	25.56
252.76	24.4
252.976	23.41
253.192	22.09
253.408	21.74
253.624	22.64
253.84	23.8
254.056	22.77
254.272	23.54
254.487	24.69
254.703	24.38
254.919	21.88
255.135	24.21
255.351	23.43
255.567	23.58
255.782	24.31
255.998	23.19
256.214	21.63
256.43	22.8
256.646	24.59
256.861	21.27
257.077	24.34
257.293	26.47
257.508	24.05
257.724	23.22
257.94	22.33
258.155	20.01
258.371	18.99
258.587	18.76
258.802	17.3
259.018	15.49
259.234	15.51
259.449	12.92
259.665	11.74
259.88	11.78
260.096	12.31
260.312	12.29
260.527	12.59
260.743	12.04
260.958	12.12
261.174	11.42
261.389	11.91
261.605	12.61
261.82	14.57
262.036	15.05
262.251	16.07
262.466	16.57
262.682	17.32
262.897	17.24
263.113	18.65
263.328	20.02
263.543	22.02
263.759	22.72
263.974	23.89
264.189	24.13
264.405	24.34
264.62	25.17
264.835	25.37
265.051	27.48
265.266	29.14
265.481	26.86
265.696	26.91
265.912	26.85
266.127	25.28
266.342	22.81
266.557	21.78
266.773	20.73
266.988	18.91
267.203	17.13
267.418	15.09
267.633	14.12
267.848	15.49
268.064	13.83
268.279	13.27
268.494	12.56
268.709	12.75
268.924	12.03
269.139	11.88
269.354	11.28
269.569	11.9
269.784	12.42
269.999	11.78
270.214	11.58
270.429	11.53
270.644	10.57
270.859	11.56
271.074	10.88
271.289	11.25
271.504	11.15
271.719	11.08
271.934	11.97
272.149	10.53
272.363	11.03
272.578	10.51
272.793	10.51
273.008	12.18
273.223	11.77
273.438	12.9
273.653	14.36
273.867	15.46
274.082	16.45
274.297	14.25
274.512	14.35
274.726	14.02
274.941	14.63
275.156	16.77
275.371	15.98
275.585	17.24
275.8	16.41
276.015	14.94
276.229	14.08
276.444	15.53
276.659	16.05
276.873	18.32
277.088	19.26
277.302	19.97
277.517	18.59
277.732	18.66
277.946	18.56
278.161	18.51
278.375	18.58
278.59	19.01
278.804	16.65
279.019	17.86
279.233	17.29
279.448	16.13
279.662	14.86
279.877	13.9
280.091	14.4
280.306	13.69
280.52	13.17
280.735	12.95
280.949	12.72
281.163	13.69
281.378	13.45
281.592	11.99
281.806	12.18
282.021	12.55
282.235	12.34
282.449	12.78
282.664	12.86
282.878	13.92
283.092	15.84
283.307	15.27
283.521	14.17
283.735	14.53
283.949	15.94
284.164	15.21
284.378	15.28
284.592	14.68
284.806	14.07
285.02	13.44
285.234	13.28
285.449	10.86
285.663	11.72
285.877	11.38
286.091	11.66
286.305	11.31
286.519	12.22
286.733	11.67
286.947	13.44
287.161	13.43
287.375	14.14
287.589	14.02
287.803	14.62
288.017	13.95
288.231	14.53
288.445	13.82
288.659	13.73
288.873	12.96
289.087	13.34
289.301	12.84
289.515	12.99
289.729	13.62
289.943	13.59
290.157	13.33
290.371	13.71
290.584	14.82
290.798	15.36
291.012	15.32
291.226	15.83
291.44	16.4
291.654	16.34
291.867	16.61
292.081	16.63
292.295	17.36
292.509	17.78
292.722	17.84
292.936	17.77
293.15	16.86
293.364	17.4
293.577	16.99
293.791	16.84
294.005	16.78
294.218	14.96
294.432	13.62
294.645	13.58
294.859	13.65
295.073	12.45
295.286	12.28
295.5	12.96
295.713	12.08
295.927	12.22
296.14	12.2
296.354	11.89
296.568	12.93
296.781	13.56
296.994	13.59
297.208	13.71
297.421	14.9
297.635	14.38
297.848	14.06
298.062	14.51
298.275	14.66
298.489	14.68
298.702	14.45
298.915	13.79
299.129	13.78
299.342	13.47
299.555	13.63
299.769	13.72
299.982	15.22
300.195	16.45
300.409	16.28
300.622	17.34
300.835	17.44
301.048	18.86
301.262	19.93
301.475	20.41
301.688	20.31
301.901	20.56
302.115	20.04
302.328	20.09
302.541	18.55
302.754	19.41
302.967	19.76
303.18	19.59
303.393	18.91
303.607	18.42
303.82	17.62
304.033	17.07
304.246	17.98
304.459	18.67
304.672	18.35
304.885	19.97
305.098	20.21
305.311	18.58
305.524	18.44
305.737	18.69
305.95	19.37
306.163	19.39
306.376	19.6
306.589	18.5
306.802	17.79
307.015	17.4
307.228	16.43
307.44	15.4
307.653	16.23
307.866	16.87
308.079	16.59
308.292	15.67
308.505	16.57
308.718	17.56
308.93	17.66
309.143	16.38
309.356	16.19
309.569	15.7
309.781	16.13
309.994	15.99
310.207	15.63
310.42	15.17
310.632	14.85
310.845	13.78
311.058	13.62
311.27	13.42
311.483	14.63
311.696	14.81
311.908	15.18
312.121	14.79
312.333	15.27
312.546	15.67
312.759	16.11
312.971	16.45
313.184	18.36
313.396	17.87
313.609	18.27
313.821	18.41
314.034	19.6
314.246	20.27
314.459	20.64
314.671	19.12
314.884	18.2
315.096	17.97
315.309	18.55
315.521	17.32
315.733	17.11
315.946	17.5
316.158	16.62
316.371	15.73
316.583	16.23
316.795	16.13
317.008	17.79
317.22	18.61
317.432	19.19
317.644	18.96
317.857	19.3
318.069	19.12
318.281	18.99
318.494	20
318.706	20.01
318.918	18.15
319.13	17.47
319.342	17.43
319.555	17.45
319.767	17.25
319.979	18.04
320.191	18.52
320.403	19.6
320.615	18.7
320.827	19.89
321.039	20.3
321.252	21.04
321.464	22.99
321.676	21.97
321.888	21.63
322.1	22.11
322.312	21.25
322.524	20.38
322.736	20.68
322.948	23.14
323.16	22.68
323.372	23.02
323.584	23.65
323.796	23.87
324.007	25.05
324.219	25.77
324.431	26.02
324.643	26.77
324.855	27.37
325.067	28.3
325.279	27.6
325.491	27.26
325.702	26.76
325.914	27.02
326.126	26.15
326.338	25.78
326.55	25.23
326.761	25.39
326.973	26.04
327.185	27.03
327.396	26.29
327.608	25.95
327.82	27.11
328.032	28.01
328.243	28.4
328.455	29.77
328.666	30.44
328.878	31.95
329.09	31.87
329.301	31.92
329.513	31.47
329.725	33.17
329.936	34.84
330.148	34.96
330.359	35.62
330.571	36.45
330.782	36.05
330.994	36.68
331.205	37.28
331.417	39.04
331.628	40.12
331.84	41.65
332.051	42.62
332.262	42.57
332.474	43.38
332.685	44.05
332.897	43.81
333.108	44.9
333.319	45.73
333.531	46.25
333.742	45.74
333.953	46.53
334.165	46.78
334.376	46.25
334.587	47.01
334.799	47.67
335.01	48.03
335.221	48.75
335.432	48.63
335.644	48.67
335.855	49.86
336.066	51.13
336.277	51.22
336.488	50.32
336.7	49.59
336.911	49.98
337.122	49.85
337.333	49.73
337.544	49.69
337.755	49.93
337.966	49.9
338.177	49.27
338.388	48.94
338.599	49.31
338.811	49.92
339.022	50.32
339.233	50.09
339.444	49.67
339.655	49.37
339.866	49.94
340.076	50.22
340.287	51.7
340.498	52.24
340.709	52.24
340.92	52.18
341.131	52.49
341.342	52.6
341.553	52.96
341.764	53.69
341.975	53.83
342.185	53.1
342.396	53.65
342.607	52.53
342.818	52.4
343.029	52.36
343.239	52.05
343.45	50.84
343.661	51.71
343.872	50.71
344.082	50.59
344.293	50.17
344.504	50.79
344.714	50.08
344.925	50.15
345.136	49.35
345.346	50.05
345.557	49.59
345.768	49.78
345.978	48.97
346.189	49.13
346.399	48.86
346.61	49.63
346.821	49.41
347.031	49.46
347.242	49.66
347.452	50.51
347.663	50.44
347.873	51.66
348.084	52.7
348.294	53.21
348.504	53.72
348.715	53.63
348.925	53.04
349.136	52.92
349.346	53.01
349.557	52.19
349.767	51.64
349.977	50.82
350.188	49.59
350.398	50.02
350.608	49.75
350.819	49.38
351.029	48.43
351.239	48.7
351.449	49.24
351.66	49.72
351.87	50.38
352.08	50.8
352.29	50.25
352.501	50.31
352.711	49.79
352.921	49.68
353.131	49.39
353.341	50.3
353.552	49.65
353.762	49.05
353.972	48.38
354.182	48.21
354.392	47.62
354.602	47.99
354.812	48.29
355.022	48.42
355.232	48.69
355.442	49.19
355.652	49.19
355.862	49.13
356.072	48.68
356.282	49.05
356.492	48.63
356.702	48.45
356.912	47.82
357.122	48.01
357.332	47.42
357.542	46.64
357.752	46.38
357.962	46.52
358.171	46.36
358.381	46.94
358.591	46.21
358.801	46.99
359.011	46.48
359.221	46.82
359.43	46.53
359.64	46.62
359.85	47.37
360.06	47.21
360.269	47.14
360.479	47.18
360.689	46.58
360.899	47.16
361.108	46.31
361.318	46.34
361.528	46.16
361.737	46.13
361.947	45.8
362.156	45.95
362.366	46.45
362.576	46.14
362.785	46.04
362.995	46.38
363.204	46.12
363.414	46.27
363.623	47.16
363.833	47.12
364.042	47.02
364.252	46.86
364.461	46.18
364.671	45.81
364.88	45.7
365.09	46.1
365.299	45.95
365.509	45.38
365.718	45.57
365.927	45.24
366.137	44.92
366.346	44.79
366.555	45.05
366.765	45.36
366.974	44.82
367.183	44.15
367.393	44.21
367.602	44.82
367.811	45.13
368.021	44.79
368.23	44.5
368.439	44.75
368.648	44.59
368.857	44.4
369.067	43.67
369.276	43.69
369.485	44.46
369.694	43.79
369.903	42.81
370.112	42.83
370.321	43.06
370.531	42.43
370.74	42.02
370.949	42.01
371.158	41.84
371.367	42.06
371.576	41.66
371.785	41.22
371.994	41.36
372.203	41.64
372.412	41.37
372.621	41.14
372.83	41.11
373.039	41.71
373.248	41.37
373.457	41.38
373.666	41.15
373.874	40.86
374.083	40.84
374.292	40.8
374.501	40.41
374.71	40.2
374.919	39.72
375.128	40.07
375.336	39.97
375.545	40.45
375.754	40.35
375.963	40.03
376.171	40.03
376.38	39.93
376.589	39.6
376.798	39.4
377.006	39.41
377.215	39.39
377.424	39.11
377.632	38.53
377.841	38.07
378.05	38.14
378.258	38.07
378.467	37.92
378.675	37.92
378.884	37.9
379.093	37.47
379.301	37.09
379.51	37.07
379.718	37.11
379.927	37.49
380.135	37.2
380.344	37.1
380.552	36.73
380.761	37.45
380.969	37.31
381.177	37.16
381.386	37.2
381.594	37.2
381.803	36.88
382.011	36.34
382.219	35.9
382.428	36.01
382.636	35.79
382.845	36.39
383.053	35.54
383.261	35.35
383.469	35.04
383.678	35.12
383.886	35.19
384.094	35.11
384.302	35.1
384.511	34.87
384.719	34.51
384.927	34.68
385.135	34.56
385.343	34.57
385.552	34.7
385.76	34.88
385.968	34.74
386.176	34.54
386.384	34.53
386.592	34.17
386.8	34.27
387.008	33.99
387.216	33.82
387.424	33.56
387.633	33.28
387.841	32.8
388.049	32.51
388.257	32.49
388.465	32.3
388.672	32.29
388.88	32.39
389.088	32.24
389.296	32.11
389.504	31.84
389.712	31.47
389.92	31.31
390.128	31.23
390.336	31.17
390.544	31.08
390.751	30.92
390.959	30.74
391.167	30.76
391.375	30.23
391.583	30.41
391.79	30.06
391.998	30.17
392.206	30.37
392.414	30.07
392.621	29.74
392.829	29.55
393.037	29.67
393.244	29.41
393.452	29.3
393.66	29.56
393.867	29.48
394.075	29.61
394.283	29.33
394.49	29.22
394.698	29.5
394.905	29.54
395.113	29.54
395.32	29.47
395.528	29.56
395.735	29.42
395.943	29.3
396.15	29.44
396.358	28.9
396.565	28.81
396.773	28.5
396.98	28.63
397.188	28.64
397.395	28.49
397.602	28.33
397.81	28.09
398.017	28.01
398.225	28.12
398.432	27.9
398.639	28.4
398.847	28.43
399.054	28.62
399.261	28.36
399.468	28.5
399.676	28.57
399.883	28.5
400.09	28.72
400.297	28.85
400.505	28.7
400.712	28.37
400.919	28.3
401.126	28.24
401.333	28.16
401.54	28.19
401.748	28.03
401.955	28.04
402.162	28.1
402.369	28.22
402.576	28
402.783	27.72
402.99	27.42
403.197	27.25
403.404	27.38
403.611	27.35
403.818	27.08
404.025	26.85
404.232	26.78
404.439	26.52
404.646	26.25
404.853	26.58
405.06	26.83
405.267	27.4
405.474	27.57
405.681	27.47
405.887	27.31
406.094	27.51
406.301	27.87
406.508	27.64
406.715	27.77
406.922	27.72
407.128	27.28
407.335	27.29
407.542	27.08
407.749	26.94
407.955	26.8
408.162	26.59
408.369	26.55
408.575	26.31
408.782	26.46
408.989	26.65
409.195	26.43
409.402	26.55
409.609	26.38
409.815	25.9
410.022	25.8
410.228	26.08
410.435	26.44
410.642	26.08
410.848	26.33
411.055	26.3
411.261	26.09
411.468	26.56
411.674	26.58
411.881	26.67
412.087	27.25
412.294	27.54
412.5	27.32
412.706	27.16
412.913	27.33
413.119	27.16
413.326	27.2
413.532	27.41
413.738	27.25
413.945	27.55
414.151	27.39
414.357	27.04
414.564	27.11
414.77	27.39
414.976	27.25
415.182	27.43
415.389	27.44
415.595	27.3
415.801	27.14
416.007	27.19
416.214	26.79
416.42	26.75
416.626	26.96
416.832	26.52
417.038	26.2
417.244	26.41
417.45	26.41
417.657	26.24
417.863	26.26
418.069	26.29
418.275	26.06
418.481	26
418.687	26.05
418.893	25.87
419.099	25.86
419.305	25.92
419.511	25.86
419.717	25.74
419.923	25.78
420.129	25.82
420.335	25.69
420.541	25.63
420.746	25.66
420.952	25.57
421.158	25.55
421.364	25.61
421.57	25.48
421.776	25.49
421.982	25.54
422.187	25.5
422.393	25.41
422.599	25.35
422.805	25.53
423.01	25.42
423.216	25.51
423.422	25.41
423.628	25.3
423.833	25.23
424.039	25.21
424.245	25.1
424.45	25.15
424.656	25.19
424.862	25.24
425.067	25.1
425.273	25.22
425.478	25.25
425.684	25.41
425.889	25.6
426.095	25.77
426.301	25.8
426.506	25.76
426.712	25.61
426.917	25.45
427.123	25.47
427.328	25.65
427.533	25.55
427.739	25.39
427.944	25.23
428.15	25
428.355	25.09
428.561	24.98
428.766	25.07
428.971	25.19
429.177	25.4
429.382	25.43
429.587	25.14
429.793	25.31
429.998	25.45
430.203	25.5
430.408	25.59
430.614	25.34
430.819	25.33
431.024	25.33
431.229	25.13
431.434	25.09
431.64	24.99
431.845	25.1
432.05	25.03
432.255	24.93
432.46	25.03
432.665	24.95
432.87	24.98
433.076	24.98
433.281	24.92
433.486	24.98
433.691	25.07
433.896	24.98
434.101	24.99
434.306	25.08
434.511	25.13
434.716	24.99
434.921	25.03
435.126	25.1
435.331	25.03
435.535	25.12
435.74	25.12
435.945	24.93
436.15	24.99
436.355	25.17
436.56	25.16
436.765	25.09
436.97	25.12
437.174	25.31
437.379	25.37
437.584	25.5
437.789	25.53
437.993	25.66
438.198	25.72
438.403	25.76
438.608	25.63
438.812	25.55
439.017	25.56
439.222	25.68
439.426	25.5
439.631	25.57
439.836	25.46
440.04	25.45
440.245	25.39
440.45	25.44
440.654	25.38
440.859	25.23
441.063	25.21
441.268	25.19
441.472	25.22
441.677	25.25
441.881	25.19
442.086	25.2
442.29	25.18
442.495	25.16
442.699	25.07
442.904	25.19
443.108	25.26
443.312	25.3
443.517	25.35
443.721	25.31
443.925	25.17
444.13	24.93
444.334	24.91
444.538	24.84
444.743	24.77
444.947	24.7
445.151	24.55
445.356	24.57
445.56	24.53
445.764	24.28
445.968	24.21
446.173	24.28
446.377	24.39
446.581	24.39
446.785	24.4
446.989	24.41
447.193	24.45
447.398	24.49
447.602	24.36
447.806	24.35
448.01	24.4
448.214	24.26
448.418	24.13
448.622	24.08
448.826	24.02
449.03	23.94
449.234	23.99
449.438	23.89
449.642	23.73
449.846	23.93
450.05	23.93
450.254	23.9
450.458	23.98
450.662	24.21
450.866	24.18
451.069	24.17
451.273	24.21
451.477	23.95
451.681	24.01
451.885	24.12
452.089	23.9
452.292	23.77
452.496	24.03
452.7	24.04
452.904	23.86
453.107	23.75
453.311	23.79
453.515	23.64
453.719	23.73
453.922	23.8
454.126	23.68
454.33	23.88
