Data from LC_218__Reflection_2.txt Node
Date: Thu Nov 19 13:22:09 EST 2015
User: robert
Spectrometer: USB4E03001
Autoset integration time: false
Trigger mode: 4
Integration Time (sec): 1.000000E-1
Scans to average: 15
Electric dark correction enabled: true
Nonlinearity correction enabled: false
Boxcar width: 5
Stray light correction enabled: false
XAxis mode: Wavelengths
Stop averaging: false
Number of Pixels in Spectrum: 3648
>>>>>Begin Spectral Data<<<<<
177.566	74.46
177.785	-24.86
178.005	-104.66
178.225	-68.39
178.445	-162.96
178.665	130800
178.885	103.13
179.105	161.09
179.324	-62.99
179.544	-316.37
179.764	-18.33
179.984	2.67
180.204	89.84
180.423	252.63
180.643	1251.34
180.863	752.41
181.083	198.37
181.302	89.42
181.522	100.85
181.742	620.13
181.961	-975.52
182.181	-627.82
182.401	-10.03
182.621	-32.03
182.84	84.14
183.06	289.08
183.279	152.55
183.499	30.8
183.719	8.94
183.938	20.9
184.158	12.14
184.377	72.63
184.597	46.66
184.816	-238.13
185.036	3626.09
185.256	113.21
185.475	-23.73
185.695	40.63
185.914	71.14
186.134	71.58
186.353	83.18
186.572	88.85
186.792	62.07
187.011	433.24
187.231	147.44
187.45	-7.8
187.67	-27.49
187.889	2572.73
188.108	86.71
188.328	234.78
188.547	70.76
188.766	51.23
188.986	51.65
189.205	-66.28
189.424	24.42
189.644	-291.15
189.863	-58.78
190.082	-117.94
190.302	-1351.08
190.521	171.02
190.74	203.69
190.959	1880.28
191.178	-1392.37
191.398	1374.74
191.617	-393.22
191.836	-835.81
192.055	173.38
192.274	42.07
192.494	28.11
192.713	-6.67
192.932	22.59
193.151	48.63
193.37	12.01
193.589	66.6
193.808	-9.93
194.027	-48.31
194.246	-118.48
194.465	-132.09
194.685	6000
194.904	202.68
195.123	80.53
195.342	48.14
195.561	62.09
195.78	44.28
195.999	92.56
196.218	107.5
196.436	240.76
196.655	140.23
196.874	96.62
197.093	124.82
197.312	204.37
197.531	532.49
197.75	1060.89
197.969	-329.79
198.188	-405.37
198.407	-2577.99
198.625	151.23
198.844	81.59
199.063	95.45
199.282	67.89
199.501	139.47
199.719	16.75
199.938	438.89
200.157	20.38
200.376	96.69
200.594	81.45
200.813	45.53
201.032	45.81
201.251	94.47
201.469	150.45
201.688	91.31
201.907	97.84
202.125	83.14
202.344	86.59
202.563	48.95
202.781	31.34
203	20.03
203.218	28.26
203.437	-37.85
203.656	-50.64
203.874	4.05
204.093	12.97
204.311	30.47
204.53	26.63
204.748	-26.98
204.967	-43.74
205.185	8.27
205.404	-13.28
205.622	-50.84
205.841	4.86
206.059	-14.2
206.278	-29.66
206.496	-11.27
206.715	-101.2
206.933	-153.43
207.151	437.83
207.37	492.13
207.588	1752.62
207.806	-1028.98
208.025	-181.3
208.243	278.61
208.461	240.71
208.68	220.37
208.898	-751.06
209.116	-322.26
209.335	-612.62
209.553	-12.5
209.771	357.59
209.989	-174.55
210.208	-7.03
210.426	101.08
210.644	190.36
210.862	113.59
211.081	138.58
211.299	84.05
211.517	78.52
211.735	101.14
211.953	228.68
212.171	-74.23
212.39	-165.83
212.608	-130.68
212.826	-47.79
213.044	-13.18
213.262	18.59
213.48	-3.59
213.698	-10.01
213.916	-19.78
214.134	-28.75
214.352	-51.24
214.57	437.21
214.788	-83.46
215.006	-575.91
215.224	378.52
215.442	148.56
215.66	107.2
215.878	-119.51
216.096	-6.49
216.314	-16.92
216.532	4.64
216.75	2.73
216.968	10.96
217.185	-5.69
217.403	24.17
217.621	41.56
217.839	41.18
218.057	38.79
218.275	71.13
218.492	111.62
218.71	69.56
218.928	68.34
219.146	50.09
219.363	51.27
219.581	66
219.799	-68.63
220.017	-21.33
220.234	-1.05
220.452	-76.84
220.67	-86.29
220.887	-106.63
221.105	-250.08
221.323	-317.44
221.54	-164.44
221.758	-97.91
221.976	-38.02
222.193	-27.33
222.411	-46.98
222.629	-104.15
222.846	-82.18
223.064	-34.72
223.281	-13.84
223.499	14.23
223.716	9.36
223.934	-0.84
224.151	34.4
224.369	23.11
224.586	49.51
224.804	68.49
225.021	89.13
225.239	77.16
225.456	77.29
225.674	70.45
225.891	66.42
226.108	59.7
226.326	47.76
226.543	37.01
226.76	30.47
226.978	29.56
227.195	34.51
227.413	31.15
227.63	28.96
227.847	26.07
228.064	21.99
228.282	18.21
228.499	22.38
228.716	24.78
228.934	25.07
229.151	26.31
229.368	25.33
229.585	22.27
229.802	21.42
230.02	19.71
230.237	17.74
230.454	20.83
230.671	20.47
230.888	18.18
231.105	18.59
231.323	11.82
231.54	13.82
231.757	11.87
231.974	11.74
232.191	18.33
232.408	21.19
232.625	27.53
232.842	26.07
233.059	17.82
233.276	19.87
233.493	13.69
233.71	20.63
233.927	10.09
234.144	14.26
234.361	14.2
234.578	11.83
234.795	10.51
235.012	7.77
235.229	10.85
235.446	17.26
235.663	17.39
235.879	21.24
236.096	21.32
236.313	23.94
236.53	21.14
236.747	23.06
236.964	19.56
237.181	17.35
237.397	17.79
237.614	10.71
237.831	7.37
238.048	2.03
238.264	2.51
238.481	6.88
238.698	7.14
238.915	2.39
239.131	-3.99
239.348	-0.32
239.565	-1.78
239.781	-4.22
239.998	0.53
240.215	3.66
240.431	7.31
240.648	7.65
240.865	4.98
241.081	6.17
241.298	8.86
241.514	11.76
241.731	11.89
241.947	11.28
242.164	10.61
242.38	11
242.597	12.96
242.814	13.2
243.03	13.01
243.246	14.61
243.463	13.62
243.679	14.65
243.896	14.59
244.112	12.67
244.329	14.3
244.545	15.89
244.762	15.63
244.978	14.45
245.194	15.76
245.411	15.71
245.627	12.51
245.843	16.17
246.06	12.97
246.276	11.88
246.492	13
246.709	13.72
246.925	14.34
247.141	13.37
247.357	12.52
247.574	12.54
247.79	12.82
248.006	13.51
248.222	12.29
248.439	13.61
248.655	12.96
248.871	12.7
249.087	13.43
249.303	12.68
249.519	12.5
249.736	12.58
249.952	11.02
250.168	11.75
250.384	12.52
250.6	12.02
250.816	11.98
251.032	15.92
251.248	15.1
251.464	12.3
251.68	12.37
251.896	11.78
252.112	11.31
252.328	10.13
252.544	8.56
252.76	8.42
252.976	8.48
253.192	7.58
253.408	3.82
253.624	5.61
253.84	5.56
254.056	7.2
254.272	9.92
254.487	10.83
254.703	10.08
254.919	11.83
255.135	11.56
255.351	10.26
255.567	12.05
255.782	14.59
255.998	13.52
256.214	13.02
256.43	10.4
256.646	10.09
256.861	7.22
257.077	11.74
257.293	10.44
257.508	9.97
257.724	10.5
257.94	8.94
258.155	9.63
258.371	9.54
258.587	11.54
258.802	10.72
259.018	10.7
259.234	12.06
259.449	10.38
259.665	10.87
259.88	11.33
260.096	11.4
260.312	11.43
260.527	11
260.743	10.63
260.958	9.1
261.174	9.17
261.389	8.83
261.605	8.21
261.82	8.38
262.036	7.9
262.251	7.19
262.466	6.98
262.682	6.7
262.897	7.21
263.113	7.03
263.328	9.95
263.543	10.77
263.759	11.46
263.974	11.18
264.189	11.13
264.405	11.96
264.62	13.42
264.835	14.02
265.051	15.63
265.266	14.58
265.481	14.78
265.696	14.8
265.912	14.25
266.127	13.86
266.342	14.63
266.557	15.83
266.773	14.72
266.988	14.79
267.203	13.72
267.418	11.07
267.633	11.98
267.848	12.21
268.064	10.91
268.279	11.59
268.494	11.85
268.709	12.8
268.924	13.1
269.139	14.93
269.354	15.56
269.569	15.44
269.784	16.19
269.999	16.32
270.214	16.56
270.429	17.63
270.644	17.09
270.859	16.29
271.074	16.46
271.289	16.4
271.504	14.13
271.719	11.79
271.934	11.1
272.149	11.72
272.363	10.93
272.578	11.29
272.793	9.71
273.008	8.92
273.223	8.67
273.438	8.21
273.653	6.31
273.867	6.27
274.082	6.38
274.297	8.3
274.512	8.08
274.726	7.79
274.941	7.95
275.156	9.07
275.371	9.77
275.585	11.39
275.8	10.81
276.015	12.33
276.229	14.34
276.444	14.58
276.659	15.4
276.873	15.42
277.088	14.74
277.302	12.97
277.517	12.26
277.732	12.49
277.946	12.5
278.161	12.6
278.375	13.56
278.59	11.18
278.804	10.24
279.019	8.99
279.233	8.8
279.448	9.53
279.662	9.29
279.877	7.74
280.091	6.54
280.306	6.51
280.52	6.67
280.735	3.9
280.949	5.04
281.163	6.8
281.378	5.21
281.592	5.2
281.806	6.39
282.021	8
282.235	9.96
282.449	9.33
282.664	8.15
282.878	7.62
283.092	9.38
283.307	9.35
283.521	8.86
283.735	10.03
283.949	9.55
284.164	9.15
284.378	7.96
284.592	7.04
284.806	8.33
285.02	9.33
285.234	9.2
285.449	10.4
285.663	10.78
285.877	10.65
286.091	10.98
286.305	11.91
286.519	10.77
286.733	10.73
286.947	11.3
287.161	11.68
287.375	11.18
287.589	12.23
287.803	10.16
288.017	11.55
288.231	11.82
288.445	11.11
288.659	10.81
288.873	11.59
289.087	12.85
289.301	12.25
289.515	11.47
289.729	11.36
289.943	10.54
290.157	11.41
290.371	9.21
290.584	9.07
290.798	9.28
291.012	9.83
291.226	10.1
291.44	9.84
291.654	9.31
291.867	9.02
292.081	8.82
292.295	9.51
292.509	8.31
292.722	9.16
292.936	10.64
293.15	11.91
293.364	10.8
293.577	11.12
293.791	9.87
294.005	11.14
294.218	10.81
294.432	10.9
294.645	9.9
294.859	11.44
295.073	11.33
295.286	11.11
295.5	10.17
295.713	9.86
295.927	10.16
296.14	10.57
296.354	11.64
296.568	12.12
296.781	12.4
296.994	12.85
297.208	12.69
297.421	13.06
297.635	11.88
297.848	11.8
298.062	12.62
298.275	11.4
298.489	12.44
298.702	11.91
298.915	12.23
299.129	12.77
299.342	14.19
299.555	14.59
299.769	14.54
299.982	16.37
300.195	17.6
300.409	17.04
300.622	18.04
300.835	17.76
301.048	17.24
301.262	17.01
301.475	16.86
301.688	14.96
301.901	13.5
302.115	12.98
302.328	11.85
302.541	11.13
302.754	11.6
302.967	12.23
303.18	12.24
303.393	12.8
303.607	12.72
303.82	12.37
304.033	13.45
304.246	15.8
304.459	16.61
304.672	17.04
304.885	16.33
305.098	16.26
305.311	16.05
305.524	15.87
305.737	16.11
305.95	15.63
306.163	16.14
306.376	15.09
306.589	12.99
306.802	12.43
307.015	13.12
307.228	14.39
307.44	13.98
307.653	14.06
307.866	14.68
308.079	14
308.292	14.64
308.505	13.96
308.718	13.86
308.93	14.72
309.143	14.7
309.356	13.63
309.569	13.03
309.781	14.42
309.994	14.56
310.207	13.49
310.42	13.92
310.632	13.47
310.845	12.96
311.058	12.83
311.27	12.09
311.483	13.13
311.696	13.41
311.908	12.85
312.121	12.06
312.333	12.59
312.546	12.87
312.759	12.88
312.971	13.15
313.184	14.64
313.396	15.49
313.609	15.26
313.821	13.06
314.034	13.66
314.246	14.39
314.459	14.15
314.671	12.89
314.884	11.82
315.096	12.41
315.309	12.88
315.521	11.01
315.733	10.54
315.946	10.17
316.158	11.3
316.371	10.32
316.583	10.39
316.795	10.4
317.008	10.54
317.22	11.09
317.432	10.06
317.644	11.58
317.857	12.63
318.069	13.39
318.281	15.64
318.494	15.47
318.706	15.96
318.918	16.14
319.13	16.19
319.342	15.06
319.555	14.18
319.767	14.24
319.979	12.6
320.191	12.15
320.403	10.52
320.615	7.64
320.827	8.16
321.039	7.87
321.252	7.16
321.464	7.78
321.676	9.19
321.888	10.31
322.1	9.41
322.312	10.62
322.524	11.14
322.736	10.96
322.948	12.64
323.16	12.17
323.372	11.6
323.584	12.03
323.796	10.35
324.007	10.1
324.219	10.74
324.431	12.13
324.643	11.57
324.855	11.15
325.067	10.69
325.279	9.88
325.491	10.19
325.702	9.98
325.914	9.86
326.126	11.53
326.338	11.71
326.55	12.04
326.761	12.35
326.973	11.97
327.185	12.51
327.396	14.31
327.608	15.38
327.82	14.91
328.032	15.7
328.243	16.1
328.455	15.08
328.666	15.87
328.878	15.82
329.09	15.62
329.301	16.75
329.513	16.92
329.725	17.45
329.936	16.84
330.148	16.33
330.359	17.38
330.571	16.15
330.782	17.86
330.994	18.45
331.205	17.54
331.417	17.49
331.628	16.3
331.84	16.02
332.051	14.84
332.262	15.41
332.474	15.91
332.685	14.98
332.897	15.69
333.108	15.51
333.319	14.67
333.531	15.4
333.742	14.74
333.953	15.26
334.165	16.57
334.376	17.46
334.587	16.81
334.799	17.25
335.01	17.09
335.221	17.14
335.432	15.87
335.644	16.04
335.855	15.64
336.066	16.77
336.277	17.66
336.488	16.29
336.7	15.79
336.911	15.7
337.122	15.57
337.333	15.59
337.544	16.92
337.755	17.56
337.966	17.66
338.177	16.95
338.388	16.18
338.599	15.42
338.811	16.39
339.022	17.01
339.233	17.84
339.444	17.63
339.655	17.93
339.866	16.81
340.076	16.3
340.287	15.76
340.498	16.6
340.709	16.23
340.92	15.74
341.131	15.02
341.342	14.44
341.553	14.16
341.764	14.46
341.975	14.61
342.185	14.64
342.396	14.88
342.607	14.97
342.818	15.29
343.029	15.44
343.239	16.52
343.45	16.19
343.661	16.81
343.872	17.22
344.082	16.89
344.293	17.13
344.504	17.55
344.714	17.98
344.925	18.34
345.136	18.4
345.346	18.24
345.557	17.63
345.768	18.26
345.978	16.85
346.189	16.31
346.399	17.03
346.61	16.35
346.821	16
347.031	16.18
347.242	15.61
347.452	15.8
347.663	16
347.873	16.64
348.084	16.48
348.294	17.13
348.504	17.41
348.715	17.01
348.925	16.88
349.136	16.45
349.346	15.62
349.557	16.39
349.767	15.02
349.977	15.07
350.188	14.63
350.398	13.92
350.608	14.05
350.819	14.19
351.029	14.55
351.239	15.8
351.449	15.72
351.66	16.07
351.87	16.03
352.08	16.16
352.29	15.4
352.501	14.6
352.711	15.49
352.921	15.4
353.131	14.87
353.341	14.36
353.552	13.8
353.762	13.87
353.972	13.87
354.182	13.97
354.392	14.86
354.602	15.51
354.812	15.85
355.022	14.61
355.232	14.55
355.442	14.98
355.652	14.94
355.862	14.52
356.072	14.82
356.282	14.26
356.492	14.1
356.702	13.98
356.912	14.21
357.122	14.21
357.332	15
357.542	15.2
357.752	15.76
357.962	16.16
358.171	15.81
358.381	15.7
358.591	15.66
358.801	15.36
359.011	15.2
359.221	15.6
359.43	16.2
359.64	16.04
359.85	15.92
360.06	15.11
360.269	14.8
360.479	14.8
360.689	14.88
360.899	14.92
361.108	14.94
361.318	14.9
361.528	14.36
361.737	13.92
361.947	14.12
362.156	13.97
362.366	13.86
362.576	13.63
362.785	14.2
362.995	14.54
363.204	14.81
363.414	15.12
363.623	15.01
363.833	14.92
364.042	15.15
364.252	15.03
364.461	15.2
364.671	15.43
364.88	15.87
365.09	15.58
365.299	15.01
365.509	14.83
365.718	14.53
365.927	14.33
366.137	14.32
366.346	13.4
366.555	13.43
366.765	13.75
366.974	13.91
367.183	13.42
367.393	13.21
367.602	13.21
367.811	13.38
368.021	12.74
368.23	13.22
368.439	13.31
368.648	13.69
368.857	13.42
369.067	12.88
369.276	12.34
369.485	12.56
369.694	12.25
369.903	12.11
370.112	11.82
370.321	11.81
370.531	11.58
370.74	11.41
370.949	11.25
371.158	11.28
371.367	10.84
371.576	11.49
371.785	11.03
371.994	11.46
372.203	11.5
372.412	11.61
372.621	12.19
372.83	12.36
373.039	12.67
373.248	12.73
373.457	12.53
373.666	12.92
373.874	12.38
374.083	12.75
374.292	12.2
374.501	11.78
374.71	11.83
374.919	11.45
375.128	11.2
375.336	10.76
375.545	11.04
375.754	11.3
375.963	11.69
376.171	12.01
376.38	12.15
376.589	12.85
376.798	13.4
377.006	13.8
377.215	13.91
377.424	13.87
377.632	14.17
377.841	13.85
378.05	13.91
378.258	13.56
378.467	13.25
378.675	13
378.884	12.52
379.093	12.48
379.301	12.38
379.51	12.28
379.718	12.19
379.927	12.07
380.135	11.82
380.344	11.91
380.552	12.12
380.761	12.44
380.969	12.62
381.177	12.67
381.386	12.63
381.594	11.88
381.803	11.78
382.011	12.22
382.219	12.29
382.428	12.27
382.636	12.17
382.845	11.81
383.053	11.81
383.261	11.25
383.469	11.43
383.678	11.3
383.886	11.23
384.094	11.47
384.302	11.06
384.511	11.01
384.719	11.08
384.927	11.04
385.135	10.88
385.343	10.83
385.552	10.94
385.76	10.79
385.968	10.99
386.176	11.1
386.384	10.53
386.592	10.48
386.8	10.13
387.008	10.07
387.216	9.87
387.424	9.98
387.633	9.67
387.841	9.53
388.049	9.73
388.257	9.22
388.465	9.23
388.672	9.58
388.88	9.64
389.088	9.71
389.296	10.01
389.504	9.84
389.712	10.07
389.92	9.95
390.128	10.33
390.336	9.65
390.544	9.68
390.751	9.9
390.959	9.73
391.167	9.62
391.375	9.82
391.583	9.55
391.79	9.64
391.998	9.37
392.206	9.75
392.414	9.82
392.621	9.8
392.829	9.8
393.037	9.76
393.244	9.96
393.452	9.84
393.66	9.76
393.867	9.94
394.075	9.89
394.283	10.26
394.49	9.95
394.698	9.88
394.905	10.26
395.113	10.26
395.32	10.19
395.528	10.29
395.735	10.69
395.943	10.55
396.15	10.25
396.358	10.4
396.565	10.18
396.773	10.2
396.98	10.01
397.188	9.86
397.395	10.13
397.602	10.28
397.81	10.14
398.017	10.06
398.225	9.91
398.432	10.2
398.639	10.17
398.847	10.01
399.054	9.85
399.261	9.97
399.468	10.09
399.676	9.9
399.883	9.88
400.09	9.62
400.297	9.53
400.505	9.68
400.712	9.63
400.919	9.5
401.126	9.6
401.333	9.86
401.54	10.09
401.748	10.12
401.955	10.17
402.162	9.86
402.369	9.97
402.576	9.88
402.783	9.76
402.99	9.82
403.197	9.88
403.404	9.85
403.611	9.6
403.818	9.48
404.025	9.43
404.232	9.25
404.439	9.38
404.646	9.14
404.853	9.09
405.06	9.14
405.267	9.19
405.474	9
405.681	9.03
405.887	9.1
406.094	9.11
406.301	8.95
406.508	8.9
406.715	8.84
406.922	9.17
407.128	9.18
407.335	9.16
407.542	9.09
407.749	8.92
407.955	9.08
408.162	9.05
408.369	9.09
408.575	9.24
408.782	9.14
408.989	9.06
409.195	8.68
409.402	8.76
409.609	8.82
409.815	8.91
410.022	9.07
410.228	8.9
410.435	9.14
410.642	8.78
410.848	8.6
411.055	8.79
411.261	8.96
411.468	9.03
411.674	8.82
411.881	8.77
412.087	8.42
412.294	8.62
412.5	8.42
412.706	8.31
412.913	8.49
413.119	8.76
413.326	8.93
413.532	9.19
413.738	9.32
413.945	9.41
414.151	9.39
414.357	9.67
414.564	9.37
414.77	9.29
414.976	9.08
415.182	9.4
415.389	9.11
415.595	8.95
415.801	8.74
416.007	8.66
416.214	8.84
416.42	8.91
416.626	9.04
416.832	9.15
417.038	9.33
417.244	9.54
417.45	9.35
417.657	9.26
417.863	9.29
418.069	9.2
418.275	9.38
418.481	9.29
418.687	9.43
418.893	9.25
419.099	9.34
419.305	9.34
419.511	9.3
419.717	9.15
419.923	9.27
420.129	9.23
420.335	9.28
420.541	9.2
420.746	9.3
420.952	9.05
421.158	9.02
421.364	8.94
421.57	8.84
421.776	8.83
421.982	8.82
422.187	8.7
422.393	8.67
422.599	8.58
422.805	8.5
423.01	8.43
423.216	8.57
423.422	8.64
423.628	8.79
423.833	8.92
424.039	8.97
424.245	9.03
424.45	9.1
424.656	9.16
424.862	9.09
425.067	9.32
425.273	9.19
425.478	9.13
425.684	9.15
425.889	8.96
426.095	8.78
426.301	8.71
426.506	8.85
426.712	8.85
426.917	8.81
427.123	8.77
427.328	8.54
427.533	8.58
427.739	8.61
427.944	8.75
428.15	8.91
428.355	8.91
428.561	8.82
428.766	8.5
428.971	8.6
429.177	8.66
429.382	8.82
429.587	8.85
429.793	8.92
429.998	8.99
430.203	8.91
430.408	9.02
430.614	9.12
430.819	9.2
431.024	9.34
431.229	9.37
431.434	9.54
431.64	9.59
431.845	9.75
432.05	9.8
432.255	9.63
432.46	9.42
432.665	9.01
432.87	9
433.076	8.94
433.281	8.73
433.486	8.67
433.691	8.53
433.896	8.43
434.101	8.3
434.306	8.18
434.511	8.26
434.716	8.15
434.921	8.35
435.126	8.35
435.331	8.29
435.535	8.42
435.74	8.45
435.945	8.3
436.15	8.42
436.355	8.5
436.56	8.69
436.765	8.76
436.97	8.79
437.174	8.84
437.379	8.85
437.584	8.85
437.789	8.77
437.993	8.76
438.198	9.01
438.403	8.95
438.608	8.95
438.812	8.8
439.017	8.69
439.222	8.9
439.426	8.85
439.631	8.94
439.836	9.02
440.04	9.26
440.245	9.22
440.45	8.93
440.654	9.08
440.859	8.93
441.063	8.94
441.268	9.12
441.472	9.04
441.677	9.05
441.881	9.01
442.086	8.99
442.29	8.94
442.495	9.08
442.699	9.29
442.904	8.98
443.108	8.94
443.312	8.8
443.517	8.62
443.721	8.74
443.925	8.72
444.13	8.66
444.334	8.64
444.538	8.66
444.743	8.62
444.947	8.61
445.151	8.81
445.356	9.03
445.56	9.23
445.764	9.17
445.968	9.04
446.173	9.09
446.377	8.98
446.581	8.99
446.785	8.84
446.989	8.78
447.193	8.74
447.398	8.76
447.602	8.75
447.806	8.77
448.01	8.85
448.214	9
448.418	9.09
448.622	9.27
448.826	9.28
449.03	9.34
449.234	9.25
449.438	9.24
449.642	9.27
449.846	9.1
450.05	8.98
450.254	8.98
450.458	8.85
450.662	8.75
450.866	8.7
451.069	8.79
451.273	8.83
451.477	9
451.681	9.18
451.885	9.1
452.089	9.25
452.292	9.36
452.496	9.33
452.7	9.27
452.904	9.11
453.107	9.07
453.311	9.11
453.515	9.36
453.719	9.32
453.922	9.27
454.126	9.19
454.33	9.11
454.533	9.06
454.737	8.93
454.94	9.01
455.144	9.2
455.348	9.3
455.551	9.27
455.755	9.06
455.958	9.22
456.162	9.2
456.365	9.31
456.569	9.45
456.772	9.33
456.976	9.34
457.179	9.22
457.383	9.18
457.586	9.05
457.79	8.9
457.993	8.88
458.196	8.69
458.4	8.69
458.603	8.76
458.807	8.63
459.01	8.7
459.213	8.69
459.417	8.74
459.62	8.69
459.823	8.72
460.026	8.73
460.23	8.84
460.433	8.91
460.636	8.74
460.839	8.69
461.042	8.6
461.246	8.58
461.449	8.64
461.652	8.7
