Data from LC_240_Reflection_3.txt Node
Date: Thu Nov 19 22:26:47 EST 2015
User: robert
Spectrometer: USB4E03001
Autoset integration time: false
Trigger mode: 4
Integration Time (sec): 1.000000E-1
Scans to average: 15
Electric dark correction enabled: true
Nonlinearity correction enabled: false
Boxcar width: 5
Stray light correction enabled: false
XAxis mode: Wavelengths
Stop averaging: false
Number of Pixels in Spectrum: 3648
>>>>>Begin Spectral Data<<<<<
177.566	-86.67
177.785	-39.51
178.005	13.89
178.225	-26.94
178.445	-34.85
178.665	-29.57
178.885	41.3
179.105	494.64
179.324	273.53
179.544	269.88
179.764	190.59
179.984	225.07
180.204	438.73
180.423	197.02
180.643	295.46
180.863	205.67
181.083	325.46
181.302	193.87
181.522	141.03
181.742	150.76
181.961	168.08
182.181	217.4
182.401	269.81
182.621	246.62
182.84	504.31
183.06	341.91
183.279	332.37
183.499	227.09
183.719	715.67
183.938	2288.55
184.158	-1427.31
184.377	-1456.2
184.597	887.76
184.816	-8742.45
185.036	-378.39
185.256	5560
185.475	393.48
185.695	355.96
185.914	416.98
186.134	763.78
186.353	485.96
186.572	382.94
186.792	694.83
187.011	-4447.39
187.231	-1642.93
187.45	-2096.64
187.67	-188.7
187.889	-160.37
188.108	-84.42
188.328	-78.69
188.547	-328.27
188.766	-623.19
188.986	-658.77
189.205	10053.92
189.424	335.28
189.644	266.65
189.863	152.01
190.082	128.99
190.302	158.72
190.521	153.89
190.74	197.08
190.959	212.49
191.178	180.15
191.398	215.72
191.617	207.44
191.836	694.76
192.055	234.61
192.274	434.45
192.494	361.74
192.713	174.86
192.932	149.36
193.151	136.3
193.37	158.74
193.589	177
193.808	161.65
194.027	174.01
194.246	152.41
194.465	189.52
194.685	146.99
194.904	148.92
195.123	168.71
195.342	224.05
195.561	195.5
195.78	150.2
195.999	131.44
196.218	130.94
196.436	126.07
196.655	142.17
196.874	123.6
197.093	181.16
197.312	229.2
197.531	263.72
197.75	359.35
197.969	384.2
198.188	-1052.85
198.407	-314.04
198.625	-488.54
198.844	-289.24
199.063	-1914.39
199.282	-244.19
199.501	-315.81
199.719	-437.53
199.938	-98.94
200.157	-396.94
200.376	-386.77
200.594	2084.82
200.813	1560.71
201.032	1270.16
201.251	1143.4
201.469	822.6
201.688	293.45
201.907	448.89
202.125	1907.84
202.344	491.67
202.563	596.72
202.781	574.62
203	458.29
203.218	396.81
203.437	427.63
203.656	401.45
203.874	535.41
204.093	728.15
204.311	215.92
204.53	147.74
204.748	175.79
204.967	152.8
205.185	183.58
205.404	182.37
205.622	207.83
205.841	156.62
206.059	225.38
206.278	232.94
206.496	328.37
206.715	458.56
206.933	524.71
207.151	276.1
207.37	439.47
207.588	337.87
207.806	321.87
208.025	305.72
208.243	514.61
208.461	669.69
208.68	518.06
208.898	312.37
209.116	230.7
209.335	362.98
209.553	1307.01
209.771	-6880.67
209.989	1065.89
210.208	-692.23
210.426	-1127.6
210.644	497.12
210.862	321.63
211.081	314.72
211.299	254.03
211.517	240.69
211.735	149.83
211.953	105.95
212.171	111.69
212.39	121.73
212.608	115.81
212.826	117.29
213.044	139.41
213.262	109.6
213.48	96.96
213.698	118.33
213.916	161.65
214.134	164.82
214.352	281.97
214.57	419.94
214.788	720.33
215.006	565.17
215.224	399.64
215.442	724.95
215.66	264.84
215.878	528.18
216.096	436.18
216.314	376.14
216.532	595.34
216.75	1160.07
216.968	-130.82
217.185	-403.32
217.403	-375.05
217.621	-1669.88
217.839	166.44
218.057	116.17
218.275	94.27
218.492	110.74
218.71	106.91
218.928	85.93
219.146	82.88
219.363	60.14
219.581	72.39
219.799	93.16
220.017	95.25
220.234	108.68
220.452	121.97
220.67	138.68
220.887	124.41
221.105	144.8
221.323	150.88
221.54	126.91
221.758	139.84
221.976	125.04
222.193	119.76
222.411	108.54
222.629	115.54
222.846	107.99
223.064	106.61
223.281	106.02
223.499	90.06
223.716	78.89
223.934	69.26
224.151	53.37
224.369	47.52
224.586	49.72
224.804	60.12
225.021	61.01
225.239	68.88
225.456	62.19
225.674	58.26
225.891	68.27
226.108	71.29
226.326	71.43
226.543	88.44
226.76	88.13
226.978	64.55
227.195	60.11
227.413	40.59
227.63	31.04
227.847	30.38
228.064	28.16
228.282	21.82
228.499	19.86
228.716	20.8
228.934	18.28
229.151	19
229.368	16.79
229.585	16.13
229.802	15.37
230.02	15.93
230.237	14.65
230.454	13.74
230.671	12.99
230.888	14.63
231.105	12.33
231.323	15.48
231.54	13.36
231.757	16.49
231.974	16.33
232.191	20.36
232.408	24.15
232.625	27.54
232.842	31.43
233.059	42.25
233.276	42.84
233.493	41.91
233.71	38.56
233.927	39.87
234.144	39.38
234.361	36.45
234.578	33.98
234.795	29.92
235.012	27.95
235.229	22.42
235.446	19.31
235.663	12.5
235.879	13.56
236.096	12.99
236.313	8.72
236.53	11.2
236.747	12.63
236.964	13.97
237.181	11.28
237.397	14.2
237.614	17.83
237.831	13.35
238.048	19.36
238.264	15.23
238.481	19.1
238.698	23.98
238.915	24.16
239.131	24.49
239.348	21.33
239.565	23.47
239.781	24.83
239.998	20.52
240.215	17.4
240.431	16.59
240.648	18.28
240.865	16.27
241.081	14.1
241.298	13.46
241.514	12.36
241.731	14.15
241.947	13.23
242.164	11.41
242.38	11.87
242.597	11.71
242.814	11.76
243.03	12.17
243.246	12.47
243.463	12.67
243.679	12.45
243.896	12
244.112	12.28
244.329	13.3
244.545	15.39
244.762	16.1
244.978	16.36
245.194	16.48
245.411	15.43
245.627	14.89
245.843	13.67
246.06	14.71
246.276	14.54
246.492	13.68
246.709	12.99
246.925	11.38
247.141	10.9
247.357	10.62
247.574	10.61
247.79	10.49
248.006	10.69
248.222	10.78
248.439	9.77
248.655	9.34
248.871	9.28
249.087	8.62
249.303	9
249.519	9.86
249.736	10.53
249.952	10.71
250.168	11.3
250.384	11.21
250.6	11.86
250.816	12.65
251.032	13.29
251.248	13.11
251.464	13.73
251.68	14.32
251.896	12.51
252.112	12.71
252.328	13.38
252.544	13.23
252.76	12.8
252.976	13.18
253.192	12.92
253.408	14.13
253.624	16.06
253.84	16.94
254.056	15.95
254.272	16.3
254.487	16.65
254.703	14.54
254.919	14.03
255.135	14
255.351	13.4
255.567	15.05
255.782	11.32
255.998	10.09
256.214	9.92
256.43	9.56
256.646	12.83
256.861	12.53
257.077	14.3
257.293	14.78
257.508	15.97
257.724	16.45
257.94	14.33
258.155	15.54
258.371	13.51
258.587	12.12
258.802	10.8
259.018	10.45
259.234	9.56
259.449	8.79
259.665	8.39
259.88	8.09
260.096	8.4
260.312	7.53
260.527	7.14
260.743	7.11
260.958	7.3
261.174	8.21
261.389	8.23
261.605	9.37
261.82	8.85
262.036	8.13
262.251	7.45
262.466	6.68
262.682	7.88
262.897	9.17
263.113	9.25
263.328	10.13
263.543	9.79
263.759	8.24
263.974	7.56
264.189	9.79
264.405	10.87
264.62	12.91
264.835	12.42
265.051	11.64
265.266	11.54
265.481	11.14
265.696	10.45
265.912	8.99
266.127	10.68
266.342	8.92
266.557	8.43
266.773	7.98
266.988	5.27
267.203	4.9
267.418	6.43
267.633	4.62
267.848	4.16
268.064	4.27
268.279	5.41
268.494	4.9
268.709	5.55
268.924	4.54
269.139	6.12
269.354	7.42
269.569	7.4
269.784	6.93
269.999	7.54
270.214	8.33
270.429	8.33
270.644	7.32
270.859	6.85
271.074	5.95
271.289	6.54
271.504	5.8
271.719	5.5
271.934	6.13
272.149	6.45
272.363	6.81
272.578	7.42
272.793	6.69
273.008	6.68
273.223	7.01
273.438	8.58
273.653	8.44
273.867	8.02
274.082	9.07
274.297	8.46
274.512	7.94
274.726	8.1
274.941	6.11
275.156	5.84
275.371	6.59
275.585	6.69
275.8	5.87
276.015	5.63
276.229	6.68
276.444	5.96
276.659	6.25
276.873	6.59
277.088	6.73
277.302	7.41
277.517	8.17
277.732	7.33
277.946	7.14
278.161	6.66
278.375	7.25
278.59	7.36
278.804	7.75
279.019	7.83
279.233	8.47
279.448	9.12
279.662	10.88
279.877	11.23
280.091	11.98
280.306	11.51
280.52	11.77
280.735	12.65
280.949	11.4
281.163	10.64
281.378	10.8
281.592	11.11
281.806	10.2
282.021	9.27
282.235	8.58
282.449	7.99
282.664	8.1
282.878	7.34
283.092	6.11
283.307	7.24
283.521	6.89
283.735	6.82
283.949	5.86
284.164	6
284.378	5.62
284.592	5.59
284.806	5.49
285.02	5.67
285.234	6.68
285.449	6.75
285.663	7.15
285.877	8.06
286.091	7.9
286.305	7.8
286.519	7.54
286.733	7.74
286.947	8.48
287.161	8.38
287.375	8.74
287.589	6.88
287.803	6.6
288.017	6.17
288.231	6.7
288.445	6.81
288.659	6.93
288.873	6.23
289.087	5.42
289.301	5.26
289.515	5.66
289.729	4.73
289.943	6.74
290.157	8.29
290.371	7.7
290.584	6.28
290.798	6.49
291.012	6.45
291.226	7.09
291.44	9.2
291.654	9.05
291.867	9.71
292.081	10.27
292.295	10.4
292.509	9.33
292.722	10.46
292.936	11.86
293.15	11.22
293.364	12.75
293.577	13.78
293.791	13.21
294.005	13.33
294.218	13.23
294.432	12.26
294.645	11.32
294.859	11.4
295.073	10.58
295.286	9.93
295.5	10.25
295.713	9.04
295.927	8.76
296.14	8.3
296.354	6.86
296.568	7.02
296.781	7.51
296.994	8.17
297.208	7.73
297.421	7.89
297.635	8.06
297.848	7.82
298.062	8.04
298.275	7.03
298.489	7.21
298.702	9.61
298.915	9.39
299.129	9.55
299.342	9.21
299.555	9.18
299.769	8.59
299.982	8.55
300.195	8.79
300.409	9.14
300.622	9.64
300.835	9.11
301.048	8.11
301.262	8.26
301.475	8.3
301.688	7.78
301.901	8.23
302.115	8.88
302.328	8.58
302.541	8.16
302.754	7.27
302.967	8.43
303.18	8.71
303.393	8.66
303.607	9.37
303.82	9.29
304.033	9.91
304.246	10.29
304.459	9.62
304.672	10.49
304.885	10.6
305.098	10.56
305.311	10.32
305.524	9.79
305.737	9.75
305.95	9.1
306.163	9.43
306.376	9.14
306.589	8.13
306.802	7.98
307.015	7.07
307.228	8.86
307.44	9.51
307.653	9.74
307.866	10.6
308.079	10.48
308.292	10.6
308.505	10.19
308.718	10.26
308.93	10.95
309.143	11.05
309.356	11.13
309.569	10.45
309.781	10.1
309.994	9.22
310.207	8.66
310.42	9.13
310.632	8.89
310.845	9.49
311.058	9.77
311.27	9.79
311.483	9.97
311.696	9.83
311.908	9.98
312.121	10.01
312.333	10.3
312.546	10.15
312.759	9.98
312.971	10.47
313.184	10.08
313.396	10.05
313.609	10.87
313.821	11.04
314.034	11.86
314.246	10.87
314.459	10.66
314.671	11.57
314.884	12.56
315.096	12.3
315.309	11.58
315.521	11.56
315.733	11.86
315.946	11.68
316.158	12.58
316.371	11.37
316.583	11.46
316.795	10.27
317.008	9.47
317.22	8.69
317.432	9.07
317.644	10.04
317.857	9.08
318.069	8.03
318.281	6.86
318.494	6.97
318.706	7.71
318.918	7.92
319.13	9.78
319.342	8.85
319.555	8.8
319.767	8.1
319.979	6.98
320.191	8.5
320.403	10.15
320.615	9.84
320.827	9.8
321.039	8.81
321.252	9.19
321.464	9.48
321.676	11
321.888	10.58
322.1	11.08
322.312	12.32
322.524	12.58
322.736	11.25
322.948	12.21
323.16	11.71
323.372	11.85
323.584	12.24
323.796	11.3
324.007	10.27
324.219	11.49
324.431	11.2
324.643	10.68
324.855	10.71
325.067	11.54
325.279	10.81
325.491	11.06
325.702	12.14
325.914	11.67
326.126	12.42
326.338	13.64
326.55	12.61
326.761	13.46
326.973	14.03
327.185	13.07
327.396	13.38
327.608	13.82
327.82	14.43
328.032	14.58
328.243	15.61
328.455	16.15
328.666	16.68
328.878	17.75
329.09	18.14
329.301	19.22
329.513	20.71
329.725	20.1
329.936	21.71
330.148	21.99
330.359	21.55
330.571	20.86
330.782	20.96
330.994	21.14
331.205	22.26
331.417	22.69
331.628	21.56
331.84	21.66
332.051	22.98
332.262	23.23
332.474	23.42
332.685	24.05
332.897	24.59
333.108	24.74
333.319	25.07
333.531	24.24
333.742	24.5
333.953	25.62
334.165	26.41
334.376	26.67
334.587	26.55
334.799	25.99
335.01	26.06
335.221	26.02
335.432	26.91
335.644	27.01
335.855	27.61
336.066	28.32
336.277	27.86
336.488	27.28
336.7	27.53
336.911	27.53
337.122	28.52
337.333	29.4
337.544	29.49
337.755	29.34
337.966	29.02
338.177	28.92
338.388	28.12
338.599	28.51
338.811	28.98
339.022	28.8
339.233	28.73
339.444	29.02
339.655	28.62
339.866	29.27
340.076	29.59
340.287	29.67
340.498	29.94
340.709	30.48
340.92	30.8
341.131	30.78
341.342	30.85
341.553	31.7
341.764	31.18
341.975	31.74
342.185	31.65
342.396	31.16
342.607	31.96
342.818	31.98
343.029	32.63
343.239	32.11
343.45	32.12
343.661	31.53
343.872	31.2
344.082	31.55
344.293	32.14
344.504	31.98
344.714	32.68
344.925	32.37
345.136	31.91
345.346	31.44
345.557	31.69
345.768	31.77
345.978	32.38
346.189	31.8
346.399	31.33
346.61	30.57
346.821	31.14
347.031	30.91
347.242	30.92
347.452	32.24
347.663	31.09
347.873	31.89
348.084	32.4
348.294	32.7
348.504	33.12
348.715	33.67
348.925	33.93
349.136	34.31
349.346	33.61
349.557	33.99
349.767	34.04
349.977	35.23
350.188	34.18
350.398	33.46
350.608	33.94
350.819	34.35
351.029	34.35
351.239	33.9
351.449	33.1
351.66	32.92
351.87	32.59
352.08	31.91
352.29	32.14
352.501	32.44
352.711	33.31
352.921	32.15
353.131	31.21
353.341	30.48
353.552	30.47
353.762	30.67
353.972	31.58
354.182	31.76
354.392	31.48
354.602	30.57
354.812	30.56
355.022	29.31
355.232	29.93
355.442	30.39
355.652	30.47
355.862	30.85
356.072	30.8
356.282	31
356.492	30.5
356.702	30.84
356.912	31.13
357.122	31.21
357.332	31.63
357.542	31.03
357.752	31.25
357.962	31.59
358.171	31.81
358.381	31.87
358.591	31.21
358.801	31.25
359.011	31.48
359.221	31.37
359.43	31.35
359.64	31.55
359.85	32.08
360.06	32.07
360.269	31.98
360.479	31.73
360.689	31.53
360.899	31.27
361.108	31.66
361.318	31.51
361.528	31.7
361.737	31.83
361.947	31.77
362.156	31.64
362.366	31.61
362.576	31.57
362.785	31.56
362.995	31.55
363.204	31.95
363.414	31.4
363.623	31.24
363.833	31.25
364.042	30.87
364.252	30.5
364.461	30.04
364.671	29.68
364.88	29.74
365.09	29.54
365.299	29.58
365.509	29.26
365.718	29.52
365.927	29.91
366.137	29.51
366.346	29.47
366.555	29.95
366.765	30.63
366.974	30.35
367.183	30.33
367.393	30.05
367.602	30.56
367.811	30.73
368.021	30.8
368.23	29.39
368.439	29.77
368.648	30.11
368.857	30.34
369.067	29.77
369.276	30.64
369.485	30.38
369.694	30.4
369.903	30.11
370.112	29.98
370.321	29.72
370.531	30.65
370.74	29.95
370.949	29.52
371.158	29.01
371.367	29.48
371.576	28.64
371.785	28.8
371.994	28.73
372.203	28.26
372.412	28.2
372.621	27.98
372.83	28.04
373.039	28.05
373.248	28.44
373.457	28.68
373.666	28.38
373.874	28.64
374.083	28.01
374.292	28.1
374.501	27.97
374.71	28.19
374.919	28.27
375.128	28.08
375.336	28.14
375.545	27.72
375.754	27.22
375.963	27.07
376.171	27.12
376.38	27.16
376.589	26.79
376.798	26.57
377.006	26.28
377.215	26.53
377.424	26.48
377.632	26.41
377.841	26.64
378.05	26.93
378.258	26.76
378.467	26.67
378.675	26.79
378.884	26.8
379.093	27.23
379.301	27.54
379.51	27.52
379.718	27.74
379.927	27.7
380.135	27.97
380.344	27.89
380.552	28.16
380.761	27.63
380.969	27.99
381.177	28.02
381.386	27.87
381.594	27.79
381.803	27.1
382.011	26.67
382.219	26.85
382.428	26.3
382.636	26.03
382.845	26.12
383.053	26.6
383.261	26.22
383.469	26.87
383.678	26.98
383.886	26.88
384.094	27.58
384.302	27.62
384.511	27.49
384.719	27.28
384.927	27.44
385.135	27.43
385.343	27.52
385.552	28.06
385.76	27.37
385.968	27.23
386.176	27.08
386.384	26.67
386.592	26.47
386.8	26.35
387.008	26.3
387.216	26.15
387.424	25.81
387.633	25.54
387.841	25.29
388.049	25.22
388.257	25.18
388.465	25.21
388.672	25.28
388.88	25.45
389.088	25.59
389.296	26.11
389.504	26.18
389.712	26.12
389.92	26.13
390.128	25.73
390.336	25.87
390.544	25.75
390.751	25.67
390.959	25.61
391.167	25.58
391.375	25.4
391.583	24.71
391.79	24.58
391.998	24.91
392.206	24.9
392.414	25.2
392.621	25.23
392.829	25.17
393.037	25.27
393.244	25.16
393.452	25.03
393.66	24.91
393.867	25.19
394.075	25.24
394.283	24.84
394.49	24.61
394.698	24.49
394.905	24.4
395.113	24.37
395.32	24.41
395.528	24.49
395.735	24.73
395.943	25.02
396.15	24.85
396.358	24.95
396.565	25.15
396.773	25.31
396.98	25.27
397.188	25.32
397.395	25.49
397.602	25.19
397.81	24.93
398.017	24.47
398.225	24.18
398.432	24.16
398.639	23.95
398.847	23.93
399.054	23.95
399.261	23.84
399.468	23.63
399.676	23.73
399.883	23.65
400.09	23.9
400.297	24.4
400.505	24.75
400.712	24.95
400.919	24.98
401.126	25.14
401.333	25.15
401.54	25.18
401.748	25.51
401.955	25.46
402.162	25.83
402.369	25.91
402.576	25.88
402.783	25.77
402.99	25.7
403.197	25.88
403.404	25.66
403.611	25.81
403.818	25.77
404.025	25.73
404.232	25.55
404.439	25.59
404.646	25.54
404.853	25.44
405.06	25.37
405.267	25.6
405.474	25.61
405.681	25.53
405.887	25.5
406.094	25.6
406.301	25.68
406.508	25.78
406.715	25.63
406.922	25.58
407.128	25.4
407.335	25.52
407.542	25.47
407.749	25.34
407.955	25.59
408.162	25.69
408.369	25.68
408.575	25.76
408.782	25.74
408.989	25.65
409.195	25.51
409.402	25.73
409.609	25.48
409.815	25.35
410.022	25.16
410.228	25.19
410.435	24.94
410.642	25.09
410.848	24.78
411.055	24.74
411.261	25.02
411.468	25.4
411.674	25.57
411.881	25.88
412.087	25.71
412.294	25.87
412.5	25.53
412.706	25.7
412.913	25.66
413.119	25.89
413.326	25.72
413.532	25.62
413.738	25.36
413.945	25.07
414.151	25.16
414.357	25.39
414.564	25.22
414.77	25.26
414.976	25.2
415.182	24.96
415.389	24.77
415.595	24.69
415.801	24.63
416.007	24.66
416.214	24.62
416.42	24.43
416.626	24.41
416.832	24.56
417.038	24.74
417.244	24.57
417.45	24.7
417.657	24.74
417.863	25.08
418.069	25
418.275	25.08
418.481	25.07
418.687	24.99
418.893	24.97
419.099	24.89
419.305	24.83
419.511	24.92
419.717	24.8
419.923	24.93
420.129	24.82
420.335	24.72
420.541	24.62
420.746	24.55
420.952	24.56
421.158	24.55
421.364	24.59
421.57	24.54
421.776	24.55
421.982	24.57
422.187	24.45
422.393	24.34
422.599	24.34
422.805	24.31
423.01	24.33
423.216	24.19
423.422	24.13
423.628	24.1
423.833	24.15
424.039	24.09
424.245	24.11
424.45	24.19
424.656	24.24
424.862	24.29
425.067	24.26
425.273	24.33
425.478	24.51
425.684	24.59
425.889	24.71
426.095	24.62
426.301	24.63
426.506	24.67
426.712	24.64
426.917	24.71
427.123	24.78
427.328	24.85
427.533	24.9
427.739	24.91
427.944	24.85
428.15	24.69
428.355	24.74
428.561	24.68
428.766	24.69
428.971	24.71
429.177	24.76
429.382	24.69
429.587	24.77
429.793	24.65
429.998	24.59
430.203	24.59
430.408	24.75
430.614	24.91
430.819	25.01
431.024	24.85
431.229	24.62
431.434	24.43
431.64	24.34
431.845	24.23
432.05	24.33
432.255	24.26
432.46	24.19
432.665	24.13
432.87	23.97
433.076	23.87
433.281	24.08
433.486	24.26
433.691	24.35
433.896	24.3
434.101	24.3
434.306	24.25
434.511	24.35
434.716	24.41
434.921	24.38
435.126	24.65
435.331	24.66
435.535	24.53
435.74	24.43
435.945	24.47
436.15	24.57
436.355	24.81
436.56	24.88
436.765	24.78
436.97	24.8
437.174	24.79
437.379	24.46
437.584	24.48
437.789	24.45
437.993	24.39
438.198	24.3
438.403	24.22
438.608	24.2
438.812	24.1
439.017	24.03
439.222	24.12
439.426	24
439.631	24.02
439.836	24.19
440.04	24.36
440.245	24.46
440.45	24.41
440.654	24.59
440.859	24.39
441.063	24.53
441.268	24.58
441.472	24.48
441.677	24.55
441.881	24.6
442.086	24.28
442.29	24.17
442.495	24.02
442.699	24.08
442.904	23.97
443.108	24.12
443.312	23.82
443.517	23.76
443.721	23.86
443.925	23.96
444.13	24.1
444.334	24.32
444.538	24.27
444.743	24.32
444.947	24.34
445.151	24.25
445.356	24.3
445.56	24.44
445.764	24.49
445.968	24.45
446.173	24.36
446.377	24.2
446.581	24.18
446.785	24.17
446.989	24.14
447.193	24.14
447.398	24.17
447.602	24.06
447.806	24.1
448.01	24.03
448.214	24.02
448.418	24.02
448.622	24
448.826	24.12
449.03	24.16
449.234	24.15
449.438	24.1
449.642	24.15
449.846	24.09
450.05	24.04
450.254	24.15
450.458	23.96
450.662	23.9
450.866	23.98
451.069	23.78
451.273	23.7
451.477	23.83
451.681	23.94
451.885	23.82
452.089	24.03
452.292	24
452.496	23.92
452.7	24.08
452.904	24.04
453.107	24.08
453.311	24.24
453.515	24.37
453.719	24.42
453.922	24.3
454.126	24.22
454.33	24.09
454.533	24.01
454.737	23.95
454.94	23.88
455.144	24.1
455.348	23.99
455.551	23.89
455.755	23.82
455.958	23.61
456.162	23.62
456.365	23.82
456.569	23.79
456.772	23.78
456.976	24.01
457.179	23.94
457.383	23.76
