Data from LC_214__Reflection_1.txt Node
Date: Thu Nov 19 12:51:58 EST 2015
User: robert
Spectrometer: USB4E03001
Autoset integration time: false
Trigger mode: 4
Integration Time (sec): 1.000000E-1
Scans to average: 15
Electric dark correction enabled: true
Nonlinearity correction enabled: false
Boxcar width: 5
Stray light correction enabled: false
XAxis mode: Wavelengths
Stop averaging: false
Number of Pixels in Spectrum: 3648
>>>>>Begin Spectral Data<<<<<
177.566	12.42
177.785	35.19
178.005	-6.44
178.225	-16.28
178.445	-131.28
178.665	-48900
178.885	102.85
179.105	-223.21
179.324	171.33
179.544	464.53
179.764	137.48
179.984	21.76
180.204	38.33
180.423	99.77
180.643	476.85
180.863	625.24
181.083	130.94
181.302	154.87
181.522	68.05
181.742	-60.06
181.961	338.94
182.181	275.54
182.401	83.15
182.621	92.23
182.84	269.88
183.06	599.91
183.279	632.55
183.499	258.09
183.719	356.4
183.938	177.99
184.158	213.61
184.377	255.47
184.597	152.16
184.816	534.29
185.036	3750
185.256	116.63
185.475	54.49
185.695	40.07
185.914	34.44
186.134	29.67
186.353	31.96
186.572	35.16
186.792	33.55
187.011	-117.32
187.231	91.79
187.45	3.52
187.67	-58.32
187.889	-2868.18
188.108	12.25
188.328	-278.46
188.547	52.81
188.766	52.03
188.986	-4.03
189.205	-9.48
189.424	71.97
189.644	-84.17
189.863	144.26
190.082	122.9
190.302	-29.98
190.521	51.41
190.74	-54.61
190.959	-1330.99
191.178	2648.31
191.398	-65.61
191.617	54.26
191.836	573.15
192.055	-58.35
192.274	22.66
192.494	7.99
192.713	-58.87
192.932	-24.18
193.151	-25.71
193.37	-85.77
193.589	-19.41
193.808	-68.6
194.027	-98.4
194.246	-305.43
194.465	-364.84
194.685	19545
194.904	324.09
195.123	171.73
195.342	102.55
195.561	73.8
195.78	73.07
195.999	99.57
196.218	185.62
196.436	248.67
196.655	202.83
196.874	129.88
197.093	168.83
197.312	405.66
197.531	533.82
197.75	1051.61
197.969	-393.3
198.188	-516.11
198.407	-3550.58
198.625	201.61
198.844	302.1
199.063	465.82
199.282	419.26
199.501	-68.88
199.719	-294.07
199.938	-410.93
200.157	891.73
200.376	356.43
200.594	209.27
200.813	196.49
201.032	137.74
201.251	186.4
201.469	300.97
201.688	240.57
201.907	223.56
202.125	199.09
202.344	140.93
202.563	108.1
202.781	126.11
203	92.18
203.218	101.16
203.437	184.18
203.656	139.64
203.874	96.66
204.093	125.96
204.311	140.53
204.53	162.8
204.748	209.08
204.967	222.03
205.185	142
205.404	193.84
205.622	308.62
205.841	228
206.059	183.07
206.278	234.86
206.496	218.76
206.715	205.33
206.933	98.06
207.151	177.58
207.37	133.39
207.588	159.78
207.806	450.1
208.025	211.91
208.243	-346.74
208.461	-379.6
208.68	-1079.08
208.898	1194.71
209.116	410.4
209.335	1285.15
209.553	522.41
209.771	1210.12
209.989	-687.35
210.208	-168.14
210.426	68.14
210.644	330.14
210.862	159.29
211.081	214.41
211.299	120.76
211.517	130.67
211.735	169.65
211.953	409.62
212.171	-101.91
212.39	-62.16
212.608	-53.54
212.826	16.94
213.044	34.34
213.262	38.52
213.48	12.57
213.698	7.99
213.916	29.11
214.134	19.57
214.352	31.11
214.57	418.75
214.788	-118.09
215.006	-600.73
215.224	269.5
215.442	88.84
215.66	110.3
215.878	46.49
216.096	38.71
216.314	39.35
216.532	73.07
216.75	74.12
216.968	87.27
217.185	83.47
217.403	68.98
217.621	73.18
217.839	82.69
218.057	76.12
218.275	75.76
218.492	124.39
218.71	71.09
218.928	48.83
219.146	33.44
219.363	-13.18
219.581	-32.4
219.799	-125.38
220.017	12.56
220.234	14.75
220.452	-38.54
220.67	-11.7
220.887	-10.2
221.105	-8.31
221.323	-7.8
221.54	17.59
221.758	57.52
221.976	82.83
222.193	77.79
222.411	67.53
222.629	73.72
222.846	101.02
223.064	107.18
223.281	95.31
223.499	68.17
223.716	63.42
223.934	62.72
224.151	62.49
224.369	32.91
224.586	28.38
224.804	39.47
225.021	42.28
225.239	46.2
225.456	25.01
225.674	33.31
225.891	48.09
226.108	40.66
226.326	30.22
226.543	31.4
226.76	39.55
226.978	42.93
227.195	41.14
227.413	36.22
227.63	32.98
227.847	39.57
228.064	31.15
228.282	28.05
228.499	28.91
228.716	30.15
228.934	25.55
229.151	24.01
229.368	22.94
229.585	20.78
229.802	19.91
230.02	18.9
230.237	14.52
230.454	16.01
230.671	15.36
230.888	16.02
231.105	14.15
231.323	13.35
231.54	15.14
231.757	14.45
231.974	14.35
232.191	19.06
232.408	23.21
232.625	26.7
232.842	26.25
233.059	20.61
233.276	19.44
233.493	22.59
233.71	26.26
233.927	20.83
234.144	21.61
234.361	22.48
234.578	17.87
234.795	11.37
235.012	8.54
235.229	4.85
235.446	8.99
235.663	8.61
235.879	8.16
236.096	14.7
236.313	18.79
236.53	11.81
236.747	13.67
236.964	14.47
237.181	15.82
237.397	19.7
237.614	21.9
237.831	19.75
238.048	20.1
238.264	18.18
238.481	15.15
238.698	11.16
238.915	11.02
239.131	0.91
239.348	-1.18
239.565	-0.73
239.781	-1.18
239.998	3.81
240.215	10.56
240.431	11.35
240.648	12.82
240.865	9.12
241.081	10.5
241.298	14.41
241.514	17.45
241.731	21.28
241.947	20.47
242.164	19.56
242.38	18.15
242.597	17.76
242.814	17.21
243.03	17.43
243.246	18.72
243.463	20.2
243.679	19.08
243.896	19.33
244.112	17.9
244.329	18.43
244.545	20.18
244.762	21.87
244.978	20.02
245.194	20.07
245.411	18.48
245.627	16.18
245.843	14.18
246.06	15.46
246.276	15.61
246.492	14.91
246.709	15.58
246.925	15.75
247.141	14.25
247.357	13.78
247.574	14.21
247.79	15.05
248.006	15.69
248.222	15.21
248.439	14.88
248.655	14.12
248.871	14.28
249.087	14.11
249.303	13.25
249.519	13.69
249.736	13.69
249.952	12.31
250.168	10.42
250.384	10.48
250.6	11.57
250.816	11.31
251.032	12.11
251.248	10.32
251.464	10.7
251.68	10.54
251.896	7.22
252.112	8.08
252.328	7.53
252.544	9.03
252.76	8.9
252.976	7.18
253.192	8.12
253.408	7.13
253.624	8.82
253.84	7.46
254.056	10.87
254.272	15.64
254.487	16.54
254.703	17.59
254.919	20.16
255.135	21.9
255.351	24.2
255.567	22.95
255.782	23.03
255.998	22.26
256.214	21.15
256.43	18.82
256.646	18.85
256.861	14.94
257.077	19.1
257.293	14.12
257.508	12.36
257.724	10.6
257.94	12.47
258.155	14.64
258.371	14.56
258.587	15.55
258.802	14.01
259.018	13.93
259.234	13.74
259.449	11.71
259.665	12.36
259.88	11.58
260.096	12.14
260.312	11.17
260.527	10.6
260.743	9.65
260.958	8.65
261.174	8.92
261.389	9.07
261.605	9.13
261.82	8.89
262.036	7.9
262.251	7.47
262.466	6.77
262.682	7.19
262.897	6.6
263.113	6.64
263.328	7.49
263.543	7.83
263.759	6.77
263.974	6.21
264.189	7.14
264.405	8.82
264.62	12.01
264.835	11.07
265.051	11.8
265.266	10.96
265.481	11.92
265.696	10.63
265.912	9.86
266.127	8.98
266.342	9.08
266.557	9.14
266.773	7.88
266.988	8.46
267.203	7.99
267.418	8.03
267.633	8.38
267.848	9.04
268.064	11.03
268.279	10.93
268.494	12.77
268.709	14.17
268.924	15.07
269.139	16.51
269.354	15.86
269.569	18.3
269.784	16.98
269.999	18.18
270.214	17.7
270.429	18.43
270.644	19.28
270.859	18.07
271.074	18.58
271.289	17.59
271.504	15.76
271.719	15.15
271.934	13.83
272.149	13.98
272.363	13.86
272.578	13.72
272.793	11.36
273.008	10.24
273.223	9.66
273.438	9.22
273.653	9.34
273.867	10.6
274.082	10.67
274.297	12.29
274.512	11.36
274.726	11.09
274.941	11.6
275.156	13.43
275.371	13.39
275.585	14.78
275.8	15.39
276.015	14.85
276.229	15.73
276.444	16.57
276.659	15.86
276.873	17.79
277.088	15.53
277.302	15.44
277.517	15.28
277.732	15.1
277.946	15.32
278.161	14.89
278.375	15.26
278.59	13.51
278.804	12.13
279.019	11.85
279.233	11.75
279.448	14.05
279.662	13.11
279.877	11.89
280.091	12.17
280.306	10.99
280.52	9.63
280.735	8.19
280.949	8.99
281.163	9.9
281.378	8.27
281.592	8.08
281.806	9.03
282.021	10.91
282.235	11.4
282.449	11.36
282.664	10.83
282.878	11.9
283.092	12.8
283.307	12.21
283.521	10.75
283.735	11.63
283.949	11.64
284.164	10.04
284.378	8.11
284.592	7.89
284.806	7.67
285.02	8.12
285.234	6.69
285.449	8.47
285.663	8.96
285.877	8.59
286.091	8.41
286.305	9.4
286.519	9.49
286.733	8.7
286.947	9.08
287.161	10.21
287.375	10.4
287.589	11.42
287.803	9.76
288.017	10.29
288.231	12.68
288.445	12.97
288.659	11.94
288.873	12.45
289.087	14.23
289.301	13.6
289.515	12.22
289.729	11.14
289.943	10.95
290.157	11.42
290.371	10.23
290.584	8.82
290.798	8.76
291.012	8.6
291.226	8.5
291.44	7.8
291.654	6.73
291.867	6.33
292.081	8.07
292.295	8.6
292.509	6.69
292.722	7.41
292.936	7.64
293.15	9.2
293.364	8.73
293.577	7.78
293.791	7.44
294.005	8.75
294.218	7.8
294.432	6.92
294.645	5.1
294.859	6.44
295.073	5.95
295.286	6.49
295.5	5.84
295.713	5.24
295.927	5.68
296.14	6.43
296.354	7.27
296.568	8.6
296.781	8.38
296.994	8.76
297.208	8.46
297.421	8.9
297.635	8.89
297.848	8.79
298.062	10.12
298.275	10.14
298.489	10.4
298.702	10.52
298.915	10.33
299.129	11.85
299.342	13.05
299.555	14.37
299.769	15.22
299.982	15.77
300.195	15.66
300.409	14.91
300.622	15.67
300.835	16.69
301.048	16.18
301.262	15.71
301.475	14.42
301.688	13.81
301.901	12.54
302.115	11.07
302.328	10.07
302.541	8.31
302.754	9.31
302.967	8.62
303.18	7.57
303.393	7.56
303.607	7.74
303.82	6.51
304.033	7.55
304.246	9.22
304.459	10.59
304.672	10.39
304.885	11
305.098	10.31
305.311	11.02
305.524	11.14
305.737	12.15
305.95	12.64
306.163	13.82
306.376	12.87
306.589	12.63
306.802	12.73
307.015	13.51
307.228	15.25
307.44	14.65
307.653	14.67
307.866	14.99
308.079	13.76
308.292	13.77
308.505	13.99
308.718	13.63
308.93	13.11
309.143	12.74
309.356	12.09
309.569	12.21
309.781	12.94
309.994	12.44
310.207	11.45
310.42	11.12
310.632	11.13
310.845	11.26
311.058	11.09
311.27	10.51
311.483	10.76
311.696	10.65
311.908	9.86
312.121	10.27
312.333	10.38
312.546	11.77
312.759	12.28
312.971	11.9
313.184	11.28
313.396	12.24
313.609	12.41
313.821	11.89
314.034	13.01
314.246	13.93
314.459	11.96
314.671	12.77
314.884	11.29
315.096	11.86
315.309	12.46
315.521	12.61
315.733	12.19
315.946	12.2
316.158	13.2
316.371	12.65
316.583	11.93
316.795	13.16
317.008	11.53
317.22	10.98
317.432	10.36
317.644	10.42
317.857	9.72
318.069	10.5
318.281	11.48
318.494	10.7
318.706	10.56
318.918	10.53
319.13	10.16
319.342	12.2
319.555	12.28
319.767	12.34
319.979	11.5
320.191	12.53
320.403	9.96
320.615	8.15
320.827	7.21
321.039	6.02
321.252	6.72
321.464	7.17
321.676	7.21
321.888	8.34
322.1	8.44
322.312	8.67
322.524	8.96
322.736	9.43
322.948	10.94
323.16	10.41
323.372	10.55
323.584	10.63
323.796	9.17
324.007	8.33
324.219	7.98
324.431	7.61
324.643	8.68
324.855	7.81
325.067	8.56
325.279	7.69
325.491	9.07
325.702	9.51
325.914	8.66
326.126	10.02
326.338	9.88
326.55	9.63
326.761	10.88
326.973	9.93
327.185	10.1
327.396	10.48
327.608	11.74
327.82	10.99
328.032	11.22
328.243	11.85
328.455	11.89
328.666	12.17
328.878	12.57
329.09	12.06
329.301	12.29
329.513	12.65
329.725	12.28
329.936	11.89
330.148	11.87
330.359	12.85
330.571	12.69
330.782	12.9
330.994	13.72
331.205	12.95
331.417	12.03
331.628	11.08
331.84	10.62
332.051	9.88
332.262	8.81
332.474	7.94
332.685	7.05
332.897	6.81
333.108	5.89
333.319	5.52
333.531	6.09
333.742	6.48
333.953	7.36
334.165	7.96
334.376	8.23
334.587	8.63
334.799	10.24
335.01	10.36
335.221	10.75
335.432	10.5
335.644	10.83
335.855	11.58
336.066	11.99
336.277	12.3
336.488	12.52
336.7	12.73
336.911	12.68
337.122	12.22
337.333	12.2
337.544	12.28
337.755	12.98
337.966	12.87
338.177	12.59
338.388	12.38
338.599	12.33
338.811	12.37
339.022	12.51
339.233	12.54
339.444	12.57
339.655	12.31
339.866	11.52
340.076	10.56
340.287	10.04
340.498	10.04
340.709	9.73
340.92	8.79
341.131	8.53
341.342	9.27
341.553	9.41
341.764	9.27
341.975	8.98
342.185	9.7
342.396	10.07
342.607	10.58
342.818	10.67
343.029	10.09
343.239	11.21
343.45	11.07
343.661	10.24
343.872	10.55
344.082	10.08
344.293	10.5
344.504	10.32
344.714	10.79
344.925	10.55
345.136	10.31
345.346	10.82
345.557	10.44
345.768	10.68
345.978	10.26
346.189	9.6
346.399	10.27
346.61	9.63
346.821	9.76
347.031	10.25
347.242	9.58
347.452	9.92
347.663	10.69
347.873	10.96
348.084	10.68
348.294	11.14
348.504	11.11
348.715	10.76
348.925	11.35
349.136	11.79
349.346	11.37
349.557	11.84
349.767	11.14
349.977	11.32
350.188	10.56
350.398	10.26
350.608	11.44
350.819	11.81
351.029	12.61
351.239	11.98
351.449	11
351.66	10.93
351.87	10.61
352.08	10.47
352.29	9.6
352.501	9.26
352.711	10.18
352.921	9.36
353.131	9.05
353.341	8.13
353.552	8.55
353.762	9.05
353.972	9.61
354.182	10.38
354.392	10.48
354.602	10.32
354.812	10.94
355.022	10.18
355.232	9.68
355.442	9.52
355.652	9.74
355.862	9.52
356.072	9.37
356.282	8.13
356.492	7.56
356.702	7.67
356.912	8.38
357.122	8.45
357.332	8.25
357.542	8.16
357.752	8.42
357.962	8.63
358.171	8.93
358.381	8.56
358.591	8.18
358.801	8.27
359.011	8.42
359.221	8.33
359.43	8.86
359.64	9.12
359.85	9.63
360.06	9.55
360.269	9.12
360.479	8.63
360.689	8.9
360.899	9.46
361.108	9.44
361.318	9.3
361.528	8.86
361.737	8.14
361.947	7.98
362.156	7.68
362.366	7.7
362.576	7.95
362.785	8.57
362.995	9.03
363.204	8.81
363.414	8.82
363.623	9.07
363.833	9.03
364.042	9.32
364.252	9.53
364.461	9.96
364.671	9.78
364.88	9.58
365.09	9.28
365.299	9
365.509	9.45
365.718	9.96
365.927	9.26
366.137	9.56
366.346	9.61
366.555	9.59
366.765	8.84
366.974	9.37
367.183	9.51
367.393	8.96
367.602	8.75
367.811	8.75
368.021	8.16
368.23	8.68
368.439	8.41
368.648	8.21
368.857	7.54
369.067	8.11
369.276	6.96
369.485	6.75
369.694	6.55
369.903	6.1
370.112	5.87
370.321	5.9
370.531	5.43
370.74	5.35
370.949	5.04
371.158	5.43
371.367	5.34
371.576	6.3
371.785	6.1
371.994	6.81
372.203	6.51
372.412	6.42
372.621	6.27
372.83	6.41
373.039	6.6
373.248	6.98
373.457	6.87
373.666	6.85
373.874	6.2
374.083	6.58
374.292	6.2
374.501	6.5
374.71	6.7
374.919	6.77
375.128	6.77
375.336	6.82
375.545	6.86
375.754	7.28
375.963	7.53
376.171	8.09
376.38	8.54
376.589	8.88
376.798	8.92
377.006	9.2
377.215	9.48
377.424	9.64
377.632	9.63
377.841	9.44
378.05	9.4
378.258	9.17
378.467	8.81
378.675	8.24
378.884	7.77
379.093	7.68
379.301	7.53
379.51	7.28
379.718	6.98
379.927	7.09
380.135	7.02
380.344	6.9
380.552	6.82
380.761	7.28
380.969	7.58
381.177	7.89
381.386	8.2
381.594	7.93
381.803	7.45
382.011	7.76
382.219	7.5
382.428	7.37
382.636	7.23
382.845	7.23
383.053	7.34
383.261	6.96
383.469	7.18
383.678	7.08
383.886	6.61
384.094	6.71
384.302	6.48
384.511	6.48
384.719	6.43
384.927	6.57
385.135	6.35
385.343	6.27
385.552	6.05
385.76	5.59
385.968	5.67
386.176	5.83
386.384	5.68
386.592	6.01
386.8	5.91
387.008	6.03
387.216	6.1
387.424	6.27
387.633	5.84
387.841	6.02
388.049	6.66
388.257	6.34
388.465	6.64
388.672	7.03
388.88	7.05
389.088	7.27
389.296	7.27
389.504	6.98
389.712	7.06
389.92	6.95
390.128	7.23
390.336	6.69
390.544	6.75
390.751	7.23
390.959	7.3
391.167	7.05
391.375	6.91
391.583	6.99
391.79	7.07
391.998	7.18
392.206	7.59
392.414	7.44
392.621	7.28
392.829	7.33
393.037	6.63
393.244	6.4
393.452	6.43
393.66	6.41
393.867	6.31
394.075	6.35
394.283	6.16
394.49	5.8
394.698	6.11
394.905	6.34
395.113	6.34
395.32	6.69
395.528	6.76
395.735	6.75
395.943	6.97
396.15	6.78
396.358	6.71
396.565	6.84
396.773	7.15
396.98	6.65
397.188	6.56
397.395	6.71
397.602	6.8
397.81	6.78
398.017	6.78
398.225	6.39
398.432	6.85
398.639	6.81
398.847	6.89
399.054	6.7
399.261	6.97
399.468	6.61
399.676	6.21
399.883	6.18
400.09	6.01
400.297	6.27
400.505	6.4
400.712	6.26
400.919	6.52
401.126	6.61
401.333	6.69
401.54	6.57
401.748	6.92
401.955	7.33
402.162	7.04
402.369	7.16
402.576	6.88
402.783	6.61
402.99	6.95
403.197	6.85
403.404	6.6
403.611	6.63
403.818	6.63
404.025	6.7
404.232	6.6
404.439	6.82
404.646	6.65
404.853	6.67
405.06	6.75
405.267	6.54
405.474	6.2
405.681	6.33
405.887	6.19
406.094	6.18
406.301	6.15
406.508	5.93
406.715	5.84
406.922	6.01
407.128	5.96
407.335	6.15
407.542	6.21
407.749	6.21
407.955	6.12
408.162	6
408.369	5.93
408.575	6.1
408.782	6.14
408.989	6.25
409.195	6.01
409.402	6.08
409.609	6.18
409.815	6.04
410.022	6.1
410.228	5.98
410.435	6.52
410.642	6.44
410.848	6.38
411.055	6.44
411.261	6.25
411.468	6.33
411.674	6.05
411.881	5.79
412.087	5.53
412.294	5.88
412.5	5.86
412.706	5.4
412.913	5.71
413.119	5.55
413.326	5.88
413.532	6.29
413.738	6.45
413.945	6.53
414.151	6.55
414.357	6.91
414.564	6.74
414.77	6.77
414.976	6.83
415.182	6.64
415.389	6.54
415.595	6.35
415.801	6.11
416.007	6.25
416.214	6.4
416.42	6.52
416.626	6.42
416.832	6.38
417.038	6.48
417.244	6.35
417.45	6.45
417.657	6.57
417.863	6.56
418.069	6.37
418.275	6.36
418.481	6.32
418.687	6.38
418.893	6.28
419.099	6.3
419.305	6.2
419.511	6.31
419.717	6.09
419.923	6.03
420.129	5.94
420.335	5.94
420.541	5.82
420.746	5.82
420.952	5.71
421.158	5.72
421.364	5.72
421.57	5.71
421.776	5.62
421.982	5.72
422.187	5.82
422.393	5.88
422.599	5.9
422.805	5.9
423.01	5.97
423.216	6.03
423.422	6.16
423.628	6.15
423.833	6.27
424.039	6.47
424.245	6.55
424.45	6.35
424.656	6.25
424.862	6.18
425.067	6.17
425.273	5.97
425.478	6.04
425.684	5.91
425.889	5.89
426.095	5.78
426.301	5.63
426.506	5.5
426.712	5.61
426.917	5.71
427.123	5.76
427.328	5.8
427.533	5.98
427.739	5.72
427.944	5.77
428.15	5.78
428.355	5.89
428.561	5.89
428.766	5.69
428.971	5.72
429.177	5.73
429.382	5.73
429.587	5.76
429.793	5.81
429.998	5.88
430.203	5.89
430.408	5.9
430.614	5.72
430.819	5.65
431.024	5.95
431.229	6.15
431.434	6.33
431.64	6.55
431.845	6.73
432.05	6.61
432.255	6.71
432.46	6.75
432.665	6.54
432.87	6.61
433.076	6.71
433.281	6.58
433.486	6.35
433.691	6.26
433.896	6.32
434.101	6.06
434.306	5.9
434.511	5.75
434.716	5.63
434.921	5.83
435.126	5.78
435.331	5.62
435.535	5.69
435.74	5.84
435.945	5.67
436.15	5.71
436.355	5.72
436.56	5.94
436.765	6.04
436.97	5.89
437.174	5.9
437.379	5.93
437.584	6.07
437.789	6
437.993	5.84
438.198	5.96
438.403	5.58
438.608	5.64
438.812	5.72
439.017	5.73
439.222	5.93
439.426	5.83
439.631	5.81
439.836	5.77
440.04	5.84
440.245	5.86
440.45	5.82
440.654	5.99
440.859	5.87
441.063	5.75
441.268	5.8
441.472	5.69
441.677	5.76
441.881	5.9
442.086	6.01
442.29	6.04
442.495	6.13
442.699	6.16
442.904	6
443.108	6.15
443.312	6.17
443.517	6.22
443.721	6.33
443.925	6.21
444.13	6.15
444.334	6.07
444.538	6.01
444.743	6.06
444.947	6.04
445.151	6.14
445.356	6.13
445.56	6.28
445.764	6.2
445.968	6.11
446.173	6.15
446.377	6.14
446.581	6.06
446.785	6.11
446.989	6.01
447.193	5.97
447.398	6.04
447.602	6.09
447.806	5.97
448.01	5.9
448.214	5.91
448.418	6.04
448.622	6.02
448.826	5.98
449.03	5.95
449.234	5.87
449.438	5.94
449.642	5.8
449.846	5.81
450.05	5.81
450.254	5.99
450.458	6.04
450.662	5.88
450.866	5.84
451.069	5.95
451.273	5.88
451.477	6.13
451.681	6.25
451.885	6.33
452.089	6.27
452.292	6.3
452.496	6.04
452.7	6.17
452.904	6.19
453.107	6.24
453.311	6.24
453.515	6.37
453.719	6.2
453.922	6.06
454.126	6.05
454.33	6.12
454.533	6.25
454.737	6.3
454.94	6.11
455.144	6.11
455.348	6.11
455.551	6.27
455.755	6.14
455.958	6.25
456.162	6.18
456.365	6.18
456.569	6.14
456.772	6.04
456.976	6.06
457.179	6.08
457.383	6.16
457.586	6.02
457.79	5.83
457.993	5.89
458.196	5.82
458.4	5.95
458.603	5.92
458.807	5.89
459.01	5.82
459.213	5.84
459.417	5.73
459.62	5.66
459.823	5.67
460.026	5.71
460.23	5.7
460.433	5.74
460.636	5.59
460.839	5.47
461.042	5.36
461.246	5.29
461.449	5.2
461.652	5.29
461.855	5.38
462.058	5.31
462.261	5.16
462.464	5.11
462.668	5
462.871	5.12
463.074	5.3
463.277	5.37
463.48	5.45
463.683	5.48
463.886	5.44
464.089	5.5
464.292	5.59
464.495	5.65
464.698	5.56
464.901	5.63
465.104	5.78
