Data from LC_220__Reflection_4.txt Node
Date: Thu Nov 19 13:39:08 EST 2015
User: robert
Spectrometer: USB4E03001
Autoset integration time: false
Trigger mode: 4
Integration Time (sec): 1.000000E-1
Scans to average: 15
Electric dark correction enabled: true
Nonlinearity correction enabled: false
Boxcar width: 5
Stray light correction enabled: false
XAxis mode: Wavelengths
Stop averaging: false
Number of Pixels in Spectrum: 3648
>>>>>Begin Spectral Data<<<<<
177.566	237.21
177.785	472.42
178.005	396
178.225	69.98
178.445	334.57
178.665	-9600
178.885	8.16
179.105	294.2
179.324	-205.3
179.544	-898.56
179.764	-394.34
179.984	-461.39
180.204	-401.26
180.423	-368.31
180.643	-1861.72
180.863	-1782.47
181.083	-531.8
181.302	-495.62
181.522	-470.58
181.742	-3312.58
181.961	6398.82
182.181	4980.58
182.401	618.78
182.621	698.24
182.84	1121.75
183.06	2299.83
183.279	2037.8
183.499	1052.9
183.719	913.15
183.938	470.55
184.158	957.24
184.377	1107.21
184.597	767.43
184.816	6096.64
185.036	26390.22
185.256	1729.35
185.475	996.56
185.695	1013.23
185.914	717.18
186.134	513.58
186.353	476.23
186.572	366.35
186.792	448.5
187.011	3770.39
187.231	737.71
187.45	1025.16
187.67	2418.54
187.889	40193.94
188.108	1019.51
188.328	-4469.37
188.547	-598.07
188.766	-544.26
188.986	-783.76
189.205	-939.5
189.424	1372.18
189.644	2504.07
189.863	1185.33
190.082	1356.43
190.302	5335.97
190.521	-475.25
190.74	-1782.28
190.959	-18104.93
191.178	23572.03
191.398	-8815.44
191.617	1983.42
191.836	7020.72
192.055	-1835.54
192.274	-712.19
192.494	-1252.9
192.713	-728.85
192.932	-469.31
193.151	-466.29
193.37	-725.6
193.589	-575.09
193.808	-465.63
194.027	-542.08
194.246	-1255.7
194.465	-1147.27
194.685	69765
194.904	1047.46
195.123	565.72
195.342	373.63
195.561	293.15
195.78	352.93
195.999	466.98
196.218	845.39
196.436	1349.69
196.655	804.54
196.874	565.54
197.093	512.4
197.312	1502.77
197.531	1802.43
197.75	3298.62
197.969	-1343.93
198.188	-1585.92
198.407	-10413.13
198.625	647.11
198.844	933.28
199.063	2206.47
199.282	2183.47
199.501	-1298.54
199.719	-1956.92
199.938	-2862.37
200.157	2787.44
200.376	1030.8
200.594	691.57
200.813	679.53
201.032	492.05
201.251	611.12
201.469	1039.28
201.688	754.44
201.907	592.73
202.125	631.58
202.344	452.15
202.563	372.43
202.781	492.57
203	393.35
203.218	381.7
203.437	1037.59
203.656	647.01
203.874	400.06
204.093	449.32
204.311	413.75
204.53	320.98
204.748	353.08
204.967	392.29
205.185	269.21
205.404	356.55
205.622	505.44
205.841	334.06
206.059	327.84
206.278	390.14
206.496	535.48
206.715	857.79
206.933	1301.16
207.151	-2933.64
207.37	-2186.19
207.588	-6566.67
207.806	4929.56
208.025	1849.72
208.243	-2730.16
208.461	-2249.18
208.68	-4619.45
208.898	6729.1
209.116	2734.58
209.335	5308.17
209.553	1402.37
209.771	3556.54
209.989	-3125.03
210.208	-2085.27
210.426	-1148.16
210.644	-1239.13
210.862	-583.55
211.081	-575.75
211.299	-248.98
211.517	-380.58
211.735	-507.9
211.953	-1419.12
212.171	1039.9
212.39	1423.84
212.608	1483.89
212.826	649.65
213.044	315.61
213.262	268.48
213.48	311.01
213.698	324.56
213.916	398.78
214.134	535.76
214.352	956.97
214.57	-2593.6
214.788	1368.54
215.006	8149.27
215.224	-2200.41
215.442	-752.72
215.66	-863.32
215.878	1873.24
216.096	477.55
216.314	473.72
216.532	293.61
216.75	269.96
216.968	243.5
217.185	234.63
217.403	274.64
217.621	308.12
217.839	370.67
218.057	321.87
218.275	395.95
218.492	702.88
218.71	371.79
218.928	353.58
219.146	343.53
219.363	509.33
219.581	584.74
219.799	1243.87
220.017	448.79
220.234	397.71
220.452	552.43
220.67	417.42
220.887	470.08
221.105	858.85
221.323	929.53
221.54	794.58
221.758	487.74
221.976	396.54
222.193	280.19
222.411	319.15
222.629	322.49
222.846	336.03
223.064	318.97
223.281	288.22
223.499	259.84
223.716	305.38
223.934	266.02
224.151	295.51
224.369	280.22
224.586	266.39
224.804	265.28
225.021	213.78
225.239	190.57
225.456	204.15
225.674	177.24
225.891	176.1
226.108	164.29
226.326	154.06
226.543	144.13
226.76	140.79
226.978	151.38
227.195	137.74
227.413	120.29
227.63	105.21
227.847	90.88
228.064	85.74
228.282	77.56
228.499	70.4
228.716	63.77
228.934	58.62
229.151	54.77
229.368	46.54
229.585	44.92
229.802	46.11
230.02	44.76
230.237	43.31
230.454	42.58
230.671	44.03
230.888	44.84
231.105	48.27
231.323	48.21
231.54	53.47
231.757	57.39
231.974	62.57
232.191	66.01
232.408	74.42
232.625	80.6
232.842	82.67
233.059	78.19
233.276	87.3
233.493	90.62
233.71	87.72
233.927	83.06
234.144	82.25
234.361	73.94
234.578	78.41
234.795	67.07
235.012	69.85
235.229	67.63
235.446	70.44
235.663	67.12
235.879	63.73
236.096	71.18
236.313	75.14
236.53	68.53
236.747	75.4
236.964	72.06
237.181	71.15
237.397	65.53
237.614	68.4
237.831	68.66
238.048	67.71
238.264	64.45
238.481	55.96
238.698	56.27
238.915	59.26
239.131	47.96
239.348	47.59
239.565	46.89
239.781	48.31
239.998	42.78
240.215	44.92
240.431	41.98
240.648	44.57
240.865	40.34
241.081	36.02
241.298	34.71
241.514	35.28
241.731	33.73
241.947	32.7
242.164	29.21
242.38	28.67
242.597	25.81
242.814	26.2
243.03	23.9
243.246	26.31
243.463	26.53
243.679	30.47
243.896	30.82
244.112	31.34
244.329	33.61
244.545	36.36
244.762	37.82
244.978	41.85
245.194	40.03
245.411	42.03
245.627	37.4
245.843	35.03
246.06	29.04
246.276	28.4
246.492	25.69
246.709	23.23
246.925	22.12
247.141	20.62
247.357	17.51
247.574	18.45
247.79	17.48
248.006	17.53
248.222	16.98
248.439	17.88
248.655	16.84
248.871	18.2
249.087	18.81
249.303	19.02
249.519	19.49
249.736	23.58
249.952	22.93
250.168	27.88
250.384	31.43
250.6	33.13
250.816	34.73
251.032	35.67
251.248	33.36
251.464	33.1
251.68	32.54
251.896	32.64
252.112	30.01
252.328	27.64
252.544	25.7
252.76	23.93
252.976	24.94
253.192	23.76
253.408	24.16
253.624	28.43
253.84	29
254.056	31.91
254.272	32.41
254.487	35.17
254.703	37.45
254.919	38.45
255.135	41.01
255.351	38.39
255.567	40.56
255.782	40.47
255.998	37.18
256.214	36.63
256.43	36.05
256.646	38.97
256.861	35.76
257.077	37.42
257.293	36.79
257.508	34.77
257.724	33.2
257.94	30.63
258.155	28.99
258.371	27.36
258.587	26.14
258.802	22.9
259.018	19.5
259.234	17.92
259.449	16.01
259.665	14.51
259.88	14.4
260.096	14.11
260.312	13.59
260.527	12.97
260.743	12.11
260.958	11.35
261.174	12.24
261.389	14.08
261.605	15.06
261.82	15.73
262.036	16.66
262.251	17.26
262.466	18.43
262.682	20.36
262.897	21.49
263.113	22.78
263.328	26.05
263.543	27.46
263.759	26.21
263.974	26.08
264.189	25.51
264.405	27.52
264.62	26.74
264.835	25.35
265.051	27.02
265.266	27.52
265.481	28.05
265.696	28.5
265.912	25.7
266.127	24.94
266.342	23.72
266.557	24.09
266.773	20.81
266.988	21.99
267.203	21.57
267.418	19.83
267.633	20.35
267.848	20.38
268.064	18.52
268.279	17.66
268.494	17.81
268.709	18.89
268.924	19.97
269.139	22.13
269.354	23.02
269.569	23.74
269.784	23.36
269.999	23.01
270.214	23.29
270.429	24.09
270.644	25.99
270.859	25.5
271.074	26.25
271.289	26.31
271.504	24.13
271.719	21.83
271.934	22.19
272.149	21.77
272.363	20.44
272.578	19.48
272.793	17.97
273.008	17.09
273.223	16.57
273.438	15.66
273.653	15.36
273.867	16.52
274.082	15.87
274.297	15.74
274.512	16.95
274.726	18.29
274.941	18.78
275.156	20.71
275.371	21.52
275.585	23.24
275.8	23.23
276.015	22.08
276.229	23.14
276.444	24.67
276.659	25.82
276.873	25.09
277.088	24.9
277.302	25.12
277.517	23.88
277.732	23.6
277.946	23.73
278.161	26.08
278.375	27.69
278.59	25.51
278.804	24.55
279.019	23.88
279.233	23.56
279.448	23.08
279.662	22.12
279.877	22.02
280.091	21.56
280.306	20.21
280.52	17.79
280.735	15.03
280.949	15.25
281.163	15.63
281.378	14.81
281.592	14.02
281.806	14.9
282.021	15.22
282.235	16.24
282.449	17.66
282.664	17.04
282.878	16.33
283.092	16.97
283.307	18.72
283.521	19
283.735	19.52
283.949	21.36
284.164	20.95
284.378	19.6
284.592	17.47
284.806	16.03
285.02	16.36
285.234	16.26
285.449	17.22
285.663	16.44
285.877	15.99
286.091	16.65
286.305	15.99
286.519	16.69
286.733	16.38
286.947	18.25
287.161	18.03
287.375	18.54
287.589	19.61
287.803	19.44
288.017	20.57
288.231	20.34
288.445	19.24
288.659	20.12
288.873	19.72
289.087	21.8
289.301	22.15
289.515	22.2
289.729	21.88
289.943	21.19
290.157	21.95
290.371	21.12
290.584	21.18
290.798	21.72
291.012	21.2
291.226	21.17
291.44	21.14
291.654	19.19
291.867	19.02
292.081	18.41
292.295	19.54
292.509	18
292.722	17.79
292.936	18.64
293.15	19.36
293.364	19.65
293.577	19.16
293.791	19.19
294.005	21.65
294.218	21.59
294.432	21.71
294.645	22.6
294.859	22.55
295.073	22.32
295.286	22.79
295.5	22.08
295.713	21.2
295.927	21.13
296.14	21.17
296.354	19.94
296.568	18.95
296.781	19.48
296.994	17.4
297.208	17.07
297.421	16.8
297.635	15.91
297.848	15.29
298.062	15.05
298.275	14.95
298.489	14.83
298.702	15.56
298.915	16.91
299.129	17.3
299.342	18.92
299.555	20.87
299.769	22.28
299.982	23.88
300.195	24.16
300.409	25.57
300.622	26.21
300.835	27.08
301.048	25.98
301.262	26.12
301.475	25.51
301.688	25.05
301.901	22.36
302.115	21.85
302.328	20.42
302.541	21.33
302.754	21.36
302.967	21.34
303.18	19.87
303.393	20.47
303.607	19.89
303.82	19.96
304.033	20.63
304.246	23.56
304.459	24.13
304.672	24.93
304.885	24.89
305.098	24.47
305.311	24.45
305.524	25.69
305.737	26.66
305.95	28.5
306.163	28.22
306.376	28.03
306.589	27.4
306.802	26.45
307.015	26.86
307.228	27.51
307.44	27.48
307.653	27.55
307.866	27.75
308.079	27.54
308.292	25.8
308.505	26.67
308.718	26.52
308.93	26.6
309.143	26.21
309.356	25.87
309.569	25.08
309.781	25.59
309.994	26.03
310.207	24.51
310.42	24.15
310.632	23.98
310.845	22.41
311.058	21.67
311.27	21.25
311.483	21.16
311.696	20.78
311.908	20.58
312.121	20.09
312.333	20.33
312.546	20.95
312.759	19.84
312.971	19.61
313.184	21.83
313.396	23.07
313.609	22.4
313.821	22.96
314.034	24.43
314.246	25.55
314.459	25.23
314.671	24.9
314.884	25.08
315.096	27.35
315.309	29.07
315.521	28.47
315.733	28.09
315.946	28.23
316.158	28.77
316.371	28.25
316.583	27.87
316.795	28.01
317.008	26.16
317.22	26.08
317.432	24.71
317.644	25.01
317.857	24.24
318.069	23.42
318.281	24.35
318.494	24.06
318.706	23.6
318.918	23.47
319.13	23.35
319.342	24.2
319.555	23.81
319.767	24.54
319.979	24.16
320.191	24.65
320.403	25.09
320.615	23.2
320.827	23.8
321.039	22.94
321.252	23.55
321.464	23.42
321.676	26.23
321.888	26.38
322.1	26.08
322.312	25.19
322.524	26.9
322.736	25.71
322.948	27.08
323.16	25.97
323.372	26.52
323.584	25.84
323.796	27.4
324.007	25.58
324.219	27.5
324.431	28.11
324.643	28.28
324.855	27.58
325.067	28.76
325.279	28.44
325.491	28.48
325.702	29.09
325.914	29.2
326.126	28.62
326.338	28.52
326.55	27.41
326.761	28.43
326.973	28.71
327.185	28.91
327.396	29.9
327.608	31.22
327.82	32.86
328.032	33.56
328.243	34.79
328.455	35.74
328.666	37.21
328.878	38.78
329.09	38.44
329.301	39.15
329.513	39.08
329.725	39.56
329.936	39.71
330.148	38.97
330.359	39.48
330.571	40.14
330.782	40.46
330.994	41.42
331.205	41.45
331.417	42.63
331.628	42.92
331.84	44.65
332.051	44.4
332.262	47
332.474	47.32
332.685	47.54
332.897	47.26
333.108	47.33
333.319	47.3
333.531	47.89
333.742	46.88
333.953	46.25
334.165	45.83
334.376	47.28
334.587	44.73
334.799	45.79
335.01	45.85
335.221	46.37
335.432	45.86
335.644	44.83
335.855	44.51
336.066	46.04
336.277	47.37
336.488	46.21
336.7	45.06
336.911	45.76
337.122	46.08
337.333	46.4
337.544	47.44
337.755	48.3
337.966	49.47
338.177	48.84
338.388	48
338.599	47.77
338.811	49.47
339.022	50.23
339.233	50.46
339.444	50.73
339.655	49.62
339.866	48.56
340.076	48.91
340.287	48.76
340.498	49.5
340.709	49.85
340.92	49.22
341.131	48.6
341.342	49.07
341.553	49.41
341.764	48.72
341.975	50.03
342.185	50.46
342.396	50.16
342.607	50.73
342.818	50.61
343.029	50.65
343.239	52.03
343.45	50.82
343.661	49.72
343.872	49.46
344.082	49.48
344.293	48.92
344.504	48.95
344.714	49
344.925	48.42
345.136	48.34
345.346	48.85
345.557	48.39
345.768	49.24
345.978	49.53
346.189	50.06
346.399	50.1
346.61	50.58
346.821	49.74
347.031	50.84
347.242	50.63
347.452	51.38
347.663	51.41
347.873	51.64
348.084	51.94
348.294	52.69
348.504	52.44
348.715	52.54
348.925	51.39
349.136	51.31
349.346	50.18
349.557	50.58
349.767	50.21
349.977	49.51
350.188	49.47
350.398	49.69
350.608	48.77
350.819	48.35
351.029	48.21
351.239	48.94
351.449	49.16
351.66	49.12
351.87	48.59
352.08	47.68
352.29	47.68
352.501	46.73
352.711	46.87
352.921	46.71
353.131	46.49
353.341	46.55
353.552	46.45
353.762	45.78
353.972	46.17
354.182	46.69
354.392	47.38
354.602	46.85
354.812	47.32
355.022	46.95
355.232	46.83
355.442	47.57
355.652	47.41
355.862	46.73
356.072	47.71
356.282	46.59
356.492	46.32
356.702	45.31
356.912	45.9
357.122	46.18
357.332	45.88
357.542	45.74
357.752	45.78
357.962	45.63
358.171	46.04
358.381	46.11
358.591	45.73
358.801	45.52
359.011	46.16
359.221	46.34
359.43	46.03
359.64	45.87
359.85	46.6
360.06	45.83
360.269	45.77
360.479	45.77
360.689	45.01
360.899	45.6
361.108	45.74
361.318	45.61
361.528	44.89
361.737	44.72
361.947	44.61
362.156	44.05
362.366	43.93
362.576	43.99
362.785	44.17
362.995	44.36
363.204	44.63
363.414	44.49
363.623	43.88
363.833	44.58
364.042	44.58
364.252	44.53
364.461	44.59
364.671	44.75
364.88	44.74
365.09	44.78
365.299	44.88
365.509	44.39
365.718	44.18
365.927	44.27
366.137	43.53
366.346	42.48
366.555	42.19
366.765	42.11
366.974	42.44
367.183	41.89
367.393	41.18
367.602	40.92
367.811	40.72
368.021	40.75
368.23	41.07
368.439	40.76
368.648	41.51
368.857	41.98
369.067	41.8
369.276	40.74
369.485	41.26
369.694	41.35
369.903	40.87
370.112	41.02
370.321	40.36
370.531	40.01
370.74	40.43
370.949	39.99
371.158	39.51
371.367	38.96
371.576	39.23
371.785	38.64
371.994	38.49
372.203	38.44
372.412	38.01
372.621	38.21
372.83	38.37
373.039	37.92
373.248	38.01
373.457	38.22
373.666	38.54
373.874	38.45
374.083	38.1
374.292	37.64
374.501	37.16
374.71	36.93
374.919	36.91
375.128	36.72
375.336	36.74
375.545	37.28
375.754	37.22
375.963	37.15
376.171	36.82
376.38	37.28
376.589	37.77
376.798	38.12
377.006	38.72
377.215	38.34
377.424	38.02
377.632	37.88
377.841	37.14
378.05	36.95
378.258	37.2
378.467	37.18
378.675	36.75
378.884	36.41
379.093	36.55
379.301	36.16
379.51	36.24
379.718	36.11
379.927	36.39
380.135	35.94
380.344	35.65
380.552	35.02
380.761	34.98
380.969	34.85
381.177	34.66
381.386	34.63
381.594	34.13
381.803	33.54
382.011	33.92
382.219	33.66
382.428	33.75
382.636	33.82
382.845	33.8
383.053	34.01
383.261	33.85
383.469	33.63
383.678	33.24
383.886	33.12
384.094	33.57
384.302	32.91
384.511	32.84
384.719	32.72
384.927	32.66
385.135	32.47
385.343	32.14
385.552	32.07
385.76	32.11
385.968	32.16
386.176	31.98
386.384	31.65
386.592	31.75
386.8	31.29
387.008	31.36
387.216	30.81
387.424	30.93
387.633	30.77
387.841	30.44
388.049	30.52
388.257	29.61
388.465	29.4
388.672	29.45
388.88	29.79
389.088	29.7
389.296	29.73
389.504	29.78
389.712	29.93
389.92	29.53
390.128	29.75
390.336	29.36
390.544	30.01
390.751	30.33
390.959	30.01
391.167	29.35
391.375	29.51
391.583	29.24
391.79	29.3
391.998	29.13
392.206	29.57
392.414	29.22
392.621	28.59
392.829	28.55
393.037	28.36
393.244	28.57
393.452	28.59
393.66	28.41
393.867	28.3
394.075	28.04
394.283	27.79
394.49	27.36
394.698	27.39
394.905	27.74
395.113	27.67
395.32	27.48
395.528	27.24
395.735	27.1
395.943	26.76
396.15	26.65
396.358	26.55
396.565	26.55
396.773	26.31
396.98	26.53
397.188	26.56
397.395	26.25
397.602	26.37
397.81	26.08
398.017	26.4
398.225	26.31
398.432	26.59
398.639	26.7
398.847	26.75
399.054	26.85
399.261	26.49
399.468	26.15
399.676	26.41
399.883	26.04
400.09	26.4
400.297	26.56
400.505	26.69
400.712	26.61
400.919	26.55
401.126	26.25
401.333	26.37
401.54	26.47
401.748	26.92
401.955	26.53
402.162	26.47
402.369	25.88
402.576	25.29
402.783	24.9
402.99	24.73
403.197	24.64
403.404	24.63
403.611	24.53
403.818	24.76
404.025	24.4
404.232	24.35
404.439	24.54
404.646	24.55
404.853	24.52
405.06	24.89
405.267	24.84
405.474	24.86
405.681	24.83
405.887	24.79
406.094	24.77
406.301	25.1
406.508	25.31
406.715	25.31
406.922	25.7
407.128	25.48
407.335	25.36
407.542	25.51
407.749	25.43
407.955	25.55
408.162	25.39
408.369	25.26
408.575	25.19
408.782	24.93
408.989	24.61
409.195	23.93
409.402	24.5
409.609	24.47
409.815	24.16
410.022	24.1
410.228	24
410.435	24.25
410.642	23.8
410.848	23.72
411.055	23.74
411.261	24.02
411.468	24.41
411.674	23.89
411.881	23.83
412.087	23.68
412.294	23.72
412.5	23.62
412.706	23.33
412.913	23.46
413.119	23.3
413.326	23.33
413.532	23.26
413.738	23.23
413.945	23.31
414.151	23.24
414.357	23.46
414.564	23.55
414.77	23.25
414.976	23.36
415.182	23.72
415.389	23.71
415.595	23.49
415.801	23.43
416.007	23.55
416.214	23.5
416.42	23.6
416.626	23.43
416.832	23.24
417.038	23.21
417.244	23.15
417.45	22.82
417.657	22.71
417.863	22.77
418.069	22.62
418.275	22.43
418.481	22.15
418.687	22.18
418.893	21.99
419.099	21.92
419.305	21.92
419.511	21.75
419.717	21.56
419.923	21.47
420.129	21.21
420.335	21.16
420.541	21.09
420.746	21.21
420.952	21
421.158	21.12
421.364	21.03
421.57	20.99
421.776	20.98
421.982	21.11
422.187	21.08
422.393	21.04
422.599	21
422.805	20.96
423.01	20.92
423.216	20.96
423.422	20.72
423.628	20.82
423.833	20.73
424.039	20.77
424.245	20.71
424.45	20.69
424.656	20.76
424.862	20.69
425.067	20.75
425.273	20.67
425.478	20.56
425.684	20.63
425.889	20.75
426.095	20.81
426.301	20.78
426.506	20.78
426.712	20.78
426.917	20.96
427.123	20.84
427.328	20.71
427.533	20.76
427.739	20.8
427.944	20.92
428.15	20.77
428.355	20.64
428.561	20.7
428.766	20.45
428.971	20.63
429.177	20.48
429.382	20.73
429.587	20.89
429.793	21.3
429.998	21.34
430.203	21.33
430.408	21.06
430.614	21.2
430.819	20.93
431.024	21.1
431.229	20.89
431.434	20.96
431.64	21.08
431.845	21.16
432.05	20.92
432.255	20.85
432.46	20.7
432.665	20.69
432.87	20.78
433.076	21.11
433.281	20.97
433.486	20.92
433.691	21.01
433.896	20.71
434.101	20.58
434.306	20.43
434.511	20.33
434.716	20.35
434.921	20.35
435.126	20.27
435.331	19.9
435.535	19.92
435.74	19.97
435.945	19.72
436.15	20.1
436.355	20.13
436.56	20.17
436.765	20.42
436.97	20.4
437.174	20.55
437.379	20.46
437.584	20.75
437.789	20.46
437.993	20.5
438.198	20.58
438.403	20.32
438.608	20.17
438.812	20.09
439.017	19.94
439.222	20.03
439.426	19.91
439.631	19.88
439.836	19.84
440.04	20.12
440.245	20.08
440.45	20.01
440.654	20.06
440.859	20.14
441.063	20.05
441.268	19.99
441.472	20.04
441.677	20.21
441.881	20.37
442.086	20.29
442.29	20.4
442.495	20.4
442.699	20.45
442.904	20.45
443.108	20.4
443.312	20.5
443.517	20.69
443.721	20.65
443.925	20.41
444.13	20.32
444.334	20.24
444.538	20.07
444.743	20.26
444.947	20.16
445.151	20.11
445.356	20.2
445.56	20.31
445.764	20.09
445.968	20.02
446.173	20.02
446.377	19.84
446.581	19.91
446.785	19.89
446.989	19.76
447.193	19.82
447.398	19.92
447.602	19.8
447.806	19.76
448.01	19.84
448.214	19.91
448.418	19.95
448.622	20.06
448.826	20.04
449.03	20.03
449.234	19.9
449.438	19.73
449.642	19.62
449.846	19.72
450.05	19.72
450.254	19.76
450.458	19.69
450.662	19.65
450.866	19.52
451.069	19.52
451.273	19.44
451.477	19.59
451.681	19.75
451.885	19.82
452.089	19.82
452.292	19.62
