Data from 2938812__Reflection_03.txt Node
Date: Thu Mar 12 16:44:36 EDT 2015
User: robert
Spectrometer: USB4E03002
Autoset integration time: false
Trigger mode: 4
Integration Time (sec): 1.000000E-1
Scans to average: 10
Electric dark correction enabled: false
Nonlinearity correction enabled: false
Boxcar width: 5
Stray light correction enabled: false
XAxis mode: Wavelengths
Stop averaging: false
Number of Pixels in Spectrum: 3648
>>>>>Begin Spectral Data<<<<<
177.575	-53.33
177.794	-118.52
178.014	530.95
178.233	-838.1
178.452	-1550
178.672	519.23
178.891	-182.86
179.11	-325.93
179.33	-233.94
179.549	-434.78
179.768	-113.74
179.987	-10.54
180.207	-191.36
180.426	-1140
180.645	-431.33
180.864	-193.8
181.084	-1
181.303	37.84
181.522	49.21
181.741	110.4
181.96	61.54
182.179	-9.26
182.398	180.7
182.618	65.58
182.837	400
183.056	194.76
183.275	290.12
183.494	997.44
183.713	-22300
183.932	172.65
184.151	116.99
184.37	100
184.589	146.8
184.808	100
185.027	57.3
185.246	20.4
185.465	-31.27
185.684	-260.66
185.903	-237.4
186.122	-155.61
186.341	686.44
186.56	8340
186.779	112.23
186.998	51.91
187.216	38.67
187.435	3.61
187.654	0.49
187.873	-33.84
188.092	-115.18
188.311	-146.44
188.53	-106.75
188.748	-115.72
188.967	-72.27
189.186	-136.42
189.405	-191.89
189.623	-24.07
189.842	43.2
190.061	86.49
190.28	77.54
190.498	48.87
190.717	81.44
190.936	53.41
191.154	43.93
191.373	54.42
191.592	78.83
191.81	85.74
192.029	89.95
192.248	106.27
192.466	123.13
192.685	142.68
192.904	168.32
193.122	125.9
193.341	115.57
193.559	102.97
193.778	82.81
193.996	62.2
194.215	62.13
194.433	68.87
194.652	63.29
194.87	62.37
195.089	54.44
195.307	46.27
195.526	53.7
195.744	69.94
195.963	94.12
196.181	134.55
196.399	78.95
196.618	82.07
196.836	13.7
197.055	37.36
197.273	30.1
197.491	32
197.71	-14.29
197.928	-104.58
198.146	-78.36
198.365	0.34
198.583	-389.36
198.801	-156.39
199.019	-16.57
199.238	18.18
199.456	16.11
199.674	33.85
199.892	-60.53
200.111	-37.3
200.329	44.39
200.547	3.47
200.765	-5.51
200.983	60.96
201.202	26.32
201.42	-482.76
201.638	-22100
201.856	-73.08
202.074	180
202.292	143.75
202.51	60.43
202.728	108.21
202.946	250
203.165	166.24
203.383	153.47
203.601	204.43
203.819	232.82
204.037	241.41
204.255	127.12
204.473	127.97
204.691	132.89
204.909	182.45
205.127	203.09
205.345	165.25
205.562	162.18
205.78	237.98
205.998	276.56
206.216	264.42
206.434	257.06
206.652	-1539.13
206.87	-434.88
207.088	62.54
207.306	84.8
207.523	-24.73
207.741	160
207.959	83.97
208.177	61.56
208.395	50.64
208.612	26.12
208.83	33.53
209.048	40.21
209.266	41
209.483	40.48
209.701	34.75
209.919	15.82
210.136	16.62
210.354	5.32
210.572	2.13
210.79	-4.81
211.007	-4.51
211.225	-24.68
211.442	-21.05
211.66	-14.72
211.878	7.58
212.095	-76.34
212.313	-61.3
212.53	-57.78
212.748	-55.14
212.966	-44.95
213.183	-40.18
213.401	-40.26
213.618	-41.41
213.836	-48.63
214.053	-44.77
214.271	-63.6
214.488	27.55
214.705	16.85
214.923	14.7
215.14	34.35
215.358	28.57
215.575	23.35
215.793	25.48
216.01	19.08
216.227	7.51
216.445	-6.02
216.662	8.28
216.879	3
217.097	1.61
217.314	13.89
217.531	14.32
217.749	10.44
217.966	8.51
218.183	25.7
218.4	26.2
218.618	25.27
218.835	25.8
219.052	19.5
219.269	20.23
219.487	25.05
219.704	25.72
219.921	19.26
220.138	21.08
220.355	33.31
220.572	23.83
220.79	31.42
221.007	51.64
221.224	48.12
221.441	49
221.658	38.97
221.875	36.93
222.092	26.4
222.309	26.53
222.526	24.1
222.743	22.65
222.96	21.85
223.177	13.03
223.394	4.42
223.611	5.83
223.828	5.24
224.045	4.82
224.262	2.86
224.479	-1.03
224.696	-3.03
224.913	-5.54
225.13	-9.99
225.347	-6.82
225.564	-7.32
225.781	-6.15
225.997	-3.64
226.214	-3.38
226.431	-2.32
226.648	-0.25
226.865	3.96
227.082	3.9
227.298	4.73
227.515	5.71
227.732	5.15
227.949	6.22
228.165	6.5
228.382	6.33
228.599	6.61
228.816	6.16
229.032	6.01
229.249	6.24
229.466	5.88
229.682	5.17
229.899	4.83
230.116	4.4
230.332	3.56
230.549	2.35
230.765	1.73
230.982	2.06
231.199	1.76
231.415	1.52
231.632	0.19
231.848	0.39
232.065	0.8
232.281	0.57
232.498	1.62
232.714	2.12
232.931	2.55
233.147	2.85
233.364	2.28
233.58	2.88
233.797	2.97
234.013	3.5
234.23	3.48
234.446	3.27
234.662	4.05
234.879	1.82
235.095	2.22
235.312	2.48
235.528	3.94
235.744	4.31
235.961	4.8
236.177	3.61
236.393	3.86
236.61	4.29
236.826	4.47
237.042	3.21
237.258	4.5
237.475	4.33
237.691	5.33
237.907	4.54
238.123	3.81
238.339	5.11
238.556	5.29
238.772	3.65
238.988	3.19
239.204	3.14
239.42	3.44
239.636	3.63
239.853	4.57
240.069	3.79
240.285	2.59
240.501	2.15
240.717	2.4
240.933	2.72
241.149	2.95
241.365	3.62
241.581	3.76
241.797	3.63
242.013	4.27
242.229	4.2
242.445	4.78
242.661	5.16
242.877	4.92
243.093	4.77
243.309	4.8
243.525	5.19
243.741	4.72
243.957	4.58
244.173	4.49
244.388	3.58
244.604	2.33
244.82	1.51
245.036	2.47
245.252	3.4
245.468	3.52
245.683	3.41
245.899	3.3
246.115	3.26
246.331	3.4
246.547	3.63
246.762	3.75
246.978	4.21
247.194	4.34
247.409	3.97
247.625	3.8
247.841	4
248.057	3.95
248.272	4.02
248.488	4.21
248.703	4.22
248.919	3.96
249.135	3.87
249.35	3.48
249.566	3.12
249.782	2.38
249.997	2.9
250.213	1.78
250.428	2.72
250.644	2.86
250.859	2.92
251.075	2.44
251.29	2.61
251.506	2.94
251.721	3.26
251.937	3.41
252.152	4.29
252.368	3.66
252.583	3.91
252.798	3.47
253.014	3.34
253.229	3.39
253.445	3.74
253.66	4.41
253.875	4.29
254.091	4.5
254.306	3.77
254.521	2.61
254.737	2.63
254.952	2.12
255.167	1.57
255.383	2.3
255.598	2.66
255.813	2.78
256.028	1.24
256.244	2.26
256.459	2.22
256.674	3.44
256.889	3.5
257.104	3.23
257.32	3.37
257.535	3.67
257.75	2.22
257.965	1.25
258.18	1.53
258.395	2.08
258.61	1.72
258.826	1.47
259.041	1.4
259.256	1.6
259.471	1.93
259.686	2.01
259.901	2.2
260.116	2.47
260.331	2.89
260.546	2.91
260.761	2.99
260.976	3.25
261.191	3.3
261.406	3.54
261.621	3.86
261.836	3.86
262.05	4.17
262.265	4.17
262.48	4.59
262.695	4.3
262.91	4.67
263.125	4.4
263.34	3.81
263.555	3.55
263.769	3.24
263.984	3.4
264.199	3.75
264.414	3.34
264.629	3.05
264.843	2.76
265.058	2.43
265.273	1.81
265.488	2.32
265.702	2.47
265.917	2.82
266.132	2.58
266.346	2.24
266.561	1.33
266.776	1.62
266.99	1.75
267.205	1.86
267.42	2.2
267.634	2.29
267.849	2.16
268.063	1.95
268.278	2.17
268.492	2.15
268.707	1.91
268.922	2.06
269.136	1.87
269.351	1.95
269.565	2.04
269.78	2.17
269.994	2.48
270.209	2.31
270.423	2.36
270.637	2.09
270.852	2.44
271.066	2.65
271.281	2.95
271.495	2.92
271.709	2.58
271.924	2.25
272.138	1.96
272.353	1.84
272.567	1.73
272.781	2.07
272.996	2.32
273.21	2.49
273.424	2.48
273.638	2.28
273.853	2.59
274.067	2.76
274.281	3.31
274.495	3.49
274.71	3.01
274.924	3.32
275.138	3.18
275.352	3.18
275.566	2.55
275.781	2.52
275.995	2.85
276.209	2.31
276.423	2.25
276.637	1.75
276.851	2
277.065	2.34
277.279	2.32
277.493	2.23
277.707	2.36
277.921	2.28
278.135	2.17
278.349	2.16
278.563	3.06
278.777	3.34
278.991	3.44
279.205	3.38
279.419	3.49
279.633	3.42
279.847	2.74
280.061	2.71
280.275	3.19
280.489	3.46
280.703	2.71
280.917	1.79
281.131	1.64
281.344	2.16
281.558	1.61
281.772	1.41
281.986	1.3
282.2	1.64
282.414	1.53
282.627	1.44
282.841	1.37
283.055	1.94
283.269	1.94
283.482	1.7
283.696	1.53
283.91	1.86
284.123	2.37
284.337	2.34
284.551	2.2
284.764	2.64
284.978	2.46
285.192	2.39
285.405	2.26
285.619	2.49
285.833	2.7
286.046	2.51
286.26	2.52
286.473	2.32
286.687	2.3
286.9	2.72
287.114	2.17
287.327	2.2
287.541	2.37
287.754	2.63
287.968	2.84
288.181	2.82
288.395	2.72
288.608	2.98
288.822	2.95
289.035	3.15
289.248	2.9
289.462	3.17
289.675	3.24
289.889	3.3
290.102	2.94
290.315	2.69
290.529	2.59
290.742	2.72
290.955	2.77
291.169	2.86
291.382	2.86
291.595	2.76
291.808	2.94
292.022	3.06
292.235	2.9
292.448	3.22
292.661	3.51
292.875	4.21
293.088	4.37
293.301	4.32
293.514	3.94
293.727	3.94
293.94	4
294.153	3.89
294.367	4.14
294.58	4.26
294.793	4.47
295.006	4.42
295.219	3.83
295.432	3.78
295.645	3.88
295.858	4.15
296.071	4.18
296.284	4.43
296.497	4.39
296.71	4.25
296.923	4.33
297.136	4.25
297.349	4.09
297.562	4.17
297.775	4.54
297.988	4.64
298.201	4.63
298.414	4.85
298.626	4.63
298.839	4.81
299.052	4.63
299.265	4.75
299.478	4.75
299.691	4.95
299.903	4.97
300.116	4.67
300.329	4.43
300.542	4.51
300.755	4.36
300.967	4.55
301.18	4.54
301.393	4.68
301.605	4.33
301.818	4.21
302.031	4.37
302.243	4.67
302.456	4.78
302.669	4.83
302.881	4.75
303.094	4.96
303.307	5.18
303.519	5.17
303.732	5.4
303.944	5.45
304.157	5.74
304.37	5.51
304.582	5.42
304.795	5.39
305.007	5.55
305.22	6.09
305.432	5.93
305.645	5.95
305.857	6.19
306.069	6.2
306.282	5.97
306.494	5.91
306.707	6.04
306.919	6.26
307.132	6.72
307.344	6.73
307.556	5.95
307.769	6.25
307.981	6.48
308.193	6.18
308.406	6.06
308.618	6.7
308.83	6.6
309.043	6.61
309.255	6.75
309.467	6.33
309.679	6.47
309.892	7.05
310.104	7.35
310.316	7.34
310.528	7.45
310.74	7.69
310.953	7.64
311.165	8.17
311.377	8.45
311.589	8.61
311.801	8.78
312.013	8.86
312.225	8.76
312.437	8.75
312.649	8.74
312.862	8.9
313.074	8.99
313.286	8.79
313.498	8.71
313.71	8.94
313.922	8.94
314.134	8.97
314.346	8.95
314.558	9.24
314.77	8.88
314.982	9.21
315.193	9.34
315.405	9.44
315.617	9.96
315.829	9.9
316.041	9.71
316.253	9.6
316.465	10.35
316.677	10.49
316.888	10.3
317.1	10.4
317.312	10.47
317.524	11.21
317.736	11.74
317.947	11.49
318.159	11.59
318.371	11.9
318.583	11.98
318.794	11.63
319.006	11.79
319.218	12.22
319.43	12.81
319.641	12.88
319.853	12.38
320.064	11.92
320.276	12.39
320.488	12.78
320.699	12.97
320.911	13.31
321.123	13.66
321.334	13.73
321.546	14.38
321.757	14.28
321.969	14.2
322.18	14.38
322.392	14.27
322.603	14.28
322.815	14.53
323.026	15.07
323.238	15.18
323.449	15.47
323.661	15.26
323.872	14.99
324.083	15.44
324.295	15.64
324.506	15.81
324.718	16.2
324.929	16.41
325.14	16.42
325.352	16.23
325.563	16.62
325.774	16.46
325.986	17.43
326.197	17.68
326.408	17.98
326.62	18.43
326.831	18.34
327.042	18.92
327.253	19.35
327.464	19.47
327.676	19.73
327.887	20.04
328.098	20.4
328.309	20.29
328.52	20.77
328.732	21.09
328.943	21.3
329.154	22.08
329.365	22.23
329.576	22.63
329.787	23.02
329.998	23.81
330.209	23.79
330.42	24.5
330.631	25.21
330.842	25.3
331.053	25.53
331.264	25.82
331.475	25.92
331.686	26.42
331.897	26.42
332.108	26.58
332.319	26.54
332.53	26.83
332.741	26.75
332.952	26.77
333.163	27.34
333.374	27.55
333.585	27.77
333.795	28.16
334.006	28.61
334.217	29.01
334.428	29.05
334.639	29.41
334.849	29.93
335.06	29.99
335.271	30.18
335.482	30.03
335.692	29.94
335.903	30.27
336.114	30.41
336.325	29.87
336.535	29.96
336.746	30.02
336.957	29.95
337.167	29.77
337.378	30.21
337.589	30.38
337.799	30.17
338.01	30.2
338.22	29.89
338.431	29.56
338.642	29.8
338.852	29.41
339.063	29.77
339.273	29.66
339.484	29.57
339.694	29.5
339.905	29.42
340.115	29.59
340.326	29.7
340.536	29.68
340.746	30.18
340.957	30.43
341.167	30.66
341.378	31.03
341.588	31.17
341.799	31.24
342.009	31.2
342.219	31.08
342.43	31.12
342.64	31.17
342.85	31.38
343.061	31.28
343.271	31.12
343.481	31.39
343.691	30.69
343.902	30.56
344.112	30.75
344.322	30.46
344.532	30.06
344.743	30.04
344.953	29.97
345.163	29.9
345.373	29.96
345.583	29.98
345.793	29.7
346.004	29.96
346.214	30.23
346.424	30.25
346.634	30.61
346.844	30.84
347.054	31.05
347.264	31.11
347.474	30.97
347.684	30.66
347.894	30.39
348.104	30.8
348.314	30.84
348.524	30.46
348.734	30.18
348.944	29.63
349.154	29.52
349.364	29.28
349.574	28.99
349.784	29.39
349.994	29.5
350.204	29.52
350.413	29.12
350.623	28.88
350.833	28.56
351.043	28.25
351.253	28.6
351.463	28.72
351.672	28.72
351.882	28.81
352.092	28.39
352.302	28.28
352.511	28.24
352.721	27.98
352.931	28.21
353.141	28.44
353.35	28.38
353.56	28.11
353.77	28.16
353.979	28.04
354.189	28.21
354.399	28.56
354.608	28.65
354.818	28.74
355.027	28.7
355.237	28.7
355.447	28.84
355.656	29.22
355.866	29.53
356.075	29.33
356.285	29.55
356.494	29.57
356.704	29.35
356.913	29.42
357.123	29.32
357.332	29.38
357.542	29.14
357.751	29.18
357.96	29.05
358.17	28.89
358.379	29.06
358.589	28.68
358.798	28.72
359.007	28.7
359.217	28.66
359.426	28.81
359.635	29.1
359.845	29.06
360.054	28.9
360.263	28.9
360.472	28.83
360.682	28.59
360.891	28.73
361.1	28.51
361.309	28.63
361.519	28.3
361.728	28
361.937	27.81
362.146	27.9
362.355	27.66
362.564	27.65
362.774	27.44
362.983	27.53
363.192	27.34
363.401	27.3
363.61	27.1
363.819	27.29
364.028	27.54
364.237	27.64
364.446	27.81
364.655	28.02
364.864	27.82
365.073	28.14
365.282	28.35
365.491	28.56
365.7	28.29
365.909	28.24
366.118	28.19
366.327	28.05
366.536	27.85
366.745	27.63
366.954	27.73
367.162	27.7
367.371	27.56
367.58	27.26
367.789	27.06
367.998	27.12
368.207	27.14
368.415	26.97
368.624	26.99
368.833	27.19
369.042	26.76
369.25	26.94
369.459	26.89
369.668	26.54
369.877	26.5
370.085	26.59
370.294	26.68
370.503	26.76
370.711	26.88
370.92	26.79
371.129	26.6
371.337	26.82
371.546	26.57
371.754	26.63
371.963	26.73
372.171	26.83
372.38	26.84
372.589	26.82
372.797	26.76
373.006	26.74
373.214	26.9
373.423	26.57
373.631	26.63
373.84	26.55
374.048	26.54
374.256	26.73
374.465	26.67
374.673	26.55
374.882	26.67
375.09	26.67
375.298	26.78
375.507	26.62
375.715	27.01
375.923	27.03
376.132	26.92
376.34	26.83
376.548	26.68
376.757	26.8
376.965	26.83
377.173	26.92
377.381	26.81
377.59	26.83
377.798	26.93
378.006	26.91
378.214	26.97
378.423	27.14
378.631	27.32
378.839	27.22
379.047	27.16
379.255	27.19
379.463	27.21
379.671	27.44
379.879	27.21
380.088	27.21
380.296	27.04
380.504	27.05
380.712	26.88
380.92	26.64
381.128	27.02
381.336	27.01
381.544	27.03
381.752	26.8
381.96	26.69
382.168	26.93
382.376	26.8
382.584	26.92
382.791	26.81
382.999	27
383.207	27.31
383.415	27.31
383.623	27.3
383.831	27.57
384.039	27.48
384.247	27.4
384.454	27.29
384.662	27.34
384.87	27.18
385.078	27.31
385.285	27.21
385.493	27.13
385.701	26.91
385.909	26.69
386.116	26.37
386.324	26.44
386.532	26.56
386.739	26.51
386.947	26.69
387.155	26.92
387.362	27
387.57	27.08
387.778	27.28
387.985	27.31
388.193	27.38
388.4	27.37
388.608	27.47
388.816	27.42
389.023	27.39
389.231	27.24
389.438	27.22
389.646	26.93
389.853	26.92
390.061	26.71
390.268	26.83
390.475	27.01
390.683	27.01
390.89	26.84
391.098	26.9
391.305	27.09
391.512	27.26
391.72	26.92
391.927	27.06
392.135	27.05
392.342	26.98
392.549	26.97
392.756	27
392.964	27.02
393.171	27.23
393.378	27.03
393.586	27.02
393.793	26.87
394	27.3
394.207	27.51
394.414	27.56
394.622	27.55
394.829	27.71
395.036	27.47
395.243	27.57
395.45	27.65
395.657	27.85
395.864	27.76
396.072	27.89
396.279	27.84
396.486	27.66
396.693	27.67
396.9	27.92
397.107	27.68
397.314	27.94
397.521	27.92
397.728	27.76
397.935	28.04
398.142	27.92
398.349	28.09
398.556	28.07
398.763	28.12
398.97	28.29
399.177	28.26
399.383	28.53
399.59	28.43
399.797	28.51
400.004	28.8
400.211	28.45
400.418	28.76
400.625	28.62
400.831	28.65
401.038	28.62
401.245	28.58
401.452	28.5
401.658	28.42
401.865	28.5
402.072	28.76
402.279	28.53
402.485	28.69
402.692	28.52
402.899	28.69
403.105	28.93
403.312	29.07
403.519	29.15
403.725	29.25
403.932	29.32
404.138	29.4
404.345	29.16
404.552	29.33
404.758	29.21
404.965	29.54
405.171	29.3
405.378	29.12
405.584	29.13
405.791	29.04
405.997	29.1
406.204	29.07
406.41	29.13
406.617	29.27
406.823	29.24
407.029	29.41
407.236	29.11
407.442	29.25
407.649	29.36
407.855	29.37
408.061	29.58
408.268	29.58
408.474	29.63
408.68	29.57
408.887	29.48
409.093	29.48
409.299	29.53
409.505	29.57
409.712	29.53
409.918	29.32
410.124	29.26
410.33	29.12
410.537	29.02
410.743	29
410.949	29.13
411.155	29.11
411.361	29.12
411.567	28.94
411.773	29.04
411.98	29.1
412.186	29.23
412.392	29.18
412.598	29.17
412.804	29.13
413.01	29.11
413.216	29.1
413.422	29.34
413.628	29.47
413.834	29.54
414.04	29.65
414.246	29.88
414.452	29.83
414.658	29.92
414.864	29.87
415.07	29.86
415.275	29.7
415.481	29.73
415.687	29.56
415.893	29.43
416.099	29.56
416.305	29.72
416.511	29.84
416.716	30.09
416.922	30.12
417.128	30.29
417.334	30.66
417.539	30.86
417.745	30.85
417.951	30.95
418.157	31.01
418.362	31.04
418.568	30.76
418.774	30.69
418.979	30.59
419.185	30.63
419.391	30.65
419.596	30.53
419.802	30.51
420.008	30.56
420.213	29.85
420.419	29.88
420.624	29.83
420.83	30
421.035	29.9
421.241	29.98
421.446	30.05
421.652	30.1
421.857	30.22
422.063	30.37
422.268	30.48
422.474	31.16
422.679	31.2
422.885	31.49
423.09	31.58
423.295	31.74
423.501	31.76
423.706	31.76
423.911	31.61
424.117	31.65
424.322	31.59
424.527	31.39
424.733	31.46
424.938	31.49
425.143	31.32
425.349	31.28
425.554	31.26
425.759	31.18
425.964	31.14
426.169	31.31
426.375	31.16
426.58	31.2
426.785	31.34
426.99	31.27
427.195	31.41
427.4	31.38
427.605	31.47
427.811	31.56
428.016	31.66
428.221	31.83
428.426	31.79
428.631	31.81
428.836	31.81
429.041	31.97
429.246	32.08
429.451	32.04
429.656	32.19
429.861	32.12
430.066	32.14
430.271	32.12
430.476	32.14
430.681	32.21
430.886	32.32
431.09	32.31
431.295	32.25
431.5	32.22
431.705	32.19
431.91	32.16
432.115	32.25
432.32	32.26
432.524	32.42
432.729	32.5
432.934	32.63
433.139	32.62
433.343	32.66
433.548	32.77
433.753	32.83
433.958	32.92
434.162	33.02
434.367	33.11
434.572	33.19
434.776	33.19
434.981	33.24
435.186	33.21
435.39	33.33
435.595	33.54
435.799	33.57
436.004	33.63
436.209	33.7
436.413	33.7
436.618	33.58
436.822	33.5
437.027	33.48
437.231	33.39
437.436	33.4
437.64	33.36
437.845	33.28
438.049	33.31
438.253	33.29
438.458	33.3
438.662	33.31
438.867	33.36
439.071	33.36
439.275	33.54
439.48	33.62
439.684	33.62
439.888	33.63
440.093	33.62
440.297	33.62
440.501	33.77
440.706	33.72
440.91	33.75
441.114	33.85
441.318	33.86
441.523	33.72
441.727	33.75
441.931	33.79
442.135	33.92
442.339	33.91
442.543	33.85
442.748	33.75
442.952	33.86
443.156	33.84
443.36	33.86
443.564	34.06
443.768	34.22
443.972	34.11
444.176	34.23
444.38	34.21
444.584	34.24
444.788	34.29
444.992	34.32
445.196	34.22
445.4	34.27
445.604	34.24
445.808	34.14
446.012	34.08
446.216	34.16
446.42	34.02
446.624	33.95
446.828	33.96
447.032	33.95
447.235	34.01
447.439	34.03
447.643	34
447.847	33.93
448.051	33.94
448.254	33.93
448.458	33.88
448.662	33.99
448.866	34.03
449.069	33.94
449.273	33.87
449.477	33.73
449.681	33.72
449.884	33.72
450.088	33.76
450.292	33.81
450.495	33.88
450.699	33.97
450.902	33.88
451.106	33.87
451.31	33.97
451.513	33.99
451.717	33.99
451.92	34.08
452.124	34.05
452.327	34.11
452.531	34.02
452.734	34.05
452.938	34.01
453.141	34.05
453.345	34.07
453.548	34.15
453.752	34.19
453.955	34.25
454.158	34.26
454.362	34.11
454.565	34.12
454.769	34.2
454.972	34.13
455.175	34.19
455.379	34.21
455.582	34.19
455.785	34.09
455.988	34.17
456.192	34.23
456.395	34.17
456.598	34.31
456.801	34.18
457.005	34.17
457.208	34.2
457.411	33.99
457.614	34.01
457.817	34.11
458.021	34.21
458.224	34.14
458.427	34.04
458.63	34.05
458.833	34.1
459.036	34.26
459.239	34.21
459.442	34.25
459.645	34.32
459.848	34.27
460.051	34.27
460.254	34.25
460.457	34.26
460.66	34.22
460.863	34.17
461.066	34.11
461.269	34.02
461.472	34.07
461.675	34.03
