Data from 2938819__Reflection_01.txt Node
Date: Thu Mar 12 14:42:21 EDT 2015
User: robert
Spectrometer: USB4E03002
Autoset integration time: false
Trigger mode: 4
Integration Time (sec): 1.000000E-1
Scans to average: 10
Electric dark correction enabled: false
Nonlinearity correction enabled: false
Boxcar width: 5
Stray light correction enabled: false
XAxis mode: Wavelengths
Stop averaging: false
Number of Pixels in Spectrum: 3648
>>>>>Begin Spectral Data<<<<<
177.575	-176.64
177.794	-188.17
178.014	-106.93
178.233	-90.68
178.452	-87.38
178.672	-107.81
178.891	-85.58
179.11	-150.47
179.33	-170.91
179.549	-215.16
179.768	-263.71
179.987	-236.36
180.207	-291.7
180.426	-518.38
180.645	-1324.06
180.864	-1725.24
181.084	-4224.39
181.303	1387.1
181.522	14790.91
181.741	-4063.16
181.96	-967.31
182.179	-2291.3
182.398	-5580
182.618	-4375
182.837	3377.5
183.056	1095.65
183.275	457.64
183.494	565.52
183.713	570.42
183.932	351.49
184.151	337.6
184.37	292.08
184.589	342.97
184.808	381.08
185.027	381.51
185.246	360.35
185.465	582.48
185.684	778.54
185.903	461.4
186.122	454.41
186.341	651.84
186.56	562.18
186.779	660.98
186.998	526.25
187.216	394.28
187.435	430.42
187.654	490.44
187.873	381.15
188.092	368.51
188.311	472.73
188.53	426.61
188.748	358
188.967	539.29
189.186	286.97
189.405	362.11
189.623	487.92
189.842	475.61
190.061	644.66
190.28	621.33
190.498	472.76
190.717	436.13
190.936	655.71
191.154	615.72
191.373	283.2
191.592	376.12
191.81	315.06
192.029	359.32
192.248	383.04
192.466	306.82
192.685	372.07
192.904	384.03
193.122	524.58
193.341	516.19
193.559	583.03
193.778	1698.92
193.996	-1337.17
194.215	-809.77
194.433	-7935.29
194.652	601.31
194.87	1556.32
195.089	937.09
195.307	1355.96
195.526	1246.55
195.744	1160.15
195.963	1542.57
196.181	839.59
196.399	747.26
196.618	1569.72
196.836	3180
197.055	-1397.04
197.273	4018.75
197.491	3396.55
197.71	5923.33
197.928	4185.37
198.146	2714.75
198.365	665.06
198.583	649.6
198.801	436.49
199.019	485.81
199.238	549.25
199.456	324.14
199.674	539.76
199.892	591.19
200.111	649.7
200.329	609.41
200.547	610.95
200.765	-47400
200.983	3057.89
201.202	-6822.22
201.42	9407.14
201.638	1262.26
201.856	11208.33
202.074	-9133.33
202.292	2391.18
202.51	3787.76
202.728	1038.17
202.946	1374.31
203.165	703.04
203.383	796.76
203.601	580.29
203.819	413.52
204.037	596.02
204.255	686.25
204.473	816.12
204.691	1891.58
204.909	1248.23
205.127	1694
205.345	1176.39
205.562	-19500
205.78	1124.22
205.998	627.71
206.216	519.43
206.434	317.13
206.652	285.94
206.87	233.98
207.088	215.46
207.306	184.42
207.523	203.26
207.741	187.6
207.959	191.2
208.177	205.42
208.395	245.11
208.612	256.04
208.83	309.5
209.048	361.08
209.266	261.82
209.483	287.66
209.701	305.41
209.919	279.24
210.136	286.51
210.354	289.27
210.572	282.85
210.79	255.1
211.007	271.78
211.225	240.17
211.442	220.31
211.66	243.98
211.878	200.36
212.095	99.89
212.313	71.4
212.53	86.18
212.748	87.93
212.966	104.03
213.183	104.61
213.401	102.2
213.618	113
213.836	122.41
214.053	146.69
214.271	159.4
214.488	312.16
214.705	369.95
214.923	326.18
215.14	374.14
215.358	363.74
215.575	350.66
215.793	455.37
216.01	358.42
216.227	465.12
216.445	370.11
216.662	309.74
216.879	251.43
217.097	266.49
217.314	272.81
217.531	217.82
217.749	276.12
217.966	244.33
218.183	212.76
218.4	210.7
218.618	180.13
218.835	174.89
219.052	154.42
219.269	152.83
219.487	149.27
219.704	142.69
219.921	136.9
220.138	108.39
220.355	119.5
220.572	118.53
220.79	115.07
221.007	106.67
221.224	100
221.441	107.78
221.658	109.52
221.875	100
222.092	88.2
222.309	91.27
222.526	91.41
222.743	82.01
222.96	75.65
223.177	78.84
223.394	76.76
223.611	80.83
223.828	74.7
224.045	70.92
224.262	72.38
224.479	78.06
224.696	69.8
224.913	67.68
225.13	65.75
225.347	64.49
225.564	61.37
225.781	54.5
225.997	50.12
226.214	44.6
226.431	40.35
226.648	33.35
226.865	26.56
227.082	24.07
227.298	21.36
227.515	18.38
227.732	17.18
227.949	16.13
228.165	14.75
228.382	13.41
228.599	12.95
228.816	12.31
229.032	12.59
229.249	12.26
229.466	11.59
229.682	11.66
229.899	12.24
230.116	11.66
230.332	11.38
230.549	12.45
230.765	12.61
230.982	12.54
231.199	12.35
231.415	12.69
231.632	14.42
231.848	15.51
232.065	15.58
232.281	15.35
232.498	17.18
232.714	17.08
232.931	17.19
233.147	16.04
233.364	16
233.58	16.83
233.797	17.61
234.013	19.24
234.23	19.03
234.446	18.4
234.662	18.58
234.879	18.18
235.095	20.63
235.312	20.36
235.528	22.91
235.744	24.56
235.961	26.48
236.177	26.15
236.393	25.38
236.61	26
236.826	26.19
237.042	26.02
237.258	26.25
237.475	26.12
237.691	27.57
237.907	25.52
238.123	25.85
238.339	24.28
238.556	24.74
238.772	23.92
238.988	23.4
239.204	23.98
239.42	23.27
239.636	22.76
239.853	19.99
240.069	17.98
240.285	17.97
240.501	16.58
240.717	15.9
240.933	14.51
241.149	14.09
241.365	13.8
241.581	13.04
241.797	12.79
242.013	11.72
242.229	11.29
242.445	11.49
242.661	11.14
242.877	10.69
243.093	10.49
243.309	11.2
243.525	10.67
243.741	10.54
243.957	11.58
244.173	11.4
244.388	12.13
244.604	12.49
244.82	11.95
245.036	11.77
245.252	12
245.468	11.12
245.683	9.9
245.899	9.55
246.115	8.92
246.331	7.93
246.547	7.83
246.762	7.41
246.978	7.3
247.194	7.12
247.409	7.07
247.625	6.87
247.841	7.26
248.057	7.29
248.272	7.49
248.488	7.8
248.703	7.64
248.919	7.8
249.135	7.8
249.35	7.95
249.566	8.64
249.782	8.53
249.997	9.04
250.213	8.94
250.428	8.92
250.644	9.05
250.859	8.79
251.075	9.18
251.29	9.07
251.506	9.5
251.721	9.73
251.937	9.54
252.152	10.63
252.368	10.68
252.583	10.15
252.798	10.77
253.014	10.26
253.229	10.79
253.445	11.33
253.66	11.47
253.875	12.25
254.091	12.82
254.306	12.61
254.521	12.06
254.737	11.87
254.952	11.71
255.167	11.37
255.383	11.83
255.598	11.99
255.813	11.55
256.028	11.92
256.244	11.49
256.459	10.92
256.674	10.67
256.889	11.16
257.104	11.24
257.32	11.55
257.535	10.7
257.75	10.98
257.965	10.26
258.18	9.89
258.395	8.9
258.61	8.26
258.826	7.39
259.041	6.9
259.256	6.43
259.471	6
259.686	5.78
259.901	5.68
260.116	5.18
260.331	5.08
260.546	4.94
260.761	4.83
260.976	4.82
261.191	5.24
261.406	5.81
261.621	5.73
261.836	5.83
262.05	5.99
262.265	6.79
262.48	7.47
262.695	7.62
262.91	7.95
263.125	8.39
263.34	8.48
263.555	8.25
263.769	7.81
263.984	7.28
264.199	8.1
264.414	8.42
264.629	8.2
264.843	7.79
265.058	7.63
265.273	8.06
265.488	8.74
265.702	8.57
265.917	8.18
266.132	8.61
266.346	9.27
266.561	8.97
266.776	8.5
266.99	7.96
267.205	8.25
267.42	8.43
267.634	8.33
267.849	7.66
268.063	7.91
268.278	8.65
268.492	8.56
268.707	7.97
268.922	7.88
269.136	7.77
269.351	8.05
269.565	7.86
269.78	7.81
269.994	7.29
270.209	7.15
270.423	6.86
270.637	6.49
270.852	6.55
271.066	6.86
271.281	6.35
271.495	6.38
271.709	6.2
271.924	5.86
272.138	5.98
272.353	6.14
272.567	6.6
272.781	6.86
272.996	6.75
273.21	6.49
273.424	6.76
273.638	7.46
273.853	7.45
274.067	7.27
274.281	7.67
274.495	7.46
274.71	7.59
274.924	7.27
275.138	6.96
275.352	6.89
275.566	6.97
275.781	7.21
275.995	7.02
276.209	7.42
276.423	7.72
276.637	7.74
276.851	7.92
277.065	7.72
277.279	7.74
277.493	7.8
277.707	7.74
277.921	7.87
278.135	7.35
278.349	6.97
278.563	6.69
278.777	6.59
278.991	6.1
279.205	6.24
279.419	5.96
279.633	5.93
279.847	6.43
280.061	6.39
280.275	6.33
280.489	6.21
280.703	6.27
280.917	6.47
281.131	6.22
281.344	6.34
281.558	6.04
281.772	6.15
281.986	5.83
282.2	5.09
282.414	5.43
282.627	5.03
282.841	5.16
283.055	5.33
283.269	5.13
283.482	5.37
283.696	5.53
283.91	5.33
284.123	5.36
284.337	5.29
284.551	5.44
284.764	5.04
284.978	5.4
285.192	5.33
285.405	5.16
285.619	5.26
285.833	5
286.046	4.71
286.26	4.97
286.473	4.73
286.687	4.79
286.9	4.96
287.114	5.28
287.327	5.19
287.541	4.97
287.754	5.22
287.968	5.08
288.181	4.97
288.395	5.4
288.608	5.22
288.822	5.43
289.035	5.75
289.248	5.87
289.462	5.67
289.675	5.66
289.889	5.91
290.102	5.53
290.315	5.69
290.529	5.92
290.742	5.85
290.955	5.99
291.169	6.3
291.382	6.08
291.595	6.07
291.808	6.21
292.022	6.33
292.235	6.29
292.448	6.55
292.661	6.64
292.875	6.92
293.088	7.24
293.301	7.35
293.514	7.16
293.727	7.69
293.94	7.68
294.153	7.84
294.367	7.87
294.58	8.21
294.793	8.19
295.006	8.08
295.219	7.89
295.432	7.89
295.645	7.7
295.858	7.91
296.071	7.72
296.284	7.83
296.497	7.54
296.71	7.35
296.923	7.32
297.136	7.24
297.349	7.36
297.562	7.66
297.775	7.57
297.988	7.64
298.201	7.35
298.414	7.58
298.626	7.44
298.839	7.86
299.052	8.12
299.265	7.7
299.478	7.72
299.691	7.76
299.903	7.92
300.116	8.02
300.329	8.27
300.542	8.37
300.755	8.49
300.967	8.53
301.18	8.56
301.393	8.65
301.605	8.93
301.818	9.3
302.031	9.49
302.243	9.15
302.456	9.29
302.669	9.05
302.881	9.16
303.094	9.33
303.307	9.35
303.519	9.32
303.732	9.54
303.944	9.82
304.157	9.77
304.37	9.89
304.582	10.19
304.795	9.88
305.007	10.2
305.22	10.51
305.432	10.08
305.645	10.34
305.857	10.35
306.069	10.24
306.282	10.15
306.494	10.36
306.707	10.26
306.919	10.31
307.132	10.58
307.344	10.68
307.556	10.74
307.769	10.71
307.981	10.69
308.193	10.38
308.406	10.28
308.618	10.27
308.83	10.14
309.043	10.29
309.255	10.07
309.467	10.03
309.679	10.13
309.892	9.93
310.104	10.3
310.316	10.59
310.528	10.99
310.74	11.11
310.953	11.13
311.165	11.27
311.377	10.89
311.589	11.06
311.801	11.26
312.013	11.01
312.225	11.31
312.437	11.25
312.649	10.9
312.862	10.81
313.074	10.81
313.286	11.19
313.498	11.39
313.71	11.72
313.922	11.76
314.134	11.37
314.346	11.15
314.558	11.22
314.77	11.45
314.982	11.88
315.193	12.06
315.405	12.17
315.617	11.72
315.829	11.33
316.041	11.53
316.253	11.84
316.465	12.05
316.677	13.05
316.888	13.05
317.1	12.91
317.312	12.75
317.524	12.77
317.736	13.06
317.947	13.83
318.159	14.62
318.371	15.04
318.583	15.25
318.794	15.77
319.006	15.46
319.218	15.66
319.43	15.61
319.641	15.71
319.853	15.96
320.064	15.92
320.276	15.73
320.488	15.3
320.699	15.09
320.911	14.68
321.123	14.48
321.334	14.58
321.546	14.61
321.757	14.38
321.969	15
322.18	14.75
322.392	14.63
322.603	14.75
322.815	14.82
323.026	15.01
323.238	15.25
323.449	15.48
323.661	15.79
323.872	15.75
324.083	16.53
324.295	16.17
324.506	16.21
324.718	16.76
324.929	17.21
325.14	17.58
325.352	17.59
325.563	17.49
325.774	17.8
325.986	17.96
326.197	18.24
326.408	18.45
326.62	18.77
326.831	19.19
327.042	18.99
327.253	18.93
327.464	19.28
327.676	19.5
327.887	20.01
328.098	20.03
328.309	20.34
328.52	20.75
328.732	21.09
328.943	21.32
329.154	21.9
329.365	22.41
329.576	22.47
329.787	22.53
329.998	23.08
330.209	23.41
330.42	23.94
330.631	24.24
330.842	24.5
331.053	24.74
331.264	25.09
331.475	25.19
331.686	25.45
331.897	25.71
332.108	26.24
332.319	26.55
332.53	26.6
332.741	26.64
332.952	26.68
333.163	26.86
333.374	26.94
333.585	26.91
333.795	27.02
334.006	27.15
334.217	27.42
334.428	27
334.639	26.73
334.849	26.81
335.06	26.93
335.271	26.96
335.482	26.95
335.692	27.13
335.903	27.62
336.114	27.62
336.325	27.87
336.535	27.84
336.746	28.24
336.957	28.52
337.167	28.79
337.378	29.01
337.589	29.2
337.799	29.23
338.01	29.19
338.22	28.94
338.431	29.12
338.642	29.11
338.852	29.06
339.063	28.98
339.273	29.16
339.484	29.2
339.694	28.81
339.905	28.47
340.115	28.24
340.326	27.95
340.536	27.83
340.746	27.64
340.957	27.31
341.167	27.43
341.378	27.52
341.588	27.24
341.799	27.17
342.009	27.58
342.219	27.68
342.43	27.85
342.64	27.99
342.85	27.88
343.061	27.69
343.271	27.81
343.481	27.47
343.691	27.12
343.902	27.08
344.112	27
344.322	26.52
344.532	26.44
344.743	26.51
344.953	26.19
345.163	26.34
345.373	26.29
345.583	26.31
345.793	26.75
346.004	26.98
346.214	26.97
346.424	26.92
346.634	27.22
346.844	27.5
347.054	27.27
347.264	27.4
347.474	27.17
347.684	27.34
347.894	27.2
348.104	27.09
348.314	27.13
348.524	27.1
348.734	27.42
348.944	27.36
349.154	27.43
349.364	27.31
349.574	27.16
349.784	27.41
349.994	27.27
350.204	27.25
350.413	26.86
350.623	26.72
350.833	26.44
351.043	26.24
351.253	26.26
351.463	25.83
351.672	26.03
351.882	26.26
352.092	26.08
352.302	26.17
352.511	25.86
352.721	26.02
352.931	26.06
353.141	25.91
353.35	25.63
353.56	25.76
353.77	26.12
353.979	25.66
354.189	25.66
354.399	25.74
354.608	25.87
354.818	26.03
355.027	26.18
355.237	26.13
355.447	26.44
355.656	26.5
355.866	26.14
356.075	25.72
356.285	26.17
356.494	25.94
356.704	25.81
356.913	25.47
357.123	25.32
357.332	25.04
357.542	24.9
357.751	24.87
357.96	24.76
358.17	24.65
358.379	24.79
358.589	24.73
358.798	24.7
359.007	24.86
359.217	24.86
359.426	25.04
359.635	24.94
359.845	24.86
360.054	24.83
360.263	24.9
360.472	24.92
360.682	24.87
360.891	24.73
361.1	24.51
361.309	24.24
361.519	24.42
361.728	24.28
361.937	24.19
362.146	24.16
362.355	24.05
362.564	23.82
362.774	23.74
362.983	23.59
363.192	23.42
363.401	23.55
363.61	23.58
363.819	23.37
364.028	23.45
364.237	23.49
364.446	23.5
364.655	23.45
364.864	23.77
365.073	23.94
365.282	23.82
365.491	23.77
365.7	23.94
365.909	23.79
366.118	23.85
366.327	23.9
366.536	23.84
366.745	23.79
366.954	24.01
367.162	23.94
367.371	23.94
367.58	24.29
367.789	24.33
367.998	24.05
368.207	24.12
368.415	24.18
368.624	24.31
368.833	24.47
369.042	24.49
369.25	24.41
369.459	24.22
369.668	23.89
369.877	23.65
370.085	23.54
370.294	23.66
370.503	23.47
370.711	23.32
370.92	22.89
371.129	22.97
371.337	22.85
371.546	22.65
371.754	22.59
371.963	22.21
372.171	21.84
372.38	21.84
372.589	21.78
372.797	22.03
373.006	21.82
373.214	21.77
373.423	21.48
373.631	21.73
373.84	21.7
374.048	21.4
374.256	21.61
374.465	21.84
374.673	21.92
374.882	21.82
375.09	21.52
375.298	21.64
375.507	21.53
375.715	21.59
375.923	21.24
376.132	21.14
376.34	21.35
376.548	21.59
376.757	21.6
376.965	21.52
377.173	21.32
377.381	21.27
377.59	20.97
377.798	21.03
378.006	20.75
378.214	20.91
378.423	20.79
378.631	20.69
378.839	20.25
379.047	20.17
379.255	20.21
379.463	20.39
379.671	20.31
379.879	20.41
380.088	20.36
380.296	20.57
380.504	20.52
380.712	20.62
380.92	20.52
381.128	20.68
381.336	20.54
381.544	20.26
381.752	20.04
381.96	20.13
382.168	20.03
382.376	20.11
382.584	20.07
382.791	19.75
382.999	19.63
383.207	19.61
383.415	19.54
383.623	19.44
383.831	19.51
384.039	19.47
384.247	19.47
384.454	19.37
384.662	19.15
384.87	18.9
385.078	19.01
385.285	18.81
385.493	18.77
385.701	18.78
385.909	18.64
386.116	18.52
386.324	18.44
386.532	18.16
386.739	18.28
386.947	18.19
387.155	18.08
387.362	18.12
387.57	17.93
387.778	17.93
387.985	17.85
388.193	17.99
388.4	17.98
388.608	18.14
388.816	18.36
389.023	18.26
389.231	18.05
389.438	18.25
389.646	18.19
389.853	18.33
390.061	18.07
390.268	17.98
390.475	17.93
390.683	17.87
390.89	17.63
391.098	17.56
391.305	17.45
391.512	17.54
391.72	17.38
391.927	17.07
392.135	16.94
392.342	17.04
392.549	17.21
392.756	17.05
392.964	17.07
393.171	17.2
393.378	17.11
393.586	17.17
393.793	17.02
394	17.06
394.207	17.13
394.414	17.16
394.622	17.1
394.829	16.89
395.036	16.94
395.243	16.99
395.45	16.64
395.657	16.61
395.864	16.68
396.072	16.93
396.279	16.8
396.486	16.77
396.693	16.84
396.9	16.67
397.107	16.57
397.314	16.55
397.521	16.48
397.728	16.73
397.935	16.63
398.142	16.55
398.349	16.39
398.556	16.38
398.763	16.32
398.97	16.28
399.177	16.42
399.383	16.58
399.59	16.43
399.797	16.32
400.004	16.36
400.211	16.51
400.418	16.34
400.625	16.44
400.831	16.42
401.038	16.36
401.245	16.39
401.452	16.42
401.658	16.14
401.865	16.31
402.072	16.52
402.279	16.49
402.485	16.31
402.692	16.37
402.899	16.17
403.105	16.14
403.312	16.23
403.519	16.11
403.725	16.1
403.932	16.05
404.138	15.95
404.345	15.78
404.552	15.5
404.758	15.51
404.965	15.47
405.171	15.42
405.378	15.48
405.584	15.54
405.791	15.65
405.997	15.57
406.204	15.75
406.41	15.63
406.617	15.58
406.823	15.75
407.029	15.87
407.236	15.82
407.442	16.05
407.649	16.08
407.855	15.97
408.061	15.75
408.268	15.65
408.474	15.57
408.68	15.68
408.887	15.78
409.093	15.78
409.299	15.64
409.505	15.54
409.712	15.51
409.918	15.37
410.124	15.4
410.33	15.58
410.537	15.66
410.743	15.67
410.949	15.67
411.155	15.56
411.361	15.46
411.567	15.39
411.773	15.4
411.98	15.14
412.186	15.19
412.392	15.08
412.598	14.9
412.804	14.91
413.01	14.83
413.216	14.71
413.422	14.51
413.628	14.72
413.834	14.9
414.04	14.96
414.246	15.17
414.452	15.3
414.658	15.31
414.864	15.44
415.07	15.52
415.275	15.55
415.481	15.6
415.687	15.57
415.893	15.45
416.099	15.32
416.305	15.24
416.511	15.14
416.716	14.99
416.922	14.99
417.128	14.85
417.334	14.62
417.539	14.55
417.745	14.48
417.951	14.53
418.157	14.56
418.362	14.35
418.568	14.27
418.774	14.22
418.979	14.07
419.185	14
419.391	13.94
419.596	14.03
419.802	14.08
420.008	14.05
420.213	14.09
420.419	14.01
420.624	14.1
420.83	14.08
421.035	14.07
421.241	14.17
421.446	14.17
421.652	14.22
421.857	14.22
422.063	14.19
422.268	14.23
422.474	14.1
422.679	14.1
422.885	14.06
423.09	14.05
423.295	14
423.501	13.95
423.706	13.92
423.911	13.84
424.117	13.78
424.322	13.78
424.527	13.75
424.733	13.85
424.938	13.8
425.143	13.82
425.349	13.88
425.554	13.9
425.759	13.95
425.964	13.98
426.169	14.09
426.375	14.03
426.58	14.07
426.785	14.1
426.99	14.09
427.195	14.23
427.4	14.27
427.605	14.22
427.811	14.19
428.016	14.21
428.221	14.33
428.426	14.3
428.631	14.34
428.836	14.36
429.041	14.41
429.246	14.47
429.451	14.42
429.656	14.33
429.861	14.41
430.066	14.54
430.271	14.54
430.476	14.49
430.681	14.49
430.886	14.56
431.09	14.55
431.295	14.46
431.5	14.35
431.705	14.34
431.91	14.37
432.115	14.42
432.32	14.38
432.524	14.36
432.729	14.35
432.934	14.3
433.139	14.3
433.343	14.19
433.548	14.12
433.753	14.2
433.958	14.14
434.162	14.28
434.367	14.26
434.572	14.37
434.776	14.43
434.981	14.33
435.186	14.45
435.39	14.38
435.595	14.49
435.799	14.5
436.004	14.41
436.209	14.51
436.413	14.41
436.618	14.31
436.822	14.2
437.027	14.1
437.231	14.13
437.436	14.02
437.64	14.05
437.845	13.97
438.049	14.1
438.253	14.1
438.458	14.06
438.662	14.08
438.867	14.09
439.071	14.05
439.275	14.09
439.48	14.06
439.684	14.08
439.888	14.13
440.093	14.1
440.297	14.07
440.501	14.16
440.706	14.13
440.91	14.11
441.114	14.07
441.318	14.14
441.523	14.15
441.727	14.25
441.931	14.26
442.135	14.2
442.339	14.25
442.543	14.21
442.748	14.12
442.952	14.19
443.156	14.3
443.36	14.4
443.564	14.35
443.768	14.24
443.972	14.07
444.176	14.13
444.38	14.16
444.584	14.2
444.788	14.24
444.992	14.35
445.196	14.27
445.4	14.18
445.604	14.14
445.808	14.12
446.012	14.11
446.216	14.09
446.42	14.02
446.624	13.95
446.828	13.86
447.032	13.82
447.235	13.82
447.439	13.85
447.643	13.84
447.847	13.73
448.051	13.7
448.254	13.75
448.458	13.88
448.662	13.94
448.866	13.94
449.069	13.98
449.273	14.03
449.477	13.91
449.681	13.88
449.884	13.89
450.088	13.94
450.292	14.05
450.495	13.97
450.699	14.06
450.902	13.96
451.106	14.02
451.31	13.99
451.513	13.99
451.717	14
451.92	13.94
452.124	14.04
452.327	14.22
452.531	14.21
452.734	14.24
452.938	14.16
453.141	14.24
453.345	14.26
453.548	14.42
453.752	14.48
453.955	14.51
454.158	14.55
454.362	14.49
454.565	14.4
454.769	14.49
454.972	14.62
455.175	14.66
455.379	14.77
455.582	14.71
455.785	14.58
455.988	14.45
456.192	14.36
456.395	14.45
456.598	14.45
456.801	14.47
