Data from 2938781__Reflection_03.txt Node
Date: Fri Mar 13 12:49:32 EDT 2015
User: robert
Spectrometer: USB4E03002
Autoset integration time: false
Trigger mode: 4
Integration Time (sec): 1.000000E-1
Scans to average: 10
Electric dark correction enabled: false
Nonlinearity correction enabled: false
Boxcar width: 5
Stray light correction enabled: false
XAxis mode: Wavelengths
Stop averaging: false
Number of Pixels in Spectrum: 3648
>>>>>Begin Spectral Data<<<<<
177.575	87.43
177.794	92.44
178.014	93.5
178.233	88.53
178.452	91.24
178.672	85.65
178.891	83.41
179.11	78.31
179.33	80.59
179.549	82.57
179.768	86.89
179.987	90.39
180.207	84.39
180.426	78.68
180.645	82.48
180.864	77.47
181.084	76.37
181.303	77.53
181.522	82.09
181.741	78.58
181.96	77.26
182.179	77.5
182.398	71.72
182.618	72.36
182.837	77.53
183.056	73.98
183.275	73.13
183.494	75.39
183.713	73.35
183.932	71.89
184.151	73.36
184.37	72.56
184.589	73.48
184.808	74.79
185.027	76.93
185.246	77.14
185.465	79.15
185.684	85.44
185.903	83.63
186.122	82.78
186.341	80.36
186.56	73.57
186.779	72.7
186.998	73.53
187.216	73.45
187.435	74.07
187.654	68.49
187.873	66.16
188.092	67.28
188.311	65.7
188.53	64.67
188.748	64.4
188.967	66.78
189.186	66.91
189.405	66.67
189.623	68.59
189.842	65.98
190.061	69.17
190.28	74.02
190.498	71.66
190.717	75.21
190.936	76.03
191.154	77.14
191.373	81.53
191.592	79.79
191.81	77.46
192.029	75.63
192.248	79.97
192.466	78.05
192.685	74.68
192.904	72.45
193.122	72.55
193.341	75.76
193.559	76.29
193.778	74.39
193.996	78.32
194.215	77.02
194.433	75.13
194.652	70.52
194.87	69.67
195.089	71.66
195.307	73.41
195.526	73.72
195.744	72.78
195.963	75.33
196.181	76.8
196.399	73.89
196.618	77.37
196.836	78.6
197.055	79.06
197.273	81.54
197.491	77.27
197.71	77.84
197.928	78.19
198.146	75.92
198.365	72.15
198.583	73.19
198.801	74.21
199.019	71.72
199.238	70.97
199.456	72.95
199.674	72.99
199.892	73.28
200.111	69.16
200.329	68.24
200.547	67.54
200.765	70.22
200.983	68.94
201.202	66.96
201.42	70.85
201.638	73.52
201.856	72.14
202.074	73.86
202.292	76.06
202.51	78.63
202.728	83.93
202.946	86.58
203.165	83.34
203.383	79.49
203.601	83.7
203.819	79.63
204.037	78.23
204.255	79.65
204.473	77.47
204.691	79.35
204.909	81.96
205.127	76.35
205.345	74.57
205.562	72.9
205.78	74.02
205.998	71.52
206.216	74.4
206.434	74.32
206.652	75.45
206.87	74.75
207.088	70.84
207.306	70.62
207.523	70.08
207.741	71.3
207.959	72.43
208.177	70.86
208.395	73.09
208.612	70.12
208.83	70.65
209.048	70.89
209.266	71.43
209.483	70.39
209.701	68.56
209.919	65.77
210.136	65.72
210.354	62.33
210.572	65.01
210.79	63.64
211.007	65.6
211.225	67.73
211.442	61.07
211.66	63.46
211.878	71.16
212.095	73.53
212.313	75.63
212.53	77.48
212.748	80.56
212.966	80.09
213.183	80.49
213.401	79.33
213.618	75.39
213.836	81.33
214.053	77.01
214.271	72.51
214.488	70.65
214.705	72.09
214.923	70.67
215.14	69.9
215.358	66.98
215.575	64.14
215.793	64.7
216.01	63.93
216.227	64.21
216.445	64
216.662	63.16
216.879	63.29
217.097	59.95
217.314	57.21
217.531	60.29
217.749	58.56
217.966	64.43
218.183	62.79
218.4	63.13
218.618	63.03
218.835	61.92
219.052	63.11
219.269	61.42
219.487	64.29
219.704	68.27
219.921	63.74
220.138	65.42
220.355	59.42
220.572	57.47
220.79	56.04
221.007	53.8
221.224	53.59
221.441	50.69
221.658	51.6
221.875	51.82
222.092	48.12
222.309	47.44
222.526	46.43
222.743	44.91
222.96	45.01
223.177	46.12
223.394	44.51
223.611	46.27
223.828	48.96
224.045	46.53
224.262	43.98
224.479	41.79
224.696	42.7
224.913	42.65
225.13	43.17
225.347	43.19
225.564	42.11
225.781	41.24
225.997	38.01
226.214	34.1
226.431	32.79
226.648	31.94
226.865	30.5
227.082	28.06
227.298	25.41
227.515	23.58
227.732	21.27
227.949	19.49
228.165	17.92
228.382	16.84
228.599	16.89
228.816	16.08
229.032	15.16
229.249	14.77
229.466	14.32
229.682	14.29
229.899	14.46
230.116	14.3
230.332	14.59
230.549	16.04
230.765	16.48
230.982	17.03
231.199	17.81
231.415	19.5
231.632	21.27
231.848	22.01
232.065	22.6
232.281	22.55
232.498	23.72
232.714	23.36
232.931	22.72
233.147	24.34
233.364	23.54
233.58	23.88
233.797	22.5
234.013	23.45
234.23	23.18
234.446	23.32
234.662	22.66
234.879	21.83
235.095	21.34
235.312	21.08
235.528	20.26
235.744	20.09
235.961	20.06
236.177	20.54
236.393	19.09
236.61	19.56
236.826	19.01
237.042	20.85
237.258	21.55
237.475	22.12
237.691	22.54
237.907	22.78
238.123	23.49
238.339	22.89
238.556	23.12
238.772	22.73
238.988	21.9
239.204	22.26
239.42	20.94
239.636	21.15
239.853	20.7
240.069	20.19
240.285	20.04
240.501	18.27
240.717	18.21
240.933	16.87
241.149	16.19
241.365	15.62
241.581	15.13
241.797	14.32
242.013	13.18
242.229	12.99
242.445	12.2
242.661	11.74
242.877	11.94
243.093	11.81
243.309	11.72
243.525	11.73
243.741	11.67
243.957	11.4
244.173	12.64
244.388	13.15
244.604	13.05
244.82	14.02
245.036	13.46
245.252	13.02
245.468	12.08
245.683	11.96
245.899	11.1
246.115	10.67
246.331	10.06
246.547	9.61
246.762	9.17
246.978	8.97
247.194	8.57
247.409	8.72
247.625	8.64
247.841	8.38
248.057	8.3
248.272	8.45
248.488	8.61
248.703	8.96
248.919	8.73
249.135	8.99
249.35	9.83
249.566	10.16
249.782	10.22
249.997	10.58
250.213	11.56
250.428	11.99
250.644	12.67
250.859	12.47
251.075	12.39
251.29	13.15
251.506	12.89
251.721	11.96
251.937	12.14
252.152	12.32
252.368	12.33
252.583	12.12
252.798	11.69
253.014	11.82
253.229	12.3
253.445	13.04
253.66	12.39
253.875	13.19
254.091	14.15
254.306	13.92
254.521	15.05
254.737	15.48
254.952	15.7
255.167	16.81
255.383	16
255.598	15.93
255.813	15.29
256.028	15.09
256.244	14.08
256.459	14.08
256.674	13.48
256.889	11.91
257.104	12.02
257.32	12
257.535	11.17
257.75	10.93
257.965	10.69
258.18	9.95
258.395	9.57
258.61	9.39
258.826	8.47
259.041	8.3
259.256	7.88
259.471	7.12
259.686	6.91
259.901	6.65
260.116	6.47
260.331	6.02
260.546	6.13
260.761	6.21
260.976	6.07
261.191	5.88
261.406	5.59
261.621	5.93
261.836	5.93
262.05	6.06
262.265	6.19
262.48	6.6
262.695	7.07
262.91	7.5
263.125	7.62
263.34	8.03
263.555	8.9
263.769	10
263.984	10.1
264.199	10.72
264.414	10.69
264.629	11.25
264.843	11.59
265.058	11.69
265.273	11.44
265.488	11.45
265.702	10.71
265.917	10.37
266.132	10.1
266.346	9.79
266.561	9.8
266.776	9.67
266.99	9.09
267.205	8.82
267.42	8.87
267.634	8.2
267.849	8.15
268.063	8.8
268.278	8.69
268.492	9.1
268.707	9.22
268.922	8.73
269.136	8.56
269.351	8.73
269.565	8.54
269.78	8.06
269.994	8.24
270.209	7.74
270.423	6.86
270.637	6.82
270.852	6.1
271.066	6.06
271.281	6.21
271.495	6.14
271.709	5.81
271.924	5.74
272.138	6.07
272.353	6.03
272.567	6.23
272.781	6.86
272.996	6.81
273.21	7.09
273.424	7.07
273.638	6.96
273.853	7.16
274.067	7.42
274.281	7.82
274.495	8.13
274.71	8.63
274.924	9.13
275.138	9.1
275.352	9.11
275.566	9.05
275.781	8.96
275.995	9.35
276.209	9.23
276.423	9.41
276.637	9.47
276.851	9.36
277.065	8.75
277.279	8.35
277.493	8.12
277.707	8.6
277.921	8.36
278.135	8.43
278.349	8.48
278.563	8.87
278.777	8.98
278.991	8.61
279.205	8.63
279.419	9.04
279.633	8.63
279.847	8.64
280.061	8.5
280.275	8.2
280.489	8.49
280.703	8.24
280.917	7.9
281.131	7.64
281.344	7.32
281.558	6.79
281.772	6.82
281.986	7.23
282.2	7.56
282.414	7.73
282.627	7.75
282.841	7.44
283.055	7.6
283.269	7.57
283.482	7.55
283.696	7.69
283.91	8
284.123	7.35
284.337	7.01
284.551	6.65
284.764	6.3
284.978	6.29
285.192	6.23
285.405	6.28
285.619	5.97
285.833	5.99
286.046	6.02
286.26	5.99
286.473	6.55
286.687	6.53
286.9	6.59
287.114	6.67
287.327	6.8
287.541	6.96
287.754	6.85
287.968	7.28
288.181	7.25
288.395	7.12
288.608	7.08
288.822	6.82
289.035	6.91
289.248	6.72
289.462	6.4
289.675	6.33
289.889	6.27
290.102	6.05
290.315	5.8
290.529	5.68
290.742	5.82
290.955	5.9
291.169	6.15
291.382	6.45
291.595	6.54
291.808	6.86
292.022	7.17
292.235	7.34
292.448	7.43
292.661	7.59
292.875	7.5
293.088	7.47
293.301	7.26
293.514	6.97
293.727	6.45
293.94	6.54
294.153	6.35
294.367	6.04
294.58	5.62
294.793	5.76
295.006	5.51
295.219	5.48
295.432	5.79
295.645	5.49
295.858	5.33
296.071	5.4
296.284	5.12
296.497	5.03
296.71	4.92
296.923	5.26
297.136	5.27
297.349	5.45
297.562	5.53
297.775	5.13
297.988	5.52
298.201	5.75
298.414	5.7
298.626	5.89
298.839	5.95
299.052	6.04
299.265	5.95
299.478	5.69
299.691	5.87
299.903	6.34
300.116	6.6
300.329	6.48
300.542	6.39
300.755	6.7
300.967	6.95
301.18	6.98
301.393	7.01
301.605	6.89
301.818	6.85
302.031	6.65
302.243	6.21
302.456	6.28
302.669	6.42
302.881	6.44
303.094	6.67
303.307	6.61
303.519	6.92
303.732	7.13
303.944	7.2
304.157	7.41
304.37	7.28
304.582	7.3
304.795	7.22
305.007	7.01
305.22	6.97
305.432	6.68
305.645	6.61
305.857	6.66
306.069	6.84
306.282	6.87
306.494	7.08
306.707	7.26
306.919	7.08
307.132	6.86
307.344	7.07
307.556	7.09
307.769	7.45
307.981	7.23
308.193	7.1
308.406	6.66
308.618	6.6
308.83	6.32
309.043	6.1
309.255	6.18
309.467	6.36
309.679	6.13
309.892	6.33
310.104	6.05
310.316	6.25
310.528	6.23
310.74	6.51
310.953	6.36
311.165	6.57
311.377	7.08
311.589	7.44
311.801	7.46
312.013	7.41
312.225	7.37
312.437	7.49
312.649	7.45
312.862	7.5
313.074	7.73
313.286	8.06
313.498	8.21
313.71	7.84
313.922	7.66
314.134	7.77
314.346	7.94
314.558	7.81
314.77	7.75
314.982	7.76
315.193	8.01
315.405	7.86
315.617	7.99
315.829	7.9
316.041	8.15
316.253	8.03
316.465	8.15
316.677	8.03
316.888	8.1
317.1	8.44
317.312	8.69
317.524	8.54
317.736	8.48
317.947	8.66
318.159	8.72
318.371	8.43
318.583	8.64
318.794	8.83
319.006	9.13
319.218	9.35
319.43	9.24
319.641	8.97
319.853	8.72
320.064	8.95
320.276	8.74
320.488	9.21
320.699	9.37
320.911	9.72
321.123	9.41
321.334	9.37
321.546	9.52
321.757	9.78
321.969	10.32
322.18	10.88
322.392	11
322.603	11.44
322.815	10.73
323.026	10.86
323.238	10.53
323.449	10.34
323.661	10.32
323.872	10.24
324.083	9.95
324.295	9.55
324.506	9.59
324.718	9.28
324.929	9.03
325.14	9.24
325.352	9.17
325.563	9.7
325.774	9.8
325.986	9.91
326.197	10.09
326.408	10.21
326.62	10.44
326.831	10.08
327.042	10.44
327.253	10.82
327.464	10.91
327.676	10.83
327.887	10.61
328.098	11.02
328.309	11.06
328.52	10.79
328.732	10.91
328.943	11.2
329.154	11.88
329.365	12.06
329.576	11.93
329.787	12.41
329.998	13.2
330.209	13.51
330.42	13.53
330.631	13.58
330.842	13.87
331.053	14.23
331.264	13.91
331.475	13.61
331.686	13.57
331.897	13.5
332.108	13.45
332.319	12.99
332.53	12.61
332.741	12.52
332.952	12.78
333.163	12.9
333.374	12.58
333.585	12.84
333.795	12.82
334.006	12.34
334.217	12.16
334.428	12.02
334.639	12.15
334.849	12.13
335.06	12.33
335.271	12.21
335.482	12.43
335.692	12.54
335.903	12.53
336.114	12.27
336.325	12.68
336.535	12.87
336.746	12.68
336.957	13.01
337.167	13.38
337.378	13.56
337.589	13.75
337.799	13.51
338.01	13.38
338.22	13.35
338.431	13.63
338.642	13.61
338.852	13.35
339.063	13.51
339.273	13.27
339.484	13.12
339.694	13.01
339.905	13.04
340.115	12.99
340.326	13.07
340.536	13.02
340.746	12.99
340.957	12.92
341.167	13.14
341.378	13.03
341.588	12.87
341.799	12.68
342.009	12.35
342.219	12.05
342.43	12.22
342.64	12.24
342.85	12.15
343.061	12.18
343.271	12.4
343.481	12.29
343.691	12.09
343.902	12.12
344.112	12.26
344.322	12.22
344.532	12.49
344.743	12.12
344.953	11.93
345.163	11.81
345.373	11.41
345.583	11.28
345.793	11.17
346.004	11.31
346.214	11.22
346.424	11.31
346.634	11.46
346.844	11.23
347.054	11.54
347.264	11.6
347.474	11.83
347.684	12.25
347.894	12.25
348.104	12.47
348.314	12.6
348.524	12.76
348.734	12.6
348.944	12.88
349.154	12.78
349.364	12.69
349.574	12.67
349.784	12.46
349.994	12.41
350.204	12.43
350.413	12.26
350.623	12.31
350.833	12.31
351.043	12.31
351.253	12.06
351.463	11.99
351.672	11.86
351.882	11.94
352.092	11.88
352.302	11.84
352.511	11.75
352.721	12.06
352.931	11.89
353.141	11.72
353.35	11.67
353.56	11.56
353.77	11.52
353.979	11.21
354.189	11.06
354.399	11.28
354.608	11.14
354.818	11.09
355.027	10.86
355.237	10.85
355.447	11.03
355.656	11.01
355.866	10.96
356.075	11.23
356.285	11.74
356.494	11.72
356.704	11.77
356.913	11.91
357.123	12.17
357.332	12.15
357.542	11.94
357.751	11.79
357.96	11.95
358.17	11.95
358.379	11.8
358.589	11.53
358.798	11.66
359.007	11.56
359.217	11.54
359.426	11.06
359.635	11.03
359.845	10.99
360.054	10.96
360.263	10.62
360.472	10.51
360.682	10.37
360.891	10.35
361.1	10.04
361.309	9.91
361.519	10.03
361.728	10.07
361.937	10.13
362.146	10.42
362.355	10.47
362.564	10.72
362.774	10.73
362.983	10.79
363.192	10.87
363.401	10.87
363.61	10.89
363.819	10.73
364.028	10.99
364.237	10.92
364.446	10.8
364.655	10.64
364.864	10.36
365.073	10.5
365.282	10.45
365.491	10.37
365.7	10.65
365.909	10.69
366.118	10.8
366.327	10.7
366.536	10.84
366.745	10.7
366.954	10.76
367.162	10.95
367.371	11.01
367.58	11.23
367.789	11.14
367.998	11.07
368.207	11.21
368.415	11.2
368.624	11.11
368.833	10.89
369.042	11.12
369.25	11.19
369.459	11.35
369.668	11.25
369.877	11.17
370.085	11.15
370.294	11.26
370.503	11.11
370.711	10.95
370.92	10.87
371.129	11.03
371.337	10.83
371.546	10.87
371.754	10.75
371.963	10.63
372.171	10.5
372.38	10.77
372.589	10.72
372.797	10.83
373.006	10.81
373.214	10.86
373.423	10.6
373.631	10.56
373.84	10.35
374.048	10.2
374.256	10.38
374.465	10.54
374.673	10.35
374.882	10.56
375.09	10.62
375.298	10.61
375.507	10.49
375.715	10.55
375.923	10.84
376.132	10.71
376.34	10.66
376.548	10.37
376.757	10.13
376.965	10.25
377.173	10.1
377.381	9.91
377.59	10.19
377.798	10.29
378.006	10.27
378.214	9.98
378.423	10.16
378.631	10.04
378.839	10.13
379.047	10.33
379.255	10.15
379.463	10.17
379.671	10.03
379.879	9.75
380.088	9.64
380.296	9.64
380.504	9.79
380.712	9.63
380.92	9.78
381.128	9.91
381.336	9.73
381.544	9.56
381.752	9.23
381.96	9.31
382.168	9.2
382.376	9.3
382.584	9.16
382.791	9.04
382.999	9
383.207	8.92
383.415	8.82
383.623	8.82
383.831	8.87
384.039	8.9
384.247	8.84
384.454	9.03
384.662	9.03
384.87	9.08
385.078	9.13
385.285	9.06
385.493	9.04
385.701	8.85
385.909	8.88
386.116	8.9
386.324	8.82
386.532	8.84
386.739	8.61
386.947	8.66
387.155	8.67
387.362	8.62
387.57	8.71
387.778	8.65
387.985	8.62
388.193	8.62
388.4	8.61
388.608	8.82
388.816	8.86
389.023	9.07
389.231	8.84
389.438	8.8
389.646	8.86
389.853	8.98
390.061	8.95
390.268	8.91
390.475	8.7
390.683	8.83
390.89	8.57
391.098	8.45
391.305	8.32
391.512	8.19
391.72	8.14
391.927	7.97
392.135	7.9
392.342	7.99
392.549	8.13
392.756	8.17
392.964	7.87
393.171	8.06
393.378	8.05
393.586	7.89
393.793	7.94
394	7.9
394.207	8.07
394.414	7.96
394.622	7.84
394.829	7.86
395.036	7.96
395.243	8.2
395.45	8.2
395.657	8.2
395.864	8.5
396.072	8.36
396.279	8.61
396.486	8.42
396.693	8.58
396.9	8.62
397.107	8.54
397.314	8.56
397.521	8.4
397.728	8.31
397.935	8.25
398.142	8.08
398.349	8.37
398.556	8.18
398.763	8.29
398.97	8.04
399.177	8.15
399.383	8.15
399.59	8.11
399.797	8.22
400.004	8.19
400.211	8.38
400.418	8.32
400.625	8.26
400.831	8.25
401.038	8.22
401.245	8.31
401.452	8.2
401.658	8.09
401.865	8.13
402.072	8.04
402.279	8.05
402.485	7.71
402.692	7.59
402.899	7.57
403.105	7.53
403.312	7.47
403.519	7.32
403.725	7.28
403.932	7.21
404.138	7.09
404.345	7.16
404.552	7.01
404.758	7.15
404.965	7.14
405.171	7.09
405.378	7.02
405.584	6.91
405.791	7.06
405.997	7.17
406.204	7.36
406.41	7.32
406.617	7.25
406.823	7.45
407.029	7.51
407.236	7.61
407.442	7.68
407.649	7.8
407.855	7.88
408.061	8.14
408.268	8.02
408.474	8
408.68	8.12
408.887	7.97
409.093	7.83
409.299	7.73
409.505	7.72
409.712	7.61
409.918	7.46
410.124	7.4
410.33	7.13
410.537	7.04
410.743	6.99
410.949	6.96
411.155	7.14
411.361	7.13
411.567	7.23
411.773	7.28
411.98	7.29
412.186	7.33
412.392	7.47
412.598	7.42
412.804	7.49
413.01	7.46
413.216	7.52
413.422	7.36
413.628	7.37
413.834	7.34
414.04	7.3
414.246	7.26
414.452	7.31
414.658	7.18
414.864	7.17
415.07	7.27
415.275	7.11
415.481	7.04
415.687	6.96
415.893	6.83
416.099	6.83
416.305	6.75
416.511	6.65
416.716	6.4
416.922	6.35
417.128	6.36
417.334	6.17
417.539	6.29
417.745	6.09
417.951	6.11
418.157	6.11
418.362	5.95
418.568	5.88
418.774	5.85
418.979	5.98
419.185	5.92
419.391	5.83
419.596	5.78
419.802	5.62
420.008	5.74
420.213	6.29
420.419	6.26
420.624	6.23
420.83	6.26
421.035	6.27
421.241	6.22
421.446	6.18
421.652	6.13
421.857	6.13
422.063	6.18
422.268	6.08
422.474	5.54
422.679	5.54
422.885	5.58
423.09	5.47
423.295	5.39
423.501	5.33
423.706	5.38
423.911	5.43
424.117	5.45
424.322	5.38
424.527	5.37
424.733	5.35
424.938	5.37
425.143	5.3
425.349	5.33
425.554	5.37
425.759	5.4
425.964	5.39
426.169	5.39
426.375	5.41
426.58	5.49
426.785	5.62
426.99	5.72
427.195	5.81
427.4	5.84
427.605	5.88
427.811	6.01
428.016	6.05
428.221	6.2
428.426	6.27
428.631	6.32
428.836	6.34
429.041	6.27
429.246	6.19
429.451	6.07
429.656	6.07
429.861	6.14
430.066	5.98
430.271	5.84
430.476	5.62
430.681	5.6
430.886	5.59
431.09	5.54
431.295	5.48
431.5	5.59
431.705	5.58
431.91	5.61
432.115	5.53
432.32	5.59
432.524	5.62
432.729	5.68
432.934	5.66
433.139	5.59
433.343	5.58
433.548	5.54
433.753	5.49
433.958	5.48
434.162	5.53
434.367	5.62
434.572	5.57
434.776	5.62
434.981	5.62
435.186	5.62
435.39	5.69
435.595	5.7
435.799	5.64
436.004	5.61
436.209	5.63
436.413	5.59
436.618	5.55
436.822	5.58
437.027	5.63
437.231	5.66
437.436	5.67
437.64	5.68
437.845	5.65
438.049	5.83
438.253	5.79
438.458	5.77
438.662	5.72
438.867	5.73
439.071	5.76
439.275	5.74
439.48	5.72
439.684	5.62
439.888	5.62
440.093	5.58
440.297	5.49
440.501	5.49
440.706	5.5
440.91	5.5
441.114	5.44
441.318	5.51
441.523	5.54
441.727	5.51
441.931	5.61
442.135	5.64
442.339	5.7
442.543	5.82
442.748	5.86
442.952	5.87
443.156	5.95
443.36	5.92
443.564	5.85
443.768	5.74
443.972	5.57
444.176	5.5
444.38	5.42
444.584	5.37
444.788	5.22
444.992	5.21
445.196	5.24
445.4	5.14
445.604	5.2
445.808	5.22
446.012	5.25
446.216	5.37
446.42	5.38
446.624	5.37
446.828	5.33
447.032	5.36
447.235	5.3
447.439	5.23
447.643	5.28
447.847	5.21
448.051	5.18
448.254	5.09
448.458	5.09
448.662	5.07
448.866	5.08
449.069	5.22
449.273	5.31
449.477	5.43
449.681	5.52
449.884	5.63
450.088	5.8
450.292	5.79
450.495	5.95
450.699	5.96
450.902	5.96
451.106	5.92
451.31	5.82
451.513	5.78
451.717	5.63
451.92	5.55
452.124	5.47
452.327	5.35
452.531	5.37
452.734	5.26
452.938	5.28
453.141	5.4
453.345	5.52
453.548	5.5
453.752	5.47
453.955	5.58
454.158	5.57
454.362	5.54
454.565	5.67
454.769	5.68
454.972	5.77
455.175	5.75
455.379	5.68
455.582	5.61
455.785	5.6
455.988	5.62
456.192	5.57
456.395	5.55
456.598	5.58
456.801	5.48
457.005	5.47
457.208	5.52
457.411	5.61
457.614	5.51
457.817	5.46
458.021	5.45
458.224	5.41
458.427	5.32
458.63	5.41
458.833	5.36
459.036	5.31
459.239	5.23
459.442	5.13
459.645	5.04
459.848	5.11
460.051	5.07
460.254	5.11
460.457	5.14
460.66	5.23
460.863	5.19
461.066	5.18
461.269	5.21
461.472	5.38
461.675	5.38
461.878	5.53
462.081	5.58
462.284	5.66
462.486	5.65
462.689	5.55
462.892	5.56
463.095	5.57
463.298	5.7
463.5	5.77
463.703	5.6
463.906	5.68
464.109	5.54
464.311	5.44
464.514	5.43
464.717	5.4
464.92	5.53
465.122	5.57
465.325	5.69
465.528	5.58
465.73	5.65
465.933	5.69
466.135	5.68
466.338	5.55
466.541	5.52
466.743	5.52
466.946	5.56
