Data from 2938789__Reflection_02.txt Node
Date: Fri Mar 13 11:31:40 EDT 2015
User: robert
Spectrometer: USB4E03002
Autoset integration time: false
Trigger mode: 4
Integration Time (sec): 1.000000E-1
Scans to average: 10
Electric dark correction enabled: false
Nonlinearity correction enabled: false
Boxcar width: 5
Stray light correction enabled: false
XAxis mode: Wavelengths
Stop averaging: false
Number of Pixels in Spectrum: 3648
>>>>>Begin Spectral Data<<<<<
177.575	-769.17
177.794	-8707.14
178.014	-1255.65
178.233	-934.62
178.452	-634.09
178.672	-457.52
178.891	-486.29
179.11	-462.34
179.33	-466.73
179.549	-566.95
179.768	-638.25
179.987	-1048.53
180.207	-649.43
180.426	-1041.91
180.645	-1955.13
180.864	-7451.22
181.084	2428.36
181.303	3737.08
181.522	1927.12
181.741	4325.68
181.96	1825
182.179	799.76
182.398	709.79
182.618	583.53
182.837	656.72
183.056	487.41
183.275	464.78
183.494	512.74
183.713	469.66
183.932	488.64
184.151	465.32
184.37	524.07
184.589	634.97
184.808	724.84
185.027	728.13
185.246	713
185.465	2409.4
185.684	1335.17
185.903	1567
186.122	1729.61
186.341	5807.84
186.56	2550.86
186.779	3575.9
186.998	1810.34
187.216	-4626.56
187.435	-1132.05
187.654	-1255.78
187.873	-1710.8
188.092	-3953.62
188.311	20238.46
188.53	-3364.2
188.748	8809.38
188.967	-1425.13
189.186	-1590.12
189.405	-777.11
189.623	-2650.98
189.842	6251.06
190.061	2141.54
190.28	3026.09
190.498	-1728.24
190.717	-1319.72
190.936	-1001.11
191.154	-597.83
191.373	-1716.11
191.592	-1417.44
191.81	-1130.95
192.029	-976
192.248	-955.02
192.466	-3842.25
192.685	-20357.14
192.904	-1024.03
193.122	-5310.91
193.341	1279.2
193.559	760.44
193.778	862.89
193.996	680.23
194.215	768
194.433	791.53
194.652	657.32
194.87	1229.5
195.089	931.08
195.307	472.06
195.526	497.98
195.744	580.24
195.963	504.25
196.181	449.88
196.399	497.94
196.618	402.16
196.836	425.99
197.055	517.59
197.273	554.53
197.491	650.61
197.71	617.62
197.928	899.71
198.146	951.77
198.365	8340.63
198.583	-4909.43
198.801	-2018.94
199.019	-2193.75
199.238	-5550
199.456	1846.31
199.674	945.52
199.892	762.93
200.111	1196.57
200.329	1089.45
200.547	888.69
200.765	644.06
200.983	595.89
201.202	608.58
201.42	763.34
201.638	825.61
201.856	1401.53
202.074	1771.34
202.292	-4220.97
202.51	17931.25
202.728	10003.45
202.946	-3687.01
203.165	-3627.5
203.383	5671.15
203.601	2136.3
203.819	5045.45
204.037	1036.33
204.255	1127.2
204.473	1344.24
204.691	780.5
204.909	667.18
205.127	685.81
205.345	780.24
205.562	986.77
205.78	1242.51
205.998	1284.26
206.216	777.23
206.434	1194.68
206.652	690.22
206.87	696.87
207.088	638.68
207.306	895.72
207.523	748.54
207.741	586.26
207.959	523.08
208.177	738.7
208.395	791.73
208.612	1076.54
208.83	774.05
209.048	929.65
209.266	1224.19
209.483	1109.82
209.701	1225.88
209.919	1791.52
210.136	1360.09
210.354	1142.32
210.572	846.3
210.79	611.11
211.007	634.13
211.225	744.71
211.442	744.05
211.66	511.43
211.878	545.69
212.095	-1310.66
212.313	-3435.11
212.53	-2212.67
212.748	-1656.59
212.966	-2831.62
213.183	-1844.58
213.401	-2796.43
213.618	5738.18
213.836	-19200
214.053	-10574.19
214.271	12546.15
214.488	318.39
214.705	338.14
214.923	289.04
215.14	285.25
215.358	318.16
215.575	381.39
215.793	361.97
216.01	544.1
216.227	491.58
216.445	523.16
216.662	591
216.879	744.54
217.097	626.57
217.314	573.56
217.531	399.86
217.749	334.33
217.966	280.31
218.183	254.87
218.4	250.16
218.618	266.41
218.835	243.78
219.052	239.79
219.269	208.02
219.487	199.93
219.704	207.63
219.921	204.53
220.138	213.55
220.355	214.32
220.572	204.63
220.79	179.28
221.007	166.22
221.224	170.61
221.441	160.47
221.658	165.12
221.875	165.3
222.092	161.76
222.309	158.16
222.526	146.38
222.743	146.98
222.96	145.29
223.177	144.63
223.394	143.65
223.611	135.88
223.828	138.13
224.045	138.14
224.262	135.95
224.479	125.58
224.696	119.38
224.913	110.37
225.13	104.66
225.347	91.49
225.564	86.95
225.781	79.16
225.997	72.9
226.214	62.68
226.431	54.39
226.648	48.37
226.865	42.28
227.082	38.63
227.298	35.02
227.515	30.48
227.732	28.74
227.949	26.29
228.165	24.12
228.382	21.9
228.599	21.13
228.816	20.57
229.032	19.47
229.249	19.01
229.466	18.34
229.682	18.4
229.899	19.24
230.116	19.05
230.332	18.85
230.549	19.47
230.765	21.59
230.982	22.51
231.199	23.85
231.415	25.88
231.632	28.6
231.848	29.92
232.065	31.52
232.281	31.21
232.498	31.6
232.714	31.91
232.931	32.29
233.147	31.51
233.364	32.55
233.58	32.71
233.797	31.99
234.013	31.94
234.23	31.18
234.446	32.2
234.662	31.75
234.879	32.43
235.095	31.82
235.312	30.85
235.528	31.35
235.744	31.25
235.961	31.04
236.177	30.66
236.393	29.19
236.61	30
236.826	29.13
237.042	30.39
237.258	29.57
237.475	30.3
237.691	30.53
237.907	31.1
238.123	31.95
238.339	32.36
238.556	33.51
238.772	32.91
238.988	32.93
239.204	33.65
239.42	32.09
239.636	30.89
239.853	29.56
240.069	28.44
240.285	26.26
240.501	23.93
240.717	22.24
240.933	20.57
241.149	19.53
241.365	17.79
241.581	16.01
241.797	15.28
242.013	14.36
242.229	14.38
242.445	14.21
242.661	13.88
242.877	13.73
243.093	14.34
243.309	14.59
243.525	15.2
243.741	15.57
243.957	15.96
244.173	16.76
244.388	18.12
244.604	18.17
244.82	18.27
245.036	18.3
245.252	17.54
245.468	15.95
245.683	15.07
245.899	14.06
246.115	13.59
246.331	13.29
246.547	12.55
246.762	11.78
246.978	11.42
247.194	11.19
247.409	10.86
247.625	10.8
247.841	10.53
248.057	10.65
248.272	10.49
248.488	10.54
248.703	10.48
248.919	10.59
249.135	10.79
249.35	11.27
249.566	11.77
249.782	12.64
249.997	13.2
250.213	14.2
250.428	14.43
250.644	15.62
250.859	16.24
251.075	16.6
251.29	17.52
251.506	17.42
251.721	17.17
251.937	16.9
252.152	16.22
252.368	15.88
252.583	15.8
252.798	15.79
253.014	15.88
253.229	15.62
253.445	15.83
253.66	15.38
253.875	15.83
254.091	16.54
254.306	16.49
254.521	18.2
254.737	19.63
254.952	19.54
255.167	19.85
255.383	19.56
255.598	19.57
255.813	19.86
256.028	19.47
256.244	19.42
256.459	19.05
256.674	18.46
256.889	17.07
257.104	16.39
257.32	16.24
257.535	14.96
257.75	14.1
257.965	13.6
258.18	12.77
258.395	12.03
258.61	11.21
258.826	10.47
259.041	10.41
259.256	9.99
259.471	9.5
259.686	9.24
259.901	9.37
260.116	9.09
260.331	8.68
260.546	8.6
260.761	8.86
260.976	9.09
261.191	8.84
261.406	8.65
261.621	9.08
261.836	9.18
262.05	9.59
262.265	9.61
262.48	10.57
262.695	11.46
262.91	12.32
263.125	12.37
263.34	12.66
263.555	14.42
263.769	15.3
263.984	14.83
264.199	15.31
264.414	14.81
264.629	14.61
264.843	14.54
265.058	14.49
265.273	13.71
265.488	13.19
265.702	12.86
265.917	12.08
266.132	11.66
266.346	11.63
266.561	11.67
266.776	11.64
266.99	12.21
267.205	11.76
267.42	11.5
267.634	10.85
267.849	11.14
268.063	11.19
268.278	11.11
268.492	11.09
268.707	11.27
268.922	10.84
269.136	11.46
269.351	10.99
269.565	11.19
269.78	10.83
269.994	11.15
270.209	10.71
270.423	9.9
270.637	9.59
270.852	9.5
271.066	9.04
271.281	9.25
271.495	8.88
271.709	8.6
271.924	8.07
272.138	8.27
272.353	8.48
272.567	8.93
272.781	9.77
272.996	9.68
273.21	9.78
273.424	9.99
273.638	9.8
273.853	9.69
274.067	9.84
274.281	10.41
274.495	10.98
274.71	11.39
274.924	11.24
275.138	11.03
275.352	11.16
275.566	11.61
275.781	11.48
275.995	12.23
276.209	12.66
276.423	12.55
276.637	12.61
276.851	12.39
277.065	11.81
277.279	11.68
277.493	11.41
277.707	11.77
277.921	11.24
278.135	11.29
278.349	10.75
278.563	10.66
278.777	11.01
278.991	10.55
279.205	10.55
279.419	10.64
279.633	10.19
279.847	10.24
280.061	10.12
280.275	9.74
280.489	10.05
280.703	9.89
280.917	9.26
281.131	9.22
281.344	9.13
281.558	8.79
281.772	9.02
281.986	9.25
282.2	9.28
282.414	9.22
282.627	9.19
282.841	9.01
283.055	9.15
283.269	9.37
283.482	8.97
283.696	9.01
283.91	9.2
284.123	8.23
284.337	8.03
284.551	8.01
284.764	7.94
284.978	7.85
285.192	7.65
285.405	7.7
285.619	7.62
285.833	7.83
286.046	7.79
286.26	7.76
286.473	8.12
286.687	8.18
286.9	8.36
287.114	8.1
287.327	8.32
287.541	8.59
287.754	8.44
287.968	8.69
288.181	8.79
288.395	8.71
288.608	8.61
288.822	8.7
289.035	8.67
289.248	8.19
289.462	8.18
289.675	8.09
289.889	8.14
290.102	7.88
290.315	7.8
290.529	7.78
290.742	7.68
290.955	7.67
291.169	7.86
291.382	8.15
291.595	8.41
291.808	8.82
292.022	9.22
292.235	9.26
292.448	9.48
292.661	9.6
292.875	9.66
293.088	10.17
293.301	9.99
293.514	9.89
293.727	9.51
293.94	9.61
294.153	9.27
294.367	8.89
294.58	8.51
294.793	8.54
295.006	8.36
295.219	7.97
295.432	7.79
295.645	7.97
295.858	7.98
296.071	7.73
296.284	7.59
296.497	7.44
296.71	7.3
296.923	7.65
297.136	7.61
297.349	7.57
297.562	7.71
297.775	7.68
297.988	7.65
298.201	7.68
298.414	7.95
298.626	7.82
298.839	7.76
299.052	7.87
299.265	7.99
299.478	7.95
299.691	8.41
299.903	9.11
300.116	9.48
300.329	9.49
300.542	9.32
300.755	9.76
300.967	10.07
301.18	10.49
301.393	10.74
301.605	10.49
301.818	10.76
302.031	10.38
302.243	9.73
302.456	9.67
302.669	9.9
302.881	9.85
303.094	10.12
303.307	10.1
303.519	10.3
303.732	10.36
303.944	10.17
304.157	10.35
304.37	10.23
304.582	10.52
304.795	10.61
305.007	10.47
305.22	10.67
305.432	10.03
305.645	10
305.857	10.2
306.069	10.42
306.282	10.57
306.494	10.67
306.707	10.9
306.919	10.61
307.132	10.42
307.344	10.23
307.556	10.45
307.769	10.64
307.981	10.63
308.193	10.36
308.406	10.02
308.618	10.25
308.83	9.9
309.043	9.8
309.255	9.66
309.467	9.65
309.679	9.96
309.892	9.79
310.104	9.61
310.316	9.65
310.528	9.43
310.74	9.53
310.953	8.96
311.165	9.12
311.377	9.25
311.589	9.96
311.801	9.96
312.013	9.79
312.225	9.94
312.437	10.01
312.649	10.3
312.862	10.59
313.074	10.76
313.286	11.31
313.498	11.46
313.71	11.33
313.922	10.68
314.134	10.7
314.346	11.05
314.558	11.22
314.77	11.76
314.982	11.79
315.193	11.96
315.405	12.08
315.617	12.28
315.829	12.68
316.041	13.06
316.253	13.26
316.465	13.54
316.677	13.11
316.888	12.97
317.1	13.07
317.312	13.27
317.524	13.49
317.736	13.43
317.947	14.04
318.159	13.8
318.371	13.55
318.583	13.69
318.794	13.89
319.006	14.11
319.218	14.29
319.43	14.17
319.641	14.17
319.853	13.99
320.064	14.45
320.276	13.8
320.488	13.88
320.699	14.03
320.911	14.38
321.123	14.93
321.334	15.23
321.546	15.11
321.757	15.49
321.969	15.51
322.18	15.85
322.392	15.17
322.603	15.54
322.815	15.47
323.026	15.72
323.238	15.51
323.449	14.68
323.661	14.73
323.872	15.13
324.083	14.64
324.295	14.29
324.506	13.96
324.718	13.96
324.929	14.02
325.14	13.95
325.352	13.77
325.563	14.38
325.774	14.84
325.986	15.13
326.197	15.14
326.408	15.67
326.62	15.92
326.831	16.3
327.042	17.06
327.253	17.39
327.464	17.92
327.676	18.27
327.887	18.35
328.098	18.25
328.309	18.6
328.52	18.8
328.732	18.61
328.943	19.24
329.154	19.71
329.365	19.81
329.576	19.95
329.787	20.06
329.998	21.02
330.209	21.01
330.42	21.34
330.631	20.97
330.842	21.16
331.053	21.66
331.264	21.3
331.475	21.44
331.686	21.6
331.897	21.57
332.108	21.67
332.319	21.3
332.53	21.23
332.741	21.22
332.952	21.55
333.163	21.6
333.374	21.66
333.585	21.8
333.795	21.4
334.006	21.32
334.217	21.08
334.428	20.96
334.639	20.79
334.849	20.6
335.06	20.73
335.271	20.37
335.482	20.4
335.692	20.22
335.903	20.38
336.114	20.34
336.325	20.29
336.535	20.38
336.746	20.08
336.957	20.32
337.167	20.71
337.378	20.97
337.589	21.13
337.799	20.63
338.01	20.51
338.22	20.37
338.431	20.44
338.642	20.41
338.852	20.42
339.063	20.91
339.273	20.82
339.484	20.39
339.694	19.96
339.905	20.07
340.115	20.4
340.326	20.6
340.536	20.52
340.746	20.39
340.957	20.21
341.167	20.1
341.378	20.04
341.588	19.78
341.799	20.08
342.009	20.02
342.219	20.09
342.43	19.9
342.64	19.92
342.85	19.96
343.061	19.95
343.271	20.13
343.481	20.16
343.691	19.79
343.902	19.92
344.112	19.85
344.322	19.92
344.532	19.87
344.743	19.78
344.953	19.69
345.163	19.36
345.373	19.1
345.583	18.89
345.793	18.79
346.004	18.97
346.214	19
346.424	18.58
346.634	18.77
346.844	18.79
347.054	19.15
347.264	19.04
347.474	18.97
347.684	19.29
347.894	19.4
348.104	19.35
348.314	19.06
348.524	18.69
348.734	19.09
348.944	19.05
349.154	18.87
349.364	18.76
349.574	18.78
349.784	19.33
349.994	19.42
350.204	19.34
350.413	19.46
350.623	19.71
350.833	19.83
351.043	19.73
351.253	19.71
351.463	19.52
351.672	19.48
351.882	19.55
352.092	19.23
352.302	18.95
352.511	19.05
352.721	19.18
352.931	19.11
353.141	19.1
353.35	19.17
353.56	18.9
353.77	18.79
353.979	18.69
354.189	18.66
354.399	18.81
354.608	18.87
354.818	18.58
355.027	18.63
355.237	18.66
355.447	18.85
355.656	18.66
355.866	18.76
356.075	18.93
356.285	18.98
356.494	18.92
356.704	18.76
356.913	18.83
357.123	19.05
357.332	18.85
357.542	18.64
357.751	18.4
357.96	18.42
358.17	18.17
358.379	18.19
358.589	18.1
358.798	17.85
359.007	17.78
359.217	17.86
359.426	17.44
359.635	17.31
359.845	17.25
360.054	17.01
360.263	16.9
360.472	16.92
360.682	16.63
360.891	16.61
361.1	16.68
361.309	16.39
361.519	16.39
361.728	16.29
361.937	16.29
362.146	16.36
362.355	16.44
362.564	16.54
362.774	16.47
362.983	16.41
363.192	16.44
363.401	16.31
363.61	16.46
363.819	16.33
364.028	16.63
364.237	16.73
364.446	16.72
364.655	16.78
364.864	16.61
365.073	16.83
365.282	16.8
365.491	16.69
365.7	16.58
365.909	16.61
366.118	16.71
366.327	16.68
366.536	16.55
366.745	16.41
366.954	16.44
367.162	16.4
367.371	16.11
367.58	16.45
367.789	16.25
367.998	16.67
368.207	16.8
368.415	16.55
368.624	16.67
368.833	16.68
369.042	16.68
369.25	16.6
369.459	16.8
369.668	16.71
369.877	16.33
370.085	16.34
370.294	16.04
370.503	16
370.711	15.93
370.92	15.62
371.129	15.68
371.337	15.61
371.546	15.59
371.754	15.5
371.963	15.52
372.171	15.69
372.38	15.81
372.589	15.79
372.797	15.59
373.006	15.57
373.214	15.58
373.423	15.35
373.631	15.32
373.84	15.36
374.048	15.3
374.256	15.51
374.465	15.57
374.673	15.48
374.882	15.57
375.09	15.74
375.298	15.58
375.507	15.55
375.715	15.47
375.923	15.36
376.132	15.03
376.34	14.81
376.548	14.53
376.757	14.47
376.965	14.61
377.173	14.4
377.381	14.16
377.59	14.46
377.798	14.45
378.006	14.46
378.214	14.41
378.423	14.54
378.631	14.39
378.839	14.61
379.047	14.57
379.255	14.32
379.463	14.57
379.671	14.57
379.879	14.28
380.088	14.18
380.296	14.11
380.504	14.13
380.712	13.96
380.92	14.21
381.128	14.06
381.336	13.92
381.544	13.72
381.752	13.29
381.96	13.31
382.168	13.19
382.376	13.12
382.584	13.07
382.791	13.08
382.999	13.17
383.207	13
383.415	12.83
383.623	12.71
383.831	12.63
384.039	12.65
384.247	12.6
384.454	12.72
384.662	12.73
384.87	12.57
385.078	12.62
385.285	12.5
385.493	12.63
385.701	12.59
385.909	12.59
386.116	12.58
386.324	12.62
386.532	12.43
386.739	12.25
386.947	12.23
387.155	12.29
387.362	12.17
387.57	12.11
387.778	12
387.985	12.03
388.193	12.08
388.4	12.31
388.608	12.27
388.816	12.28
389.023	12.22
389.231	12.37
389.438	12.27
389.646	12.26
389.853	12.32
390.061	12.09
390.268	12.07
390.475	12.06
390.683	11.77
390.89	11.71
391.098	11.58
391.305	11.63
391.512	11.29
391.72	11.38
391.927	11.16
392.135	11.06
392.342	11.19
392.549	11.11
392.756	10.89
392.964	10.95
393.171	11.04
393.378	11.05
393.586	10.98
393.793	10.98
394	10.87
394.207	11.09
394.414	11.22
394.622	11.07
394.829	10.97
395.036	11
395.243	10.9
395.45	10.67
395.657	10.7
395.864	10.73
396.072	10.8
396.279	10.97
396.486	10.7
396.693	10.56
396.9	10.57
397.107	10.52
397.314	10.72
397.521	10.8
397.728	10.74
397.935	10.84
398.142	10.78
398.349	10.85
398.556	10.72
398.763	10.75
398.97	10.51
399.177	10.35
399.383	10.41
399.59	10.33
399.797	10.47
400.004	10.55
400.211	10.64
400.418	10.72
400.625	10.62
400.831	10.53
401.038	10.58
401.245	10.75
401.452	11
401.658	11.07
401.865	11.16
402.072	10.97
402.279	10.93
402.485	10.65
402.692	10.43
402.899	10.43
403.105	10.47
403.312	10.37
403.519	10.22
403.725	10.25
403.932	10.03
404.138	9.77
404.345	9.82
404.552	9.67
404.758	9.77
404.965	9.66
405.171	9.63
405.378	9.42
405.584	9.57
405.791	9.65
405.997	9.56
406.204	9.71
406.41	9.73
406.617	9.8
406.823	10.13
407.029	10.05
407.236	10.33
407.442	10.19
407.649	10.44
407.855	10.33
408.061	10.5
408.268	10.43
408.474	10.4
408.68	10.43
408.887	10.37
409.093	10.21
409.299	10.23
409.505	10.21
409.712	10.27
409.918	10.25
410.124	10.32
410.33	10.19
410.537	10.04
410.743	10.01
410.949	10.08
411.155	10.05
411.361	9.95
411.567	9.9
411.773	9.83
411.98	9.81
412.186	9.65
412.392	9.67
412.598	9.65
412.804	9.59
413.01	9.55
413.216	9.55
413.422	9.46
413.628	9.46
413.834	9.47
414.04	9.56
414.246	9.59
414.452	9.51
414.658	9.42
414.864	9.3
415.07	9.49
415.275	9.56
415.481	9.51
415.687	9.37
415.893	9.46
416.099	9.46
416.305	9.2
416.511	9.21
416.716	9.17
416.922	9.07
417.128	9.12
417.334	8.91
417.539	8.86
417.745	8.72
417.951	8.66
418.157	8.56
418.362	8.44
418.568	8.41
418.774	8.27
418.979	8.3
419.185	8.27
419.391	8.19
419.596	8.16
419.802	8.03
420.008	7.99
420.213	7.98
420.419	7.98
420.624	8
420.83	8.04
421.035	8.04
421.241	7.94
421.446	7.85
421.652	7.78
421.857	7.79
422.063	7.78
422.268	7.72
422.474	7.81
422.679	7.75
422.885	7.61
423.09	7.56
423.295	7.48
423.501	7.5
423.706	7.54
423.911	7.51
424.117	7.5
424.322	7.5
424.527	7.54
424.733	7.44
424.938	7.46
425.143	7.5
425.349	7.55
425.554	7.59
425.759	7.65
425.964	7.72
426.169	7.84
426.375	7.89
426.58	7.96
426.785	7.99
426.99	8.03
427.195	8.09
427.4	8.19
427.605	8.16
427.811	8.18
428.016	8.22
428.221	8.33
428.426	8.24
428.631	8.25
428.836	8.27
429.041	8.29
429.246	8.29
429.451	8.3
429.656	8.31
429.861	8.46
430.066	8.44
430.271	8.43
430.476	8.28
430.681	8.42
430.886	8.47
431.09	8.47
431.295	8.52
431.5	8.65
431.705	8.49
431.91	8.55
432.115	8.43
432.32	8.5
432.524	8.56
432.729	8.63
432.934	8.53
433.139	8.46
433.343	8.43
433.548	8.41
433.753	8.39
433.958	8.42
434.162	8.42
434.367	8.5
434.572	8.55
434.776	8.53
434.981	8.49
435.186	8.57
435.39	8.68
435.595	8.8
435.799	8.77
436.004	8.74
436.209	8.77
436.413	8.78
436.618	8.73
436.822	8.63
437.027	8.58
437.231	8.55
437.436	8.56
437.64	8.5
437.845	8.35
438.049	8.42
438.253	8.43
438.458	8.43
438.662	8.32
438.867	8.29
439.071	8.31
439.275	8.27
439.48	8.28
439.684	8.18
439.888	8.14
440.093	8.2
440.297	8.09
440.501	8.05
440.706	8.12
440.91	8.17
441.114	8.18
441.318	8.22
441.523	8.27
441.727	8.27
441.931	8.31
442.135	8.42
442.339	8.41
442.543	8.59
442.748	8.62
442.952	8.58
443.156	8.63
443.36	8.63
443.564	8.6
443.768	8.63
443.972	8.57
444.176	8.58
444.38	8.5
444.584	8.46
444.788	8.25
444.992	8.24
445.196	8.17
445.4	8.12
445.604	8.13
445.808	8.12
446.012	8.08
446.216	8.1
446.42	8.12
446.624	8.04
446.828	7.96
447.032	7.99
447.235	7.96
447.439	7.99
447.643	7.98
447.847	7.96
448.051	7.97
448.254	7.95
448.458	8.02
448.662	8
448.866	8.08
449.069	8.21
449.273	8.28
449.477	8.34
449.681	8.39
449.884	8.51
450.088	8.67
450.292	8.58
450.495	8.54
450.699	8.47
450.902	8.39
451.106	8.39
451.31	8.4
451.513	8.47
451.717	8.38
451.92	8.33
452.124	8.22
452.327	8.07
452.531	8.17
452.734	8.28
452.938	8.32
453.141	8.43
453.345	8.43
453.548	8.47
453.752	8.38
453.955	8.51
454.158	8.56
454.362	8.61
454.565	8.62
454.769	8.66
454.972	8.64
455.175	8.68
455.379	8.66
455.582	8.67
455.785	8.57
455.988	8.59
456.192	8.53
456.395	8.41
456.598	8.44
456.801	8.48
457.005	8.37
457.208	8.38
457.411	8.28
