Data from 2938712__Reflection_03.txt Node
Date: Tue Mar 17 19:22:01 EDT 2015
User: robert
Spectrometer: USB4E03002
Autoset integration time: false
Trigger mode: 4
Integration Time (sec): 1.000000E-1
Scans to average: 10
Electric dark correction enabled: false
Nonlinearity correction enabled: false
Boxcar width: 5
Stray light correction enabled: false
XAxis mode: Wavelengths
Stop averaging: false
Number of Pixels in Spectrum: 3648
>>>>>Begin Spectral Data<<<<<
177.575	31.88
177.794	29.23
178.014	53.03
178.233	57.57
178.452	86.61
178.672	89.86
178.891	83.39
179.11	124.94
179.33	203.94
179.549	411.97
179.768	-14466.67
179.987	-189.83
180.207	-476.47
180.426	2726.32
180.645	795.83
180.864	273.08
181.084	317.78
181.303	6942.86
181.522	586.84
181.741	186.12
181.96	149.14
182.179	152.32
182.398	160.83
182.618	93.54
182.837	72.73
183.056	60.87
183.275	69.5
183.494	65.42
183.713	73.02
183.932	78.6
184.151	82.69
184.37	89.24
184.589	79.71
184.808	66.12
185.027	93.42
185.246	106.52
185.465	103.89
185.684	92.7
185.903	145.23
186.122	100.71
186.341	64.51
186.56	58.47
186.779	40.33
186.998	73.89
187.216	100.72
187.435	103.62
187.654	103.38
187.873	85.36
188.092	97.28
188.311	81.75
188.53	95.09
188.748	91.96
188.967	91.5
189.186	121.28
189.405	103.48
189.623	96.86
189.842	55.09
190.061	59.05
190.28	83.92
190.498	91.28
190.717	86.69
190.936	75.97
191.154	70.94
191.373	62.44
191.592	54.24
191.81	63.18
192.029	63.37
192.248	101.76
192.466	85.71
192.685	86.71
192.904	73.24
193.122	77.87
193.341	76.21
193.559	105.87
193.778	104.28
193.996	99.45
194.215	102.06
194.433	115.53
194.652	102.57
194.87	112.88
195.089	105.23
195.307	109.6
195.526	129.34
195.744	161.41
195.963	138.25
196.181	164.78
196.399	161.8
196.618	157.1
196.836	151.38
197.055	139.15
197.273	168.95
197.491	294.27
197.71	454.79
197.928	123.27
198.146	105.23
198.365	90.08
198.583	93.59
198.801	205.19
199.019	248.15
199.238	244.31
199.456	183.98
199.674	190.73
199.892	134.95
200.111	143.12
200.329	158.15
200.547	145.81
200.765	147.76
200.983	121.99
201.202	105.59
201.42	100.57
201.638	105.59
201.856	104.31
202.074	125.29
202.292	150.8
202.51	157.03
202.728	144.34
202.946	136.21
203.165	133.55
203.383	156.34
203.601	131.99
203.819	142.24
204.037	123.5
204.255	124.8
204.473	98.29
204.691	83.08
204.909	76.77
205.127	81.19
205.345	67.57
205.562	61.76
205.78	52.07
205.998	57.89
206.216	43.65
206.434	38.78
206.652	47.55
206.87	20.74
207.088	22.57
207.306	27.37
207.523	21.69
207.741	27.77
207.959	24.45
208.177	11.97
208.395	24.75
208.612	35.74
208.83	38.86
209.048	25.79
209.266	32.74
209.483	18.26
209.701	26.71
209.919	46.76
210.136	30.88
210.354	44.58
210.572	47.54
210.79	42.98
211.007	17.19
211.225	24.54
211.442	49.93
211.66	84.99
211.878	90.22
212.095	72.29
212.313	46.37
212.53	48.72
212.748	47.49
212.966	55.57
213.183	47.81
213.401	60.17
213.618	60.46
213.836	48.69
214.053	36.36
214.271	32.83
214.488	28.33
214.705	39.91
214.923	43.94
215.14	36.89
215.358	32.74
215.575	38.97
215.793	26.99
216.01	7.36
216.227	17.26
216.445	11.92
216.662	12.61
216.879	15.75
217.097	6.84
217.314	1.02
217.531	15.3
217.749	25.26
217.966	23.84
218.183	35.28
218.4	44.42
218.618	33.58
218.835	42.22
219.052	36.61
219.269	49.27
219.487	50.82
219.704	52.88
219.921	49.92
220.138	45.34
220.355	47.1
220.572	42.53
220.79	42.08
221.007	52.91
221.224	52.12
221.441	52.59
221.658	44.32
221.875	40.16
222.092	34.86
222.309	36.9
222.526	35.68
222.743	33.13
222.96	27.37
223.177	21.14
223.394	16.2
223.611	14.4
223.828	15.24
224.045	10.01
224.262	3.59
224.479	10.54
224.696	4.58
224.913	4.6
225.13	5.84
225.347	6.51
225.564	6.28
225.781	3.35
225.997	3.61
226.214	3.5
226.431	5.92
226.648	10.49
226.865	7.46
227.082	7.42
227.298	9.66
227.515	8.07
227.732	8.36
227.949	8.44
228.165	7.69
228.382	7.45
228.599	7.37
228.816	6.9
229.032	5.32
229.249	5.66
229.466	5.82
229.682	4.86
229.899	4.49
230.116	4.22
230.332	4.35
230.549	4.79
230.765	4.66
230.982	5.55
231.199	5.74
231.415	7.33
231.632	7.06
231.848	6.8
232.065	6.56
232.281	8.59
232.498	9.23
232.714	8.68
232.931	7.47
233.147	7.92
233.364	7.29
233.58	7.73
233.797	6.65
234.013	5.98
234.23	6.76
234.446	6
234.662	4.52
234.879	4.22
235.095	6.07
235.312	7.2
235.528	9.1
235.744	9.02
235.961	9.5
236.177	11.81
236.393	12.74
236.61	11.42
236.826	11.94
237.042	11.49
237.258	11.73
237.475	11.83
237.691	11.41
237.907	9
238.123	9.49
238.339	7.79
238.556	7.62
238.772	7.07
238.988	8.97
239.204	8.44
239.42	9.63
239.636	7.97
239.853	7.49
240.069	7.52
240.285	8.28
240.501	6.77
240.717	6.76
240.933	5.8
241.149	6
241.365	4.91
241.581	4.8
241.797	4.45
242.013	4.65
242.229	4.22
242.445	4.12
242.661	3.35
242.877	3
243.093	3.24
243.309	3.18
243.525	3.3
243.741	4.06
243.957	3.86
244.173	4.17
244.388	4.18
244.604	4.22
244.82	3.91
245.036	4.42
245.252	5.15
245.468	5.28
245.683	4.81
245.899	4.77
246.115	4.61
246.331	5.29
246.547	5.03
246.762	5.17
246.978	5.49
247.194	5.54
247.409	5.6
247.625	5.64
247.841	5.54
248.057	5.8
248.272	5.66
248.488	5.51
248.703	5.15
248.919	5.45
249.135	5.31
249.35	5.06
249.566	5.65
249.782	5.36
249.997	5.45
250.213	4.95
250.428	5.15
250.644	5.44
250.859	4.97
251.075	5.49
251.29	5.31
251.506	5.6
251.721	5.48
251.937	4.74
252.152	4.94
252.368	4.82
252.583	4.91
252.798	4.74
253.014	4.39
253.229	4.88
253.445	4.68
253.66	4.65
253.875	4.7
254.091	4.29
254.306	5.24
254.521	5.07
254.737	4.82
254.952	5.22
255.167	4.83
255.383	4.77
255.598	4.46
255.813	4.35
256.028	4.1
256.244	3.39
256.459	3.37
256.674	2.19
256.889	1.98
257.104	2.41
257.32	2.4
257.535	2.1
257.75	2.74
257.965	3.46
258.18	3.61
258.395	3.12
258.61	3.72
258.826	3.94
259.041	3.98
259.256	4.16
259.471	3.85
259.686	3.92
259.901	3.96
260.116	4.1
260.331	3.86
260.546	3.65
260.761	3.62
260.976	3.09
261.191	2.74
261.406	3.09
261.621	2.83
261.836	3.12
262.05	3.18
262.265	3.36
262.48	2.25
262.695	2.03
262.91	2.17
263.125	2.91
263.34	3.41
263.555	4.17
263.769	3.28
263.984	3.54
264.199	3.8
264.414	3.01
264.629	3.3
264.843	3.55
265.058	3.37
265.273	3.59
265.488	3.72
265.702	3.73
265.917	3.39
266.132	3.55
266.346	3.37
266.561	3.19
266.776	3.21
266.99	3.33
267.205	3.89
267.42	3.95
267.634	3.8
267.849	3.82
268.063	3.83
268.278	3.79
268.492	3.66
268.707	3.79
268.922	3.71
269.136	4.13
269.351	3.97
269.565	3.91
269.78	3.84
269.994	3.48
270.209	3.2
270.423	2.94
270.637	2.71
270.852	2.86
271.066	2.82
271.281	2.57
271.495	2.67
271.709	2.5
271.924	2.6
272.138	2.87
272.353	3.16
272.567	3.52
272.781	3.79
272.996	4.28
273.21	4.42
273.424	4.36
273.638	4.54
273.853	4.23
274.067	4.44
274.281	4
274.495	3.99
274.71	3.61
274.924	3.1
275.138	2.94
275.352	2.46
275.566	2.43
275.781	2.84
275.995	2.72
276.209	3.02
276.423	2.96
276.637	3.41
276.851	3.29
277.065	3.86
277.279	3.82
277.493	3.83
277.707	3.96
277.921	4.02
278.135	4.22
278.349	4.09
278.563	4.14
278.777	3.8
278.991	3.45
279.205	3.08
279.419	2.71
279.633	2.62
279.847	3.09
280.061	2.85
280.275	2.69
280.489	2.53
280.703	2.75
280.917	2.42
281.131	2.88
281.344	2.94
281.558	3.07
281.772	3.48
281.986	3.67
282.2	3.07
282.414	2.89
282.627	2.89
282.841	3
283.055	2.8
283.269	2.99
283.482	2.88
283.696	3.12
283.91	3.51
284.123	3.02
284.337	2.88
284.551	3.18
284.764	3.67
284.978	3.7
285.192	3.21
285.405	3.44
285.619	3.42
285.833	3.44
286.046	3.58
286.26	3.41
286.473	3.42
286.687	3.7
286.9	3.45
287.114	3.8
287.327	3.84
287.541	3.85
287.754	3.6
287.968	3.57
288.181	3.23
288.395	2.97
288.608	2.97
288.822	3.28
289.035	3.12
289.248	3.35
289.462	2.76
289.675	2.79
289.889	3.34
290.102	3.68
290.315	3.71
290.529	3.84
290.742	3.89
290.955	4.04
291.169	3.69
291.382	4.05
291.595	3.93
291.808	4.03
292.022	4.01
292.235	3.32
292.448	3.43
292.661	3.24
292.875	3.13
293.088	3.3
293.301	3.01
293.514	3.21
293.727	3.15
293.94	3.59
294.153	3.5
294.367	3.53
294.58	3.69
294.793	3.52
295.006	3.83
295.219	3.95
295.432	3.73
295.645	4.01
295.858	4.04
296.071	3.73
296.284	3.64
296.497	3.76
296.71	3.78
296.923	4.12
297.136	4.14
297.349	4.31
297.562	4.58
297.775	4.58
297.988	4.49
298.201	4.55
298.414	4.58
298.626	4.57
298.839	4.8
299.052	5.06
299.265	5.06
299.478	5.23
299.691	5.47
299.903	5.29
300.116	5.46
300.329	5.52
300.542	5.97
300.755	6.38
300.967	6.1
301.18	6.08
301.393	5.8
301.605	5.7
301.818	5.58
302.031	5.06
302.243	5.41
302.456	5.76
302.669	6.14
302.881	5.73
303.094	5.59
303.307	6.11
303.519	5.92
303.732	6.23
303.944	6.36
304.157	6.52
304.37	6.89
304.582	6.69
304.795	6.21
305.007	5.25
305.22	5.41
305.432	5.21
305.645	5.25
305.857	5.81
306.069	5.44
306.282	5.05
306.494	4.95
306.707	4.56
306.919	4.45
307.132	4.79
307.344	5.72
307.556	5.88
307.769	6.15
307.981	6.4
308.193	6.2
308.406	6.36
308.618	6.82
308.83	6.94
309.043	7.21
309.255	7.4
309.467	7.3
309.679	7.33
309.892	7.47
310.104	7.49
310.316	7.39
310.528	7.14
310.74	7.2
310.953	6.96
311.165	6.91
311.377	6.82
311.589	7.09
311.801	7.36
312.013	7.08
312.225	7.1
312.437	7.18
312.649	7.29
312.862	7.44
313.074	7.62
313.286	7.49
313.498	7.63
313.71	7.82
313.922	7.49
314.134	6.85
314.346	7.08
314.558	6.75
314.77	6.78
314.982	6.28
315.193	6.22
315.405	6.26
315.617	6.64
315.829	6.19
316.041	6.05
316.253	6.21
316.465	6.75
316.677	6.58
316.888	6.57
317.1	6.12
317.312	6.67
317.524	6.67
317.736	6.83
317.947	7.03
318.159	8.01
318.371	7.73
318.583	7.84
318.794	7.54
319.006	7.82
319.218	7.8
319.43	8.39
319.641	8.36
319.853	8.48
320.064	8.29
320.276	8.14
320.488	7.76
320.699	7.96
320.911	7.67
321.123	7.91
321.334	8.09
321.546	8.73
321.757	8.83
321.969	8.91
322.18	9.1
322.392	8.88
322.603	8.99
322.815	8.76
323.026	8.87
323.238	8.86
323.449	8.52
323.661	8.15
323.872	7.7
324.083	7.41
324.295	7.01
324.506	6.95
324.718	6.98
324.929	7.02
325.14	7.07
325.352	6.96
325.563	7.34
325.774	7.82
325.986	7.95
326.197	8.27
326.408	8.36
326.62	8.61
326.831	8.92
327.042	9.36
327.253	9.88
327.464	10.44
327.676	10.87
327.887	10.79
328.098	10.63
328.309	11.09
328.52	11.25
328.732	11.57
328.943	11.69
329.154	11.9
329.365	12.37
329.576	12.19
329.787	12.03
329.998	12.25
330.209	12.67
330.42	12.97
330.631	13.2
330.842	13.46
331.053	13.45
331.264	13.56
331.475	13.67
331.686	13.23
331.897	13.27
332.108	13.26
332.319	13.31
332.53	12.99
332.741	13.3
332.952	12.98
333.163	12.95
333.374	13.16
333.585	13.23
333.795	12.95
334.006	12.97
334.217	12.97
334.428	12.88
334.639	13.08
334.849	13.41
335.06	13.23
335.271	13.78
335.482	13.85
335.692	14.03
335.903	14.48
336.114	14.71
336.325	14.74
336.535	14.57
336.746	14.68
336.957	14.75
337.167	14.8
337.378	14.9
337.589	14.88
337.799	14.59
338.01	14.61
338.22	14.65
338.431	14.84
338.642	14.73
338.852	14.92
339.063	15.15
339.273	14.83
339.484	15.04
339.694	15.14
339.905	14.76
340.115	15.34
340.326	15.03
340.536	15.08
340.746	14.88
340.957	15.21
341.167	15.37
341.378	15.07
341.588	15.23
341.799	15.08
342.009	14.84
342.219	15.04
342.43	14.72
342.64	14.73
342.85	14.67
343.061	14.68
343.271	14.56
343.481	14.7
343.691	14.82
343.902	14.92
344.112	15.14
344.322	15.35
344.532	15.3
344.743	15.64
344.953	15.84
345.163	15.67
345.373	15.62
345.583	15.61
345.793	15.29
346.004	15.33
346.214	15.18
346.424	14.79
346.634	14.66
346.844	14.75
347.054	14.26
347.264	14.09
347.474	13.86
347.684	13.84
347.894	13.95
348.104	13.99
348.314	14
348.524	14.06
348.734	14.04
348.944	14.23
349.154	14.25
349.364	14.47
349.574	14.6
349.784	14.6
349.994	14.76
350.204	14.85
350.413	15.05
350.623	15.21
350.833	15.1
351.043	15.25
351.253	15.3
351.463	15.1
351.672	14.82
351.882	14.88
352.092	14.75
352.302	14.47
352.511	14.34
352.721	14.23
352.931	13.88
353.141	14.3
353.35	14.13
353.56	14.11
353.77	14.23
353.979	14.35
354.189	14.21
354.399	14.5
354.608	14.6
354.818	14.69
355.027	14.7
355.237	14.96
355.447	14.68
355.656	14.81
355.866	14.92
356.075	14.89
356.285	14.7
356.494	14.87
356.704	14.74
356.913	14.68
357.123	14.46
357.332	14.45
357.542	14.36
357.751	14.3
357.96	14.21
358.17	13.9
358.379	13.81
358.589	13.96
358.798	13.75
359.007	13.79
359.217	13.87
359.426	14.04
359.635	14.03
359.845	14.14
360.054	14.23
360.263	14.31
360.472	14.66
360.682	14.74
360.891	14.77
361.1	14.75
361.309	14.89
361.519	15.01
361.728	14.92
361.937	14.71
362.146	14.64
362.355	14.74
362.564	14.7
362.774	14.56
362.983	14.42
363.192	14.36
363.401	14.42
363.61	14.16
363.819	13.86
364.028	13.7
364.237	13.82
364.446	14.13
364.655	13.98
364.864	13.96
365.073	13.94
365.282	13.9
365.491	13.82
365.7	13.95
365.909	13.93
366.118	13.88
366.327	13.9
366.536	14.13
366.745	13.68
366.954	13.55
367.162	13.28
367.371	13.27
367.58	13.42
367.789	13.22
367.998	12.74
368.207	12.7
368.415	12.82
368.624	12.92
368.833	12.66
369.042	12.47
369.25	12.52
369.459	12.78
369.668	12.56
369.877	12.29
370.085	12.58
370.294	12.84
370.503	12.73
370.711	12.67
370.92	12.43
371.129	12.52
371.337	12.5
371.546	12.51
371.754	12.34
371.963	12.38
372.171	12.48
372.38	12.36
372.589	12.32
372.797	12.18
373.006	12.01
373.214	12.2
373.423	11.93
373.631	11.81
373.84	11.34
374.048	11.3
374.256	11.16
374.465	11.05
374.673	11.2
374.882	11.04
375.09	11.18
375.298	11.27
375.507	11.3
375.715	11.13
375.923	11.16
376.132	11.51
376.34	11.65
376.548	11.42
376.757	11.2
376.965	11.09
377.173	11.24
377.381	11.42
377.59	11.44
377.798	11.33
378.006	11.56
378.214	11.44
378.423	11.24
378.631	11.07
378.839	11.15
379.047	11.33
379.255	11.37
379.463	11.29
379.671	11.12
379.879	10.94
380.088	10.79
380.296	11.01
380.504	11.28
380.712	11.39
380.92	11.27
381.128	11.31
381.336	11.57
381.544	11.31
381.752	11.15
381.96	10.94
382.168	10.92
382.376	11.21
382.584	10.81
382.791	10.94
382.999	10.93
383.207	11.1
383.415	11.15
383.623	10.98
383.831	11.13
384.039	11.19
384.247	11.5
384.454	11.65
384.662	11.27
384.87	11.22
385.078	10.89
385.285	10.89
385.493	10.85
385.701	10.6
385.909	10.4
386.116	10.33
386.324	10.56
386.532	10.14
386.739	10.04
386.947	10.12
387.155	10.13
387.362	10.32
387.57	10.13
387.778	10.15
387.985	10.13
388.193	10.22
388.4	10.15
388.608	9.91
388.816	9.93
389.023	9.93
389.231	9.95
389.438	10.01
389.646	9.9
389.853	9.99
390.061	9.97
390.268	10.15
390.475	10
390.683	9.95
390.89	9.82
391.098	10.05
391.305	9.95
391.512	10.02
391.72	9.91
391.927	9.79
392.135	9.59
392.342	9.34
392.549	9.21
392.756	9.18
392.964	9.07
393.171	9.13
393.378	8.97
393.586	8.9
393.793	8.87
394	8.96
394.207	9.07
394.414	9.28
394.622	9.27
394.829	9.34
395.036	9.42
395.243	9.53
395.45	9.49
395.657	9.51
395.864	9.75
396.072	9.78
396.279	9.73
396.486	9.74
396.693	9.64
396.9	9.63
397.107	9.53
397.314	9.6
397.521	9.65
397.728	9.35
397.935	9.31
398.142	8.94
398.349	8.71
398.556	8.69
398.763	8.67
398.97	8.72
399.177	8.72
399.383	8.83
399.59	8.5
399.797	8.62
400.004	8.92
400.211	8.95
400.418	9.09
400.625	9.31
400.831	9.43
401.038	9.31
401.245	9.26
401.452	9.41
401.658	9.15
401.865	9.24
402.072	8.97
402.279	9.03
402.485	9.04
402.692	9.1
402.899	9
403.105	8.87
403.312	8.83
403.519	8.83
403.725	8.77
403.932	9.2
404.138	9.32
404.345	9.47
404.552	9.49
404.758	9.52
404.965	9.46
405.171	9.51
405.378	9.65
405.584	9.75
405.791	9.64
405.997	9.64
406.204	9.44
406.41	9.43
406.617	9.32
406.823	9.12
407.029	9.06
407.236	9.13
407.442	8.89
407.649	8.71
407.855	8.6
408.061	8.66
408.268	8.57
408.474	8.4
408.68	8.47
408.887	8.41
409.093	8.35
409.299	8.5
409.505	8.44
409.712	8.59
409.918	8.64
410.124	8.75
410.33	8.76
410.537	8.73
410.743	8.8
410.949	8.69
411.155	8.6
411.361	8.64
411.567	8.36
411.773	8.19
411.98	8.17
412.186	8.17
412.392	8.07
412.598	8.15
412.804	8.54
413.01	8.52
413.216	8.33
413.422	8.61
413.628	8.71
413.834	8.73
414.04	8.86
414.246	8.68
414.452	8.63
414.658	8.73
414.864	8.63
415.07	8.38
415.275	8.54
415.481	8.75
415.687	8.6
415.893	8.43
416.099	8.52
416.305	8.62
416.511	8.75
416.716	8.75
416.922	8.7
417.128	8.72
417.334	8.75
417.539	8.72
417.745	8.76
417.951	8.83
418.157	8.91
418.362	8.94
418.568	9.01
418.774	9.09
418.979	9.09
419.185	9.1
419.391	9.11
419.596	9.1
419.802	9.07
420.008	9.1
420.213	9.09
420.419	9.14
420.624	9.13
420.83	9.04
421.035	9.05
421.241	9.07
421.446	9.04
421.652	9.06
421.857	9.05
422.063	9.02
422.268	8.98
422.474	8.95
422.679	8.96
422.885	8.89
423.09	8.88
423.295	8.8
423.501	8.86
423.706	8.86
423.911	8.81
424.117	8.85
424.322	8.92
424.527	8.87
424.733	8.83
424.938	8.73
425.143	8.73
425.349	8.76
425.554	8.74
425.759	8.69
425.964	8.66
426.169	8.71
426.375	8.64
426.58	8.6
426.785	8.58
426.99	8.58
427.195	8.54
427.4	8.58
427.605	8.44
427.811	8.49
428.016	8.32
428.221	8.35
428.426	8.17
428.631	8.15
428.836	8.12
429.041	8.09
429.246	8.05
429.451	8.19
429.656	8.17
429.861	8.2
430.066	8.16
430.271	8.4
430.476	8.33
430.681	8.39
430.886	8.35
431.09	8.3
431.295	8.4
431.5	8.34
431.705	8.33
431.91	8.34
432.115	8.29
432.32	8.28
432.524	8.06
432.729	8.1
432.934	8.2
433.139	8.27
433.343	8.24
433.548	8.22
433.753	8.3
433.958	8.31
434.162	8.45
434.367	8.56
434.572	8.57
434.776	8.69
434.981	8.72
435.186	8.75
435.39	8.76
435.595	8.92
435.799	8.91
436.004	9.03
436.209	8.91
436.413	8.72
436.618	8.66
436.822	8.62
437.027	8.47
437.231	8.44
437.436	8.36
437.64	8.34
437.845	8.19
438.049	8.21
438.253	8.12
438.458	8.28
438.662	8.33
438.867	8.34
439.071	8.47
439.275	8.64
439.48	8.62
439.684	8.59
439.888	8.66
440.093	8.73
440.297	8.69
440.501	8.68
440.706	8.61
440.91	8.66
441.114	8.68
441.318	8.68
441.523	8.62
441.727	8.63
441.931	8.67
442.135	8.63
442.339	8.57
442.543	8.57
442.748	8.51
442.952	8.54
443.156	8.46
443.36	8.41
443.564	8.33
443.768	8.28
443.972	8.24
444.176	8.25
444.38	8.3
444.584	8.25
444.788	8.31
444.992	8.39
445.196	8.38
445.4	8.41
445.604	8.43
445.808	8.48
446.012	8.49
446.216	8.53
446.42	8.56
446.624	8.49
446.828	8.53
447.032	8.46
447.235	8.45
447.439	8.51
447.643	8.46
447.847	8.46
448.051	8.37
448.254	8.36
448.458	8.31
448.662	8.28
448.866	8.16
449.069	8.19
449.273	8.13
449.477	8.1
449.681	7.89
449.884	7.92
450.088	7.87
450.292	7.93
450.495	7.93
450.699	7.86
450.902	7.77
451.106	7.9
451.31	7.77
451.513	7.89
451.717	7.83
451.92	7.88
452.124	7.86
452.327	7.91
452.531	7.86
452.734	7.87
452.938	7.87
453.141	7.83
453.345	7.76
453.548	7.83
453.752	7.83
453.955	7.95
454.158	7.94
454.362	7.86
454.565	7.72
454.769	7.77
454.972	7.71
455.175	7.7
455.379	7.62
455.582	7.61
455.785	7.53
455.988	7.46
456.192	7.32
456.395	7.22
456.598	7.19
456.801	7.29
457.005	7.26
457.208	7.33
457.411	7.31
457.614	7.45
457.817	7.53
458.021	7.51
458.224	7.56
458.427	7.56
458.63	7.6
458.833	7.68
459.036	7.67
459.239	7.69
459.442	7.72
459.645	7.84
459.848	7.84
460.051	7.9
460.254	7.93
460.457	7.91
460.66	7.95
460.863	8.06
461.066	8
461.269	8.08
461.472	8.09
461.675	8.1
461.878	8.1
462.081	8.04
462.284	7.97
462.486	7.98
462.689	8.07
462.892	8.05
463.095	7.97
463.298	8.02
463.5	7.8
463.703	7.64
463.906	7.59
464.109	7.43
464.311	7.44
464.514	7.42
464.717	7.52
464.92	7.39
465.122	7.38
465.325	7.47
465.528	7.64
465.73	7.81
465.933	8.03
466.135	7.97
466.338	8.15
466.541	8.3
466.743	8.26
466.946	8.17
467.148	8.24
467.351	8.28
467.553	8.23
