Data from 2938732__Reflection_02.txt Node
Date: Sun Mar 15 18:44:42 EDT 2015
User: robert
Spectrometer: USB4E03002
Autoset integration time: false
Trigger mode: 4
Integration Time (sec): 1.000000E-1
Scans to average: 10
Electric dark correction enabled: false
Nonlinearity correction enabled: false
Boxcar width: 5
Stray light correction enabled: false
XAxis mode: Wavelengths
Stop averaging: false
Number of Pixels in Spectrum: 3648
>>>>>Begin Spectral Data<<<<<
177.575	-87.95
177.794	220
178.014	547.37
178.233	-2500
178.452	-720
178.672	-45.95
178.891	76.36
179.11	110.94
179.33	549.32
179.549	505.36
179.768	242.8
179.987	209.15
180.207	117.05
180.426	156.02
180.645	296
180.864	281.36
181.084	187.34
181.303	162.91
181.522	225.99
181.741	131.91
181.96	170.72
182.179	370
182.398	83.67
182.618	-134.92
182.837	50.4
183.056	68.67
183.275	-220.37
183.494	-183.19
183.713	-8.24
183.932	-28.22
184.151	24.7
184.37	26.68
184.589	-42.14
184.808	75.31
185.027	243.9
185.246	34.44
185.465	16.33
185.684	-19.31
185.903	-86.54
186.122	-74.44
186.341	-209.78
186.56	-28.37
186.779	-484.76
186.998	1509.76
187.216	243.83
187.435	171.66
187.654	161.49
187.873	111.59
188.092	159.51
188.311	206.42
188.53	181.9
188.748	235.93
188.967	119.07
189.186	96.35
189.405	53.79
189.623	138.1
189.842	527.59
190.061	338.55
190.28	319.28
190.498	11300
190.717	-5480
190.936	122.4
191.154	101.29
191.373	71.72
191.592	123.02
191.81	132.66
192.029	139.46
192.248	195.68
192.466	283.48
192.685	81.64
192.904	122.83
193.122	118.55
193.341	417.31
193.559	191.74
193.778	213.1
193.996	143.62
194.215	51.23
194.433	-63.84
194.652	-25.48
194.87	-32.79
195.089	-2.79
195.307	-13.66
195.526	-13.51
195.744	25.1
195.963	99.02
196.181	55.74
196.399	16.45
196.618	-72.86
196.836	-1220
197.055	-13.39
197.273	-24.54
197.491	7.67
197.71	50.57
197.928	63.42
198.146	158.06
198.365	2771.43
198.583	283.75
198.801	633.33
199.019	197.5
199.238	8.09
199.456	-139.6
199.674	-55.93
199.892	-57.41
200.111	-140.18
200.329	391.38
200.547	-353.98
200.765	-123.91
200.983	-150.5
201.202	-34.11
201.42	28.01
201.638	35.61
201.856	38.81
202.074	41.04
202.292	53.46
202.51	32.2
202.728	26.1
202.946	53.68
203.165	57.98
203.383	66.09
203.601	43.53
203.819	34.05
204.037	46.19
204.255	43.04
204.473	78.96
204.691	139.89
204.909	145.83
205.127	-714.29
205.345	-97.5
205.562	52.69
205.78	71.62
205.998	57.92
206.216	105.03
206.434	60.6
206.652	39.78
206.87	100.65
207.088	86.11
207.306	-32.98
207.523	4.96
207.741	94.96
207.959	-94.32
208.177	79.22
208.395	96.8
208.612	326.32
208.83	61.64
209.048	135.9
209.266	124.53
209.483	59.04
209.701	-9.04
209.919	10.83
210.136	81.59
210.354	80
210.572	116.2
210.79	75.54
211.007	78.9
211.225	64.7
211.442	51.54
211.66	65.05
211.878	56.93
212.095	-70.82
212.313	-74.53
212.53	-125
212.748	-200.69
212.966	-163.16
213.183	-106.71
213.401	-88.27
213.618	-77.97
213.836	-160.53
214.053	-154.12
214.271	-146.13
214.488	44.58
214.705	25.71
214.923	13.1
215.14	9.4
215.358	-3.17
215.575	-29.58
215.793	-56.28
216.01	-66.95
216.227	-2.03
216.445	-17.79
216.662	-24.37
216.879	-56.14
217.097	-98.43
217.314	-239.02
217.531	-84.84
217.749	-72.68
217.966	-130.11
218.183	-43.67
218.4	-38.49
218.618	-120
218.835	-58.48
219.052	-24.26
219.269	-18.98
219.487	3.59
219.704	12.24
219.921	-3.49
220.138	-5.61
220.355	-8.58
220.572	-14.39
220.79	-1.87
221.007	-3.13
221.224	-4.76
221.441	-14.67
221.658	-3.2
221.875	-16.43
222.092	-9.6
222.309	-2.54
222.526	-15.9
222.743	-9.95
222.96	-23.02
223.177	-39.91
223.394	-31.51
223.611	-35.86
223.828	-26.12
224.045	-50.55
224.262	-41.31
224.479	-37.29
224.696	-37.67
224.913	-36.34
225.13	-26.17
225.347	-16.7
225.564	-25.54
225.781	-22.46
225.997	-10.23
226.214	-11.84
226.431	-4.77
226.648	-3.65
226.865	-3.66
227.082	-3.37
227.298	-1.93
227.515	-3.68
227.732	-4.46
227.949	-1.68
228.165	-1.74
228.382	-4.25
228.599	-5.7
228.816	-4.58
229.032	-4.54
229.249	-4.37
229.466	-5.23
229.682	-4.47
229.899	-5.63
230.116	-5.45
230.332	-5.99
230.549	-7.06
230.765	-5.55
230.982	-3.58
231.199	-4.87
231.415	-3.73
231.632	-3.35
231.848	-3.87
232.065	-6.97
232.281	-5.54
232.498	-6.04
232.714	-5.99
232.931	-4.81
233.147	-7.44
233.364	-7.19
233.58	-6.32
233.797	-7.86
234.013	-9
234.23	-7.72
234.446	-8.99
234.662	-8.38
234.879	-9.05
235.095	-7.67
235.312	-8.15
235.528	-7.69
235.744	-10.55
235.961	-13.26
236.177	-16.57
236.393	-15.6
236.61	-13.31
236.826	-9.96
237.042	-11.33
237.258	-10.01
237.475	-12.93
237.691	-13.58
237.907	-11.48
238.123	-9.71
238.339	-11.24
238.556	-6.35
238.772	-5.99
238.988	-7.34
239.204	-6.39
239.42	-7.06
239.636	-6.17
239.853	-4.15
240.069	-4.31
240.285	-6.67
240.501	-6.07
240.717	-4.51
240.933	-4.8
241.149	-4.06
241.365	-5.1
241.581	-5.23
241.797	-3.66
242.013	-4.39
242.229	-5.12
242.445	-4.76
242.661	-3.91
242.877	-3.88
243.093	-4.43
243.309	-4.49
243.525	-5.17
243.741	-4.44
243.957	-4.8
244.173	-6.02
244.388	-4.61
244.604	-2.51
244.82	-1.99
245.036	-1.54
245.252	-1.5
245.468	-0.32
245.683	0.28
245.899	0.66
246.115	1.07
246.331	1.53
246.547	2.06
246.762	1.95
246.978	1.55
247.194	1.52
247.409	1.38
247.625	1.67
247.841	1.4
248.057	1.06
248.272	0.23
248.488	-0.17
248.703	-0.59
248.919	-0.87
249.135	-1.66
249.35	-2.5
249.566	-2.13
249.782	-2.88
249.997	-3.74
250.213	-4
250.428	-4.27
250.644	-3.05
250.859	-2.55
251.075	-2.08
251.29	-2.88
251.506	-3.15
251.721	-3.61
251.937	-5.4
252.152	-5.23
252.368	-5.42
252.583	-4.53
252.798	-5.11
253.014	-5.22
253.229	-5.86
253.445	-6.31
253.66	-5.17
253.875	-5
254.091	-5.04
254.306	-3.69
254.521	-2.71
254.737	-2.77
254.952	-4.88
255.167	-4.13
255.383	-4.28
255.598	-3.81
255.813	-3.75
256.028	-4.56
256.244	-3.9
256.459	-3.3
256.674	-2.9
256.889	-3.03
257.104	-1.99
257.32	-1.07
257.535	-0.29
257.75	0.82
257.965	0.54
258.18	0.81
258.395	0.89
258.61	0.99
258.826	1.2
259.041	0.73
259.256	0.44
259.471	0.77
259.686	0.82
259.901	0.65
260.116	0.4
260.331	0.44
260.546	0.27
260.761	0.22
260.976	-0.23
261.191	-0.07
261.406	0.24
261.621	0.62
261.836	-0.04
262.05	-0.59
262.265	-0.62
262.48	-0.72
262.695	-1.08
262.91	-0.48
263.125	-0.8
263.34	-0.17
263.555	-1.18
263.769	-1.84
263.984	-2.26
264.199	-2.4
264.414	-1.36
264.629	-1.65
264.843	-1.94
265.058	-1.28
265.273	-1.99
265.488	-1.35
265.702	-2.04
265.917	-1.96
266.132	-1.42
266.346	-1.81
266.561	-1.36
266.776	-1.29
266.99	-1.59
267.205	-1.07
267.42	-1.59
267.634	-1.72
267.849	-2.31
268.063	-2.13
268.278	-1.92
268.492	-2.55
268.707	-2.35
268.922	-2.21
269.136	-2.12
269.351	-1.41
269.565	-1.38
269.78	-0.21
269.994	-0.12
270.209	0.3
270.423	0.7
270.637	0.36
270.852	1.07
271.066	1.08
271.281	1.22
271.495	1.06
271.709	0.51
271.924	0.45
272.138	-0.29
272.353	-0.17
272.567	-0.39
272.781	-0.39
272.996	-0.09
273.21	0.08
273.424	-0.05
273.638	0.08
273.853	0.02
274.067	0.33
274.281	-0.39
274.495	-0.52
274.71	-0.69
274.924	-0.49
275.138	-0.66
275.352	-0.23
275.566	-0.87
275.781	-0.61
275.995	-1.52
276.209	-1.41
276.423	-1.85
276.637	-1.87
276.851	-1.5
277.065	-0.8
277.279	-1.15
277.493	-1.16
277.707	-2
277.921	-2.38
278.135	-2.96
278.349	-2.55
278.563	-3.97
278.777	-4.07
278.991	-3.93
279.205	-3.78
279.419	-3.66
279.633	-3.66
279.847	-3.57
280.061	-3.06
280.275	-2.46
280.489	-2.4
280.703	-2.48
280.917	-1.15
281.131	-0.36
281.344	0.14
281.558	0.37
281.772	-0.31
281.986	-0.12
282.2	0.11
282.414	0
282.627	-0.03
282.841	-0.07
283.055	-0.23
283.269	-0.55
283.482	-0.91
283.696	-1.15
283.91	-1.11
284.123	-1.26
284.337	-0.94
284.551	-0.88
284.764	-0.38
284.978	-0.07
285.192	0.22
285.405	0.59
285.619	0.87
285.833	1.14
286.046	1.19
286.26	0.87
286.473	0.78
286.687	0.56
286.9	0.24
287.114	0.05
287.327	-0.28
287.541	-0.33
287.754	-0.36
287.968	-0.81
288.181	-1.43
288.395	-1.45
288.608	-1.16
288.822	-0.51
289.035	-0.63
289.248	-0.23
289.462	-0.22
289.675	-0.49
289.889	-0.16
290.102	-0.5
290.315	-0.72
290.529	-0.18
290.742	-0.34
290.955	-0.47
291.169	-0.87
291.382	-0.27
291.595	-0.67
291.808	-1.1
292.022	-0.98
292.235	-1.17
292.448	-1.07
292.661	-0.83
292.875	-1.6
293.088	-1.49
293.301	-1.54
293.514	-0.97
293.727	-1.81
293.94	-1.3
294.153	-0.87
294.367	-0.85
294.58	-1.16
294.793	-0.88
295.006	-0.67
295.219	-0.13
295.432	-0.06
295.645	-0.01
295.858	-0.26
296.071	-0.21
296.284	-0.31
296.497	-0.23
296.71	-0.13
296.923	0.13
297.136	0.14
297.349	0.19
297.562	0.1
297.775	0.25
297.988	0.23
298.201	0.39
298.414	0.51
298.626	0.41
298.839	0.34
299.052	0.55
299.265	0.39
299.478	0.33
299.691	0.62
299.903	0.63
300.116	0.56
300.329	0.62
300.542	0.59
300.755	0.82
300.967	1.01
301.18	0.51
301.393	0.14
301.605	0.53
301.818	0.27
302.031	-0.17
302.243	-0.07
302.456	-0.17
302.669	-0.22
302.881	-0.67
303.094	-0.6
303.307	-0.79
303.519	-0.35
303.732	-0.29
303.944	-0.47
304.157	0.1
304.37	-0.02
304.582	0.15
304.795	0.36
305.007	0.51
305.22	1.16
305.432	0.99
305.645	0.89
305.857	0.99
306.069	1.11
306.282	1.32
306.494	0.94
306.707	1.33
306.919	1.03
307.132	0.6
307.344	0.34
307.556	0.36
307.769	0.9
307.981	1.48
308.193	1.17
308.406	0.57
308.618	0.01
308.83	-0.05
309.043	0.02
309.255	-0.02
309.467	0.15
309.679	0.59
309.892	0.48
310.104	0.01
310.316	0.01
310.528	0.03
310.74	0.59
310.953	0.82
311.165	0.54
311.377	0.42
311.589	0.67
311.801	0.87
312.013	0.58
312.225	0.69
312.437	0.8
312.649	0.75
312.862	0.91
313.074	0.9
313.286	0.81
313.498	1.03
313.71	0.89
313.922	0.96
314.134	0.67
314.346	0.81
314.558	0.51
314.77	0.1
314.982	-0.45
315.193	-0.58
315.405	-0.6
315.617	-0.31
315.829	0.22
316.041	-0.09
316.253	-0.03
316.465	0.25
316.677	0.22
316.888	-0.06
317.1	0.97
317.312	1.69
317.524	2.04
317.736	1.84
317.947	1.94
318.159	1.74
318.371	2.02
318.583	1.77
318.794	1.51
319.006	1.66
319.218	2.02
319.43	1.47
319.641	1.06
319.853	0.97
320.064	1.36
320.276	1.2
320.488	0.97
320.699	1.43
320.911	1.32
321.123	1.49
321.334	1.61
321.546	1.5
321.757	1.87
321.969	1.81
322.18	1.67
322.392	1.84
322.603	2.35
322.815	2.71
323.026	2.6
323.238	3.34
323.449	3.24
323.661	2.89
323.872	2.94
324.083	2.46
324.295	2.48
324.506	2.42
324.718	2.41
324.929	2.16
325.14	2.27
325.352	2.6
325.563	2.54
325.774	2.88
325.986	3.15
326.197	3.29
326.408	3.79
326.62	3.69
326.831	3.91
327.042	3.8
327.253	4.51
327.464	4.89
327.676	4.9
327.887	4.46
328.098	4.34
328.309	4.06
328.52	4.28
328.732	4.13
328.943	5.18
329.154	5.26
329.365	5.8
329.576	5.32
329.787	4.88
329.998	5.11
330.209	5.71
330.42	6.28
330.631	7
330.842	7.42
331.053	7.9
331.264	8.02
331.475	8.43
331.686	8.66
331.897	8.69
332.108	9.05
332.319	8.88
332.53	8.98
332.741	9.12
332.952	9.79
333.163	9.58
333.374	9.52
333.585	9.13
333.795	9.29
334.006	9.21
334.217	9.07
334.428	9.58
334.639	9.76
334.849	9.63
335.06	9.8
335.271	9.11
335.482	9.2
335.692	9.56
335.903	9.53
336.114	9.7
336.325	9.74
336.535	9.84
336.746	9.59
336.957	9.61
337.167	9.37
337.378	8.97
337.589	8.79
337.799	8.54
338.01	8.14
338.22	8.9
338.431	8.61
338.642	8.68
338.852	8.94
339.063	8.8
339.273	8.4
339.484	9.26
339.694	9.8
339.905	9.82
340.115	9.82
340.326	10.17
340.536	9.38
340.746	9.64
340.957	9.27
341.167	9.27
341.378	9.54
341.588	10.12
341.799	9.79
342.009	9.16
342.219	9.14
342.43	9.44
342.64	9.22
342.85	9.35
343.061	9.46
343.271	9.55
343.481	9.47
343.691	9.3
343.902	9.14
344.112	9.08
344.322	9.3
344.532	9.08
344.743	9.16
344.953	8.98
345.163	9.19
345.373	8.91
345.583	8.68
345.793	8.57
346.004	8.52
346.214	8.55
346.424	8.53
346.634	8.99
346.844	9.2
347.054	9.12
347.264	9.39
347.474	9.25
347.684	9.34
347.894	9.58
348.104	9.93
348.314	9.93
348.524	9.61
348.734	9.77
348.944	9.37
349.154	10.2
349.364	10.75
349.574	10.64
349.784	10.86
349.994	10.83
350.204	11.06
350.413	11.08
350.623	11.22
350.833	10.97
351.043	10.72
351.253	10.81
351.463	10.02
351.672	9.42
351.882	9.59
352.092	9.45
352.302	9.27
352.511	9.18
352.721	8.92
352.931	8.65
353.141	9.67
353.35	9.82
353.56	9.67
353.77	10.01
353.979	9.98
354.189	9.57
354.399	9.31
354.608	9.35
354.818	9.5
355.027	9.67
355.237	9.78
355.447	9.63
355.656	9.93
355.866	10.09
356.075	10.26
356.285	10.56
356.494	10.87
356.704	11.09
356.913	11.53
357.123	11.08
357.332	10.97
357.542	10.82
357.751	10.74
357.96	10.62
358.17	10.39
358.379	10.38
358.589	10.28
358.798	10.34
359.007	10.26
359.217	9.86
359.426	10.27
359.635	10.6
359.845	11.03
360.054	10.91
360.263	10.65
360.472	10.6
360.682	10.74
360.891	10.41
361.1	10.49
361.309	10.72
361.519	10.83
361.728	10.7
361.937	10.52
362.146	10.38
362.355	10.47
362.564	10.74
362.774	10.88
362.983	10.49
363.192	10.63
363.401	10.61
363.61	10.53
363.819	10.56
364.028	10.74
364.237	10.74
364.446	10.37
364.655	10.07
364.864	9.68
365.073	9.62
365.282	9.64
365.491	9.7
365.7	9.48
365.909	9.38
366.118	9.3
366.327	9
366.536	8.89
366.745	8.96
366.954	8.97
367.162	9.37
367.371	9.73
367.58	9.77
367.789	9.67
367.998	9.87
368.207	9.88
368.415	9.55
368.624	9.67
368.833	9.91
369.042	9.94
369.25	9.85
369.459	9.43
369.668	8.96
369.877	8.97
370.085	8.9
370.294	8.82
370.503	8.73
370.711	8.7
370.92	8.45
371.129	8.48
371.337	8.41
371.546	8.41
371.754	8.45
371.963	8.51
372.171	8.59
372.38	8.64
372.589	8.54
372.797	8.21
373.006	8.42
373.214	8.51
373.423	8.22
373.631	8.13
373.84	8.46
374.048	8.4
374.256	8.37
374.465	8.05
374.673	7.91
374.882	7.78
375.09	7.98
375.298	7.95
375.507	7.88
375.715	7.87
375.923	8.37
376.132	8.3
376.34	8.45
376.548	8.74
376.757	8.68
376.965	8.94
377.173	9.19
377.381	9.12
377.59	9.22
377.798	9.28
378.006	9.03
378.214	9.16
378.423	9.1
378.631	8.98
378.839	8.68
379.047	8.91
379.255	9
379.463	8.93
379.671	9.03
379.879	8.84
380.088	8.8
380.296	9.01
380.504	8.48
380.712	8.52
380.92	8.7
381.128	8.76
381.336	8.46
381.544	8.45
381.752	8.23
381.96	8.05
382.168	8.27
382.376	8.43
382.584	8.74
382.791	8.94
382.999	8.5
383.207	8.37
383.415	8.21
383.623	8.21
383.831	8.06
384.039	8.02
384.247	8.27
384.454	8.4
384.662	8.18
384.87	8.11
385.078	8.21
385.285	8.5
385.493	8.37
385.701	8.54
385.909	8.98
386.116	9.18
386.324	9.37
386.532	9.48
386.739	9.52
386.947	9.72
387.155	9.37
387.362	9.3
387.57	9.15
387.778	9.37
387.985	9.45
388.193	9.5
388.4	9.25
388.608	9.23
388.816	8.67
389.023	8.62
389.231	8.57
389.438	8.49
389.646	8.45
389.853	8.39
390.061	8.47
390.268	8.65
390.475	8.47
390.683	8.63
390.89	8.6
391.098	8.9
391.305	8.51
391.512	8.44
391.72	8.54
391.927	8.61
392.135	8.91
392.342	8.63
392.549	8.41
392.756	8.33
392.964	8.34
393.171	8.26
393.378	8.28
393.586	8.39
393.793	8.57
394	8.69
394.207	8.51
394.414	8.37
394.622	8.39
394.829	8.58
395.036	8.4
395.243	8.34
395.45	8.4
395.657	8.31
395.864	8.21
396.072	8
396.279	8.06
396.486	8.25
396.693	8.27
396.9	8.41
397.107	8.18
397.314	8.19
397.521	7.93
397.728	7.69
397.935	7.64
398.142	7.76
398.349	7.92
398.556	7.72
398.763	7.47
398.97	7.47
399.177	7.65
399.383	7.71
399.59	7.87
399.797	8.28
400.004	8.35
400.211	8.43
400.418	8.49
400.625	8.4
400.831	8.8
401.038	9.08
401.245	9.21
401.452	9.14
401.658	9.04
401.865	9.2
402.072	8.92
402.279	9.31
402.485	9.5
402.692	9.33
402.899	9.35
403.105	9.2
403.312	9.16
403.519	9.09
403.725	9.07
403.932	9.16
404.138	9.12
404.345	9.17
404.552	8.88
404.758	8.56
404.965	8.68
405.171	8.84
405.378	8.73
405.584	8.82
405.791	8.96
405.997	8.81
406.204	8.78
406.41	8.78
406.617	8.68
406.823	8.58
407.029	8.93
407.236	8.84
407.442	8.53
407.649	8.6
407.855	8.41
408.061	8.33
408.268	8.2
408.474	8.22
408.68	8.16
408.887	8.23
409.093	8.28
409.299	8.11
409.505	8.56
409.712	8.91
409.918	8.8
410.124	8.85
410.33	8.64
410.537	8.86
410.743	8.75
410.949	8.62
411.155	8.64
411.361	8.78
411.567	8.89
411.773	8.41
411.98	8.26
412.186	8.42
412.392	8.43
412.598	8.51
412.804	8.46
413.01	8.44
413.216	8.66
413.422	8.65
413.628	8.59
413.834	8.66
414.04	8.89
414.246	8.77
414.452	8.64
414.658	8.5
414.864	8.61
415.07	8.76
415.275	8.91
415.481	8.84
415.687	8.73
415.893	8.75
416.099	8.7
416.305	8.78
416.511	8.77
416.716	8.89
416.922	9.12
417.128	9.07
417.334	8.96
417.539	8.95
417.745	8.98
417.951	9.16
418.157	9.18
418.362	9.23
418.568	9.25
418.774	9.36
418.979	9.41
419.185	9.39
419.391	9.52
419.596	9.64
419.802	9.78
420.008	9.7
420.213	9.68
420.419	9.78
420.624	9.79
420.83	9.75
421.035	9.73
421.241	9.71
421.446	9.75
421.652	9.73
421.857	9.77
422.063	9.77
422.268	9.9
422.474	9.84
422.679	9.87
422.885	9.89
423.09	9.91
423.295	9.98
423.501	9.92
423.706	9.86
423.911	9.83
424.117	9.79
424.322	9.73
424.527	9.76
424.733	9.82
424.938	9.76
425.143	9.66
425.349	9.65
425.554	9.63
425.759	9.71
425.964	9.69
426.169	9.73
426.375	9.69
426.58	9.68
426.785	9.63
426.99	9.62
427.195	9.52
427.4	9.49
427.605	9.54
427.811	9.51
428.016	9.39
428.221	9.44
428.426	9.24
428.631	9.21
428.836	9.11
429.041	8.96
429.246	8.96
429.451	9.03
429.656	9.26
429.861	9.15
430.066	9.18
430.271	9.2
430.476	9.26
430.681	9.23
430.886	9.19
431.09	9.31
431.295	9.36
431.5	9.37
431.705	9.32
431.91	9.14
432.115	9.23
432.32	9.18
432.524	9.26
432.729	9.19
432.934	9.38
433.139	9.5
433.343	9.59
433.548	9.51
433.753	9.65
433.958	9.92
434.162	10.05
434.367	10.18
434.572	10.19
434.776	10.26
434.981	10.35
435.186	10.4
435.39	10.29
435.595	10.25
435.799	10.41
436.004	10.32
436.209	10.29
436.413	10.36
436.618	10.18
436.822	10.24
437.027	10.23
437.231	10.1
437.436	10.06
437.64	10.13
437.845	10.07
438.049	10.07
438.253	10.11
438.458	10.04
438.662	9.97
438.867	10.01
439.071	10.02
439.275	10.02
439.48	10.08
439.684	10.15
439.888	10.17
440.093	10.1
440.297	9.96
440.501	9.92
440.706	9.83
440.91	9.86
441.114	9.89
441.318	9.91
441.523	9.83
441.727	9.83
441.931	9.69
442.135	9.67
442.339	9.76
442.543	9.93
442.748	10.02
442.952	10.17
443.156	10.13
443.36	10.05
443.564	10.06
443.768	10.11
443.972	10.17
444.176	10.25
444.38	10.14
444.584	10.01
444.788	9.93
444.992	9.86
445.196	9.76
445.4	9.88
445.604	9.94
445.808	9.91
446.012	9.91
446.216	9.82
446.42	9.84
446.624	9.88
446.828	10.02
447.032	10.03
447.235	10.1
447.439	10.18
447.643	10.12
447.847	10.08
448.051	10.07
448.254	10.1
448.458	10.19
448.662	10.2
448.866	10.2
449.069	10.23
449.273	10.33
449.477	10.29
449.681	10.19
449.884	10.14
450.088	10.21
450.292	10.24
450.495	10.15
450.699	10.09
450.902	10
451.106	9.97
451.31	9.88
451.513	9.75
451.717	9.6
451.92	9.67
452.124	9.49
452.327	9.36
452.531	9.31
452.734	9.36
452.938	9.5
453.141	9.52
453.345	9.5
453.548	9.48
453.752	9.54
453.955	9.67
454.158	9.56
454.362	9.71
454.565	9.58
454.769	9.63
454.972	9.56
455.175	9.43
455.379	9.39
455.582	9.55
455.785	9.57
455.988	9.45
456.192	9.44
456.395	9.44
456.598	9.43
456.801	9.88
457.005	9.92
457.208	9.93
457.411	9.74
457.614	9.78
457.817	9.61
458.021	9.61
458.224	9.64
458.427	9.63
458.63	9.73
458.833	9.77
459.036	9.57
459.239	9.6
459.442	9.69
459.645	9.87
459.848	9.9
460.051	9.9
460.254	9.85
460.457	9.92
460.66	9.95
460.863	10
461.066	10.02
461.269	10.02
461.472	9.99
461.675	9.92
461.878	9.83
462.081	9.74
462.284	9.72
462.486	9.71
462.689	9.57
462.892	9.57
463.095	9.47
463.298	9.37
463.5	9.42
463.703	9.49
463.906	9.37
464.109	9.21
464.311	9.23
464.514	9.35
464.717	9.5
464.92	9.62
