Data from 2938794__Reflection_02.txt Node
Date: Fri Mar 13 10:51:01 EDT 2015
User: robert
Spectrometer: USB4E03002
Autoset integration time: false
Trigger mode: 4
Integration Time (sec): 1.000000E-1
Scans to average: 10
Electric dark correction enabled: false
Nonlinearity correction enabled: false
Boxcar width: 5
Stray light correction enabled: false
XAxis mode: Wavelengths
Stop averaging: false
Number of Pixels in Spectrum: 3648
>>>>>Begin Spectral Data<<<<<
177.575	127.5
177.794	2042.86
178.014	304.35
178.233	220.88
178.452	175.32
178.672	153.54
178.891	160.22
179.11	136.61
179.33	123.65
179.549	107.51
179.768	97.93
179.987	185.29
180.207	90.57
180.426	91.18
180.645	167.31
180.864	402.44
181.084	-105.22
181.303	-149.44
181.522	-76.84
181.741	-266.22
181.96	-148.3
182.179	-48.18
182.398	-32.13
182.618	-18.18
182.837	-27.61
183.056	17.29
183.275	20.65
183.494	22.22
183.713	35.78
183.932	21.47
184.151	13.95
184.37	21.55
184.589	14.21
184.808	32.12
185.027	35.94
185.246	-13.71
185.465	-227.35
185.684	-69.07
185.903	-7.88
186.122	-91.62
186.341	-158.82
186.56	25
186.779	-37.35
186.998	50.57
187.216	154.69
187.435	42.47
187.654	-33.47
187.873	-30.11
188.092	39.13
188.311	84.62
188.53	80.25
188.748	-212.5
188.967	133.33
189.186	102.33
189.405	76.51
189.623	81.37
189.842	-55.32
190.061	-48.46
190.28	-86.96
190.498	64.71
190.717	76.15
190.936	40
191.154	57
191.373	123.49
191.592	216.86
191.81	177.62
192.029	171.6
192.248	199.2
192.466	353.52
192.685	1678.57
192.904	140.31
193.122	598.18
193.341	-60.8
193.559	-8.89
193.778	2.32
193.996	35.27
194.215	11.16
194.433	11.16
194.652	14.64
194.87	-50.36
195.089	-24.59
195.307	4.81
195.526	0.29
195.744	-13.68
195.963	-15.16
196.181	-1.34
196.399	-30.32
196.618	-2.39
196.836	-19.23
197.055	-44.85
197.273	-55.54
197.491	-101.63
197.71	-123.56
197.928	-161.18
198.146	-200.96
198.365	-1912.5
198.583	1032.08
198.801	309.09
199.019	333.59
199.238	770
199.456	-166.44
199.674	-91.03
199.892	-60.27
200.111	-41.2
200.329	-106.75
200.547	-41.7
200.765	-32.18
200.983	-44.29
201.202	-58.47
201.42	-89.44
201.638	-67.68
201.856	-195.92
202.074	-221.02
202.292	508.06
202.51	-1737.5
202.728	-1237.93
202.946	557.14
203.165	546.25
203.383	-823.08
203.601	-202.96
203.819	-614.55
204.037	-143.53
204.255	-158.4
204.473	-226.27
204.691	-100.5
204.909	-87
205.127	-66.08
205.345	-70.24
205.562	-98.71
205.78	-131.17
205.998	-171.06
206.216	-82.67
206.434	-151.71
206.652	-50
206.87	-68.19
207.088	-78.3
207.306	-126.64
207.523	-91.78
207.741	-66.38
207.959	-56.35
208.177	-89.09
208.395	-100
208.612	-141.92
208.83	-57.03
209.048	-69.4
209.266	-105.24
209.483	-131.58
209.701	-112.16
209.919	-203.03
210.136	-149.78
210.354	-59.55
210.572	-42.06
210.79	-7.66
211.007	-28.97
211.225	-42.07
211.442	-67.59
211.66	-6.55
211.878	22.14
212.095	-11.89
212.313	51.06
212.53	-2
212.748	50.73
212.966	88.03
213.183	199.4
213.401	217.86
213.618	-427.27
213.836	1629.41
214.053	832.26
214.271	-1003.85
214.488	-16.91
214.705	-1.58
214.923	-21.4
215.14	-25.57
215.358	-33.92
215.575	-27.17
215.793	-26.06
216.01	-78.6
216.227	-82.98
216.445	-79.89
216.662	-120.08
216.879	-214.01
217.097	-189.86
217.314	-151.11
217.531	-115.06
217.749	-84.98
217.966	-59.16
218.183	-48.23
218.4	-36.21
218.618	-37.06
218.835	-52.58
219.052	-33.55
219.269	-18.59
219.487	-7.7
219.704	-4.01
219.921	0.2
220.138	5.46
220.355	-4.36
220.572	-2.58
220.79	-6.4
221.007	4.58
221.224	9.48
221.441	3.87
221.658	4.83
221.875	0
222.092	1.53
222.309	3.35
222.526	-5.52
222.743	-10.47
222.96	-12.19
223.177	-6.06
223.394	-9.94
223.611	-10.8
223.828	-8.29
224.045	-9.29
224.262	-15.89
224.479	-14.77
224.696	-13.31
224.913	-10.79
225.13	-3.1
225.347	-0.21
225.564	0.88
225.781	1.31
225.997	-0.35
226.214	-2.65
226.431	-3.19
226.648	-1.45
226.865	-0.43
227.082	1.71
227.298	2.14
227.515	0.06
227.732	-0.3
227.949	-0.06
228.165	-0.22
228.382	0.29
228.599	1.78
228.816	1.81
229.032	1.39
229.249	1.02
229.466	0.58
229.682	0.89
229.899	2.36
230.116	1.84
230.332	1.5
230.549	1.94
230.765	2.91
230.982	1.6
231.199	1.76
231.415	3.18
231.632	3.27
231.848	2.84
232.065	1.94
232.281	0.29
232.498	-1.05
232.714	-2.44
232.931	-3.26
233.147	-4.78
233.364	-4.2
233.58	-3.42
233.797	-4.08
234.013	-4.25
234.23	-4.01
234.446	-2.99
234.662	-3.02
234.879	-1.65
235.095	-1.06
235.312	0.39
235.528	1.7
235.744	1.22
235.961	0.84
236.177	0.93
236.393	1.09
236.61	2.33
236.826	1.45
237.042	1.49
237.258	2.67
237.475	3.67
237.691	3.52
237.907	4.16
238.123	3.09
238.339	3.43
238.556	4.05
238.772	3.03
238.988	1.2
239.204	1.68
239.42	2.4
239.636	2.79
239.853	2.49
240.069	1.32
240.285	0.65
240.501	1.98
240.717	2.17
240.933	1.19
241.149	1.21
241.365	2
241.581	2.02
241.797	2
242.013	1.72
242.229	1.84
242.445	2.09
242.661	2.55
242.877	2.36
243.093	1.88
243.309	2.26
243.525	2.52
243.741	1.74
243.957	1.3
244.173	1.52
244.388	1.23
244.604	0.67
244.82	0.82
245.036	0.12
245.252	0.18
245.468	0.62
245.683	0.86
245.899	0.65
246.115	1.26
246.331	1.77
246.547	1.86
246.762	1.87
246.978	2.11
247.194	2.15
247.409	2.22
247.625	1.9
247.841	1.86
248.057	1.77
248.272	1.9
248.488	1.7
248.703	1.35
248.919	1.21
249.135	1.14
249.35	1.3
249.566	0.96
249.782	0.48
249.997	0.92
250.213	0.61
250.428	0.68
250.644	0.9
250.859	0.84
251.075	1
251.29	1.49
251.506	1.51
251.721	1.08
251.937	1.43
252.152	1.58
252.368	1.5
252.583	1.18
252.798	1.04
253.014	1.1
253.229	1.05
253.445	0.78
253.66	-0.33
253.875	-0.33
254.091	0.48
254.306	-0.19
254.521	0.81
254.737	1.74
254.952	1.71
255.167	1.69
255.383	1.27
255.598	1.53
255.813	1.37
256.028	1.58
256.244	1.05
256.459	0.22
256.674	-0.08
256.889	-1.27
257.104	-1.05
257.32	-0.46
257.535	-1.13
257.75	-0.87
257.965	-0.21
258.18	0.63
258.395	0.49
258.61	0.83
258.826	0.62
259.041	1.17
259.256	1.38
259.471	1.01
259.686	0.99
259.901	1.12
260.116	1.14
260.331	0.95
260.546	0.85
260.761	0.85
260.976	0.78
261.191	0.52
261.406	0.01
261.621	-0.01
261.836	-0.34
262.05	-0.43
262.265	-0.32
262.48	-0.57
262.695	-0.71
262.91	-1.18
263.125	-1.41
263.34	-1.89
263.555	-0.87
263.769	-0.3
263.984	-0.61
264.199	-0.35
264.414	-0.51
264.629	-0.63
264.843	-0.17
265.058	-0.28
265.273	-0.24
265.488	-0.18
265.702	0.23
265.917	0.13
266.132	0.09
266.346	0.05
266.561	0.33
266.776	0.58
266.99	0.71
267.205	0.23
267.42	0.01
267.634	-0.29
267.849	0.34
268.063	0.35
268.278	0.02
268.492	0.11
268.707	0.5
268.922	0.15
269.136	0.6
269.351	0.42
269.565	0.37
269.78	0.45
269.994	0.31
270.209	0.01
270.423	-0.25
270.637	-0.29
270.852	-0.36
271.066	-0.63
271.281	-0.28
271.495	-0.51
271.709	-0.54
271.924	-0.39
272.138	-0.42
272.353	-0.11
272.567	0.17
272.781	0.46
272.996	0.34
273.21	0.44
273.424	0.34
273.638	0.04
273.853	-0.04
274.067	0.23
274.281	0.29
274.495	0.7
274.71	0.88
274.924	0.67
275.138	0.59
275.352	0.33
275.566	0.35
275.781	0.07
275.995	0.27
276.209	0.35
276.423	0.25
276.637	0.47
276.851	0.72
277.065	0.49
277.279	0.41
277.493	0.24
277.707	1.01
277.921	0.56
278.135	1.01
278.349	0.59
278.563	0.71
278.777	0.71
278.991	0.53
279.205	0.09
279.419	-0.01
279.633	-0.4
279.847	0.22
280.061	0.42
280.275	-0.03
280.489	0.02
280.703	0.71
280.917	0.33
281.131	0.53
281.344	0.59
281.558	0.53
281.772	1.05
281.986	1.31
282.2	1.19
282.414	0.93
282.627	1.36
282.841	1.26
283.055	1.26
283.269	1.57
283.482	1.38
283.696	1.52
283.91	1.88
284.123	1.19
284.337	1.03
284.551	1.16
284.764	0.98
284.978	1.01
285.192	1.36
285.405	1.58
285.619	1.4
285.833	1.56
286.046	1.44
286.26	1.36
286.473	1.83
286.687	1.95
286.9	1.58
287.114	1.82
287.327	1.81
287.541	1.66
287.754	1.22
287.968	1.49
288.181	1.41
288.395	1.4
288.608	1.42
288.822	1.34
289.035	1.16
289.248	0.97
289.462	0.84
289.675	0.84
289.889	0.97
290.102	1.21
290.315	1.02
290.529	1.11
290.742	1.15
290.955	1.06
291.169	1.34
291.382	1.43
291.595	1.88
291.808	2.09
292.022	2.62
292.235	2.75
292.448	2.42
292.661	2.65
292.875	2.68
293.088	2.67
293.301	2.67
293.514	2.43
293.727	2.7
293.94	2.74
294.153	2.74
294.367	2.55
294.58	2.26
294.793	2.66
295.006	2.59
295.219	2.47
295.432	2.71
295.645	2.94
295.858	3.12
296.071	3
296.284	2.92
296.497	2.83
296.71	2.77
296.923	3.35
297.136	3.47
297.349	3.31
297.562	3.43
297.775	3.12
297.988	3.27
298.201	3.3
298.414	3.58
298.626	3.65
298.839	3.68
299.052	3.74
299.265	3.31
299.478	3.21
299.691	3.82
299.903	3.83
300.116	4.21
300.329	3.98
300.542	3.67
300.755	3.66
300.967	3.88
301.18	3.91
301.393	4
301.605	3.89
301.818	3.96
302.031	3.51
302.243	3.56
302.456	3.56
302.669	3.83
302.881	3.85
303.094	4.18
303.307	4.17
303.519	4.4
303.732	4.67
303.944	4.64
304.157	4.55
304.37	4.48
304.582	4.67
304.795	4.77
305.007	4.76
305.22	5.27
305.432	4.82
305.645	4.65
305.857	4.8
306.069	4.82
306.282	4.79
306.494	4.89
306.707	5.26
306.919	5.34
307.132	5.23
307.344	5.01
307.556	4.83
307.769	5.14
307.981	5.52
308.193	5.52
308.406	5.19
308.618	5.34
308.83	5.43
309.043	5.35
309.255	5.05
309.467	5.11
309.679	4.95
309.892	4.99
310.104	4.88
310.316	4.65
310.528	4.47
310.74	4.47
310.953	4.24
311.165	4.13
311.377	4.3
311.589	4.66
311.801	4.71
312.013	4.8
312.225	4.66
312.437	4.64
312.649	4.79
312.862	5
313.074	5.27
313.286	5.59
313.498	5.83
313.71	5.4
313.922	5.21
314.134	5.46
314.346	5.68
314.558	5.94
314.77	6.21
314.982	5.96
315.193	5.76
315.405	5.86
315.617	5.93
315.829	5.78
316.041	6.16
316.253	6.02
316.465	5.63
316.677	5.88
316.888	5.69
317.1	5.55
317.312	5.97
317.524	6.55
317.736	6.39
317.947	6.86
318.159	6.96
318.371	6.8
318.583	7.06
318.794	7.52
319.006	7.48
319.218	7.59
319.43	7.62
319.641	7.51
319.853	7.21
320.064	7.64
320.276	7.02
320.488	7.22
320.699	7.15
320.911	7.19
321.123	6.94
321.334	6.25
321.546	6.15
321.757	6.24
321.969	6.74
322.18	7.09
322.392	6.95
322.603	7.51
322.815	7.2
323.026	7.63
323.238	7.34
323.449	7.36
323.661	8.12
323.872	8.58
324.083	8.45
324.295	7.82
324.506	7.7
324.718	7.74
324.929	7.92
325.14	8.07
325.352	8.12
325.563	8.83
325.774	9.11
325.986	9.17
326.197	9.09
326.408	9.62
326.62	10.24
326.831	10.49
327.042	10.82
327.253	11.21
327.464	11.82
327.676	11.95
327.887	11.95
328.098	12.35
328.309	12.53
328.52	12.82
328.732	12.97
328.943	13.36
329.154	13.89
329.365	14.12
329.576	14.17
329.787	14.44
329.998	15.53
330.209	15.73
330.42	15.96
330.631	16.26
330.842	16.62
331.053	16.98
331.264	17.24
331.475	17.24
331.686	17.37
331.897	17.53
332.108	17.6
332.319	17.36
332.53	17.5
332.741	17.74
332.952	17.93
333.163	17.89
333.374	17.95
333.585	18.18
333.795	18.32
334.006	18.23
334.217	18.21
334.428	18.53
334.639	18.61
334.849	18.87
335.06	18.88
335.271	18.9
335.482	19.43
335.692	19.48
335.903	19.39
336.114	19.18
336.325	19.59
336.535	19.83
336.746	19.46
336.957	19.43
337.167	19.43
337.378	19.53
337.589	19.88
337.799	19.74
338.01	19.74
338.22	19.76
338.431	20.17
338.642	19.73
338.852	19.82
339.063	20.02
339.273	20.3
339.484	20.13
339.694	19.9
339.905	19.55
340.115	19.38
340.326	19.14
340.536	19.14
340.746	18.96
340.957	19.32
341.167	19.18
341.378	19.14
341.588	18.91
341.799	19.09
342.009	19.03
342.219	19.2
342.43	19.27
342.64	19.74
342.85	19.72
343.061	19.59
343.271	19.71
343.481	19.74
343.691	19.8
343.902	19.94
344.112	19.88
344.322	19.93
344.532	19.87
344.743	19.91
344.953	19.57
345.163	19.26
345.373	19.32
345.583	18.94
345.793	19.11
346.004	19
346.214	18.93
346.424	18.9
346.634	19.07
346.844	19.07
347.054	19.21
347.264	19.15
347.474	19.34
347.684	19.63
347.894	19.81
348.104	19.71
348.314	19.78
348.524	19.64
348.734	19.88
348.944	19.99
349.154	19.9
349.364	19.83
349.574	19.93
349.784	20.18
349.994	19.92
350.204	19.82
350.413	19.56
350.623	19.55
350.833	19.34
351.043	19.22
351.253	18.92
351.463	18.82
351.672	18.9
351.882	18.8
352.092	18.35
352.302	18.07
352.511	18.36
352.721	18.63
352.931	18.66
353.141	18.91
353.35	18.87
353.56	18.97
353.77	19.05
353.979	18.71
354.189	18.82
354.399	19.22
354.608	19.54
354.818	19.02
355.027	18.88
355.237	18.82
355.447	18.92
355.656	18.98
355.866	18.94
356.075	19.11
356.285	19.46
356.494	19.66
356.704	19.61
356.913	19.51
357.123	19.81
357.332	19.84
357.542	19.76
357.751	19.57
357.96	19.53
358.17	19.69
358.379	19.51
358.589	19.6
358.798	19.4
359.007	19.4
359.217	19.5
359.426	19.36
359.635	19.3
359.845	19.48
360.054	19.51
360.263	19.45
360.472	19.21
360.682	19.01
360.891	18.79
361.1	18.6
361.309	18.47
361.519	18.62
361.728	18.62
361.937	18.57
362.146	18.37
362.355	18.35
362.564	18.47
362.774	18.46
362.983	18.54
363.192	18.54
363.401	18.66
363.61	18.85
363.819	18.74
364.028	18.86
364.237	18.99
364.446	19.01
364.655	19.25
364.864	18.83
365.073	18.78
365.282	18.76
365.491	18.55
365.7	18.28
365.909	17.8
366.118	17.79
366.327	17.89
366.536	17.9
366.745	17.82
366.954	17.45
367.162	17.68
367.371	17.76
367.58	17.97
367.789	18.11
367.998	18.33
368.207	18.47
368.415	18.28
368.624	18.1
368.833	17.91
369.042	18.06
369.25	18.08
369.459	18.11
369.668	18.03
369.877	17.73
370.085	17.67
370.294	17.73
370.503	17.83
370.711	17.73
370.92	17.53
371.129	17.38
371.337	17.11
371.546	17.2
371.754	17.13
371.963	17.04
372.171	17.12
372.38	17.21
372.589	17.01
372.797	17.06
373.006	17.1
373.214	17.1
373.423	17.17
373.631	17.14
373.84	17.1
374.048	16.93
374.256	17.04
374.465	16.9
374.673	16.66
374.882	16.9
375.09	16.94
375.298	16.75
375.507	16.76
375.715	16.75
375.923	16.94
376.132	16.7
376.34	16.6
376.548	16.47
376.757	16.54
376.965	16.67
377.173	16.36
377.381	15.96
377.59	16.25
377.798	16.08
378.006	16
378.214	15.77
378.423	15.83
378.631	15.92
378.839	15.87
379.047	15.63
379.255	15.43
379.463	15.66
379.671	15.7
379.879	15.32
380.088	15.35
380.296	15.36
380.504	15.3
380.712	15.12
380.92	15.05
381.128	15.16
381.336	15.32
381.544	15
381.752	14.72
381.96	14.71
382.168	14.74
382.376	14.8
382.584	14.62
382.791	14.72
382.999	14.69
383.207	14.52
383.415	14.53
383.623	14.4
383.831	14.43
384.039	14.48
384.247	14.62
384.454	14.49
384.662	14.56
384.87	14.58
385.078	14.49
385.285	14.57
385.493	14.64
385.701	14.37
385.909	14.35
386.116	14.51
386.324	14.4
386.532	14.23
386.739	14.25
386.947	14.04
387.155	14.28
387.362	14.21
387.57	14.04
387.778	13.87
387.985	14
388.193	13.94
388.4	13.74
388.608	13.88
388.816	14.07
389.023	14.18
389.231	14.18
389.438	13.92
389.646	14.04
389.853	14.11
390.061	14.19
390.268	14.13
390.475	14.04
390.683	14.22
390.89	14.01
391.098	13.92
391.305	13.86
391.512	13.84
391.72	13.89
391.927	13.81
392.135	13.92
392.342	13.9
392.549	13.84
392.756	13.92
392.964	13.79
393.171	14.03
393.378	13.96
393.586	13.9
393.793	13.76
394	13.6
394.207	13.71
394.414	13.51
394.622	13.38
394.829	13.43
395.036	13.36
395.243	13.41
395.45	13.15
395.657	13.16
395.864	13.08
396.072	12.97
396.279	13.16
396.486	12.96
396.693	13.05
396.9	13.11
397.107	13.01
397.314	13.1
397.521	13.13
397.728	13.16
397.935	13.05
398.142	12.99
398.349	13.25
398.556	13.14
398.763	13.14
398.97	12.93
399.177	13.04
399.383	12.99
399.59	13.01
399.797	12.9
400.004	12.8
400.211	12.97
400.418	13.03
400.625	12.92
400.831	12.85
401.038	12.88
401.245	13.09
401.452	13.08
401.658	13.21
401.865	13.15
402.072	13.19
402.279	13.19
402.485	12.8
402.692	12.71
402.899	12.84
403.105	12.86
403.312	12.76
403.519	12.55
403.725	12.52
403.932	12.39
404.138	12.3
404.345	12.37
404.552	12.28
404.758	12.41
404.965	12.34
405.171	12.41
405.378	12.48
405.584	12.55
405.791	12.72
405.997	12.63
406.204	12.67
406.41	12.59
406.617	12.35
406.823	12.52
407.029	12.54
407.236	12.72
407.442	12.61
407.649	12.62
407.855	12.64
408.061	12.68
408.268	12.73
408.474	12.88
408.68	13.14
408.887	13.24
409.093	13.21
409.299	13.21
409.505	13.07
409.712	12.98
409.918	12.88
410.124	12.87
410.33	12.84
410.537	12.72
410.743	12.61
410.949	12.64
411.155	12.67
411.361	12.69
411.567	12.79
411.773	12.85
411.98	12.97
412.186	12.9
412.392	13.02
412.598	12.94
412.804	13.05
413.01	12.94
413.216	12.81
413.422	12.75
413.628	12.8
413.834	12.71
414.04	12.72
414.246	12.63
414.452	12.62
414.658	12.39
414.864	12.31
415.07	12.4
415.275	12.36
415.481	12.43
415.687	12.43
415.893	12.29
416.099	12.24
416.305	12.22
416.511	12.27
416.716	12.33
416.922	12.42
417.128	12.46
417.334	12.31
417.539	12.45
417.745	12.33
417.951	12.37
418.157	12.4
418.362	12.5
418.568	12.58
418.774	12.51
418.979	12.49
419.185	12.47
419.391	12.5
419.596	12.54
419.802	12.49
420.008	12.57
420.213	13.18
420.419	13.2
420.624	13.2
420.83	13.15
421.035	13.19
421.241	13.22
421.446	13.2
421.652	13.14
421.857	13.15
422.063	13.11
422.268	13
422.474	12.43
422.679	12.39
422.885	12.3
423.09	12.32
423.295	12.23
423.501	12.21
423.706	12.26
423.911	12.27
424.117	12.21
424.322	12.23
424.527	12.23
424.733	12.23
424.938	12.21
425.143	12.18
425.349	12.12
425.554	12.14
425.759	12.17
425.964	12.19
426.169	12.19
426.375	12.22
426.58	12.21
426.785	12.22
426.99	12.2
427.195	12.33
427.4	12.34
427.605	12.33
427.811	12.41
428.016	12.37
428.221	12.43
428.426	12.43
428.631	12.48
428.836	12.48
429.041	12.53
429.246	12.43
429.451	12.28
429.656	12.32
429.861	12.46
430.066	12.26
430.271	12.19
430.476	12.02
430.681	12.13
430.886	12.17
431.09	12.19
431.295	12.26
431.5	12.39
431.705	12.4
431.91	12.49
432.115	12.46
432.32	12.59
432.524	12.55
432.729	12.64
432.934	12.58
433.139	12.53
433.343	12.47
433.548	12.49
433.753	12.56
433.958	12.57
434.162	12.59
434.367	12.64
434.572	12.64
434.776	12.68
434.981	12.65
435.186	12.77
435.39	12.76
435.595	12.88
435.799	12.78
436.004	12.75
436.209	12.8
436.413	12.73
436.618	12.62
436.822	12.71
437.027	12.73
437.231	12.69
437.436	12.61
437.64	12.69
437.845	12.69
438.049	12.77
438.253	12.7
438.458	12.77
438.662	12.85
438.867	12.92
439.071	12.91
439.275	12.96
439.48	12.96
439.684	12.93
439.888	12.93
440.093	12.91
440.297	12.93
440.501	12.95
440.706	12.95
440.91	12.89
441.114	12.83
441.318	12.86
441.523	12.9
441.727	12.93
441.931	12.99
442.135	13.05
442.339	13.03
442.543	13.08
442.748	13.04
442.952	12.99
443.156	12.97
443.36	13
443.564	12.89
443.768	12.86
443.972	12.85
444.176	12.85
444.38	12.73
444.584	12.75
444.788	12.66
444.992	12.67
445.196	12.68
445.4	12.77
445.604	12.81
445.808	12.81
446.012	12.81
446.216	12.85
446.42	12.86
446.624	12.88
446.828	12.85
447.032	12.85
447.235	12.88
447.439	12.89
447.643	12.87
447.847	12.78
448.051	12.82
448.254	12.76
448.458	12.67
448.662	12.68
448.866	12.66
449.069	12.73
449.273	12.79
449.477	12.71
449.681	12.64
449.884	12.59
450.088	12.71
450.292	12.66
450.495	12.59
450.699	12.49
450.902	12.34
451.106	12.34
451.31	12.29
451.513	12.2
451.717	12.27
451.92	12.28
452.124	12.24
452.327	12.19
452.531	12.24
452.734	12.39
452.938	12.54
453.141	12.62
453.345	12.68
453.548	12.65
453.752	12.59
453.955	12.53
454.158	12.56
454.362	12.61
454.565	12.6
454.769	12.53
454.972	12.44
455.175	12.47
455.379	12.52
455.582	12.39
455.785	12.45
455.988	12.5
456.192	12.53
456.395	12.44
456.598	12.48
456.801	12.6
457.005	12.66
457.208	12.71
457.411	12.73
457.614	12.7
457.817	12.8
458.021	12.76
458.224	12.77
458.427	12.84
458.63	12.85
458.833	12.7
459.036	12.62
459.239	12.57
459.442	12.53
459.645	12.42
459.848	12.44
460.051	12.42
460.254	12.45
