Data from 2938736__Reflection_03.txt Node
Date: Sun Mar 15 18:16:25 EDT 2015
User: robert
Spectrometer: USB4E03002
Autoset integration time: false
Trigger mode: 4
Integration Time (sec): 1.000000E-1
Scans to average: 10
Electric dark correction enabled: false
Nonlinearity correction enabled: false
Boxcar width: 5
Stray light correction enabled: false
XAxis mode: Wavelengths
Stop averaging: false
Number of Pixels in Spectrum: 3648
>>>>>Begin Spectral Data<<<<<
177.575	291.36
177.794	302.79
178.014	189.19
178.233	211.98
178.452	209.6
178.672	191.79
178.891	172.17
179.11	162.69
179.33	-203.39
179.549	-182.46
179.768	-4680
179.987	-267.74
180.207	360
180.426	29.08
180.645	39.71
180.864	993.75
181.084	415.94
181.303	379.07
181.522	212.63
181.741	112.89
181.96	203.41
182.179	225.56
182.398	214.21
182.618	297.95
182.837	388.69
183.056	486.44
183.275	645.6
183.494	1627.66
183.713	3220.83
183.932	-743.3
184.151	-534.29
184.37	-350.74
184.589	-308.59
184.808	-24.4
185.027	-125.33
185.246	678.13
185.465	986.36
185.684	77.05
185.903	23.78
186.122	-1.16
186.341	15
186.56	18.83
186.779	39.24
186.998	14.33
187.216	43.07
187.435	40.54
187.654	44.08
187.873	42.63
188.092	57.37
188.311	68.31
188.53	80.73
188.748	106.35
188.967	82.95
189.186	86.17
189.405	180.74
189.623	186.25
189.842	195.65
190.061	164.56
190.28	179.17
190.498	202.96
190.717	211.55
190.936	185.09
191.154	217.11
191.373	321.53
191.592	382.67
191.81	300.3
192.029	231.8
192.248	257.14
192.466	264.35
192.685	225.42
192.904	203.55
193.122	281.28
193.341	169.37
193.559	113.42
193.778	88.51
193.996	114.22
194.215	90.69
194.433	83.33
194.652	68.11
194.87	101.32
195.089	82.7
195.307	138.96
195.526	133.2
195.744	213.19
195.963	260.69
196.181	1460
196.399	10814.29
196.618	-3443.75
196.836	-8800
197.055	-596.59
197.273	-215.2
197.491	-121.55
197.71	-54.23
197.928	-89.95
198.146	-144.14
198.365	-71.19
198.583	-55.1
198.801	-9.85
199.019	98.24
199.238	83.48
199.456	109.71
199.674	40.62
199.892	18.58
200.111	32.7
200.329	94.16
200.547	134.48
200.765	236.05
200.983	318.18
201.202	788.14
201.42	530.88
201.638	-11375
201.856	-443.42
202.074	-18100
202.292	2641.18
202.51	1076.09
202.728	1735.42
202.946	-1561.22
203.165	-1738.1
203.383	1674.42
203.601	-1421.28
203.819	-694.74
204.037	-707.87
204.255	-285.71
204.473	-146.47
204.691	-90.32
204.909	-65.53
205.127	-41.38
205.345	-91.25
205.562	-77.16
205.78	-91.61
205.998	-132.1
206.216	-125.44
206.434	-167.86
206.652	-163.46
206.87	-57.14
207.088	-63.95
207.306	-64.52
207.523	495.74
207.741	273.26
207.959	166.67
208.177	144.71
208.395	150.43
208.612	172.13
208.83	210.42
209.048	175.92
209.266	143.73
209.483	105.84
209.701	146.96
209.919	102.71
210.136	103.5
210.354	94.34
210.572	98.99
210.79	137.1
211.007	118.6
211.225	94.35
211.442	95.95
211.66	80.78
211.878	71.84
212.095	-23.51
212.313	-41.12
212.53	-62.06
212.748	-23.28
212.966	-23.45
213.183	-8.22
213.401	3.28
213.618	-19.97
213.836	-32.72
214.053	-53.01
214.271	-54.27
214.488	86.55
214.705	119.76
214.923	132.43
215.14	99.39
215.358	123.24
215.575	64.76
215.793	89.72
216.01	110.72
216.227	89.71
216.445	87.74
216.662	103.32
216.879	98.31
217.097	78.81
217.314	67.96
217.531	41.64
217.749	46.12
217.966	62.07
218.183	59.06
218.4	48.91
218.618	58.43
218.835	53.65
219.052	23.47
219.269	12.06
219.487	28.01
219.704	45.32
219.921	41.6
220.138	37.79
220.355	29.05
220.572	25.97
220.79	26.93
221.007	32.43
221.224	36.22
221.441	44.8
221.658	49.25
221.875	54.1
222.092	48.55
222.309	51.09
222.526	51.52
222.743	49.23
222.96	46.63
223.177	38.27
223.394	39.9
223.611	44.18
223.828	45.73
224.045	35.37
224.262	33
224.479	29.43
224.696	23.55
224.913	23.14
225.13	24.51
225.347	23.44
225.564	28.76
225.781	23.48
225.997	20.6
226.214	14.4
226.431	17.16
226.648	14.69
226.865	12.81
227.082	14.06
227.298	13.19
227.515	10.14
227.732	9.56
227.949	9.23
228.165	8.08
228.382	6.35
228.599	7.9
228.816	6.96
229.032	6.87
229.249	7.21
229.466	7.47
229.682	6.89
229.899	6.9
230.116	6.75
230.332	5.5
230.549	6.14
230.765	7.14
230.982	6.72
231.199	5.98
231.415	5.8
231.632	4.99
231.848	3.92
232.065	2.5
232.281	1.07
232.498	0.73
232.714	2.11
232.931	1.5
233.147	1.05
233.364	0.93
233.58	4.25
233.797	2.97
234.013	3.58
234.23	3.51
234.446	4.73
234.662	7.29
234.879	6.26
235.095	5.62
235.312	5.41
235.528	6.4
235.744	6.67
235.961	4.7
236.177	6.94
236.393	7.39
236.61	8.88
236.826	8.46
237.042	10.25
237.258	12.45
237.475	12.79
237.691	13.93
237.907	12.85
238.123	8.82
238.339	7.74
238.556	7.09
238.772	6.49
238.988	6.98
239.204	9.4
239.42	9.12
239.636	8.31
239.853	8.91
240.069	7.88
240.285	7.16
240.501	8.14
240.717	9.19
240.933	8.43
241.149	8.07
241.365	6.75
241.581	5.67
241.797	5.56
242.013	4.93
242.229	4.7
242.445	4.9
242.661	4.87
242.877	5.03
243.093	5
243.309	5.33
243.525	5.35
243.741	5.74
243.957	6.22
244.173	5.01
244.388	5.64
244.604	5.73
244.82	6.04
245.036	6.34
245.252	6.08
245.468	5.74
245.683	5.33
245.899	4.92
246.115	4.43
246.331	4.08
246.547	4.47
246.762	4.5
246.978	4.41
247.194	3.84
247.409	3.99
247.625	4.13
247.841	4.18
248.057	4.23
248.272	4.34
248.488	4.54
248.703	4.61
248.919	4.83
249.135	4.59
249.35	4.36
249.566	4.87
249.782	4.97
249.997	4.9
250.213	4.75
250.428	5.26
250.644	4.14
250.859	3.83
251.075	3.63
251.29	3.48
251.506	3.55
251.721	4.29
251.937	4.41
252.152	4.03
252.368	3.31
252.583	2.7
252.798	2.06
253.014	2.99
253.229	4.11
253.445	4.66
253.66	4.99
253.875	5.25
254.091	3.97
254.306	3.44
254.521	4.34
254.737	5.95
254.952	6.91
255.167	6.92
255.383	6.68
255.598	6.72
255.813	6.35
256.028	5.39
256.244	5.34
256.459	5.77
256.674	5.95
256.889	5.15
257.104	4.97
257.32	4.34
257.535	4.16
257.75	4.48
257.965	4.3
258.18	3.97
258.395	4.3
258.61	4.4
258.826	4.21
259.041	4.18
259.256	4.1
259.471	3.91
259.686	3.75
259.901	3.69
260.116	3.52
260.331	3.41
260.546	3.55
260.761	3.15
260.976	2.92
261.191	3.19
261.406	2.89
261.621	2.83
261.836	2.7
262.05	2.82
262.265	3.28
262.48	3.62
262.695	3.09
262.91	3.58
263.125	3.83
263.34	3.72
263.555	4.22
263.769	4.84
263.984	4.16
264.199	4.52
264.414	4.57
264.629	3.96
264.843	3.64
265.058	3.94
265.273	2.98
265.488	3.07
265.702	2.99
265.917	1.8
266.132	2.13
266.346	2.6
266.561	3.07
266.776	3.48
266.99	3.31
267.205	3.66
267.42	3.46
267.634	3.52
267.849	3.13
268.063	3.54
268.278	4.24
268.492	3.85
268.707	4.04
268.922	3.51
269.136	2.88
269.351	3.16
269.565	2.41
269.78	3.02
269.994	3.43
270.209	3.76
270.423	3.7
270.637	3.37
270.852	3.84
271.066	3.96
271.281	3.84
271.495	4.35
271.709	3.83
271.924	4.07
272.138	3.54
272.353	3.4
272.567	3.67
272.781	3.57
272.996	3.26
273.21	2.91
273.424	2.54
273.638	2.45
273.853	2.16
274.067	2.74
274.281	2.74
274.495	2.96
274.71	3.11
274.924	2.6
275.138	2.52
275.352	2.82
275.566	2.84
275.781	3.15
275.995	3.11
276.209	2.81
276.423	2.58
276.637	2.43
276.851	2.3
277.065	2.52
277.279	2.74
277.493	3.06
277.707	3.03
277.921	2.71
278.135	2.39
278.349	2.93
278.563	3.54
278.777	3.3
278.991	3.34
279.205	3.88
279.419	3.23
279.633	3.33
279.847	2.84
280.061	2.67
280.275	3
280.489	3.22
280.703	2.76
280.917	2.42
281.131	2.8
281.344	3.15
281.558	2.91
281.772	3.15
281.986	3.03
282.2	3.38
282.414	3.65
282.627	3.7
282.841	3.5
283.055	3.43
283.269	3.45
283.482	3.39
283.696	3.29
283.91	3.41
284.123	2.76
284.337	2.66
284.551	2.65
284.764	2.5
284.978	2.61
285.192	2.66
285.405	2.86
285.619	3.1
285.833	3.06
286.046	2.48
286.26	2.2
286.473	2.57
286.687	2.61
286.9	2.8
287.114	3.16
287.327	3.06
287.541	3.04
287.754	2.79
287.968	2.66
288.181	2.46
288.395	3.15
288.608	3.14
288.822	2.84
289.035	2.98
289.248	2.54
289.462	2.41
289.675	2.79
289.889	2.81
290.102	3.04
290.315	3.04
290.529	3.33
290.742	3.54
290.955	3.77
291.169	3.79
291.382	3.81
291.595	3.93
291.808	3.86
292.022	3.42
292.235	3.43
292.448	3.65
292.661	3.38
292.875	3.39
293.088	3.03
293.301	3.1
293.514	3.08
293.727	3.2
293.94	3.01
294.153	2.98
294.367	2.79
294.58	2.98
294.793	2.86
295.006	2.96
295.219	3.1
295.432	3.29
295.645	3.18
295.858	3.16
296.071	2.77
296.284	3.1
296.497	3.21
296.71	3.36
296.923	3.21
297.136	3.36
297.349	3.4
297.562	3.25
297.775	3.2
297.988	3.38
298.201	3.43
298.414	3.92
298.626	3.88
298.839	3.84
299.052	3.96
299.265	4.19
299.478	4.13
299.691	4.01
299.903	4.14
300.116	3.98
300.329	4.01
300.542	4.53
300.755	4.01
300.967	4.1
301.18	3.85
301.393	3.77
301.605	3.88
301.818	3.05
302.031	3.19
302.243	2.9
302.456	3.67
302.669	3.47
302.881	3.16
303.094	3.63
303.307	2.97
303.519	3.44
303.732	3.27
303.944	2.98
304.157	3.46
304.37	3.32
304.582	3.1
304.795	2.3
305.007	1.99
305.22	2.2
305.432	1.87
305.645	2.29
305.857	2.41
306.069	2.47
306.282	2.37
306.494	2.61
306.707	2.89
306.919	3.36
307.132	3.45
307.344	3.92
307.556	4.3
307.769	4.32
307.981	4.42
308.193	3.95
308.406	4
308.618	4.2
308.83	4.31
309.043	4.16
309.255	3.84
309.467	3.67
309.679	3.58
309.892	3.3
310.104	3.14
310.316	3.18
310.528	3.53
310.74	3.52
310.953	3.87
311.165	3.9
311.377	4.01
311.589	4.29
311.801	4.62
312.013	4.27
312.225	4.37
312.437	4.72
312.649	4.84
312.862	4.91
313.074	5.07
313.286	4.58
313.498	4.66
313.71	4.7
313.922	4.69
314.134	4.6
314.346	4.41
314.558	4.1
314.77	4.42
314.982	4.12
315.193	3.64
315.405	3.96
315.617	3.97
315.829	3.59
316.041	3.47
316.253	3.3
316.465	3.61
316.677	4.33
316.888	4.56
317.1	4.11
317.312	4.78
317.524	5.08
317.736	4.7
317.947	4.82
318.159	5.19
318.371	5.44
318.583	6.02
318.794	5.56
319.006	5.36
319.218	5.88
319.43	6.16
319.641	5.52
319.853	5.54
320.064	5.75
320.276	6.23
320.488	6.29
320.699	6.18
320.911	5.59
321.123	5.63
321.334	5.79
321.546	5.21
321.757	4.78
321.969	5.27
322.18	5.25
322.392	5.44
322.603	5.51
322.815	5.47
323.026	5.53
323.238	5.8
323.449	5.86
323.661	6.19
323.872	6.16
324.083	6.72
324.295	6.66
324.506	6.93
324.718	6.81
324.929	6.61
325.14	6.8
325.352	6.99
325.563	7.36
325.774	7.85
325.986	7.82
326.197	8.31
326.408	7.73
326.62	7.8
326.831	7.69
327.042	7.78
327.253	7.72
327.464	7.82
327.676	8.33
327.887	8.15
328.098	8
328.309	8.25
328.52	7.87
328.732	8.5
328.943	8.42
329.154	8.76
329.365	8.78
329.576	8.7
329.787	8.63
329.998	8.2
330.209	8.33
330.42	8.31
330.631	8.42
330.842	8.88
331.053	8.94
331.264	9.28
331.475	9.47
331.686	9.65
331.897	9.65
332.108	9.86
332.319	9.91
332.53	9.85
332.741	10.21
332.952	10.33
333.163	10.3
333.374	10.29
333.585	10.53
333.795	10.28
334.006	10.27
334.217	10.76
334.428	10.51
334.639	10.67
334.849	10.49
335.06	10.49
335.271	10.36
335.482	10.58
335.692	10.82
335.903	10.6
336.114	10.83
336.325	11.09
336.535	11.01
336.746	11.19
336.957	11.14
337.167	11.75
337.378	11.64
337.589	11.49
337.799	11.18
338.01	11.2
338.22	11.44
338.431	11.14
338.642	10.87
338.852	11.14
339.063	11.24
339.273	11.32
339.484	10.91
339.694	11.14
339.905	10.8
340.115	10.92
340.326	10.91
340.536	10.63
340.746	10.67
340.957	10.87
341.167	10.58
341.378	10.24
341.588	10.03
341.799	10.14
342.009	9.88
342.219	10.22
342.43	10.13
342.64	9.69
342.85	10
343.061	9.96
343.271	9.97
343.481	10.27
343.691	10.56
343.902	10.68
344.112	10.81
344.322	10.87
344.532	11.03
344.743	11.1
344.953	11.25
345.163	11.1
345.373	11.13
345.583	11.06
345.793	10.89
346.004	10.56
346.214	10.7
346.424	10.56
346.634	10.44
346.844	10.23
347.054	9.98
347.264	10.09
347.474	9.75
347.684	10.14
347.894	10.06
348.104	9.89
348.314	10.29
348.524	10.12
348.734	10.13
348.944	9.91
349.154	9.87
349.364	9.86
349.574	9.54
349.784	9.77
349.994	9.29
350.204	9.14
350.413	8.89
350.623	8.85
350.833	8.86
351.043	8.62
351.253	8.76
351.463	8.87
351.672	9.2
351.882	9.68
352.092	9.68
352.302	9.94
352.511	9.98
352.721	9.98
352.931	10.05
353.141	9.88
353.35	10.12
353.56	10.46
353.77	10.51
353.979	10.62
354.189	10.27
354.399	10.02
354.608	10.17
354.818	10.43
355.027	10.93
355.237	10.94
355.447	11.02
355.656	10.78
355.866	10.56
356.075	10.75
356.285	10.39
356.494	10.51
356.704	10.76
356.913	10.75
357.123	10.41
357.332	10.21
357.542	10.26
357.751	10.43
357.96	10.81
358.17	10.76
358.379	10.45
358.589	10.54
358.798	10.29
359.007	10.4
359.217	10.15
359.426	10.12
359.635	10.3
359.845	10.06
360.054	9.94
360.263	9.74
360.472	9.85
360.682	10.09
360.891	10.26
361.1	10.46
361.309	10.32
361.519	10.27
361.728	10.36
361.937	10.37
362.146	10.23
362.355	10.26
362.564	10.39
362.774	10.39
362.983	10.18
363.192	9.92
363.401	10.06
363.61	9.99
363.819	10.26
364.028	10.3
364.237	9.99
364.446	10.12
364.655	10.05
364.864	9.81
365.073	9.73
365.282	9.76
365.491	9.98
365.7	9.78
365.909	9.65
366.118	9.6
366.327	9.8
366.536	9.94
366.745	9.81
366.954	9.64
367.162	9.62
367.371	9.72
367.58	9.75
367.789	9.74
367.998	9.98
368.207	10.2
368.415	9.95
368.624	9.66
368.833	9.59
369.042	9.8
369.25	9.76
369.459	9.61
369.668	9.5
369.877	9.1
370.085	8.96
370.294	8.7
370.503	8.42
370.711	8.35
370.92	8.42
371.129	8.57
371.337	8.41
371.546	8.53
371.754	8.87
371.963	8.9
372.171	9.15
372.38	9.32
372.589	9.27
372.797	9.84
373.006	9.95
373.214	9.91
373.423	9.81
373.631	9.85
373.84	9.99
374.048	9.9
374.256	9.9
374.465	10.21
374.673	10.17
374.882	10.07
375.09	9.57
375.298	9.68
375.507	9.68
375.715	9.57
375.923	9.65
376.132	9.82
376.34	9.81
376.548	9.63
376.757	9.34
376.965	9.38
377.173	9.4
377.381	9.64
377.59	9.43
377.798	9.36
378.006	9.56
378.214	9.66
378.423	9.28
378.631	9.41
378.839	9.45
379.047	9.48
379.255	9.43
379.463	9.55
379.671	9.37
379.879	9.53
380.088	9.56
380.296	9.41
380.504	9.36
380.712	9.46
380.92	9.34
381.128	9.37
381.336	9.34
381.544	9.43
381.752	9.31
381.96	9.24
382.168	9.13
382.376	9.31
382.584	9.4
382.791	9.35
382.999	9.5
383.207	9.32
383.415	9.53
383.623	9.75
383.831	9.5
384.039	9.66
384.247	9.9
384.454	10.09
384.662	9.84
384.87	9.61
385.078	9.68
385.285	9.42
385.493	9.64
385.701	9.35
385.909	9.06
386.116	9.27
386.324	9.16
386.532	8.96
386.739	8.93
386.947	9.13
387.155	9.33
387.362	9.15
387.57	9.24
387.778	9.46
387.985	9.53
388.193	9.77
388.4	9.71
388.608	9.7
388.816	9.73
389.023	9.49
389.231	9.3
389.438	9.08
389.646	9.16
389.853	9.29
390.061	8.91
390.268	8.81
390.475	8.67
390.683	8.61
390.89	8.65
391.098	8.61
391.305	8.77
391.512	9.03
391.72	9.1
391.927	9.09
392.135	9
392.342	8.86
392.549	8.98
392.756	9.19
392.964	9.08
393.171	9.26
393.378	9.35
393.586	9.17
393.793	8.82
394	8.82
394.207	8.8
394.414	8.81
394.622	8.94
394.829	8.98
395.036	8.81
395.243	8.8
395.45	8.55
395.657	8.4
395.864	8.6
396.072	8.86
396.279	8.92
396.486	9.07
396.693	9.04
396.9	9.23
397.107	9.04
397.314	8.81
397.521	8.76
397.728	8.93
397.935	9.03
398.142	8.94
398.349	8.67
398.556	8.74
398.763	8.77
398.97	8.95
399.177	8.88
399.383	8.98
399.59	9.24
399.797	9.56
400.004	9.56
400.211	9.57
400.418	9.61
400.625	9.94
400.831	9.87
401.038	9.76
401.245	9.64
401.452	9.54
401.658	9.63
401.865	9.69
402.072	9.61
402.279	9.66
402.485	9.54
402.692	9.7
402.899	9.49
403.105	9.61
403.312	9.61
403.519	9.7
403.725	9.71
403.932	9.76
404.138	9.6
404.345	9.52
404.552	9.43
404.758	9.59
404.965	9.27
405.171	9.23
405.378	9.35
405.584	9.37
405.791	9.35
405.997	9.24
406.204	9.21
406.41	9.28
406.617	9.3
406.823	9.39
407.029	9.36
407.236	9.49
407.442	9.56
407.649	9.29
407.855	9.24
408.061	9.15
408.268	9.2
408.474	9.19
408.68	9.18
408.887	9.31
409.093	9.06
409.299	8.88
409.505	8.82
409.712	8.91
409.918	8.9
410.124	9.01
410.33	8.95
410.537	8.96
410.743	9.05
410.949	9.05
411.155	8.85
411.361	8.96
411.567	9
411.773	9.22
411.98	9.17
412.186	9.31
412.392	9.15
412.598	9.05
412.804	9.11
413.01	8.93
413.216	8.83
413.422	8.77
413.628	8.55
413.834	8.55
414.04	8.4
414.246	8.38
414.452	8.31
414.658	8.31
414.864	8.52
415.07	8.4
415.275	8.45
415.481	8.48
415.687	8.6
415.893	8.72
416.099	8.76
416.305	8.73
416.511	8.76
416.716	8.79
416.922	8.77
417.128	8.63
417.334	8.83
417.539	8.77
417.745	8.82
417.951	8.8
418.157	8.8
418.362	8.83
418.568	8.89
418.774	8.9
418.979	8.79
419.185	8.78
419.391	8.84
419.596	8.77
419.802	8.74
420.008	8.59
420.213	8.64
420.419	8.6
420.624	8.51
420.83	8.45
421.035	8.36
421.241	8.38
421.446	8.32
421.652	8.29
421.857	8.23
422.063	8.24
422.268	8.36
422.474	8.27
422.679	8.31
422.885	8.41
423.09	8.46
423.295	8.48
423.501	8.45
423.706	8.56
423.911	8.58
424.117	8.6
424.322	8.65
424.527	8.64
424.733	8.69
424.938	8.68
425.143	8.62
425.349	8.55
425.554	8.48
425.759	8.57
425.964	8.61
426.169	8.6
426.375	8.59
426.58	8.56
426.785	8.51
426.99	8.44
427.195	8.37
427.4	8.47
427.605	8.52
427.811	8.64
428.016	8.41
428.221	8.28
428.426	8.23
428.631	8.14
428.836	8.08
429.041	8.08
429.246	8.13
429.451	8.2
429.656	7.97
429.861	7.8
430.066	7.77
430.271	7.96
430.476	7.97
430.681	8.09
430.886	8.14
431.09	8.2
431.295	8.24
431.5	8.26
431.705	8.27
431.91	8.34
432.115	8.44
432.32	8.39
432.524	8.36
432.729	8.49
432.934	8.56
433.139	8.71
433.343	8.88
433.548	9.07
433.753	9.2
433.958	9.52
434.162	9.86
434.367	10.33
434.572	10.79
434.776	11.23
434.981	11.59
435.186	11.93
435.39	12.05
435.595	12.24
435.799	12.24
436.004	12.1
436.209	11.86
436.413	11.61
436.618	11.26
436.822	10.92
437.027	10.44
437.231	10.01
437.436	9.52
437.64	9.33
437.845	9.02
438.049	8.77
438.253	8.79
438.458	8.69
438.662	8.57
438.867	8.43
439.071	8.36
439.275	8.34
439.48	8.29
439.684	8.32
439.888	8.27
440.093	8.14
440.297	8.19
440.501	8.15
440.706	8.17
440.91	8.16
441.114	8.18
441.318	8.17
441.523	8.25
441.727	8.2
441.931	8.11
442.135	8.19
442.339	8.28
442.543	8.33
442.748	8.32
442.952	8.39
443.156	8.41
443.36	8.39
443.564	8.37
443.768	8.35
443.972	8.35
444.176	8.34
444.38	8.3
444.584	8.23
444.788	8.12
444.992	8.14
445.196	8
445.4	8.02
445.604	8.1
445.808	8.08
446.012	8.07
446.216	8.05
446.42	8.08
446.624	8.1
446.828	8.15
447.032	8.19
447.235	8.19
447.439	8.24
447.643	8.2
447.847	8.14
448.051	8.13
448.254	8.03
448.458	8.1
448.662	8.11
448.866	8.04
449.069	7.93
449.273	8.02
449.477	8.09
449.681	8.12
449.884	8.21
450.088	8.23
450.292	8.42
450.495	8.48
450.699	8.41
450.902	8.37
451.106	8.31
451.31	8.41
451.513	8.23
451.717	8.16
451.92	8.14
452.124	7.98
452.327	7.99
452.531	7.88
452.734	7.82
452.938	7.85
453.141	7.85
453.345	7.85
453.548	7.86
453.752	7.99
453.955	7.86
454.158	7.89
454.362	7.97
454.565	8
454.769	7.99
454.972	8.11
455.175	8.17
455.379	8.18
455.582	8.21
455.785	8.19
455.988	8.14
456.192	8.15
456.395	8.11
456.598	8.13
456.801	7.96
457.005	7.94
457.208	7.88
457.411	7.79
457.614	7.92
457.817	7.88
458.021	7.86
458.224	7.83
458.427	7.9
458.63	7.9
458.833	7.89
459.036	7.92
459.239	7.96
459.442	8.03
459.645	8.07
459.848	8.02
460.051	8.02
460.254	8.03
460.457	8.04
460.66	8.03
460.863	7.96
461.066	7.9
461.269	7.93
461.472	7.96
461.675	7.89
461.878	7.9
462.081	7.88
462.284	7.91
462.486	7.94
462.689	7.97
462.892	7.97
463.095	8.03
463.298	8.08
463.5	7.93
463.703	7.75
463.906	7.79
464.109	7.73
464.311	7.82
464.514	7.97
464.717	7.86
464.92	7.86
465.122	7.88
465.325	8.03
465.528	7.98
465.73	8.22
465.933	8.31
466.135	8.23
466.338	8.4
466.541	8.32
466.743	8.17
466.946	8.24
467.148	8.14
467.351	8.05
467.553	7.96
467.756	8.06
467.958	7.95
468.161	8.01
468.363	8.14
468.566	8.02
468.768	8.03
