Data from 2938711__Reflection_03.txt Node
Date: Tue Mar 17 19:26:18 EDT 2015
User: robert
Spectrometer: USB4E03002
Autoset integration time: false
Trigger mode: 4
Integration Time (sec): 1.000000E-1
Scans to average: 10
Electric dark correction enabled: false
Nonlinearity correction enabled: false
Boxcar width: 5
Stray light correction enabled: false
XAxis mode: Wavelengths
Stop averaging: false
Number of Pixels in Spectrum: 3648
>>>>>Begin Spectral Data<<<<<
177.575	42.35
177.794	43.13
178.014	58.75
178.233	86.12
178.452	104.72
178.672	112.11
178.891	135.34
179.11	227.76
179.33	491.13
179.549	807.69
179.768	-27033.33
179.987	-509.04
180.207	-1063.73
180.426	5894.74
180.645	1538.89
180.864	626.92
181.084	856.3
181.303	18185.71
181.522	1540.79
181.741	416.73
181.96	313.22
182.179	309.02
182.398	298.54
182.618	204.71
182.837	198.36
183.056	176.49
183.275	224.13
183.494	181.66
183.713	135.47
183.932	126.75
184.151	115.54
184.37	127.34
184.589	127.2
184.808	113.41
185.027	137.5
185.246	173.31
185.465	173.02
185.684	167.53
185.903	272.5
186.122	297.15
186.341	243.1
186.56	294.35
186.779	222.06
186.998	226.5
187.216	203.08
187.435	219.24
187.654	180.86
187.873	157.4
188.092	137.09
188.311	104.48
188.53	121.56
188.748	127.71
188.967	122.04
189.186	168.01
189.405	176.47
189.623	205.08
189.842	147.25
190.061	141.15
190.28	174.07
190.498	174.31
190.717	179.48
190.936	185.31
191.154	183.06
191.373	163.41
191.592	146.08
191.81	133.68
192.029	133.62
192.248	182.53
192.466	164.02
192.685	178.14
192.904	149.03
193.122	136.32
193.341	124.89
193.559	133.24
193.778	151.73
193.996	140.55
194.215	132.46
194.433	133.51
194.652	116.99
194.87	132.83
195.089	122.44
195.307	143.32
195.526	188.47
195.744	214.36
195.963	230.01
196.181	240.63
196.399	239.2
196.618	250.91
196.836	265.05
197.055	330.92
197.273	406.84
197.491	643.75
197.71	1519.18
197.928	378.78
198.146	479.07
198.365	270.24
198.583	308.12
198.801	350.47
199.019	399.07
199.238	355.28
199.456	195.51
199.674	204.88
199.892	177.84
200.111	158.72
200.329	190.73
200.547	201.33
200.765	217.89
200.983	179.02
201.202	176.34
201.42	188.28
201.638	208.57
201.856	237.06
202.074	248.55
202.292	251.13
202.51	260.35
202.728	253.58
202.946	199.43
203.165	182.7
203.383	224.22
203.601	217.86
203.819	194.54
204.037	174.86
204.255	195.01
204.473	141.32
204.691	142.29
204.909	136.56
205.127	143.15
205.345	130.63
205.562	121.65
205.78	95.02
205.998	92.76
206.216	89.58
206.434	91.09
206.652	84.05
206.87	93.4
207.088	93.58
207.306	98
207.523	79.91
207.741	86.52
207.959	95.21
208.177	122.01
208.395	102.13
208.612	94.49
208.83	95.96
209.048	94.55
209.266	91.19
209.483	99.14
209.701	102.84
209.919	125.93
210.136	120.53
210.354	115.58
210.572	101.56
210.79	108.8
211.007	132.18
211.225	112.69
211.442	116
211.66	129.48
211.878	118.95
212.095	201.23
212.313	189.48
212.53	178.48
212.748	174.34
212.966	170.25
213.183	184.84
213.401	169.5
213.618	165.13
213.836	162.53
214.053	169.2
214.271	153.64
214.488	102.29
214.705	93.18
214.923	100
215.14	100.31
215.358	107.62
215.575	101.04
215.793	84.49
216.01	78.9
216.227	58.87
216.445	40.3
216.662	35.74
216.879	47.26
217.097	38.26
217.314	36.18
217.531	41.54
217.749	48.2
217.966	45.16
218.183	63.62
218.4	70.18
218.618	71.45
218.835	81.09
219.052	80.57
219.269	80.19
219.487	88.62
219.704	90.64
219.921	82.22
220.138	77.41
220.355	83.83
220.572	80.04
220.79	78.08
221.007	77.07
221.224	72.61
221.441	66.54
221.658	63.57
221.875	55.02
222.092	52.36
222.309	53.11
222.526	51.92
222.743	49.81
222.96	44.37
223.177	31.3
223.394	31.43
223.611	33.58
223.828	31.64
224.045	27.58
224.262	21.93
224.479	20.4
224.696	19.81
224.913	17.58
225.13	15.23
225.347	13.81
225.564	18.11
225.781	17.12
225.997	13.93
226.214	13.92
226.431	10.87
226.648	15.28
226.865	13.38
227.082	12.43
227.298	13.04
227.515	12.46
227.732	14.26
227.949	12.51
228.165	11.79
228.382	11.38
228.599	11.82
228.816	12.13
229.032	10.64
229.249	10.25
229.466	10.51
229.682	9.24
229.899	8.4
230.116	7.24
230.332	8.47
230.549	8.29
230.765	8.66
230.982	8.37
231.199	8.51
231.415	10.21
231.632	10.65
231.848	10.56
232.065	12.14
232.281	13.47
232.498	14.39
232.714	14.06
232.931	15.01
233.147	14.13
233.364	13.45
233.58	12.59
233.797	12.17
234.013	11.42
234.23	10.99
234.446	11.14
234.662	10.35
234.879	8.75
235.095	9.21
235.312	8.23
235.528	9.69
235.744	10.67
235.961	11.19
236.177	11.2
236.393	12.8
236.61	13.08
236.826	11.9
237.042	11.86
237.258	14.05
237.475	15.24
237.691	16.83
237.907	15.68
238.123	14.31
238.339	13.26
238.556	13.77
238.772	13.35
238.988	13.51
239.204	14.61
239.42	14.88
239.636	13.48
239.853	11.39
240.069	9.84
240.285	10.24
240.501	10.49
240.717	9.57
240.933	9.06
241.149	8.48
241.365	8.48
241.581	7.58
241.797	7.1
242.013	6.7
242.229	7.11
242.445	6.93
242.661	6.86
242.877	6.78
243.093	6.89
243.309	6.42
243.525	6.41
243.741	6.67
243.957	6.98
244.173	7.41
244.388	7.02
244.604	6
244.82	5.53
245.036	5.36
245.252	5.21
245.468	5.82
245.683	6.21
245.899	6.43
246.115	6.16
246.331	6.3
246.547	6.14
246.762	6.84
246.978	7.07
247.194	7.18
247.409	7.03
247.625	7.44
247.841	7.48
248.057	7.49
248.272	7.27
248.488	7.06
248.703	7
248.919	7.39
249.135	7.16
249.35	7.39
249.566	8.65
249.782	9.18
249.997	8.98
250.213	8.73
250.428	8.67
250.644	9.04
250.859	9.8
251.075	10.11
251.29	9.44
251.506	9.29
251.721	9.48
251.937	8.41
252.152	8.39
252.368	7.46
252.583	8
252.798	8.05
253.014	8.29
253.229	7.15
253.445	6.62
253.66	7.04
253.875	6.92
254.091	6.51
254.306	6.58
254.521	6.02
254.737	7.19
254.952	7.53
255.167	7.42
255.383	6.62
255.598	7.54
255.813	7.8
256.028	7.46
256.244	7.6
256.459	6.64
256.674	6.2
256.889	6.08
257.104	6.36
257.32	6.15
257.535	5.59
257.75	6.15
257.965	6.55
258.18	6.36
258.395	5.63
258.61	5.53
258.826	6.03
259.041	5.71
259.256	5.77
259.471	5.46
259.686	4.84
259.901	4.97
260.116	4.97
260.331	4.89
260.546	4.69
260.761	4.52
260.976	4.5
261.191	3.88
261.406	4.17
261.621	3.97
261.836	3.98
262.05	4.46
262.265	4.47
262.48	3.65
262.695	3.06
262.91	3.7
263.125	4.5
263.34	4.66
263.555	5.67
263.769	5.2
263.984	5.78
264.199	5.56
264.414	5.51
264.629	5.47
264.843	5.76
265.058	5.6
265.273	5
265.488	5.39
265.702	4.95
265.917	4.21
266.132	4.42
266.346	4.29
266.561	4.6
266.776	4.33
266.99	4.6
267.205	5.16
267.42	5.4
267.634	5.07
267.849	4.74
268.063	4.7
268.278	4.78
268.492	4.77
268.707	4.61
268.922	4.46
269.136	5.09
269.351	5.28
269.565	4.98
269.78	4.63
269.994	4.84
270.209	4.96
270.423	4.86
270.637	5.09
270.852	5.01
271.066	4.8
271.281	4.97
271.495	4.87
271.709	4.64
271.924	4.66
272.138	4.83
272.353	4.89
272.567	4.85
272.781	5.33
272.996	5.26
273.21	5.46
273.424	5.57
273.638	5.21
273.853	5.24
274.067	5.12
274.281	5.11
274.495	5.04
274.71	4.88
274.924	5.04
275.138	5.16
275.352	5.28
275.566	5.04
275.781	5.42
275.995	5.24
276.209	5.11
276.423	5.02
276.637	4.85
276.851	5.2
277.065	5.51
277.279	5.27
277.493	4.56
277.707	4.6
277.921	4.41
278.135	4.37
278.349	4.48
278.563	4.4
278.777	4.2
278.991	4.34
279.205	3.82
279.419	3.54
279.633	3.66
279.847	4
280.061	3.45
280.275	3.85
280.489	3.67
280.703	3.84
280.917	3.72
281.131	3.84
281.344	3.9
281.558	4.07
281.772	4.44
281.986	4.33
282.2	4.17
282.414	4.52
282.627	4.42
282.841	4.28
283.055	4.01
283.269	4
283.482	4.39
283.696	4.35
283.91	4.63
284.123	4.14
284.337	4.07
284.551	4
284.764	4.4
284.978	4.2
285.192	3.88
285.405	4.1
285.619	4.26
285.833	4.08
286.046	4.3
286.26	4.4
286.473	4.56
286.687	4.62
286.9	4.81
287.114	4.68
287.327	5.2
287.541	5.29
287.754	5.33
287.968	5.28
288.181	5.17
288.395	4.81
288.608	4.65
288.822	4.73
289.035	4.75
289.248	4.68
289.462	4.63
289.675	3.98
289.889	4.37
290.102	4.38
290.315	4.37
290.529	4.55
290.742	4.61
290.955	4.36
291.169	4.28
291.382	4.87
291.595	4.83
291.808	4.63
292.022	5.1
292.235	4.93
292.448	5.14
292.661	5
292.875	4.86
293.088	5.19
293.301	5.43
293.514	5.44
293.727	4.92
293.94	5
294.153	5.12
294.367	5.47
294.58	5.39
294.793	5.09
295.006	5.53
295.219	5.39
295.432	5.14
295.645	5.2
295.858	5.29
296.071	5.23
296.284	5.37
296.497	5.39
296.71	5
296.923	5.37
297.136	5.58
297.349	5.48
297.562	5.79
297.775	5.74
297.988	5.96
298.201	5.88
298.414	5.91
298.626	5.98
298.839	6.06
299.052	6.36
299.265	6.34
299.478	6.5
299.691	6.79
299.903	6.84
300.116	6.89
300.329	6.41
300.542	6.66
300.755	6.89
300.967	6.62
301.18	6.49
301.393	6.46
301.605	6.42
301.818	6.04
302.031	5.6
302.243	5.7
302.456	6.08
302.669	6.64
302.881	6.74
303.094	6.78
303.307	7.15
303.519	7.51
303.732	7.71
303.944	7.84
304.157	8.07
304.37	8.23
304.582	8.03
304.795	7.96
305.007	7.37
305.22	7.51
305.432	7.32
305.645	7.25
305.857	7.61
306.069	7.35
306.282	6.96
306.494	7.07
306.707	6.9
306.919	6.89
307.132	6.98
307.344	7.42
307.556	7.44
307.769	7.81
307.981	8.06
308.193	7.64
308.406	7.41
308.618	7.62
308.83	7.56
309.043	8.08
309.255	8.18
309.467	7.96
309.679	8.03
309.892	7.76
310.104	7.65
310.316	7.55
310.528	7.5
310.74	7.7
310.953	7.82
311.165	7.97
311.377	7.57
311.589	7.79
311.801	8.15
312.013	7.84
312.225	8
312.437	8.03
312.649	8.36
312.862	8.39
313.074	8.6
313.286	8.46
313.498	8.33
313.71	8.83
313.922	8.67
314.134	8.38
314.346	9.02
314.558	9.19
314.77	9.31
314.982	9.01
315.193	9.12
315.405	9.19
315.617	9.07
315.829	8.88
316.041	8.58
316.253	8.56
316.465	8.55
316.677	8.46
316.888	8.54
317.1	8.22
317.312	8.22
317.524	8.08
317.736	8.12
317.947	7.97
318.159	8.85
318.371	8.67
318.583	9.15
318.794	9.35
319.006	9.4
319.218	9.17
319.43	9.43
319.641	9.53
319.853	9.89
320.064	10.01
320.276	10.48
320.488	10.46
320.699	11.12
320.911	10.73
321.123	10.56
321.334	10.12
321.546	10.57
321.757	10.57
321.969	10.66
322.18	10.49
322.392	10.07
322.603	10.28
322.815	10.36
323.026	10.22
323.238	10.36
323.449	10.14
323.661	10.58
323.872	10.37
324.083	10.53
324.295	10.2
324.506	10.58
324.718	10.74
324.929	10.85
325.14	10.72
325.352	11.01
325.563	11.23
325.774	11.67
325.986	11.66
326.197	12.16
326.408	12.11
326.62	12.72
326.831	12.97
327.042	13.65
327.253	14.09
327.464	14.18
327.676	14.31
327.887	14.5
328.098	14.56
328.309	15.16
328.52	15.18
328.732	15.9
328.943	15.98
329.154	16.28
329.365	16.33
329.576	16.41
329.787	17
329.998	17.34
330.209	18.03
330.42	18.63
330.631	18.91
330.842	19
331.053	18.74
331.264	19.28
331.475	19.31
331.686	19.29
331.897	19.4
332.108	19.23
332.319	19.27
332.53	18.76
332.741	19.13
332.952	18.96
333.163	19.01
333.374	19.6
333.585	19.31
333.795	19.31
334.006	19.22
334.217	19.11
334.428	19.18
334.639	19.24
334.849	19.27
335.06	19.03
335.271	19.36
335.482	19.57
335.692	19.62
335.903	20.04
336.114	20.2
336.325	20.66
336.535	20.88
336.746	20.99
336.957	21.14
337.167	21.39
337.378	21.65
337.589	21.64
337.799	21.49
338.01	21.28
338.22	21.01
338.431	20.94
338.642	20.46
338.852	20.51
339.063	20.68
339.273	20.25
339.484	20.47
339.694	20.35
339.905	20.16
340.115	20.56
340.326	20.39
340.536	20.83
340.746	20.91
340.957	21.54
341.167	21.65
341.378	21.63
341.588	22.08
341.799	22.11
342.009	21.87
342.219	21.74
342.43	21.82
342.64	21.83
342.85	21.49
343.061	21.56
343.271	21.6
343.481	21.56
343.691	21.33
343.902	21.43
344.112	21.44
344.322	21.84
344.532	21.95
344.743	22.06
344.953	22.18
345.163	22.16
345.373	22.07
345.583	21.81
345.793	21.59
346.004	21.67
346.214	21.42
346.424	21.17
346.634	20.82
346.844	20.91
347.054	20.61
347.264	20.46
347.474	20.26
347.684	20.15
347.894	20.14
348.104	20.05
348.314	20.08
348.524	20.29
348.734	20.28
348.944	20.47
349.154	20.79
349.364	20.81
349.574	20.72
349.784	20.93
349.994	21.13
350.204	21.1
350.413	21.25
350.623	21.01
350.833	20.64
351.043	20.67
351.253	20.88
351.463	20.52
351.672	20.22
351.882	20.1
352.092	20.08
352.302	19.98
352.511	20.12
352.721	20.15
352.931	20.53
353.141	21.03
353.35	20.85
353.56	20.88
353.77	20.87
353.979	21.24
354.189	21.41
354.399	21.18
354.608	21.05
354.818	20.97
355.027	20.98
355.237	20.65
355.447	20.38
355.656	20.73
355.866	20.52
356.075	20.49
356.285	20.16
356.494	20.35
356.704	20.44
356.913	20.44
357.123	20.32
357.332	20.37
357.542	20.68
357.751	20.8
357.96	20.55
358.17	20.35
358.379	20.32
358.589	20.55
358.798	20.59
359.007	20.59
359.217	20.59
359.426	20.72
359.635	20.64
359.845	20.55
360.054	20.46
360.263	20.49
360.472	20.99
360.682	21.19
360.891	21.16
361.1	21.04
361.309	21.21
361.519	21.19
361.728	21.05
361.937	20.97
362.146	20.93
362.355	21.03
362.564	20.98
362.774	20.75
362.983	20.52
363.192	20.5
363.401	20.38
363.61	20.06
363.819	19.99
364.028	19.83
364.237	19.69
364.446	19.71
364.655	19.45
364.864	19.71
365.073	19.44
365.282	19.29
365.491	19.2
365.7	19.24
365.909	19.27
366.118	19.41
366.327	19.47
366.536	19.67
366.745	19.52
366.954	19.31
367.162	18.69
367.371	18.77
367.58	18.87
367.789	18.65
367.998	18.56
368.207	18.59
368.415	18.49
368.624	18.47
368.833	18.56
369.042	18.44
369.25	18.69
369.459	18.96
369.668	18.8
369.877	18.63
370.085	18.38
370.294	18.48
370.503	18.26
370.711	18
370.92	18.04
371.129	17.85
371.337	17.77
371.546	17.52
371.754	17.28
371.963	17.25
372.171	17.26
372.38	17.5
372.589	17.37
372.797	17.26
373.006	17.12
373.214	17.02
373.423	16.96
373.631	16.77
373.84	16.47
374.048	16.56
374.256	16.41
374.465	16.2
374.673	16.02
374.882	15.97
375.09	15.96
375.298	16.01
375.507	15.81
375.715	15.38
375.923	15.35
376.132	15.8
376.34	15.79
376.548	15.85
376.757	15.74
376.965	15.79
377.173	15.7
377.381	15.7
377.59	15.66
377.798	15.86
378.006	16.01
378.214	15.97
378.423	15.38
378.631	15.04
378.839	14.96
379.047	15.03
379.255	14.79
379.463	14.68
379.671	14.78
379.879	14.71
380.088	14.49
380.296	14.67
380.504	14.54
380.712	14.77
380.92	14.95
381.128	14.82
381.336	14.89
381.544	14.86
381.752	14.77
381.96	14.22
382.168	14.23
382.376	14.1
382.584	13.89
382.791	14.07
382.999	13.97
383.207	13.91
383.415	13.74
383.623	13.75
383.831	13.95
384.039	14.08
384.247	14.5
384.454	14.49
384.662	14.3
384.87	14.29
385.078	14.06
385.285	13.96
385.493	13.9
385.701	14.03
385.909	13.74
386.116	13.4
386.324	13.31
386.532	13.01
386.739	12.78
386.947	12.94
387.155	12.72
387.362	12.69
387.57	12.94
387.778	12.95
387.985	12.78
388.193	12.83
388.4	12.92
388.608	12.86
388.816	12.75
389.023	12.67
389.231	12.54
389.438	12.52
389.646	12.47
389.853	12.1
390.061	12
390.268	11.97
390.475	11.96
390.683	11.96
390.89	11.96
391.098	12.09
391.305	12.13
391.512	12.04
391.72	12.05
391.927	12
392.135	11.88
392.342	11.7
392.549	11.55
392.756	11.37
392.964	11.15
393.171	10.96
393.378	10.89
393.586	10.81
393.793	10.81
394	10.62
394.207	10.65
394.414	10.85
394.622	10.81
394.829	10.83
395.036	10.81
395.243	10.62
395.45	10.49
395.657	10.42
395.864	10.64
396.072	10.64
396.279	10.57
396.486	10.39
396.693	10.12
396.9	10.1
397.107	10.08
397.314	10.29
397.521	10.57
397.728	10.34
397.935	10.25
398.142	9.9
398.349	9.79
398.556	9.86
398.763	10.04
398.97	10.29
399.177	10.26
399.383	10.1
399.59	9.74
399.797	9.74
400.004	9.9
400.211	9.94
400.418	9.88
400.625	10.04
400.831	10.2
401.038	10.02
401.245	9.81
401.452	9.92
401.658	9.88
401.865	9.79
402.072	9.61
402.279	9.71
402.485	9.51
402.692	9.71
402.899	9.41
403.105	9.19
403.312	9.12
403.519	9.16
403.725	9
403.932	9.28
404.138	9.28
404.345	9.33
404.552	9.26
404.758	9.38
404.965	9.07
405.171	9.02
405.378	8.97
405.584	8.96
405.791	8.92
405.997	8.8
406.204	8.58
406.41	8.6
406.617	8.56
406.823	8.49
407.029	8.32
407.236	8.44
407.442	8.38
407.649	8.45
407.855	8.18
408.061	8.08
408.268	8.06
408.474	7.95
408.68	8.02
408.887	7.95
409.093	7.91
409.299	7.99
409.505	7.91
409.712	8.02
409.918	7.94
410.124	8.23
410.33	8.2
410.537	8.11
410.743	8.1
410.949	8.07
411.155	7.92
411.361	7.85
411.567	7.78
411.773	7.74
411.98	7.68
412.186	7.52
412.392	7.23
412.598	7.3
412.804	7.53
413.01	7.54
413.216	7.36
413.422	7.55
413.628	7.66
413.834	7.54
414.04	7.51
414.246	7.41
414.452	7.5
414.658	7.67
414.864	7.67
415.07	7.56
415.275	7.54
415.481	7.6
415.687	7.43
415.893	7.29
416.099	7.4
416.305	7.39
416.511	7.39
416.716	7.38
416.922	7.47
417.128	7.5
417.334	7.48
417.539	7.43
417.745	7.6
417.951	7.6
418.157	7.69
418.362	7.61
418.568	7.72
418.774	7.78
418.979	7.75
419.185	7.68
419.391	7.58
419.596	7.56
419.802	7.59
420.008	7.45
420.213	6.84
420.419	6.77
420.624	6.81
420.83	6.73
421.035	6.72
421.241	6.75
421.446	6.7
421.652	6.68
421.857	6.66
422.063	6.64
422.268	6.6
422.474	7.19
422.679	7.21
422.885	7.17
423.09	7.15
423.295	7.13
423.501	7.13
423.706	7.12
423.911	7.1
424.117	7.14
424.322	7.14
424.527	7.1
424.733	7.05
424.938	7
425.143	6.95
425.349	6.92
425.554	6.89
425.759	6.78
425.964	6.74
426.169	6.8
426.375	6.67
426.58	6.69
426.785	6.62
426.99	6.49
427.195	6.43
427.4	6.41
427.605	6.36
427.811	6.3
428.016	6.25
428.221	6.25
428.426	5.99
428.631	5.9
428.836	5.73
429.041	5.73
429.246	5.73
429.451	5.7
429.656	5.7
429.861	5.69
430.066	5.67
430.271	5.78
430.476	5.79
430.681	5.93
430.886	5.99
431.09	6.14
431.295	6.23
431.5	6.27
431.705	6.42
431.91	6.44
432.115	6.49
432.32	6.43
432.524	6.33
432.729	6.34
432.934	6.3
433.139	6.39
433.343	6.2
433.548	6.23
433.753	6.29
433.958	6.23
434.162	6.26
434.367	6.32
434.572	6.41
434.776	6.54
434.981	6.49
435.186	6.54
435.39	6.57
435.595	6.79
435.799	6.74
436.004	6.79
436.209	6.77
436.413	6.73
436.618	6.6
436.822	6.51
437.027	6.4
437.231	6.33
437.436	6.24
437.64	6.21
437.845	6.12
438.049	6.23
438.253	6.23
438.458	6.32
438.662	6.34
438.867	6.42
439.071	6.48
439.275	6.6
439.48	6.65
439.684	6.66
439.888	6.65
440.093	6.65
440.297	6.46
440.501	6.42
440.706	6.36
440.91	6.41
441.114	6.33
441.318	6.37
441.523	6.34
441.727	6.35
441.931	6.42
442.135	6.4
442.339	6.35
442.543	6.48
442.748	6.45
442.952	6.49
443.156	6.38
443.36	6.49
443.564	6.37
443.768	6.21
443.972	6.23
444.176	6.19
444.38	6.23
444.584	6.29
444.788	6.22
444.992	6.23
445.196	6.19
445.4	6.26
445.604	6.18
445.808	6.3
446.012	6.38
446.216	6.37
446.42	6.36
446.624	6.34
446.828	6.29
447.032	6.3
447.235	6.26
447.439	6.24
447.643	6.19
447.847	6.16
448.051	6
448.254	5.86
448.458	5.76
448.662	5.76
448.866	5.61
449.069	5.64
449.273	5.59
449.477	5.63
449.681	5.56
449.884	5.56
450.088	5.53
450.292	5.69
450.495	5.75
450.699	5.77
450.902	5.72
451.106	5.8
451.31	5.7
451.513	5.72
451.717	5.63
451.92	5.67
452.124	5.71
452.327	5.76
452.531	5.72
452.734	5.72
452.938	5.8
453.141	5.66
453.345	5.77
453.548	5.87
453.752	5.89
453.955	5.9
454.158	5.88
454.362	5.75
454.565	5.69
454.769	5.63
454.972	5.6
455.175	5.51
455.379	5.58
455.582	5.48
455.785	5.36
455.988	5.32
456.192	5.31
456.395	5.35
456.598	5.37
456.801	5.47
457.005	5.54
457.208	5.6
457.411	5.56
457.614	5.64
457.817	5.65
458.021	5.73
458.224	5.78
458.427	5.76
458.63	5.75
458.833	5.77
459.036	5.77
459.239	5.67
459.442	5.66
459.645	5.69
459.848	5.61
460.051	5.65
460.254	5.56
460.457	5.52
460.66	5.52
460.863	5.51
461.066	5.45
461.269	5.47
461.472	5.55
461.675	5.56
461.878	5.63
462.081	5.65
462.284	5.58
462.486	5.63
462.689	5.75
462.892	5.79
463.095	5.78
463.298	5.89
463.5	5.82
463.703	5.64
463.906	5.59
464.109	5.53
464.311	5.58
464.514	5.74
464.717	5.87
