Data from 2938760__Reflection_03.txt Node
Date: Fri Mar 13 17:48:06 EDT 2015
User: robert
Spectrometer: USB4E03002
Autoset integration time: false
Trigger mode: 4
Integration Time (sec): 1.000000E-1
Scans to average: 10
Electric dark correction enabled: false
Nonlinearity correction enabled: false
Boxcar width: 5
Stray light correction enabled: false
XAxis mode: Wavelengths
Stop averaging: false
Number of Pixels in Spectrum: 3648
>>>>>Begin Spectral Data<<<<<
177.575	-222.92
177.794	-1507.69
178.014	-330.77
178.233	-226.62
178.452	-199.54
178.672	-183.81
178.891	-115.68
179.11	-90.49
179.33	-155.89
179.549	-362.67
179.768	-300.34
179.987	-401.15
180.207	-324.46
180.426	-336.66
180.645	-1180
180.864	-4990.48
181.084	1233.71
181.303	1157.47
181.522	463.72
181.741	719.86
181.96	944.68
182.179	456.19
182.398	401.24
182.618	320.44
182.837	204.13
183.056	269.36
183.275	255.56
183.494	186.76
183.713	173.7
183.932	118.85
184.151	105.26
184.37	108.29
184.589	80.87
184.808	96.77
185.027	109.06
185.246	107.23
185.465	98.67
185.684	128.49
185.903	158.31
186.122	168.61
186.341	274.77
186.56	1276.6
186.779	417.12
186.998	-200
187.216	-510.61
187.435	300
187.654	-3066.67
187.873	-292.67
188.092	9700
188.311	729.41
188.53	297
188.748	354.9
188.967	327.12
189.186	350.3
189.405	253.56
189.623	297.45
189.842	478.16
190.061	718.95
190.28	456.51
190.498	511.64
190.717	407.44
190.936	521.62
191.154	399.56
191.373	404.87
191.592	412.12
191.81	445.8
192.029	736
192.248	829.91
192.466	314.37
192.685	270.59
192.904	335.99
193.122	326.14
193.341	450
193.559	984.54
193.778	1284.29
193.996	2966.67
194.215	-1904.88
194.433	2793.1
194.652	-939.44
194.87	-292.93
195.089	-2826.32
195.307	1155.36
195.526	-3588.24
195.744	797.03
195.963	425.36
196.181	346.74
196.399	352.02
196.618	334.17
196.836	326.87
197.055	270.94
197.273	240.37
197.491	321.02
197.71	228.02
197.928	180.19
198.146	176.83
198.365	162.92
198.583	141.45
198.801	111.55
199.019	112.18
199.238	130.01
199.456	122.35
199.674	137.32
199.892	124.72
200.111	163.14
200.329	187.87
200.547	233.76
200.765	300
200.983	366.16
201.202	372.41
201.42	339.68
201.638	272.84
201.856	397.97
202.074	271.46
202.292	328.37
202.51	235.91
202.728	280.16
202.946	190.63
203.165	168.91
203.383	153.9
203.601	150.83
203.819	171.87
204.037	214.07
204.255	225.88
204.473	265.05
204.691	179.79
204.909	167.87
205.127	156.82
205.345	181.64
205.562	210.88
205.78	203.81
205.998	242.16
206.216	403.81
206.434	245.56
206.652	233
206.87	432.3
207.088	406.37
207.306	1473.02
207.523	804.35
207.741	679.55
207.959	471.73
208.177	587.6
208.395	216.18
208.612	116.98
208.83	137.74
209.048	155.02
209.266	125.2
209.483	121.61
209.701	112.76
209.919	138.79
210.136	144.02
210.354	182.59
210.572	184.88
210.79	201.69
211.007	218.2
211.225	205.21
211.442	247.2
211.66	224.88
211.878	178.32
212.095	196.94
212.313	162.49
212.53	163.68
212.748	145.78
212.966	162.83
213.183	166.14
213.401	191.48
213.618	164.01
213.836	136.96
214.053	141.64
214.271	206.96
214.488	205.92
214.705	278.17
214.923	284.48
215.14	299.66
215.358	280.19
215.575	207.74
215.793	156.02
216.01	193.39
216.227	180.67
216.445	158.9
216.662	129.06
216.879	119.72
217.097	111.59
217.314	100
217.531	101.48
217.749	92.27
217.966	108.24
218.183	112.79
218.4	106.24
218.618	100.08
218.835	106.11
219.052	116.75
219.269	116.71
219.487	119.1
219.704	113.21
219.921	111.32
220.138	108.49
220.355	90.78
220.572	83.01
220.79	78.07
221.007	73.37
221.224	57.74
221.441	56.77
221.658	52.38
221.875	49.72
222.092	54.65
222.309	53.98
222.526	60.86
222.743	57.16
222.96	55.97
223.177	55.8
223.394	61.36
223.611	60.31
223.828	51.91
224.045	50.8
224.262	44.3
224.479	39.24
224.696	38.01
224.913	37.01
225.13	37.87
225.347	32.06
225.564	30.97
225.781	24.3
225.997	22.51
226.214	21.03
226.431	19.3
226.648	16.92
226.865	16.05
227.082	15.04
227.298	9.96
227.515	9.54
227.732	9.5
227.949	8.53
228.165	8.98
228.382	7.9
228.599	8.18
228.816	7.81
229.032	8.07
229.249	7.45
229.466	7.17
229.682	8.12
229.899	8.28
230.116	7.84
230.332	8.31
230.549	8.49
230.765	9.13
230.982	9.15
231.199	9.94
231.415	11.66
231.632	12.65
231.848	13.97
232.065	15.95
232.281	17.28
232.498	18.93
232.714	19.02
232.931	20.46
233.147	21.84
233.364	21.59
233.58	20.24
233.797	17.34
234.013	16.74
234.23	14.82
234.446	13.49
234.662	12.73
234.879	12.72
235.095	12
235.312	9.54
235.528	7.17
235.744	7.02
235.961	8.34
236.177	9.7
236.393	10.22
236.61	10.58
236.826	10.44
237.042	10.19
237.258	10.06
237.475	11.25
237.691	14.11
237.907	14.67
238.123	15.36
238.339	15.93
238.556	16.38
238.772	16
238.988	15.12
239.204	14.9
239.42	14.07
239.636	13.42
239.853	12.36
240.069	10.36
240.285	10.57
240.501	9.47
240.717	8.99
240.933	8.76
241.149	8.02
241.365	7.54
241.581	7.12
241.797	6.97
242.013	6.56
242.229	6.13
242.445	6.09
242.661	6.1
242.877	6.6
243.093	6.12
243.309	5.36
243.525	5.33
243.741	6.68
243.957	7.32
244.173	7.57
244.388	8.16
244.604	8.77
244.82	9.05
245.036	8.94
245.252	8.09
245.468	8
245.683	8.39
245.899	7.96
246.115	6.99
246.331	6.67
246.547	6.3
246.762	5.77
246.978	5.71
247.194	5.4
247.409	5.27
247.625	5.47
247.841	5.52
248.057	4.92
248.272	5.02
248.488	5
248.703	4.9
248.919	4.92
249.135	4.87
249.35	4.68
249.566	4.98
249.782	4.31
249.997	3.89
250.213	4.03
250.428	5.38
250.644	6.06
250.859	6.17
251.075	5.65
251.29	5.87
251.506	5.97
251.721	5.63
251.937	5.3
252.152	6.09
252.368	5.49
252.583	5.37
252.798	5.16
253.014	5.35
253.229	6.27
253.445	6.53
253.66	7.19
253.875	7.12
254.091	7.77
254.306	8.37
254.521	8.36
254.737	9.84
254.952	8.72
255.167	8.81
255.383	7.96
255.598	6.75
255.813	7.13
256.028	7.4
256.244	7.66
256.459	7.18
256.674	6.43
256.889	6.66
257.104	6.39
257.32	7
257.535	5.65
257.75	5.39
257.965	5.31
258.18	5.18
258.395	4.56
258.61	4.44
258.826	4.14
259.041	3.94
259.256	3.73
259.471	3.57
259.686	3.7
259.901	4.14
260.116	4.26
260.331	3.91
260.546	3.8
260.761	3.74
260.976	4.02
261.191	4.13
261.406	4.59
261.621	4.81
261.836	5.17
262.05	5.16
262.265	5.15
262.48	5.29
262.695	6
262.91	6.47
263.125	6.77
263.34	6.91
263.555	7.36
263.769	7.15
263.984	7.29
264.199	6.81
264.414	7.52
264.629	7.53
264.843	7.27
265.058	7.31
265.273	7.39
265.488	7.21
265.702	6.99
265.917	7.01
266.132	7.38
266.346	7.35
266.561	7.55
266.776	6.96
266.99	6.82
267.205	6.91
267.42	6.73
267.634	6.36
267.849	6.4
268.063	6.23
268.278	5.98
268.492	5.66
268.707	5.28
268.922	5.63
269.136	5.69
269.351	5.75
269.565	5.4
269.78	5.43
269.994	5.26
270.209	4.94
270.423	5.12
270.637	5.24
270.852	5.31
271.066	5.2
271.281	4.75
271.495	4.61
271.709	4.34
271.924	4.06
272.138	4.03
272.353	3.98
272.567	4.25
272.781	4.15
272.996	3.88
273.21	3.89
273.424	3.79
273.638	3.74
273.853	3.6
274.067	3.96
274.281	4.44
274.495	4.32
274.71	4.26
274.924	3.7
275.138	3.75
275.352	3.82
275.566	3.55
275.781	3.86
275.995	3.43
276.209	4.04
276.423	3.73
276.637	3.69
276.851	3.97
277.065	4
277.279	4.32
277.493	3.92
277.707	4.44
277.921	4.15
278.135	3.94
278.349	4.01
278.563	4.04
278.777	4.41
278.991	4.41
279.205	4.19
279.419	4.21
279.633	4.34
279.847	4.29
280.061	4.1
280.275	4.47
280.489	4.54
280.703	5.3
280.917	4.83
281.131	4.47
281.344	4.4
281.558	4.25
281.772	4.19
281.986	4.27
282.2	4.55
282.414	4.23
282.627	4.22
282.841	4.05
283.055	4.07
283.269	3.88
283.482	3.64
283.696	3.71
283.91	3.8
284.123	3.74
284.337	3.45
284.551	3.44
284.764	3.59
284.978	3.69
285.192	3.94
285.405	3.68
285.619	3.84
285.833	4
286.046	4.01
286.26	3.97
286.473	4.19
286.687	4.41
286.9	4.54
287.114	4.65
287.327	4.43
287.541	4.1
287.754	3.87
287.968	4.16
288.181	4.19
288.395	3.76
288.608	3.89
288.822	3.59
289.035	3.3
289.248	2.95
289.462	3.01
289.675	2.78
289.889	3.27
290.102	2.95
290.315	2.49
290.529	2.46
290.742	2.72
290.955	2.7
291.169	2.8
291.382	2.87
291.595	2.79
291.808	2.7
292.022	2.71
292.235	2.53
292.448	3.26
292.661	3.43
292.875	3.62
293.088	3.53
293.301	3.46
293.514	3.61
293.727	3.52
293.94	3.54
294.153	3.62
294.367	3.75
294.58	3.75
294.793	3.49
295.006	3.6
295.219	3.44
295.432	3.56
295.645	3.49
295.858	3.55
296.071	3.47
296.284	3.6
296.497	3.79
296.71	3.94
296.923	3.82
297.136	4
297.349	4.12
297.562	4.11
297.775	3.99
297.988	4.16
298.201	4.12
298.414	4.32
298.626	4.43
298.839	4.31
299.052	4.13
299.265	4.42
299.478	4.27
299.691	4.2
299.903	4.25
300.116	4.29
300.329	4.28
300.542	3.92
300.755	3.78
300.967	3.81
301.18	3.68
301.393	4.02
301.605	3.82
301.818	3.58
302.031	3.33
302.243	3.42
302.456	3.73
302.669	3.35
302.881	3.69
303.094	3.87
303.307	3.88
303.519	3.97
303.732	4.03
303.944	3.89
304.157	4.34
304.37	4.34
304.582	4.5
304.795	4.26
305.007	4.74
305.22	4.72
305.432	4.47
305.645	4.55
305.857	4.49
306.069	4.29
306.282	4.35
306.494	4.54
306.707	4.71
306.919	4.47
307.132	4.64
307.344	4.75
307.556	4.73
307.769	5.16
307.981	4.72
308.193	4.66
308.406	4.65
308.618	4.79
308.83	4.55
309.043	4.5
309.255	4.52
309.467	4.31
309.679	3.95
309.892	4.18
310.104	3.78
310.316	4.35
310.528	4.31
310.74	4.35
310.953	4.48
311.165	4.74
311.377	4.82
311.589	4.73
311.801	5
312.013	5.17
312.225	5.15
312.437	5.63
312.649	5.33
312.862	5.38
313.074	5.39
313.286	5.25
313.498	5.15
313.71	4.97
313.922	5.25
314.134	4.99
314.346	4.91
314.558	4.89
314.77	4.92
314.982	4.82
315.193	4.89
315.405	4.75
315.617	4.76
315.829	4.59
316.041	5.11
316.253	5.08
316.465	5.29
316.677	5.58
316.888	5.66
317.1	5.66
317.312	5.93
317.524	6.13
317.736	5.95
317.947	5.98
318.159	6.35
318.371	6.36
318.583	6.89
318.794	6.91
319.006	7.27
319.218	7.07
319.43	6.94
319.641	7.18
319.853	7.07
320.064	7.95
320.276	8.48
320.488	8.26
320.699	8.23
320.911	8.11
321.123	8.2
321.334	8.02
321.546	8.45
321.757	8.73
321.969	8.51
322.18	8.71
322.392	8.55
322.603	7.97
322.815	8.45
323.026	8.24
323.238	7.88
323.449	8.14
323.661	8.13
323.872	8.08
324.083	8.31
324.295	8.7
324.506	8.58
324.718	8.55
324.929	9.06
325.14	8.89
325.352	9.54
325.563	10.04
325.774	10.38
325.986	10.59
326.197	11.19
326.408	11.39
326.62	11.45
326.831	11.96
327.042	12.86
327.253	13.25
327.464	13.67
327.676	13.86
327.887	14.3
328.098	14.79
328.309	15.44
328.52	15.56
328.732	15.72
328.943	16.43
329.154	16.7
329.365	16.56
329.576	17.13
329.787	17.57
329.998	18.03
330.209	18.4
330.42	18.89
330.631	18.94
330.842	19.33
331.053	20.31
331.264	20.62
331.475	21.29
331.686	21.61
331.897	22.04
332.108	22.4
332.319	22.41
332.53	22.6
332.741	22.68
332.952	23.45
333.163	23.75
333.374	24.07
333.585	24.47
333.795	25.07
334.006	25.36
334.217	25.53
334.428	25.72
334.639	26.39
334.849	26.65
335.06	26.51
335.271	26.44
335.482	26.82
335.692	26.79
335.903	26.95
336.114	27.27
336.325	27.77
336.535	27.7
336.746	27.78
336.957	27.66
337.167	27.84
337.378	28.3
337.589	28.25
337.799	28.35
338.01	28.35
338.22	28.2
338.431	27.81
338.642	27.78
338.852	27.65
339.063	27.88
339.273	28.19
339.484	28.03
339.694	27.99
339.905	28.4
340.115	28.53
340.326	28.5
340.536	28.75
340.746	28.85
340.957	29.16
341.167	29.3
341.378	29.44
341.588	29.14
341.799	29.12
342.009	29.11
342.219	29.08
342.43	28.84
342.64	29
342.85	28.57
343.061	28.6
343.271	28.26
343.481	28.15
343.691	27.99
343.902	27.92
344.112	27.87
344.322	27.83
344.532	27.78
344.743	27.73
344.953	27.49
345.163	27.72
345.373	27.66
345.583	27.6
345.793	27.64
346.004	27.48
346.214	27.52
346.424	27.66
346.634	27.52
346.844	27.37
347.054	27.39
347.264	27.42
347.474	27.42
347.684	27.29
347.894	27.24
348.104	27.61
348.314	27.68
348.524	27.53
348.734	27.43
348.944	27.4
349.154	27.23
349.364	27.15
349.574	27.17
349.784	27.29
349.994	27.25
350.204	27.23
350.413	26.75
350.623	26.84
350.833	27.12
351.043	27.36
351.253	27.5
351.463	27.5
351.672	27.54
351.882	27.76
352.092	27.51
352.302	27.74
352.511	27.81
352.721	28.01
352.931	27.77
353.141	27.76
353.35	27.68
353.56	27.61
353.77	27.59
353.979	27.66
354.189	27.76
354.399	27.83
354.608	27.68
354.818	27.62
355.027	27.47
355.237	27.52
355.447	27.37
355.656	27.23
355.866	27.21
356.075	27.05
356.285	26.83
356.494	26.57
356.704	26.41
356.913	26.42
357.123	26.25
357.332	26.23
357.542	26.15
357.751	26.25
357.96	26.25
358.17	26.19
358.379	26.32
358.589	26.4
358.798	26.29
359.007	26.2
359.217	26.05
359.426	26.03
359.635	26.13
359.845	26.26
360.054	26.11
360.263	26.05
360.472	26.1
360.682	25.98
360.891	25.82
361.1	25.79
361.309	25.9
361.519	25.94
361.728	25.77
361.937	25.63
362.146	25.52
362.355	25.5
362.564	25.41
362.774	25.41
362.983	25.34
363.192	25.23
363.401	25.25
363.61	25.17
363.819	25.07
364.028	25.08
364.237	24.83
364.446	24.81
364.655	24.58
364.864	24.63
365.073	24.43
365.282	24.52
365.491	24.65
365.7	24.54
365.909	24.63
366.118	24.57
366.327	24.61
366.536	25.03
366.745	25
366.954	25.12
367.162	25.13
367.371	25.03
367.58	25.07
367.789	25.11
367.998	25.17
368.207	24.98
368.415	24.91
368.624	24.98
368.833	24.62
369.042	24.7
369.25	24.87
369.459	24.82
369.668	24.91
369.877	24.66
370.085	24.43
370.294	24.23
370.503	24.37
370.711	24.45
370.92	24.44
371.129	24.75
371.337	24.47
371.546	24.46
371.754	24.45
371.963	24.61
372.171	24.66
372.38	24.76
372.589	24.86
372.797	24.71
373.006	24.65
373.214	24.67
373.423	24.68
373.631	24.93
373.84	24.75
374.048	24.73
374.256	24.6
374.465	24.67
374.673	24.88
374.882	24.94
375.09	25.24
375.298	25.31
375.507	25.44
375.715	25.32
375.923	25.33
376.132	25.33
376.34	25.28
376.548	25.25
376.757	25.14
376.965	25.12
377.173	25.02
377.381	24.89
377.59	24.85
377.798	24.95
378.006	24.85
378.214	24.62
378.423	24.42
378.631	24.54
378.839	24.48
379.047	24.67
379.255	24.82
379.463	24.89
379.671	24.86
379.879	24.98
380.088	24.67
380.296	24.52
380.504	24.63
380.712	24.8
380.92	24.47
381.128	24.62
381.336	24.68
381.544	24.55
381.752	24.46
381.96	24.41
382.168	24.29
382.376	24.27
382.584	24.51
382.791	24.38
382.999	24.35
383.207	24.73
383.415	24.53
383.623	24.46
383.831	24.18
384.039	24.23
384.247	24.25
384.454	24.21
384.662	24.27
384.87	24.04
385.078	24.09
385.285	23.97
385.493	23.95
385.701	23.91
385.909	23.77
386.116	23.78
386.324	23.69
386.532	23.52
386.739	23.64
386.947	23.64
387.155	23.65
387.362	23.72
387.57	23.79
387.778	23.48
387.985	23.62
388.193	23.66
388.4	23.7
388.608	23.68
388.816	23.64
389.023	23.68
389.231	23.7
389.438	23.72
389.646	23.64
389.853	23.58
390.061	23.72
390.268	23.56
390.475	23.57
390.683	23.76
390.89	23.75
391.098	23.74
391.305	23.49
391.512	23.63
391.72	23.65
391.927	23.65
392.135	23.51
392.342	23.43
392.549	23.49
392.756	23.42
392.964	23.4
393.171	23.41
393.378	23.49
393.586	23.48
393.793	23.35
394	23.57
394.207	23.71
394.414	23.86
394.622	23.83
394.829	23.98
395.036	24.07
395.243	24
395.45	23.94
395.657	23.95
395.864	24.05
396.072	23.92
396.279	23.78
396.486	23.57
396.693	23.52
396.9	23.77
397.107	23.74
397.314	23.68
397.521	23.5
397.728	23.66
397.935	23.75
398.142	23.83
398.349	23.98
398.556	23.71
398.763	23.85
398.97	23.96
399.177	24.01
399.383	23.93
399.59	23.88
399.797	24.02
400.004	23.94
400.211	23.78
400.418	23.74
400.625	23.55
400.831	23.76
401.038	23.69
401.245	23.7
401.452	23.43
401.658	23.36
401.865	23.48
402.072	23.36
402.279	23.59
402.485	23.5
402.692	23.62
402.899	23.74
403.105	23.9
403.312	24.01
403.519	23.99
403.725	24
403.932	24.14
404.138	24.17
404.345	24.27
404.552	24.08
404.758	24.2
404.965	24.03
405.171	24.09
405.378	23.9
405.584	23.87
405.791	23.84
405.997	23.84
406.204	23.76
406.41	23.68
406.617	23.64
406.823	23.49
407.029	23.43
407.236	23.53
407.442	23.29
407.649	23.48
407.855	23.39
408.061	23.45
408.268	23.67
408.474	23.64
408.68	23.73
408.887	23.84
409.093	24.08
409.299	24.32
409.505	24.26
409.712	24.37
409.918	24.32
410.124	24.38
410.33	24.34
410.537	24.17
410.743	24.29
410.949	24.12
411.155	24.03
411.361	23.97
411.567	23.69
411.773	23.7
411.98	23.79
412.186	23.86
412.392	23.79
412.598	23.67
412.804	23.71
413.01	23.74
413.216	23.85
413.422	24
413.628	23.97
413.834	24.29
414.04	24.3
414.246	24.12
414.452	24.11
414.658	24.08
414.864	24.22
415.07	24.2
415.275	24.15
415.481	24.38
415.687	24.32
415.893	24.24
416.099	24.1
416.305	24.02
416.511	24.17
416.716	23.98
416.922	24.01
417.128	24.07
417.334	23.94
417.539	23.92
417.745	23.74
417.951	23.65
418.157	23.61
418.362	23.5
418.568	23.57
418.774	23.65
418.979	23.83
419.185	23.82
419.391	23.77
419.596	23.85
419.802	23.83
420.008	23.87
420.213	23.89
420.419	23.96
420.624	24.06
420.83	24.07
421.035	23.97
421.241	23.87
421.446	23.95
421.652	23.98
421.857	23.96
422.063	23.99
422.268	23.95
422.474	23.99
422.679	24.03
422.885	23.89
423.09	23.88
423.295	23.87
423.501	23.84
423.706	23.82
423.911	23.78
424.117	23.85
424.322	23.8
424.527	23.83
424.733	23.74
424.938	23.7
425.143	23.76
425.349	23.78
425.554	23.81
425.759	23.83
425.964	23.79
426.169	23.85
426.375	23.83
426.58	23.89
426.785	23.88
426.99	24.04
427.195	24.02
427.4	24.12
427.605	24.09
427.811	24.06
428.016	24.08
428.221	24.16
428.426	24.19
428.631	24.1
428.836	24.13
429.041	24.09
429.246	24.05
429.451	24.06
429.656	24.11
429.861	24.1
430.066	24.16
430.271	24.25
430.476	24.25
430.681	24.22
430.886	24.32
431.09	24.41
431.295	24.45
431.5	24.46
431.705	24.47
431.91	24.35
432.115	24.49
432.32	24.56
432.524	24.46
432.729	24.41
432.934	24.5
433.139	24.55
433.343	24.42
433.548	24.48
433.753	24.53
433.958	24.55
434.162	24.62
434.367	24.59
434.572	24.54
434.776	24.7
434.981	24.74
435.186	24.74
435.39	24.77
435.595	24.91
435.799	24.78
436.004	24.69
436.209	24.75
436.413	24.76
436.618	24.76
436.822	24.76
437.027	24.71
437.231	24.71
437.436	24.56
437.64	24.62
437.845	24.55
438.049	24.67
438.253	24.82
438.458	24.8
438.662	24.85
438.867	24.8
439.071	24.76
439.275	24.76
439.48	24.74
439.684	24.81
439.888	24.73
440.093	24.65
440.297	24.7
440.501	24.66
440.706	24.62
440.91	24.58
441.114	24.67
441.318	24.67
441.523	24.6
441.727	24.61
441.931	24.64
442.135	24.74
442.339	24.87
442.543	24.74
442.748	24.71
442.952	24.8
443.156	24.87
443.36	24.84
443.564	24.9
443.768	24.95
443.972	25.09
444.176	25.1
444.38	25.07
444.584	24.93
444.788	24.88
444.992	24.86
445.196	24.79
445.4	24.77
445.604	24.74
445.808	24.69
446.012	24.66
446.216	24.54
446.42	24.52
446.624	24.52
446.828	24.58
447.032	24.63
447.235	24.63
447.439	24.71
447.643	24.74
447.847	24.75
448.051	24.81
448.254	24.82
448.458	24.87
448.662	24.84
448.866	24.84
449.069	24.86
449.273	24.86
449.477	24.9
449.681	24.83
449.884	24.83
450.088	24.76
450.292	24.69
450.495	24.72
450.699	24.73
450.902	24.9
451.106	24.8
451.31	24.85
451.513	24.95
451.717	25.03
451.92	25.1
452.124	25.08
452.327	25.13
452.531	25.25
452.734	25.3
452.938	25.21
453.141	25.06
453.345	25.1
453.548	25.12
453.752	25.14
453.955	25.03
454.158	25.06
454.362	25.09
454.565	25.09
454.769	25.04
454.972	25.12
455.175	25.3
455.379	25.31
455.582	25.35
455.785	25.26
455.988	25.28
456.192	25.31
456.395	25.23
456.598	25.24
456.801	25.26
457.005	25.25
457.208	25.2
457.411	24.97
457.614	25.08
457.817	25.15
458.021	25.07
458.224	25.06
458.427	25.06
458.63	25.09
458.833	25.16
459.036	25.22
459.239	25.2
459.442	25.09
459.645	25.2
459.848	25.15
460.051	25.04
