Data from 2938752__Reflection_01.txt Node
Date: Sat Mar 14 14:29:28 EDT 2015
User: robert
Spectrometer: USB4E03002
Autoset integration time: false
Trigger mode: 4
Integration Time (sec): 1.000000E-1
Scans to average: 10
Electric dark correction enabled: false
Nonlinearity correction enabled: false
Boxcar width: 5
Stray light correction enabled: false
XAxis mode: Wavelengths
Stop averaging: false
Number of Pixels in Spectrum: 3648
>>>>>Begin Spectral Data<<<<<
177.575	227.12
177.794	319.13
178.014	319.06
178.233	377.34
178.452	463.75
178.672	544.68
178.891	972.5
179.11	1189.34
179.33	2047.06
179.549	644.19
179.768	783.84
179.987	609.82
180.207	995.6
180.426	6753.85
180.645	3551.02
180.864	3631.11
181.084	1073.81
181.303	791.3
181.522	2310.26
181.741	2980.95
181.96	-1207.09
182.179	-1093.13
182.398	-793.24
182.618	-1005.49
182.837	2684.13
183.056	959.16
183.275	1743.4
183.494	4252.5
183.713	1385.25
183.932	897.04
184.151	904.52
184.37	467.42
184.589	379.75
184.808	375.62
185.027	281.08
185.246	310.92
185.465	507.99
185.684	388.74
185.903	729.72
186.122	4532.5
186.341	-4655.56
186.56	-1357.02
186.779	-1008.97
186.998	-1229.92
187.216	-10275
187.435	-1743.3
187.654	-11337.5
187.873	2466.67
188.092	-834.42
188.311	1651.3
188.53	845.05
188.748	1199.37
188.967	1342.25
189.186	1940.78
189.405	1156.8
189.623	1592.74
189.842	1152.63
190.061	8226.09
190.28	-10964.71
190.498	922.17
190.717	2161.8
190.936	-61900
191.154	723.51
191.373	521.47
191.592	492.33
191.81	476.61
192.029	377.57
192.248	324.77
192.466	330.26
192.685	236.09
192.904	169.23
193.122	171.67
193.341	174.12
193.559	200.84
193.778	222.98
193.996	227.72
194.215	270.8
194.433	322.62
194.652	371.76
194.87	343.16
195.089	422.36
195.307	368.73
195.526	352.85
195.744	385.61
195.963	372.48
196.181	319.76
196.399	376.73
196.618	354.79
196.836	322.48
197.055	333.81
197.273	402.15
197.491	573.1
197.71	1349.35
197.928	892.37
198.146	575.95
198.365	626.92
198.583	987.37
198.801	1244.2
199.019	982.72
199.238	6665.22
199.456	1641.05
199.674	1994.37
199.892	651.85
200.111	1335.34
200.329	-1200
200.547	-2485.48
200.765	-707.83
200.983	-1726.88
201.202	-1466.98
201.42	-1511.11
201.638	-20987.5
201.856	6635.71
202.074	1024.04
202.292	1288.43
202.51	1639.78
202.728	1150.38
202.946	634.93
203.165	573
203.383	560.15
203.601	424.42
203.819	381.51
204.037	391.89
204.255	392.68
204.473	406.83
204.691	464.01
204.909	535.47
205.127	514.81
205.345	802.48
205.562	534.46
205.78	433.88
205.998	865.34
206.216	1245.38
206.434	1845.05
206.652	2410.96
206.87	10600
207.088	1592.16
207.306	594.56
207.523	392.07
207.741	460.1
207.959	444.25
208.177	742.19
208.395	652.31
208.612	537.21
208.83	632.17
209.048	586.55
209.266	510.17
209.483	425.52
209.701	341.56
209.919	435.82
210.136	302.68
210.354	288.63
210.572	237.95
210.79	219.8
211.007	232.43
211.225	215.8
211.442	273.16
211.66	268.11
211.878	241
212.095	348.31
212.313	348.48
212.53	549.63
212.748	689.37
212.966	1085.88
213.183	1106.94
213.401	2133.68
213.618	629.14
213.836	431.89
214.053	450
214.271	538.21
214.488	462.5
214.705	358.21
214.923	235.76
215.14	203.16
215.358	203.71
215.575	192.95
215.793	161.57
216.01	169.07
216.227	162.69
216.445	157.71
216.662	150.53
216.879	133.46
217.097	118.04
217.314	138.4
217.531	144.92
217.749	135.52
217.966	166.73
218.183	176.28
218.4	179.03
218.618	166.32
218.835	158.23
219.052	165.5
219.269	180.72
219.487	179.17
219.704	167.53
219.921	164.05
220.138	158.57
220.355	136.96
220.572	126.88
220.79	120.68
221.007	137.55
221.224	140.82
221.441	135.99
221.658	131.61
221.875	128.45
222.092	139.66
222.309	135.47
222.526	122.77
222.743	117.25
222.96	114.85
223.177	111.28
223.394	100.86
223.611	89.72
223.828	84.87
224.045	78.14
224.262	82.45
224.479	71.88
224.696	69.89
224.913	70.9
225.13	67.63
225.347	64.24
225.564	67.76
225.781	63.64
225.997	59.63
226.214	57.83
226.431	52.81
226.648	44.3
226.865	40.36
227.082	37.21
227.298	30.6
227.515	26.97
227.732	23.51
227.949	21.74
228.165	19.41
228.382	18.62
228.599	16.06
228.816	15.06
229.032	13.76
229.249	12.93
229.466	12.18
229.682	12
229.899	12.07
230.116	12.92
230.332	12.08
230.549	12.76
230.765	11.54
230.982	12.08
231.199	14.61
231.415	16.22
231.632	17.98
231.848	18.49
232.065	21.46
232.281	22.11
232.498	22.49
232.714	23.63
232.931	22.28
233.147	23.6
233.364	24.02
233.58	20.56
233.797	20.96
234.013	19.76
234.23	19.61
234.446	20.24
234.662	19.28
234.879	19.27
235.095	19.51
235.312	20.35
235.528	21.9
235.744	22.39
235.961	22.92
236.177	23.25
236.393	24.14
236.61	23.72
236.826	22.46
237.042	21.05
237.258	21.5
237.475	22.5
237.691	22.69
237.907	20.45
238.123	21.19
238.339	18.33
238.556	16.19
238.772	14.67
238.988	15.01
239.204	14.26
239.42	15.77
239.636	13.1
239.853	12.27
240.069	12.21
240.285	12.21
240.501	11.1
240.717	11.2
240.933	11.31
241.149	10.45
241.365	9.57
241.581	8.93
241.797	8.78
242.013	8.73
242.229	7.64
242.445	7.46
242.661	7.41
242.877	7.11
243.093	7.26
243.309	7.65
243.525	8.49
243.741	9.67
243.957	10.17
244.173	9.8
244.388	10.73
244.604	11.8
244.82	11.6
245.036	11.82
245.252	11.66
245.468	11.83
245.683	11.35
245.899	10.79
246.115	9.38
246.331	9.22
246.547	9.1
246.762	8.91
246.978	8.47
247.194	8.69
247.409	8.36
247.625	8.53
247.841	8.51
248.057	8.28
248.272	8.15
248.488	8.84
248.703	8.48
248.919	8.79
249.135	8.31
249.35	8.47
249.566	8.11
249.782	8.89
249.997	8.48
250.213	9.64
250.428	11.29
250.644	11.3
250.859	10.6
251.075	11.15
251.29	10.57
251.506	11.66
251.721	11.69
251.937	11.67
252.152	10.96
252.368	11.06
252.583	10.51
252.798	10.07
253.014	9.35
253.229	9.86
253.445	10.11
253.66	11.01
253.875	10.93
254.091	10.86
254.306	11.43
254.521	12.43
254.737	13.11
254.952	13.24
255.167	12.95
255.383	13.53
255.598	12.8
255.813	12.66
256.028	12.91
256.244	13.11
256.459	14.1
256.674	13.97
256.889	13.01
257.104	11.71
257.32	11.81
257.535	11.91
257.75	11.63
257.965	11.25
258.18	10.94
258.395	10.33
258.61	9.94
258.826	9.3
259.041	8.6
259.256	8.46
259.471	8.62
259.686	8.4
259.901	7.98
260.116	8.21
260.331	8.29
260.546	7.94
260.761	7.91
260.976	7.51
261.191	7.24
261.406	7.42
261.621	7.62
261.836	7.65
262.05	7.39
262.265	7.31
262.48	6.78
262.695	6.43
262.91	7.39
263.125	7.26
263.34	8.15
263.555	8.12
263.769	8.02
263.984	7.68
264.199	8.03
264.414	8.06
264.629	8.44
264.843	9.62
265.058	10.33
265.273	9.55
265.488	10.01
265.702	9.97
265.917	10.37
266.132	10.59
266.346	10.41
266.561	10.27
266.776	10.11
266.99	9.92
267.205	9.6
267.42	9.36
267.634	9.38
267.849	8.87
268.063	8.97
268.278	8.88
268.492	8.8
268.707	8.91
268.922	9.02
269.136	9.01
269.351	9.36
269.565	9.06
269.78	9.04
269.994	9.26
270.209	8.87
270.423	8.26
270.637	8.15
270.852	8.08
271.066	8.03
271.281	7.67
271.495	7.85
271.709	7.7
271.924	7.38
272.138	6.94
272.353	6.87
272.567	6.93
272.781	7
272.996	7.1
273.21	7.5
273.424	7.4
273.638	7.85
273.853	7.72
274.067	7.91
274.281	8.21
274.495	8
274.71	8.08
274.924	8.03
275.138	8.14
275.352	8.17
275.566	7.59
275.781	7.93
275.995	7.47
276.209	7.47
276.423	7.51
276.637	7.54
276.851	8.15
277.065	8.1
277.279	8.3
277.493	8.4
277.707	8.7
277.921	8.69
278.135	7.98
278.349	7.96
278.563	8.29
278.777	7.77
278.991	7.31
279.205	7.34
279.419	6.97
279.633	6.99
279.847	7.03
280.061	6.67
280.275	6.71
280.489	6.9
280.703	6.77
280.917	6.26
281.131	5.95
281.344	6.44
281.558	6.42
281.772	6.68
281.986	6.58
282.2	6.49
282.414	6.15
282.627	6.08
282.841	6.28
283.055	6.65
283.269	6.71
283.482	7.33
283.696	7.03
283.91	6.75
284.123	6.38
284.337	6.51
284.551	6.52
284.764	6.72
284.978	6.56
285.192	6.52
285.405	6.24
285.619	5.95
285.833	5.75
286.046	5.66
286.26	5.71
286.473	6.05
286.687	6.08
286.9	6.06
287.114	5.88
287.327	6.02
287.541	5.96
287.754	5.85
287.968	6.03
288.181	6.01
288.395	6.05
288.608	5.63
288.822	5.06
289.035	4.97
289.248	4.73
289.462	4.95
289.675	4.51
289.889	4.77
290.102	4.73
290.315	5.16
290.529	5.08
290.742	5.26
290.955	6
291.169	6.54
291.382	6.84
291.595	7.11
291.808	7.17
292.022	8.1
292.235	8.17
292.448	8.8
292.661	9.06
292.875	9.17
293.088	9.1
293.301	8.93
293.514	8.72
293.727	8.81
293.94	8.87
294.153	8.86
294.367	8.96
294.58	8.38
294.793	8
295.006	7.5
295.219	7.29
295.432	7.36
295.645	7.14
295.858	7.05
296.071	6.53
296.284	6.66
296.497	6.58
296.71	6.1
296.923	6.44
297.136	6.31
297.349	6.43
297.562	6.53
297.775	6.61
297.988	6.71
298.201	6.83
298.414	6.85
298.626	6.57
298.839	6.72
299.052	6.69
299.265	6.72
299.478	7.23
299.691	7.38
299.903	7.42
300.116	7.13
300.329	7.47
300.542	7.6
300.755	7.99
300.967	8.15
301.18	8.02
301.393	8.39
301.605	8.39
301.818	8.15
302.031	8.15
302.243	8.57
302.456	8.98
302.669	8.89
302.881	9.17
303.094	9.04
303.307	8.98
303.519	8.9
303.732	8.96
303.944	8.98
304.157	9.25
304.37	8.72
304.582	8.41
304.795	8.41
305.007	8.71
305.22	8.67
305.432	8.79
305.645	9.28
305.857	9.62
306.069	9.98
306.282	9.86
306.494	9.67
306.707	10.27
306.919	10.35
307.132	10.34
307.344	10.23
307.556	9.81
307.769	9.87
307.981	9.45
308.193	9.34
308.406	8.94
308.618	9.43
308.83	9.31
309.043	9.25
309.255	9.1
309.467	9.17
309.679	8.8
309.892	9.02
310.104	8.75
310.316	8.85
310.528	8.86
310.74	8.96
310.953	8.61
311.165	8.67
311.377	8.72
311.589	8.78
311.801	8.72
312.013	8.88
312.225	8.89
312.437	9.51
312.649	9.75
312.862	9.68
313.074	9.59
313.286	10.17
313.498	10.44
313.71	10.73
313.922	11.24
314.134	11.52
314.346	12.01
314.558	12.24
314.77	12.38
314.982	12.36
315.193	12.6
315.405	13.14
315.617	12.83
315.829	12.77
316.041	12.42
316.253	12.45
316.465	12.93
316.677	12.62
316.888	12.33
317.1	11.75
317.312	11.84
317.524	12.18
317.736	12.58
317.947	12.78
318.159	13.17
318.371	13.7
318.583	13.2
318.794	12.88
319.006	12.99
319.218	13.28
319.43	13.91
319.641	13.81
319.853	13.91
320.064	14.1
320.276	14.37
320.488	14.31
320.699	15.17
320.911	15.15
321.123	15.47
321.334	15.8
321.546	16.53
321.757	17.08
321.969	17.27
322.18	17.38
322.392	17.08
322.603	16.49
322.815	16.58
323.026	15.94
323.238	16.83
323.449	16.91
323.661	17.12
323.872	16.85
324.083	16.28
324.295	16.76
324.506	16.91
324.718	16.93
324.929	17.32
325.14	17.14
325.352	17.57
325.563	17.7
325.774	17.6
325.986	17.8
326.197	18.11
326.408	18.46
326.62	18.93
326.831	19.66
327.042	19.82
327.253	20.64
327.464	21.78
327.676	21.91
327.887	22.36
328.098	23.33
328.309	24.03
328.52	24.72
328.732	25.32
328.943	25.23
329.154	25.82
329.365	27.07
329.576	27.62
329.787	27.82
329.998	28.52
330.209	29.03
330.42	29.65
330.631	29.93
330.842	30.27
331.053	30.82
331.264	31.78
331.475	32.01
331.686	31.71
331.897	31.77
332.108	32.05
332.319	31.94
332.53	32.36
332.741	32.22
332.952	32.66
333.163	32.63
333.374	33.23
333.585	33.3
333.795	33.79
334.006	34.07
334.217	34.37
334.428	34.94
334.639	36.19
334.849	36.47
335.06	36.7
335.271	36.5
335.482	37.05
335.692	37.39
335.903	37.9
336.114	37.81
336.325	38.12
336.535	38.27
336.746	38.54
336.957	38.16
337.167	38.23
337.378	38.7
337.589	39.15
337.799	39.45
338.01	39.25
338.22	39.15
338.431	39.53
338.642	40.18
338.852	40.13
339.063	40.03
339.273	40.41
339.484	41.33
339.694	41.31
339.905	41.2
340.115	40.96
340.326	41.22
340.536	41.08
340.746	40.8
340.957	40.13
341.167	40.68
341.378	40.57
341.588	40.58
341.799	40.1
342.009	39.81
342.219	40.02
342.43	40.11
342.64	39.92
342.85	40.05
343.061	40.1
343.271	40.65
343.481	40.64
343.691	40.52
343.902	40.47
344.112	40.16
344.322	40.39
344.532	40.39
344.743	40.19
344.953	40.25
345.163	40.38
345.373	40.12
345.583	39.81
345.793	39.71
346.004	39.82
346.214	39.68
346.424	39.92
346.634	39.88
346.844	39.87
347.054	40.12
347.264	40.46
347.474	40.54
347.684	40.6
347.894	40.81
348.104	40.67
348.314	40.63
348.524	40.74
348.734	40.6
348.944	40.63
349.154	40.68
349.364	40.6
349.574	40.14
349.784	40.04
349.994	40.09
350.204	39.94
350.413	39.82
350.623	40.17
350.833	40.1
351.043	40.06
351.253	39.79
351.463	39.64
351.672	39.58
351.882	39.49
352.092	39.26
352.302	39.31
352.511	39.15
352.721	39.17
352.931	38.88
353.141	38.6
353.35	38.67
353.56	38.92
353.77	39.01
353.979	39.26
354.189	39.37
354.399	39.4
354.608	39.34
354.818	39.25
355.027	39.61
355.237	39.55
355.447	39.64
355.656	39.27
355.866	38.91
356.075	38.6
356.285	38.37
356.494	38.14
356.704	38.04
356.913	37.87
357.123	37.85
357.332	37.55
357.542	37.61
357.751	37.51
357.96	37.71
358.17	37.89
358.379	37.94
358.589	37.78
358.798	38.16
359.007	38.14
359.217	38.49
359.426	38.46
359.635	38.42
359.845	38.5
360.054	38.33
360.263	38.11
360.472	37.92
360.682	37.86
360.891	37.79
361.1	37.62
361.309	37.59
361.519	37.19
361.728	37.13
361.937	37.18
362.146	37.13
362.355	37.32
362.564	37.35
362.774	37.25
362.983	37.22
363.192	37.29
363.401	37.05
363.61	36.94
363.819	37.27
364.028	37.46
364.237	37.23
364.446	37.17
364.655	36.91
364.864	36.94
365.073	37.15
365.282	37.11
365.491	36.86
365.7	37.28
365.909	37.48
366.118	37.27
366.327	37.02
366.536	37.09
366.745	36.95
366.954	37.3
367.162	37.13
367.371	37.42
367.58	37.64
367.789	37.8
367.998	37.66
368.207	37.75
368.415	37.68
368.624	37.86
368.833	38.05
369.042	38.08
369.25	37.92
369.459	38.06
369.668	37.7
369.877	37.65
370.085	37.88
370.294	37.77
370.503	37.5
370.711	37.28
370.92	37.3
371.129	37.42
371.337	37.4
371.546	37.22
371.754	37.07
371.963	36.98
372.171	36.82
372.38	36.98
372.589	36.76
372.797	36.81
373.006	37.16
373.214	37.01
373.423	36.75
373.631	36.82
373.84	36.84
374.048	36.48
374.256	36.56
374.465	36.82
374.673	36.54
374.882	36.72
375.09	36.75
375.298	36.81
375.507	36.87
375.715	36.69
375.923	36.53
376.132	36.6
376.34	36.96
376.548	37.1
376.757	36.94
376.965	36.86
377.173	36.68
377.381	36.82
377.59	36.65
377.798	36.58
378.006	36.67
378.214	36.62
378.423	36.4
378.631	36.66
378.839	36.53
379.047	36.41
379.255	36.5
379.463	36.87
379.671	36.88
379.879	36.85
380.088	36.94
380.296	36.91
380.504	36.9
380.712	37.18
380.92	37.12
381.128	37.04
381.336	37.17
381.544	37.12
381.752	36.96
381.96	36.73
382.168	37.01
382.376	37.24
382.584	37.06
382.791	37.32
382.999	37.37
383.207	37.27
383.415	37.41
383.623	37.26
383.831	37.45
384.039	37.4
384.247	37.38
384.454	37.2
384.662	36.8
384.87	37.08
385.078	36.99
385.285	36.75
385.493	37
385.701	36.93
385.909	36.91
386.116	36.58
386.324	36.54
386.532	36.7
386.739	36.67
386.947	36.84
387.155	36.82
387.362	36.78
387.57	36.81
387.778	36.58
387.985	36.47
388.193	36.73
388.4	36.81
388.608	37.04
388.816	37.03
389.023	37.25
389.231	37.16
389.438	36.96
389.646	36.96
389.853	36.94
390.061	36.84
390.268	36.91
390.475	36.75
390.683	36.99
390.89	36.68
391.098	36.6
391.305	36.57
391.512	36.51
391.72	36.73
391.927	36.74
392.135	36.8
392.342	36.91
392.549	37.12
392.756	37.31
392.964	37.31
393.171	37.53
393.378	37.69
393.586	37.61
393.793	37.84
394	37.95
394.207	37.95
394.414	38.23
394.622	38.24
394.829	38.22
395.036	38.06
395.243	37.96
395.45	37.87
395.657	37.67
395.864	37.35
396.072	37.11
396.279	37.07
396.486	37.23
396.693	37.05
396.9	36.85
397.107	36.72
397.314	36.73
397.521	36.85
397.728	36.88
397.935	36.91
398.142	37.26
398.349	37.36
398.556	37.18
398.763	37.07
398.97	37.13
399.177	37.34
399.383	37.49
399.59	37.5
399.797	37.29
400.004	37.45
400.211	37.54
400.418	37.47
400.625	37.59
400.831	37.66
401.038	37.68
401.245	37.8
401.452	37.75
401.658	37.59
401.865	37.57
402.072	37.59
402.279	37.5
402.485	37.52
402.692	37.48
402.899	37.38
403.105	37.49
403.312	37.65
403.519	37.51
403.725	37.7
403.932	37.85
404.138	37.95
404.345	37.94
404.552	38
404.758	38.06
404.965	38.04
405.171	38.06
405.378	37.99
405.584	37.79
405.791	37.76
405.997	37.6
406.204	37.52
406.41	37.4
406.617	37.47
406.823	37.35
407.029	37.24
407.236	37.26
407.442	37.21
407.649	37.42
407.855	37.36
408.061	37.38
408.268	37.51
408.474	37.57
408.68	37.82
408.887	37.65
409.093	37.81
409.299	37.92
409.505	38.03
409.712	38.21
409.918	38.01
410.124	38.22
410.33	38.33
410.537	38.21
410.743	38
410.949	37.77
411.155	37.95
411.361	37.87
411.567	37.72
411.773	37.8
411.98	37.74
412.186	37.89
412.392	37.61
412.598	37.49
412.804	37.63
413.01	37.86
413.216	38.06
413.422	38.21
413.628	38.14
413.834	38.38
414.04	38.25
414.246	38.1
414.452	37.97
414.658	38.04
414.864	38.03
415.07	37.93
415.275	37.84
415.481	37.7
415.687	37.65
415.893	37.77
416.099	37.52
416.305	37.53
416.511	37.57
416.716	37.6
416.922	37.65
417.128	37.6
417.334	37.67
417.539	37.69
417.745	37.72
417.951	37.56
418.157	37.38
418.362	37.42
418.568	37.38
418.774	37.44
418.979	37.34
419.185	37.33
419.391	37.38
419.596	37.32
419.802	37.27
420.008	37.3
420.213	36.76
420.419	36.84
420.624	36.87
420.83	36.87
421.035	36.85
421.241	36.94
421.446	36.97
421.652	36.99
421.857	36.99
422.063	36.98
422.268	36.92
422.474	37.54
422.679	37.57
422.885	37.57
423.09	37.61
423.295	37.64
423.501	37.67
423.706	37.63
423.911	37.61
424.117	37.6
424.322	37.63
424.527	37.65
424.733	37.64
424.938	37.61
425.143	37.65
425.349	37.62
425.554	37.63
425.759	37.59
425.964	37.78
426.169	37.87
426.375	37.85
426.58	37.84
426.785	37.83
426.99	37.97
427.195	38.05
427.4	38.06
427.605	38.19
427.811	38.26
428.016	38.35
428.221	38.22
428.426	38.18
428.631	38.38
428.836	38.57
429.041	38.73
429.246	38.6
429.451	38.69
429.656	38.81
429.861	38.88
430.066	38.85
430.271	38.9
430.476	39
430.681	39.09
430.886	39.06
431.09	39.08
431.295	39.09
431.5	39.08
431.705	39.12
431.91	39.11
432.115	38.99
432.32	39.09
432.524	38.99
432.729	38.91
432.934	38.86
433.139	38.99
433.343	39.01
433.548	39.1
433.753	39.2
433.958	39.28
434.162	39.33
434.367	39.46
434.572	39.49
434.776	39.61
434.981	39.73
435.186	39.77
435.39	39.79
435.595	39.78
435.799	39.75
436.004	39.84
436.209	39.78
436.413	39.79
436.618	39.75
436.822	39.77
437.027	39.86
437.231	39.84
437.436	39.93
437.64	39.81
437.845	39.9
438.049	39.86
438.253	39.85
438.458	39.77
438.662	39.85
438.867	39.93
439.071	39.95
439.275	39.9
439.48	40
439.684	39.99
439.888	40.03
440.093	39.88
440.297	39.91
440.501	39.88
440.706	40.02
440.91	39.96
441.114	39.95
441.318	39.87
441.523	39.91
441.727	39.88
441.931	39.93
442.135	39.92
442.339	39.98
442.543	39.97
442.748	39.98
442.952	39.89
443.156	39.9
443.36	39.94
443.564	40.07
443.768	40.13
443.972	40.18
444.176	40.12
444.38	40.15
444.584	40.35
444.788	40.46
444.992	40.39
445.196	40.41
445.4	40.54
445.604	40.51
445.808	40.57
446.012	40.53
446.216	40.45
446.42	40.55
446.624	40.62
446.828	40.49
447.032	40.49
447.235	40.62
447.439	40.69
447.643	40.48
447.847	40.51
448.051	40.47
448.254	40.48
448.458	40.54
448.662	40.48
448.866	40.36
449.069	40.44
449.273	40.37
449.477	40.43
449.681	40.41
449.884	40.63
450.088	40.7
450.292	40.7
450.495	40.77
450.699	40.82
450.902	40.82
451.106	41.01
451.31	41.06
451.513	41.07
451.717	40.9
451.92	40.95
452.124	40.91
452.327	40.86
452.531	40.96
452.734	40.87
452.938	40.82
453.141	40.82
453.345	40.86
453.548	41
453.752	41
453.955	41.24
454.158	41.13
454.362	41.07
454.565	41.21
454.769	40.97
454.972	41.06
455.175	41.17
455.379	41.14
455.582	41.08
455.785	40.91
455.988	40.92
456.192	40.58
456.395	40.66
456.598	40.72
456.801	40.71
457.005	40.89
