Data from 2938841__Reflection_02.txt Node
Date: Wed Mar 11 15:32:07 EDT 2015
User: robert
Spectrometer: USB4E03002
Autoset integration time: false
Trigger mode: 4
Integration Time (sec): 1.000000E-1
Scans to average: 10
Electric dark correction enabled: false
Nonlinearity correction enabled: false
Boxcar width: 5
Stray light correction enabled: false
XAxis mode: Wavelengths
Stop averaging: false
Number of Pixels in Spectrum: 3648
>>>>>Begin Spectral Data<<<<<
177.575	384.44
177.794	210.67
178.014	311.97
178.233	319.85
178.452	696.77
178.672	734.37
178.891	1098.08
179.11	-4271.43
179.33	-219.69
179.549	-279.03
179.768	-482.12
179.987	-486.26
180.207	-633.97
180.426	-427.85
180.645	-579.89
180.864	-714.49
181.084	-800
181.303	-292.17
181.522	-265.9
181.741	-1700
181.96	1012.16
182.179	1459.57
182.398	1494
182.618	-339.46
182.837	-547.52
183.056	-303.4
183.275	-403.7
183.494	-217.28
183.713	-1244.78
183.932	-784.47
184.151	-497.74
184.37	13575
184.589	1377.5
184.808	324.8
185.027	280.43
185.246	237
185.465	219.2
185.684	125.37
185.903	115.22
186.122	173.16
186.341	261.2
186.56	188.25
186.779	406.97
186.998	445.3
187.216	432.23
187.435	450.18
187.654	581.5
187.873	453.64
188.092	346.1
188.311	475
188.53	336.01
188.748	290.89
188.967	751.59
189.186	-452.55
189.405	-188.76
189.623	-138.65
189.842	-151.53
190.061	-1011.54
190.28	-127.97
190.498	-53.99
190.717	-119.07
190.936	-86.51
191.154	-166.78
191.373	-354.14
191.592	840.74
191.81	440.18
192.029	260.8
192.248	498.66
192.466	871.11
192.685	317.17
192.904	222.29
193.122	208.51
193.341	209.39
193.559	158.12
193.778	149.18
193.996	167.31
194.215	225.3
194.433	191.4
194.652	220.69
194.87	340.49
195.089	451.91
195.307	4475
195.526	480.95
195.744	1143.48
195.963	-2815.79
196.181	498.04
196.399	539.37
196.618	312.5
196.836	219.25
197.055	161.42
197.273	128.71
197.491	176.34
197.71	203.75
197.928	204.75
198.146	268.24
198.365	232.35
198.583	384.95
198.801	391.03
199.019	401.44
199.238	-566.39
199.456	-360.74
199.674	-1322.64
199.892	529.58
200.111	341.57
200.329	372.38
200.547	258.2
200.765	255.32
200.983	170.17
201.202	127.48
201.42	128.04
201.638	101.38
201.856	116.44
202.074	105.9
202.292	149.6
202.51	130.35
202.728	125.65
202.946	239.86
203.165	285.95
203.383	234.29
203.601	477.46
203.819	254.39
204.037	228.25
204.255	561.05
204.473	226.87
204.691	189.58
204.909	118.42
205.127	125.5
205.345	80.36
205.562	92.88
205.78	90.62
205.998	72.33
206.216	111.02
206.434	123.48
206.652	116.17
206.87	147.92
207.088	142.81
207.306	211.19
207.523	307.46
207.741	455.84
207.959	-850.85
208.177	-203.05
208.395	-85.57
208.612	-25.66
208.83	-95.27
209.048	-135.92
209.266	-28.45
209.483	-57.08
209.701	-285
209.919	-39.33
210.136	-129.24
210.354	540
210.572	313.51
210.79	376.72
211.007	324.06
211.225	459.66
211.442	381.05
211.66	268.85
211.878	282.87
212.095	820.66
212.313	635.14
212.53	757.97
212.748	688.02
212.966	450
213.183	309.64
213.401	240.64
213.618	276.89
213.836	237.58
214.053	199.03
214.271	190.03
214.488	52.59
214.705	50.77
214.923	44.55
215.14	49.94
215.358	56.41
215.575	38.77
215.793	45.75
216.01	35.66
216.227	21.25
216.445	-10.25
216.662	-15.54
216.879	1.23
217.097	-2.4
217.314	10.86
217.531	29.8
217.749	40.7
217.966	41.49
218.183	36.62
218.4	49.61
218.618	54.93
218.835	52.69
219.052	52.89
219.269	55.85
219.487	53.19
219.704	41.37
219.921	30.13
220.138	25.16
220.355	30.28
220.572	25.88
220.79	22.95
221.007	15.59
221.224	20.22
221.441	8.42
221.658	5.28
221.875	2.31
222.092	6.87
222.309	6.7
222.526	8
222.743	4.79
222.96	0.91
223.177	-1.87
223.394	7.25
223.611	-0.13
223.828	6.64
224.045	-1.57
224.262	5.3
224.479	1.9
224.696	7.58
224.913	4.2
225.13	0.74
225.347	2.03
225.564	-0.03
225.781	-2.49
225.997	2.76
226.214	3.92
226.431	6.13
226.648	2.65
226.865	4.38
227.082	1.63
227.298	1.41
227.515	4.24
227.732	3.53
227.949	2.52
228.165	2.1
228.382	1.22
228.599	1.62
228.816	0.89
229.032	0.5
229.249	0.52
229.466	0.94
229.682	0.77
229.899	0.64
230.116	0.57
230.332	1.19
230.549	1.37
230.765	2.88
230.982	1.37
231.199	1.78
231.415	2.83
231.632	2.39
231.848	0.92
232.065	1.56
232.281	0.9
232.498	1.27
232.714	1.88
232.931	2.79
233.147	0.27
233.364	0.41
233.58	0.55
233.797	0.15
234.013	0.36
234.23	0.8
234.446	-0.56
234.662	-2.12
234.879	-1.26
235.095	-0.91
235.312	-3.66
235.528	-1.66
235.744	-0.88
235.961	-0.83
236.177	-0.38
236.393	0.59
236.61	-0.32
236.826	1.36
237.042	3
237.258	2.28
237.475	-0.42
237.691	0.39
237.907	-1.29
238.123	0.39
238.339	0.91
238.556	1.68
238.772	1.98
238.988	4.58
239.204	3.3
239.42	2.14
239.636	2.37
239.853	3.54
240.069	3.05
240.285	3.09
240.501	0.91
240.717	1.91
240.933	1.22
241.149	-0.06
241.365	-0.41
241.581	0.36
241.797	0.06
242.013	0.29
242.229	0.21
242.445	0.35
242.661	0.17
242.877	1.06
243.093	-0.18
243.309	-0.18
243.525	-0.34
243.741	-0.8
243.957	-1.11
244.173	-0.29
244.388	-0.45
244.604	-0.29
244.82	-0.27
245.036	0.34
245.252	0.15
245.468	0.37
245.683	0.61
245.899	1.22
246.115	0.96
246.331	0.58
246.547	0.21
246.762	0.34
246.978	0.16
247.194	-0.06
247.409	-0.33
247.625	-0.34
247.841	-0.27
248.057	-0.43
248.272	-0.58
248.488	-0.29
248.703	0.03
248.919	0.24
249.135	0.13
249.35	0.14
249.566	0.75
249.782	0.89
249.997	0.87
250.213	0.88
250.428	1.03
250.644	0.96
250.859	0.97
251.075	0.11
251.29	0.08
251.506	0
251.721	-0.37
251.937	-0.17
252.152	-0.07
252.368	-0.14
252.583	0.36
252.798	0.41
253.014	0.33
253.229	-0
253.445	0.91
253.66	0.72
253.875	0.89
254.091	1.56
254.306	1.31
254.521	1.05
254.737	0.64
254.952	-0.07
255.167	-0.3
255.383	0.33
255.598	0.07
255.813	-0.71
256.028	-0.89
256.244	-1.18
256.459	-1.31
256.674	-1.95
256.889	-1.73
257.104	-1.96
257.32	-1.88
257.535	-2.23
257.75	-2.32
257.965	-1.88
258.18	-1.96
258.395	-1.73
258.61	-1.18
258.826	-0.96
259.041	-0.56
259.256	-0.26
259.471	-0.02
259.686	0.11
259.901	0.19
260.116	0.07
260.331	0.13
260.546	0.17
260.761	0.16
260.976	-0.27
261.191	-0.22
261.406	-0.24
261.621	-0.01
261.836	0.05
262.05	0.14
262.265	0.26
262.48	0.45
262.695	0.37
262.91	0.63
263.125	0.93
263.34	1.1
263.555	0.58
263.769	0.61
263.984	-0.12
264.199	-0.14
264.414	-0.4
264.629	-0.38
264.843	-0.25
265.058	0.16
265.273	0.38
265.488	-0.09
265.702	0.1
265.917	0.49
266.132	0.13
266.346	-0.15
266.561	-0.11
266.776	0.04
266.99	0.18
267.205	0.1
267.42	-0.29
267.634	-0.38
267.849	0.14
268.063	-0.03
268.278	0.23
268.492	0.33
268.707	0.28
268.922	0.47
269.136	0.42
269.351	0.26
269.565	0.04
269.78	0.29
269.994	-0.11
270.209	0.13
270.423	-0.05
270.637	-0.12
270.852	0.32
271.066	0.32
271.281	-0.12
271.495	-0.14
271.709	0.05
271.924	0.29
272.138	0.39
272.353	0.52
272.567	0.22
272.781	0.54
272.996	0.31
273.21	-0.03
273.424	0.3
273.638	0.53
273.853	0.5
274.067	0.11
274.281	-0.12
274.495	-0.32
274.71	-0.95
274.924	-0.98
275.138	-0.8
275.352	-0.68
275.566	-0.75
275.781	-0.87
275.995	-0.32
276.209	-0.35
276.423	-0.14
276.637	-0.08
276.851	-0.06
277.065	0.69
277.279	0.16
277.493	0.3
277.707	0.33
277.921	0.73
278.135	-0.02
278.349	-0.6
278.563	-0.21
278.777	-0.31
278.991	-0.42
279.205	-0.46
279.419	-0.57
279.633	-0.13
279.847	-0.55
280.061	-0.3
280.275	-0.63
280.489	0.09
280.703	-0.04
280.917	-0.07
281.131	-0.19
281.344	-0.15
281.558	-0.25
281.772	0.01
281.986	0.23
282.2	0.71
282.414	0.14
282.627	0.51
282.841	0.56
283.055	0.85
283.269	0.47
283.482	0.47
283.696	0.55
283.91	0.48
284.123	0.48
284.337	0.03
284.551	-0.3
284.764	0.1
284.978	-0.34
285.192	-0.5
285.405	-0.75
285.619	-0.52
285.833	-0.46
286.046	-0.31
286.26	0.01
286.473	-0.31
286.687	-0.19
286.9	-0.43
287.114	-0.6
287.327	-0.26
287.541	-0.37
287.754	-0.09
287.968	-0.08
288.181	0.08
288.395	-0.05
288.608	-0.27
288.822	-0.15
289.035	-0.28
289.248	-0.04
289.462	-0.04
289.675	-0.21
289.889	-0.01
290.102	-0.29
290.315	-0.17
290.529	-0.07
290.742	-0.12
290.955	-0.18
291.169	0.01
291.382	0.3
291.595	0.46
291.808	0.67
292.022	0.62
292.235	0.59
292.448	0.67
292.661	0.45
292.875	0.6
293.088	0.52
293.301	0.96
293.514	0.68
293.727	0.55
293.94	0.48
294.153	0.37
294.367	0.19
294.58	0.33
294.793	0.44
295.006	0.42
295.219	-0.01
295.432	-0.01
295.645	-0.48
295.858	-0.31
296.071	-0.06
296.284	-0.19
296.497	-0.27
296.71	-0.17
296.923	-0.36
297.136	-0.42
297.349	-0.5
297.562	-0.24
297.775	-0.09
297.988	0.2
298.201	0.23
298.414	0.13
298.626	0.09
298.839	0.28
299.052	0.3
299.265	0.34
299.478	0.2
299.691	0.12
299.903	-0.01
300.116	0.29
300.329	0.29
300.542	0.24
300.755	0.39
300.967	0.45
301.18	0.43
301.393	0.59
301.605	0.45
301.818	0.84
302.031	0.85
302.243	0.41
302.456	-0.37
302.669	-0.46
302.881	-0.12
303.094	-0.48
303.307	-0.27
303.519	-0.52
303.732	-0.59
303.944	-0.47
304.157	-0.27
304.37	-0.17
304.582	0.23
304.795	0.77
305.007	0.54
305.22	0.13
305.432	0.28
305.645	0.41
305.857	0.68
306.069	0.71
306.282	0.86
306.494	0.43
306.707	0.87
306.919	0.88
307.132	0.8
307.344	0.95
307.556	1.16
307.769	1.35
307.981	1.02
308.193	0.81
308.406	0.88
308.618	0.87
308.83	1.19
309.043	0.8
309.255	0.69
309.467	0.72
309.679	0.75
309.892	0.61
310.104	0.48
310.316	0.54
310.528	0.62
310.74	0.7
310.953	0.6
311.165	0.2
311.377	0.34
311.589	0.19
311.801	0.02
312.013	-0.14
312.225	-0.03
312.437	-0.19
312.649	-0.08
312.862	-0.16
313.074	-0.12
313.286	0
313.498	0.26
313.71	0.45
313.922	0.74
314.134	1.11
314.346	1.21
314.558	0.79
314.77	0.92
314.982	0.99
315.193	1.01
315.405	0.43
315.617	0.44
315.829	0.15
316.041	0
316.253	-0.1
316.465	-0.27
316.677	-0.14
316.888	0.2
317.1	0.28
317.312	-0.09
317.524	-0.2
317.736	-0.12
317.947	-0.08
318.159	0.05
318.371	0.18
318.583	-0.06
318.794	-0.28
319.006	-0.2
319.218	0.08
319.43	-0.08
319.641	-0.14
319.853	0.05
320.064	0.25
320.276	0.31
320.488	0.37
320.699	-0.06
320.911	0.22
321.123	0.22
321.334	0.33
321.546	0.19
321.757	0.45
321.969	0.95
322.18	1.25
322.392	1.23
322.603	1.15
322.815	0.97
323.026	1.45
323.238	1.6
323.449	1.86
323.661	1.44
323.872	1.17
324.083	0.92
324.295	0.99
324.506	0.91
324.718	0.93
324.929	0.69
325.14	1.36
325.352	1.01
325.563	0.8
325.774	0.6
325.986	0.65
326.197	0.64
326.408	1.02
326.62	0.84
326.831	0.66
327.042	0.95
327.253	1.01
327.464	0.46
327.676	0.56
327.887	0.85
328.098	1.23
328.309	1.38
328.52	1.43
328.732	1.39
328.943	1.31
329.154	1.85
329.365	1.53
329.576	1.57
329.787	1.66
329.998	1.63
330.209	1.63
330.42	1.26
330.631	1.25
330.842	1.29
331.053	0.93
331.264	0.98
331.475	0.49
331.686	0.81
331.897	0.61
332.108	0.88
332.319	0.74
332.53	0.69
332.741	0.84
332.952	0.69
333.163	0.66
333.374	1.18
333.585	1.25
333.795	1.35
334.006	1.26
334.217	1.53
334.428	1.25
334.639	1.47
334.849	1.34
335.06	1.35
335.271	1.36
335.482	1.52
335.692	1.01
335.903	0.85
336.114	0.92
336.325	0.89
336.535	0.83
336.746	0.85
336.957	0.61
337.167	0.54
337.378	0.47
337.589	0.54
337.799	0.56
338.01	0.44
338.22	0.29
338.431	-0.09
338.642	-0.06
338.852	-0.19
339.063	-0.18
339.273	0.09
339.484	-0.02
339.694	-0.18
339.905	-0.11
340.115	-0.35
340.326	0.13
340.536	0.25
340.746	0.39
340.957	0.33
341.167	0.76
341.378	0.75
341.588	0.68
341.799	1.09
342.009	1.32
342.219	1.23
342.43	1.6
342.64	1.55
342.85	1.73
343.061	1.95
343.271	1.83
343.481	1.44
343.691	1.37
343.902	1.34
344.112	0.83
344.322	0.81
344.532	0.87
344.743	0.57
344.953	0.31
345.163	0.32
345.373	0.02
345.583	-0.09
345.793	-0.01
346.004	0.11
346.214	-0.01
346.424	0.23
346.634	0.04
346.844	0.28
347.054	0.51
347.264	0.37
347.474	0.21
347.684	0.39
347.894	0.44
348.104	0.74
348.314	0.83
348.524	0.88
348.734	1.03
348.944	1.14
349.154	0.89
349.364	0.85
349.574	1.03
349.784	0.94
349.994	0.73
350.204	0.71
350.413	0.68
350.623	0.69
350.833	0.65
351.043	0.33
351.253	0.41
351.463	0.5
351.672	0.64
351.882	0.59
352.092	0.85
352.302	0.84
352.511	1.03
352.721	0.88
352.931	1.08
353.141	1.07
353.35	1.41
353.56	1.54
353.77	1.51
353.979	1.09
354.189	1.18
354.399	1.11
354.608	1.08
354.818	1.14
355.027	1.14
355.237	0.87
355.447	0.92
355.656	0.65
355.866	0.4
356.075	0.46
356.285	0.73
356.494	0.64
356.704	0.7
356.913	0.91
357.123	0.56
357.332	0.5
357.542	0.46
357.751	0.59
357.96	0.49
358.17	0.33
358.379	0.06
358.589	-0.15
358.798	0.08
359.007	-0.02
359.217	-0.05
359.426	0.12
359.635	0.12
359.845	0.02
360.054	-0.18
360.263	-0.02
360.472	0.01
360.682	0.23
360.891	0.39
361.1	0.33
361.309	0.39
361.519	0.25
361.728	0.27
361.937	0.2
362.146	0.27
362.355	0.43
362.564	0.45
362.774	0.75
362.983	0.63
363.192	0.48
363.401	0.52
363.61	0.52
363.819	0.65
364.028	0.9
364.237	0.93
364.446	0.9
364.655	0.87
364.864	0.82
365.073	0.54
365.282	0.47
365.491	0.42
365.7	0.1
365.909	0.09
366.118	0.07
366.327	-0.01
366.536	0.09
366.745	0.32
366.954	0.23
367.162	0.34
367.371	0.36
367.58	0.52
367.789	0.63
367.998	0.95
368.207	0.82
368.415	0.81
368.624	0.45
368.833	0.59
369.042	0.4
369.25	0.38
369.459	0.38
369.668	0.42
369.877	0.23
370.085	0.31
370.294	0.25
370.503	0.28
370.711	0.29
370.92	0.32
371.129	0.14
371.337	0.26
371.546	0.19
371.754	0.08
371.963	0.22
372.171	0.36
372.38	0.29
372.589	0.21
372.797	0.38
373.006	0.24
373.214	0.41
373.423	0.12
373.631	-0.09
373.84	0.03
374.048	-0.02
374.256	-0.07
374.465	-0.12
374.673	-0.15
374.882	-0.14
375.09	-0.22
375.298	0.03
375.507	0.15
375.715	0.36
375.923	0.45
376.132	0.41
376.34	0.35
376.548	-0
376.757	0.07
376.965	0.29
377.173	0.29
377.381	0.35
377.59	0.27
377.798	0.02
378.006	0.18
378.214	0.35
378.423	0.35
378.631	0.41
378.839	0.82
379.047	0.62
379.255	0.53
379.463	0.58
379.671	0.27
379.879	0.19
380.088	0.51
380.296	0.36
380.504	0.21
380.712	0.2
380.92	0.4
381.128	0.25
381.336	0.46
381.544	0.37
381.752	0.61
381.96	0.87
382.168	0.96
382.376	0.95
382.584	1.16
382.791	0.92
382.999	1.02
383.207	0.85
383.415	0.89
383.623	0.73
383.831	0.77
384.039	0.47
384.247	0.35
384.454	0.37
384.662	0.11
384.87	-0.07
385.078	0.09
385.285	-0.04
385.493	0.06
385.701	0.12
385.909	0.22
386.116	0.2
386.324	0.2
386.532	0.12
386.739	-0.07
386.947	-0.14
387.155	-0.11
387.362	0.05
387.57	0.08
387.778	0.12
387.985	0.07
388.193	0.09
388.4	-0.1
388.608	-0.22
388.816	-0.1
389.023	0.04
389.231	0.26
389.438	0.32
389.646	0.2
389.853	0.19
390.061	0.03
390.268	-0.01
390.475	-0.08
390.683	0.11
390.89	0.4
391.098	0.24
391.305	0.35
391.512	0.43
391.72	0.46
391.927	0.39
392.135	0.32
392.342	0.36
392.549	0.45
392.756	0.38
392.964	0.29
393.171	0.13
393.378	0.26
393.586	0.09
393.793	-0.08
394	-0.23
394.207	-0.15
394.414	-0.05
394.622	-0.05
394.829	-0.12
395.036	-0.05
395.243	0.04
395.45	0.06
395.657	-0.03
395.864	0.05
396.072	0.04
396.279	0.13
396.486	0.01
396.693	0.06
396.9	0.18
397.107	0.2
397.314	0.13
397.521	0.05
397.728	-0.04
397.935	-0.07
398.142	-0.17
398.349	-0.11
398.556	-0.18
398.763	0.07
398.97	-0.01
399.177	-0.24
399.383	-0.28
399.59	-0.27
399.797	-0.11
400.004	-0.19
400.211	-0.04
400.418	0.08
400.625	0.03
400.831	0.01
401.038	-0.17
401.245	-0.09
401.452	-0.05
401.658	-0.02
401.865	0.09
402.072	-0.06
402.279	0.09
402.485	-0.04
402.692	-0.03
402.899	-0.09
403.105	-0.2
403.312	-0.22
403.519	-0.35
403.725	-0.4
403.932	-0.4
404.138	-0.49
404.345	-0.37
404.552	-0.39
404.758	-0.36
404.965	-0.42
405.171	-0.35
405.378	-0.02
405.584	-0.06
405.791	-0.19
405.997	-0.16
406.204	-0.18
406.41	-0.26
406.617	-0.38
406.823	-0.38
407.029	-0.22
407.236	-0.31
407.442	-0.43
407.649	-0.71
407.855	-0.63
408.061	-0.53
408.268	-0.52
408.474	-0.53
408.68	-0.47
408.887	-0.5
409.093	-0.58
409.299	-0.61
409.505	-0.58
409.712	-0.41
409.918	-0.33
410.124	-0.32
410.33	-0.23
410.537	-0.19
410.743	-0.25
410.949	-0.19
411.155	-0.19
411.361	0.07
411.567	0.01
411.773	0.13
411.98	0.15
412.186	0.25
412.392	0.15
412.598	0.11
412.804	0.08
413.01	0.04
413.216	0.12
413.422	0.16
413.628	-0.12
413.834	-0.17
414.04	-0.24
414.246	-0.32
414.452	-0.39
414.658	-0.34
414.864	-0.3
415.07	-0.34
415.275	-0.29
415.481	-0.29
415.687	-0.22
415.893	-0.15
416.099	-0.12
416.305	-0.07
416.511	-0.17
416.716	-0.18
416.922	-0.17
417.128	-0.22
417.334	-0.16
417.539	-0.17
417.745	-0.29
417.951	-0.33
418.157	-0.32
418.362	-0.36
418.568	-0.5
418.774	-0.45
418.979	-0.5
419.185	-0.46
419.391	-0.42
419.596	-0.49
419.802	-0.46
420.008	-0.44
420.213	-0.19
420.419	-0.14
420.624	-0.14
420.83	-0.1
421.035	-0.08
421.241	-0.07
421.446	-0.16
421.652	-0.13
421.857	-0.07
422.063	-0.09
422.268	-0.08
422.474	-0.31
422.679	-0.42
422.885	-0.36
423.09	-0.38
423.295	-0.42
423.501	-0.4
423.706	-0.33
423.911	-0.37
424.117	-0.42
424.322	-0.39
424.527	-0.4
424.733	-0.38
424.938	-0.31
425.143	-0.38
425.349	-0.32
425.554	-0.31
425.759	-0.42
425.964	-0.41
426.169	-0.4
426.375	-0.4
426.58	-0.42
426.785	-0.39
426.99	-0.42
427.195	-0.39
427.4	-0.41
427.605	-0.33
427.811	-0.26
428.016	-0.06
428.221	-0.1
428.426	-0.12
428.631	-0.06
428.836	-0.04
429.041	-0.03
429.246	-0.02
429.451	-0.09
429.656	-0.05
429.861	-0.1
430.066	-0.05
430.271	-0.15
430.476	-0.16
430.681	-0.1
430.886	-0.17
431.09	-0.13
431.295	-0.19
431.5	-0.2
431.705	-0.2
431.91	-0.24
432.115	-0.34
432.32	-0.38
432.524	-0.38
432.729	-0.26
432.934	-0.21
433.139	-0.11
433.343	-0.08
433.548	-0.13
433.753	-0.13
433.958	-0.13
434.162	-0.06
434.367	-0.02
434.572	-0.14
434.776	-0.13
434.981	-0.24
435.186	-0.46
435.39	-0.55
435.595	-0.62
435.799	-0.53
436.004	-0.6
436.209	-0.62
436.413	-0.61
436.618	-0.69
436.822	-0.65
437.027	-0.7
437.231	-0.74
437.436	-0.64
437.64	-0.55
437.845	-0.6
438.049	-0.55
438.253	-0.53
438.458	-0.45
438.662	-0.5
438.867	-0.48
439.071	-0.44
439.275	-0.36
439.48	-0.29
439.684	-0.3
439.888	-0.37
440.093	-0.36
440.297	-0.42
440.501	-0.44
440.706	-0.41
440.91	-0.4
441.114	-0.31
441.318	-0.3
441.523	-0.29
441.727	-0.36
441.931	-0.35
442.135	-0.33
442.339	-0.31
442.543	-0.27
442.748	-0.22
442.952	-0.35
443.156	-0.36
443.36	-0.41
443.564	-0.46
443.768	-0.48
443.972	-0.42
444.176	-0.42
444.38	-0.37
444.584	-0.31
444.788	-0.32
444.992	-0.28
445.196	-0.32
445.4	-0.34
445.604	-0.29
445.808	-0.3
446.012	-0.29
446.216	-0.29
446.42	-0.34
446.624	-0.38
446.828	-0.41
447.032	-0.42
447.235	-0.44
447.439	-0.34
447.643	-0.33
447.847	-0.39
448.051	-0.35
448.254	-0.35
448.458	-0.28
448.662	-0.23
448.866	-0.2
449.069	-0.23
449.273	-0.18
449.477	-0.12
449.681	-0.07
449.884	-0.11
450.088	-0.08
450.292	-0.1
450.495	-0.13
450.699	-0.27
450.902	-0.24
451.106	-0.27
451.31	-0.27
451.513	-0.25
451.717	-0.43
451.92	-0.46
452.124	-0.37
452.327	-0.45
452.531	-0.36
452.734	-0.36
452.938	-0.25
453.141	-0.3
453.345	-0.26
453.548	-0.23
453.752	-0.3
453.955	-0.16
454.158	-0.17
454.362	-0.22
454.565	-0.18
454.769	-0.31
454.972	-0.4
455.175	-0.43
455.379	-0.42
455.582	-0.46
455.785	-0.45
455.988	-0.49
456.192	-0.51
456.395	-0.48
456.598	-0.49
456.801	-0.49
457.005	-0.48
457.208	-0.46
457.411	-0.37
457.614	-0.42
457.817	-0.4
458.021	-0.39
458.224	-0.44
458.427	-0.46
458.63	-0.47
458.833	-0.45
459.036	-0.46
459.239	-0.49
459.442	-0.46
459.645	-0.57
459.848	-0.54
460.051	-0.59
460.254	-0.61
460.457	-0.59
460.66	-0.62
460.863	-0.61
461.066	-0.64
461.269	-0.59
461.472	-0.54
461.675	-0.54
461.878	-0.5
462.081	-0.5
462.284	-0.45
462.486	-0.5
462.689	-0.41
