Data from 2938823__Reflection_02.txt Node
Date: Thu Mar 12 14:12:42 EDT 2015
User: robert
Spectrometer: USB4E03002
Autoset integration time: false
Trigger mode: 4
Integration Time (sec): 1.000000E-1
Scans to average: 10
Electric dark correction enabled: false
Nonlinearity correction enabled: false
Boxcar width: 5
Stray light correction enabled: false
XAxis mode: Wavelengths
Stop averaging: false
Number of Pixels in Spectrum: 3648
>>>>>Begin Spectral Data<<<<<
177.575	53.77
177.794	67.19
178.014	70.24
178.233	95.31
178.452	99.16
178.672	116.51
178.891	128.89
179.11	167.07
179.33	176.77
179.549	247.07
179.768	320.81
179.987	514.45
180.207	571.49
180.426	433.54
180.645	538.11
180.864	688.17
181.084	459.8
181.303	684.62
181.522	592.34
181.741	905.77
181.96	748.62
182.179	392.01
182.398	336.07
182.618	272.66
182.837	325.24
183.056	291.58
183.275	366.16
183.494	268.99
183.713	204.23
183.932	237.3
184.151	259.51
184.37	294.82
184.589	309.23
184.808	357.61
185.027	499.63
185.246	485.3
185.465	525.91
185.684	416.03
185.903	600
186.122	880.15
186.341	422.36
186.56	324.81
186.779	491.38
186.998	523.56
187.216	309.97
187.435	171.58
187.654	190.75
187.873	209.62
188.092	282.23
188.311	2721.05
188.53	-5085.71
188.748	-2838.71
188.967	-28725
189.186	990.91
189.405	681.03
189.623	1328.87
189.842	-751.63
190.061	-957.14
190.28	-1215.69
190.498	128300
190.717	905.59
190.936	19040
191.154	1480.65
191.373	748.54
191.592	-1554.17
191.81	678.23
192.029	1228
192.248	620.3
192.466	472.14
192.685	360.81
192.904	425
193.122	361.76
193.341	284.63
193.559	206.42
193.778	194.44
193.996	165.69
194.215	179.1
194.433	147.97
194.652	171.19
194.87	186.56
195.089	204.12
195.307	179.45
195.526	206.98
195.744	146.43
195.963	320.39
196.181	-11520
196.399	420.12
196.618	276.8
196.836	356.82
197.055	4000
197.273	291.63
197.491	244.78
197.71	262.5
197.928	221.91
198.146	363.01
198.365	258.86
198.583	265.56
198.801	311.73
199.019	447.64
199.238	395.15
199.456	226.88
199.674	308.94
199.892	334.58
200.111	179.67
200.329	192.55
200.547	192.28
200.765	204.59
200.983	146.2
201.202	167.61
201.42	146.89
201.638	126.37
201.856	141.5
202.074	122.92
202.292	161.58
202.51	238.79
202.728	255.32
202.946	251.13
203.165	217.26
203.383	279.74
203.601	235.78
203.819	269.61
204.037	391.54
204.255	288.77
204.473	284.07
204.691	197.55
204.909	125.25
205.127	112.55
205.345	145.03
205.562	154.37
205.78	134.68
205.998	121.29
206.216	91.24
206.434	104.9
206.652	107.78
206.87	118.49
207.088	129.67
207.306	153.13
207.523	161
207.741	138.58
207.959	150.2
208.177	163.32
208.395	161.9
208.612	167.87
208.83	175.25
209.048	210.06
209.266	188.1
209.483	177.87
209.701	171.34
209.919	167.06
210.136	220.19
210.354	224.05
210.572	192.77
210.79	182.53
211.007	197.62
211.225	175.95
211.442	186.87
211.66	189.64
211.878	222.92
212.095	173.45
212.313	179.13
212.53	140.75
212.748	121.59
212.966	118.56
213.183	132.49
213.401	157.87
213.618	155.82
213.836	143.27
214.053	162.57
214.271	127.4
214.488	147.61
214.705	158.41
214.923	143.29
215.14	142.13
215.358	160.56
215.575	153.93
215.793	155.29
216.01	138.21
216.227	136.42
216.445	128
216.662	136.05
216.879	118.19
217.097	118.47
217.314	103.58
217.531	92.09
217.749	82.7
217.966	86.44
218.183	82.46
218.4	92.64
218.618	93.06
218.835	93.2
219.052	90.57
219.269	95.87
219.487	87.69
219.704	96.53
219.921	86.76
220.138	83.9
220.355	80.67
220.572	78.41
220.79	72.22
221.007	71.93
221.224	62.23
221.441	56.4
221.658	46.64
221.875	46.1
222.092	41.5
222.309	44.92
222.526	41.26
222.743	39.11
222.96	39.15
223.177	36.43
223.394	36.46
223.611	35.84
223.828	35.88
224.045	39.5
224.262	41.79
224.479	42.62
224.696	36.59
224.913	33.81
225.13	37.13
225.347	33.1
225.564	31.89
225.781	30.18
225.997	24.96
226.214	21.71
226.431	16.23
226.648	13.44
226.865	12.08
227.082	11.39
227.298	10.18
227.515	9.61
227.732	8.45
227.949	8.57
228.165	7.71
228.382	8.22
228.599	9.15
228.816	10.69
229.032	11.26
229.249	11.37
229.466	11.65
229.682	12.93
229.899	12.61
230.116	13.62
230.332	14.21
230.549	14.82
230.765	14.92
230.982	15.64
231.199	14.66
231.415	14.46
231.632	14.37
231.848	14.95
232.065	13.97
232.281	15.04
232.498	16.13
232.714	15.3
232.931	16.5
233.147	17.53
233.364	16.12
233.58	16.45
233.797	15.18
234.013	16.41
234.23	15.43
234.446	15.02
234.662	12.91
234.879	11.61
235.095	12.56
235.312	11.88
235.528	12.78
235.744	12.01
235.961	11.97
236.177	11.54
236.393	11.95
236.61	12.58
236.826	13.16
237.042	14.49
237.258	15.56
237.475	15.06
237.691	13.86
237.907	14.26
238.123	15.25
238.339	15.31
238.556	16.82
238.772	15.68
238.988	15.88
239.204	15.17
239.42	14.16
239.636	14.23
239.853	13.9
240.069	13.88
240.285	12.25
240.501	11.79
240.717	11.84
240.933	10.9
241.149	10.04
241.365	9.93
241.581	10.01
241.797	10.26
242.013	8.93
242.229	9.39
242.445	9.25
242.661	9.81
242.877	9.67
243.093	9.52
243.309	9.36
243.525	9.62
243.741	9.64
243.957	10.06
244.173	10.08
244.388	11.44
244.604	10.9
244.82	11.01
245.036	10.89
245.252	11.09
245.468	10.56
245.683	10.22
245.899	9.22
246.115	8.92
246.331	8.21
246.547	8.12
246.762	7.24
246.978	7.08
247.194	6.77
247.409	6.57
247.625	6.52
247.841	6.92
248.057	6.89
248.272	7.4
248.488	7.44
248.703	7.31
248.919	7.51
249.135	7.81
249.35	8.37
249.566	8.74
249.782	9.35
249.997	9.21
250.213	8.72
250.428	9.28
250.644	9.14
250.859	8.94
251.075	9.19
251.29	9.07
251.506	9.36
251.721	8.82
251.937	8.77
252.152	7.98
252.368	8.16
252.583	7.64
252.798	7.05
253.014	7.22
253.229	7.18
253.445	6.93
253.66	6.68
253.875	7.14
254.091	7.48
254.306	7.99
254.521	8.27
254.737	7.11
254.952	7.54
255.167	7.76
255.383	7.01
255.598	7.16
255.813	7.52
256.028	7.41
256.244	7.1
256.459	6.24
256.674	6.2
256.889	6.38
257.104	7.09
257.32	7.34
257.535	7.21
257.75	7.73
257.965	7.21
258.18	6.91
258.395	6.63
258.61	6.26
258.826	6.48
259.041	5.77
259.256	5.57
259.471	5.38
259.686	5.3
259.901	5.41
260.116	5.04
260.331	5.03
260.546	5.12
260.761	4.94
260.976	4.87
261.191	4.59
261.406	5.09
261.621	5.12
261.836	5.37
262.05	5.12
262.265	5.18
262.48	5.43
262.695	5.42
262.91	5.96
263.125	6.56
263.34	6.48
263.555	6.77
263.769	6.39
263.984	6.25
264.199	6.39
264.414	6.83
264.629	6.64
264.843	6.76
265.058	7.22
265.273	6.18
265.488	5.48
265.702	5.7
265.917	5.95
266.132	6.07
266.346	6.27
266.561	6.29
266.776	5.72
266.99	5.94
267.205	6.32
267.42	6.25
267.634	6.27
267.849	6.51
268.063	6.53
268.278	5.92
268.492	6.17
268.707	5.86
268.922	5.95
269.136	5.87
269.351	5.63
269.565	4.92
269.78	4.81
269.994	4.76
270.209	4.53
270.423	4.48
270.637	4.09
270.852	3.91
271.066	4.1
271.281	3.67
271.495	3.81
271.709	3.89
271.924	4.32
272.138	4.42
272.353	4.45
272.567	4.33
272.781	4.47
272.996	5.22
273.21	5.2
273.424	5.07
273.638	5.2
273.853	5.41
274.067	5.45
274.281	5.29
274.495	5.02
274.71	5.48
274.924	5.92
275.138	5.84
275.352	5.83
275.566	6.24
275.781	6.92
275.995	7.07
276.209	7.29
276.423	7.13
276.637	7.33
276.851	7.49
277.065	7.86
277.279	7.62
277.493	8.14
277.707	7.68
277.921	7.18
278.135	6.48
278.349	6.18
278.563	5.98
278.777	6.11
278.991	5.72
279.205	5.41
279.419	4.83
279.633	5.09
279.847	4.62
280.061	5.08
280.275	5.07
280.489	5.1
280.703	5.02
280.917	4.96
281.131	4.9
281.344	5.02
281.558	5.24
281.772	5.27
281.986	5.13
282.2	5.11
282.414	4.87
282.627	4.87
282.841	4.99
283.055	4.85
283.269	4.63
283.482	4.59
283.696	4.5
283.91	4.88
284.123	4.73
284.337	4.74
284.551	4.74
284.764	4.25
284.978	4.39
285.192	4.26
285.405	4.62
285.619	4.84
285.833	4.91
286.046	5.32
286.26	4.72
286.473	4.72
286.687	4.98
286.9	4.89
287.114	5.46
287.327	5.59
287.541	5.67
287.754	5.49
287.968	5.7
288.181	5.53
288.395	5.11
288.608	5.36
288.822	5.32
289.035	5.17
289.248	5.53
289.462	5.66
289.675	5.38
289.889	5.4
290.102	5.51
290.315	5.35
290.529	5.36
290.742	5.33
290.955	5
291.169	5.06
291.382	4.9
291.595	4.74
291.808	4.61
292.022	4.55
292.235	4.39
292.448	4.73
292.661	5.02
292.875	5.08
293.088	5.17
293.301	5.67
293.514	5.73
293.727	5.93
293.94	5.63
294.153	5.61
294.367	5.74
294.58	5.89
294.793	5.78
295.006	5.76
295.219	5.96
295.432	6.12
295.645	6.14
295.858	6.27
296.071	6.3
296.284	6.67
296.497	6.69
296.71	6.66
296.923	6.88
297.136	6.94
297.349	6.82
297.562	6.67
297.775	6.62
297.988	6.75
298.201	6.81
298.414	6.91
298.626	6.69
298.839	6.57
299.052	7.12
299.265	7.01
299.478	6.88
299.691	7.07
299.903	7.44
300.116	7.47
300.329	7.74
300.542	7.47
300.755	7.56
300.967	7.64
301.18	7.93
301.393	7.36
301.605	7.84
301.818	7.81
302.031	7.75
302.243	7.47
302.456	7.69
302.669	7.89
302.881	8.26
303.094	8.1
303.307	8.27
303.519	8.5
303.732	9.1
303.944	8.67
304.157	9.02
304.37	9.23
304.582	9.46
304.795	9.38
305.007	9.1
305.22	9.24
305.432	9.41
305.645	9.31
305.857	9.22
306.069	9.2
306.282	9.47
306.494	9.24
306.707	9.3
306.919	9.62
307.132	9.55
307.344	9.41
307.556	9.53
307.769	9.61
307.981	9.5
308.193	9.41
308.406	9.28
308.618	9.14
308.83	9.03
309.043	8.97
309.255	8.77
309.467	8.83
309.679	8.8
309.892	8.35
310.104	8.57
310.316	8.87
310.528	8.69
310.74	8.55
310.953	8.63
311.165	8.78
311.377	8.71
311.589	8.77
311.801	8.81
312.013	9.23
312.225	9.59
312.437	9.2
312.649	9.14
312.862	9.45
313.074	9.76
313.286	9.76
313.498	9.86
313.71	9.9
313.922	10.1
314.134	10.38
314.346	10.32
314.558	10.13
314.77	10.4
314.982	10.66
315.193	10.92
315.405	10.68
315.617	10.88
315.829	11.16
316.041	11.46
316.253	11.32
316.465	11.5
316.677	11.62
316.888	11.94
317.1	11.98
317.312	11.9
317.524	11.85
317.736	12.21
317.947	12.53
318.159	11.67
318.371	11.82
318.583	11.58
318.794	11.11
319.006	10.82
319.218	10.67
319.43	10.84
319.641	11.09
319.853	11.27
320.064	11.1
320.276	10.9
320.488	11.64
320.699	11.61
320.911	12.24
321.123	12.31
321.334	12.06
321.546	12.08
321.757	12.13
321.969	12.38
322.18	12.05
322.392	12.3
322.603	11.94
322.815	11.98
323.026	11.74
323.238	11.17
323.449	11.28
323.661	11.15
323.872	11.21
324.083	10.79
324.295	10.4
324.506	10.64
324.718	10.93
324.929	10.88
325.14	10.95
325.352	11.29
325.563	11.41
325.774	11.39
325.986	11.71
326.197	11.77
326.408	12.11
326.62	11.97
326.831	11.83
327.042	11.21
327.253	11.22
327.464	11.07
327.676	10.65
327.887	10.85
328.098	10.98
328.309	11.09
328.52	11.18
328.732	11.16
328.943	11.81
329.154	12.2
329.365	12.41
329.576	12.87
329.787	13.28
329.998	13.77
330.209	13.86
330.42	13.99
330.631	14.14
330.842	14.31
331.053	14.44
331.264	14.46
331.475	14.67
331.686	15.25
331.897	15.39
332.108	15.21
332.319	15.36
332.53	15.65
332.741	15.7
332.952	15.93
333.163	16.46
333.374	16.74
333.585	16.32
333.795	16.26
334.006	15.86
334.217	15.71
334.428	16.16
334.639	15.63
334.849	15.45
335.06	15.39
335.271	15.29
335.482	14.66
335.692	14.27
335.903	14.4
336.114	14
336.325	14.31
336.535	14.28
336.746	13.93
336.957	14.23
337.167	14.05
337.378	14.01
337.589	13.91
337.799	14.2
338.01	14.35
338.22	14.29
338.431	14.49
338.642	14.11
338.852	14.39
339.063	14.77
339.273	14.79
339.484	15.15
339.694	15.37
339.905	15.28
340.115	14.97
340.326	15.12
340.536	15.23
340.746	15.29
340.957	15.4
341.167	15.26
341.378	15.11
341.588	15.05
341.799	15.09
342.009	15.15
342.219	15.17
342.43	15.2
342.64	15.12
342.85	15.09
343.061	14.82
343.271	14.76
343.481	14.81
343.691	14.63
343.902	14.62
344.112	14.28
344.322	14.03
344.532	13.81
344.743	13.68
344.953	13.36
345.163	13.53
345.373	13.61
345.583	13.6
345.793	13.51
346.004	13.37
346.214	13.54
346.424	13.52
346.634	13.33
346.844	13.31
347.054	13.51
347.264	13.82
347.474	13.52
347.684	13.6
347.894	13.67
348.104	13.76
348.314	13.74
348.524	13.54
348.734	13.93
348.944	13.8
349.154	14.05
349.364	14.04
349.574	13.78
349.784	14.05
349.994	13.87
350.204	13.77
350.413	13.81
350.623	13.73
350.833	13.86
351.043	13.48
351.253	13.76
351.463	13.78
351.672	13.77
351.882	14.05
352.092	13.73
352.302	13.84
352.511	14.08
352.721	14.01
352.931	14.32
353.141	14.26
353.35	14.58
353.56	14.54
353.77	14.51
353.979	14.41
354.189	14.18
354.399	14.1
354.608	14.03
354.818	13.82
355.027	13.53
355.237	13.58
355.447	13.32
355.656	13.11
355.866	13.13
356.075	13.24
356.285	13.32
356.494	13.5
356.704	13.83
356.913	13.88
357.123	13.77
357.332	13.72
357.542	13.69
357.751	13.88
357.96	13.91
358.17	13.82
358.379	13.69
358.589	13.6
358.798	13.46
359.007	13.34
359.217	13.57
359.426	13.54
359.635	13.83
359.845	13.71
360.054	13.59
360.263	13.24
360.472	13.15
360.682	13
360.891	12.76
361.1	12.64
361.309	12.53
361.519	12.19
361.728	12.31
361.937	12.24
362.146	12.04
362.355	11.96
362.564	12.08
362.774	12.01
362.983	12.05
363.192	12.21
363.401	12.15
363.61	12.21
363.819	12.16
364.028	12.04
364.237	11.74
364.446	11.87
364.655	11.92
364.864	12.03
365.073	12.21
365.282	12.26
365.491	12.43
365.7	12.68
365.909	12.58
366.118	12.76
366.327	12.76
366.536	13.07
366.745	13.03
366.954	13.02
367.162	12.75
367.371	12.56
367.58	12.42
367.789	12.36
367.998	12.21
368.207	12.36
368.415	12.26
368.624	12.3
368.833	12.08
369.042	11.95
369.25	12.05
369.459	12.22
369.668	12.43
369.877	12.69
370.085	12.61
370.294	12.61
370.503	12.32
370.711	12.37
370.92	12.46
371.129	12.66
371.337	12.81
371.546	12.73
371.754	12.73
371.963	12.8
372.171	12.57
372.38	12.65
372.589	12.58
372.797	12.69
373.006	12.4
373.214	12.23
373.423	11.96
373.631	11.63
373.84	11.41
374.048	11.25
374.256	10.94
374.465	10.8
374.673	10.3
374.882	10.38
375.09	10.31
375.298	10.37
375.507	10.44
375.715	10.16
375.923	10.2
376.132	10.25
376.34	10.2
376.548	10.2
376.757	10.23
376.965	10.56
377.173	10.41
377.381	10.49
377.59	10.51
377.798	10.17
378.006	10.3
378.214	10.38
378.423	10.51
378.631	10.69
378.839	10.54
379.047	10.66
379.255	10.55
379.463	10.51
379.671	10.42
379.879	10.47
380.088	10.39
380.296	10.46
380.504	10.32
380.712	10.25
380.92	9.98
381.128	10.15
381.336	10.09
381.544	10.05
381.752	10.34
381.96	10.4
382.168	10.44
382.376	10.55
382.584	10.49
382.791	10.35
382.999	10.33
383.207	10.31
383.415	10.46
383.623	10.52
383.831	10.44
384.039	10.07
384.247	10.16
384.454	9.97
384.662	10.03
384.87	10.05
385.078	10.23
385.285	10.12
385.493	10.15
385.701	9.96
385.909	9.72
386.116	9.74
386.324	9.91
386.532	9.5
386.739	9.37
386.947	9.32
387.155	9.45
387.362	9.38
387.57	9.35
387.778	9.26
387.985	9.2
388.193	9.37
388.4	9.32
388.608	9.22
388.816	9.43
389.023	9.43
389.231	9.52
389.438	9.4
389.646	9.55
389.853	9.57
390.061	9.69
390.268	9.55
390.475	9.5
390.683	9.56
390.89	9.4
391.098	9.3
391.305	9.55
391.512	9.53
391.72	9.47
391.927	9.36
392.135	9.47
392.342	9.44
392.549	9.67
392.756	9.46
392.964	9.5
393.171	9.69
393.378	9.81
393.586	9.73
393.793	9.41
394	9.4
394.207	9.33
394.414	9.24
394.622	9.27
394.829	9.21
395.036	9.24
395.243	8.96
395.45	8.8
395.657	8.71
395.864	8.59
396.072	8.7
396.279	8.74
396.486	8.78
396.693	8.72
396.9	8.55
397.107	8.47
397.314	8.51
397.521	8.59
397.728	8.58
397.935	8.5
398.142	8.62
398.349	8.59
398.556	8.46
398.763	8.33
398.97	8.13
399.177	8.21
399.383	8.12
399.59	8.24
399.797	8.35
400.004	8.27
400.211	8.28
400.418	8.17
400.625	8.28
400.831	8.26
401.038	8.31
401.245	8.54
401.452	8.59
401.658	8.53
401.865	8.26
402.072	8
402.279	8.01
402.485	7.91
402.692	7.74
402.899	7.73
403.105	7.97
403.312	8.03
403.519	7.95
403.725	7.88
403.932	7.99
404.138	7.97
404.345	8.1
404.552	8.15
404.758	8.19
404.965	8.45
405.171	8.49
405.378	8.4
405.584	8.13
405.791	8.09
405.997	8.11
406.204	8.23
406.41	8.24
406.617	8.11
406.823	8.09
407.029	8.12
407.236	7.96
407.442	8.06
407.649	8.01
407.855	8.29
408.061	8.2
408.268	8.07
408.474	7.86
408.68	7.91
408.887	7.92
409.093	7.97
409.299	7.95
409.505	7.95
409.712	7.79
409.918	7.71
410.124	7.69
410.33	7.72
410.537	7.83
410.743	7.92
410.949	7.89
411.155	8.13
411.361	8.09
411.567	8.14
411.773	8.14
411.98	8.13
412.186	8.05
412.392	7.9
412.598	7.99
412.804	7.86
413.01	7.61
413.216	7.62
413.422	7.47
413.628	7.55
413.834	7.61
414.04	7.57
414.246	7.5
414.452	7.43
414.658	7.49
414.864	7.5
415.07	7.48
415.275	7.7
415.481	7.63
415.687	7.7
415.893	7.53
416.099	7.43
416.305	7.37
416.511	7.46
416.716	7.62
416.922	7.66
417.128	7.61
417.334	7.64
417.539	7.64
417.745	7.59
417.951	7.53
418.157	7.51
418.362	7.55
418.568	7.54
418.774	7.53
418.979	7.42
419.185	7.3
419.391	7.34
419.596	7.27
419.802	7.18
420.008	7.31
420.213	7.31
420.419	7.33
420.624	7.24
420.83	7.23
421.035	7.18
421.241	7.18
421.446	7.24
421.652	7.15
421.857	7.26
422.063	7.25
422.268	7.13
422.474	7.09
422.679	7.11
422.885	7.04
423.09	7.08
423.295	7.1
423.501	7.12
423.706	7.11
423.911	7.07
424.117	6.96
424.322	7
424.527	7.05
424.733	7.05
424.938	7.02
425.143	7.12
425.349	7.1
425.554	7.06
425.759	7.11
425.964	7.11
426.169	7.17
426.375	7.22
426.58	7.17
426.785	7.08
426.99	7.06
427.195	7.07
427.4	7.08
427.605	7.04
427.811	6.96
428.016	6.89
428.221	7
428.426	6.99
428.631	7
428.836	7.02
429.041	7.14
429.246	7.16
429.451	7.23
429.656	7.21
429.861	7.31
430.066	7.49
430.271	7.59
430.476	7.52
430.681	7.48
430.886	7.44
431.09	7.55
431.295	7.61
431.5	7.61
431.705	7.57
431.91	7.58
432.115	7.53
432.32	7.5
432.524	7.42
432.729	7.35
432.934	7.29
433.139	7.28
433.343	7.34
433.548	7.26
433.753	7.25
433.958	7.26
434.162	7.22
434.367	7.15
434.572	7.19
434.776	7.23
434.981	7.24
435.186	7.27
435.39	7.4
435.595	7.3
435.799	7.34
436.004	7.37
436.209	7.2
436.413	7.13
436.618	7.21
436.822	7.13
437.027	7.01
437.231	7.07
437.436	7.19
437.64	7.01
437.845	6.91
438.049	6.86
438.253	6.84
438.458	6.94
438.662	6.99
438.867	6.96
439.071	7.01
439.275	6.99
439.48	6.87
439.684	6.83
439.888	6.88
440.093	6.89
440.297	6.87
440.501	6.84
440.706	6.86
440.91	6.84
441.114	6.85
441.318	6.79
441.523	6.9
441.727	6.98
441.931	6.93
442.135	7.01
442.339	7.04
442.543	7.09
442.748	7.2
442.952	7.15
443.156	7.13
443.36	7.08
443.564	7.18
443.768	7.16
443.972	7.1
444.176	7.15
444.38	7.14
444.584	7.12
444.788	7.09
444.992	7.05
445.196	7.17
445.4	7.18
445.604	7.19
445.808	7.18
446.012	7.07
446.216	7.03
446.42	7.02
446.624	7
446.828	6.93
447.032	6.91
447.235	6.84
447.439	6.77
447.643	6.78
447.847	6.85
448.051	6.82
448.254	6.89
448.458	6.92
448.662	6.87
448.866	6.88
449.069	6.88
449.273	6.9
449.477	6.94
449.681	6.99
449.884	7.06
450.088	7.09
450.292	7.03
450.495	7.04
450.699	7.04
450.902	7.03
451.106	6.96
451.31	7.09
451.513	7.08
451.717	7.06
451.92	7.01
452.124	6.93
452.327	6.8
452.531	6.81
452.734	6.82
452.938	6.77
453.141	6.76
453.345	6.76
453.548	6.71
453.752	6.73
453.955	6.67
454.158	6.69
454.362	6.68
454.565	6.68
454.769	6.82
454.972	6.81
455.175	6.87
455.379	6.94
455.582	6.92
455.785	6.93
455.988	6.93
456.192	6.96
456.395	6.96
456.598	6.97
456.801	6.89
457.005	6.76
457.208	6.84
457.411	6.79
457.614	6.82
457.817	6.79
458.021	6.72
458.224	6.74
458.427	6.65
458.63	6.69
458.833	6.57
459.036	6.68
459.239	6.6
459.442	6.66
459.645	6.61
459.848	6.54
460.051	6.58
460.254	6.64
460.457	6.59
460.66	6.67
460.863	6.59
461.066	6.66
461.269	6.71
461.472	6.79
461.675	6.63
461.878	6.73
462.081	6.75
462.284	6.79
462.486	6.69
462.689	6.77
462.892	6.72
463.095	6.72
463.298	6.83
463.5	6.82
463.703	6.86
463.906	6.91
464.109	6.9
