Data from 2938715__Reflection_02.txt Node
Date: Tue Mar 17 19:01:36 EDT 2015
User: robert
Spectrometer: USB4E03002
Autoset integration time: false
Trigger mode: 4
Integration Time (sec): 1.000000E-1
Scans to average: 10
Electric dark correction enabled: false
Nonlinearity correction enabled: false
Boxcar width: 5
Stray light correction enabled: false
XAxis mode: Wavelengths
Stop averaging: false
Number of Pixels in Spectrum: 3648
>>>>>Begin Spectral Data<<<<<
177.575	64.24
177.794	68.93
178.014	72.82
178.233	46.26
178.452	66.11
178.672	62.26
178.891	130.86
179.11	165.57
179.33	288.33
179.549	48.51
179.768	21.88
179.987	50.48
180.207	56.89
180.426	53.12
180.645	39.44
180.864	16.6
181.084	9.3
181.303	-20.93
181.522	-12.08
181.741	31.23
181.96	-4.41
182.179	20.07
182.398	17.12
182.618	13.24
182.837	0.53
183.056	-20.8
183.275	13.79
183.494	-101.8
183.713	-70.81
183.932	-80.72
184.151	-119.11
184.37	-182.57
184.589	-429.09
184.808	616.95
185.027	-212.73
185.246	-129.23
185.465	-139.82
185.684	-130
185.903	-14.01
186.122	5.18
186.341	42.01
186.56	39
186.779	56.75
186.998	57.89
187.216	75.75
187.435	130.2
187.654	230.81
187.873	201.66
188.092	483.65
188.311	-611.9
188.53	-628.12
188.748	-1091.3
188.967	265.65
189.186	336.05
189.405	638.04
189.623	335.11
189.842	303.25
190.061	130
190.28	169.73
190.498	111.81
190.717	128.31
190.936	111.73
191.154	243.88
191.373	548
191.592	492.31
191.81	-495.12
192.029	-220.45
192.248	335.29
192.466	-279.17
192.685	905
192.904	-750
193.122	-3.93
193.341	-21.82
193.559	49.3
193.778	-13.46
193.996	-27.35
194.215	16.33
194.433	9.82
194.652	12.7
194.87	49.46
195.089	11.37
195.307	33.26
195.526	15.35
195.744	42.83
195.963	11.07
196.181	19.64
196.399	-2.18
196.618	-20.45
196.836	-85.88
197.055	-4387.5
197.273	-492.86
197.491	-1033.33
197.71	71.25
197.928	14400
198.146	-172
198.365	470.27
198.583	-1885.71
198.801	-351.52
199.019	-437.78
199.238	-828.13
199.456	-39.66
199.674	5.33
199.892	-60.09
200.111	-20.64
200.329	-73.94
200.547	-42.11
200.765	-16.91
200.983	-67.5
201.202	-190.62
201.42	-394.44
201.638	-39.2
201.856	429.17
202.074	-99.12
202.292	-50.78
202.51	-158.93
202.728	-57.07
202.946	-27.93
203.165	-32.33
203.383	-37.73
203.601	0.46
203.819	3.81
204.037	22.66
204.255	24.5
204.473	44.68
204.691	61.9
204.909	58.96
205.127	102.7
205.345	75.34
205.562	51.88
205.78	35.66
205.998	25.08
206.216	52.7
206.434	19.64
206.652	12.96
206.87	-122.62
207.088	-52.77
207.306	-51.71
207.523	-2218.75
207.741	-508.2
207.959	-745.95
208.177	-17.73
208.395	18.92
208.612	34.15
208.83	145.56
209.048	52.94
209.266	487.1
209.483	-235.71
209.701	1.8
209.919	34.14
210.136	23.72
210.354	35.97
210.572	5.92
210.79	-13.68
211.007	-66.08
211.225	-48.59
211.442	-20.7
211.66	-9.05
211.878	-2.92
212.095	9
212.313	6.34
212.53	-3.71
212.748	-9.67
212.966	9.29
213.183	-23.33
213.401	-4.43
213.618	-10.15
213.836	-9.8
214.053	-70.79
214.271	-110.66
214.488	-54.82
214.705	-48.26
214.923	-39.81
215.14	-78.92
215.358	-190.26
215.575	-132.37
215.793	-698.39
216.01	-201.97
216.227	-65.7
216.445	-9.87
216.662	16.1
216.879	-46.28
217.097	-39.91
217.314	-66.11
217.531	-26.71
217.749	-7.1
217.966	2.94
218.183	8.55
218.4	0.09
218.618	-12.03
218.835	-14.89
219.052	-12.39
219.269	-0.07
219.487	-14.44
219.704	-1.51
219.921	0.6
220.138	2.86
220.355	-11.02
220.572	-23.43
220.79	-13.09
221.007	-3.02
221.224	-0.76
221.441	6.45
221.658	-0.3
221.875	10.94
222.092	9.33
222.309	5.33
222.526	1.27
222.743	4.89
222.96	8.05
223.177	7.74
223.394	5.66
223.611	11.4
223.828	6.7
224.045	4.53
224.262	-4.56
224.479	-5
224.696	-3.19
224.913	0.66
225.13	0.13
225.347	-1.39
225.564	-6.07
225.781	-11.42
225.997	-14.85
226.214	-12.98
226.431	-10.43
226.648	-7.23
226.865	-5.48
227.082	-5.78
227.298	-6.73
227.515	-5.51
227.732	-3.76
227.949	-2.25
228.165	-1.24
228.382	-1.44
228.599	-1.52
228.816	-1.52
229.032	-1.03
229.249	-0.63
229.466	-0.63
229.682	-0.34
229.899	-0.32
230.116	-1.45
230.332	-2.14
230.549	-1.94
230.765	-1.23
230.982	-1.29
231.199	0.15
231.415	-0.66
231.632	-1.61
231.848	-0.49
232.065	-1.35
232.281	-2.28
232.498	-2.65
232.714	-2.28
232.931	-1.56
233.147	-2.43
233.364	-1.85
233.58	-2.13
233.797	-1.08
234.013	-2.33
234.23	-3.87
234.446	-1.84
234.662	-2.06
234.879	-0.95
235.095	-0.95
235.312	-1.08
235.528	-2.61
235.744	-1.95
235.961	-1.38
236.177	-2.89
236.393	-0.2
236.61	1.66
236.826	1.89
237.042	3.03
237.258	2.91
237.475	3.08
237.691	2.59
237.907	5.12
238.123	3.24
238.339	2.11
238.556	5.46
238.772	3.84
238.988	3.42
239.204	1.15
239.42	1.49
239.636	1.66
239.853	1.69
240.069	2.28
240.285	2.62
240.501	2.12
240.717	2.14
240.933	1.33
241.149	0.99
241.365	0.83
241.581	2.16
241.797	2.02
242.013	2.18
242.229	2.51
242.445	2.43
242.661	1.57
242.877	2.27
243.093	2.35
243.309	2.34
243.525	3.04
243.741	3.41
243.957	2.96
244.173	2.73
244.388	3.17
244.604	2.98
244.82	2.75
245.036	2.83
245.252	2.59
245.468	2.9
245.683	2.14
245.899	2.26
246.115	1.94
246.331	2.09
246.547	2.06
246.762	1.71
246.978	1.79
247.194	1.74
247.409	2.02
247.625	2.17
247.841	1.8
248.057	1.85
248.272	1.35
248.488	1.29
248.703	0.95
248.919	1.25
249.135	1.66
249.35	1.63
249.566	1.98
249.782	2.1
249.997	2.26
250.213	2.52
250.428	2.93
250.644	2.71
250.859	2.75
251.075	3.03
251.29	2.7
251.506	2.8
251.721	2.7
251.937	2.49
252.152	1.86
252.368	0.95
252.583	0.75
252.798	0.51
253.014	0.55
253.229	0.29
253.445	-0.74
253.66	-1.04
253.875	-2.59
254.091	-2.79
254.306	-3.46
254.521	-3.95
254.737	-3.74
254.952	-3.91
255.167	-3.55
255.383	-2.17
255.598	-2.02
255.813	-1.54
256.028	-2.48
256.244	-1.04
256.459	-1.46
256.674	-2.37
256.889	-2.01
257.104	-2.16
257.32	-1.5
257.535	-1.19
257.75	-1.54
257.965	-1.24
258.18	0.08
258.395	0.66
258.61	0.53
258.826	0.62
259.041	1.02
259.256	1.22
259.471	1.3
259.686	1.31
259.901	1.29
260.116	1.45
260.331	1.53
260.546	1.23
260.761	1.52
260.976	1.43
261.191	1.61
261.406	2.07
261.621	2.38
261.836	2.43
262.05	2.46
262.265	2.45
262.48	2.42
262.695	2.36
262.91	2.06
263.125	1.29
263.34	1.42
263.555	1.07
263.769	0.24
263.984	-0.93
264.199	-1.1
264.414	-1.76
264.629	-1.74
264.843	-1.87
265.058	-1.93
265.273	-1.69
265.488	-1.75
265.702	-1.48
265.917	-1.31
266.132	-1.03
266.346	-0.88
266.561	-0.72
266.776	-0.19
266.99	-0.43
267.205	-0.17
267.42	0.13
267.634	0.08
267.849	0.41
268.063	0.12
268.278	-0.02
268.492	-0.14
268.707	0.14
268.922	0.39
269.136	0.3
269.351	0.87
269.565	0.67
269.78	0.57
269.994	0.61
270.209	0.48
270.423	0.33
270.637	0.51
270.852	0.23
271.066	0.16
271.281	0.18
271.495	0.22
271.709	0.27
271.924	0.03
272.138	0.07
272.353	0.09
272.567	-0.07
272.781	0.13
272.996	0.26
273.21	0.62
273.424	0.55
273.638	0.3
273.853	0.48
274.067	0.11
274.281	0.31
274.495	0.24
274.71	0.09
274.924	0.4
275.138	0.17
275.352	0.17
275.566	-0.06
275.781	0.5
275.995	0.49
276.209	0.63
276.423	0.47
276.637	0.46
276.851	0.28
277.065	0.97
277.279	1.07
277.493	1.54
277.707	1.99
277.921	2.25
278.135	1.69
278.349	2.03
278.563	1.07
278.777	1.41
278.991	1.49
279.205	1.5
279.419	1.01
279.633	0.74
279.847	0.48
280.061	-0.12
280.275	-0.35
280.489	0.11
280.703	-0.28
280.917	0.32
281.131	0.2
281.344	0.11
281.558	0.31
281.772	0.53
281.986	0.67
282.2	0.66
282.414	1.01
282.627	0.93
282.841	0.77
283.055	0.61
283.269	0.83
283.482	0.98
283.696	1.25
283.91	1.18
284.123	1.23
284.337	1.24
284.551	1.18
284.764	0.88
284.978	0.93
285.192	0.81
285.405	1.19
285.619	0.71
285.833	0.78
286.046	0.44
286.26	0.57
286.473	0.4
286.687	0.38
286.9	0.47
287.114	0.49
287.327	0.45
287.541	0.45
287.754	0.25
287.968	0.35
288.181	0.23
288.395	0.72
288.608	0.76
288.822	0.64
289.035	0.68
289.248	0.7
289.462	0.67
289.675	0.68
289.889	0.84
290.102	1.01
290.315	1.07
290.529	0.9
290.742	0.6
290.955	0.57
291.169	0.79
291.382	0.86
291.595	0.92
291.808	1.09
292.022	1.35
292.235	1.41
292.448	1.48
292.661	1.74
292.875	2.03
293.088	2.27
293.301	2.67
293.514	2.71
293.727	2.54
293.94	2.6
294.153	2.57
294.367	2.4
294.58	2.41
294.793	2.36
295.006	2.36
295.219	2.47
295.432	2.31
295.645	1.85
295.858	1.87
296.071	2.01
296.284	2.18
296.497	2.23
296.71	2.36
296.923	2.27
297.136	2.37
297.349	2.17
297.562	2.01
297.775	2.16
297.988	2.37
298.201	2.42
298.414	2.54
298.626	2.41
298.839	2.34
299.052	2.9
299.265	3.14
299.478	3.4
299.691	3.89
299.903	4.15
300.116	4.2
300.329	4.1
300.542	3.87
300.755	3.63
300.967	3.85
301.18	3.94
301.393	3.36
301.605	3.38
301.818	3.09
302.031	3.36
302.243	3.13
302.456	2.97
302.669	2.82
302.881	2.68
303.094	2.94
303.307	2.64
303.519	2.93
303.732	2.86
303.944	3.03
304.157	3.28
304.37	2.9
304.582	3.15
304.795	3.09
305.007	3.39
305.22	3.84
305.432	3.88
305.645	4.03
305.857	4.04
306.069	4.55
306.282	4.34
306.494	4.14
306.707	4.35
306.919	4.46
307.132	4.72
307.344	4.67
307.556	4.81
307.769	5.13
307.981	5
308.193	4.77
308.406	4.71
308.618	4.87
308.83	5.19
309.043	4.75
309.255	4.76
309.467	4.71
309.679	4.65
309.892	4.66
310.104	4.42
310.316	4.82
310.528	5.01
310.74	4.92
310.953	4.9
311.165	4.8
311.377	5.06
311.589	5.01
311.801	5.07
312.013	5.51
312.225	5.41
312.437	5.49
312.649	5.57
312.862	5.61
313.074	5.43
313.286	5.42
313.498	5.23
313.71	5.02
313.922	5.01
314.134	5.24
314.346	4.91
314.558	5.15
314.77	5.38
314.982	5.57
315.193	5.59
315.405	5.56
315.617	5.54
315.829	5.65
316.041	5.93
316.253	6
316.465	5.9
316.677	5.94
316.888	5.89
317.1	5.65
317.312	5.16
317.524	5.22
317.736	5.5
317.947	5.58
318.159	5.72
318.371	5.6
318.583	5.35
318.794	5.7
319.006	5.75
319.218	5.49
319.43	5.2
319.641	5.25
319.853	5.04
320.064	4.85
320.276	4.76
320.488	4.84
320.699	5.23
320.911	5.62
321.123	5.1
321.334	5.17
321.546	5.55
321.757	6.2
321.969	6.36
322.18	6.09
322.392	6.01
322.603	6.08
322.815	6.04
323.026	5.66
323.238	5.45
323.449	5.81
323.661	5.52
323.872	5.47
324.083	4.98
324.295	4.87
324.506	5.04
324.718	5.05
324.929	5.17
325.14	5.29
325.352	5.37
325.563	5.66
325.774	5.44
325.986	5.92
326.197	6.04
326.408	6.24
326.62	6.11
326.831	6.12
327.042	6.29
327.253	6.56
327.464	6.58
327.676	6.62
327.887	6.41
328.098	6.48
328.309	6.46
328.52	6.09
328.732	6.15
328.943	6.08
329.154	5.9
329.365	5.84
329.576	5.84
329.787	5.76
329.998	5.93
330.209	6.01
330.42	6.16
330.631	6.24
330.842	6.31
331.053	6.53
331.264	6.58
331.475	7.1
331.686	7.34
331.897	6.65
332.108	6.74
332.319	7.06
332.53	7.16
332.741	7.16
332.952	7.01
333.163	7.57
333.374	7.4
333.585	7.71
333.795	7.69
334.006	7.41
334.217	7.52
334.428	7.11
334.639	7.16
334.849	6.91
335.06	6.99
335.271	6.97
335.482	6.74
335.692	6.64
335.903	6.6
336.114	6.56
336.325	6.8
336.535	7.12
336.746	7.67
336.957	7.22
337.167	7.6
337.378	7.56
337.589	7.12
337.799	7.33
338.01	7.21
338.22	7.22
338.431	7.27
338.642	7.28
338.852	7.33
339.063	7.21
339.273	7.39
339.484	7.05
339.694	7.37
339.905	7.78
340.115	7.61
340.326	7.78
340.536	7.95
340.746	8.04
340.957	8.09
341.167	7.86
341.378	8
341.588	7.95
341.799	8.1
342.009	7.92
342.219	7.81
342.43	7.54
342.64	7.91
342.85	7.57
343.061	7.24
343.271	7.05
343.481	7.23
343.691	6.96
343.902	6.96
344.112	6.79
344.322	6.52
344.532	6.34
344.743	6.49
344.953	6.09
345.163	6.29
345.373	6.42
345.583	6.36
345.793	6.44
346.004	6.78
346.214	6.71
346.424	6.67
346.634	6.65
346.844	6.87
347.054	6.82
347.264	7.11
347.474	7
347.684	7.12
347.894	7.3
348.104	7.05
348.314	6.56
348.524	6.46
348.734	6.66
348.944	6.76
349.154	7.1
349.364	7.09
349.574	7
349.784	6.98
349.994	6.94
350.204	7.16
350.413	7.41
350.623	7.49
350.833	7.68
351.043	7.64
351.253	7.71
351.463	7.27
351.672	7.51
351.882	7.42
352.092	7.53
352.302	7.52
352.511	7.15
352.721	7.12
352.931	7.15
353.141	7.25
353.35	7.05
353.56	6.94
353.77	6.92
353.979	6.94
354.189	7.02
354.399	6.78
354.608	6.95
354.818	6.94
355.027	6.73
355.237	6.66
355.447	6.39
355.656	6.61
355.866	6.67
356.075	6.69
356.285	6.58
356.494	6.56
356.704	6.75
356.913	6.43
357.123	6.29
357.332	6.43
357.542	6.47
357.751	6.4
357.96	6.46
358.17	6.54
358.379	6.56
358.589	6.58
358.798	6.73
359.007	6.51
359.217	6.73
359.426	6.95
359.635	6.87
359.845	6.98
360.054	7.09
360.263	6.96
360.472	6.74
360.682	6.9
360.891	6.91
361.1	6.7
361.309	6.83
361.519	6.8
361.728	6.8
361.937	6.77
362.146	6.8
362.355	6.84
362.564	6.89
362.774	7
362.983	6.79
363.192	6.59
363.401	6.51
363.61	6.52
363.819	6.45
364.028	6.53
364.237	6.31
364.446	6.17
364.655	6.1
364.864	6.22
365.073	6.16
365.282	6.12
365.491	6.16
365.7	6.19
365.909	5.96
366.118	5.93
366.327	5.75
366.536	5.98
366.745	6.07
366.954	5.96
367.162	5.59
367.371	5.73
367.58	5.66
367.789	5.9
367.998	6.08
368.207	6.34
368.415	6.34
368.624	6.19
368.833	6.14
369.042	5.99
369.25	6.01
369.459	6.21
369.668	5.98
369.877	6.34
370.085	5.85
370.294	5.84
370.503	5.59
370.711	5.67
370.92	5.58
371.129	5.63
371.337	5.7
371.546	5.55
371.754	5.53
371.963	5.65
372.171	5.51
372.38	5.64
372.589	5.32
372.797	5.24
373.006	4.91
373.214	5.19
373.423	5.14
373.631	4.99
373.84	5.06
374.048	4.99
374.256	4.94
374.465	4.99
374.673	4.73
374.882	4.69
375.09	4.68
375.298	4.79
375.507	4.68
375.715	4.62
375.923	4.63
376.132	4.66
376.34	4.56
376.548	4.41
376.757	4.25
376.965	4.38
377.173	4.56
377.381	4.64
377.59	4.68
377.798	4.54
378.006	4.5
378.214	4.32
378.423	4.43
378.631	4.49
378.839	4.52
379.047	4.56
379.255	4.76
379.463	4.61
379.671	4.45
379.879	4.5
380.088	4.62
380.296	4.74
380.504	4.81
380.712	4.52
380.92	4.61
381.128	4.59
381.336	4.37
381.544	4.3
381.752	4.3
381.96	4.38
382.168	4.33
382.376	4.32
382.584	3.98
382.791	4.06
382.999	3.94
383.207	3.57
383.415	3.54
383.623	3.6
383.831	3.27
384.039	3.1
384.247	3.17
384.454	3.12
384.662	3.12
384.87	3.13
385.078	3.05
385.285	3.3
385.493	3.55
385.701	3.49
385.909	3.4
386.116	3.43
386.324	3.69
386.532	3.47
386.739	3.31
386.947	3.37
387.155	3.43
387.362	3.41
387.57	3.26
387.778	3.03
387.985	3.19
388.193	3.25
388.4	3.29
388.608	3.11
388.816	3.22
389.023	3.31
389.231	3.25
389.438	3.11
389.646	3.17
389.853	2.91
390.061	3.08
390.268	2.75
390.475	2.79
390.683	2.86
390.89	2.95
391.098	2.99
391.305	2.99
391.512	2.83
391.72	2.95
391.927	2.85
392.135	3.02
392.342	3.05
392.549	3.09
392.756	3.08
392.964	3.03
393.171	2.87
393.378	2.78
393.586	2.78
393.793	2.87
394	2.83
394.207	2.83
394.414	2.93
394.622	2.95
394.829	3.01
395.036	2.89
395.243	2.92
395.45	2.95
395.657	2.9
395.864	2.88
396.072	2.79
396.279	2.82
396.486	2.88
396.693	2.99
396.9	2.78
397.107	2.86
397.314	2.91
397.521	2.98
397.728	3.05
397.935	3.16
398.142	3.22
398.349	3.3
398.556	3.3
398.763	3.19
398.97	2.93
399.177	2.99
399.383	2.77
399.59	2.72
399.797	2.6
400.004	2.54
400.211	2.47
400.418	2.43
400.625	2.28
400.831	2.15
401.038	2.19
401.245	2.31
401.452	2.29
401.658	2.29
401.865	2.38
402.072	2.42
402.279	2.53
402.485	2.52
402.692	2.3
402.899	2.31
403.105	2.56
403.312	2.43
403.519	2.36
403.725	2.31
403.932	2.46
404.138	2.32
404.345	2.26
404.552	2.17
404.758	2.18
404.965	2.31
405.171	2.31
405.378	2.33
405.584	2.53
405.791	2.42
405.997	2.56
406.204	2.55
406.41	2.44
406.617	2.44
406.823	2.29
407.029	2.16
407.236	2.1
407.442	2.14
407.649	2.05
407.855	1.95
408.061	2.11
408.268	1.94
408.474	1.94
408.68	2.21
408.887	2.26
409.093	2.27
409.299	2.38
409.505	2.3
409.712	2.23
409.918	2.11
410.124	2.17
410.33	2.11
410.537	2.13
410.743	2.08
410.949	2
411.155	1.84
411.361	2
411.567	1.92
411.773	2
411.98	2.08
412.186	2.1
412.392	1.98
412.598	1.95
412.804	2.05
413.01	2.02
413.216	2.1
413.422	2.22
413.628	2.26
413.834	2.31
414.04	2.38
414.246	2.43
414.452	2.45
414.658	2.57
414.864	2.58
415.07	2.5
415.275	2.52
415.481	2.41
415.687	2.36
415.893	2.39
416.099	2.36
416.305	2.33
416.511	2.18
416.716	2.19
416.922	2.03
417.128	2.14
417.334	2.31
417.539	2.32
417.745	2.33
417.951	2.27
418.157	2.24
418.362	2.26
418.568	2.27
418.774	2.34
418.979	2.31
419.185	2.37
419.391	2.37
419.596	2.23
419.802	2.25
420.008	2.32
420.213	2.37
420.419	2.29
420.624	2.24
420.83	2.23
421.035	2.25
421.241	2.26
421.446	2.29
421.652	2.24
421.857	2.14
422.063	2.11
422.268	2.07
422.474	2.09
422.679	2.15
422.885	2.24
423.09	2.24
423.295	2.26
423.501	2.24
423.706	2.24
423.911	2.29
424.117	2.38
424.322	2.39
424.527	2.39
424.733	2.46
424.938	2.44
425.143	2.38
425.349	2.37
425.554	2.34
425.759	2.3
425.964	2.21
426.169	2.15
426.375	2.2
426.58	2.15
426.785	2.07
426.99	1.98
427.195	1.95
427.4	1.99
427.605	1.99
427.811	2.03
428.016	2.04
428.221	2.16
428.426	2.17
428.631	2.13
428.836	2.17
429.041	2.21
429.246	2.3
429.451	2.35
429.656	2.19
429.861	2.22
430.066	2.05
430.271	2.01
430.476	1.96
430.681	1.86
430.886	1.84
431.09	1.88
431.295	1.98
431.5	1.86
431.705	1.77
431.91	1.86
432.115	1.86
432.32	1.92
432.524	2.02
432.729	1.96
432.934	2
433.139	2.01
433.343	2.04
433.548	1.98
433.753	1.99
433.958	2.08
434.162	2.06
434.367	2.07
434.572	2.05
434.776	2.09
434.981	2.1
435.186	2.26
435.39	2.29
435.595	2.19
435.799	2.25
436.004	2.27
436.209	2.32
436.413	2.39
436.618	2.36
436.822	2.39
437.027	2.28
437.231	2.25
437.436	2.09
437.64	1.99
437.845	1.98
438.049	1.91
438.253	1.89
438.458	1.79
438.662	1.83
438.867	1.83
439.071	1.83
439.275	1.98
439.48	2.06
439.684	2.09
439.888	2.14
440.093	2.21
440.297	2.24
440.501	2.24
440.706	2.3
440.91	2.26
441.114	2.28
441.318	2.28
441.523	2.25
441.727	2.25
441.931	2.18
442.135	2.24
442.339	2.27
442.543	2.2
442.748	2.22
442.952	2.15
443.156	2.13
443.36	2
443.564	2.09
443.768	2.04
443.972	1.99
444.176	2.2
444.38	2.13
444.584	2.03
444.788	2.11
444.992	2.13
445.196	2.1
445.4	2.1
445.604	2.22
445.808	2.21
446.012	2.24
446.216	2.21
446.42	2.08
446.624	2.06
446.828	2.1
447.032	2.08
447.235	2.03
447.439	2.06
447.643	2.11
447.847	2.08
448.051	2
448.254	1.98
448.458	1.97
448.662	2.03
448.866	2.06
449.069	2.06
449.273	1.98
449.477	2.06
449.681	2.08
449.884	2.1
450.088	2.07
450.292	2.21
450.495	2.13
450.699	2.19
450.902	2.04
451.106	2.06
451.31	1.98
451.513	2.07
451.717	2.03
451.92	1.99
452.124	1.95
452.327	1.94
452.531	1.78
452.734	1.82
452.938	1.87
453.141	1.96
453.345	1.94
453.548	1.98
453.752	1.98
453.955	2.09
454.158	2.12
454.362	2.06
454.565	1.99
454.769	1.95
454.972	2.03
455.175	1.98
455.379	1.98
455.582	2.02
455.785	2.07
455.988	2.01
456.192	1.83
456.395	1.79
456.598	1.85
456.801	1.98
457.005	2.05
457.208	1.94
457.411	1.93
457.614	1.94
457.817	1.95
458.021	1.96
458.224	2.01
458.427	1.91
458.63	1.96
458.833	1.93
459.036	1.91
459.239	1.86
459.442	1.9
459.645	1.8
459.848	1.77
460.051	1.68
460.254	1.63
460.457	1.58
460.66	1.67
460.863	1.65
461.066	1.67
461.269	1.66
461.472	1.75
461.675	1.77
461.878	1.9
462.081	1.94
462.284	2.02
462.486	2.1
462.689	2.17
462.892	2.24
463.095	2.19
463.298	2.22
463.5	2.11
463.703	2.05
463.906	2
464.109	2
464.311	2.08
464.514	1.96
464.717	2.04
464.92	1.99
465.122	1.89
465.325	1.89
465.528	1.99
465.73	2.07
465.933	2.06
466.135	2.07
466.338	2.05
466.541	2.02
466.743	2.07
466.946	1.87
467.148	1.93
467.351	1.97
467.553	2.01
467.756	1.91
467.958	1.92
468.161	2.03
468.363	1.99
468.566	1.94
468.768	1.85
468.971	1.91
469.173	2.03
469.375	2.02
469.578	2.06
469.78	2.01
469.983	2.09
470.185	2.12
