Data from 2938827__Reflection_04.txt Node
Date: Thu Mar 12 13:26:54 EDT 2015
User: robert
Spectrometer: USB4E03002
Autoset integration time: false
Trigger mode: 4
Integration Time (sec): 1.000000E-1
Scans to average: 10
Electric dark correction enabled: false
Nonlinearity correction enabled: false
Boxcar width: 5
Stray light correction enabled: false
XAxis mode: Wavelengths
Stop averaging: false
Number of Pixels in Spectrum: 3648
>>>>>Begin Spectral Data<<<<<
177.575	-1166.91
177.794	-2782.67
178.014	-5534.88
178.233	-2252.17
178.452	-1967.79
178.672	-2033.54
178.891	-2700.82
179.11	-4025.61
179.33	5746.67
179.549	-3509.8
179.768	-2837.3
179.987	3040.68
180.207	1765.2
180.426	2261.08
180.645	1840.55
180.864	859.92
181.084	586.2
181.303	659.54
181.522	567.7
181.741	651.78
181.96	569.09
182.179	529.11
182.398	510.36
182.618	652.48
182.837	687.04
183.056	676.94
183.275	1126.3
183.494	2602.86
183.713	1550
183.932	4490.36
184.151	-3644.55
184.37	-5016.67
184.589	-2096.47
184.808	-2131.58
185.027	-8785.37
185.246	4450.6
185.465	3149.14
185.684	2141.52
185.903	1657.71
186.122	1544.64
186.341	886.54
186.56	503.09
186.779	609.4
186.998	554.07
187.216	541.81
187.435	654.56
187.654	659.46
187.873	585.65
188.092	582.27
188.311	591.13
188.53	542.93
188.748	672.36
188.967	838.09
189.186	653.07
189.405	655.66
189.623	813.81
189.842	607.43
190.061	661.82
190.28	630.89
190.498	482.54
190.717	516.76
190.936	683.3
191.154	727.39
191.373	824.88
191.592	679.57
191.81	727
192.029	603.07
192.248	1001.49
192.466	1320
192.685	2796.77
192.904	-8553.85
193.122	-19700
193.341	7417.78
193.559	3674.74
193.778	25838.46
193.996	-2810.08
194.215	-1521.3
194.433	-824.88
194.652	-1029.49
194.87	-1621.89
195.089	-1296.09
195.307	-1061.39
195.526	-814.87
195.744	-790.5
195.963	-790.73
196.181	-1000
196.399	-1151.88
196.618	-2131.64
196.836	-2513.79
197.055	-1819.6
197.273	-1013.31
197.491	-1595.54
197.71	-2268.63
197.928	-1930.06
198.146	-3258.65
198.365	-3182.14
198.583	-39000
198.801	9494.29
199.019	3745.56
199.238	1632.57
199.456	1245.59
199.674	1182.41
199.892	1087.5
200.111	1857.45
200.329	776.7
200.547	643.74
200.765	633.45
200.983	666.99
201.202	697.07
201.42	1153.59
201.638	2141.1
201.856	2416.55
202.074	1382.61
202.292	1463.56
202.51	938.44
202.728	1988.69
202.946	2156.33
203.165	1854.5
203.383	1876.72
203.601	1334.57
203.819	725.35
204.037	661.21
204.255	627.78
204.473	546.55
204.691	580.54
204.909	610.36
205.127	630.71
205.345	1102.97
205.562	1250.36
205.78	1570.09
205.998	1382.54
206.216	3192.66
206.434	2591.91
206.652	-3336.27
206.87	-2888.89
207.088	-2116.15
207.306	-2192.36
207.523	-3712
207.741	-8475
207.959	5653.13
208.177	2143.79
208.395	1638.57
208.612	1232.98
208.83	1359
209.048	670.07
209.266	712.24
209.483	628.43
209.701	472.68
209.919	418.53
210.136	373.46
210.354	375.97
210.572	426.63
210.79	653.57
211.007	539.78
211.225	544.96
211.442	474.77
211.66	479.06
211.878	435.59
212.095	522.7
212.313	547.01
212.53	558.59
212.748	501.89
212.966	547.64
213.183	430.33
213.401	500.65
213.618	456.66
213.836	567.21
214.053	644.5
214.271	789.77
214.488	1005.23
214.705	917.88
214.923	824.64
215.14	1107.74
215.358	614.36
215.575	697.79
215.793	560.89
216.01	549.62
216.227	473.53
216.445	406.34
216.662	342.86
216.879	337.92
217.097	333.3
217.314	324.81
217.531	348.24
217.749	408.82
217.966	320.99
218.183	309.57
218.4	300
218.618	291.48
218.835	273.09
219.052	297.51
219.269	280.42
219.487	285.34
219.704	264.79
219.921	249.34
220.138	234.09
220.355	235.14
220.572	246.98
220.79	225.91
221.007	215.59
221.224	226.11
221.441	213.2
221.658	204.11
221.875	188.14
222.092	175.76
222.309	162.19
222.526	157.71
222.743	162.16
222.96	146.63
223.177	148.98
223.394	141.2
223.611	132.89
223.828	128.72
224.045	123.35
224.262	112.3
224.479	108.79
224.696	102.54
224.913	97.4
225.13	90.85
225.347	89.87
225.564	83.43
225.781	79.43
225.997	74.8
226.214	69.65
226.431	59.34
226.648	56.06
226.865	50.97
227.082	47.63
227.298	41.43
227.515	35.9
227.732	30.96
227.949	28.97
228.165	27.14
228.382	24.8
228.599	21.97
228.816	22.05
229.032	20.92
229.249	20.41
229.466	19.91
229.682	20.03
229.899	20.37
230.116	21.07
230.332	21.33
230.549	21.29
230.765	22.89
230.982	24.89
231.199	26.61
231.415	29.15
231.632	30.9
231.848	32.38
232.065	33.08
232.281	36.09
232.498	36.93
232.714	38.02
232.931	37.82
233.147	37.77
233.364	37.4
233.58	36.57
233.797	35.28
234.013	34.59
234.23	34.19
234.446	34.58
234.662	32.67
234.879	32.68
235.095	33.48
235.312	33.86
235.528	34.67
235.744	35.8
235.961	35.43
236.177	35.75
236.393	36.13
236.61	37.38
236.826	37.84
237.042	39.21
237.258	40.11
237.475	40.35
237.691	40.58
237.907	38.95
238.123	38.84
238.339	39.18
238.556	40.85
238.772	41.34
238.988	39.58
239.204	37.88
239.42	35.34
239.636	34.09
239.853	31.3
240.069	29.89
240.285	28.73
240.501	26.9
240.717	25.16
240.933	22.54
241.149	21.15
241.365	19.93
241.581	19.23
241.797	18.56
242.013	17.3
242.229	16.68
242.445	16.9
242.661	16.33
242.877	16.73
243.093	16.5
243.309	16.8
243.525	16.71
243.741	17.54
243.957	17.94
244.173	18.27
244.388	18.99
244.604	19.21
244.82	18.74
245.036	18.75
245.252	17.62
245.468	16.99
245.683	16.04
245.899	14.62
246.115	13.44
246.331	13.01
246.547	12.38
246.762	12.03
246.978	11.81
247.194	11.53
247.409	11.31
247.625	11.07
247.841	11.04
248.057	10.95
248.272	11.57
248.488	12.4
248.703	12.34
248.919	12.99
249.135	13.64
249.35	14.35
249.566	15.35
249.782	16.54
249.997	17.53
250.213	18.89
250.428	20.31
250.644	20.15
250.859	20.08
251.075	21.07
251.29	21.05
251.506	20.59
251.721	19.94
251.937	19.53
252.152	18.97
252.368	18.5
252.583	18.61
252.798	18.25
253.014	18.49
253.229	18.17
253.445	18.17
253.66	19.03
253.875	19.76
254.091	21.5
254.306	21.38
254.521	21.8
254.737	22.24
254.952	22.06
255.167	22.8
255.383	22.69
255.598	23.42
255.813	22.62
256.028	21.95
256.244	22.09
256.459	20.58
256.674	20.6
256.889	19.72
257.104	19.29
257.32	18.16
257.535	16.71
257.75	16.46
257.965	15.26
258.18	14.45
258.395	12.97
258.61	11.68
258.826	10.81
259.041	10.3
259.256	9.76
259.471	9.01
259.686	8.4
259.901	8.03
260.116	7.54
260.331	7.6
260.546	7.55
260.761	7.62
260.976	7.86
261.191	8.07
261.406	8.38
261.621	9.05
261.836	10.07
262.05	11.08
262.265	12.28
262.48	13.18
262.695	13.51
262.91	14.56
263.125	15.18
263.34	15.66
263.555	16.32
263.769	16.04
263.984	16.25
264.199	16.05
264.414	15.99
264.629	16.28
264.843	16.05
265.058	16.04
265.273	15.42
265.488	15.14
265.702	14.48
265.917	14.38
266.132	14.86
266.346	14.68
266.561	14.11
266.776	13.8
266.99	13.15
267.205	13.59
267.42	13.2
267.634	12.86
267.849	12.93
268.063	12.83
268.278	12.66
268.492	12.37
268.707	12.06
268.922	12.16
269.136	12.09
269.351	12.08
269.565	11.09
269.78	10.77
269.994	10.78
270.209	10.39
270.423	10.47
270.637	10.08
270.852	9.64
271.066	9.66
271.281	9.8
271.495	9.48
271.709	9.37
271.924	9.58
272.138	9.67
272.353	9.81
272.567	9.84
272.781	9.87
272.996	10.06
273.21	10.34
273.424	10.43
273.638	10.45
273.853	10.85
274.067	10.95
274.281	11.63
274.495	12.36
274.71	12.66
274.924	13.11
275.138	12.91
275.352	12.94
275.566	13.39
275.781	13.33
275.995	13.22
276.209	13.7
276.423	14.14
276.637	13.65
276.851	12.85
277.065	12.25
277.279	11.85
277.493	11.59
277.707	11.66
277.921	11.17
278.135	10.97
278.349	11.05
278.563	10.65
278.777	10.33
278.991	10.69
279.205	11.36
279.419	11.62
279.633	11.67
279.847	11.98
280.061	11.94
280.275	11.85
280.489	11.73
280.703	11.13
280.917	10.84
281.131	10.79
281.344	10.63
281.558	10.28
281.772	10.24
281.986	10.23
282.2	10.17
282.414	10.09
282.627	9.94
282.841	9.96
283.055	10.32
283.269	10.61
283.482	10.86
283.696	10.21
283.91	10.08
284.123	9.86
284.337	9.72
284.551	9.58
284.764	9.51
284.978	9.26
285.192	9.15
285.405	8.73
285.619	8.63
285.833	8.4
286.046	8.4
286.26	8.4
286.473	8.37
286.687	8.54
286.9	8.51
287.114	8.43
287.327	8.69
287.541	8.87
287.754	9.24
287.968	9.37
288.181	9.27
288.395	9.68
288.608	9.72
288.822	10
289.035	9.68
289.248	9.86
289.462	9.97
289.675	10
289.889	10.06
290.102	9.97
290.315	9.8
290.529	9.89
290.742	10
290.955	9.91
291.169	9.7
291.382	10.05
291.595	10.52
291.808	10.56
292.022	10.5
292.235	10.33
292.448	10.75
292.661	10.95
292.875	11.08
293.088	11.08
293.301	11.61
293.514	11.88
293.727	11.89
293.94	11.16
294.153	11.08
294.367	10.94
294.58	10.97
294.793	10.96
295.006	10.81
295.219	10.88
295.432	10.96
295.645	10.75
295.858	10.59
296.071	10.44
296.284	10.61
296.497	10.59
296.71	10.74
296.923	10.72
297.136	10.43
297.349	10.54
297.562	10.33
297.775	10.47
297.988	10.65
298.201	10.89
298.414	11.14
298.626	11.25
298.839	11.41
299.052	11.73
299.265	12.09
299.478	12.32
299.691	12.39
299.903	13.07
300.116	13.29
300.329	13.09
300.542	13.2
300.755	13.33
300.967	13.57
301.18	13.61
301.393	13.41
301.605	13.76
301.818	14.03
302.031	14.15
302.243	13.97
302.456	13.96
302.669	13.96
302.881	13.99
303.094	13.97
303.307	13.86
303.519	14.32
303.732	14.56
303.944	14.39
304.157	14.41
304.37	14.61
304.582	14.86
304.795	14.91
305.007	15.59
305.22	15.97
305.432	16.16
305.645	16.76
305.857	16.66
306.069	17.1
306.282	17.09
306.494	17.14
306.707	17.25
306.919	17.13
307.132	17.25
307.344	16.97
307.556	16.6
307.769	16.65
307.981	16.19
308.193	16.27
308.406	16.18
308.618	16.05
308.83	15.93
309.043	15.92
309.255	15.37
309.467	15.18
309.679	15.17
309.892	15.15
310.104	14.78
310.316	14.66
310.528	14.4
310.74	14.11
310.953	14.11
311.165	14.13
311.377	14.1
311.589	14.41
311.801	14.35
312.013	14.37
312.225	14.49
312.437	15.1
312.649	15.42
312.862	15.5
313.074	15.87
313.286	16.29
313.498	16.51
313.71	16.43
313.922	16.86
314.134	17.04
314.346	16.96
314.558	17.04
314.77	16.95
314.982	17.42
315.193	17.63
315.405	17.52
315.617	17.54
315.829	17.76
316.041	17.68
316.253	17.69
316.465	17.88
316.677	17.95
316.888	18.26
317.1	18.43
317.312	18.1
317.524	18.22
317.736	18.48
317.947	18.69
318.159	18.84
318.371	19.29
318.583	19.48
318.794	19.82
319.006	20.17
319.218	19.97
319.43	20.06
319.641	20.18
319.853	20.11
320.064	20.32
320.276	20.24
320.488	20.51
320.699	20.82
320.911	20.81
321.123	20.24
321.334	20.34
321.546	20.14
321.757	20.53
321.969	20.22
322.18	20.5
322.392	20.46
322.603	20.68
322.815	20.35
323.026	20.16
323.238	19.72
323.449	19.71
323.661	19.58
323.872	19.39
324.083	18.99
324.295	19.11
324.506	18.95
324.718	18.56
324.929	18.4
325.14	18.73
325.352	18.63
325.563	18.58
325.774	18.64
325.986	18.57
326.197	18.97
326.408	18.54
326.62	18.45
326.831	18.85
327.042	18.96
327.253	18.88
327.464	19.05
327.676	18.93
327.887	19.27
328.098	19.44
328.309	20.01
328.52	20.32
328.732	20.6
328.943	21.27
329.154	21.03
329.365	20.91
329.576	21.06
329.787	20.75
329.998	20.9
330.209	20.74
330.42	21.1
330.631	20.96
330.842	20.81
331.053	21.13
331.264	20.52
331.475	20.45
331.686	20.69
331.897	20.91
332.108	20.69
332.319	20.92
332.53	21.17
332.741	20.73
332.952	20.57
333.163	20.14
333.374	20.03
333.585	20.55
333.795	20.64
334.006	20.65
334.217	20.58
334.428	20.37
334.639	20.28
334.849	20.36
335.06	20.33
335.271	20.29
335.482	20.56
335.692	20.39
335.903	19.89
336.114	19.62
336.325	19.79
336.535	19.61
336.746	20.14
336.957	19.93
337.167	19.85
337.378	19.98
337.589	19.81
337.799	19.78
338.01	19.93
338.22	19.92
338.431	20.01
338.642	19.7
338.852	19.79
339.063	19.59
339.273	19.68
339.484	19.76
339.694	19.75
339.905	19.75
340.115	20.06
340.326	20.18
340.536	20.21
340.746	20.6
340.957	20.83
341.167	20.82
341.378	20.83
341.588	20.45
341.799	20.09
342.009	19.86
342.219	19.79
342.43	19.35
342.64	18.96
342.85	19.01
343.061	18.56
343.271	18.4
343.481	18.35
343.691	18.22
343.902	18.73
344.112	18.83
344.322	18.8
344.532	18.55
344.743	18.55
344.953	18.32
345.163	18.26
345.373	18.29
345.583	18.18
345.793	17.76
346.004	18
346.214	17.66
346.424	17.51
346.634	17.67
346.844	17.8
347.054	17.62
347.264	18.16
347.474	18.2
347.684	18.15
347.894	17.99
348.104	18.45
348.314	18
348.524	17.83
348.734	18.03
348.944	17.96
349.154	17.8
349.364	17.97
349.574	17.65
349.784	17.3
349.994	17.27
350.204	17.4
350.413	17.29
350.623	17.33
350.833	17.65
351.043	17.38
351.253	17.23
351.463	17.65
351.672	17.78
351.882	17.99
352.092	18.29
352.302	18.46
352.511	18.59
352.721	18.22
352.931	18.2
353.141	18.13
353.35	17.93
353.56	18.03
353.77	17.66
353.979	17.67
354.189	17.4
354.399	17.37
354.608	17.1
354.818	17.14
355.027	17.45
355.237	17.44
355.447	16.93
355.656	17.44
355.866	17.07
356.075	16.94
356.285	16.7
356.494	16.68
356.704	16.47
356.913	16.79
357.123	16.59
357.332	16.44
357.542	16.53
357.751	16.77
357.96	16.56
358.17	16.86
358.379	16.94
358.589	16.86
358.798	16.55
359.007	16.39
359.217	15.85
359.426	15.86
359.635	15.8
359.845	15.36
360.054	15.19
360.263	14.95
360.472	14.89
360.682	14.85
360.891	14.72
361.1	14.83
361.309	14.89
361.519	14.87
361.728	14.64
361.937	14.68
362.146	14.87
362.355	15.02
362.564	15.13
362.774	15.18
362.983	15.02
363.192	15.22
363.401	15.2
363.61	15.15
363.819	15.18
364.028	15.29
364.237	15.29
364.446	15.04
364.655	14.96
364.864	14.89
365.073	14.61
365.282	14.58
365.491	14.38
365.7	14.33
365.909	14.57
366.118	14.63
366.327	14.65
366.536	14.49
366.745	14.55
366.954	14.74
367.162	14.8
367.371	14.76
367.58	15.08
367.789	15.23
367.998	15.46
368.207	15.5
368.415	15.85
368.624	15.75
368.833	15.89
369.042	15.87
369.25	15.8
369.459	15.7
369.668	15.87
369.877	15.52
370.085	15.43
370.294	15.16
370.503	14.88
370.711	14.49
370.92	14.44
371.129	14.24
371.337	14.3
371.546	14.3
371.754	14.2
371.963	14.16
372.171	14.47
372.38	14.3
372.589	14.34
372.797	14.25
373.006	14.12
373.214	14.09
373.423	14.13
373.631	14
373.84	13.65
374.048	13.52
374.256	13.29
374.465	12.94
374.673	12.94
374.882	12.87
375.09	12.99
375.298	12.98
375.507	12.95
375.715	12.85
375.923	12.7
376.132	12.75
376.34	12.88
376.548	12.88
376.757	12.86
376.965	12.75
377.173	12.59
377.381	12.59
377.59	12.7
377.798	12.68
378.006	12.49
378.214	12.66
378.423	12.65
378.631	12.76
378.839	12.82
379.047	12.74
379.255	12.72
379.463	12.79
379.671	12.38
379.879	12.17
380.088	12.2
380.296	12.53
380.504	12.37
380.712	12.25
380.92	12.02
381.128	11.96
381.336	12.01
381.544	12.14
381.752	12.12
381.96	12.35
382.168	12.25
382.376	12.2
382.584	12.05
382.791	11.98
382.999	11.86
383.207	11.49
383.415	11.19
383.623	11.19
383.831	11.13
384.039	11.07
384.247	10.93
384.454	10.96
384.662	10.82
384.87	10.67
385.078	10.62
385.285	10.55
385.493	10.82
385.701	10.91
385.909	10.78
386.116	10.88
386.324	11.08
386.532	11.13
386.739	11.01
386.947	10.94
387.155	10.89
387.362	10.85
387.57	10.87
387.778	10.85
387.985	10.96
388.193	11.09
388.4	10.78
388.608	10.84
388.816	10.65
389.023	10.88
389.231	10.86
389.438	11.11
389.646	11.22
389.853	11.05
390.061	10.86
390.268	10.71
390.475	10.66
390.683	10.71
390.89	10.34
391.098	10.24
391.305	10.08
391.512	9.95
391.72	9.54
391.927	9.38
392.135	9.46
392.342	9.41
392.549	9.58
392.756	9.26
392.964	8.94
393.171	8.86
393.378	8.88
393.586	8.67
393.793	8.62
394	8.46
394.207	8.47
394.414	8.44
394.622	8.61
394.829	8.58
395.036	8.76
395.243	9.08
395.45	9.26
395.657	9.26
395.864	9.46
396.072	9.39
396.279	9.5
396.486	9.49
396.693	9.49
396.9	9.21
397.107	8.97
397.314	9.03
397.521	8.97
397.728	8.79
397.935	8.77
398.142	8.63
398.349	8.7
398.556	8.85
398.763	8.95
398.97	8.97
399.177	8.98
399.383	8.82
399.59	8.75
399.797	8.67
400.004	8.84
400.211	8.91
400.418	8.88
400.625	8.88
400.831	8.75
401.038	8.64
401.245	8.56
401.452	8.72
401.658	8.93
401.865	8.87
402.072	8.86
402.279	8.58
402.485	8.45
402.692	8.39
402.899	8.46
403.105	8.56
403.312	8.42
403.519	8.32
403.725	8.18
403.932	8.08
404.138	7.77
404.345	7.63
404.552	7.71
404.758	7.78
404.965	7.81
405.171	7.58
405.378	7.46
405.584	7.41
405.791	7.33
405.997	7.24
406.204	7.11
406.41	7.28
406.617	7.23
406.823	7.19
407.029	7.23
407.236	7.16
407.442	7.3
407.649	7.52
407.855	7.47
408.061	7.5
408.268	7.57
408.474	7.57
408.68	7.58
408.887	7.66
409.093	7.74
409.299	7.55
409.505	7.46
409.712	7.45
409.918	7.2
410.124	7.25
410.33	7.22
410.537	7.21
410.743	7.32
410.949	7.3
411.155	7.38
411.361	7.33
411.567	7.27
411.773	7.34
411.98	7.35
412.186	7.23
412.392	7.21
412.598	7.37
412.804	7.56
413.01	7.49
413.216	7.69
413.422	7.64
413.628	7.66
413.834	7.88
414.04	7.94
414.246	7.71
414.452	7.72
414.658	7.67
414.864	7.58
415.07	7.5
415.275	7.48
415.481	7.19
415.687	7.13
415.893	7.1
416.099	6.9
416.305	6.81
416.511	7.06
416.716	7.03
416.922	7
417.128	6.81
417.334	6.63
417.539	6.47
417.745	6.42
417.951	6.2
418.157	5.99
418.362	6.03
418.568	6
418.774	5.73
418.979	5.69
419.185	5.54
419.391	5.56
419.596	5.48
419.802	5.54
420.008	5.45
420.213	6.08
420.419	6.05
420.624	5.97
420.83	5.87
421.035	5.92
421.241	5.9
421.446	5.94
421.652	5.92
421.857	5.79
422.063	5.71
422.268	5.78
422.474	5.29
422.679	5.27
422.885	5.22
423.09	5.26
423.295	5.23
423.501	5.19
423.706	5.16
423.911	5.17
424.117	5.3
424.322	5.32
424.527	5.33
424.733	5.3
424.938	5.41
425.143	5.45
425.349	5.37
425.554	5.38
425.759	5.51
425.964	5.64
426.169	5.62
426.375	5.66
426.58	5.69
426.785	5.73
426.99	5.67
427.195	5.62
427.4	5.56
427.605	5.79
427.811	5.91
428.016	5.85
428.221	5.81
428.426	5.92
428.631	5.79
428.836	5.85
429.041	5.83
429.246	5.97
429.451	6.01
429.656	6.15
429.861	6.14
430.066	6.1
430.271	6.02
430.476	6.06
430.681	5.94
430.886	6.02
431.09	6.02
431.295	5.94
431.5	5.9
431.705	5.82
431.91	5.75
432.115	5.5
432.32	5.4
432.524	5.36
432.729	5.41
432.934	5.47
433.139	5.46
433.343	5.45
433.548	5.46
433.753	5.42
433.958	5.54
434.162	5.55
434.367	5.63
434.572	5.73
434.776	5.8
434.981	5.65
435.186	5.56
435.39	5.61
435.595	5.65
435.799	5.64
436.004	5.71
436.209	5.66
436.413	5.64
436.618	5.64
436.822	5.61
437.027	5.51
437.231	5.61
437.436	5.68
437.64	5.63
437.845	5.57
438.049	5.63
438.253	5.68
438.458	5.63
438.662	5.62
438.867	5.64
439.071	5.57
439.275	5.69
439.48	5.6
439.684	5.6
439.888	5.52
440.093	5.45
440.297	5.44
440.501	5.33
440.706	5.36
440.91	5.29
441.114	5.24
441.318	5.38
441.523	5.34
441.727	5.39
441.931	5.34
442.135	5.35
442.339	5.47
442.543	5.49
442.748	5.58
442.952	5.58
443.156	5.66
443.36	5.81
443.564	5.76
443.768	5.7
443.972	5.64
444.176	5.7
444.38	5.69
444.584	5.61
444.788	5.44
444.992	5.32
445.196	5.19
445.4	5.02
445.604	4.89
445.808	4.77
446.012	4.74
446.216	4.72
446.42	4.67
446.624	4.69
446.828	4.68
447.032	4.71
447.235	4.66
447.439	4.73
447.643	4.9
447.847	4.97
448.051	5.12
448.254	5.19
448.458	5.23
448.662	5.32
448.866	5.35
449.069	5.31
449.273	5.44
449.477	5.58
449.681	5.56
449.884	5.5
450.088	5.58
450.292	5.41
450.495	5.39
450.699	5.47
450.902	5.31
451.106	5.32
451.31	5.4
451.513	5.35
451.717	5.4
451.92	5.44
452.124	5.44
452.327	5.3
452.531	5.55
452.734	5.46
452.938	5.42
453.141	5.51
453.345	5.65
453.548	5.72
453.752	5.72
453.955	5.69
454.158	5.63
454.362	5.7
454.565	5.87
454.769	5.7
454.972	5.93
455.175	5.96
455.379	5.98
455.582	5.93
455.785	5.84
455.988	5.92
456.192	5.94
456.395	5.95
456.598	5.91
456.801	5.83
457.005	5.87
457.208	5.79
457.411	5.76
