Data from 2938821__Reflection_03.txt Node
Date: Thu Mar 12 14:27:35 EDT 2015
User: robert
Spectrometer: USB4E03002
Autoset integration time: false
Trigger mode: 4
Integration Time (sec): 1.000000E-1
Scans to average: 10
Electric dark correction enabled: false
Nonlinearity correction enabled: false
Boxcar width: 5
Stray light correction enabled: false
XAxis mode: Wavelengths
Stop averaging: false
Number of Pixels in Spectrum: 3648
>>>>>Begin Spectral Data<<<<<
177.575	56.2
177.794	97.04
178.014	51.51
178.233	53.83
178.452	52.99
178.672	42.58
178.891	40.24
179.11	30.25
179.33	12.24
179.549	19.08
179.768	2.76
179.987	8.57
180.207	-17.98
180.426	-40.19
180.645	-205.26
180.864	-254.37
181.084	-360.98
181.303	150
181.522	1672.73
181.741	-107.89
181.96	-43.59
182.179	-115.94
182.398	-172
182.618	131.25
182.837	-122.5
183.056	-40.87
183.275	50.69
183.494	53.02
183.713	45
183.932	11.9
184.151	42.9
184.37	46.61
184.589	32.16
184.808	70
185.027	100.84
185.246	119.44
185.465	182.85
185.684	150.24
185.903	136.79
186.122	155.67
186.341	163.55
186.56	122.41
186.779	153.31
186.998	148.03
187.216	102.37
187.435	111.88
187.654	103.01
187.873	79.08
188.092	102.07
188.311	104.73
188.53	106.14
188.748	126.73
188.967	188.57
189.186	79.56
189.405	98.01
189.623	139.25
189.842	102.85
190.061	149.51
190.28	98.58
190.498	108.28
190.717	113.09
190.936	152.05
191.154	194.76
191.373	91.7
191.592	140.3
191.81	121.23
192.029	137.68
192.248	133.7
192.466	128.67
192.685	170.79
192.904	135.01
193.122	156.81
193.341	120.32
193.559	93.5
193.778	169.89
193.996	-17.7
194.215	3.45
194.433	388.24
194.652	11.79
194.87	-116.09
195.089	19.21
195.307	133.03
195.526	158.62
195.744	249.62
195.963	383.17
196.181	305.58
196.399	300.84
196.618	487.16
196.836	958.18
197.055	-465.19
197.273	1545.83
197.491	991.38
197.71	1583.33
197.928	1165.85
198.146	508.2
198.365	110.78
198.583	40.4
198.801	49.58
199.019	103.23
199.238	105.26
199.456	75.17
199.674	51
199.892	98.96
200.111	78.7
200.329	90.1
200.547	124.88
200.765	-7800
200.983	894.74
201.202	-1761.11
201.42	2228.57
201.638	317.92
201.856	1466.67
202.074	-1153.33
202.292	255.88
202.51	757.14
202.728	242.47
202.946	233.33
203.165	140.2
203.383	108.1
203.601	47.06
203.819	-6.76
204.037	-62.39
204.255	-52.04
204.473	5.37
204.691	110.53
204.909	-5.67
205.127	-62
205.345	136.11
205.562	-100
205.78	-19.53
205.998	26.84
206.216	71.38
206.434	89.44
206.652	66.77
206.87	55.94
207.088	36.44
207.306	32.14
207.523	17.17
207.741	4.88
207.959	22.24
208.177	36.79
208.395	23.04
208.612	45.15
208.83	27.54
209.048	59.03
209.266	42.23
209.483	41.75
209.701	53.48
209.919	82.36
210.136	87.07
210.354	86.74
210.572	80.81
210.79	84.06
211.007	69.6
211.225	85.43
211.442	60.33
211.66	57.88
211.878	53.7
212.095	-48.88
212.313	-45.76
212.53	-49.57
212.748	-44.27
212.966	-66.91
213.183	-56.19
213.401	-41.88
213.618	-56.84
213.836	-38.1
214.053	-28.2
214.271	-50.54
214.488	60.51
214.705	64.86
214.923	64.2
215.14	43.04
215.358	44.08
215.575	48.21
215.793	42.94
216.01	65.67
216.227	47.97
216.445	32.58
216.662	51.84
216.879	36.35
217.097	17.11
217.314	1.9
217.531	26.27
217.749	33.33
217.966	7.91
218.183	12.37
218.4	-21.13
218.618	11.4
218.835	1.38
219.052	5.3
219.269	9.2
219.487	17.2
219.704	34.36
219.921	39.42
220.138	36.07
220.355	46.03
220.572	43.86
220.79	47.35
221.007	35.38
221.224	43.69
221.441	48.75
221.658	42.24
221.875	29.82
222.092	20.24
222.309	22.25
222.526	26.52
222.743	26.24
222.96	26.81
223.177	29.02
223.394	29.92
223.611	25.34
223.828	19.61
224.045	29.57
224.262	34.78
224.479	37.14
224.696	27.34
224.913	23.75
225.13	22.82
225.347	21.8
225.564	16.09
225.781	13.09
225.997	11.84
226.214	9.75
226.431	4.39
226.648	5.78
226.865	5.02
227.082	5.83
227.298	4.85
227.515	2.96
227.732	3.77
227.949	4.62
228.165	4.97
228.382	6.38
228.599	5.9
228.816	6.51
229.032	5.94
229.249	4.98
229.466	4.58
229.682	4.44
229.899	5.01
230.116	4.36
230.332	3.77
230.549	4.83
230.765	2.14
230.982	2.51
231.199	2.02
231.415	2.24
231.632	2.72
231.848	3.2
232.065	3.45
232.281	3.07
232.498	3.05
232.714	4.23
232.931	3.54
233.147	4.15
233.364	4.06
233.58	4.73
233.797	4.58
234.013	5.15
234.23	5.64
234.446	3.6
234.662	3.54
234.879	3.96
235.095	4.38
235.312	3.98
235.528	5.34
235.744	5.77
235.961	7.99
236.177	7.17
236.393	7.39
236.61	7.13
236.826	7.58
237.042	8.27
237.258	9.16
237.475	9.45
237.691	9.77
237.907	10.33
238.123	10.29
238.339	7.63
238.556	7.04
238.772	7.17
238.988	7.19
239.204	9.34
239.42	8.51
239.636	8.62
239.853	7.39
240.069	6.55
240.285	5.77
240.501	5.27
240.717	5.3
240.933	5.44
241.149	5.83
241.365	5.78
241.581	5.14
241.797	5.3
242.013	4.67
242.229	4.37
242.445	4.19
242.661	4.08
242.877	3.45
243.093	3.35
243.309	4.09
243.525	2.96
243.741	2.62
243.957	3.68
244.173	3.47
244.388	3.36
244.604	4.58
244.82	4.86
245.036	4.9
245.252	6.25
245.468	6.07
245.683	5.1
245.899	5.61
246.115	5.17
246.331	4.27
246.547	4.32
246.762	4.32
246.978	3.95
247.194	3.83
247.409	3.63
247.625	3.32
247.841	3.53
248.057	3.75
248.272	3.57
248.488	3.86
248.703	3.53
248.919	3.59
249.135	3.45
249.35	3.26
249.566	3.21
249.782	3.6
249.997	3.61
250.213	3.24
250.428	3.08
250.644	3.11
250.859	2.74
251.075	3.3
251.29	3.4
251.506	2.99
251.721	2.78
251.937	3.07
252.152	3.33
252.368	3.75
252.583	3.07
252.798	3.41
253.014	3.03
253.229	3.58
253.445	3.95
253.66	3.65
253.875	4.95
254.091	6.06
254.306	6.06
254.521	5.85
254.737	5.04
254.952	5.51
255.167	5.51
255.383	5.88
255.598	5.26
255.813	4.98
256.028	4.91
256.244	3.97
256.459	3.63
256.674	3.37
256.889	4.05
257.104	4.17
257.32	4.27
257.535	2.95
257.75	3.35
257.965	3.06
258.18	2.83
258.395	2.33
258.61	2.04
258.826	1.77
259.041	1.47
259.256	1.34
259.471	1.5
259.686	1.55
259.901	1.63
260.116	1.61
260.331	1.53
260.546	1.55
260.761	1.73
260.976	1.84
261.191	2.07
261.406	2.57
261.621	2.3
261.836	2.31
262.05	2.36
262.265	2.67
262.48	2.5
262.695	2.82
262.91	3.15
263.125	3.14
263.34	3.13
263.555	2.81
263.769	2.58
263.984	2.85
264.199	2.78
264.414	2.44
264.629	2.4
264.843	2.42
265.058	2.2
265.273	1.96
265.488	2.45
265.702	2.68
265.917	2.48
266.132	2.44
266.346	2.13
266.561	2.1
266.776	2.51
266.99	2.6
267.205	2.13
267.42	2.82
267.634	3.16
267.849	2.94
268.063	3.02
268.278	3.21
268.492	3.36
268.707	3.83
268.922	3.87
269.136	3.83
269.351	3.81
269.565	4.21
269.78	3.55
269.994	3.1
270.209	2.75
270.423	2.18
270.637	2.4
270.852	2.46
271.066	2.4
271.281	1.9
271.495	1.68
271.709	1.73
271.924	1.59
272.138	1.69
272.353	1.74
272.567	2.02
272.781	2.28
272.996	2.09
273.21	1.71
273.424	1.58
273.638	1.92
273.853	1.76
274.067	1.73
274.281	2.49
274.495	2.57
274.71	2.58
274.924	2.5
275.138	1.95
275.352	1.96
275.566	2.22
275.781	2.68
275.995	2.7
276.209	2.89
276.423	2.76
276.637	2.33
276.851	2.15
277.065	2.41
277.279	2.13
277.493	2.67
277.707	2.33
277.921	2.33
278.135	1.64
278.349	1.94
278.563	1.47
278.777	1.26
278.991	0.92
279.205	1.45
279.419	1.25
279.633	1.79
279.847	2.05
280.061	2.53
280.275	2.42
280.489	2.87
280.703	2.85
280.917	3.65
281.131	3.58
281.344	3.62
281.558	3.31
281.772	3.45
281.986	3.1
282.2	2.67
282.414	2.62
282.627	2.78
282.841	2.81
283.055	2.69
283.269	2.36
283.482	2.76
283.696	2.55
283.91	2.44
284.123	2.24
284.337	2.32
284.551	2.46
284.764	2.2
284.978	2.25
285.192	2.29
285.405	2.09
285.619	1.98
285.833	1.91
286.046	1.93
286.26	1.85
286.473	1.64
286.687	1.45
286.9	1.51
287.114	1.63
287.327	1.34
287.541	0.64
287.754	0.81
287.968	0.94
288.181	1.02
288.395	1.17
288.608	1.5
288.822	1.71
289.035	1.97
289.248	2.16
289.462	2.23
289.675	2.18
289.889	2.48
290.102	2.44
290.315	2.4
290.529	1.95
290.742	1.94
290.955	1.76
291.169	1.93
291.382	1.82
291.595	1.71
291.808	1.74
292.022	2.32
292.235	2.54
292.448	2.65
292.661	2.61
292.875	2.99
293.088	3.36
293.301	3.37
293.514	3.46
293.727	3.87
293.94	3.59
294.153	3.86
294.367	3.38
294.58	3.51
294.793	3.46
295.006	3.46
295.219	3.45
295.432	3.37
295.645	3.51
295.858	3.57
296.071	3.26
296.284	3.83
296.497	3.39
296.71	3.32
296.923	3.36
297.136	3.45
297.349	3.78
297.562	3.93
297.775	3.79
297.988	3.65
298.201	3.46
298.414	3.73
298.626	3.22
298.839	3.53
299.052	3.81
299.265	3.5
299.478	3.16
299.691	3.2
299.903	3.11
300.116	3.4
300.329	3.6
300.542	3.75
300.755	3.58
300.967	3.77
301.18	3.62
301.393	3.56
301.605	3.64
301.818	4.23
302.031	4.07
302.243	3.68
302.456	3.49
302.669	3.37
302.881	3.34
303.094	3.67
303.307	3.7
303.519	3.75
303.732	3.81
303.944	4.17
304.157	4.03
304.37	4.13
304.582	4.32
304.795	4.26
305.007	4.28
305.22	4.37
305.432	4.29
305.645	4.56
305.857	4.54
306.069	4.76
306.282	4.49
306.494	4.6
306.707	4.62
306.919	4.95
307.132	5.14
307.344	5.51
307.556	5.36
307.769	5.14
307.981	5.19
308.193	5.33
308.406	5.27
308.618	5.58
308.83	5.42
309.043	5.14
309.255	4.89
309.467	5.08
309.679	4.77
309.892	4.68
310.104	4.75
310.316	4.71
310.528	4.73
310.74	4.7
310.953	4.64
311.165	4.64
311.377	4.8
311.589	5
311.801	5.06
312.013	4.98
312.225	5.25
312.437	5.37
312.649	5.28
312.862	5.29
313.074	5.09
313.286	4.96
313.498	5.28
313.71	5.3
313.922	5.51
314.134	4.88
314.346	4.87
314.558	4.83
314.77	5.01
314.982	4.96
315.193	5.03
315.405	5.18
315.617	5.15
315.829	4.73
316.041	4.56
316.253	4.67
316.465	4.93
316.677	5.61
316.888	5.74
317.1	5.81
317.312	6.06
317.524	6.25
317.736	6.84
317.947	7.42
318.159	7.72
318.371	8.15
318.583	8.08
318.794	8.17
319.006	7.95
319.218	8.05
319.43	7.58
319.641	7.48
319.853	7.33
320.064	6.61
320.276	6.19
320.488	6.19
320.699	5.86
320.911	5.82
321.123	6.33
321.334	6.33
321.546	6.6
321.757	7.01
321.969	7.39
322.18	7.82
322.392	8.32
322.603	8.88
322.815	9.07
323.026	9.59
323.238	9.68
323.449	9.59
323.661	10.14
323.872	9.71
324.083	9.8
324.295	9.87
324.506	10.02
324.718	10.17
324.929	9.76
325.14	9.89
325.352	9.76
325.563	9.96
325.774	10.14
325.986	10.07
326.197	10.64
326.408	11.02
326.62	11.44
326.831	11.56
327.042	12.05
327.253	12.3
327.464	13.05
327.676	13.6
327.887	14.08
328.098	14.3
328.309	14.42
328.52	14.88
328.732	15.6
328.943	15.81
329.154	16.24
329.365	16.51
329.576	17.09
329.787	16.85
329.998	17.54
330.209	17.78
330.42	18.24
330.631	19.18
330.842	19.45
331.053	19.3
331.264	19.39
331.475	20.08
331.686	20.22
331.897	20.76
332.108	21.32
332.319	21.41
332.53	21.48
332.741	21.56
332.952	21.5
333.163	21.61
333.374	21.79
333.585	22.41
333.795	22.39
334.006	22.6
334.217	22.56
334.428	22.6
334.639	22.52
334.849	22.67
335.06	23.26
335.271	23.43
335.482	23.55
335.692	23.88
335.903	23.83
336.114	23.89
336.325	24.29
336.535	24.85
336.746	24.91
336.957	25.04
337.167	25.19
337.378	25.37
337.589	25.39
337.799	25.29
338.01	25.24
338.22	25.32
338.431	25.47
338.642	24.99
338.852	24.95
339.063	25.07
339.273	25.3
339.484	25.31
339.694	25.3
339.905	25.22
340.115	25.35
340.326	25.1
340.536	25.09
340.746	24.58
340.957	24.7
341.167	24.59
341.378	24.91
341.588	24.61
341.799	24.85
342.009	24.8
342.219	25.2
342.43	24.98
342.64	24.95
342.85	24.79
343.061	24.85
343.271	25.17
343.481	25.03
343.691	24.35
343.902	24.68
344.112	24.66
344.322	24.52
344.532	23.95
344.743	24.13
344.953	24.55
345.163	24.76
345.373	24.83
345.583	24.72
345.793	24.87
346.004	25.46
346.214	25.17
346.424	25.1
346.634	25.07
346.844	25.21
347.054	25.31
347.264	24.86
347.474	24.41
347.684	24.2
347.894	24.04
348.104	23.89
348.314	23.52
348.524	23.6
348.734	23.67
348.944	23.6
349.154	23.78
349.364	23.68
349.574	23.72
349.784	24.09
349.994	24.21
350.204	24.11
350.413	24.13
350.623	24.1
350.833	23.93
351.043	23.72
351.253	23.79
351.463	23.92
351.672	23.74
351.882	23.55
352.092	23.34
352.302	23.4
352.511	23.34
352.721	23.45
352.931	23.45
353.141	23.35
353.35	23.09
353.56	23.13
353.77	22.78
353.979	23.04
354.189	23.62
354.399	23.87
354.608	23.76
354.818	23.98
355.027	23.86
355.237	23.98
355.447	24.12
355.656	24.21
355.866	23.85
356.075	23.79
356.285	23.71
356.494	23.26
356.704	23.05
356.913	23.07
357.123	22.77
357.332	22.86
357.542	22.74
357.751	22.61
357.96	22.75
358.17	22.9
358.379	23.01
358.589	23.02
358.798	23.09
359.007	23.06
359.217	23.05
359.426	23.19
359.635	22.83
359.845	22.56
360.054	22.64
360.263	22.6
360.472	22.4
360.682	22.35
360.891	22.18
361.1	22.17
361.309	22.14
361.519	22.1
361.728	22.09
361.937	22.25
362.146	22.36
362.355	22.23
362.564	22.11
362.774	22.14
362.983	21.94
363.192	21.99
363.401	21.91
363.61	21.98
363.819	22.2
364.028	22.29
364.237	22.23
364.446	22.2
364.655	22.13
364.864	22.24
365.073	22.37
365.282	22.46
365.491	22.34
365.7	22.51
365.909	22.28
366.118	22.24
366.327	22.11
366.536	21.89
366.745	21.8
366.954	21.97
367.162	22.01
367.371	22
367.58	22.24
367.789	22.12
367.998	21.87
368.207	21.98
368.415	21.85
368.624	21.93
368.833	22.14
369.042	22.44
369.25	22.45
369.459	22.22
369.668	22.12
369.877	22.24
370.085	22.23
370.294	22.49
370.503	22.19
370.711	22.15
370.92	21.86
371.129	22.15
371.337	21.97
371.546	22.05
371.754	21.95
371.963	21.76
372.171	21.43
372.38	21.45
372.589	21.43
372.797	21.66
373.006	21.33
373.214	21.53
373.423	21.24
373.631	21.32
373.84	21.19
374.048	21.39
374.256	21.68
374.465	21.49
374.673	21.93
374.882	21.86
375.09	21.71
375.298	22.04
375.507	21.95
375.715	21.87
375.923	21.72
376.132	21.54
376.34	21.56
376.548	21.51
376.757	21.81
376.965	21.44
377.173	21.39
377.381	21.41
377.59	21.3
377.798	21.43
378.006	21.32
378.214	21.39
378.423	21.33
378.631	21.25
378.839	21.08
379.047	20.93
379.255	21.05
379.463	21.06
379.671	20.95
379.879	20.88
380.088	20.66
380.296	20.63
380.504	20.55
380.712	20.89
380.92	20.86
381.128	20.96
381.336	20.91
381.544	20.74
381.752	20.62
381.96	20.44
382.168	20.53
382.376	20.81
382.584	21.03
382.791	20.92
382.999	20.96
383.207	20.78
383.415	20.97
383.623	20.8
383.831	20.94
384.039	21.02
384.247	21.22
384.454	21.15
384.662	20.77
384.87	20.54
385.078	20.67
385.285	20.4
385.493	20.46
385.701	20.25
385.909	20.43
386.116	20.45
386.324	20.26
386.532	20.36
386.739	20.51
386.947	20.66
387.155	20.62
387.362	20.61
387.57	20.57
387.778	20.67
387.985	20.79
388.193	20.91
388.4	20.8
388.608	21.13
388.816	21.24
389.023	21.02
389.231	20.96
389.438	21.17
389.646	21.07
389.853	21.19
390.061	21.16
390.268	21.12
390.475	21.05
390.683	20.95
390.89	20.61
391.098	20.45
391.305	20.41
391.512	20.43
391.72	20.39
391.927	20.47
392.135	20.32
392.342	20.32
392.549	20.18
392.756	20.15
392.964	20.29
393.171	20.42
393.378	20.56
393.586	20.71
393.793	20.6
394	20.67
394.207	20.6
394.414	20.76
394.622	20.82
394.829	20.87
395.036	20.67
395.243	20.67
395.45	20.68
395.657	20.63
395.864	20.64
396.072	20.88
396.279	20.68
396.486	20.81
396.693	20.69
396.9	20.68
397.107	20.62
397.314	20.81
397.521	20.99
397.728	21
397.935	20.94
398.142	20.87
398.349	20.88
398.556	21.16
398.763	20.93
398.97	20.94
399.177	20.97
399.383	21.13
399.59	21.11
399.797	20.96
400.004	21.06
400.211	21.05
400.418	20.97
400.625	20.85
400.831	20.61
401.038	20.84
401.245	20.79
401.452	20.62
401.658	20.35
401.865	20.34
402.072	20.36
402.279	20.28
402.485	20.35
402.692	20.43
402.899	20.4
403.105	20.46
403.312	20.53
403.519	20.62
403.725	20.65
403.932	20.88
404.138	21.03
404.345	20.91
404.552	20.86
404.758	20.98
404.965	20.93
405.171	20.96
405.378	20.98
405.584	20.91
405.791	20.89
405.997	20.92
406.204	20.82
406.41	20.72
406.617	20.78
406.823	20.74
407.029	20.58
407.236	20.63
407.442	20.87
407.649	21
407.855	20.9
408.061	20.97
408.268	20.95
408.474	20.94
408.68	20.82
408.887	20.9
409.093	20.94
409.299	20.95
409.505	20.93
409.712	20.87
409.918	20.96
410.124	20.96
410.33	21.14
410.537	21.13
410.743	21.16
410.949	21.19
411.155	21.16
411.361	21.23
411.567	21.32
411.773	21.35
411.98	21.15
412.186	20.87
412.392	20.78
412.598	20.57
412.804	20.53
413.01	20.53
413.216	20.4
413.422	20.33
413.628	20.24
413.834	20.17
414.04	20.31
414.246	20.62
414.452	20.82
414.658	20.86
414.864	20.75
415.07	21
415.275	21.08
415.481	21.32
415.687	21.25
415.893	21.24
416.099	21.17
416.305	21.03
416.511	20.91
416.716	20.87
416.922	20.88
417.128	20.99
417.334	20.84
417.539	20.73
417.745	20.59
417.951	20.64
418.157	20.67
418.362	20.72
418.568	20.8
418.774	20.7
418.979	20.62
419.185	20.58
419.391	20.53
419.596	20.55
419.802	20.64
420.008	20.67
420.213	20.71
420.419	20.71
420.624	20.72
420.83	20.66
421.035	20.7
421.241	20.69
421.446	20.74
421.652	20.7
421.857	20.76
422.063	20.71
422.268	20.75
422.474	20.59
422.679	20.58
422.885	20.57
423.09	20.56
423.295	20.48
423.501	20.45
423.706	20.47
423.911	20.47
424.117	20.28
424.322	20.34
424.527	20.33
424.733	20.42
424.938	20.42
425.143	20.36
425.349	20.4
425.554	20.48
425.759	20.56
425.964	20.6
426.169	20.59
426.375	20.71
426.58	20.64
426.785	20.67
426.99	20.75
427.195	20.71
427.4	20.74
427.605	20.54
427.811	20.48
428.016	20.45
428.221	20.38
428.426	20.51
428.631	20.55
428.836	20.54
429.041	20.39
429.246	20.3
429.451	20.38
429.656	20.36
429.861	20.57
430.066	20.62
430.271	20.53
430.476	20.54
430.681	20.46
430.886	20.38
431.09	20.44
431.295	20.53
431.5	20.48
431.705	20.41
431.91	20.44
432.115	20.45
432.32	20.34
432.524	20.44
432.729	20.52
432.934	20.5
433.139	20.71
433.343	20.82
433.548	20.79
433.753	20.88
433.958	21.01
434.162	21.12
434.367	21.14
434.572	21.31
434.776	21.48
434.981	21.48
435.186	21.65
435.39	21.58
435.595	21.53
435.799	21.53
436.004	21.53
436.209	21.5
436.413	21.43
436.618	21.4
436.822	21.38
437.027	21.17
437.231	21.18
437.436	21.01
437.64	20.94
437.845	20.88
438.049	20.99
438.253	20.93
438.458	20.81
438.662	20.81
438.867	20.89
439.071	20.71
439.275	20.72
439.48	20.63
439.684	20.63
439.888	20.66
440.093	20.58
440.297	20.57
440.501	20.59
440.706	20.62
440.91	20.58
441.114	20.5
441.318	20.59
441.523	20.58
441.727	20.67
441.931	20.72
442.135	20.75
442.339	20.85
442.543	20.73
442.748	20.71
442.952	20.76
443.156	20.9
443.36	20.89
443.564	21
443.768	20.93
443.972	20.88
444.176	20.93
444.38	20.93
444.584	20.93
444.788	21.06
444.992	21.19
445.196	21.11
445.4	21.06
445.604	21.02
445.808	20.97
446.012	21.05
446.216	20.98
446.42	21
446.624	20.97
446.828	20.92
447.032	20.89
447.235	20.81
447.439	20.84
447.643	20.85
447.847	20.89
448.051	20.88
448.254	20.86
448.458	20.88
448.662	20.87
448.866	20.84
449.069	20.82
449.273	20.84
449.477	20.9
449.681	20.94
449.884	20.94
450.088	20.98
450.292	20.95
450.495	20.92
450.699	20.97
450.902	20.91
451.106	20.97
451.31	21.13
451.513	21.14
451.717	21.05
451.92	20.98
452.124	20.92
452.327	20.96
452.531	21.01
452.734	20.97
452.938	20.99
453.141	20.99
453.345	21.03
453.548	21.05
453.752	21.1
453.955	21.21
454.158	21.26
454.362	21.34
454.565	21.32
454.769	21.33
454.972	21.49
455.175	21.57
455.379	21.64
455.582	21.65
455.785	21.54
455.988	21.45
456.192	21.33
456.395	21.27
456.598	21.22
456.801	21.26
457.005	21.21
457.208	21.1
457.411	21.11
457.614	20.99
457.817	21.14
458.021	21.2
458.224	21.29
458.427	21.35
458.63	21.48
458.833	21.52
459.036	21.39
459.239	21.46
459.442	21.55
459.645	21.52
459.848	21.51
460.051	21.38
460.254	21.32
460.457	21.24
460.66	21.24
460.863	21.14
461.066	21.17
461.269	21.24
461.472	21.26
461.675	21.21
