Data from 2938760__Reflection_02.txt Node
Date: Fri Mar 13 17:47:46 EDT 2015
User: robert
Spectrometer: USB4E03002
Autoset integration time: false
Trigger mode: 4
Integration Time (sec): 1.000000E-1
Scans to average: 10
Electric dark correction enabled: false
Nonlinearity correction enabled: false
Boxcar width: 5
Stray light correction enabled: false
XAxis mode: Wavelengths
Stop averaging: false
Number of Pixels in Spectrum: 3648
>>>>>Begin Spectral Data<<<<<
177.575	-1643.75
177.794	-7246.15
178.014	-1185.9
178.233	-636.36
178.452	-504.13
178.672	-411.87
178.891	-224.16
179.11	-153.85
179.33	-205.74
179.549	-430.67
179.768	-372.79
179.987	-412.6
180.207	-300
180.426	-336.66
180.645	-1234.44
180.864	-5038.1
181.084	1237.08
181.303	1322.99
181.522	470.35
181.741	650
181.96	837.23
182.179	383.63
182.398	305.79
182.618	264.96
182.837	207.11
183.056	248.47
183.275	256.17
183.494	216.18
183.713	175.82
183.932	149.04
184.151	142.96
184.37	124.03
184.589	94.94
184.808	113.01
185.027	116.35
185.246	92.22
185.465	78.4
185.684	101.8
185.903	133.94
186.122	169.34
186.341	327.06
186.56	1606.38
186.779	759.46
186.998	-324.21
187.216	-1209.09
187.435	616.67
187.654	-5566.67
187.873	-552.67
188.092	15250
188.311	857.84
188.53	277.67
188.748	249.67
188.967	224.29
189.186	231.74
189.405	213.65
189.623	226.02
189.842	334.87
190.061	526.8
190.28	352.04
190.498	398.41
190.717	288.02
190.936	472.43
191.154	377.29
191.373	326.55
191.592	257.2
191.81	263.03
192.029	378
192.248	528.21
192.466	191.27
192.685	176.73
192.904	213.86
193.122	247.72
193.341	280.84
193.559	612.37
193.778	1034.29
193.996	3014.81
194.215	-1785.37
194.433	2610.34
194.652	-1012.68
194.87	-371.74
195.089	-3831.58
195.307	1523.21
195.526	-4194.12
195.744	831.68
195.963	411.48
196.181	251.89
196.399	273.7
196.618	283.19
196.836	296.72
197.055	253.2
197.273	243.65
197.491	287.07
197.71	195.13
197.928	176.95
198.146	182.74
198.365	160.73
198.583	168.23
198.801	134.23
199.019	129.85
199.238	131.22
199.456	122.46
199.674	120.86
199.892	117.55
200.111	145.32
200.329	154.17
200.547	179.74
200.765	256.76
200.983	307.32
201.202	297.41
201.42	294.18
201.638	244.03
201.856	347.8
202.074	244.6
202.292	284.81
202.51	227.31
202.728	231.52
202.946	199.48
203.165	193.57
203.383	207.47
203.601	241.42
203.819	291.25
204.037	352.01
204.255	334.12
204.473	435.56
204.691	319.58
204.909	253.71
205.127	248.79
205.345	262.33
205.562	282.18
205.78	239.81
205.998	262.47
206.216	356.4
206.434	229.26
206.652	207.69
206.87	348.67
207.088	300
207.306	1217.46
207.523	676.52
207.741	592.42
207.959	494.76
208.177	666.12
208.395	280.29
208.612	157.84
208.83	206.26
209.048	255.02
209.266	217.4
209.483	253.3
209.701	228.91
209.919	249.83
210.136	229.01
210.354	236.45
210.572	208.08
210.79	185.14
211.007	204.32
211.225	186.91
211.442	205.07
211.66	187.25
211.878	146.6
212.095	172.25
212.313	143.23
212.53	145.77
212.748	123.95
212.966	144.72
213.183	176.32
213.401	207.07
213.618	169.7
213.836	117.76
214.053	108.91
214.271	138.68
214.488	94.08
214.705	138.81
214.923	145.04
215.14	185.96
215.358	168.51
215.575	137.2
215.793	113.79
216.01	113.21
216.227	138.88
216.445	139.81
216.662	109.52
216.879	115.62
217.097	99.07
217.314	108.6
217.531	91.21
217.749	80.36
217.966	77.73
218.183	75.02
218.4	84.99
218.618	79.13
218.835	84.3
219.052	94.22
219.269	91.86
219.487	97.94
219.704	78.77
219.921	86.02
220.138	101.75
220.355	81.75
220.572	70.99
220.79	68.97
221.007	80.11
221.224	71.58
221.441	69.03
221.658	58.13
221.875	56.06
222.092	59.4
222.309	65.13
222.526	62.78
222.743	69.39
222.96	73.91
223.177	70.92
223.394	59.77
223.611	51.47
223.828	49.66
224.045	48.54
224.262	46.22
224.479	45.83
224.696	36.22
224.913	30.16
225.13	28.7
225.347	23.94
225.564	19.38
225.781	17.99
225.997	16.27
226.214	15.6
226.431	16.2
226.648	12.1
226.865	10.16
227.082	10.28
227.298	9.37
227.515	8.93
227.732	8.22
227.949	7.43
228.165	6.49
228.382	6.55
228.599	5.8
228.816	5.86
229.032	6.33
229.249	5.87
229.466	6.19
229.682	6.73
229.899	6.65
230.116	5.84
230.332	5.94
230.549	5.93
230.765	5.71
230.982	6.46
231.199	6.8
231.415	6.51
231.632	7.03
231.848	5.66
232.065	5.68
232.281	5.66
232.498	6.7
232.714	6.75
232.931	7.13
233.147	9.41
233.364	8.84
233.58	7.83
233.797	9.09
234.013	9.92
234.23	9.4
234.446	7.93
234.662	9.26
234.879	9.37
235.095	10.46
235.312	11.19
235.528	8.82
235.744	7.97
235.961	8.25
236.177	8.66
236.393	8.25
236.61	8.62
236.826	9.56
237.042	8.55
237.258	8.46
237.475	9.3
237.691	9.31
237.907	8.46
238.123	8.81
238.339	9.24
238.556	8.05
238.772	7.55
238.988	7.19
239.204	7.31
239.42	6.75
239.636	7.1
239.853	5.02
240.069	4.69
240.285	5.79
240.501	4.86
240.717	4.95
240.933	4.48
241.149	3.91
241.365	3.95
241.581	3.19
241.797	3.05
242.013	2.66
242.229	2.42
242.445	1.96
242.661	1.89
242.877	2.44
243.093	1.96
243.309	1.86
243.525	2.17
243.741	2.94
243.957	3.32
244.173	3.02
244.388	3.62
244.604	4.35
244.82	5.52
245.036	5.83
245.252	5.55
245.468	5.5
245.683	5.65
245.899	5.42
246.115	5.03
246.331	4.75
246.547	4.89
246.762	4.44
246.978	4.57
247.194	3.96
247.409	3.76
247.625	3.71
247.841	3.98
248.057	3.69
248.272	3.49
248.488	3.07
248.703	2.98
248.919	2.85
249.135	2.79
249.35	2.34
249.566	2.77
249.782	2.06
249.997	2.16
250.213	1.99
250.428	2.66
250.644	4.17
250.859	4.32
251.075	4.67
251.29	5.33
251.506	5.3
251.721	5.27
251.937	4.94
252.152	4.69
252.368	3.96
252.583	3.82
252.798	4.09
253.014	3.21
253.229	3.57
253.445	3.46
253.66	3.89
253.875	4.16
254.091	4.57
254.306	5.47
254.521	7.11
254.737	8.28
254.952	7.48
255.167	6.87
255.383	6.97
255.598	7.07
255.813	7.82
256.028	7.41
256.244	7.3
256.459	6.34
256.674	5.79
256.889	5.82
257.104	5.56
257.32	6.05
257.535	5.33
257.75	4.65
257.965	4.32
258.18	3.42
258.395	2.9
258.61	2.3
258.826	2.43
259.041	2.27
259.256	2.1
259.471	2.11
259.686	2.18
259.901	2.27
260.116	2.41
260.331	2.29
260.546	2.17
260.761	2.23
260.976	2.46
261.191	2.62
261.406	3.06
261.621	3.32
261.836	3.57
262.05	3.52
262.265	3.68
262.48	3.7
262.695	4.34
262.91	5.71
263.125	5.84
263.34	6.5
263.555	6.14
263.769	5.66
263.984	5.36
264.199	4.1
264.414	3.79
264.629	3.68
264.843	3.92
265.058	3.92
265.273	3.33
265.488	3.32
265.702	3.22
265.917	3.68
266.132	4.2
266.346	4.12
266.561	4.78
266.776	5.45
266.99	5.59
267.205	5.1
267.42	4.48
267.634	4.46
267.849	4.38
268.063	4.27
268.278	4.38
268.492	3.79
268.707	3.71
268.922	3.81
269.136	3.51
269.351	3.53
269.565	3.85
269.78	4.09
269.994	3.99
270.209	4.06
270.423	4.03
270.637	3.79
270.852	3.82
271.066	3.44
271.281	3.61
271.495	3.45
271.709	3.11
271.924	2.77
272.138	2.78
272.353	2.38
272.567	2.21
272.781	2.11
272.996	1.87
273.21	2.31
273.424	2.49
273.638	2.29
273.853	2.2
274.067	2.62
274.281	3.13
274.495	3
274.71	3.27
274.924	3.1
275.138	3.11
275.352	3.05
275.566	2.33
275.781	2.66
275.995	2.01
276.209	2.41
276.423	2.42
276.637	1.83
276.851	1.84
277.065	1.7
277.279	1.72
277.493	1.58
277.707	1.96
277.921	1.92
278.135	1.73
278.349	1.95
278.563	2.36
278.777	2.37
278.991	2.9
279.205	3.03
279.419	2.97
279.633	3.57
279.847	3.64
280.061	3.48
280.275	3.68
280.489	3.55
280.703	4.15
280.917	3.39
281.131	2.97
281.344	2.65
281.558	2.39
281.772	2.45
281.986	2.09
282.2	2.11
282.414	1.98
282.627	2.35
282.841	2.36
283.055	2.22
283.269	2.1
283.482	1.95
283.696	2.17
283.91	2.45
284.123	2.21
284.337	2.17
284.551	1.91
284.764	2.15
284.978	1.79
285.192	1.81
285.405	1.86
285.619	1.98
285.833	2.26
286.046	2.17
286.26	1.96
286.473	2.15
286.687	2.21
286.9	2.49
287.114	2.44
287.327	2.36
287.541	2.11
287.754	1.96
287.968	2.03
288.181	1.79
288.395	1.47
288.608	1.83
288.822	1.86
289.035	1.81
289.248	1.61
289.462	1.62
289.675	1.61
289.889	2
290.102	1.49
290.315	1.38
290.529	1.53
290.742	1.98
290.955	1.61
291.169	1.77
291.382	1.48
291.595	1.4
291.808	1.08
292.022	0.89
292.235	0.7
292.448	1.47
292.661	1.42
292.875	1.35
293.088	1.35
293.301	1.58
293.514	1.44
293.727	1.66
293.94	1.78
294.153	2.08
294.367	2.24
294.58	2.29
294.793	1.99
295.006	2.18
295.219	2.18
295.432	1.9
295.645	1.78
295.858	1.96
296.071	1.79
296.284	1.91
296.497	1.9
296.71	1.97
296.923	2.19
297.136	2.46
297.349	2.63
297.562	2.69
297.775	2.57
297.988	2.68
298.201	2.57
298.414	2.86
298.626	2.92
298.839	2.95
299.052	2.87
299.265	2.65
299.478	2.3
299.691	2.18
299.903	2.31
300.116	2.46
300.329	2.6
300.542	2.57
300.755	2.36
300.967	2.26
301.18	2.29
301.393	2.63
301.605	2.48
301.818	2.44
302.031	2.22
302.243	2.18
302.456	2.29
302.669	2.07
302.881	2.15
303.094	2.39
303.307	2.27
303.519	2.19
303.732	2.25
303.944	2.56
304.157	2.74
304.37	2.88
304.582	2.62
304.795	2.87
305.007	3.14
305.22	3.39
305.432	3.32
305.645	3.87
305.857	4.3
306.069	3.93
306.282	3.63
306.494	3.63
306.707	3.73
306.919	3.89
307.132	3.61
307.344	3.28
307.556	2.98
307.769	3.19
307.981	2.84
308.193	2.54
308.406	2.5
308.618	2.86
308.83	2.71
309.043	2.59
309.255	2.5
309.467	2.47
309.679	2.35
309.892	2.6
310.104	2.27
310.316	2.28
310.528	2.22
310.74	2.13
310.953	2.06
311.165	2.17
311.377	2.04
311.589	2.23
311.801	2.28
312.013	2.55
312.225	2.57
312.437	2.86
312.649	3.01
312.862	3.02
313.074	3.14
313.286	3.2
313.498	3.07
313.71	3.09
313.922	3.25
314.134	3.28
314.346	3.36
314.558	3.1
314.77	3.41
314.982	3.06
315.193	3.27
315.405	3.22
315.617	3.24
315.829	3.56
316.041	3.9
316.253	3.52
316.465	3.6
316.677	3.62
316.888	3.89
317.1	3.86
317.312	4.18
317.524	4.26
317.736	4.4
317.947	4.49
318.159	4.86
318.371	5.06
318.583	5.38
318.794	5.42
319.006	5.75
319.218	5.6
319.43	5.51
319.641	5.83
319.853	6.02
320.064	6.57
320.276	6.94
320.488	6.27
320.699	6.38
320.911	6.68
321.123	6.45
321.334	6.38
321.546	6.64
321.757	7.34
321.969	7.5
322.18	7.54
322.392	7.19
322.603	6.73
322.815	7.54
323.026	7.2
323.238	6.89
323.449	7.72
323.661	7.68
323.872	7.86
324.083	7.63
324.295	7.8
324.506	7.99
324.718	8.14
324.929	8.63
325.14	8.5
325.352	8.96
325.563	9.53
325.774	9.94
325.986	10.26
326.197	10.56
326.408	10.51
326.62	10.5
326.831	10.52
327.042	11.12
327.253	11.26
327.464	11.48
327.676	11.78
327.887	11.84
328.098	12
328.309	12.44
328.52	12.37
328.732	12.84
328.943	13.21
329.154	13.59
329.365	14.17
329.576	14.82
329.787	15.36
329.998	15.75
330.209	16.36
330.42	16.88
330.631	17.19
330.842	17.51
331.053	18.16
331.264	18.62
331.475	19.13
331.686	19.42
331.897	19.72
332.108	20.08
332.319	20.54
332.53	20.77
332.741	20.98
332.952	21.37
333.163	21.59
333.374	21.67
333.585	22.12
333.795	22.57
334.006	22.61
334.217	23.01
334.428	23.08
334.639	23.07
334.849	23.12
335.06	23
335.271	22.92
335.482	23.73
335.692	23.96
335.903	24.15
336.114	24.39
336.325	24.65
336.535	24.51
336.746	24.71
336.957	24.81
337.167	25.17
337.378	25.41
337.589	25.52
337.799	25.36
338.01	25.23
338.22	25.06
338.431	24.75
338.642	24.91
338.852	24.93
339.063	24.99
339.273	25.31
339.484	25.33
339.694	25.44
339.905	25.85
340.115	25.87
340.326	26.08
340.536	26.2
340.746	26.31
340.957	26.12
341.167	26.38
341.378	26.61
341.588	26.48
341.799	26.44
342.009	26.26
342.219	25.89
342.43	25.92
342.64	26.1
342.85	25.94
343.061	26.16
343.271	26.17
343.481	25.78
343.691	25.79
343.902	25.65
344.112	25.76
344.322	25.89
344.532	25.98
344.743	25.88
344.953	25.59
345.163	25.38
345.373	25.28
345.583	25.49
345.793	25.7
346.004	25.56
346.214	25.68
346.424	25.69
346.634	25.73
346.844	25.6
347.054	25.68
347.264	25.8
347.474	26.15
347.684	26.07
347.894	25.76
348.104	25.87
348.314	25.87
348.524	25.36
348.734	25.13
348.944	25.03
349.154	25.08
349.364	24.88
349.574	24.94
349.784	24.94
349.994	24.51
350.204	24.5
350.413	24.36
350.623	24.29
350.833	24.83
351.043	25.14
351.253	24.95
351.463	24.78
351.672	24.86
351.882	24.74
352.092	24.77
352.302	25.34
352.511	25.41
352.721	25.52
352.931	25.42
353.141	25.23
353.35	24.85
353.56	24.98
353.77	25.06
353.979	25.15
354.189	25.38
354.399	25.33
354.608	25.21
354.818	25.04
355.027	25
355.237	24.8
355.447	24.68
355.656	24.79
355.866	24.63
356.075	24.59
356.285	24.45
356.494	24.21
356.704	23.99
356.913	23.56
357.123	23.51
357.332	23.2
357.542	23.24
357.751	23.57
357.96	23.5
358.17	23.54
358.379	23.69
358.589	23.68
358.798	23.64
359.007	23.75
359.217	23.98
359.426	23.84
359.635	23.92
359.845	24.14
360.054	23.73
360.263	23.62
360.472	23.51
360.682	23.44
360.891	23.16
361.1	23.26
361.309	23.23
361.519	23.26
361.728	23.15
361.937	23.18
362.146	23.02
362.355	23.1
362.564	23.04
362.774	22.97
362.983	22.9
363.192	23.12
363.401	22.99
363.61	22.86
363.819	22.91
364.028	22.89
364.237	22.86
364.446	22.89
364.655	22.84
364.864	22.8
365.073	22.89
365.282	23.04
365.491	23.11
365.7	23.03
365.909	23.31
366.118	23.11
366.327	23.32
366.536	23.33
366.745	23.29
366.954	23.33
367.162	23.69
367.371	23.55
367.58	23.48
367.789	23.36
367.998	23.42
368.207	23.22
368.415	23.13
368.624	23.19
368.833	23.01
369.042	23.03
369.25	23.39
369.459	23.2
369.668	23.13
369.877	23.03
370.085	23.04
370.294	22.93
370.503	22.92
370.711	22.99
370.92	22.9
371.129	23.13
371.337	23.19
371.546	22.75
371.754	22.55
371.963	22.69
372.171	22.72
372.38	22.62
372.589	22.72
372.797	22.78
373.006	22.82
373.214	22.86
373.423	23
373.631	22.91
373.84	23.05
374.048	23.28
374.256	23.22
374.465	23.06
374.673	23.09
374.882	23.06
375.09	22.95
375.298	22.72
375.507	22.84
375.715	22.66
375.923	22.61
376.132	22.61
376.34	22.39
376.548	22.34
376.757	22.42
376.965	22.43
377.173	22.3
377.381	22.28
377.59	22.44
377.798	22.53
378.006	22.35
378.214	22.4
378.423	22.25
378.631	22.38
378.839	22.53
379.047	22.5
379.255	22.63
379.463	22.74
379.671	22.75
379.879	22.7
380.088	22.52
380.296	22.65
380.504	22.63
380.712	22.84
380.92	22.8
381.128	22.78
381.336	22.54
381.544	22.41
381.752	22.36
381.96	22.31
382.168	22.42
382.376	22.3
382.584	22.31
382.791	22.25
382.999	22.03
383.207	22.2
383.415	22.19
383.623	22.39
383.831	22.15
384.039	22.24
384.247	22.28
384.454	22.43
384.662	22.48
384.87	22.38
385.078	22.29
385.285	22.16
385.493	22.02
385.701	21.91
385.909	21.73
386.116	21.97
386.324	21.81
386.532	21.79
386.739	21.63
386.947	21.57
387.155	21.35
387.362	21.56
387.57	21.7
387.778	21.68
387.985	21.83
388.193	22.09
388.4	21.91
388.608	21.99
388.816	21.93
389.023	22.06
389.231	22.14
389.438	22.3
389.646	22.1
389.853	22.03
390.061	22.02
390.268	21.89
390.475	21.86
390.683	22.15
390.89	21.96
391.098	22.08
391.305	21.89
391.512	21.88
391.72	21.96
391.927	21.96
392.135	21.84
392.342	21.8
392.549	21.84
392.756	21.7
392.964	21.49
393.171	21.61
393.378	21.36
393.586	21.32
393.793	21.21
394	21.2
394.207	21.24
394.414	21.37
394.622	21.41
394.829	21.4
395.036	21.45
395.243	21.43
395.45	21.46
395.657	21.65
395.864	21.8
396.072	21.88
396.279	21.82
396.486	21.83
396.693	21.93
396.9	21.99
397.107	22.23
397.314	22.48
397.521	22.46
397.728	22.65
397.935	22.65
398.142	22.69
398.349	22.72
398.556	22.54
398.763	22.78
398.97	22.81
399.177	23.08
399.383	22.85
399.59	22.79
399.797	22.88
400.004	22.73
400.211	22.75
400.418	22.77
400.625	22.83
400.831	23.16
401.038	22.84
401.245	22.81
401.452	22.47
401.658	22.48
401.865	22.47
402.072	22.63
402.279	22.79
402.485	22.76
402.692	22.72
402.899	22.7
403.105	22.7
403.312	22.91
403.519	22.93
403.725	23.04
403.932	23.15
404.138	23.15
404.345	23.04
404.552	22.94
404.758	23.06
404.965	22.96
405.171	22.93
405.378	22.85
405.584	22.94
405.791	23
405.997	22.96
406.204	22.88
406.41	22.71
406.617	22.78
406.823	22.71
407.029	22.77
407.236	22.87
407.442	22.98
407.649	23.08
407.855	22.98
408.061	22.85
408.268	23
408.474	23.04
408.68	23.29
408.887	23.4
409.093	23.57
409.299	23.57
409.505	23.6
409.712	23.56
409.918	23.49
410.124	23.43
410.33	23.39
410.537	23.11
410.743	23.35
410.949	23.24
411.155	22.98
411.361	22.97
411.567	22.8
411.773	22.89
411.98	22.76
412.186	22.85
412.392	23.03
412.598	23.12
412.804	23.49
413.01	23.36
413.216	23.45
413.422	23.62
413.628	23.68
413.834	23.86
414.04	23.73
414.246	23.9
414.452	23.93
414.658	23.59
414.864	23.54
415.07	23.43
415.275	23.41
415.481	23.28
415.687	23.23
415.893	23.11
416.099	22.97
416.305	22.85
416.511	22.91
416.716	22.75
416.922	22.76
417.128	22.87
417.334	22.74
417.539	22.71
417.745	22.78
417.951	22.63
418.157	22.52
418.362	22.49
418.568	22.53
418.774	22.44
418.979	22.41
419.185	22.43
419.391	22.29
419.596	22.29
419.802	22.23
420.008	22.19
420.213	22.17
420.419	22.2
420.624	22.14
420.83	22.06
421.035	22.04
421.241	22.02
421.446	21.99
421.652	22.02
421.857	21.99
422.063	22
422.268	21.98
422.474	22.08
422.679	22.09
422.885	22
423.09	22.08
423.295	22.04
423.501	22.04
423.706	22.12
423.911	22.05
424.117	22.05
424.322	22
424.527	22
424.733	21.91
424.938	21.9
425.143	22.03
425.349	22.09
425.554	22.2
425.759	22.27
425.964	22.27
426.169	22.42
426.375	22.47
426.58	22.53
426.785	22.57
426.99	22.71
427.195	22.8
427.4	22.89
427.605	22.79
427.811	22.77
428.016	22.92
428.221	22.88
428.426	22.89
428.631	22.91
428.836	22.92
429.041	22.96
429.246	23.05
429.451	22.96
429.656	22.96
429.861	23.05
430.066	23.06
430.271	22.9
430.476	22.84
430.681	22.88
430.886	22.89
431.09	22.96
431.295	23.02
431.5	22.98
431.705	23.11
431.91	23.16
432.115	23.11
432.32	23.11
432.524	23.16
432.729	23.24
432.934	23.27
433.139	23.43
433.343	23.41
433.548	23.37
433.753	23.39
433.958	23.55
434.162	23.68
434.367	23.89
434.572	24.01
434.776	24.12
434.981	24.26
435.186	24.28
435.39	24.31
435.595	24.47
435.799	24.48
436.004	24.51
436.209	24.35
436.413	24.21
436.618	24.17
436.822	24.06
437.027	24.17
437.231	24.1
437.436	24.09
437.64	23.95
437.845	23.73
438.049	23.78
438.253	23.78
438.458	23.64
438.662	23.54
438.867	23.42
439.071	23.42
439.275	23.32
439.48	23.33
439.684	23.37
439.888	23.33
440.093	23.43
440.297	23.42
440.501	23.47
440.706	23.5
440.91	23.63
441.114	23.71
441.318	23.71
441.523	23.66
441.727	23.7
441.931	23.65
442.135	23.8
442.339	23.78
442.543	23.78
442.748	23.74
442.952	23.86
443.156	23.84
443.36	23.83
443.564	23.88
443.768	23.97
443.972	23.98
444.176	24.05
444.38	23.93
444.584	23.92
444.788	23.86
444.992	23.84
445.196	23.82
445.4	23.74
445.604	23.64
445.808	23.66
446.012	23.58
446.216	23.52
446.42	23.42
446.624	23.48
446.828	23.48
447.032	23.57
447.235	23.54
447.439	23.53
447.643	23.63
447.847	23.72
448.051	23.76
448.254	23.86
448.458	23.92
448.662	24.01
448.866	24.06
449.069	24.19
449.273	24.21
449.477	24.33
449.681	24.4
449.884	24.44
450.088	24.45
450.292	24.4
450.495	24.27
450.699	24.3
450.902	24.3
451.106	24.3
451.31	24.21
451.513	24.26
451.717	24.29
451.92	24.32
452.124	24.21
452.327	24.22
452.531	24.27
452.734	24.38
452.938	24.36
453.141	24.44
453.345	24.4
453.548	24.41
453.752	24.38
453.955	24.41
454.158	24.42
454.362	24.5
454.565	24.49
454.769	24.48
454.972	24.52
455.175	24.62
455.379	24.58
455.582	24.58
455.785	24.6
455.988	24.64
456.192	24.54
456.395	24.42
456.598	24.35
456.801	24.38
457.005	24.41
457.208	24.37
457.411	24.26
457.614	24.17
457.817	24.16
458.021	24.11
458.224	23.93
458.427	23.87
458.63	23.88
458.833	23.92
459.036	23.87
459.239	23.88
459.442	23.79
459.645	23.83
459.848	23.83
460.051	23.75
460.254	23.71
