Data from 2938844__Reflection_03.txt Node
Date: Wed Mar 11 14:28:33 EDT 2015
User: robert
Spectrometer: USB4E03002
Autoset integration time: false
Trigger mode: 4
Integration Time (sec): 1.000000E-1
Scans to average: 10
Electric dark correction enabled: false
Nonlinearity correction enabled: false
Boxcar width: 5
Stray light correction enabled: false
XAxis mode: Wavelengths
Stop averaging: false
Number of Pixels in Spectrum: 3648
>>>>>Begin Spectral Data<<<<<
177.575	78.05
177.794	115.51
178.014	193.41
178.233	198.73
178.452	205
178.672	162.65
178.891	125.5
179.11	127.72
179.33	129.39
179.549	88.33
179.768	59.94
179.987	52.31
180.207	67.98
180.426	71.15
180.645	99.74
180.864	86.52
181.084	59.87
181.303	49.72
181.522	21.63
181.741	43.43
181.96	50.49
182.179	44.55
182.398	75.5
182.618	64.67
182.837	37.84
183.056	30.85
183.275	-35.19
183.494	-22.49
183.713	8.85
183.932	-18.18
184.151	-18.33
184.37	-2.4
184.589	19.78
184.808	-12.14
185.027	-20.69
185.246	20.93
185.465	-22.35
185.684	42.56
185.903	7.61
186.122	-4.49
186.341	41.56
186.56	21.45
186.779	30.16
186.998	-49.3
187.216	10
187.435	1.42
187.654	14.73
187.873	20.19
188.092	10.91
188.311	25.55
188.53	9.84
188.748	-23.31
188.967	5.96
189.186	-12.18
189.405	16.79
189.623	14.5
189.842	-27.31
190.061	-360.98
190.28	-470.21
190.498	891.78
190.717	-1750
190.936	-517.07
191.154	6820
191.373	-241.3
191.592	-130.48
191.81	-200.98
192.029	623.91
192.248	-26.28
192.466	172.02
192.685	130.97
192.904	128.49
193.122	99.12
193.341	116.95
193.559	116.29
193.778	127.95
193.996	153.5
194.215	107.58
194.433	97.57
194.652	69.67
194.87	47.27
195.089	47.07
195.307	50.93
195.526	49.35
195.744	30.82
195.963	8.53
196.181	-15.79
196.399	-26.28
196.618	-61.26
196.836	-119.05
197.055	-20.47
197.273	-38.92
197.491	-87.08
197.71	-148
197.928	-94.43
198.146	-97.84
198.365	-87.77
198.583	-91.08
198.801	-56.54
199.019	-52.44
199.238	-9.49
199.456	-26.82
199.674	3.54
199.892	15.48
200.111	16.47
200.329	25.86
200.547	53.91
200.765	36.15
200.983	26.07
201.202	29.62
201.42	36.66
201.638	21.21
201.856	18.52
202.074	-14.03
202.292	-22.02
202.51	-28.57
202.728	-47.15
202.946	-53.58
203.165	-29.98
203.383	-18.79
203.601	-17.73
203.819	-21.66
204.037	-17.78
204.255	-15.15
204.473	0.68
204.691	2.92
204.909	4.97
205.127	-0.62
205.345	-3.33
205.562	-6.47
205.78	-20.46
205.998	-46.09
206.216	-32.78
206.434	-26.91
206.652	-23.09
206.87	-22.52
207.088	-31.2
207.306	-39.33
207.523	-25.25
207.741	-36.85
207.959	-42.3
208.177	-41.98
208.395	-16.15
208.612	-29.94
208.83	-44.42
209.048	-54.72
209.266	-79.43
209.483	-53.16
209.701	-59.35
209.919	-62.06
210.136	-77.4
210.354	-72.95
210.572	-13.91
210.79	-8.99
211.007	-1.82
211.225	-7.17
211.442	-4.01
211.66	6.62
211.878	22.12
212.095	27.73
212.313	10.74
212.53	20.03
212.748	38.19
212.966	23.64
213.183	12.38
213.401	18.72
213.618	20.87
213.836	16.34
214.053	2.63
214.271	-7.14
214.488	-14.52
214.705	4.22
214.923	8.56
215.14	-0.89
215.358	10.84
215.575	11.55
215.793	8.54
216.01	15.43
216.227	20.31
216.445	15.59
216.662	21.15
216.879	26.57
217.097	20.3
217.314	13.54
217.531	13.31
217.749	0.96
217.966	-1.29
218.183	0.47
218.4	3.56
218.618	4.45
218.835	14.9
219.052	14.2
219.269	16.39
219.487	15.38
219.704	13
219.921	10.08
220.138	5.72
220.355	1.57
220.572	2.58
220.79	-4.86
221.007	-12.39
221.224	-21.94
221.441	-21.72
221.658	-18.04
221.875	-13.27
222.092	-7.77
222.309	-6.86
222.526	-10.36
222.743	-0.23
222.96	4.67
223.177	1.79
223.394	4.72
223.611	8.18
223.828	4.43
224.045	0.52
224.262	-1.11
224.479	-2.06
224.696	-4.31
224.913	1.19
225.13	1.56
225.347	-3.41
225.564	1.19
225.781	-0.87
225.997	1.42
226.214	1.02
226.431	2.98
226.648	5.68
226.865	7.64
227.082	8.74
227.298	7.59
227.515	6.38
227.732	7.13
227.949	6.04
228.165	6.62
228.382	6.17
228.599	6.61
228.816	6.52
229.032	5.11
229.249	4.54
229.466	4.49
229.682	4.51
229.899	4.66
230.116	3.76
230.332	4.17
230.549	4.38
230.765	4.06
230.982	4.4
231.199	3.35
231.415	3.76
231.632	3.69
231.848	2.58
232.065	2.08
232.281	1.89
232.498	3.12
232.714	2.52
232.931	1.18
233.147	2.62
233.364	3.7
233.58	6.25
233.797	6.54
234.013	6.15
234.23	6.32
234.446	6.77
234.662	7.07
234.879	6.34
235.095	7.28
235.312	8.42
235.528	6.51
235.744	5.73
235.961	5.44
236.177	6.24
236.393	7.38
236.61	7.65
236.826	7.62
237.042	7.36
237.258	7.32
237.475	6.8
237.691	6.91
237.907	7.25
238.123	7.01
238.339	6.26
238.556	5.75
238.772	6.61
238.988	7.73
239.204	8.03
239.42	7.62
239.636	7.25
239.853	6.56
240.069	5.81
240.285	5.63
240.501	5.21
240.717	5.04
240.933	4.94
241.149	4.94
241.365	4.78
241.581	4.77
241.797	4.86
242.013	5.43
242.229	5.87
242.445	6.08
242.661	6.28
242.877	6.26
243.093	6.35
243.309	6.34
243.525	5.84
243.741	5.15
243.957	5.01
244.173	4.73
244.388	4.59
244.604	3.64
244.82	4.06
245.036	4.4
245.252	4.69
245.468	4.45
245.683	4.52
245.899	4.53
246.115	4.84
246.331	5.03
246.547	5.19
246.762	5.37
246.978	5.55
247.194	5.12
247.409	5.14
247.625	5.2
247.841	5.21
248.057	5.38
248.272	5.45
248.488	5.41
248.703	5.52
248.919	5.61
249.135	5.1
249.35	5.28
249.566	5.69
249.782	5.67
249.997	5.7
250.213	6.31
250.428	6.4
250.644	6.56
250.859	7.2
251.075	6.31
251.29	6.1
251.506	6.17
251.721	6.08
251.937	5.35
252.152	5.9
252.368	5.73
252.583	5.37
252.798	5.24
253.014	4.31
253.229	4.42
253.445	5.49
253.66	6.12
253.875	6.36
254.091	6.64
254.306	7.15
254.521	6.37
254.737	6.29
254.952	6.79
255.167	6.53
255.383	7.57
255.598	6.56
255.813	6.07
256.028	5.23
256.244	5.49
256.459	5.32
256.674	5.1
256.889	5.11
257.104	5.74
257.32	5.31
257.535	5.41
257.75	5.72
257.965	6.08
258.18	5.76
258.395	5.44
258.61	4.98
258.826	4.64
259.041	4.68
259.256	4.56
259.471	4.4
259.686	4.41
259.901	4.32
260.116	4.03
260.331	3.92
260.546	3.92
260.761	4.19
260.976	4.17
261.191	4.37
261.406	4.42
261.621	4.28
261.836	4.05
262.05	3.78
262.265	3.78
262.48	3.89
262.695	3.43
262.91	3.39
263.125	2.83
263.34	2.92
263.555	2.64
263.769	3.11
263.984	3.25
264.199	3.5
264.414	4.09
264.629	4.15
264.843	4.18
265.058	4.97
265.273	4.66
265.488	4.62
265.702	4.2
265.917	4.23
266.132	3.1
266.346	3.47
266.561	3.61
266.776	3.2
266.99	3.25
267.205	3.21
267.42	2.82
267.634	2.84
267.849	2.72
268.063	2.79
268.278	3.04
268.492	3.54
268.707	3.18
268.922	2.68
269.136	2.93
269.351	2.68
269.565	3.16
269.78	3.24
269.994	3.29
270.209	3.94
270.423	4.39
270.637	3.75
270.852	3.61
271.066	3.96
271.281	4.1
271.495	3.95
271.709	4.35
271.924	4.11
272.138	4.12
272.353	4.22
272.567	3.93
272.781	3.71
272.996	4.13
273.21	4.57
273.424	4.19
273.638	4.35
273.853	4.41
274.067	3.83
274.281	3.39
274.495	3.43
274.71	3.6
274.924	3.41
275.138	3.34
275.352	3.39
275.566	3.06
275.781	3.23
275.995	3.1
276.209	3.18
276.423	3.49
276.637	3.58
276.851	3.79
277.065	3.64
277.279	3.82
277.493	4.01
277.707	3.78
277.921	3.56
278.135	3.73
278.349	3.62
278.563	3.34
278.777	3.18
278.991	3.53
279.205	3.39
279.419	3.33
279.633	3.04
279.847	2.83
280.061	3.27
280.275	3.34
280.489	3.35
280.703	3.42
280.917	3.5
281.131	3.35
281.344	3.31
281.558	3.42
281.772	2.98
281.986	3.29
282.2	3.31
282.414	2.98
282.627	3.42
282.841	2.94
283.055	2.95
283.269	2.8
283.482	3.13
283.696	3.11
283.91	3.02
284.123	3.3
284.337	3.32
284.551	3.51
284.764	3.45
284.978	2.91
285.192	3.27
285.405	3.34
285.619	3.2
285.833	3.21
286.046	3.16
286.26	3.19
286.473	3.27
286.687	3.13
286.9	3.22
287.114	3.27
287.327	3.46
287.541	3.62
287.754	3.49
287.968	3.78
288.181	3.65
288.395	3.59
288.608	3.59
288.822	3.54
289.035	3.3
289.248	3.38
289.462	3.54
289.675	3.45
289.889	2.86
290.102	2.88
290.315	3.14
290.529	3.25
290.742	3.38
290.955	3.22
291.169	2.99
291.382	3.03
291.595	2.75
291.808	2.76
292.022	2.8
292.235	3.01
292.448	2.96
292.661	2.88
292.875	2.9
293.088	2.8
293.301	3.07
293.514	3.45
293.727	3.95
293.94	4.14
294.153	3.88
294.367	4.16
294.58	4.51
294.793	4.71
295.006	4.55
295.219	4.59
295.432	4.89
295.645	4.85
295.858	4.5
296.071	4.37
296.284	4.22
296.497	4.32
296.71	4.39
296.923	4.2
297.136	4.12
297.349	4.12
297.562	4.09
297.775	3.93
297.988	3.88
298.201	4.1
298.414	3.96
298.626	3.96
298.839	3.9
299.052	3.76
299.265	3.72
299.478	3.53
299.691	3.43
299.903	3.09
300.116	2.92
300.329	2.94
300.542	3.16
300.755	3.09
300.967	3.04
301.18	2.88
301.393	2.85
301.605	2.92
301.818	3.03
302.031	3.25
302.243	3.46
302.456	3.82
302.669	3.65
302.881	3.88
303.094	4.21
303.307	4.37
303.519	4.51
303.732	4.38
303.944	4.28
304.157	4.28
304.37	4.02
304.582	3.96
304.795	4.04
305.007	4.29
305.22	3.9
305.432	3.76
305.645	3.61
305.857	3.45
306.069	3.24
306.282	3.4
306.494	3.59
306.707	3.86
306.919	3.94
307.132	3.79
307.344	3.67
307.556	3.58
307.769	3.43
307.981	3.69
308.193	3.92
308.406	3.96
308.618	4.27
308.83	4.41
309.043	4.6
309.255	4.57
309.467	4.33
309.679	4.41
309.892	4.64
310.104	4.63
310.316	4.38
310.528	4.41
310.74	4.68
310.953	4.61
311.165	4.52
311.377	4.38
311.589	4.52
311.801	4.81
312.013	4.72
312.225	4.61
312.437	4.79
312.649	4.88
312.862	4.61
313.074	4.58
313.286	4.47
313.498	4.56
313.71	4.65
313.922	4.51
314.134	4.45
314.346	4.46
314.558	4.31
314.77	4.19
314.982	4.64
315.193	4.82
315.405	4.89
315.617	5.13
315.829	4.78
316.041	5.05
316.253	5.2
316.465	5.2
316.677	5.29
316.888	5.52
317.1	5.77
317.312	5.62
317.524	6.23
317.736	5.9
317.947	5.52
318.159	5.85
318.371	5.3
318.583	5.25
318.794	5.47
319.006	5.78
319.218	6.03
319.43	5.95
319.641	5.99
319.853	5.65
320.064	6.13
320.276	6.51
320.488	6.67
320.699	6.92
320.911	7.33
321.123	7.13
321.334	6.81
321.546	6.44
321.757	6.35
321.969	6.49
322.18	6.75
322.392	6.98
322.603	7.01
322.815	7.05
323.026	7.28
323.238	7.05
323.449	7.14
323.661	7.11
323.872	7.34
324.083	7.33
324.295	7.16
324.506	6.98
324.718	6.17
324.929	5.92
325.14	5.89
325.352	5.69
325.563	5.47
325.774	5.62
325.986	5.86
326.197	6.16
326.408	6.33
326.62	6.44
326.831	6.72
327.042	7.23
327.253	7.33
327.464	7.33
327.676	7.49
327.887	7.82
328.098	7.63
328.309	7.68
328.52	7.56
328.732	7.61
328.943	7.84
329.154	7.27
329.365	7.44
329.576	7.61
329.787	7.62
329.998	7.53
330.209	7.79
330.42	7.94
330.631	7.88
330.842	7.83
331.053	7.83
331.264	7.94
331.475	8.74
331.686	8.87
331.897	8.96
332.108	8.97
332.319	9.13
332.53	9.22
332.741	9.38
332.952	9.86
333.163	9.72
333.374	9.76
333.585	9.68
333.795	9.32
334.006	9.34
334.217	9.19
334.428	9.43
334.639	9.53
334.849	9.48
335.06	9.61
335.271	9.19
335.482	9.36
335.692	9.66
335.903	9.71
336.114	9.79
336.325	9.86
336.535	9.92
336.746	9.96
336.957	9.68
337.167	9.46
337.378	9
337.589	8.88
337.799	8.98
338.01	8.48
338.22	8.19
338.431	8.17
338.642	7.96
338.852	8.02
339.063	8.04
339.273	7.96
339.484	7.98
339.694	8.58
339.905	8.44
340.115	8.26
340.326	8.42
340.536	8.43
340.746	8.09
340.957	7.67
341.167	7.69
341.378	7.51
341.588	7.27
341.799	7.08
342.009	6.78
342.219	6.75
342.43	6.86
342.64	6.86
342.85	6.98
343.061	7.38
343.271	8.14
343.481	8.3
343.691	8.45
343.902	8.9
344.112	9.28
344.322	9.32
344.532	9.31
344.743	9.31
344.953	9.34
345.163	9.04
345.373	8.87
345.583	8.53
345.793	8.56
346.004	8.27
346.214	8.22
346.424	7.95
346.634	7.49
346.844	7.8
347.054	7.69
347.264	7.65
347.474	7.84
347.684	7.72
347.894	7.84
348.104	7.85
348.314	7.79
348.524	7.73
348.734	7.73
348.944	8.24
349.154	8.22
349.364	8.24
349.574	8.42
349.784	8.4
349.994	8.47
350.204	8.56
350.413	8.3
350.623	8.58
350.833	8.5
351.043	8.7
351.253	8.87
351.463	9.03
351.672	9
351.882	8.92
352.092	9.03
352.302	9.17
352.511	8.89
352.721	8.75
352.931	8.79
353.141	8.95
353.35	8.91
353.56	8.8
353.77	8.61
353.979	8.71
354.189	8.69
354.399	8.86
354.608	9
354.818	8.87
355.027	9.12
355.237	8.9
355.447	8.67
355.656	8.41
355.866	8.23
356.075	8.15
356.285	7.93
356.494	7.82
356.704	7.58
356.913	7.48
357.123	7.6
357.332	7.49
357.542	7.57
357.751	7.66
357.96	7.61
358.17	7.75
358.379	7.79
358.589	7.76
358.798	8.01
359.007	8.31
359.217	8.22
359.426	8.31
359.635	8.34
359.845	8.16
360.054	8.19
360.263	8.31
360.472	8.07
360.682	8.08
360.891	8.07
361.1	7.99
361.309	7.84
361.519	7.76
361.728	7.72
361.937	7.77
362.146	7.82
362.355	7.72
362.564	7.87
362.774	7.9
362.983	8.08
363.192	8.21
363.401	8.17
363.61	8.16
363.819	8.39
364.028	8.26
364.237	8.18
364.446	8.19
364.655	8.3
364.864	8.13
365.073	8.3
365.282	8.19
365.491	8.16
365.7	7.95
365.909	7.76
366.118	7.44
366.327	7.5
366.536	7.59
366.745	7.55
366.954	7.6
367.162	7.54
367.371	7.46
367.58	7.34
367.789	7.3
367.998	7.57
368.207	7.68
368.415	7.94
368.624	8.18
368.833	8.01
369.042	8.11
369.25	8.1
369.459	8.5
369.668	8.3
369.877	8.28
370.085	8.42
370.294	8.25
370.503	8.17
370.711	8.13
370.92	7.94
371.129	7.89
371.337	7.92
371.546	7.94
371.754	7.91
371.963	7.95
372.171	7.94
372.38	7.88
372.589	7.91
372.797	8.02
373.006	7.97
373.214	8.07
373.423	8.02
373.631	8.1
373.84	8.03
374.048	7.9
374.256	8.05
374.465	8.05
374.673	7.96
374.882	8.1
375.09	8.06
375.298	7.87
375.507	7.76
375.715	7.99
375.923	7.83
376.132	7.77
376.34	7.62
376.548	7.55
376.757	7.5
376.965	7.55
377.173	7.31
377.381	7.15
377.59	7.15
377.798	7.11
378.006	6.84
378.214	6.86
378.423	6.75
378.631	6.62
378.839	6.58
379.047	6.8
379.255	6.76
379.463	6.96
379.671	7.07
379.879	7.08
380.088	6.94
380.296	7.07
380.504	7
380.712	7.19
380.92	7.3
381.128	7.03
381.336	6.48
381.544	6.54
381.752	6.43
381.96	6.64
382.168	6.7
382.376	6.86
382.584	6.81
382.791	6.89
382.999	6.92
383.207	6.89
383.415	7.16
383.623	7.44
383.831	7.15
384.039	7.03
384.247	6.8
384.454	6.84
384.662	6.59
384.87	6.59
385.078	6.47
385.285	6.33
385.493	6.4
385.701	6.28
385.909	6.15
386.116	6.26
386.324	6.15
386.532	6.09
386.739	6.19
386.947	6.4
387.155	6.34
387.362	6.39
387.57	6.28
387.778	5.99
387.985	5.99
388.193	6.08
388.4	6.11
388.608	6.16
388.816	6.01
389.023	5.92
389.231	5.94
389.438	5.87
389.646	5.77
389.853	5.87
390.061	6.03
390.268	5.99
390.475	5.91
390.683	5.71
390.89	5.71
391.098	5.81
391.305	5.75
391.512	5.6
391.72	5.71
391.927	5.84
392.135	5.82
392.342	5.69
392.549	5.62
392.756	5.68
392.964	5.67
393.171	5.67
393.378	5.6
393.586	5.57
393.793	5.47
394	5.46
394.207	5.29
394.414	5.23
394.622	5.47
394.829	5.55
395.036	5.46
395.243	5.67
395.45	5.73
395.657	5.75
395.864	5.96
396.072	6.21
396.279	6.13
396.486	6.09
396.693	6.26
396.9	6.02
397.107	5.97
397.314	5.98
397.521	6.01
397.728	5.8
397.935	5.96
398.142	5.87
398.349	5.71
398.556	5.66
398.763	5.88
398.97	5.55
399.177	5.54
399.383	5.47
399.59	5.6
399.797	5.54
400.004	5.75
400.211	5.59
400.418	5.54
400.625	5.62
400.831	5.81
401.038	5.6
401.245	5.78
401.452	5.62
401.658	5.72
401.865	5.77
402.072	5.61
402.279	5.69
402.485	5.59
402.692	5.52
402.899	5.4
403.105	5.23
403.312	5.32
403.519	5.23
403.725	5.34
403.932	5.34
404.138	5.02
404.345	5.08
404.552	5
404.758	5.04
404.965	5.04
405.171	5.03
405.378	5.1
405.584	5.28
405.791	5.19
405.997	5.2
406.204	5.35
406.41	5.49
406.617	5.44
406.823	5.33
407.029	5.38
407.236	5.47
407.442	5.54
407.649	5.56
407.855	5.38
408.061	5.52
408.268	5.65
408.474	5.54
408.68	5.62
408.887	5.65
409.093	5.62
409.299	5.63
409.505	5.48
409.712	5.36
409.918	5.19
410.124	5.06
410.33	5.13
410.537	4.98
410.743	4.86
410.949	4.87
411.155	4.87
411.361	4.96
411.567	4.83
411.773	4.79
411.98	4.81
412.186	4.78
412.392	4.82
412.598	4.68
412.804	4.81
413.01	4.8
413.216	4.78
413.422	4.73
413.628	4.59
413.834	4.65
414.04	4.68
414.246	4.95
414.452	4.99
414.658	5.05
414.864	4.97
415.07	4.93
415.275	4.97
415.481	4.77
415.687	4.7
415.893	4.8
416.099	4.74
416.305	4.68
416.511	4.61
416.716	4.65
416.922	4.51
417.128	4.65
417.334	4.65
417.539	4.58
417.745	4.67
417.951	4.58
418.157	4.61
418.362	4.53
418.568	4.57
418.774	4.48
418.979	4.45
419.185	4.52
419.391	4.48
419.596	4.45
419.802	4.49
420.008	4.53
420.213	4.54
420.419	4.46
420.624	4.57
420.83	4.63
421.035	4.64
421.241	4.67
421.446	4.66
421.652	4.66
421.857	4.64
422.063	4.68
422.268	4.64
422.474	4.73
422.679	4.79
422.885	4.78
423.09	4.79
423.295	4.74
423.501	4.68
423.706	4.63
423.911	4.62
424.117	4.63
424.322	4.62
424.527	4.6
424.733	4.56
424.938	4.54
425.143	4.51
425.349	4.42
425.554	4.4
425.759	4.36
425.964	4.38
426.169	4.31
426.375	4.34
426.58	4.27
426.785	4.3
426.99	4.26
427.195	4.25
427.4	4.33
427.605	4.35
427.811	4.47
428.016	4.59
428.221	4.62
428.426	4.59
428.631	4.59
428.836	4.59
429.041	4.54
429.246	4.57
429.451	4.58
429.656	4.49
429.861	4.48
430.066	4.37
430.271	4.38
430.476	4.4
430.681	4.51
430.886	4.41
431.09	4.46
431.295	4.4
431.5	4.41
431.705	4.43
431.91	4.5
432.115	4.48
432.32	4.44
432.524	4.5
432.729	4.6
432.934	4.6
433.139	4.67
433.343	4.71
433.548	4.71
433.753	4.75
433.958	4.73
434.162	4.67
434.367	4.72
434.572	4.87
434.776	4.75
434.981	4.67
435.186	4.62
435.39	4.6
435.595	4.63
435.799	4.67
436.004	4.68
436.209	4.66
436.413	4.7
436.618	4.71
436.822	4.63
437.027	4.67
437.231	4.61
437.436	4.6
437.64	4.63
437.845	4.55
438.049	4.62
438.253	4.57
438.458	4.59
438.662	4.62
438.867	4.61
439.071	4.53
439.275	4.52
439.48	4.61
439.684	4.68
439.888	4.61
440.093	4.65
440.297	4.56
440.501	4.63
440.706	4.62
440.91	4.62
441.114	4.59
441.318	4.73
441.523	4.74
441.727	4.71
441.931	4.64
442.135	4.63
442.339	4.61
442.543	4.71
442.748	4.72
442.952	4.78
443.156	4.82
443.36	4.86
443.564	4.76
443.768	4.75
443.972	4.79
444.176	4.8
444.38	4.78
444.584	4.7
444.788	4.6
444.992	4.52
445.196	4.51
445.4	4.46
445.604	4.5
445.808	4.58
446.012	4.59
446.216	4.55
446.42	4.55
446.624	4.61
446.828	4.63
447.032	4.67
447.235	4.7
447.439	4.71
447.643	4.68
447.847	4.67
448.051	4.65
448.254	4.67
448.458	4.62
448.662	4.7
448.866	4.68
449.069	4.76
449.273	4.83
449.477	4.85
449.681	4.8
449.884	4.83
450.088	4.71
450.292	4.65
450.495	4.67
450.699	4.71
450.902	4.6
451.106	4.6
451.31	4.52
451.513	4.5
451.717	4.57
451.92	4.56
452.124	4.43
452.327	4.43
452.531	4.41
452.734	4.26
452.938	4.3
453.141	4.41
453.345	4.33
453.548	4.27
453.752	4.23
453.955	4.14
454.158	4.04
454.362	4.21
454.565	4.22
454.769	4.27
454.972	4.32
455.175	4.32
455.379	4.27
455.582	4.4
455.785	4.52
455.988	4.44
456.192	4.38
456.395	4.4
456.598	4.47
456.801	4.53
457.005	4.51
457.208	4.56
457.411	4.5
457.614	4.53
457.817	4.43
458.021	4.39
458.224	4.44
458.427	4.49
458.63	4.52
458.833	4.38
459.036	4.4
459.239	4.47
459.442	4.49
459.645	4.52
459.848	4.4
460.051	4.43
460.254	4.5
460.457	4.51
460.66	4.56
460.863	4.56
461.066	4.67
461.269	4.75
461.472	4.69
461.675	4.68
461.878	4.69
462.081	4.8
462.284	4.79
462.486	4.75
462.689	4.84
462.892	4.7
463.095	4.74
463.298	4.59
463.5	4.42
463.703	4.48
463.906	4.43
464.109	4.43
464.311	4.43
464.514	4.47
464.717	4.4
464.92	4.28
465.122	4.37
465.325	4.4
465.528	4.48
465.73	4.51
465.933	4.49
466.135	4.58
466.338	4.57
466.541	4.68
466.743	4.7
466.946	4.73
467.148	4.75
467.351	4.75
467.553	4.71
467.756	4.72
467.958	4.74
468.161	4.7
468.363	4.68
468.566	4.72
468.768	4.68
468.971	4.63
469.173	4.63
469.375	4.65
469.578	4.65
469.78	4.63
469.983	4.69
470.185	4.72
470.387	4.68
470.59	4.77
470.792	4.77
470.994	4.77
471.196	4.69
471.399	4.75
471.601	4.81
471.803	4.82
472.005	4.8
