Data from 2938812__Reflection_05.txt Node
Date: Thu Mar 12 16:51:52 EDT 2015
User: robert
Spectrometer: USB4E03002
Autoset integration time: false
Trigger mode: 4
Integration Time (sec): 1.000000E-1
Scans to average: 10
Electric dark correction enabled: false
Nonlinearity correction enabled: false
Boxcar width: 5
Stray light correction enabled: false
XAxis mode: Wavelengths
Stop averaging: false
Number of Pixels in Spectrum: 3648
>>>>>Begin Spectral Data<<<<<
177.575	-135.9
177.794	-416.05
178.014	1016.67
178.233	-1966.67
178.452	-9450
178.672	-1038.46
178.891	301.43
179.11	-61.11
179.33	-196.33
179.549	-289.13
179.768	-44.08
179.987	46.6
180.207	-55.56
180.426	-576.67
180.645	-173.49
180.864	-68.99
181.084	-2
181.303	45.95
181.522	115.48
181.741	252
181.96	666.67
182.179	185.19
182.398	-35.09
182.618	70.13
182.837	416.33
183.056	161.26
183.275	228.49
183.494	1012.82
183.713	-22800
183.932	189.74
184.151	95.75
184.37	65.9
184.589	93.6
184.808	65.02
185.027	59.07
185.246	29.06
185.465	19.59
185.684	-99.18
185.903	-53.66
186.122	-39.29
186.341	427.12
186.56	4160
186.779	23.94
186.998	12.02
187.216	14.65
187.435	7.54
187.654	-30.08
187.873	-40.52
188.092	-88.39
188.311	-92.89
188.53	-31.57
188.748	-65.21
188.967	-46.85
189.186	-174.69
189.405	-764.86
189.623	518.52
189.842	82.28
190.061	59.48
190.28	73.31
190.498	59.5
190.717	39.82
190.936	84.77
191.154	81.62
191.373	74.66
191.592	76.94
191.81	64.71
192.029	41.88
192.248	80.94
192.466	65.63
192.685	42.68
192.904	87.89
193.122	101
193.341	75.99
193.559	51.58
193.778	57.57
193.996	74.56
194.215	76.76
194.433	98.73
194.652	105.48
194.87	97.42
195.089	91.73
195.307	71.74
195.526	52.57
195.744	36.67
195.963	32.18
196.181	78.86
196.399	50.15
196.618	52.99
196.836	2.74
197.055	-32.18
197.273	28.64
197.491	-16.73
197.71	31.17
197.928	95.42
198.146	94.78
198.365	23.15
198.583	-235.11
198.801	-203.76
199.019	-8.13
199.238	-20.36
199.456	-15.56
199.674	35.9
199.892	300
200.111	123.81
200.329	156.68
200.547	100.63
200.765	119.69
200.983	114.11
201.202	83.81
201.42	444.83
201.638	23100
201.856	380.77
202.074	-246.67
202.292	314.06
202.51	126.62
202.728	64.1
202.946	147.73
203.165	182.48
203.383	115.51
203.601	184.18
203.819	144.87
204.037	152.08
204.255	123.2
204.473	152.43
204.691	135.42
204.909	146.75
205.127	226.23
205.345	197.88
205.562	247.28
205.78	430.29
205.998	613.28
206.216	615.38
206.434	381.6
206.652	-1795.65
206.87	-769.77
207.088	-45.02
207.306	-157.31
207.523	-335.48
207.741	-412
207.959	128.85
208.177	97.17
208.395	96.17
208.612	88.62
208.83	78.23
209.048	94.82
209.266	74.85
209.483	64.11
209.701	51.64
209.919	35.54
210.136	39.13
210.354	36.21
210.572	27.27
210.79	17.05
211.007	15.32
211.225	-8.4
211.442	-18.25
211.66	8.59
211.878	26.09
212.095	42.94
212.313	50.19
212.53	41.63
212.748	37.12
212.966	30.86
213.183	26.51
213.401	31.28
213.618	36.88
213.836	38.77
214.053	28.99
214.271	14.94
214.488	11.28
214.705	16.2
214.923	-5.64
215.14	10.35
215.358	20.05
215.575	37.06
215.793	25.71
216.01	16.77
216.227	4.51
216.445	-1.63
216.662	-18.34
216.879	-43.25
217.097	-58.27
217.314	-24.9
217.531	-11.88
217.749	-6.42
217.966	-22.48
218.183	-7.77
218.4	-3.63
218.618	5.18
218.835	2.96
219.052	11.99
219.269	20.3
219.487	26.67
219.704	30.14
219.921	27.09
220.138	19.36
220.355	27.81
220.572	29.28
220.79	32.3
221.007	31.87
221.224	21.42
221.441	23.86
221.658	26.48
221.875	20.75
222.092	18.36
222.309	25.09
222.526	21.85
222.743	18.01
222.96	17.22
223.177	13.83
223.394	19.23
223.611	18.09
223.828	16.97
224.045	11.47
224.262	7.54
224.479	5.14
224.696	-1.8
224.913	-8.81
225.13	-5.66
225.347	-2.4
225.564	-3.19
225.781	-7.05
225.997	-1.59
226.214	0.29
226.431	1.06
226.648	3.95
226.865	7.26
227.082	7.48
227.298	7.6
227.515	8
227.732	6.58
227.949	7.12
228.165	7.97
228.382	8.19
228.599	8.01
228.816	7.88
229.032	7.53
229.249	6.9
229.466	6.86
229.682	7.38
229.899	7.24
230.116	6.76
230.332	6.05
230.549	5.13
230.765	4.62
230.982	4.79
231.199	4.58
231.415	4.81
231.632	5.78
231.848	4.76
232.065	5.02
232.281	4.66
232.498	6.09
232.714	6.73
232.931	8.02
233.147	7.91
233.364	7.01
233.58	7.53
233.797	6.64
234.013	5.87
234.23	8.54
234.446	8.47
234.662	9.27
234.879	7.39
235.095	7.1
235.312	5.49
235.528	6.87
235.744	7.78
235.961	8.62
236.177	9.32
236.393	9.25
236.61	8.67
236.826	8.29
237.042	5.27
237.258	6.25
237.475	7.68
237.691	9.19
237.907	7.43
238.123	7.35
238.339	7.34
238.556	5.58
238.772	4.93
238.988	4.2
239.204	4.95
239.42	6.87
239.636	8.02
239.853	6.98
240.069	5.59
240.285	6.34
240.501	5.72
240.717	5.27
240.933	5.75
241.149	6
241.365	5.95
241.581	5.58
241.797	5.19
242.013	4.83
242.229	4.55
242.445	5.62
242.661	5.59
242.877	5.27
243.093	5.67
243.309	5.84
243.525	5.35
243.741	5.35
243.957	5.62
244.173	5.63
244.388	6.24
244.604	6.86
244.82	5.52
245.036	5.52
245.252	6.26
245.468	5.85
245.683	5.99
245.899	6
246.115	5.41
246.331	5.33
246.547	5.04
246.762	4.68
246.978	4.48
247.194	4.82
247.409	4.85
247.625	4.49
247.841	4.46
248.057	3.98
248.272	4.05
248.488	4.38
248.703	4.19
248.919	4.17
249.135	4.4
249.35	4.32
249.566	3.83
249.782	3.56
249.997	4.31
250.213	3.79
250.428	4.35
250.644	4.31
250.859	4.6
251.075	4.25
251.29	4.83
251.506	4.41
251.721	4.97
251.937	4.53
252.152	4.73
252.368	3.98
252.583	4.32
252.798	4.25
253.014	4.25
253.229	4.14
253.445	4.49
253.66	4.33
253.875	4.47
254.091	4.2
254.306	4.67
254.521	3.29
254.737	3.54
254.952	3.34
255.167	2.84
255.383	3.18
255.598	2.73
255.813	3.17
256.028	2.65
256.244	2.72
256.459	3.92
256.674	4.38
256.889	4.27
257.104	3.96
257.32	3.92
257.535	4.29
257.75	3.64
257.965	3.34
258.18	2.77
258.395	2.96
258.61	2.73
258.826	1.78
259.041	1.74
259.256	1.85
259.471	2.15
259.686	2.07
259.901	2.16
260.116	2.38
260.331	2.46
260.546	2.59
260.761	2.85
260.976	2.73
261.191	2.92
261.406	2.89
261.621	3.1
261.836	3.03
262.05	3.16
262.265	3.32
262.48	3.11
262.695	3.19
262.91	3.43
263.125	2.65
263.34	3.41
263.555	3.36
263.769	3.04
263.984	3.41
264.199	3.68
264.414	3.62
264.629	3.22
264.843	3.08
265.058	2.68
265.273	2.31
265.488	3.2
265.702	2.72
265.917	2.91
266.132	3.36
266.346	3
266.561	2.78
266.776	2.71
266.99	2.78
267.205	2.8
267.42	3.68
267.634	4.04
267.849	4.02
268.063	4.4
268.278	4.5
268.492	4.05
268.707	4.45
268.922	4.43
269.136	4.33
269.351	4.03
269.565	4.58
269.78	4.41
269.994	4.55
270.209	4.26
270.423	3.95
270.637	3.66
270.852	3.81
271.066	3.31
271.281	3.1
271.495	3.42
271.709	3.58
271.924	3.34
272.138	2.96
272.353	2.79
272.567	2.63
272.781	2.85
272.996	2.62
273.21	2.93
273.424	3.05
273.638	3.25
273.853	3.46
274.067	3.37
274.281	3.28
274.495	3.35
274.71	2.62
274.924	2.59
275.138	2.23
275.352	2.73
275.566	2.27
275.781	2.11
275.995	2.26
276.209	1.59
276.423	1.78
276.637	1.87
276.851	1.96
277.065	2.24
277.279	2.49
277.493	2.63
277.707	2.91
277.921	2.97
278.135	3.12
278.349	3.1
278.563	3.9
278.777	4.32
278.991	3.96
279.205	3.86
279.419	3.96
279.633	4.09
279.847	3.77
280.061	3.89
280.275	4.31
280.489	4.81
280.703	4.36
280.917	3.8
281.131	3.5
281.344	3.75
281.558	3.12
281.772	3.25
281.986	3.06
282.2	3.44
282.414	2.97
282.627	2.66
282.841	2.17
283.055	2.49
283.269	2.27
283.482	2.02
283.696	2.07
283.91	2.47
284.123	2.39
284.337	2.33
284.551	2.16
284.764	2.58
284.978	2.63
285.192	2.57
285.405	2.84
285.619	3.24
285.833	3.3
286.046	3.2
286.26	3.54
286.473	3.84
286.687	3.96
286.9	4.2
287.114	3.97
287.327	3.94
287.541	4.14
287.754	4.06
287.968	4.25
288.181	4.03
288.395	4
288.608	3.7
288.822	3.81
289.035	3.64
289.248	3.3
289.462	3.34
289.675	3.39
289.889	3.29
290.102	3.11
290.315	2.82
290.529	3.38
290.742	3.29
290.955	3.58
291.169	3.64
291.382	3.75
291.595	3.85
291.808	3.85
292.022	3.97
292.235	4.12
292.448	4.37
292.661	4.59
292.875	4.64
293.088	5.06
293.301	4.85
293.514	4.51
293.727	4.47
293.94	5.01
294.153	5.21
294.367	5.28
294.58	5.28
294.793	5.03
295.006	5.17
295.219	4.79
295.432	4.63
295.645	4.77
295.858	5.04
296.071	4.99
296.284	4.79
296.497	4.79
296.71	4.88
296.923	4.99
297.136	5.2
297.349	4.82
297.562	4.82
297.775	5.26
297.988	5.32
298.201	5.2
298.414	5.36
298.626	5.48
298.839	5.56
299.052	5.39
299.265	5.64
299.478	5.8
299.691	6.27
299.903	6.71
300.116	6.49
300.329	6.57
300.542	6.62
300.755	7.12
300.967	7.02
301.18	7.03
301.393	7.15
301.605	7.01
301.818	6.91
302.031	6.76
302.243	6.56
302.456	6.7
302.669	6.54
302.881	6.67
303.094	6.43
303.307	6.26
303.519	6.36
303.732	6.7
303.944	6.48
304.157	6.71
304.37	6.86
304.582	6.72
304.795	6.38
305.007	6.52
305.22	6.73
305.432	6.82
305.645	7.18
305.857	7.43
306.069	7.26
306.282	7.54
306.494	7.41
306.707	7.48
306.919	8.09
307.132	8.61
307.344	8.66
307.556	8.46
307.769	8.52
307.981	8.41
308.193	8.34
308.406	8.51
308.618	8.68
308.83	8.38
309.043	8.13
309.255	8.44
309.467	8.1
309.679	8.06
309.892	8.24
310.104	8.39
310.316	8.68
310.528	8.58
310.74	8.61
310.953	8.58
311.165	9.02
311.377	9.23
311.589	8.89
311.801	8.81
312.013	9.04
312.225	8.85
312.437	8.93
312.649	8.78
312.862	8.82
313.074	8.29
313.286	8.24
313.498	8.21
313.71	8.79
313.922	8.9
314.134	8.52
314.346	8.75
314.558	9.15
314.77	8.65
314.982	8.88
315.193	8.98
315.405	9.55
315.617	9.77
315.829	9.69
316.041	9.49
316.253	9.35
316.465	10.55
316.677	10.08
316.888	10.11
317.1	10.28
317.312	10.36
317.524	10.31
317.736	10.23
317.947	10.02
318.159	10.12
318.371	10.01
318.583	10.22
318.794	10.33
319.006	10.71
319.218	10.67
319.43	11.15
319.641	11.21
319.853	11.4
320.064	11.88
320.276	12.41
320.488	12.42
320.699	12.59
320.911	12.61
321.123	12.44
321.334	11.85
321.546	12.14
321.757	11.92
321.969	11.82
322.18	11.74
322.392	11.08
322.603	10.68
322.815	10.93
323.026	11.05
323.238	11.12
323.449	11.52
323.661	12.11
323.872	12.16
324.083	12.41
324.295	12.18
324.506	12.33
324.718	12.74
324.929	13.06
325.14	13.09
325.352	12.98
325.563	13.14
325.774	12.69
325.986	12.72
326.197	13.11
326.408	13.23
326.62	13.76
326.831	13.91
327.042	14.24
327.253	14.32
327.464	14.37
327.676	14.63
327.887	15.06
328.098	15.28
328.309	15.46
328.52	15.45
328.732	15.62
328.943	15.89
329.154	16.09
329.365	16.06
329.576	16.46
329.787	17.09
329.998	17.89
330.209	17.82
330.42	18.09
330.631	18.64
330.842	18.31
331.053	18.75
331.264	18.53
331.475	18.6
331.686	19.02
331.897	18.93
332.108	19.21
332.319	19.06
332.53	19.1
332.741	19.67
332.952	19.75
333.163	20.47
333.374	20.62
333.585	20.87
333.795	20.9
334.006	20.87
334.217	20.82
334.428	20.41
334.639	20.29
334.849	20.59
335.06	20.42
335.271	20.59
335.482	20.37
335.692	20.19
335.903	20.64
336.114	20.83
336.325	20.84
336.535	21.17
336.746	21.21
336.957	21.28
337.167	21.16
337.378	21.18
337.589	21.39
337.799	21.31
338.01	21.44
338.22	20.93
338.431	20.79
338.642	20.77
338.852	20.76
339.063	20.81
339.273	20.55
339.484	20.77
339.694	20.78
339.905	20.39
340.115	20.47
340.326	20.58
340.536	20.99
340.746	21.46
340.957	21.56
341.167	21.27
341.378	21.61
341.588	21.78
341.799	21.85
342.009	22.03
342.219	21.99
342.43	22.1
342.64	21.7
342.85	21.31
343.061	20.99
343.271	20.93
343.481	21.34
343.691	21.02
343.902	20.95
344.112	21.05
344.322	20.87
344.532	20.65
344.743	20.33
344.953	20.63
345.163	20.93
345.373	20.96
345.583	21.19
345.793	21.1
346.004	21.04
346.214	21.27
346.424	20.9
346.634	20.87
346.844	21.05
347.054	21.29
347.264	20.83
347.474	20.26
347.684	20.3
347.894	19.96
348.104	19.94
348.314	19.93
348.524	19.64
348.734	19.63
348.944	19.45
349.154	19.29
349.364	19.35
349.574	19.43
349.784	19.82
349.994	19.76
350.204	19.66
350.413	19.34
350.623	19.31
350.833	19.26
351.043	19.02
351.253	19.16
351.463	19.43
351.672	19.42
351.882	19.54
352.092	19.37
352.302	19.04
352.511	19.23
352.721	19.47
352.931	19.6
353.141	19.64
353.35	19.55
353.56	19.26
353.77	19.01
353.979	18.8
354.189	18.71
354.399	19.13
354.608	19.51
354.818	19.26
355.027	18.97
355.237	18.98
355.447	19.23
355.656	19.46
355.866	19.88
356.075	20.21
356.285	20.57
356.494	20.63
356.704	20.54
356.913	20.49
357.123	20.64
357.332	20.92
357.542	20.94
357.751	20.78
357.96	20.77
358.17	20.57
358.379	20.26
358.589	19.99
358.798	19.95
359.007	19.69
359.217	19.92
359.426	20.12
359.635	20.22
359.845	19.93
360.054	19.9
360.263	19.91
360.472	19.92
360.682	20.04
360.891	20.11
361.1	20.16
361.309	20.12
361.519	19.74
361.728	19.6
361.937	19.33
362.146	19.53
362.355	19.41
362.564	19.55
362.774	19.65
362.983	19.45
363.192	19.23
363.401	19.22
363.61	19.2
363.819	19.49
364.028	19.61
364.237	19.72
364.446	19.8
364.655	19.88
364.864	19.64
365.073	19.39
365.282	19.57
365.491	19.84
365.7	19.64
365.909	19.64
366.118	19.39
366.327	19.24
366.536	19.1
366.745	18.96
366.954	18.73
367.162	18.42
367.371	18.41
367.58	18.4
367.789	18.14
367.998	18.07
368.207	17.98
368.415	18.03
368.624	17.78
368.833	17.97
369.042	17.51
369.25	17.96
369.459	18.34
369.668	18.15
369.877	18.01
370.085	17.99
370.294	17.97
370.503	18.04
370.711	18.05
370.92	18.2
371.129	17.77
371.337	17.96
371.546	17.75
371.754	17.65
371.963	17.94
372.171	17.67
372.38	17.79
372.589	17.63
372.797	17.73
373.006	17.57
373.214	17.51
373.423	17.5
373.631	17.62
373.84	17.39
374.048	17.35
374.256	17.14
374.465	17.25
374.673	16.97
374.882	16.88
375.09	16.47
375.298	16.75
375.507	16.73
375.715	17.01
375.923	16.8
376.132	16.77
376.34	16.59
376.548	16.5
376.757	16.46
376.965	16.43
377.173	16.54
377.381	16.52
377.59	16.26
377.798	16.16
378.006	15.8
378.214	15.75
378.423	15.72
378.631	15.79
378.839	15.7
379.047	15.77
379.255	15.95
379.463	15.75
379.671	15.77
379.879	15.57
380.088	15.38
380.296	15.45
380.504	15.32
380.712	15.3
380.92	14.94
381.128	14.89
381.336	14.72
381.544	14.55
381.752	14.77
381.96	14.74
382.168	14.71
382.376	14.84
382.584	14.76
382.791	15.03
382.999	15.08
383.207	15.41
383.415	15.46
383.623	15.37
383.831	15.26
384.039	15.01
384.247	15.25
384.454	15.3
384.662	15.14
384.87	15.22
385.078	14.97
385.285	14.93
385.493	14.98
385.701	14.87
385.909	14.61
386.116	14.75
386.324	14.75
386.532	14.6
386.739	14.49
386.947	14.62
387.155	14.76
387.362	14.82
387.57	14.84
387.778	14.73
387.985	14.8
388.193	14.95
388.4	14.85
388.608	14.78
388.816	14.69
389.023	14.72
389.231	14.47
389.438	14.23
389.646	13.95
389.853	13.95
390.061	13.86
390.268	13.76
390.475	14.12
390.683	14.08
390.89	14.11
391.098	13.97
391.305	13.91
391.512	14
391.72	13.83
391.927	14.06
392.135	13.85
392.342	13.82
392.549	13.74
392.756	13.43
392.964	13.31
393.171	13.39
393.378	13.37
393.586	13.3
393.793	13.36
394	13.43
394.207	13.42
394.414	13.33
394.622	13.17
394.829	13.58
395.036	13.47
395.243	13.42
395.45	13.43
395.657	13.28
395.864	13.27
396.072	13.18
396.279	13.21
396.486	13.28
396.693	13.52
396.9	13.59
397.107	13.33
397.314	13.55
397.521	13.65
397.728	13.31
397.935	13.66
398.142	13.86
398.349	13.99
398.556	14.06
398.763	14.09
398.97	13.9
399.177	13.84
399.383	13.71
399.59	13.54
399.797	13.42
400.004	13.78
400.211	13.54
400.418	13.2
400.625	13.17
400.831	13.13
401.038	12.86
401.245	12.99
401.452	13.03
401.658	13.01
401.865	12.99
402.072	12.96
402.279	12.87
402.485	12.78
402.692	12.85
402.899	12.9
403.105	12.88
403.312	12.92
403.519	12.94
403.725	12.8
403.932	12.85
404.138	12.78
404.345	12.88
404.552	12.82
404.758	12.86
404.965	12.94
405.171	12.58
405.378	12.31
405.584	12.21
405.791	11.98
405.997	12.02
406.204	11.79
406.41	11.81
406.617	11.76
406.823	11.71
407.029	11.73
407.236	11.62
407.442	11.69
407.649	12.01
407.855	12.11
408.061	12.25
408.268	12.29
408.474	12.43
408.68	12.52
408.887	12.36
409.093	12.41
409.299	12.54
409.505	12.53
409.712	12.56
409.918	12.37
410.124	12.18
410.33	12.13
410.537	12.13
410.743	12.09
410.949	12.07
411.155	12.09
411.361	12.09
411.567	11.98
411.773	12.08
411.98	12.14
412.186	12.03
412.392	12.17
412.598	12.19
412.804	12.14
413.01	12.08
413.216	12.11
413.422	12.07
413.628	12.15
413.834	12.13
414.04	12.03
414.246	12.01
414.452	12.12
414.658	12.17
414.864	12.18
415.07	12.12
415.275	12.05
415.481	11.9
415.687	11.99
415.893	11.89
416.099	11.84
416.305	11.86
416.511	11.92
416.716	11.96
416.922	11.88
417.128	11.96
417.334	12.08
417.539	12.17
417.745	12.27
417.951	12.11
418.157	12.08
418.362	12.11
418.568	12.11
418.774	12.09
418.979	12.06
419.185	12.06
419.391	11.97
419.596	11.84
419.802	11.75
420.008	11.68
420.213	11.05
420.419	11
420.624	10.95
420.83	10.94
421.035	10.95
421.241	10.96
421.446	10.95
421.652	10.98
421.857	11.05
422.063	11.07
422.268	11.12
422.474	11.85
422.679	11.88
422.885	12.14
423.09	12.18
423.295	12.11
423.501	12.06
423.706	12
423.911	11.94
424.117	11.93
424.322	11.95
424.527	11.88
424.733	11.85
424.938	11.84
425.143	11.58
425.349	11.5
425.554	11.55
425.759	11.57
425.964	11.6
426.169	11.67
426.375	11.67
426.58	11.65
426.785	11.6
426.99	11.58
427.195	11.68
427.4	11.68
427.605	11.72
427.811	11.73
428.016	11.76
428.221	11.96
428.426	11.84
428.631	11.77
428.836	11.75
429.041	11.86
429.246	11.98
429.451	11.84
429.656	11.85
429.861	11.73
430.066	11.75
430.271	11.77
430.476	11.66
430.681	11.66
430.886	11.71
431.09	11.74
431.295	11.68
431.5	11.57
431.705	11.53
431.91	11.56
432.115	11.63
432.32	11.57
432.524	11.48
432.729	11.51
432.934	11.57
433.139	11.45
433.343	11.38
433.548	11.37
433.753	11.3
433.958	11.43
434.162	11.45
434.367	11.45
434.572	11.5
434.776	11.58
434.981	11.45
435.186	11.47
435.39	11.57
435.595	11.74
435.799	11.8
436.004	11.88
436.209	11.82
436.413	11.87
436.618	11.97
436.822	11.89
437.027	11.81
437.231	11.91
437.436	11.85
437.64	11.87
437.845	11.82
438.049	11.79
438.253	11.84
438.458	11.87
438.662	11.84
438.867	11.69
439.071	11.69
439.275	11.64
439.48	11.47
439.684	11.42
439.888	11.44
440.093	11.35
440.297	11.31
440.501	11.32
440.706	11.23
440.91	11.17
441.114	11.29
441.318	11.33
441.523	11.38
441.727	11.5
441.931	11.53
442.135	11.62
442.339	11.64
442.543	11.69
442.748	11.66
442.952	11.77
443.156	11.84
443.36	11.78
443.564	11.69
443.768	11.68
443.972	11.76
444.176	11.81
444.38	11.71
444.584	11.73
444.788	11.72
444.992	11.71
445.196	11.61
445.4	11.6
445.604	11.61
445.808	11.6
446.012	11.53
446.216	11.41
446.42	11.39
446.624	11.41
446.828	11.38
447.032	11.42
447.235	11.37
447.439	11.37
447.643	11.34
447.847	11.3
448.051	11.38
448.254	11.44
448.458	11.44
448.662	11.46
448.866	11.46
449.069	11.42
449.273	11.39
449.477	11.36
449.681	11.38
449.884	11.44
450.088	11.52
450.292	11.46
450.495	11.39
450.699	11.41
450.902	11.44
451.106	11.35
451.31	11.45
451.513	11.39
451.717	11.38
451.92	11.34
452.124	11.19
452.327	11.18
452.531	11.09
452.734	11.06
452.938	11.03
453.141	10.99
453.345	10.9
453.548	10.81
453.752	11
453.955	11.05
454.158	11.08
454.362	11.13
454.565	11.08
454.769	11.18
454.972	11.22
455.175	11.15
455.379	11.19
455.582	11.21
455.785	11.21
455.988	11.04
456.192	11.07
456.395	11.09
456.598	11.01
456.801	10.91
457.005	10.85
457.208	10.83
457.411	10.85
457.614	10.84
457.817	10.94
458.021	10.97
458.224	10.96
458.427	10.95
458.63	10.89
458.833	10.97
459.036	11.03
459.239	11.06
459.442	11.05
459.645	11.06
459.848	10.96
460.051	11.04
460.254	11.11
460.457	11.17
460.66	11.21
460.863	11.24
