Data from 2938773__Reflection_03.txt Node
Date: Fri Mar 13 14:33:54 EDT 2015
User: robert
Spectrometer: USB4E03002
Autoset integration time: false
Trigger mode: 4
Integration Time (sec): 1.000000E-1
Scans to average: 10
Electric dark correction enabled: false
Nonlinearity correction enabled: false
Boxcar width: 5
Stray light correction enabled: false
XAxis mode: Wavelengths
Stop averaging: false
Number of Pixels in Spectrum: 3648
>>>>>Begin Spectral Data<<<<<
177.575	-498.61
177.794	-1116.44
178.014	-2807.41
178.233	1382.09
178.452	2640.54
178.672	629.55
178.891	564.02
179.11	3586.96
179.33	-976.12
179.549	-392.06
179.768	-1350
179.987	841.79
180.207	1874.07
180.426	1276.92
180.645	-2045.71
180.864	-1170.97
181.084	-270.47
181.303	-377.57
181.522	-1508.51
181.741	4886.67
181.96	334.92
182.179	326.53
182.398	254.56
182.618	271.03
182.837	399.63
183.056	331.03
183.275	278.83
183.494	211.99
183.713	232.66
183.932	247.99
184.151	222.25
184.37	269.35
184.589	314.61
184.808	650
185.027	217.19
185.246	174.86
185.465	171.8
185.684	224.5
185.903	213.45
186.122	186.34
186.341	165.29
186.56	170.18
186.779	245.48
186.998	203.23
187.216	246.93
187.435	561.02
187.654	250.56
187.873	170.48
188.092	146.85
188.311	222.54
188.53	235.1
188.748	657.81
188.967	-1550
189.186	349.28
189.405	464.75
189.623	210.51
189.842	224.88
190.061	225
190.28	320.85
190.498	217.33
190.717	198.2
190.936	204.68
191.154	183.1
191.373	219.08
191.592	208.5
191.81	160.86
192.029	169.43
192.248	165.96
192.466	179.35
192.685	171.99
192.904	210.04
193.122	215.03
193.341	293.55
193.559	568.75
193.778	292.47
193.996	378.11
194.215	3252
194.433	806.54
194.652	531.08
194.87	805.32
195.089	14080
195.307	3034.62
195.526	-644.86
195.744	1738.3
195.963	493.99
196.181	433.88
196.399	303.73
196.618	315.87
196.836	358.86
197.055	609.74
197.273	954.95
197.491	2711.76
197.71	1477.78
197.928	496.65
198.146	617.8
198.365	829.33
198.583	759.09
198.801	-161.57
199.019	-121.03
199.238	-81.36
199.456	-96.1
199.674	-148.01
199.892	-187.8
200.111	-191.21
200.329	-178.31
200.547	-192.81
200.765	-399.53
200.983	-316.87
201.202	-771.03
201.42	-1787.5
201.638	3626.09
201.856	851.55
202.074	1921.95
202.292	381.58
202.51	511.63
202.728	260.85
202.946	470.47
203.165	865.08
203.383	54200
203.601	358.45
203.819	305.94
204.037	235.83
204.255	269.12
204.473	204.65
204.691	492.27
204.909	226.63
205.127	295.4
205.345	175.15
205.562	178.93
205.78	147.63
205.998	186.84
206.216	191.79
206.434	209.54
206.652	215.1
206.87	212.47
207.088	194.28
207.306	241.46
207.523	210.71
207.741	208.17
207.959	217.72
208.177	255.87
208.395	265.51
208.612	318.24
208.83	276.88
209.048	317.28
209.266	2633.33
209.483	-1770.59
209.701	-2412
209.919	1145.31
210.136	14660
210.354	-1833.33
210.572	-178.69
210.79	544.86
211.007	231.32
211.225	655.93
211.442	189.39
211.66	92.77
211.878	90.47
212.095	100
212.313	72.54
212.53	50.11
212.748	36.71
212.966	50.48
213.183	56.69
213.401	56.67
213.618	45.75
213.836	36.66
214.053	45.42
214.271	31.13
214.488	36.01
214.705	53.93
214.923	52.8
215.14	54.31
215.358	48.99
215.575	61.11
215.793	68.55
216.01	82.45
216.227	79.07
216.445	75.19
216.662	72.35
216.879	71.15
217.097	62.37
217.314	65.28
217.531	70.56
217.749	85.71
217.966	83.24
218.183	68.47
218.4	34.58
218.618	47.48
218.835	62.3
219.052	61.45
219.269	56.41
219.487	63.37
219.704	56.2
219.921	44.5
220.138	32.8
220.355	27.6
220.572	28.64
220.79	44.68
221.007	31.64
221.224	19.88
221.441	22.39
221.658	30.58
221.875	26.97
222.092	32.26
222.309	47.22
222.526	46.29
222.743	42.24
222.96	42.84
223.177	39.34
223.394	40.81
223.611	40.86
223.828	45.36
224.045	47.1
224.262	53.9
224.479	49.37
224.696	42.96
224.913	41.51
225.13	42.95
225.347	46.19
225.564	45.36
225.781	46.72
225.997	41.73
226.214	36.93
226.431	32.11
226.648	23.26
226.865	22.21
227.082	19.86
227.298	19.2
227.515	16.09
227.732	12.43
227.949	11.11
228.165	10.4
228.382	10.32
228.599	9.15
228.816	8.99
229.032	8.38
229.249	7.9
229.466	8.05
229.682	7.9
229.899	7.91
230.116	8.37
230.332	8.03
230.549	7.8
230.765	8.31
230.982	9.77
231.199	10.24
231.415	13.12
231.632	13.66
231.848	15.06
232.065	13.72
232.281	15.11
232.498	15.29
232.714	17.11
232.931	17.93
233.147	17.32
233.364	16.25
233.58	15.68
233.797	14.33
234.013	14.82
234.23	13.08
234.446	13.85
234.662	13.34
234.879	12.8
235.095	12.75
235.312	13.05
235.528	12.16
235.744	9.92
235.961	11.36
236.177	10.05
236.393	9.51
236.61	9.06
236.826	7.72
237.042	7.29
237.258	7.19
237.475	6.97
237.691	5.14
237.907	5.91
238.123	9.82
238.339	8.96
238.556	9.43
238.772	8.93
238.988	8
239.204	9.05
239.42	10.63
239.636	11.33
239.853	10.55
240.069	11.25
240.285	11.01
240.501	10.15
240.717	10.56
240.933	10.24
241.149	10.12
241.365	10.11
241.581	9.88
241.797	9.21
242.013	9.42
242.229	9.57
242.445	9.56
242.661	9.76
242.877	9.62
243.093	9.41
243.309	9.52
243.525	9.02
243.741	9.23
243.957	10.02
244.173	9.73
244.388	9.46
244.604	8.9
244.82	8.57
245.036	7.9
245.252	7.31
245.468	7.35
245.683	7.82
245.899	7.91
246.115	8.04
246.331	7.62
246.547	7.91
246.762	7.59
246.978	7.75
247.194	7.62
247.409	7.92
247.625	7.88
247.841	7.65
248.057	7.37
248.272	7.41
248.488	7.61
248.703	7.75
248.919	7.62
249.135	7.58
249.35	7.96
249.566	8.64
249.782	8.59
249.997	8.97
250.213	9.78
250.428	10.12
250.644	10.38
250.859	9.55
251.075	9.94
251.29	10.18
251.506	11.23
251.721	11.02
251.937	10.12
252.152	9.91
252.368	10
252.583	9.7
252.798	9.92
253.014	10
253.229	10.28
253.445	9.33
253.66	9.34
253.875	8.54
254.091	7.95
254.306	8.33
254.521	8.37
254.737	8.82
254.952	8.07
255.167	7.21
255.383	7.7
255.598	7.23
255.813	8.08
256.028	7.49
256.244	7.27
256.459	7.59
256.674	7.25
256.889	7.09
257.104	6.31
257.32	6.58
257.535	6.47
257.75	6.08
257.965	6.2
258.18	5.88
258.395	5.85
258.61	6.18
258.826	6
259.041	5.97
259.256	5.97
259.471	5.81
259.686	5.6
259.901	5.57
260.116	5.69
260.331	5.81
260.546	5.69
260.761	5.8
260.976	5.66
261.191	5.5
261.406	5.49
261.621	5.6
261.836	5.85
262.05	5.77
262.265	5.74
262.48	5.33
262.695	5.28
262.91	5.16
263.125	5.22
263.34	5.13
263.555	5.43
263.769	5.41
263.984	5.28
264.199	5.36
264.414	5.79
264.629	6.85
264.843	7.58
265.058	7.27
265.273	7.47
265.488	7.62
265.702	8.05
265.917	7.77
266.132	7.91
266.346	7.78
266.561	7.72
266.776	7.48
266.99	7.05
267.205	6.78
267.42	6.58
267.634	6.63
267.849	6.47
268.063	6.4
268.278	6.74
268.492	6.16
268.707	5.86
268.922	5.56
269.136	6.4
269.351	5.86
269.565	5.58
269.78	6.3
269.994	6.43
270.209	6.03
270.423	5.79
270.637	5.51
270.852	5.53
271.066	5.82
271.281	5.96
271.495	5.39
271.709	5.36
271.924	5.54
272.138	5.07
272.353	4.91
272.567	5.13
272.781	4.88
272.996	4.95
273.21	5.32
273.424	5.29
273.638	5.16
273.853	5.19
274.067	5.22
274.281	5.24
274.495	5.38
274.71	5.42
274.924	5.61
275.138	5.87
275.352	5.63
275.566	5.41
275.781	5.14
275.995	5.43
276.209	5.58
276.423	5.54
276.637	5.2
276.851	5.38
277.065	5.7
277.279	5.72
277.493	5.8
277.707	5.99
277.921	6.11
278.135	6.02
278.349	6.08
278.563	6.05
278.777	6.48
278.991	6.81
279.205	6.79
279.419	6.11
279.633	5.82
279.847	5.64
280.061	5.83
280.275	5.48
280.489	5.81
280.703	5.47
280.917	5.36
281.131	4.97
281.344	4.75
281.558	4.38
281.772	4.71
281.986	4.77
282.2	4.73
282.414	4.53
282.627	4.8
282.841	4.43
283.055	4.54
283.269	4.38
283.482	4.49
283.696	4.6
283.91	4.55
284.123	4.66
284.337	4.76
284.551	5.01
284.764	5.14
284.978	5.03
285.192	5.28
285.405	5.02
285.619	5.06
285.833	5
286.046	4.62
286.26	4.78
286.473	4.85
286.687	4.48
286.9	4.16
287.114	3.96
287.327	3.54
287.541	3.22
287.754	3.56
287.968	3.83
288.181	3.81
288.395	4.25
288.608	4.59
288.822	4.37
289.035	4.58
289.248	4.41
289.462	4.78
289.675	4.91
289.889	4.96
290.102	4.89
290.315	4.55
290.529	4.96
290.742	4.8
290.955	4.4
291.169	4.71
291.382	4.78
291.595	5.27
291.808	4.93
292.022	5.06
292.235	5.05
292.448	4.99
292.661	5.08
292.875	4.58
293.088	5
293.301	4.96
293.514	4.71
293.727	5.38
293.94	5.31
294.153	5.33
294.367	5.39
294.58	5.41
294.793	5.31
295.006	5.43
295.219	5.77
295.432	5.23
295.645	5.44
295.858	5.03
296.071	4.48
296.284	4.22
296.497	4.45
296.71	4.68
296.923	5.09
297.136	5.18
297.349	5.24
297.562	5.23
297.775	5.64
297.988	5.59
298.201	6.03
298.414	6.19
298.626	6.44
298.839	6.33
299.052	6.26
299.265	5.72
299.478	5.63
299.691	5.54
299.903	5.41
300.116	5.16
300.329	5.14
300.542	5.02
300.755	5.02
300.967	4.78
301.18	4.81
301.393	5.06
301.605	5.45
301.818	5.71
302.031	5.73
302.243	5.66
302.456	5.85
302.669	5.87
302.881	5.97
303.094	5.72
303.307	6.17
303.519	5.81
303.732	5.39
303.944	5.19
304.157	5.24
304.37	5.31
304.582	5.38
304.795	5.37
305.007	5.61
305.22	5.56
305.432	6.05
305.645	5.87
305.857	6.81
306.069	7.14
306.282	7.42
306.494	7.38
306.707	7.11
306.919	6.94
307.132	6.86
307.344	7.18
307.556	7.58
307.769	7.46
307.981	7.68
308.193	7.24
308.406	7.25
308.618	7.1
308.83	6.79
309.043	6.86
309.255	7.22
309.467	7.06
309.679	6.46
309.892	5.88
310.104	6.01
310.316	5.65
310.528	5.33
310.74	5.23
310.953	5.19
311.165	5.57
311.377	5.87
311.589	5.82
311.801	5.98
312.013	6.24
312.225	6.51
312.437	6.41
312.649	6.6
312.862	6.93
313.074	7.01
313.286	7.25
313.498	6.88
313.71	6.84
313.922	6.94
314.134	7.16
314.346	7.07
314.558	7.58
314.77	7.64
314.982	7.79
315.193	7.9
315.405	8.24
315.617	8.3
315.829	8.71
316.041	8.75
316.253	8.24
316.465	8.51
316.677	8.58
316.888	8.23
317.1	7.79
317.312	7.8
317.524	7.69
317.736	7.97
317.947	7.87
318.159	8.42
318.371	8.32
318.583	8.96
318.794	8.85
319.006	9.07
319.218	8.98
319.43	9.24
319.641	9.33
319.853	9.83
320.064	9.25
320.276	9.79
320.488	9.07
320.699	9.3
320.911	9.17
321.123	8.92
321.334	8.37
321.546	8.52
321.757	8.66
321.969	8.45
322.18	8.62
322.392	9.24
322.603	9.06
322.815	9.15
323.026	9.41
323.238	9.72
323.449	9.47
323.661	9.56
323.872	9.69
324.083	9.83
324.295	10.28
324.506	9.79
324.718	9.69
324.929	9.44
325.14	9.52
325.352	9.49
325.563	9.36
325.774	9.48
325.986	10.13
326.197	10.18
326.408	10.43
326.62	10.21
326.831	10.36
327.042	10.24
327.253	10.52
327.464	10.67
327.676	10.8
327.887	10.94
328.098	11.52
328.309	11.33
328.52	11.88
328.732	12.34
328.943	12.83
329.154	13.06
329.365	13.34
329.576	13.42
329.787	13.61
329.998	13.38
330.209	13.8
330.42	13.96
330.631	14.58
330.842	14.34
331.053	14.24
331.264	14
331.475	14.03
331.686	14.27
331.897	14.77
332.108	15.26
332.319	15.89
332.53	15.7
332.741	15.62
332.952	15.32
333.163	15.21
333.374	14.93
333.585	15.5
333.795	15.63
334.006	15.45
334.217	15.3
334.428	15.04
334.639	14.55
334.849	14.18
335.06	14.29
335.271	14.45
335.482	14.56
335.692	14.65
335.903	14.34
336.114	14.46
336.325	14.44
336.535	14.43
336.746	14.49
336.957	14.63
337.167	15.13
337.378	14.77
337.589	14.79
337.799	14.68
338.01	14.71
338.22	14.82
338.431	14.56
338.642	14.36
338.852	14.21
339.063	14.24
339.273	14.13
339.484	13.99
339.694	14.02
339.905	13.76
340.115	13.93
340.326	13.85
340.536	13.59
340.746	13.87
340.957	14.15
341.167	13.97
341.378	13.73
341.588	13.54
341.799	13.51
342.009	13.47
342.219	13.48
342.43	13.33
342.64	13.57
342.85	13.72
343.061	13.52
343.271	13.33
343.481	13.23
343.691	13.19
343.902	13.49
344.112	13.47
344.322	13.4
344.532	13.32
344.743	13.63
344.953	13.52
345.163	13.22
345.373	13.28
345.583	13.28
345.793	13.47
346.004	13.58
346.214	13.5
346.424	13.66
346.634	13.83
346.844	13.83
347.054	13.56
347.264	13.47
347.474	13.6
347.684	13.52
347.894	13.72
348.104	13.94
348.314	13.81
348.524	13.66
348.734	13.16
348.944	13.6
349.154	14.02
349.364	13.9
349.574	13.8
349.784	14.02
349.994	14.16
350.204	14.05
350.413	13.97
350.623	14.23
350.833	14.15
351.043	14.41
351.253	14.27
351.463	14.33
351.672	14.42
351.882	14.59
352.092	14.42
352.302	14.37
352.511	14.49
352.721	14.27
352.931	14.32
353.141	14.25
353.35	14.13
353.56	13.79
353.77	13.52
353.979	13.37
354.189	13.29
354.399	13.37
354.608	13.5
354.818	13.38
355.027	13.29
355.237	13.11
355.447	13.4
355.656	13.33
355.866	13.32
356.075	13.28
356.285	13.42
356.494	13.37
356.704	13.21
356.913	13.17
357.123	13.16
357.332	13.27
357.542	13.22
357.751	13.18
357.96	13.16
358.17	13.03
358.379	12.88
358.589	12.81
358.798	12.95
359.007	12.75
359.217	12.81
359.426	13.01
359.635	13.03
359.845	12.99
360.054	12.76
360.263	12.86
360.472	13.04
360.682	13
360.891	12.93
361.1	12.79
361.309	12.95
361.519	12.89
361.728	12.73
361.937	12.78
362.146	12.75
362.355	12.94
362.564	12.96
362.774	12.89
362.983	12.88
363.192	12.85
363.401	12.67
363.61	12.65
363.819	12.44
364.028	12.19
364.237	12.12
364.446	11.85
364.655	11.69
364.864	11.61
365.073	11.59
365.282	11.72
365.491	11.55
365.7	11.72
365.909	11.7
366.118	11.77
366.327	12.01
366.536	12.04
366.745	12.19
366.954	12.05
367.162	12.01
367.371	12.06
367.58	12.11
367.789	12.36
367.998	12.16
368.207	12.02
368.415	11.9
368.624	11.68
368.833	11.62
369.042	11.8
369.25	12
369.459	12.14
369.668	11.86
369.877	11.58
370.085	11.57
370.294	11.97
370.503	12.07
370.711	12.1
370.92	12.06
371.129	11.89
371.337	11.73
371.546	11.75
371.754	11.64
371.963	11.9
372.171	12.25
372.38	12.05
372.589	11.85
372.797	11.61
373.006	11.43
373.214	11.44
373.423	11.38
373.631	11.35
373.84	11.31
374.048	11.11
374.256	10.88
374.465	10.69
374.673	10.74
374.882	10.61
375.09	10.74
375.298	10.9
375.507	10.83
375.715	10.59
375.923	10.38
376.132	10.08
376.34	9.93
376.548	9.99
376.757	9.81
376.965	9.62
377.173	9.46
377.381	9.52
377.59	9.44
377.798	9.48
378.006	9.57
378.214	9.75
378.423	9.86
378.631	9.92
378.839	9.7
379.047	9.64
379.255	9.72
379.463	9.68
379.671	9.72
379.879	9.78
380.088	9.62
380.296	9.68
380.504	9.49
380.712	9.38
380.92	9.25
381.128	9.36
381.336	9.27
381.544	9.23
381.752	9.15
381.96	8.86
382.168	8.75
382.376	8.94
382.584	9.1
382.791	8.91
382.999	8.88
383.207	9.1
383.415	9.13
383.623	9.12
383.831	9.06
384.039	9.29
384.247	9.36
384.454	9.25
384.662	9.14
384.87	8.86
385.078	9.05
385.285	9.07
385.493	8.98
385.701	8.77
385.909	8.81
386.116	8.92
386.324	8.66
386.532	8.7
386.739	8.55
386.947	8.39
387.155	8.5
387.362	8.47
387.57	8.47
387.778	8.61
387.985	8.71
388.193	8.71
388.4	8.63
388.608	8.78
388.816	8.63
389.023	8.82
389.231	8.84
389.438	8.79
389.646	8.77
389.853	8.87
390.061	8.57
390.268	8.43
390.475	8.35
390.683	8.31
390.89	8.17
391.098	8.19
391.305	8.13
391.512	8.02
391.72	7.9
391.927	7.85
392.135	7.57
392.342	7.56
392.549	7.58
392.756	7.4
392.964	7.21
393.171	7.16
393.378	6.98
393.586	7.04
393.793	7.17
394	7.21
394.207	7.3
394.414	7.4
394.622	7.48
394.829	7.49
395.036	7.52
395.243	7.63
395.45	7.68
395.657	7.78
395.864	7.59
396.072	7.48
396.279	7.47
396.486	7.16
396.693	7.17
396.9	7.31
397.107	7.17
397.314	7.27
397.521	7.3
397.728	7.29
397.935	7.38
398.142	7.5
398.349	7.65
398.556	7.52
398.763	7.67
398.97	7.54
399.177	7.21
399.383	7.23
399.59	7.19
399.797	7.23
400.004	7.18
400.211	7.08
400.418	6.9
400.625	6.95
400.831	6.98
401.038	7.05
401.245	7.14
401.452	7.32
401.658	7.3
401.865	7.3
402.072	7.05
402.279	6.93
402.485	6.79
402.692	6.82
402.899	6.74
403.105	6.77
403.312	6.54
403.519	6.46
403.725	6.49
403.932	6.65
404.138	6.8
404.345	6.96
404.552	7.1
404.758	7.24
404.965	7.15
405.171	7.19
405.378	7.15
405.584	7.22
405.791	7.36
405.997	7.23
406.204	7.1
406.41	7.11
406.617	7.1
406.823	7.07
407.029	7.11
407.236	7.15
407.442	7
407.649	6.93
407.855	6.92
408.061	6.76
408.268	6.72
408.474	6.77
408.68	6.59
408.887	6.61
409.093	6.69
409.299	6.58
409.505	6.65
409.712	6.69
409.918	6.75
410.124	6.76
410.33	7
410.537	7.08
410.743	7.19
410.949	7.13
411.155	7.11
411.361	7.06
411.567	7.08
411.773	7.01
411.98	6.97
412.186	6.85
412.392	6.95
412.598	6.79
412.804	6.77
413.01	6.61
413.216	6.81
413.422	6.61
413.628	6.62
413.834	6.54
414.04	6.55
414.246	6.57
414.452	6.68
414.658	6.73
414.864	6.67
415.07	6.81
415.275	6.76
415.481	6.8
415.687	6.94
415.893	6.95
416.099	6.96
416.305	7.02
416.511	6.98
416.716	7.09
416.922	6.93
417.128	6.93
417.334	6.82
417.539	6.81
417.745	6.63
417.951	6.56
418.157	6.56
418.362	6.57
418.568	6.5
418.774	6.53
418.979	6.42
419.185	6.51
419.391	6.52
419.596	6.54
419.802	6.55
420.008	6.59
420.213	6.71
420.419	6.7
420.624	6.72
420.83	6.81
421.035	6.84
421.241	6.85
421.446	6.85
421.652	6.85
421.857	6.87
422.063	6.87
422.268	6.86
422.474	6.83
422.679	6.85
422.885	6.84
423.09	6.74
423.295	6.73
423.501	6.8
423.706	6.74
423.911	6.76
424.117	6.77
424.322	6.79
424.527	6.75
424.733	6.72
424.938	6.64
425.143	6.7
425.349	6.79
425.554	6.78
425.759	6.73
425.964	6.8
426.169	6.8
426.375	6.76
426.58	6.79
426.785	6.82
426.99	6.79
427.195	6.84
427.4	6.85
427.605	6.83
427.811	6.83
428.016	6.79
428.221	6.79
428.426	6.79
428.631	6.82
428.836	6.8
429.041	6.91
429.246	6.86
429.451	6.89
429.656	6.82
429.861	6.88
430.066	6.91
430.271	6.98
430.476	6.94
430.681	6.93
430.886	6.81
431.09	6.84
431.295	6.91
431.5	7.04
431.705	7.01
431.91	6.93
432.115	6.84
432.32	6.92
432.524	6.92
432.729	7.01
432.934	7.03
433.139	7.09
433.343	7.06
433.548	7
433.753	7.01
433.958	7.11
434.162	7.19
434.367	7.17
434.572	7.05
434.776	7
434.981	6.92
435.186	6.94
435.39	6.98
435.595	7.03
435.799	6.96
436.004	6.99
436.209	7
436.413	7.11
436.618	7.28
436.822	7.34
437.027	7.34
437.231	7.33
437.436	7.31
437.64	7.27
437.845	7.24
438.049	7.35
438.253	7.31
438.458	7.26
438.662	7.08
438.867	7.04
439.071	6.96
439.275	7.09
439.48	7.08
439.684	7.07
439.888	7.07
440.093	7.1
440.297	7.05
440.501	7.02
440.706	7.06
440.91	7.15
441.114	7.1
441.318	7.19
441.523	7.15
441.727	7.21
441.931	7.21
442.135	7.22
442.339	7.22
442.543	7.19
442.748	7.26
442.952	7.18
443.156	7.14
443.36	7.17
443.564	7.14
443.768	7.16
443.972	7.07
444.176	7.15
444.38	7.21
444.584	7.28
444.788	7.37
444.992	7.27
445.196	7.27
445.4	7.33
445.604	7.34
445.808	7.31
446.012	7.22
446.216	7.35
446.42	7.31
446.624	7.19
446.828	7.16
447.032	7.07
447.235	7.12
447.439	7.11
447.643	7.06
447.847	7.1
448.051	7.08
448.254	7.13
448.458	7.04
448.662	7.04
448.866	7.12
449.069	7.08
449.273	7.15
449.477	7.18
449.681	7.2
449.884	7.21
450.088	7.18
450.292	7.32
450.495	7.34
450.699	7.29
450.902	7.37
451.106	7.27
451.31	7.38
451.513	7.41
451.717	7.27
451.92	7.22
452.124	7.11
452.327	7.13
452.531	6.98
452.734	6.96
452.938	7.14
453.141	7.09
453.345	7.23
453.548	7.15
453.752	7.02
453.955	7.14
454.158	7.26
454.362	7.38
454.565	7.34
454.769	7.4
454.972	7.4
455.175	7.38
455.379	7.36
455.582	7.3
455.785	7.37
455.988	7.4
456.192	7.47
456.395	7.46
456.598	7.47
456.801	7.41
457.005	7.53
457.208	7.51
457.411	7.52
457.614	7.48
457.817	7.46
458.021	7.28
458.224	7.35
458.427	7.34
458.63	7.27
458.833	7.26
459.036	7.23
459.239	7.17
459.442	7.12
459.645	7.08
459.848	7.05
460.051	7.09
460.254	7.14
460.457	7.11
460.66	7.07
460.863	7.13
461.066	7.1
461.269	7.2
461.472	7.18
461.675	7.19
461.878	7.18
462.081	7.24
462.284	7.32
462.486	7.35
462.689	7.44
462.892	7.42
463.095	7.45
463.298	7.57
463.5	7.56
463.703	7.51
463.906	7.66
464.109	7.69
464.311	7.67
464.514	7.7
464.717	7.66
464.92	7.68
465.122	7.62
465.325	7.65
465.528	7.55
465.73	7.54
465.933	7.65
