Data from 2938797__Reflection_03.txt Node
Date: Thu Mar 12 23:13:17 EDT 2015
User: robert
Spectrometer: USB4E03002
Autoset integration time: false
Trigger mode: 4
Integration Time (sec): 1.000000E-1
Scans to average: 10
Electric dark correction enabled: false
Nonlinearity correction enabled: false
Boxcar width: 5
Stray light correction enabled: false
XAxis mode: Wavelengths
Stop averaging: false
Number of Pixels in Spectrum: 3648
>>>>>Begin Spectral Data<<<<<
177.575	-37.74
177.794	-13.6
178.014	32.11
178.233	38.71
178.452	5.52
178.672	-9.36
178.891	-20.18
179.11	83.33
179.33	36.15
179.549	167.14
179.768	35.05
179.987	269.23
180.207	-53.76
180.426	-100.6
180.645	-4.35
180.864	33.61
181.084	47.03
181.303	54.43
181.522	21.77
181.741	53.54
181.96	26.14
182.179	43.34
182.398	52.56
182.618	68.22
182.837	91.96
183.056	47.37
183.275	39.22
183.494	53.88
183.713	69.87
183.932	88.14
184.151	58.3
184.37	180
184.589	-1088.24
184.808	-39.6
185.027	45.76
185.246	118.71
185.465	-113.64
185.684	41.82
185.903	282.61
186.122	-204.29
186.341	25
186.56	59.72
186.779	-11.76
186.998	-13.11
187.216	35.75
187.435	92.29
187.654	105.49
187.873	131.39
188.092	116.14
188.311	144.34
188.53	258.7
188.748	776
188.967	181.19
189.186	4030.77
189.405	-341.59
189.623	4812.5
189.842	1585.71
190.061	-336.13
190.28	-561.46
190.498	-417.65
190.717	-144.64
190.936	-743.75
191.154	314.81
191.373	310.58
191.592	-2157.14
191.81	-548.15
192.029	1641.67
192.248	628
192.466	239.51
192.685	72.97
192.904	293.59
193.122	234.48
193.341	256
193.559	127.86
193.778	150.92
193.996	131.37
194.215	73.22
194.433	46.95
194.652	38.49
194.87	30.74
195.089	7.18
195.307	-14.45
195.526	-9.09
195.744	-50.6
195.963	-3416.67
196.181	143.9
196.399	171.19
196.618	774.07
196.836	127.67
197.055	107.62
197.273	163.24
197.491	121.75
197.71	148.3
197.928	151.77
198.146	86.47
198.365	144.77
198.583	288.57
198.801	336.89
199.019	233.79
199.238	352.59
199.456	-1641.18
199.674	-122
199.892	-220.72
200.111	-462.96
200.329	7733.33
200.547	-135.33
200.765	-325.64
200.983	1905.26
201.202	-1393.33
201.42	237.64
201.638	185.13
201.856	305.7
202.074	136.31
202.292	147.22
202.51	82.22
202.728	166.42
202.946	119.61
203.165	93.73
203.383	75.2
203.601	98.61
203.819	-11.17
204.037	-103.61
204.255	-25.57
204.473	38.71
204.691	22.61
204.909	10.21
205.127	-34.02
205.345	-114.66
205.562	-579.17
205.78	0
205.998	-58.77
206.216	4.26
206.434	27.08
206.652	-11.15
206.87	6.38
207.088	50.25
207.306	89.77
207.523	127.78
207.741	99.63
207.959	93.13
208.177	105.75
208.395	105.92
208.612	127.95
208.83	124.4
209.048	132.9
209.266	127.17
209.483	123.6
209.701	98.75
209.919	61.53
210.136	63.12
210.354	51.42
210.572	54.61
210.79	6.43
211.007	-61.07
211.225	-170.7
211.442	-104.09
211.66	-68.79
211.878	-130.81
212.095	161.6
212.313	174.69
212.53	301.41
212.748	267.88
212.966	-260.92
213.183	-69.11
213.401	13.04
213.618	57.23
213.836	141.67
214.053	46.88
214.271	81.59
214.488	14.15
214.705	14.86
214.923	17.32
215.14	7.14
215.358	-2.53
215.575	-12.16
215.793	-5.01
216.01	-17.78
216.227	-5.03
216.445	13.69
216.662	11.4
216.879	27.34
217.097	33.83
217.314	53.49
217.531	50.14
217.749	42.23
217.966	59.23
218.183	52.45
218.4	37.59
218.618	26.01
218.835	19.32
219.052	25.42
219.269	24.74
219.487	8.06
219.704	8.72
219.921	19.04
220.138	7.25
220.355	-10.65
220.572	-19.02
220.79	-18.64
221.007	-24.6
221.224	-15.96
221.441	-11.14
221.658	-12.23
221.875	-4.17
222.092	-8.99
222.309	-9.83
222.526	0.41
222.743	9.76
222.96	9.38
223.177	15.59
223.394	14.11
223.611	15.48
223.828	3.57
224.045	6.65
224.262	6.14
224.479	5.33
224.696	7.16
224.913	4.98
225.13	-0.65
225.347	-0.55
225.564	-3.09
225.781	-0.54
225.997	0.5
226.214	9.05
226.431	7.31
226.648	8.04
226.865	11.02
227.082	6.71
227.298	7.83
227.515	8.63
227.732	8.42
227.949	8.29
228.165	8.87
228.382	7.89
228.599	6.15
228.816	6.1
229.032	5.95
229.249	5.42
229.466	6.2
229.682	6.51
229.899	6.33
230.116	6.96
230.332	6.92
230.549	7.01
230.765	7.04
230.982	8.26
231.199	8.06
231.415	7.55
231.632	7.1
231.848	6.56
232.065	5.13
232.281	4.85
232.498	3.72
232.714	3.21
232.931	2.73
233.147	3.81
233.364	2.85
233.58	3.17
233.797	5.18
234.013	4.8
234.23	6.17
234.446	5.21
234.662	5.71
234.879	5.28
235.095	6.82
235.312	6.63
235.528	4.98
235.744	5.28
235.961	5.8
236.177	2.65
236.393	3.25
236.61	1.92
236.826	3.46
237.042	3.83
237.258	6.07
237.475	5.81
237.691	5.24
237.907	5.72
238.123	5.33
238.339	6.28
238.556	8.09
238.772	8.05
238.988	8.83
239.204	7.75
239.42	9.19
239.636	7.77
239.853	7.6
240.069	8.31
240.285	8.81
240.501	9.14
240.717	8.17
240.933	8.17
241.149	8.04
241.365	7.86
241.581	7.7
241.797	6.72
242.013	7.35
242.229	6.59
242.445	6.54
242.661	6.76
242.877	6.81
243.093	6.61
243.309	6.44
243.525	6.1
243.741	5.63
243.957	5.7
244.173	6.07
244.388	5.5
244.604	6.19
244.82	5.4
245.036	5.05
245.252	5.06
245.468	6.07
245.683	5.93
245.899	6.38
246.115	6.54
246.331	6.47
246.547	6.47
246.762	6.4
246.978	6.47
247.194	6.57
247.409	6.79
247.625	6.64
247.841	6.27
248.057	6.51
248.272	6.27
248.488	6.3
248.703	6.28
248.919	6.25
249.135	6.3
249.35	6.13
249.566	6.29
249.782	5.89
249.997	5.92
250.213	6.03
250.428	5.47
250.644	4.93
250.859	5.31
251.075	5.81
251.29	6.06
251.506	5.67
251.721	5.87
251.937	5.67
252.152	5.76
252.368	5.66
252.583	5.53
252.798	5.56
253.014	6.29
253.229	6.23
253.445	5.76
253.66	4.77
253.875	4.23
254.091	3.73
254.306	4.54
254.521	3.76
254.737	4.01
254.952	3.72
255.167	3.18
255.383	2.86
255.598	1.62
255.813	1.79
256.028	2.8
256.244	3.51
256.459	4.57
256.674	2.56
256.889	2.93
257.104	2.91
257.32	3.19
257.535	4.26
257.75	4.96
257.965	5.47
258.18	6.06
258.395	5.8
258.61	6.18
258.826	5.51
259.041	5.69
259.256	5.68
259.471	5.43
259.686	5.54
259.901	5.25
260.116	5.17
260.331	5.32
260.546	5.01
260.761	4.94
260.976	4.83
261.191	5.01
261.406	5.36
261.621	5.45
261.836	5.83
262.05	5.41
262.265	5.71
262.48	5.45
262.695	5.12
262.91	5.23
263.125	5.26
263.34	4.56
263.555	4.19
263.769	3.82
263.984	3.83
264.199	3.37
264.414	3.66
264.629	3.69
264.843	3.53
265.058	3.68
265.273	3.86
265.488	3.84
265.702	3.99
265.917	3.75
266.132	3.76
266.346	3.43
266.561	3.39
266.776	3.56
266.99	3.25
267.205	3.26
267.42	3.57
267.634	3.56
267.849	3.97
268.063	3.85
268.278	3.97
268.492	4.07
268.707	4.23
268.922	4.45
269.136	4.45
269.351	4.56
269.565	4.23
269.78	3.84
269.994	3.99
270.209	3.5
270.423	3.59
270.637	3.95
270.852	3.85
271.066	3.83
271.281	4
271.495	4.33
271.709	4.17
271.924	4.62
272.138	4.94
272.353	4.88
272.567	5.23
272.781	5.18
272.996	5.23
273.21	5.37
273.424	5.42
273.638	5.44
273.853	5.27
274.067	5.62
274.281	5.22
274.495	4.96
274.71	5.06
274.924	5.07
275.138	5.05
275.352	4.57
275.566	4.66
275.781	4.9
275.995	4.48
276.209	4.17
276.423	4.02
276.637	4.47
276.851	3.97
277.065	3.74
277.279	3.14
277.493	3.99
277.707	4.04
277.921	3.88
278.135	3.59
278.349	3.53
278.563	3.79
278.777	3.64
278.991	3.51
279.205	3.79
279.419	3.91
279.633	4.37
279.847	3.8
280.061	4.04
280.275	3.78
280.489	3.63
280.703	3.76
280.917	3.49
281.131	3.31
281.344	3.08
281.558	3.52
281.772	3.42
281.986	3.53
282.2	3.53
282.414	3.48
282.627	3.47
282.841	3.97
283.055	3.85
283.269	3.96
283.482	3.78
283.696	4.36
283.91	4.02
284.123	3.93
284.337	3.73
284.551	3.72
284.764	3.84
284.978	4.02
285.192	3.8
285.405	4.25
285.619	4.32
285.833	4.77
286.046	4.65
286.26	4.73
286.473	4.95
286.687	4.86
286.9	4.7
287.114	4.47
287.327	4.43
287.541	4.54
287.754	4.25
287.968	3.98
288.181	3.92
288.395	3.97
288.608	4.3
288.822	3.91
289.035	4.02
289.248	4.41
289.462	4.56
289.675	4.7
289.889	4.67
290.102	4.87
290.315	5.05
290.529	5.15
290.742	5.03
290.955	5.01
291.169	5
291.382	4.95
291.595	5.13
291.808	5.55
292.022	5.1
292.235	4.96
292.448	4.96
292.661	4.86
292.875	4.79
293.088	4.78
293.301	4.6
293.514	4.81
293.727	4.8
293.94	4.76
294.153	4.43
294.367	4.68
294.58	4.9
294.793	5
295.006	5.2
295.219	5.54
295.432	5.89
295.645	5.82
295.858	5.75
296.071	5.82
296.284	5.48
296.497	5.69
296.71	5.54
296.923	5.58
297.136	5.21
297.349	5.02
297.562	4.7
297.775	4.61
297.988	4.62
298.201	4.82
298.414	4.88
298.626	5.29
298.839	4.98
299.052	5.07
299.265	5.04
299.478	5.6
299.691	6.13
299.903	5.92
300.116	5.65
300.329	5.45
300.542	5.13
300.755	4.97
300.967	4.92
301.18	5.21
301.393	5.47
301.605	5.58
301.818	5.1
302.031	5.43
302.243	5.95
302.456	6.11
302.669	6.38
302.881	7.03
303.094	7.14
303.307	6.95
303.519	7.07
303.732	7.15
303.944	7.07
304.157	7.36
304.37	7.06
304.582	7.41
304.795	7.55
305.007	7.3
305.22	6.94
305.432	6.92
305.645	7.22
305.857	6.72
306.069	6.61
306.282	6.27
306.494	6.08
306.707	6.16
306.919	5.6
307.132	5.21
307.344	5.81
307.556	5.74
307.769	5.88
307.981	5.65
308.193	5.87
308.406	6.19
308.618	6.4
308.83	6.75
309.043	6.45
309.255	6.49
309.467	6.79
309.679	6.56
309.892	6.91
310.104	7.1
310.316	7.15
310.528	7.1
310.74	6.62
310.953	6.53
311.165	6.19
311.377	6.23
311.589	6.46
311.801	6.35
312.013	6.65
312.225	6.53
312.437	6.38
312.649	6.25
312.862	6.59
313.074	7.03
313.286	7.23
313.498	7.64
313.71	7.8
313.922	7.41
314.134	7.38
314.346	7.26
314.558	7.56
314.77	7.99
314.982	7.79
315.193	7.64
315.405	7.66
315.617	7.43
315.829	7.06
316.041	7.29
316.253	7.58
316.465	7.76
316.677	7.87
316.888	7.52
317.1	7.26
317.312	7.52
317.524	7.26
317.736	7.09
317.947	7.41
318.159	7.5
318.371	7.33
318.583	7.42
318.794	7.9
319.006	7.6
319.218	7.29
319.43	7.34
319.641	7.38
319.853	7.57
320.064	7.52
320.276	7.51
320.488	7.66
320.699	7.55
320.911	7.29
321.123	6.92
321.334	6.94
321.546	7.24
321.757	6.83
321.969	6.8
322.18	7.39
322.392	7.81
322.603	8.12
322.815	8.01
323.026	8.49
323.238	8.5
323.449	8.38
323.661	8.6
323.872	8.76
324.083	9.03
324.295	9.53
324.506	9.01
324.718	8.77
324.929	8.7
325.14	8.94
325.352	8.75
325.563	9.26
325.774	9.51
325.986	9.37
326.197	9.37
326.408	9.47
326.62	9.41
326.831	9.89
327.042	10.3
327.253	10.39
327.464	10.65
327.676	11.02
327.887	10.8
328.098	10.66
328.309	10.86
328.52	11.06
328.732	11.3
328.943	11.57
329.154	10.91
329.365	10.7
329.576	10.5
329.787	10.48
329.998	10.17
330.209	10.09
330.42	10.49
330.631	10.47
330.842	10.96
331.053	10.66
331.264	10.48
331.475	11.21
331.686	11.66
331.897	11.74
332.108	11.49
332.319	11.7
332.53	11.76
332.741	11.61
332.952	11.59
333.163	10.78
333.374	10.82
333.585	10.66
333.795	10.45
334.006	10.3
334.217	10.31
334.428	10.35
334.639	10.27
334.849	9.97
335.06	10
335.271	10.15
335.482	10.29
335.692	10.6
335.903	10.78
336.114	10.76
336.325	10.66
336.535	10.52
336.746	10.55
336.957	10.56
337.167	11.05
337.378	11.07
337.589	11.09
337.799	11.1
338.01	10.94
338.22	10.72
338.431	10.68
338.642	10.48
338.852	10.56
339.063	10.75
339.273	10.4
339.484	10.56
339.694	10.33
339.905	10.22
340.115	10.42
340.326	10.36
340.536	10.48
340.746	10.79
340.957	10.72
341.167	10.77
341.378	10.61
341.588	10.61
341.799	10.51
342.009	10.58
342.219	10.55
342.43	10.13
342.64	9.83
342.85	9.79
343.061	9.78
343.271	10
343.481	9.88
343.691	9.7
343.902	9.76
344.112	9.33
344.322	9.25
344.532	9.07
344.743	9.31
344.953	9.68
345.163	9.85
345.373	9.76
345.583	9.81
345.793	10.01
346.004	10.11
346.214	10.22
346.424	10.39
346.634	10.54
346.844	10.58
347.054	10.63
347.264	10.69
347.474	10.48
347.684	10.28
347.894	10.51
348.104	10.49
348.314	10.35
348.524	10.29
348.734	10.31
348.944	10.36
349.154	10.38
349.364	10.21
349.574	10.03
349.784	9.94
349.994	9.55
350.204	9.39
350.413	9.2
350.623	9.14
350.833	9.31
351.043	9.3
351.253	9.15
351.463	9.17
351.672	9.29
351.882	9.17
352.092	9.24
352.302	9.46
352.511	9.18
352.721	9.25
352.931	9.19
353.141	9.19
353.35	9.21
353.56	9.4
353.77	9.23
353.979	9.01
354.189	9.11
354.399	9.4
354.608	9.8
354.818	10.17
355.027	10.32
355.237	10.37
355.447	10.09
355.656	10.12
355.866	9.74
356.075	9.93
356.285	10.06
356.494	10.1
356.704	9.79
356.913	9.65
357.123	9.4
357.332	9.27
357.542	9.19
357.751	9.26
357.96	9.32
358.17	9.4
358.379	9.32
358.589	9.26
358.798	9.2
359.007	9.28
359.217	9.42
359.426	9.41
359.635	9.49
359.845	9.6
360.054	9.7
360.263	9.65
360.472	9.71
360.682	9.86
360.891	9.86
361.1	9.79
361.309	9.78
361.519	9.61
361.728	9.63
361.937	9.73
362.146	9.9
362.355	9.79
362.564	9.68
362.774	9.65
362.983	9.55
363.192	9.69
363.401	9.8
363.61	9.79
363.819	9.77
364.028	9.54
364.237	9.46
364.446	9.26
364.655	9.07
364.864	9.06
365.073	9.19
365.282	9.17
365.491	9.19
365.7	9.11
365.909	9.11
366.118	9.27
366.327	9.38
366.536	9.13
366.745	9.15
366.954	9.38
367.162	9.29
367.371	9.02
367.58	8.88
367.789	8.79
367.998	8.93
368.207	8.84
368.415	8.78
368.624	8.99
368.833	9.29
369.042	9.36
369.25	9.21
369.459	9.51
369.668	9.76
369.877	10.02
370.085	9.98
370.294	9.74
370.503	9.74
370.711	9.89
370.92	9.82
371.129	9.63
371.337	9.71
371.546	9.63
371.754	9.51
371.963	9.25
372.171	9.11
372.38	9.18
372.589	9.2
372.797	8.97
373.006	8.56
373.214	8.42
373.423	8.28
373.631	8
373.84	8.24
374.048	8.19
374.256	8.3
374.465	8.41
374.673	8.15
374.882	8.12
375.09	8.31
375.298	8.28
375.507	8.04
375.715	8.13
375.923	8.09
376.132	8.11
376.34	8.05
376.548	7.88
376.757	7.68
376.965	7.66
377.173	7.51
377.381	7.54
377.59	7.55
377.798	7.6
378.006	7.51
378.214	7.54
378.423	7.3
378.631	7.19
378.839	7.18
379.047	7.32
379.255	7.22
379.463	7.23
379.671	6.93
379.879	6.81
380.088	6.82
380.296	6.72
380.504	6.59
380.712	6.73
380.92	6.69
381.128	6.85
381.336	6.61
381.544	6.55
381.752	6.71
381.96	6.92
382.168	6.99
382.376	7.19
382.584	7.21
382.791	7.21
382.999	6.93
383.207	6.86
383.415	6.77
383.623	6.77
383.831	6.82
384.039	6.67
384.247	6.46
384.454	6.46
384.662	6.17
384.87	6.02
385.078	5.8
385.285	5.91
385.493	6.14
385.701	6.02
385.909	6.2
386.116	6
386.324	5.83
386.532	5.84
386.739	5.82
386.947	5.87
387.155	5.89
387.362	6.17
387.57	6.14
387.778	5.93
387.985	5.88
388.193	5.57
388.4	5.49
388.608	5.51
388.816	5.55
389.023	5.52
389.231	5.39
389.438	5.39
389.646	5.29
389.853	5.15
390.061	4.87
390.268	4.85
390.475	5.01
390.683	5.26
390.89	5.36
391.098	5.28
391.305	5.18
391.512	5.12
391.72	5.15
391.927	5.1
392.135	5.1
392.342	5.21
392.549	5.05
392.756	4.89
392.964	4.78
393.171	4.8
393.378	4.71
393.586	4.75
393.793	4.82
394	4.76
394.207	4.82
394.414	4.99
394.622	4.97
394.829	5.16
395.036	5.14
395.243	5.09
395.45	4.96
395.657	5.13
395.864	5.02
396.072	5
396.279	4.94
396.486	4.79
396.693	4.55
396.9	4.68
397.107	4.51
397.314	4.58
397.521	4.69
397.728	4.54
397.935	4.26
398.142	4.31
398.349	4.37
398.556	4.31
398.763	4.31
398.97	4.36
399.177	4.34
399.383	4.36
399.59	4.22
399.797	4.03
400.004	4.04
400.211	4
400.418	3.87
400.625	3.68
400.831	3.86
401.038	3.71
401.245	3.72
401.452	3.62
401.658	3.64
401.865	3.79
402.072	3.98
402.279	3.94
402.485	4.12
402.692	4.07
402.899	4
403.105	3.94
403.312	3.88
403.519	3.9
403.725	3.85
403.932	3.76
404.138	3.73
404.345	3.68
404.552	3.66
404.758	3.68
404.965	3.8
405.171	3.93
405.378	3.79
405.584	3.81
405.791	3.84
405.997	3.83
406.204	3.89
406.41	3.57
406.617	3.4
406.823	3.49
407.029	3.54
407.236	3.3
407.442	3.11
407.649	3.07
407.855	3.13
408.061	3.03
408.268	3.01
408.474	2.93
408.68	3.29
408.887	3.34
409.093	3.33
409.299	3.25
409.505	3.38
409.712	3.56
409.918	3.56
410.124	3.64
410.33	3.67
410.537	3.68
410.743	3.52
410.949	3.46
411.155	3.62
411.361	3.51
411.567	3.4
411.773	3.52
411.98	3.46
412.186	3.46
412.392	3.4
412.598	3.24
412.804	3.29
413.01	3.46
413.216	3.41
413.422	3.23
413.628	3.11
413.834	3.24
414.04	3.21
414.246	3.15
414.452	3.08
414.658	3.03
414.864	3.04
415.07	2.96
415.275	3.06
415.481	3.06
415.687	3.03
415.893	3.22
416.099	3.13
416.305	3.09
416.511	3.21
416.716	3.29
416.922	3.26
417.128	3.27
417.334	3.28
417.539	3.22
417.745	3.24
417.951	3.23
418.157	3.28
418.362	3.12
418.568	3.06
418.774	2.96
418.979	2.89
419.185	2.89
419.391	2.84
419.596	2.86
419.802	2.85
420.008	2.84
420.213	3.48
420.419	3.41
420.624	3.44
420.83	3.41
421.035	3.47
421.241	3.55
421.446	3.53
421.652	3.62
421.857	3.54
422.063	3.55
422.268	3.46
422.474	2.78
422.679	2.76
422.885	2.85
423.09	2.87
423.295	2.74
423.501	2.71
423.706	2.72
423.911	2.61
424.117	2.62
424.322	2.66
424.527	2.69
424.733	2.83
424.938	2.77
425.143	2.78
425.349	2.78
425.554	2.86
425.759	2.86
425.964	2.87
426.169	2.95
426.375	3.02
426.58	2.83
426.785	2.7
426.99	2.64
427.195	2.64
427.4	2.55
427.605	2.63
427.811	2.61
428.016	2.5
428.221	2.46
428.426	2.32
428.631	2.25
428.836	2.49
429.041	2.6
429.246	2.6
429.451	2.83
429.656	2.86
429.861	2.8
430.066	2.87
430.271	3.02
430.476	3.05
430.681	3.08
430.886	3.12
431.09	3
431.295	2.98
431.5	3.06
431.705	2.83
431.91	2.94
432.115	2.83
432.32	2.7
432.524	2.62
432.729	2.63
432.934	2.61
433.139	2.6
433.343	2.65
433.548	2.67
433.753	2.46
433.958	2.55
434.162	2.45
434.367	2.39
434.572	2.48
434.776	2.5
434.981	2.55
435.186	2.62
435.39	2.55
435.595	2.62
435.799	2.73
436.004	2.92
436.209	2.89
436.413	2.83
436.618	3.03
436.822	3.02
437.027	3.04
437.231	2.9
437.436	2.97
437.64	3.04
437.845	2.96
438.049	2.85
438.253	2.83
438.458	2.68
438.662	2.76
438.867	2.72
439.071	2.62
439.275	2.58
439.48	2.67
439.684	2.53
439.888	2.55
440.093	2.38
440.297	2.39
440.501	2.28
440.706	2.37
440.91	2.26
441.114	2.17
441.318	2.18
441.523	2.15
441.727	2.15
441.931	2.29
442.135	2.19
442.339	2.33
442.543	2.4
442.748	2.51
442.952	2.59
443.156	2.58
443.36	2.61
443.564	2.66
443.768	2.67
443.972	2.53
444.176	2.4
444.38	2.42
444.584	2.41
444.788	2.31
444.992	2.27
445.196	2.16
445.4	2.28
445.604	2.31
445.808	2.33
446.012	2.3
446.216	2.27
446.42	2.32
446.624	2.37
446.828	2.36
447.032	2.35
447.235	2.35
447.439	2.42
447.643	2.36
447.847	2.29
448.051	2.29
448.254	2.23
448.458	2.27
448.662	2.27
448.866	2.18
449.069	2.11
449.273	2.07
449.477	2.1
449.681	1.97
449.884	2
450.088	2.05
450.292	2.02
450.495	2.16
450.699	2.2
450.902	2.23
451.106	2.22
451.31	2.28
451.513	2.24
451.717	2.23
451.92	2.38
452.124	2.35
452.327	2.48
452.531	2.35
452.734	2.37
452.938	2.35
453.141	2.25
453.345	2.26
453.548	2.29
453.752	2.47
453.955	2.42
454.158	2.38
454.362	2.4
454.565	2.29
454.769	2.33
454.972	2.22
455.175	2.33
455.379	2.29
455.582	2.32
455.785	2.32
455.988	2.19
456.192	2.22
456.395	2.21
456.598	2.14
456.801	2.22
457.005	2.28
457.208	2.37
457.411	2.24
457.614	2.3
457.817	2.28
458.021	2.3
458.224	2.37
458.427	2.29
458.63	2.29
458.833	2.26
459.036	2.17
459.239	2.27
459.442	2.26
459.645	2.29
459.848	2.27
460.051	2.31
460.254	2.27
460.457	2.27
460.66	2.3
460.863	2.26
461.066	2.36
461.269	2.38
461.472	2.33
461.675	2.26
461.878	2.2
462.081	2.24
462.284	2.19
462.486	2.26
462.689	2.32
462.892	2.34
463.095	2.4
463.298	2.3
463.5	2.34
463.703	2.24
463.906	2.3
464.109	2.37
464.311	2.36
464.514	2.46
464.717	2.34
464.92	2.3
465.122	2.36
465.325	2.34
465.528	2.35
465.73	2.32
465.933	2.4
466.135	2.45
466.338	2.49
466.541	2.4
466.743	2.26
466.946	2.29
467.148	2.19
467.351	2.16
467.553	2.22
467.756	2.31
467.958	2.37
468.161	2.39
468.363	2.34
468.566	2.38
468.768	2.49
468.971	2.49
469.173	2.6
469.375	2.64
469.578	2.51
469.78	2.43
469.983	2.38
