Data from 2938746__Reflection_02.txt Node
Date: Sun Mar 15 11:39:26 EDT 2015
User: robert
Spectrometer: USB4E03002
Autoset integration time: false
Trigger mode: 4
Integration Time (sec): 1.000000E-1
Scans to average: 10
Electric dark correction enabled: false
Nonlinearity correction enabled: false
Boxcar width: 5
Stray light correction enabled: false
XAxis mode: Wavelengths
Stop averaging: false
Number of Pixels in Spectrum: 3648
>>>>>Begin Spectral Data<<<<<
177.575	134
177.794	115.87
178.014	123.43
178.233	137.34
178.452	125.12
178.672	200
178.891	209.02
179.11	-251.16
179.33	-53.01
179.549	-50.77
179.768	-199.3
179.987	-542.86
180.207	-141.22
180.426	-1196.15
180.645	-1055.22
180.864	-12071.43
181.084	712.5
181.303	-3509.52
181.522	453.89
181.741	394.39
181.96	653.66
182.179	183.04
182.398	165.49
182.618	118.76
182.837	100.46
183.056	72.83
183.275	78.27
183.494	97.74
183.713	79.18
183.932	72.51
184.151	59.38
184.37	65.9
184.589	77.67
184.808	75.37
185.027	66.92
185.246	102.43
185.465	97.31
185.684	90.63
185.903	61.39
186.122	61.03
186.341	78.37
186.56	131.17
186.779	57.1
186.998	57.52
187.216	3.19
187.435	24.2
187.654	0.6
187.873	-148
188.092	-15.43
188.311	74.46
188.53	55.77
188.748	30.05
188.967	50.43
189.186	50.48
189.405	70.54
189.623	210.47
189.842	116.21
190.061	109.31
190.28	100.67
190.498	190.91
190.717	167
190.936	298.41
191.154	259.78
191.373	227.1
191.592	130.39
191.81	91.29
192.029	68.38
192.248	89.44
192.466	118.37
192.685	130.34
192.904	109.6
193.122	88.56
193.341	133.66
193.559	115.56
193.778	101.94
193.996	183.82
194.215	360.61
194.433	-1492.59
194.652	459.09
194.87	201.54
195.089	273.26
195.307	315.09
195.526	335.44
195.744	505.19
195.963	-393.68
196.181	-1183.72
196.399	-1156
196.618	-390.4
196.836	-384.48
197.055	-183.33
197.273	-339.81
197.491	-380.79
197.71	-1232.14
197.928	-435.71
198.146	-294.92
198.365	-193.58
198.583	-520.69
198.801	864.71
199.019	254.94
199.238	147.57
199.456	100.45
199.674	144.12
199.892	187.23
200.111	236.27
200.329	301.17
200.547	142.98
200.765	119.78
200.983	115.38
201.202	118.12
201.42	126.33
201.638	130.59
201.856	133.7
202.074	98.39
202.292	91.63
202.51	99.29
202.728	99.26
202.946	127.04
203.165	152.06
203.383	126.37
203.601	132.3
203.819	123.45
204.037	113.04
204.255	124.25
204.473	108.72
204.691	116.3
204.909	102.83
205.127	108.37
205.345	78.86
205.562	92
205.78	107.02
205.998	108.27
206.216	132.9
206.434	142.07
206.652	149.85
206.87	285.94
207.088	867.65
207.306	226.48
207.523	277.22
207.741	360.42
207.959	355.37
208.177	159.76
208.395	126.97
208.612	106.83
208.83	88.07
209.048	104.63
209.266	68.11
209.483	52.41
209.701	55.1
209.919	30.21
210.136	20.6
210.354	3.49
210.572	11.75
210.79	51.22
211.007	41.44
211.225	74.01
211.442	52.21
211.66	72.11
211.878	73.47
212.095	90.84
212.313	89.33
212.53	96.64
212.748	104.17
212.966	96.59
213.183	76.41
213.401	90.01
213.618	90.4
213.836	94.06
214.053	92.33
214.271	87.88
214.488	69.92
214.705	75.37
214.923	82.94
215.14	85.99
215.358	72.22
215.575	96.73
215.793	85.61
216.01	81.9
216.227	88.88
216.445	88.94
216.662	82.4
216.879	75.55
217.097	72.32
217.314	65.09
217.531	72.96
217.749	71.09
217.966	60.67
218.183	56.74
218.4	53.51
218.618	48.69
218.835	36.98
219.052	50.89
219.269	53.87
219.487	57.49
219.704	59.08
219.921	33.96
220.138	33.87
220.355	35.46
220.572	39.28
220.79	36.1
221.007	29.88
221.224	33.29
221.441	33.72
221.658	36.98
221.875	35.26
222.092	32.13
222.309	35.17
222.526	36.12
222.743	36.04
222.96	35.81
223.177	36.1
223.394	41.07
223.611	35.96
223.828	30.49
224.045	24.77
224.262	24.76
224.479	21.67
224.696	22.76
224.913	27.61
225.13	25.78
225.347	26.85
225.564	21.36
225.781	20.55
225.997	23.73
226.214	25.17
226.431	25.1
226.648	21.32
226.865	20.97
227.082	19.38
227.298	14.65
227.515	13.67
227.732	11.28
227.949	11.67
228.165	9.6
228.382	9.59
228.599	8.31
228.816	7.96
229.032	8.81
229.249	9.39
229.466	10.03
229.682	9.83
229.899	9.94
230.116	10.08
230.332	10.39
230.549	11.33
230.765	11.08
230.982	13.43
231.199	12.97
231.415	12.19
231.632	12.72
231.848	11.07
232.065	11.26
232.281	10.34
232.498	10.42
232.714	9.74
232.931	8.22
233.147	9.13
233.364	7.43
233.58	7.47
233.797	7.31
234.013	6.07
234.23	5.74
234.446	7.77
234.662	8.66
234.879	6.84
235.095	6.81
235.312	8
235.528	6.98
235.744	7.49
235.961	8.45
236.177	9.28
236.393	10.14
236.61	11.8
236.826	10.49
237.042	11.47
237.258	13.77
237.475	14.65
237.691	14.47
237.907	14.9
238.123	13.49
238.339	12.42
238.556	12.74
238.772	12.81
238.988	12.55
239.204	14.7
239.42	13.64
239.636	11.95
239.853	11.83
240.069	11.94
240.285	11.14
240.501	11.26
240.717	11.29
240.933	10.17
241.149	8.39
241.365	8.02
241.581	7.16
241.797	7.85
242.013	8.62
242.229	8.44
242.445	7.94
242.661	8.43
242.877	8.46
243.093	8.77
243.309	9.26
243.525	9.92
243.741	10.45
243.957	10.9
244.173	10.03
244.388	8.95
244.604	8.98
244.82	9.92
245.036	9.18
245.252	8.46
245.468	7.73
245.683	7.61
245.899	7.43
246.115	6.75
246.331	6.09
246.547	6.12
246.762	6.67
246.978	6.35
247.194	6.33
247.409	6.58
247.625	6.65
247.841	6.53
248.057	6.39
248.272	6.51
248.488	6.05
248.703	6.05
248.919	5.74
249.135	5.84
249.35	6.47
249.566	6.09
249.782	5.68
249.997	5.58
250.213	5.2
250.428	5.43
250.644	5.07
250.859	6.03
251.075	6.24
251.29	7.03
251.506	6.09
251.721	5.72
251.937	5.11
252.152	4.8
252.368	4.61
252.583	5.56
252.798	4.67
253.014	4.72
253.229	4.41
253.445	4.38
253.66	4.14
253.875	5.33
254.091	5.46
254.306	5.58
254.521	6.62
254.737	7.52
254.952	7.53
255.167	8.75
255.383	8.24
255.598	9.35
255.813	8.67
256.028	8.29
256.244	6.85
256.459	5.73
256.674	5.99
256.889	4.06
257.104	3.76
257.32	3.5
257.535	3.33
257.75	3.34
257.965	3.3
258.18	3.54
258.395	3.51
258.61	3.55
258.826	3.85
259.041	4.02
259.256	4.13
259.471	4.31
259.686	4.38
259.901	4.28
260.116	4.19
260.331	3.97
260.546	4.01
260.761	4.29
260.976	4.16
261.191	3.93
261.406	3.93
261.621	4.5
261.836	4.21
262.05	4.38
262.265	4.48
262.48	4.78
262.695	4.72
262.91	4.79
263.125	4.64
263.34	5.58
263.555	6.53
263.769	6.45
263.984	6.93
264.199	7.54
264.414	6.97
264.629	7.16
264.843	6.87
265.058	7.53
265.273	7.7
265.488	7.66
265.702	7.63
265.917	6.84
266.132	6.9
266.346	6.78
266.561	6.27
266.776	6.39
266.99	6.56
267.205	6.68
267.42	6.27
267.634	5.83
267.849	5.66
268.063	5.23
268.278	5.33
268.492	5.17
268.707	4.79
268.922	4.5
269.136	4.26
269.351	4.13
269.565	4.29
269.78	4.24
269.994	4.76
270.209	4.81
270.423	4.51
270.637	4.75
270.852	4.75
271.066	4.48
271.281	4.95
271.495	4.58
271.709	4.52
271.924	4.63
272.138	5.02
272.353	4.68
272.567	4.64
272.781	4.7
272.996	4.65
273.21	4.5
273.424	4.79
273.638	4.92
273.853	4.88
274.067	4.98
274.281	5.26
274.495	4.37
274.71	5.03
274.924	5.05
275.138	5.13
275.352	5.62
275.566	5.83
275.781	5.34
275.995	5.23
276.209	5.72
276.423	5.14
276.637	4.46
276.851	5.13
277.065	4.87
277.279	5.1
277.493	5.22
277.707	4.51
277.921	4.68
278.135	4.94
278.349	4.61
278.563	4.19
278.777	4.83
278.991	5.01
279.205	4.64
279.419	4.27
279.633	4.03
279.847	3.54
280.061	3.86
280.275	3.49
280.489	3.56
280.703	3.67
280.917	4.11
281.131	3.65
281.344	4.01
281.558	4.35
281.772	4.62
281.986	4.78
282.2	5.64
282.414	5.59
282.627	5.53
282.841	5.37
283.055	5.38
283.269	5.4
283.482	5.56
283.696	5.28
283.91	5.29
284.123	4.94
284.337	4.63
284.551	4.47
284.764	4.03
284.978	4.2
285.192	4.43
285.405	4.59
285.619	4.85
285.833	4.89
286.046	5.04
286.26	4.84
286.473	5.17
286.687	5.18
286.9	5.28
287.114	5.59
287.327	5.62
287.541	5.55
287.754	5.38
287.968	4.7
288.181	4.59
288.395	4.14
288.608	4.38
288.822	4.05
289.035	4.18
289.248	3.94
289.462	3.76
289.675	3.62
289.889	3.59
290.102	3.36
290.315	3.89
290.529	4.05
290.742	4.22
290.955	4.48
291.169	4.4
291.382	4.48
291.595	4.28
291.808	4.23
292.022	4.93
292.235	4.94
292.448	5.2
292.661	4.6
292.875	4.7
293.088	4.74
293.301	4.04
293.514	4.62
293.727	4.53
293.94	5
294.153	5.25
294.367	4.7
294.58	4.75
294.793	4.55
295.006	4.86
295.219	4.93
295.432	5.02
295.645	5.18
295.858	4.83
296.071	5
296.284	4.62
296.497	4.78
296.71	4.7
296.923	4.51
297.136	4.57
297.349	4.7
297.562	4.46
297.775	4.22
297.988	4.3
298.201	4.58
298.414	4.8
298.626	4.72
298.839	4.6
299.052	4.8
299.265	5.23
299.478	5.3
299.691	5.58
299.903	5.86
300.116	5.93
300.329	6.25
300.542	5.9
300.755	5.59
300.967	5.72
301.18	5.87
301.393	5.77
301.605	5.65
301.818	5.6
302.031	5.4
302.243	5.62
302.456	5.98
302.669	5.89
302.881	6.17
303.094	6.45
303.307	6.76
303.519	6.72
303.732	6.92
303.944	6.79
304.157	7.25
304.37	7.34
304.582	7.22
304.795	7.18
305.007	6.71
305.22	6.93
305.432	7.03
305.645	6.76
305.857	6.77
306.069	6.55
306.282	6.39
306.494	5.82
306.707	5.83
306.919	5.71
307.132	5.48
307.344	5.8
307.556	5.55
307.769	5.31
307.981	5.46
308.193	5.2
308.406	5.53
308.618	5.66
308.83	5.86
309.043	5.98
309.255	5.98
309.467	6.28
309.679	6.46
309.892	6.38
310.104	6.2
310.316	6.09
310.528	6.34
310.74	6
310.953	6.15
311.165	6.45
311.377	6.09
311.589	6.04
311.801	5.92
312.013	5.83
312.225	6.17
312.437	6.63
312.649	6.8
312.862	6.54
313.074	6.97
313.286	7.03
313.498	6.83
313.71	6.88
313.922	7.27
314.134	7.73
314.346	8.24
314.558	8.05
314.77	7.55
314.982	7.97
315.193	8.73
315.405	8.34
315.617	8.14
315.829	8.37
316.041	9
316.253	8.73
316.465	8.55
316.677	8.32
316.888	8.76
317.1	9.04
317.312	8.94
317.524	8.64
317.736	9.34
317.947	9.81
318.159	10.03
318.371	9.7
318.583	9.87
318.794	10.01
319.006	9.8
319.218	9.66
319.43	9.57
319.641	9.56
319.853	10.12
320.064	10.31
320.276	10.23
320.488	10.33
320.699	10.81
320.911	11.03
321.123	10.95
321.334	10.75
321.546	10.73
321.757	10.61
321.969	10.78
322.18	10.39
322.392	10.56
322.603	11.41
322.815	11.28
323.026	10.85
323.238	10.57
323.449	10.67
323.661	11.09
323.872	11.19
324.083	11.78
324.295	12.04
324.506	12.4
324.718	11.92
324.929	11.89
325.14	12.06
325.352	12.73
325.563	13.2
325.774	13.5
325.986	13.8
326.197	13.96
326.408	14.33
326.62	14.07
326.831	13.59
327.042	14.31
327.253	14.32
327.464	14.75
327.676	14.81
327.887	15.21
328.098	15.56
328.309	16.01
328.52	16.56
328.732	16.54
328.943	17.21
329.154	17.89
329.365	17.98
329.576	18.2
329.787	18.45
329.998	18.85
330.209	18.82
330.42	18.82
330.631	18.7
330.842	18.59
331.053	19.03
331.264	19.39
331.475	19.81
331.686	20.05
331.897	20.11
332.108	20.1
332.319	19.92
332.53	20.6
332.741	20.98
332.952	21.56
333.163	21.47
333.374	20.99
333.585	21.15
333.795	21.24
334.006	21.5
334.217	21.77
334.428	21.96
334.639	21.87
334.849	21.71
335.06	21.73
335.271	21.78
335.482	22.1
335.692	22.43
335.903	22.3
336.114	22.46
336.325	22.36
336.535	22.46
336.746	22.19
336.957	22.48
337.167	22.31
337.378	22.1
337.589	22.2
337.799	22.14
338.01	22.17
338.22	22.18
338.431	21.48
338.642	21.45
338.852	21.21
339.063	21.49
339.273	21.16
339.484	21.04
339.694	21.43
339.905	20.99
340.115	20.92
340.326	21
340.536	20.87
340.746	21.1
340.957	21.15
341.167	21.03
341.378	21.01
341.588	21.06
341.799	21.14
342.009	20.99
342.219	20.91
342.43	20.69
342.64	20.51
342.85	20.5
343.061	20.64
343.271	20.11
343.481	20.02
343.691	19.75
343.902	19.82
344.112	19.81
344.322	19.86
344.532	20.02
344.743	20.27
344.953	20.45
345.163	20.36
345.373	20.53
345.583	20.81
345.793	21.18
346.004	21.28
346.214	21.27
346.424	21.23
346.634	20.96
346.844	20.45
347.054	20.56
347.264	20.48
347.474	20.59
347.684	20.61
347.894	20.48
348.104	20.14
348.314	20.07
348.524	20.58
348.734	20.27
348.944	20.67
349.154	20.75
349.364	20.56
349.574	20.22
349.784	20.34
349.994	19.9
350.204	20.02
350.413	20.1
350.623	20.14
350.833	19.83
351.043	19.98
351.253	19.42
351.463	19.81
351.672	19.96
351.882	20.12
352.092	20.02
352.302	20.14
352.511	20.23
352.721	19.99
352.931	20.16
353.141	19.79
353.35	19.68
353.56	19.81
353.77	19.81
353.979	19.4
354.189	19.35
354.399	19.34
354.608	19.5
354.818	19.15
355.027	19.35
355.237	19.21
355.447	19.2
355.656	19.39
355.866	19.25
356.075	18.88
356.285	19.03
356.494	19
356.704	18.6
356.913	18.25
357.123	18.45
357.332	18.52
357.542	18.48
357.751	18.4
357.96	18.43
358.17	18.71
358.379	18.51
358.589	18.79
358.798	18.94
359.007	19.07
359.217	19.21
359.426	19.07
359.635	18.98
359.845	18.84
360.054	19.07
360.263	18.94
360.472	18.74
360.682	19.33
360.891	19.03
361.1	19.01
361.309	18.89
361.519	18.74
361.728	18.75
361.937	18.77
362.146	18.94
362.355	18.81
362.564	18.91
362.774	18.86
362.983	18.53
363.192	18.45
363.401	18.24
363.61	18.34
363.819	18.56
364.028	18.65
364.237	18.59
364.446	18.46
364.655	18.54
364.864	18.54
365.073	18.99
365.282	19.27
365.491	19.29
365.7	19.49
365.909	19.32
366.118	19.31
366.327	19.08
366.536	19.01
366.745	18.88
366.954	19.23
367.162	19.07
367.371	18.45
367.58	18.48
367.789	18.36
367.998	18.24
368.207	18.45
368.415	18.53
368.624	18.5
368.833	18.7
369.042	18.74
369.25	18.61
369.459	18.95
369.668	19.1
369.877	18.65
370.085	18.87
370.294	18.69
370.503	18.65
370.711	18.6
370.92	18.71
371.129	18.7
371.337	18.6
371.546	18.52
371.754	18.34
371.963	18.35
372.171	18.2
372.38	18.3
372.589	18.39
372.797	18.4
373.006	18.2
373.214	18.1
373.423	17.79
373.631	17.63
373.84	17.28
374.048	17.3
374.256	17.39
374.465	17.74
374.673	17.53
374.882	17.63
375.09	17.7
375.298	17.89
375.507	18.06
375.715	17.97
375.923	18.07
376.132	18.25
376.34	17.98
376.548	17.93
376.757	17.76
376.965	17.8
377.173	17.64
377.381	17.59
377.59	17.18
377.798	17.05
378.006	17.11
378.214	17.27
378.423	17.22
378.631	17.28
378.839	17.03
379.047	17.26
379.255	17.15
379.463	17.14
379.671	17.09
379.879	17.03
380.088	16.82
380.296	16.82
380.504	16.57
380.712	16.5
380.92	16.54
381.128	16.68
381.336	16.43
381.544	16.37
381.752	16.13
381.96	16.01
382.168	16.32
382.376	16.74
382.584	16.87
382.791	17.1
382.999	17.16
383.207	16.95
383.415	17.05
383.623	17
383.831	17.05
384.039	17.27
384.247	17.35
384.454	17.23
384.662	17.16
384.87	17.08
385.078	16.76
385.285	16.6
385.493	16.59
385.701	16.39
385.909	16.34
386.116	16.31
386.324	16.42
386.532	16.41
386.739	16.59
386.947	16.57
387.155	16.51
387.362	16.73
387.57	16.8
387.778	17.05
387.985	17.29
388.193	17.56
388.4	17.76
388.608	17.69
388.816	17.72
389.023	17.65
389.231	17.7
389.438	17.75
389.646	17.73
389.853	17.8
390.061	17.8
390.268	17.55
390.475	17.2
390.683	17.12
390.89	17.05
391.098	16.98
391.305	16.88
391.512	16.7
391.72	16.71
391.927	16.58
392.135	16.5
392.342	16.24
392.549	16.26
392.756	16.31
392.964	16.14
393.171	16.25
393.378	15.98
393.586	16.01
393.793	16.03
394	16.03
394.207	16.05
394.414	15.95
394.622	16.06
394.829	16.03
395.036	15.9
395.243	15.92
395.45	15.67
395.657	15.95
395.864	16.02
396.072	15.77
396.279	15.58
396.486	15.55
396.693	15.49
396.9	15.35
397.107	15.19
397.314	15.43
397.521	15.22
397.728	15.41
397.935	15.38
398.142	15.22
398.349	15.44
398.556	15.57
398.763	15.5
398.97	15.55
399.177	15.63
399.383	15.8
399.59	15.7
399.797	15.86
400.004	15.63
400.211	15.56
400.418	15.79
400.625	15.68
400.831	15.61
401.038	15.72
401.245	15.98
401.452	16.1
401.658	16.1
401.865	16.16
402.072	16.27
402.279	16.43
402.485	16.56
402.692	16.35
402.899	16.41
403.105	16.43
403.312	16.43
403.519	16.14
403.725	16.03
403.932	16.04
404.138	16.19
404.345	16.23
404.552	16.32
404.758	16.25
404.965	16.3
405.171	16.4
405.378	16.33
405.584	16.26
405.791	16.39
405.997	16.41
406.204	16.49
406.41	16.36
406.617	16.34
406.823	16.2
407.029	16.17
407.236	16.23
407.442	16.21
407.649	16.33
407.855	16.3
408.061	16.42
408.268	16.34
408.474	16.29
408.68	16.36
408.887	16.28
409.093	16.34
409.299	16.4
409.505	16
409.712	15.94
409.918	15.88
410.124	16.09
410.33	16.04
410.537	16.22
410.743	16.09
410.949	16.04
411.155	16.19
411.361	16.08
411.567	16.12
411.773	16.35
411.98	16.37
412.186	16.36
412.392	16.14
412.598	15.95
412.804	15.79
413.01	15.89
413.216	15.74
413.422	15.75
413.628	15.81
413.834	15.87
414.04	15.78
414.246	15.83
414.452	15.99
414.658	16.1
414.864	16.24
415.07	16.38
415.275	16.35
415.481	16.37
415.687	16.3
415.893	16.37
416.099	16.28
416.305	16.58
416.511	16.59
416.716	16.44
416.922	16.35
417.128	16.32
417.334	16.28
417.539	16.22
417.745	16.22
417.951	16.19
418.157	16.13
418.362	16.06
418.568	15.93
418.774	15.83
418.979	15.84
419.185	15.9
419.391	15.84
419.596	15.77
419.802	15.87
420.008	15.89
420.213	15.89
420.419	15.91
420.624	15.84
420.83	15.92
421.035	15.93
421.241	15.97
421.446	15.86
421.652	15.95
421.857	15.97
422.063	15.88
422.268	15.9
422.474	15.81
422.679	15.76
422.885	15.94
423.09	15.86
423.295	15.78
423.501	15.81
423.706	15.91
423.911	15.92
424.117	15.85
424.322	16
424.527	15.94
424.733	15.99
424.938	16.03
425.143	15.91
425.349	15.92
425.554	15.98
425.759	15.92
425.964	15.96
426.169	16
426.375	16.01
426.58	15.9
426.785	16.1
426.99	16.06
427.195	16.04
427.4	16.21
427.605	16.23
427.811	16.36
428.016	16.5
428.221	16.36
428.426	16.25
428.631	16.32
428.836	16.3
429.041	16.24
429.246	16.46
429.451	16.68
429.656	16.61
429.861	16.65
430.066	16.64
430.271	16.51
430.476	16.54
430.681	16.48
430.886	16.73
431.09	16.8
431.295	16.77
431.5	16.72
431.705	16.49
431.91	16.46
432.115	16.49
432.32	16.42
432.524	16.39
432.729	16.49
432.934	16.58
433.139	16.44
433.343	16.41
433.548	16.44
433.753	16.42
433.958	16.55
434.162	16.58
434.367	16.58
434.572	16.65
434.776	16.74
434.981	16.72
435.186	16.71
435.39	16.73
435.595	16.75
435.799	16.77
436.004	16.86
436.209	16.84
436.413	16.85
436.618	16.8
436.822	16.71
437.027	16.78
437.231	16.76
437.436	16.78
437.64	16.77
437.845	16.72
438.049	16.64
438.253	16.55
438.458	16.54
438.662	16.55
438.867	16.58
439.071	16.7
439.275	16.59
439.48	16.63
439.684	16.64
439.888	16.63
440.093	16.65
440.297	16.73
440.501	16.75
440.706	16.74
440.91	16.69
441.114	16.67
441.318	16.55
441.523	16.48
441.727	16.56
441.931	16.49
442.135	16.46
442.339	16.51
442.543	16.4
442.748	16.42
442.952	16.33
443.156	16.49
443.36	16.52
443.564	16.55
443.768	16.67
443.972	16.52
444.176	16.49
444.38	16.53
444.584	16.46
444.788	16.52
444.992	16.54
445.196	16.58
445.4	16.48
445.604	16.47
445.808	16.55
446.012	16.57
446.216	16.63
446.42	16.69
446.624	16.72
446.828	16.77
447.032	16.66
447.235	16.6
447.439	16.66
447.643	16.75
447.847	16.81
448.051	16.74
448.254	16.67
448.458	16.57
448.662	16.58
448.866	16.55
449.069	16.54
449.273	16.67
449.477	16.69
449.681	16.75
449.884	16.63
450.088	16.51
450.292	16.49
450.495	16.6
450.699	16.63
450.902	16.57
451.106	16.46
451.31	16.46
451.513	16.46
451.717	16.54
451.92	16.42
452.124	16.49
452.327	16.45
452.531	16.52
452.734	16.36
452.938	16.35
453.141	16.44
453.345	16.56
453.548	16.56
453.752	16.48
453.955	16.42
454.158	16.46
454.362	16.3
454.565	16.4
454.769	16.4
454.972	16.52
455.175	16.69
455.379	16.63
455.582	16.52
455.785	16.6
455.988	16.73
456.192	16.75
456.395	16.68
456.598	16.82
456.801	16.78
457.005	16.74
457.208	16.8
457.411	16.73
457.614	16.69
457.817	16.78
458.021	16.74
458.224	16.66
458.427	16.62
458.63	16.66
458.833	16.73
459.036	16.78
459.239	16.84
459.442	16.85
459.645	16.88
459.848	16.87
460.051	16.82
460.254	16.72
460.457	16.71
460.66	16.68
460.863	16.68
