Data from 2938818__Reflection_02.txt Node
Date: Thu Mar 12 14:55:17 EDT 2015
User: robert
Spectrometer: USB4E03002
Autoset integration time: false
Trigger mode: 4
Integration Time (sec): 1.000000E-1
Scans to average: 10
Electric dark correction enabled: false
Nonlinearity correction enabled: false
Boxcar width: 5
Stray light correction enabled: false
XAxis mode: Wavelengths
Stop averaging: false
Number of Pixels in Spectrum: 3648
>>>>>Begin Spectral Data<<<<<
177.575	-481.02
177.794	-459.76
178.014	-255.12
178.233	-198.96
178.452	-220.76
178.672	-242.42
178.891	-214.29
179.11	-277.27
179.33	-298.41
179.549	-317.21
179.768	-405.13
179.987	-378.5
180.207	-491.5
180.426	-809.66
180.645	-2085.71
180.864	-2570.87
181.084	-6621.95
181.303	2194.35
181.522	26054.55
181.741	-7410.53
181.96	-1929.49
182.179	-4305.8
182.398	-11016
182.618	-7909.37
182.837	6412.5
183.056	2227.83
183.275	898.61
183.494	1072.41
183.713	1048.75
183.932	694.05
184.151	664.9
184.37	537.56
184.589	662.97
184.808	708.65
185.027	750.42
185.246	712.88
185.465	997.08
185.684	1296.59
185.903	744.3
186.122	712.09
186.341	955.18
186.56	805.32
186.779	985.37
186.998	733.6
187.216	571.4
187.435	609.38
187.654	765.85
187.873	642.3
188.092	646.67
188.311	966.18
188.53	808.77
188.748	666.11
188.967	1001.79
189.186	568.14
189.405	784.62
189.623	983.4
189.842	1038.21
190.061	1218.93
190.28	1241.23
190.498	946.9
190.717	767.28
190.936	1247.03
191.154	1287.77
191.373	589
191.592	757.96
191.81	568.6
192.029	672.75
192.248	726.43
192.466	603.5
192.685	718.98
192.904	739.61
193.122	1090.03
193.341	1057.78
193.559	1127.44
193.778	3235.48
193.996	-2636.28
194.215	-1789.66
194.433	-18147.06
194.652	1390.83
194.87	3486.21
195.089	2037.75
195.307	2702.75
195.526	2495.69
195.744	2294.74
195.963	3075.25
196.181	1649.75
196.399	1342.62
196.618	2693.58
196.836	5049.09
197.055	-1985.93
197.273	5893.75
197.491	4975.86
197.71	9670
197.928	6787.8
198.146	4457.38
198.365	1024.54
198.583	1072.8
198.801	758.22
199.019	900
199.238	1053.76
199.456	643.22
199.674	1003.61
199.892	1203.11
200.111	1380.47
200.329	1199.5
200.547	1122.39
200.765	-101800
200.983	5226.32
201.202	-11227.78
201.42	14821.43
201.638	1942.45
201.856	17950
202.074	-15433.33
202.292	3789.71
202.51	5291.84
202.728	1461.83
202.946	1977.78
203.165	1041.89
203.383	1248.18
203.601	896.76
203.819	599.59
204.037	846.79
204.255	978.81
204.473	1092.98
204.691	2589.47
204.909	1583.69
205.127	2218
205.345	1598.61
205.562	-26362.5
205.78	1657.81
205.998	931.6
206.216	776.33
206.434	489.84
206.652	416.77
206.87	397.74
207.088	327.12
207.306	299.13
207.523	295.65
207.741	271.95
207.959	263.39
208.177	274.62
208.395	328.83
208.612	376.63
208.83	409.82
209.048	484.17
209.266	349.18
209.483	386.8
209.701	445.13
209.919	420.76
210.136	448.54
210.354	478.99
210.572	474.27
210.79	433.42
211.007	432.69
211.225	419.31
211.442	412.04
211.66	466.05
211.878	406.18
212.095	272.36
212.313	224.58
212.53	218.9
212.748	190.64
212.966	214.16
213.183	223.3
213.401	193.3
213.618	207.17
213.836	189.22
214.053	211.64
214.271	210.9
214.488	387.09
214.705	434.13
214.923	394.64
215.14	453.16
215.358	478.63
215.575	465.35
215.793	693.5
216.01	540.3
216.227	741.57
216.445	574.16
216.662	495.04
216.879	411.92
217.097	486.1
217.314	520.91
217.531	451.77
217.749	500.52
217.966	420.75
218.183	375.39
218.4	395.07
218.618	313.25
218.835	288.4
219.052	250.88
219.269	240.94
219.487	231.21
219.704	213.36
219.921	198.66
220.138	165.62
220.355	174.92
220.572	161.54
220.79	154.03
221.007	151.05
221.224	161.77
221.441	168.98
221.658	164.14
221.875	153.79
222.092	143.16
222.309	145.68
222.526	149.43
222.743	133.68
222.96	125.02
223.177	132.54
223.394	131.45
223.611	120.97
223.828	126.31
224.045	125.68
224.262	125.59
224.479	123.96
224.696	112.34
224.913	103.58
225.13	104.25
225.347	105.22
225.564	93.45
225.781	83.9
225.997	83.75
226.214	70.98
226.431	59.97
226.648	52.42
226.865	44.19
227.082	37.86
227.298	34
227.515	29.15
227.732	26.35
227.949	24.8
228.165	22.39
228.382	19.49
228.599	18.4
228.816	18.59
229.032	18.19
229.249	17.88
229.466	17.36
229.682	16.99
229.899	17.66
230.116	17.18
230.332	16.3
230.549	18.21
230.765	18.76
230.982	19.95
231.199	20.27
231.415	21.77
231.632	23.34
231.848	25.33
232.065	26.57
232.281	28.23
232.498	29.44
232.714	33.01
232.931	32.78
233.147	32.21
233.364	32.57
233.58	34.47
233.797	33.43
234.013	33.51
234.23	33.9
234.446	32.39
234.662	30.87
234.879	30.77
235.095	29.73
235.312	31.32
235.528	32.07
235.744	31.95
235.961	31
236.177	32.01
236.393	32.19
236.61	31.23
236.826	33.6
237.042	34.81
237.258	35.02
237.475	35.6
237.691	35.81
237.907	36.34
238.123	36.86
238.339	36.93
238.556	36.51
238.772	35.85
238.988	35.17
239.204	33.24
239.42	30.47
239.636	29.51
239.853	28.93
240.069	26.59
240.285	24.98
240.501	23.67
240.717	22.01
240.933	19.85
241.149	19.32
241.365	18.56
241.581	17.32
241.797	17.48
242.013	16.57
242.229	15.57
242.445	14.79
242.661	14.55
242.877	13.97
243.093	14.01
243.309	14.91
243.525	14.02
243.741	13.95
243.957	15.74
244.173	15.99
244.388	16.73
244.604	16.42
244.82	16.69
245.036	16.21
245.252	15.92
245.468	14.25
245.683	12.89
245.899	12.13
246.115	11.67
246.331	10.39
246.547	9.67
246.762	9
246.978	9.06
247.194	9.02
247.409	8.73
247.625	8.77
247.841	9.57
248.057	9.87
248.272	10.48
248.488	11.03
248.703	10.97
248.919	11.65
249.135	12.32
249.35	12.73
249.566	13.27
249.782	14.38
249.997	15.26
250.213	15.05
250.428	14.44
250.644	14.26
250.859	13.92
251.075	14.59
251.29	14.55
251.506	14.57
251.721	14.17
251.937	14.07
252.152	14.31
252.368	13.89
252.583	13.26
252.798	13.78
253.014	13.66
253.229	14.15
253.445	14.72
253.66	14.26
253.875	14.92
254.091	15.62
254.306	15.79
254.521	15.98
254.737	16.75
254.952	17.02
255.167	16.64
255.383	17.6
255.598	17.46
255.813	16.4
256.028	16.91
256.244	16.24
256.459	16.41
256.674	16.2
256.889	16.46
257.104	15.75
257.32	16.36
257.535	15.41
257.75	14.59
257.965	13.61
258.18	12.9
258.395	11.62
258.61	10.68
258.826	9.6
259.041	8.94
259.256	8.15
259.471	7.78
259.686	7.21
259.901	7.25
260.116	7
260.331	6.88
260.546	6.84
260.761	7.02
260.976	7.44
261.191	7.88
261.406	8.31
261.621	8.67
261.836	9.07
262.05	9.48
262.265	10.22
262.48	10.5
262.695	11.1
262.91	11.95
263.125	12.61
263.34	12.62
263.555	12.82
263.769	12.99
263.984	12.98
264.199	12.92
264.414	13.67
264.629	13.84
264.843	13.76
265.058	13.47
265.273	13.22
265.488	12.88
265.702	12.3
265.917	11.64
266.132	11.38
266.346	11.23
266.561	11.46
266.776	11.35
266.99	10.78
267.205	10.79
267.42	11.25
267.634	11.64
267.849	11.19
268.063	11.13
268.278	11.38
268.492	11.52
268.707	11.48
268.922	11.26
269.136	10.8
269.351	10.66
269.565	10.17
269.78	9.51
269.994	8.99
270.209	9.21
270.423	9.52
270.637	9.75
270.852	9.52
271.066	9.68
271.281	9.4
271.495	9.32
271.709	9
271.924	9.22
272.138	9.17
272.353	8.94
272.567	9.14
272.781	8.87
272.996	8.68
273.21	8.7
273.424	8.54
273.638	8.9
273.853	8.76
274.067	8.79
274.281	9.31
274.495	9.27
274.71	9.61
274.924	9.67
275.138	9.45
275.352	9.23
275.566	9.46
275.781	9.51
275.995	9.47
276.209	9.79
276.423	10.14
276.637	10.02
276.851	10.46
277.065	10.14
277.279	9.7
277.493	10.15
277.707	10.19
277.921	9.86
278.135	9.88
278.349	9.8
278.563	9.72
278.777	10.25
278.991	9.79
279.205	9.14
279.419	9.23
279.633	9.46
279.847	9.84
280.061	9.91
280.275	9.79
280.489	9.81
280.703	9.58
280.917	9.52
281.131	8.69
281.344	8.75
281.558	9.04
281.772	9.07
281.986	8.84
282.2	8.02
282.414	8.05
282.627	7.97
282.841	7.86
283.055	7.94
283.269	7.99
283.482	8.06
283.696	7.85
283.91	7.59
284.123	7.18
284.337	7.24
284.551	7.18
284.764	6.96
284.978	7.13
285.192	7.01
285.405	6.56
285.619	6.49
285.833	6.56
286.046	6.61
286.26	6.5
286.473	6.52
286.687	6.48
286.9	6.88
287.114	7.03
287.327	7.16
287.541	7.11
287.754	8.05
287.968	7.99
288.181	7.97
288.395	7.99
288.608	8.27
288.822	8.47
289.035	8.47
289.248	8.47
289.462	8.32
289.675	7.93
289.889	8
290.102	7.11
290.315	6.97
290.529	6.92
290.742	7.01
290.955	7.07
291.169	7.26
291.382	7.46
291.595	7.61
291.808	7.76
292.022	8.2
292.235	8.64
292.448	8.85
292.661	8.93
292.875	9.4
293.088	9.41
293.301	9.58
293.514	9.74
293.727	10.23
293.94	9.79
294.153	9.83
294.367	9.6
294.58	9.39
294.793	9.41
295.006	9.44
295.219	9.27
295.432	9.41
295.645	9.19
295.858	9.01
296.071	8.51
296.284	8.8
296.497	8.72
296.71	8.38
296.923	8.38
297.136	8.5
297.349	8.72
297.562	8.85
297.775	8.91
297.988	8.78
298.201	8.8
298.414	8.9
298.626	8.86
298.839	8.87
299.052	9.46
299.265	9.29
299.478	9.28
299.691	9.33
299.903	9.24
300.116	9.32
300.329	9.99
300.542	10.11
300.755	10.28
300.967	10.23
301.18	10.5
301.393	10.56
301.605	10.59
301.818	10.97
302.031	11.11
302.243	11.14
302.456	11.24
302.669	10.69
302.881	10.55
303.094	10.61
303.307	10.66
303.519	10.45
303.732	10.33
303.944	10.63
304.157	10.47
304.37	10.22
304.582	10.46
304.795	10.16
305.007	10.89
305.22	11.11
305.432	10.85
305.645	11.07
305.857	11.58
306.069	11.86
306.282	11.83
306.494	11.93
306.707	12
306.919	12.27
307.132	12.43
307.344	12.17
307.556	12.11
307.769	12.39
307.981	12.35
308.193	11.87
308.406	11.61
308.618	11.78
308.83	11.77
309.043	11.66
309.255	11.16
309.467	11.24
309.679	10.94
309.892	10.98
310.104	10.9
310.316	11.2
310.528	11.29
310.74	11.25
310.953	11.33
311.165	11.18
311.377	11.29
311.589	11.52
311.801	11.66
312.013	11.66
312.225	11.72
312.437	12.01
312.649	11.79
312.862	12.04
313.074	12.12
313.286	11.93
313.498	12.3
313.71	12.37
313.922	12.36
314.134	12.12
314.346	12.11
314.558	12.52
314.77	12.6
314.982	12.76
315.193	12.91
315.405	12.89
315.617	12.85
315.829	12.69
316.041	12.62
316.253	12.91
316.465	12.86
316.677	13.63
316.888	13.71
317.1	13.52
317.312	13.44
317.524	12.95
317.736	13.39
317.947	14.23
318.159	14.31
318.371	14.93
318.583	14.77
318.794	15.36
319.006	14.99
319.218	14.46
319.43	14.29
319.641	14.56
319.853	15.07
320.064	14.95
320.276	14.47
320.488	14.7
320.699	14.2
320.911	13.91
321.123	13.78
321.334	14.08
321.546	14.06
321.757	14.45
321.969	14.17
322.18	13.94
322.392	13.8
322.603	13.99
322.815	13.71
323.026	14.11
323.238	13.99
323.449	13.63
323.661	13.79
323.872	13.61
324.083	13.77
324.295	13.61
324.506	13.46
324.718	13.56
324.929	13.59
325.14	14.03
325.352	13.77
325.563	14.14
325.774	14.42
325.986	14.35
326.197	14.65
326.408	14.33
326.62	14.67
326.831	14.67
327.042	14.78
327.253	14.45
327.464	14.32
327.676	14.3
327.887	14.1
328.098	13.86
328.309	13.67
328.52	13.71
328.732	13.89
328.943	13.79
329.154	13.91
329.365	13.89
329.576	13.95
329.787	14.13
329.998	14.44
330.209	14.96
330.42	15.26
330.631	15.66
330.842	15.85
331.053	15.36
331.264	15.25
331.475	15.53
331.686	15.19
331.897	14.99
332.108	14.96
332.319	14.82
332.53	14.67
332.741	14.66
332.952	14.24
333.163	14.1
333.374	14.45
333.585	14.56
333.795	14.78
334.006	15.11
334.217	15.53
334.428	15.47
334.639	15.3
334.849	14.89
335.06	14.79
335.271	14.78
335.482	14.71
335.692	14.81
335.903	14.95
336.114	14.57
336.325	14.64
336.535	14.8
336.746	14.74
336.957	14.85
337.167	15.26
337.378	15.45
337.589	15.45
337.799	15.27
338.01	15.12
338.22	14.87
338.431	15.34
338.642	15.36
338.852	15.08
339.063	14.66
339.273	14.73
339.484	14.65
339.694	14.56
339.905	14.37
340.115	14.51
340.326	14.56
340.536	14.91
340.746	14.34
340.957	14.21
341.167	14.26
341.378	14.54
341.588	14.28
341.799	14.15
342.009	14.19
342.219	14.26
342.43	14.24
342.64	14.01
342.85	13.52
343.061	13.43
343.271	13.24
343.481	12.87
343.691	12.75
343.902	12.88
344.112	13
344.322	12.86
344.532	12.89
344.743	12.78
344.953	13.01
345.163	13.13
345.373	13.05
345.583	12.95
345.793	13.23
346.004	13.45
346.214	13.51
346.424	13.47
346.634	13.27
346.844	13.49
347.054	13.67
347.264	13.2
347.474	13.26
347.684	13.62
347.894	13.63
348.104	13.51
348.314	13.31
348.524	13.42
348.734	13.49
348.944	13.75
349.154	13.62
349.364	13.4
349.574	13.54
349.784	13.8
349.994	13.64
350.204	13.62
350.413	13.55
350.623	13.77
350.833	13.64
351.043	13.32
351.253	13.23
351.463	13.3
351.672	13.49
351.882	13.56
352.092	13.21
352.302	13.24
352.511	13.11
352.721	13.2
352.931	13
353.141	12.86
353.35	12.96
353.56	12.9
353.77	12.72
353.979	12.43
354.189	12.59
354.399	12.66
354.608	12.59
354.818	12.72
355.027	12.59
355.237	12.4
355.447	12.39
355.656	12.17
355.866	12.04
356.075	11.95
356.285	11.96
356.494	11.52
356.704	11.21
356.913	11.19
357.123	11.27
357.332	11.15
357.542	11.19
357.751	11.19
357.96	11.25
358.17	11.25
358.379	11.25
358.589	11.41
358.798	11.37
359.007	11.43
359.217	11.18
359.426	11.03
359.635	10.98
359.845	10.83
360.054	10.61
360.263	10.57
360.472	10.42
360.682	10.28
360.891	10.17
361.1	10.14
361.309	10.05
361.519	10.13
361.728	10.18
361.937	10.19
362.146	10.25
362.355	10.37
362.564	10.36
362.774	10.53
362.983	10.6
363.192	10.49
363.401	10.64
363.61	10.77
363.819	10.76
364.028	10.95
364.237	10.93
364.446	10.87
364.655	10.78
364.864	10.92
365.073	10.94
365.282	10.88
365.491	10.89
365.7	11.08
365.909	11.07
366.118	11.18
366.327	10.97
366.536	10.93
366.745	10.83
366.954	11.14
367.162	10.96
367.371	11.03
367.58	11.14
367.789	11
367.998	10.66
368.207	10.77
368.415	10.73
368.624	10.78
368.833	10.98
369.042	11.03
369.25	10.87
369.459	10.89
369.668	10.64
369.877	10.71
370.085	10.69
370.294	10.85
370.503	10.37
370.711	10.41
370.92	10.04
371.129	10.08
371.337	10.2
371.546	10.05
371.754	10.15
371.963	9.86
372.171	9.55
372.38	9.66
372.589	9.81
372.797	10.05
373.006	9.98
373.214	10.22
373.423	10
373.631	10.11
373.84	10.18
374.048	9.91
374.256	10.18
374.465	10.12
374.673	10.18
374.882	10.06
375.09	9.76
375.298	9.44
375.507	9.38
375.715	9.54
375.923	9.2
376.132	9.2
376.34	9.35
376.548	9.34
376.757	9.43
376.965	9.25
377.173	9.08
377.381	9.28
377.59	9.4
377.798	9.46
378.006	9.14
378.214	9.44
378.423	9.45
378.631	9.28
378.839	9.05
379.047	9.2
379.255	9.2
379.463	9.29
379.671	9.21
379.879	9.38
380.088	9.26
380.296	9.39
380.504	9.31
380.712	9.31
380.92	9.52
381.128	9.76
381.336	9.53
381.544	9.39
381.752	9.34
381.96	9.2
382.168	9.19
382.376	9.24
382.584	9.16
382.791	9.08
382.999	8.97
383.207	8.69
383.415	8.68
383.623	8.61
383.831	8.85
384.039	8.9
384.247	9.06
384.454	8.92
384.662	8.78
384.87	8.78
385.078	8.67
385.285	8.49
385.493	8.49
385.701	8.42
385.909	8.35
386.116	8.38
386.324	8.26
386.532	8.22
386.739	8.13
386.947	8.15
387.155	8.02
387.362	8.04
387.57	8.01
387.778	8.05
387.985	8.09
388.193	8.43
388.4	8.37
388.608	8.54
388.816	8.49
389.023	8.38
389.231	8.07
389.438	8.17
389.646	8.17
389.853	8.25
390.061	8.03
390.268	7.86
390.475	7.6
390.683	7.44
390.89	7.18
391.098	7.15
391.305	7.16
391.512	7.31
391.72	7.27
391.927	6.93
392.135	6.66
392.342	6.75
392.549	6.88
392.756	6.74
392.964	6.86
393.171	6.93
393.378	6.98
393.586	7.07
393.793	6.96
394	6.94
394.207	7.04
394.414	7.15
394.622	7.26
394.829	7.22
395.036	7.17
395.243	7.2
395.45	7.11
395.657	6.97
395.864	6.96
396.072	7.14
396.279	7.14
396.486	7.23
396.693	7.34
396.9	7.07
397.107	6.74
397.314	6.88
397.521	6.89
397.728	6.88
397.935	6.95
398.142	6.91
398.349	6.97
398.556	6.95
398.763	7
398.97	7.14
399.177	7.35
399.383	7.63
399.59	7.57
399.797	7.47
400.004	7.61
400.211	7.75
400.418	7.92
400.625	7.94
400.831	7.91
401.038	7.93
401.245	7.79
401.452	7.71
401.658	7.54
401.865	7.61
402.072	7.51
402.279	7.3
402.485	7.21
402.692	6.98
402.899	6.85
403.105	6.87
403.312	6.67
403.519	6.47
403.725	6.36
403.932	6.24
404.138	6.24
404.345	6.17
404.552	6.03
404.758	6.05
404.965	6.07
405.171	5.89
405.378	5.94
405.584	6.12
405.791	6.31
405.997	6.38
406.204	6.42
406.41	6.4
406.617	6.58
406.823	6.69
407.029	6.74
407.236	6.85
407.442	6.89
407.649	6.95
407.855	6.77
408.061	6.67
408.268	6.54
408.474	6.47
408.68	6.48
408.887	6.36
409.093	6.4
409.299	6.05
409.505	5.87
409.712	6.08
409.918	5.98
410.124	5.94
410.33	5.89
410.537	6.02
410.743	6.26
410.949	6.27
411.155	6.4
411.361	6.46
411.567	6.64
411.773	6.64
411.98	6.49
412.186	6.51
412.392	6.4
412.598	6.48
412.804	6.47
413.01	6.35
413.216	6.24
413.422	6
413.628	6.12
413.834	6.08
414.04	6.18
414.246	6.32
414.452	6.37
414.658	6.44
414.864	6.46
415.07	6.64
415.275	6.53
415.481	6.54
415.687	6.57
415.893	6.34
416.099	6.26
416.305	6.1
416.511	5.97
416.716	5.76
416.922	5.83
417.128	5.85
417.334	5.52
417.539	5.48
417.745	5.31
417.951	5.21
418.157	5.26
418.362	5.22
418.568	5.24
418.774	5.15
418.979	5.15
419.185	5.05
419.391	4.82
419.596	4.86
419.802	4.83
420.008	4.79
420.213	4.87
420.419	4.77
420.624	4.74
420.83	4.69
421.035	4.74
421.241	4.75
421.446	4.77
421.652	4.84
421.857	4.9
422.063	4.96
422.268	5.02
422.474	4.84
422.679	4.88
422.885	4.93
423.09	4.87
423.295	4.7
423.501	4.66
423.706	4.63
423.911	4.55
424.117	4.43
424.322	4.43
424.527	4.43
424.733	4.51
424.938	4.52
425.143	4.42
425.349	4.53
425.554	4.69
425.759	4.75
425.964	4.81
426.169	4.86
426.375	4.95
426.58	4.91
426.785	4.97
426.99	5.04
427.195	5.09
427.4	5.21
427.605	5.13
427.811	5.18
428.016	5.14
428.221	5.16
428.426	5.23
428.631	5.22
428.836	5.3
429.041	5.32
429.246	5.34
429.451	5.34
429.656	5.28
429.861	5.47
430.066	5.6
430.271	5.6
430.476	5.58
430.681	5.43
430.886	5.55
431.09	5.44
431.295	5.41
431.5	5.4
431.705	5.29
431.91	5.21
432.115	5.05
432.32	4.86
432.524	4.86
432.729	4.85
432.934	4.94
433.139	4.87
433.343	4.92
433.548	4.89
433.753	4.88
433.958	5.03
434.162	5.3
434.367	5.32
434.572	5.46
434.776	5.51
434.981	5.4
435.186	5.47
435.39	5.49
435.595	5.51
435.799	5.52
436.004	5.46
436.209	5.36
436.413	5.15
436.618	5.07
436.822	4.96
437.027	4.9
437.231	4.97
437.436	4.91
437.64	4.79
437.845	4.75
438.049	4.75
438.253	4.77
438.458	4.75
438.662	4.68
438.867	4.72
439.071	4.6
439.275	4.53
439.48	4.45
439.684	4.41
439.888	4.52
440.093	4.55
440.297	4.55
440.501	4.49
440.706	4.51
440.91	4.52
441.114	4.48
441.318	4.54
441.523	4.58
441.727	4.71
441.931	4.75
442.135	4.71
442.339	4.7
442.543	4.69
442.748	4.71
442.952	4.71
443.156	4.78
443.36	4.85
443.564	4.88
443.768	4.78
443.972	4.69
444.176	4.71
444.38	4.8
444.584	4.8
444.788	4.83
444.992	4.91
445.196	4.81
445.4	4.77
445.604	4.7
445.808	4.72
446.012	4.71
446.216	4.64
446.42	4.58
446.624	4.43
446.828	4.39
447.032	4.34
447.235	4.28
447.439	4.29
447.643	4.27
447.847	4.27
448.051	4.21
448.254	4.3
448.458	4.35
448.662	4.39
448.866	4.42
449.069	4.34
449.273	4.38
449.477	4.4
449.681	4.45
449.884	4.42
450.088	4.44
450.292	4.4
450.495	4.3
450.699	4.37
450.902	4.36
451.106	4.46
451.31	4.54
451.513	4.56
451.717	4.62
451.92	4.69
452.124	4.78
452.327	4.83
452.531	4.93
452.734	4.99
452.938	4.93
453.141	4.99
453.345	4.96
453.548	5.02
453.752	5.06
453.955	5.14
454.158	5.14
454.362	5.18
454.565	5.25
454.769	5.36
454.972	5.39
455.175	5.57
455.379	5.58
455.582	5.6
455.785	5.57
455.988	5.49
456.192	5.32
456.395	5.25
456.598	5.25
456.801	5.14
457.005	4.97
457.208	4.89
457.411	4.77
457.614	4.61
457.817	4.65
458.021	4.61
458.224	4.6
458.427	4.54
458.63	4.55
458.833	4.53
459.036	4.47
459.239	4.51
459.442	4.6
459.645	4.52
459.848	4.56
460.051	4.51
460.254	4.51
460.457	4.41
460.66	4.51
