Data from 2938795__Reflection_02.txt Node
Date: Fri Mar 13 10:42:30 EDT 2015
User: robert
Spectrometer: USB4E03002
Autoset integration time: false
Trigger mode: 4
Integration Time (sec): 1.000000E-1
Scans to average: 10
Electric dark correction enabled: false
Nonlinearity correction enabled: false
Boxcar width: 5
Stray light correction enabled: false
XAxis mode: Wavelengths
Stop averaging: false
Number of Pixels in Spectrum: 3648
>>>>>Begin Spectral Data<<<<<
177.575	327.24
177.794	460.26
178.014	470.43
178.233	709.12
178.452	749.36
178.672	895.45
178.891	1141.6
179.11	1325.44
179.33	1763.44
179.549	1355.51
179.768	2230.56
179.987	4331.08
180.207	1433.91
180.426	17433.33
180.645	1201.46
180.864	965.68
181.084	866.4
181.303	796.92
181.522	630
181.741	537.44
181.96	711.51
182.179	808.21
182.398	1399.56
182.618	20226.67
182.837	798.81
183.056	1221.85
183.275	1175
183.494	1456.36
183.713	1115.48
183.932	3043.4
184.151	2982.41
184.37	1609.05
184.589	3249.52
184.808	1025.58
185.027	1003.17
185.246	1287.64
185.465	889.89
185.684	1036.66
185.903	794.88
186.122	844.65
186.341	726.85
186.56	685.71
186.779	677.78
186.998	755.84
187.216	902.85
187.435	925.33
187.654	2596.92
187.873	7333.33
188.092	7046.81
188.311	46028.57
188.53	-2840.71
188.748	-3900
188.967	-2102.65
189.186	-7040.91
189.405	2050.9
189.623	1565.47
189.842	1072.42
190.061	1148.21
190.28	1393.8
190.498	3272.45
190.717	1516.51
190.936	2066.45
191.154	1815.17
191.373	1474.22
191.592	2535.77
191.81	2775.21
192.029	3097.12
192.248	6891.67
192.466	2207.64
192.685	2045.28
192.904	1768.75
193.122	3981.4
193.341	1412.05
193.559	6844
193.778	-8417.5
193.996	21200
194.215	15523.81
194.433	-5598.33
194.652	-20550
194.87	-4470.83
195.089	14570.83
195.307	2140.74
195.526	4569.86
195.744	2164.05
195.963	1052.34
196.181	876.86
196.399	958.57
196.618	1276.54
196.836	1265.2
197.055	1211.03
197.273	839.42
197.491	1484.21
197.71	1852.97
197.928	1311.19
198.146	1684.98
198.365	1598.17
198.583	1869.15
198.801	1124.19
199.019	907.47
199.238	770.73
199.456	853.07
199.674	1373.4
199.892	733.25
200.111	687.68
200.329	671.05
200.547	521.01
200.765	552.52
200.983	451.11
201.202	506.56
201.42	459.4
201.638	475.41
201.856	528.22
202.074	447.41
202.292	490.65
202.51	488.53
202.728	541.8
202.946	640
203.165	634.88
203.383	655.61
203.601	785
203.819	1231.1
204.037	1203.75
204.255	1278.87
204.473	1516.1
204.691	976.39
204.909	1434.03
205.127	1641.06
205.345	1896.55
205.562	3838.27
205.78	3886.25
205.998	1465.91
206.216	1043.91
206.434	849.74
206.652	529.06
206.87	602.39
207.088	921.53
207.306	811.04
207.523	639.25
207.741	721.21
207.959	723.86
208.177	765.38
208.395	1144.52
208.612	1138.05
208.83	1451.05
209.048	6309.62
209.266	1491.93
209.483	1708.78
209.701	1063.49
209.919	1451.3
210.136	760.83
210.354	617.67
210.572	546.11
210.79	586.63
211.007	631.92
211.225	819.73
211.442	635.36
211.66	671.81
211.878	450.37
212.095	465.18
212.313	450.36
212.53	468.34
212.748	482.55
212.966	636.8
213.183	550.95
213.401	380.18
213.618	433.12
213.836	530.86
214.053	785.19
214.271	2242.22
214.488	-1635.5
214.705	-1090.5
214.923	-836.6
215.14	-1442.93
215.358	-2270.43
215.575	-10740
215.793	-1007
216.01	-2098.37
216.227	-12127.27
216.445	1417.39
216.662	1087.31
216.879	642.45
217.097	527.37
217.314	504.53
217.531	496.15
217.749	513.81
217.966	499.86
218.183	468.83
218.4	349.95
218.618	327.29
218.835	318.64
219.052	297.15
219.269	287.22
219.487	269.03
219.704	261.79
219.921	272.75
220.138	262.59
220.355	263.26
220.572	244.19
220.79	256.46
221.007	242.62
221.224	241.76
221.441	198.77
221.658	185.06
221.875	171.68
222.092	165.75
222.309	157.36
222.526	146.3
222.743	143.62
222.96	143.88
223.177	142.87
223.394	136.47
223.611	136.46
223.828	142.37
224.045	140.91
224.262	140.45
224.479	136.97
224.696	131.95
224.913	123.62
225.13	114.26
225.347	105.88
225.564	99.16
225.781	93.89
225.997	83.1
226.214	75.97
226.431	68.71
226.648	63.17
226.865	56.25
227.082	47.52
227.298	39.91
227.515	34.26
227.732	31.02
227.949	28.73
228.165	27.38
228.382	25.75
228.599	24.36
228.816	22.66
229.032	21.48
229.249	20.69
229.466	21.09
229.682	22.27
229.899	23.1
230.116	23.68
230.332	23.92
230.549	24.66
230.765	25.8
230.982	26.39
231.199	27.21
231.415	28.36
231.632	30.14
231.848	32.88
232.065	34.35
232.281	36.67
232.498	36.98
232.714	40.26
232.931	40.82
233.147	41.6
233.364	42.37
233.58	42.75
233.797	43.97
234.013	43.88
234.23	40.7
234.446	40.47
234.662	38.85
234.879	38.99
235.095	37.5
235.312	37.47
235.528	37.24
235.744	36.39
235.961	38.74
236.177	37.41
236.393	36.86
236.61	38.81
236.826	38.8
237.042	38.27
237.258	38.4
237.475	39.07
237.691	38.26
237.907	38.93
238.123	38.88
238.339	38.12
238.556	40.08
238.772	39.21
238.988	37.09
239.204	35.19
239.42	34
239.636	33.59
239.853	30.84
240.069	29.58
240.285	27.38
240.501	26.4
240.717	24.19
240.933	22.05
241.149	20.66
241.365	19.7
241.581	18.96
241.797	18.59
242.013	17.03
242.229	16.7
242.445	16.18
242.661	16.2
242.877	16.25
243.093	15.76
243.309	15.49
243.525	16.14
243.741	17.18
243.957	17.69
244.173	17.44
244.388	18.24
244.604	18.78
244.82	18.94
245.036	18.43
245.252	17.6
245.468	16.93
245.683	15.99
245.899	15.59
246.115	14.27
246.331	13.42
246.547	13.21
246.762	12.69
246.978	12.1
247.194	11.72
247.409	11.49
247.625	11.17
247.841	11.24
248.057	11.52
248.272	11.02
248.488	10.96
248.703	11.38
248.919	11.79
249.135	12.24
249.35	12.67
249.566	13.61
249.782	14.43
249.997	15.73
250.213	16.4
250.428	17.01
250.644	18.58
250.859	19.11
251.075	18.5
251.29	18.03
251.506	17.8
251.721	18.02
251.937	17.41
252.152	17.35
252.368	16.58
252.583	16.99
252.798	17.24
253.014	16.87
253.229	17.22
253.445	18.29
253.66	19.22
253.875	20.4
254.091	21.49
254.306	22.39
254.521	22.58
254.737	24.25
254.952	24.55
255.167	24.32
255.383	24.71
255.598	25
255.813	24.83
256.028	25.25
256.244	24.47
256.459	23.04
256.674	21.94
256.889	21.62
257.104	19.82
257.32	18.72
257.535	17.9
257.75	16.89
257.965	15.55
258.18	14.33
258.395	12.58
258.61	11.68
258.826	10.94
259.041	10.7
259.256	10.17
259.471	9.72
259.686	9.2
259.901	8.73
260.116	8.59
260.331	8.46
260.546	8.45
260.761	8.75
260.976	9
261.191	9.47
261.406	9.72
261.621	9.78
261.836	10.26
262.05	11.22
262.265	12.19
262.48	12.89
262.695	13.42
262.91	14.04
263.125	14.54
263.34	15.01
263.555	15.31
263.769	15.2
263.984	15.66
264.199	16.45
264.414	16.25
264.629	16.17
264.843	16.11
265.058	16.4
265.273	16.07
265.488	15.8
265.702	15.36
265.917	15.02
266.132	14.7
266.346	14.39
266.561	13.99
266.776	13.62
266.99	13.26
267.205	12.76
267.42	13.07
267.634	12.85
267.849	12.88
268.063	12.89
268.278	12.49
268.492	12.73
268.707	13.24
268.922	13.24
269.136	13.12
269.351	13.25
269.565	13.1
269.78	12.57
269.994	12.42
270.209	12.15
270.423	12.04
270.637	11.93
270.852	11.61
271.066	11.13
271.281	11.07
271.495	10.97
271.709	10.95
271.924	10.94
272.138	10.9
272.353	10.96
272.567	11.07
272.781	10.85
272.996	10.93
273.21	10.97
273.424	11.21
273.638	11.34
273.853	11.45
274.067	11.46
274.281	11.89
274.495	12.03
274.71	12.31
274.924	11.81
275.138	12.06
275.352	12.13
275.566	12.29
275.781	12.27
275.995	12.42
276.209	12.93
276.423	13.03
276.637	12.84
276.851	12.85
277.065	12.56
277.279	12.6
277.493	12.72
277.707	12.97
277.921	12.99
278.135	13.57
278.349	12.94
278.563	12.64
278.777	12.67
278.991	12.29
279.205	12.07
279.419	12
279.633	12.09
279.847	11.29
280.061	10.58
280.275	10.56
280.489	9.7
280.703	9.98
280.917	9.89
281.131	9.69
281.344	9.83
281.558	9.68
281.772	9.84
281.986	10.17
282.2	10.71
282.414	10.95
282.627	10.59
282.841	10.75
283.055	10.58
283.269	10.54
283.482	10.56
283.696	10.29
283.91	10.49
284.123	10.38
284.337	10.16
284.551	9.76
284.764	9.5
284.978	9.77
285.192	9.41
285.405	9.28
285.619	9.07
285.833	9.06
286.046	9.01
286.26	8.93
286.473	8.73
286.687	8.6
286.9	8.55
287.114	8.75
287.327	8.78
287.541	9.28
287.754	9.45
287.968	9.75
288.181	9.58
288.395	9.87
288.608	9.87
288.822	10.06
289.035	10.1
289.248	10.31
289.462	10.41
289.675	10.43
289.889	9.84
290.102	9.95
290.315	9.76
290.529	9.77
290.742	9.87
290.955	9.73
291.169	9.8
291.382	9.87
291.595	10.04
291.808	9.8
292.022	9.78
292.235	10.22
292.448	9.87
292.661	10.24
292.875	10.29
293.088	10.29
293.301	10.37
293.514	10.01
293.727	9.71
293.94	9.39
294.153	9.58
294.367	9.09
294.58	9.03
294.793	9.33
295.006	9.01
295.219	9.26
295.432	9.39
295.645	9.27
295.858	9.42
296.071	9.55
296.284	9.68
296.497	9.7
296.71	9.62
296.923	9.63
297.136	9.59
297.349	9.66
297.562	9.4
297.775	9.3
297.988	9.73
298.201	9.69
298.414	9.66
298.626	9.78
298.839	9.81
299.052	10.12
299.265	10.28
299.478	10.27
299.691	10.22
299.903	10.4
300.116	10.57
300.329	10.37
300.542	10.81
300.755	11.14
300.967	11.26
301.18	11.54
301.393	11.71
301.605	11.78
301.818	12.03
302.031	12.52
302.243	12.81
302.456	12.77
302.669	12.95
302.881	13.04
303.094	13.36
303.307	13.33
303.519	13.04
303.732	13.35
303.944	13.27
304.157	13.36
304.37	13.1
304.582	12.96
304.795	12.98
305.007	13.05
305.22	13.01
305.432	12.54
305.645	12.54
305.857	12.68
306.069	12.47
306.282	12.7
306.494	12.46
306.707	12.29
306.919	12.34
307.132	12.43
307.344	12.11
307.556	12.12
307.769	12.57
307.981	12.7
308.193	12.37
308.406	12.19
308.618	12.2
308.83	11.96
309.043	11.95
309.255	12.06
309.467	12
309.679	12.04
309.892	11.87
310.104	11.33
310.316	11.32
310.528	11.73
310.74	11.83
310.953	11.66
311.165	11.84
311.377	12.05
311.589	12.22
311.801	12.09
312.013	11.85
312.225	11.95
312.437	12.3
312.649	12.66
312.862	12.79
313.074	12.73
313.286	13.28
313.498	13.52
313.71	13.72
313.922	13.51
314.134	14
314.346	14.62
314.558	14.94
314.77	15.04
314.982	14.43
315.193	14.26
315.405	14.72
315.617	13.94
315.829	14.15
316.041	13.77
316.253	13.7
316.465	13.82
316.677	13.65
316.888	13.49
317.1	13.45
317.312	13.86
317.524	14.18
317.736	14.13
317.947	14.65
318.159	14.41
318.371	14.9
318.583	14.95
318.794	14.78
319.006	14.73
319.218	14.96
319.43	15.03
319.641	15.19
319.853	15.02
320.064	15.17
320.276	15.24
320.488	15.49
320.699	15.45
320.911	15.8
321.123	15.92
321.334	16.26
321.546	16.33
321.757	16.66
321.969	16.8
322.18	16.75
322.392	16.62
322.603	16.67
322.815	16.5
323.026	16.3
323.238	15.63
323.449	15.31
323.661	15.34
323.872	15.13
324.083	14.83
324.295	14.28
324.506	14.47
324.718	14.53
324.929	14.54
325.14	14.29
325.352	14.64
325.563	14.99
325.774	14.95
325.986	14.77
326.197	14.99
326.408	15.18
326.62	15.22
326.831	15.18
327.042	14.96
327.253	15.03
327.464	15.52
327.676	15.2
327.887	15.23
328.098	15.33
328.309	15.62
328.52	15.89
328.732	15.9
328.943	16.28
329.154	16.18
329.365	16.56
329.576	16.28
329.787	16.21
329.998	16.54
330.209	17.1
330.42	16.97
330.631	16.93
330.842	16.56
331.053	16.52
331.264	16.62
331.475	16.98
331.686	17.14
331.897	17.61
332.108	17.68
332.319	17.55
332.53	17.25
332.741	17.52
332.952	17.27
333.163	17.28
333.374	17.22
333.585	17.23
333.795	16.79
334.006	16.39
334.217	16.13
334.428	15.76
334.639	15.85
334.849	15.54
335.06	15.66
335.271	15.67
335.482	15.65
335.692	15.91
335.903	15.56
336.114	15.95
336.325	16.06
336.535	16.09
336.746	16.56
336.957	16.41
337.167	16.57
337.378	16.46
337.589	16.46
337.799	16.32
338.01	16.1
338.22	16.24
338.431	15.87
338.642	15.8
338.852	15.56
339.063	15.29
339.273	15.06
339.484	15.13
339.694	14.97
339.905	15.21
340.115	15.44
340.326	15.18
340.536	15.2
340.746	15.12
340.957	15.06
341.167	15.08
341.378	14.98
341.588	14.98
341.799	14.99
342.009	15.11
342.219	15.04
342.43	14.89
342.64	14.99
342.85	14.68
343.061	14.65
343.271	14.89
343.481	14.98
343.691	15
343.902	14.81
344.112	14.51
344.322	14.33
344.532	14.4
344.743	14.28
344.953	14.45
345.163	14.43
345.373	14.34
345.583	13.75
345.793	13.73
346.004	13.75
346.214	14.17
346.424	14.38
346.634	14.41
346.844	14.25
347.054	14.14
347.264	13.79
347.474	14.14
347.684	14.33
347.894	14.71
348.104	14.55
348.314	14.23
348.524	14.13
348.734	14.1
348.944	13.77
349.154	13.49
349.364	13.74
349.574	13.81
349.784	13.46
349.994	13.48
350.204	13.43
350.413	13.64
350.623	13.87
350.833	13.77
351.043	13.91
351.253	14.27
351.463	14.71
351.672	14.64
351.882	14.48
352.092	14.65
352.302	14.24
352.511	14.29
352.721	14.14
352.931	14.29
353.141	14.3
353.35	13.94
353.56	13.72
353.77	13.35
353.979	13.04
354.189	13.24
354.399	13.27
354.608	13.52
354.818	13.45
355.027	13.18
355.237	12.76
355.447	12.44
355.656	12.86
355.866	13.04
356.075	12.9
356.285	12.74
356.494	12.6
356.704	12.75
356.913	12.58
357.123	12.52
357.332	12.6
357.542	12.77
357.751	13.05
357.96	12.79
358.17	12.62
358.379	12.53
358.589	12.77
358.798	12.7
359.007	12.33
359.217	12.43
359.426	12.6
359.635	12.56
359.845	12.44
360.054	12.08
360.263	12.01
360.472	11.93
360.682	11.98
360.891	11.66
361.1	11.6
361.309	11.49
361.519	11.55
361.728	11.33
361.937	11.23
362.146	11.1
362.355	11.1
362.564	11.2
362.774	11.28
362.983	11.27
363.192	11.35
363.401	11.51
363.61	11.75
363.819	11.4
364.028	11.4
364.237	11.44
364.446	11.63
364.655	11.98
364.864	11.73
365.073	11.74
365.282	11.86
365.491	12.01
365.7	12.01
365.909	12.08
366.118	12.36
366.327	12.51
366.536	12.72
366.745	12.77
366.954	12.71
367.162	12.89
367.371	12.95
367.58	12.98
367.789	12.76
367.998	12.59
368.207	12.55
368.415	12.4
368.624	12.28
368.833	12.12
369.042	12.15
369.25	12.11
369.459	12.17
369.668	11.88
369.877	11.6
370.085	11.82
370.294	11.78
370.503	11.39
370.711	11.37
370.92	11.2
371.129	11.33
371.337	11.22
371.546	10.96
371.754	10.51
371.963	10.56
372.171	10.87
372.38	10.77
372.589	10.76
372.797	10.96
373.006	11.04
373.214	11.05
373.423	10.7
373.631	10.57
373.84	10.65
374.048	10.93
374.256	11
374.465	10.79
374.673	10.87
374.882	10.85
375.09	10.86
375.298	10.92
375.507	10.89
375.715	10.99
375.923	10.9
376.132	10.8
376.34	10.66
376.548	10.57
376.757	10.53
376.965	10.36
377.173	10.16
377.381	10.21
377.59	10.09
377.798	10.12
378.006	10.23
378.214	10.35
378.423	10.38
378.631	10.42
378.839	10.6
379.047	10.44
379.255	10.57
379.463	10.73
379.671	10.75
379.879	10.67
380.088	10.77
380.296	10.61
380.504	10.48
380.712	10.62
380.92	10.66
381.128	10.36
381.336	10.34
381.544	10.35
381.752	10.37
381.96	10.01
382.168	9.85
382.376	9.76
382.584	9.95
382.791	9.84
382.999	9.72
383.207	9.45
383.415	9.33
383.623	9.31
383.831	9.2
384.039	9.05
384.247	9.26
384.454	9.45
384.662	9.46
384.87	9.37
385.078	9.44
385.285	9.21
385.493	9.28
385.701	9.31
385.909	9.52
386.116	9.47
386.324	9.43
386.532	9.26
386.739	9.2
386.947	9.22
387.155	9.34
387.362	9.25
387.57	9.63
387.778	9.62
387.985	9.77
388.193	9.68
388.4	9.77
388.608	10
388.816	9.98
389.023	10.03
389.231	10.02
389.438	9.75
389.646	9.92
389.853	9.48
390.061	9.48
390.268	9.4
390.475	9.14
390.683	9.31
390.89	9.12
391.098	9.3
391.305	9.15
391.512	9.08
391.72	8.91
391.927	8.75
392.135	8.91
392.342	8.96
392.549	8.87
392.756	9.03
392.964	8.62
393.171	8.6
393.378	8.31
393.586	8.3
393.793	8.22
394	8.22
394.207	8.22
394.414	8.18
394.622	8.12
394.829	8.24
395.036	8.17
395.243	8.25
395.45	8.3
395.657	8.43
395.864	8.45
396.072	8.44
396.279	8.55
396.486	8.6
396.693	8.37
396.9	8.44
397.107	8.36
397.314	8.44
397.521	8.52
397.728	8.55
397.935	8.62
398.142	8.62
398.349	8.62
398.556	8.68
398.763	8.73
398.97	8.92
399.177	8.78
399.383	8.74
399.59	8.66
399.797	8.68
400.004	8.5
400.211	8.52
400.418	8.6
400.625	8.65
400.831	8.64
401.038	8.59
401.245	8.48
401.452	8.46
401.658	8.52
401.865	8.48
402.072	8.5
402.279	8.62
402.485	8.48
402.692	8.2
402.899	8.09
403.105	8.01
403.312	7.91
403.519	7.96
403.725	7.93
403.932	7.68
404.138	7.63
404.345	7.53
404.552	7.45
404.758	7.35
404.965	7.59
405.171	7.7
405.378	7.69
405.584	7.61
405.791	7.44
405.997	7.45
406.204	7.65
406.41	7.7
406.617	7.8
406.823	7.78
407.029	7.98
407.236	8.01
407.442	7.96
407.649	7.95
407.855	7.98
408.061	8.3
408.268	8.26
408.474	8.36
408.68	8.36
408.887	8.32
409.093	8.22
409.299	7.96
409.505	7.69
409.712	7.62
409.918	7.46
410.124	7.5
410.33	7.39
410.537	7.29
410.743	7.38
410.949	7.33
411.155	7.32
411.361	7.44
411.567	7.64
411.773	7.6
411.98	7.62
412.186	7.91
412.392	7.96
412.598	7.92
412.804	8.16
413.01	8.04
413.216	8.15
413.422	8.04
413.628	8.06
413.834	7.99
414.04	7.94
414.246	7.96
414.452	7.8
414.658	7.65
414.864	7.69
415.07	7.61
415.275	7.55
415.481	7.56
415.687	7.45
415.893	7.35
416.099	7.39
416.305	7.52
416.511	7.35
416.716	7.27
416.922	7.17
417.128	7.1
417.334	6.98
417.539	6.87
417.745	6.69
417.951	6.67
418.157	6.59
418.362	6.42
418.568	6.33
418.774	6.3
418.979	6.4
419.185	6.46
419.391	6.43
419.596	6.44
419.802	6.43
420.008	6.46
420.213	6.56
420.419	6.55
420.624	6.61
420.83	6.58
421.035	6.55
421.241	6.44
421.446	6.4
421.652	6.34
421.857	6.24
422.063	6.21
422.268	6.2
422.474	6.06
422.679	6.14
422.885	6.08
423.09	6.05
423.295	6.05
423.501	6.05
423.706	6.01
423.911	5.97
424.117	5.99
424.322	5.93
424.527	5.94
424.733	5.94
424.938	5.85
425.143	5.87
425.349	5.9
425.554	5.96
425.759	6
425.964	6.11
426.169	6.2
426.375	6.3
426.58	6.44
426.785	6.5
426.99	6.66
427.195	6.75
427.4	6.83
427.605	6.93
427.811	6.93
428.016	6.91
428.221	6.85
428.426	6.88
428.631	6.89
428.836	6.91
429.041	6.82
429.246	6.71
429.451	6.78
429.656	6.81
429.861	6.91
430.066	6.94
430.271	6.98
430.476	6.94
430.681	6.96
430.886	6.93
431.09	6.88
431.295	6.82
431.5	6.84
431.705	6.73
431.91	6.74
432.115	6.64
432.32	6.79
432.524	6.77
432.729	6.79
432.934	6.82
433.139	6.78
433.343	6.82
433.548	6.82
433.753	6.78
433.958	6.79
434.162	6.75
434.367	6.72
434.572	6.54
434.776	6.47
434.981	6.47
435.186	6.4
435.39	6.47
435.595	6.49
435.799	6.6
436.004	6.7
436.209	6.67
436.413	6.61
436.618	6.58
436.822	6.7
437.027	6.78
437.231	6.74
437.436	6.78
437.64	6.7
437.845	6.62
438.049	6.58
438.253	6.47
438.458	6.48
438.662	6.56
438.867	6.56
439.071	6.48
439.275	6.46
439.48	6.49
439.684	6.46
439.888	6.42
440.093	6.41
440.297	6.36
440.501	6.33
440.706	6.41
440.91	6.43
441.114	6.41
441.318	6.42
441.523	6.41
441.727	6.41
441.931	6.41
442.135	6.45
442.339	6.45
442.543	6.51
442.748	6.55
442.952	6.49
443.156	6.37
443.36	6.42
443.564	6.5
443.768	6.45
443.972	6.49
444.176	6.51
444.38	6.49
444.584	6.54
444.788	6.53
444.992	6.55
445.196	6.5
445.4	6.42
445.604	6.4
445.808	6.36
446.012	6.36
446.216	6.31
446.42	6.22
446.624	6.21
446.828	6.12
447.032	6.09
447.235	6.04
447.439	6.02
447.643	6.1
447.847	6.1
448.051	6.07
448.254	6.11
448.458	6.16
448.662	6.17
448.866	6.26
449.069	6.34
449.273	6.35
449.477	6.41
449.681	6.48
449.884	6.59
450.088	6.58
450.292	6.59
450.495	6.54
450.699	6.52
450.902	6.65
451.106	6.66
451.31	6.71
451.513	6.65
451.717	6.67
451.92	6.76
452.124	6.71
452.327	6.7
452.531	6.68
452.734	6.83
452.938	6.77
453.141	6.77
453.345	6.7
453.548	6.61
453.752	6.66
453.955	6.65
454.158	6.5
454.362	6.42
454.565	6.48
454.769	6.48
454.972	6.38
455.175	6.43
455.379	6.42
455.582	6.42
455.785	6.52
455.988	6.57
456.192	6.58
456.395	6.75
456.598	6.76
456.801	6.73
457.005	6.82
457.208	6.86
457.411	6.87
457.614	6.77
457.817	6.66
458.021	6.5
458.224	6.45
458.427	6.37
458.63	6.28
458.833	6.27
