Data from 2938726__Reflection_03.txt Node
Date: Sun Mar 15 19:45:45 EDT 2015
User: robert
Spectrometer: USB4E03002
Autoset integration time: false
Trigger mode: 4
Integration Time (sec): 1.000000E-1
Scans to average: 10
Electric dark correction enabled: false
Nonlinearity correction enabled: false
Boxcar width: 5
Stray light correction enabled: false
XAxis mode: Wavelengths
Stop averaging: false
Number of Pixels in Spectrum: 3648
>>>>>Begin Spectral Data<<<<<
177.575	72.5
177.794	3700
178.014	145.31
178.233	-1187.5
178.452	-308
178.672	-151.67
178.891	-89.23
179.11	-48.5
179.33	-68.4
179.549	-85.14
179.768	-76.4
179.987	-755.36
180.207	-602.6
180.426	-548.57
180.645	-525
180.864	-0
181.084	83.33
181.303	93.42
181.522	87.91
181.741	104.31
181.96	152.7
182.179	176.19
182.398	-44.07
182.618	16.22
182.837	-41.9
183.056	-91.67
183.275	-255.07
183.494	-148.78
183.713	-33.43
183.932	-7.67
184.151	-295.51
184.37	-119.75
184.589	-207.05
184.808	-192.21
185.027	-243.64
185.246	-262.59
185.465	-135.19
185.684	-60.28
185.903	-49.18
186.122	-107.14
186.341	-75.77
186.56	-61.52
186.779	-58.74
186.998	-80.83
187.216	-100.7
187.435	-173.76
187.654	-345.65
187.873	-809.86
188.092	1657.14
188.311	-280.53
188.53	-189.02
188.748	-2338.46
188.967	-161.8
189.186	-72.36
189.405	-117.57
189.623	-218.27
189.842	-69.46
190.061	-49.7
190.28	-35.35
190.498	-14.8
190.717	-31.42
190.936	-44.86
191.154	7.21
191.373	10.38
191.592	-120.13
191.81	-43.48
192.029	-102.9
192.248	-52.44
192.466	-42.63
192.685	-29.29
192.904	-87.21
193.122	-128.57
193.341	-98.77
193.559	-78.93
193.778	-114.77
193.996	-1.9
194.215	-25.07
194.433	-5.35
194.652	-65.71
194.87	-147.01
195.089	-151.31
195.307	-147.87
195.526	-213.73
195.744	-343.69
195.963	-850.93
196.181	-2988.89
196.399	-1533.73
196.618	6040
196.836	4933.33
197.055	-1425.76
197.273	-955.79
197.491	-1253.25
197.71	3119.23
197.928	-1845.24
198.146	400
198.365	-5377.78
198.583	-442.39
198.801	-1861.11
199.019	-122.62
199.238	-91.5
199.456	-172
199.674	-98.1
199.892	-87.2
200.111	-507.78
200.329	-136.67
200.547	-85.56
200.765	-111.11
200.983	-134.91
201.202	-94.86
201.42	-126.71
201.638	-99.62
201.856	-86.81
202.074	-107.21
202.292	-82.28
202.51	-42.74
202.728	-49.12
202.946	-54.33
203.165	-88.45
203.383	-98.66
203.601	-135.44
203.819	-132.65
204.037	-182.46
204.255	-152.74
204.473	-137.13
204.691	-140.74
204.909	-123.32
205.127	-104.06
205.345	-98.73
205.562	-32.78
205.78	-28.96
205.998	-18.2
206.216	-14.71
206.434	3.64
206.652	-10.91
206.87	-32.89
207.088	-42.09
207.306	-50
207.523	-51.31
207.741	-118.37
207.959	-165.89
208.177	-195.04
208.395	-301.52
208.612	-377.07
208.83	-629.06
209.048	-321.5
209.266	-244.81
209.483	-387.9
209.701	-192.21
209.919	-287
210.136	-84.68
210.354	-121.12
210.572	-163.93
210.79	-167.76
211.007	-205.32
211.225	-162.83
211.442	-176.72
211.66	-132.98
211.878	-44.98
212.095	-153.93
212.313	-200.84
212.53	-255.81
212.748	-284.58
212.966	-183.79
213.183	-154.91
213.401	-118.1
213.618	-112.18
213.836	-112.61
214.053	-174.02
214.271	-228.6
214.488	-105.35
214.705	-44.05
214.923	-22.54
215.14	-16.92
215.358	-44.12
215.575	-62.29
215.793	-72.37
216.01	-95.75
216.227	-95.83
216.445	-63.99
216.662	-65.42
216.879	-88.74
217.097	-110.49
217.314	-121.04
217.531	-90.11
217.749	-36.52
217.966	-73.36
218.183	-115.85
218.4	-58.7
218.618	-57.28
218.835	-64.96
219.052	-48.98
219.269	-45.78
219.487	-37.68
219.704	-38.53
219.921	-21.26
220.138	-37.78
220.355	-21.19
220.572	-11.08
220.79	-26.93
221.007	-22.78
221.224	-36.07
221.441	-50.31
221.658	-52.8
221.875	-34.5
222.092	-33.31
222.309	-44.4
222.526	-43.65
222.743	-35.2
222.96	-42.11
223.177	-48.16
223.394	-37.36
223.611	-28.94
223.828	-17.88
224.045	-15.76
224.262	-22.82
224.479	-38.69
224.696	-25
224.913	-17.5
225.13	-18.46
225.347	-16.51
225.564	-8.93
225.781	-17.27
225.997	-17.69
226.214	-13.22
226.431	-9.76
226.648	-13.31
226.865	-6.87
227.082	-8.23
227.298	-7.93
227.515	-7.64
227.732	-4.4
227.949	-3.54
228.165	-1.28
228.382	-0.35
228.599	-1.4
228.816	-0.1
229.032	0.72
229.249	-0.03
229.466	-1.07
229.682	-1.8
229.899	-1.91
230.116	-2.97
230.332	-4.7
230.549	-6.94
230.765	-8.74
230.982	-8
231.199	-9.05
231.415	-10.6
231.632	-10.65
231.848	-10.68
232.065	-10.09
232.281	-11.58
232.498	-13.64
232.714	-12.03
232.931	-8.19
233.147	-6.85
233.364	-8.11
233.58	-7.31
233.797	-4.69
234.013	-4.63
234.23	-4.33
234.446	-6
234.662	-4.95
234.879	-4.46
235.095	-5.03
235.312	-5.15
235.528	-5.56
235.744	-5.34
235.961	-6.59
236.177	-9.71
236.393	-9.79
236.61	-8.64
236.826	-7.66
237.042	-6.83
237.258	-4.12
237.475	-2.01
237.691	-2.48
237.907	-2.99
238.123	-4.26
238.339	-3.97
238.556	-1.96
238.772	0.13
238.988	-1.19
239.204	-0.51
239.42	-1.07
239.636	0.28
239.853	-2.32
240.069	-3.63
240.285	-2.53
240.501	-1.33
240.717	-0.6
240.933	-0.15
241.149	-0.73
241.365	0.2
241.581	-0.65
241.797	-0.29
242.013	-1.65
242.229	-1.31
242.445	-0.48
242.661	-0.46
242.877	-0.68
243.093	-1.14
243.309	-1.72
243.525	-1.65
243.741	-2.23
243.957	-1.92
244.173	-1.98
244.388	-1.34
244.604	-0.31
244.82	-0.88
245.036	-0.65
245.252	-0.29
245.468	-1.13
245.683	-0.48
245.899	-0.75
246.115	-0.86
246.331	-0.35
246.547	-0.05
246.762	0.12
246.978	-0.01
247.194	0.24
247.409	0.59
247.625	0.75
247.841	1.19
248.057	0.9
248.272	0.98
248.488	1.4
248.703	1.12
248.919	0.76
249.135	0.48
249.35	-0.17
249.566	0
249.782	-0.67
249.997	-2.23
250.213	-2.21
250.428	-1.94
250.644	-1.54
250.859	-1.75
251.075	-2.57
251.29	-2.85
251.506	-2.83
251.721	-1.79
251.937	-3.01
252.152	-3.48
252.368	-3.05
252.583	-3.23
252.798	-3.31
253.014	-4.43
253.229	-4.59
253.445	-4.09
253.66	-3.45
253.875	-3.97
254.091	-4.89
254.306	-4.44
254.521	-4.38
254.737	-4.18
254.952	-5.87
255.167	-5.32
255.383	-3.8
255.598	-4.31
255.813	-3.5
256.028	-4
256.244	-4.43
256.459	-4.53
256.674	-4.83
256.889	-4.71
257.104	-3.97
257.32	-2.15
257.535	-3.07
257.75	-3.42
257.965	-3.33
258.18	-3.14
258.395	-2.54
258.61	-1.67
258.826	-1.05
259.041	-0.82
259.256	-0.35
259.471	-0.07
259.686	-0.07
259.901	0.15
260.116	0.15
260.331	0.38
260.546	0.37
260.761	0.5
260.976	0.23
261.191	-0.04
261.406	0.26
261.621	-0.04
261.836	-0.29
262.05	-0.51
262.265	-0.89
262.48	-1.07
262.695	-1.4
262.91	-1.08
263.125	-1.27
263.34	-1.51
263.555	-1.12
263.769	-2.02
263.984	-2.77
264.199	-3.02
264.414	-3.23
264.629	-2.52
264.843	-2.39
265.058	-1.69
265.273	-2.04
265.488	-2.64
265.702	-1.84
265.917	-1.73
266.132	-1.08
266.346	-0.33
266.561	0.1
266.776	0.35
266.99	0.56
267.205	0.95
267.42	0.48
267.634	0.22
267.849	0.24
268.063	0.32
268.278	-0.24
268.492	-0.54
268.707	-0.64
268.922	-1.34
269.136	-1.58
269.351	-2.09
269.565	-1.79
269.78	-1.72
269.994	-1.7
270.209	-1.46
270.423	-1.29
270.637	-0.8
270.852	-0.56
271.066	-0.42
271.281	0.01
271.495	-0.18
271.709	0.15
271.924	0.02
272.138	0.1
272.353	0.35
272.567	0.2
272.781	-0.14
272.996	-0.39
273.21	-0.6
273.424	-1.3
273.638	-1.33
273.853	-1.17
274.067	-1.35
274.281	-1.43
274.495	-1.62
274.71	-2.14
274.924	-2.31
275.138	-2.48
275.352	-1.98
275.566	-1.96
275.781	-1.15
275.995	-1.26
276.209	-1.15
276.423	-1.28
276.637	-1.79
276.851	-2.38
277.065	-1.5
277.279	-1.49
277.493	-1.2
277.707	-1.81
277.921	-1.67
278.135	-1.9
278.349	-2.36
278.563	-2.58
278.777	-2.57
278.991	-2.35
279.205	-1.32
279.419	-1.83
279.633	-1.35
279.847	-1.43
280.061	-1.05
280.275	-0.79
280.489	-0.78
280.703	-0.46
280.917	0.01
281.131	-0.02
281.344	0.03
281.558	-0.16
281.772	-0.56
281.986	-0.83
282.2	-0.91
282.414	-0.81
282.627	-0.76
282.841	-0.58
283.055	-1.08
283.269	-1.11
283.482	-1
283.696	-1.22
283.91	-1.44
284.123	-1.39
284.337	-1.13
284.551	-1.08
284.764	-1.37
284.978	-1.72
285.192	-1.63
285.405	-1.23
285.619	-1.76
285.833	-1.85
286.046	-1.7
286.26	-1.93
286.473	-1.84
286.687	-2.29
286.9	-2.33
287.114	-2.34
287.327	-2.26
287.541	-2.57
287.754	-2.62
287.968	-2.34
288.181	-2.65
288.395	-2.55
288.608	-1.77
288.822	-1.65
289.035	-1.31
289.248	-1.27
289.462	-1.31
289.675	-1.33
289.889	-1.08
290.102	-1.09
290.315	-0.68
290.529	-0.31
290.742	-0.43
290.955	-0.28
291.169	0.01
291.382	0.44
291.595	0.16
291.808	0.02
292.022	-0.08
292.235	0.01
292.448	-0.04
292.661	-0.8
292.875	-0.95
293.088	-0.64
293.301	-1.31
293.514	-1.41
293.727	-1.78
293.94	-1.22
294.153	-1.25
294.367	-1.05
294.58	-1
294.793	-0.49
295.006	0.08
295.219	0.26
295.432	0.37
295.645	0.49
295.858	0.68
296.071	0.87
296.284	0.88
296.497	1.58
296.71	1.41
296.923	1.36
297.136	1.22
297.349	0.91
297.562	0.9
297.775	0.59
297.988	0.61
298.201	0.33
298.414	0.16
298.626	0.25
298.839	-0.29
299.052	-0.21
299.265	-0.53
299.478	-0.84
299.691	-0.67
299.903	-0.78
300.116	-0.4
300.329	-0.5
300.542	-0.31
300.755	-0.34
300.967	-0.39
301.18	-0.36
301.393	-0.06
301.605	-0.09
301.818	0.21
302.031	0.07
302.243	0.31
302.456	0.2
302.669	-0.01
302.881	-0.27
303.094	-0.01
303.307	-0.17
303.519	0.05
303.732	-0.32
303.944	-0.48
304.157	-0.73
304.37	-0.34
304.582	-0.71
304.795	-1.26
305.007	-1.11
305.22	-1
305.432	-1.13
305.645	-1.13
305.857	-1.5
306.069	-1.37
306.282	-0.91
306.494	-0.46
306.707	-0.98
306.919	-0.98
307.132	-0.59
307.344	-0.1
307.556	-0
307.769	-0.03
307.981	-0.06
308.193	-0.06
308.406	0.1
308.618	-0
308.83	-0.21
309.043	0.16
309.255	0.39
309.467	0.29
309.679	0.23
309.892	0.32
310.104	0.09
310.316	0.04
310.528	0.44
310.74	0.4
310.953	0.76
311.165	0.55
311.377	0.31
311.589	0.26
311.801	0.44
312.013	0.35
312.225	0.13
312.437	0.37
312.649	0.46
312.862	0.14
313.074	0.29
313.286	0.14
313.498	0.21
313.71	0.43
313.922	0.15
314.134	0.29
314.346	0.31
314.558	0.09
314.77	0.28
314.982	0.43
315.193	0.85
315.405	0.8
315.617	0.76
315.829	0.94
316.041	1.12
316.253	1.38
316.465	1.15
316.677	1.49
316.888	1.7
317.1	1.04
317.312	1.01
317.524	0.6
317.736	0.86
317.947	0.83
318.159	0.8
318.371	-0.11
318.583	0.43
318.794	0.13
319.006	-0.32
319.218	0.11
319.43	0.73
319.641	1.44
319.853	1.68
320.064	1.95
320.276	1.94
320.488	1.83
320.699	2.76
320.911	2.61
321.123	3.27
321.334	3.11
321.546	3.47
321.757	3.21
321.969	2.43
322.18	1.96
322.392	1.73
322.603	1.78
322.815	2.55
323.026	2.31
323.238	2.23
323.449	2.02
323.661	2.55
323.872	2.49
324.083	2.83
324.295	3.31
324.506	3.78
324.718	3.67
324.929	4.45
325.14	4.6
325.352	5.16
325.563	5.5
325.774	5.77
325.986	6.76
326.197	7.04
326.408	7.14
326.62	7.32
326.831	7.74
327.042	7.97
327.253	7.96
327.464	7.77
327.676	7.95
327.887	8.63
328.098	9.09
328.309	8.42
328.52	8.29
328.732	9.13
328.943	8.99
329.154	8.86
329.365	8.93
329.576	8.62
329.787	8.9
329.998	9.15
330.209	8.46
330.42	8.69
330.631	9.2
330.842	9.79
331.053	9.59
331.264	10.19
331.475	10.71
331.686	11.45
331.897	12.01
332.108	12.18
332.319	12.49
332.53	13.01
332.741	13.25
332.952	13.59
333.163	13.38
333.374	13.59
333.585	13.52
333.795	13.68
334.006	13.42
334.217	13.55
334.428	13.85
334.639	13.49
334.849	13.33
335.06	13.58
335.271	13.59
335.482	13.71
335.692	14.13
335.903	14.14
336.114	14.08
336.325	14.36
336.535	14.07
336.746	14.13
336.957	14.32
337.167	14.55
337.378	14.17
337.589	14.1
337.799	14.53
338.01	14.19
338.22	14.14
338.431	14.68
338.642	14.41
338.852	14.45
339.063	14.39
339.273	14.2
339.484	14.13
339.694	14.7
339.905	14.54
340.115	14.28
340.326	14.24
340.536	14.33
340.746	13.89
340.957	13.87
341.167	14.31
341.378	14.61
341.588	15.09
341.799	15.25
342.009	14.91
342.219	14.95
342.43	15.29
342.64	15.42
342.85	15.42
343.061	15.69
343.271	16
343.481	16.3
343.691	16.05
343.902	16.09
344.112	15.96
344.322	16.03
344.532	15.99
344.743	15.83
344.953	15.68
345.163	15.61
345.373	15.48
345.583	15.25
345.793	14.85
346.004	14.8
346.214	14.41
346.424	14.61
346.634	14.19
346.844	14.22
347.054	14.27
347.264	14.76
347.474	14.93
347.684	14.92
347.894	14.92
348.104	14.78
348.314	14.78
348.524	15.21
348.734	15.11
348.944	15.46
349.154	15.35
349.364	15.46
349.574	14.88
349.784	14.97
349.994	15.07
350.204	15.01
350.413	15.04
350.623	15.17
350.833	14.88
351.043	14.89
351.253	14.82
351.463	14.79
351.672	14.33
351.882	14.48
352.092	14.45
352.302	14.29
352.511	14.49
352.721	14.4
352.931	14.08
353.141	13.93
353.35	13.57
353.56	13.66
353.77	13.63
353.979	13.91
354.189	13.97
354.399	13.91
354.608	13.82
354.818	13.69
355.027	14.03
355.237	14.15
355.447	14.12
355.656	14.32
355.866	14.24
356.075	14.07
356.285	14.18
356.494	14.11
356.704	14.07
356.913	14.27
357.123	14.35
357.332	14.34
357.542	14.26
357.751	14.44
357.96	14.62
358.17	14.91
358.379	14.91
358.589	14.6
358.798	14.59
359.007	14.82
359.217	14.57
359.426	14.71
359.635	14.63
359.845	14.71
360.054	14.74
360.263	14.82
360.472	14.48
360.682	14.59
360.891	14.6
361.1	14.6
361.309	14.35
361.519	14.32
361.728	14.17
361.937	14.12
362.146	14.17
362.355	14.19
362.564	14.03
362.774	13.95
362.983	14.03
363.192	14.11
363.401	14.19
363.61	14.24
363.819	14.32
364.028	14.27
364.237	14.23
364.446	14.19
364.655	14.2
364.864	14.06
365.073	14.28
365.282	14.15
365.491	14.08
365.7	13.99
365.909	13.78
366.118	13.95
366.327	13.85
366.536	13.7
366.745	13.97
366.954	13.68
367.162	13.48
367.371	13.15
367.58	13.04
367.789	13.14
367.998	13.16
368.207	13.3
368.415	13.26
368.624	13.14
368.833	13.11
369.042	12.68
369.25	12.77
369.459	12.73
369.668	12.87
369.877	13.01
370.085	12.86
370.294	12.82
370.503	12.76
370.711	12.52
370.92	12.79
371.129	12.89
371.337	13.03
371.546	12.83
371.754	13.01
371.963	12.92
372.171	12.76
372.38	12.68
372.589	12.34
372.797	12.44
373.006	12.62
373.214	12.61
373.423	12.29
373.631	12.13
373.84	12.42
374.048	12.36
374.256	12.34
374.465	12.66
374.673	12.76
374.882	13
375.09	12.9
375.298	12.65
375.507	12.53
375.715	12.86
375.923	12.74
376.132	12.45
376.34	12.54
376.548	12.69
376.757	12.45
376.965	12.62
377.173	12.48
377.381	12.61
377.59	12.76
377.798	12.64
378.006	12.75
378.214	12.81
378.423	12.98
378.631	12.66
378.839	12.68
379.047	12.67
379.255	12.45
379.463	12.79
379.671	12.52
379.879	12.54
380.088	12.88
380.296	12.77
380.504	12.81
380.712	13
380.92	13.44
381.128	13.36
381.336	13.6
381.544	13.79
381.752	13.57
381.96	13.89
382.168	13.73
382.376	13.71
382.584	13.83
382.791	13.99
382.999	13.67
383.207	13.56
383.415	13.48
383.623	13.51
383.831	13.56
384.039	13.7
384.247	13.57
384.454	13.56
384.662	13.56
384.87	13.46
385.078	13.39
385.285	13.6
385.493	13.56
385.701	13.58
385.909	13.52
386.116	13.26
386.324	13.16
386.532	13.08
386.739	13.15
386.947	13
387.155	12.91
387.362	12.92
387.57	12.9
387.778	12.73
387.985	12.62
388.193	12.62
388.4	12.63
388.608	12.57
388.816	12.7
389.023	12.84
389.231	12.62
389.438	12.49
389.646	12.42
389.853	12.4
390.061	12.57
390.268	12.64
390.475	12.73
390.683	12.79
390.89	12.83
391.098	12.89
391.305	12.95
391.512	13.28
391.72	13.42
391.927	13.38
392.135	13.46
392.342	13.39
392.549	13.48
392.756	13.39
392.964	13.32
393.171	13.28
393.378	13.3
393.586	13.18
393.793	13.31
394	13.27
394.207	13.35
394.414	13.22
394.622	13.46
394.829	13.5
395.036	13.31
395.243	13.47
395.45	13.51
395.657	13.48
395.864	13.4
396.072	13.28
396.279	13.34
396.486	13.41
396.693	13.52
396.9	13.31
397.107	13.49
397.314	13.7
397.521	13.55
397.728	13.58
397.935	13.48
398.142	13.45
398.349	13.61
398.556	13.48
398.763	13.5
398.97	13.36
399.177	13.34
399.383	13.01
399.59	12.94
399.797	13.14
400.004	13.09
400.211	13.18
400.418	13.36
400.625	13.03
400.831	13.26
401.038	13.02
401.245	13.24
401.452	13.39
401.658	13.59
401.865	13.78
402.072	13.63
402.279	13.8
402.485	13.68
402.692	13.64
402.899	13.73
403.105	13.72
403.312	13.94
403.519	13.98
403.725	14.12
403.932	14.18
404.138	14.13
404.345	14.13
404.552	13.98
404.758	13.99
404.965	14.02
405.171	14.17
405.378	14.08
405.584	13.86
405.791	13.62
405.997	13.52
406.204	13.48
406.41	13.49
406.617	13.45
406.823	13.67
407.029	13.72
407.236	13.8
407.442	13.76
407.649	14.14
407.855	14.32
408.061	14.4
408.268	14.44
408.474	14.43
408.68	14.32
408.887	14.52
409.093	14.48
409.299	14.54
409.505	14.54
409.712	14.4
409.918	14.02
410.124	13.99
410.33	14.09
410.537	14.16
410.743	14.4
410.949	14.63
411.155	14.5
411.361	14.23
411.567	14.19
411.773	14.17
411.98	14.4
412.186	14.46
412.392	14.62
412.598	14.63
412.804	14.48
413.01	14.33
413.216	14.08
413.422	14.21
413.628	14.35
413.834	14.45
414.04	14.38
414.246	14.33
414.452	14.56
414.658	14.64
414.864	14.56
415.07	14.7
415.275	14.75
415.481	14.74
415.687	14.7
415.893	14.74
416.099	14.61
416.305	14.74
416.511	14.8
416.716	14.68
416.922	14.77
417.128	14.84
417.334	14.98
417.539	14.95
417.745	15.16
417.951	15.25
418.157	15.4
418.362	15.47
418.568	15.54
418.774	15.59
418.979	15.69
419.185	15.61
419.391	15.75
419.596	15.68
419.802	15.74
420.008	15.74
420.213	15.85
420.419	15.87
420.624	15.91
420.83	15.86
421.035	15.82
421.241	15.81
421.446	15.87
421.652	15.86
421.857	15.88
422.063	15.83
422.268	15.89
422.474	15.72
422.679	15.74
422.885	15.74
423.09	15.75
423.295	15.79
423.501	15.73
423.706	15.72
423.911	15.67
424.117	15.62
424.322	15.67
424.527	15.52
424.733	15.6
424.938	15.48
425.143	15.59
425.349	15.53
425.554	15.51
425.759	15.62
425.964	15.61
426.169	15.69
426.375	15.67
426.58	15.63
426.785	15.73
426.99	15.78
427.195	15.92
427.4	15.8
427.605	15.9
427.811	15.99
428.016	15.84
428.221	15.79
428.426	15.81
428.631	15.85
428.836	15.83
429.041	15.8
429.246	15.78
429.451	15.68
429.656	15.55
429.861	15.55
430.066	15.51
430.271	15.53
430.476	15.62
430.681	15.55
430.886	15.72
431.09	15.75
431.295	15.82
431.5	15.88
431.705	15.96
431.91	16.13
432.115	16.23
432.32	16.24
432.524	16.21
432.729	16.26
432.934	16.33
433.139	16.25
433.343	16.46
433.548	16.52
433.753	16.39
433.958	16.4
434.162	16.56
434.367	16.59
434.572	16.71
434.776	16.96
434.981	17.01
435.186	17.12
435.39	17.19
435.595	17.08
435.799	17.05
436.004	17.34
436.209	17.4
436.413	17.28
436.618	17.19
436.822	17.07
437.027	16.93
437.231	16.83
437.436	16.62
437.64	16.59
437.845	16.65
438.049	16.7
438.253	16.49
438.458	16.36
438.662	16.35
438.867	16.41
439.071	16.49
439.275	16.48
439.48	16.5
439.684	16.56
439.888	16.49
440.093	16.42
440.297	16.45
440.501	16.44
440.706	16.52
440.91	16.48
441.114	16.42
441.318	16.42
441.523	16.45
441.727	16.38
441.931	16.35
442.135	16.44
442.339	16.49
442.543	16.44
442.748	16.48
442.952	16.46
443.156	16.52
443.36	16.54
443.564	16.51
443.768	16.53
443.972	16.65
444.176	16.81
444.38	16.76
444.584	16.76
444.788	16.74
444.992	16.78
445.196	16.81
445.4	16.89
445.604	16.9
445.808	16.82
446.012	16.74
446.216	16.72
446.42	16.65
446.624	16.7
446.828	16.7
447.032	16.71
447.235	16.66
447.439	16.58
447.643	16.55
447.847	16.64
448.051	16.74
448.254	16.69
448.458	16.58
448.662	16.63
448.866	16.6
449.069	16.61
449.273	16.68
449.477	16.65
449.681	16.7
449.884	16.66
450.088	16.46
450.292	16.51
450.495	16.65
450.699	16.65
450.902	16.5
451.106	16.6
451.31	16.43
451.513	16.35
451.717	16.42
451.92	16.45
452.124	16.35
452.327	16.42
452.531	16.34
452.734	16.38
452.938	16.49
453.141	16.43
453.345	16.29
453.548	16.44
453.752	16.43
453.955	16.42
454.158	16.39
454.362	16.54
454.565	16.5
454.769	16.52
454.972	16.41
455.175	16.34
455.379	16.4
