Data from 2938732__Reflection_03.txt Node
Date: Sun Mar 15 18:46:01 EDT 2015
User: robert
Spectrometer: USB4E03002
Autoset integration time: false
Trigger mode: 4
Integration Time (sec): 1.000000E-1
Scans to average: 10
Electric dark correction enabled: false
Nonlinearity correction enabled: false
Boxcar width: 5
Stray light correction enabled: false
XAxis mode: Wavelengths
Stop averaging: false
Number of Pixels in Spectrum: 3648
>>>>>Begin Spectral Data<<<<<
177.575	-318.07
177.794	644
178.014	771.05
178.233	-3671.43
178.452	-1473.33
178.672	-216.22
178.891	24.55
179.11	45.7
179.33	319.18
179.549	462.5
179.768	207.01
179.987	223.73
180.207	141.36
180.426	136.36
180.645	300.5
180.864	387.57
181.084	262.45
181.303	164.9
181.522	286.44
181.741	133.78
181.96	203.15
182.179	673.33
182.398	-191.84
182.618	-441.27
182.837	-164
183.056	-96.39
183.275	-288.89
183.494	-289.92
183.713	-75.27
183.932	-55.89
184.151	-24
184.37	-23.32
184.589	-157.23
184.808	-544.44
185.027	-726.83
185.246	464.44
185.465	213.06
185.684	110.34
185.903	83.33
186.122	98.33
186.341	128.26
186.56	19.77
186.779	-305.71
186.998	1197.56
187.216	391.98
187.435	311.74
187.654	240.68
187.873	204.83
188.092	226.09
188.311	291.32
188.53	317.24
188.748	427.54
188.967	251.36
189.186	271.53
189.405	131.82
189.623	223.81
189.842	-165.52
190.061	101.2
190.28	155.42
190.498	2100
190.717	-1440
190.936	7.81
191.154	71.06
191.373	63.85
191.592	76.62
191.81	59.26
192.029	72.79
192.248	221.58
192.466	300
192.685	99.61
192.904	217.81
193.122	201.81
193.341	1057.69
193.559	423.97
193.778	496.43
193.996	307.45
194.215	291.98
194.433	202.82
194.652	91.14
194.87	58.89
195.089	79.61
195.307	36.96
195.526	88.8
195.744	43.24
195.963	92.16
196.181	-49.18
196.399	-13.16
196.618	-175.71
196.836	-2233.33
197.055	-87.5
197.273	-1.39
197.491	25.67
197.71	40.61
197.928	85.57
198.146	86.45
198.365	-357.14
198.583	127.5
198.801	725.64
199.019	336.25
199.238	335.29
199.456	334.65
199.674	87.01
199.892	76.85
200.111	-3.57
200.329	201.72
200.547	-30.97
200.765	-54.35
200.983	-97.5
201.202	-92.64
201.42	-14.32
201.638	-22.73
201.856	-26.12
202.074	1.36
202.292	-1.73
202.51	43.55
202.728	45.01
202.946	58.37
203.165	85.99
203.383	99.34
203.601	107.37
203.819	105.88
204.037	75.22
204.255	97.72
204.473	113.37
204.691	230.32
204.909	172.92
205.127	-1057.14
205.345	-140
205.562	-10.22
205.78	-32.88
205.998	-13.66
206.216	-2.37
206.434	-5.99
206.652	-104.84
206.87	-106.49
207.088	36.67
207.306	-27.75
207.523	31.21
207.741	47.9
207.959	-230.68
208.177	9.09
208.395	69.86
208.612	424.56
208.83	184.93
209.048	312.82
209.266	445.28
209.483	189.16
209.701	171.28
209.919	78.63
210.136	107.46
210.354	65.26
210.572	83.24
210.79	57.88
211.007	12.66
211.225	-0.17
211.442	9.27
211.66	2.42
211.878	7.26
212.095	-120.04
212.313	-119.78
212.53	-176.65
212.748	-228.18
212.966	-161.32
213.183	-166.43
213.401	-128.63
213.618	-108.77
213.836	-183.47
214.053	-155.76
214.271	-173.71
214.488	18.37
214.705	-4.06
214.923	-10.85
215.14	-9.27
215.358	-19.39
215.575	-25.83
215.793	-35.34
216.01	-40.04
216.227	-19.83
216.445	-38.08
216.662	-5.06
216.879	-42.23
217.097	-65.55
217.314	-135.23
217.531	-56.76
217.749	-86.89
217.966	-174.43
218.183	-21.63
218.4	-43.3
218.618	-67.78
218.835	-46.02
219.052	-17.52
219.269	1.28
219.487	5.38
219.704	8.93
219.921	11.18
220.138	19.47
220.355	10.32
220.572	-8.86
220.79	-2.18
221.007	-16.85
221.224	-21.17
221.441	-47.67
221.658	-54.16
221.875	-52.94
222.092	-56.47
222.309	-63.51
222.526	-70.2
222.743	-61.55
222.96	-71.32
223.177	-109.66
223.394	-71.96
223.611	-70.19
223.828	-51.07
224.045	-44.91
224.262	-37.65
224.479	-30.56
224.696	-29.05
224.913	-30.26
225.13	-23.54
225.347	-18.92
225.564	-15.35
225.781	-14.86
225.997	-4.91
226.214	-3.71
226.431	-7.24
226.648	-13.67
226.865	-13.28
227.082	-10.55
227.298	-9.15
227.515	-8.04
227.732	-7.26
227.949	-5.33
228.165	-5.57
228.382	-7.74
228.599	-8.22
228.816	-6.33
229.032	-5.22
229.249	-4.17
229.466	-5.26
229.682	-4.43
229.899	-5.26
230.116	-5.08
230.332	-5.42
230.549	-5.7
230.765	-4.79
230.982	-6.01
231.199	-7.03
231.415	-6.09
231.632	-6.57
231.848	-7.87
232.065	-7.07
232.281	-7.55
232.498	-8.95
232.714	-8.82
232.931	-9.28
233.147	-9.19
233.364	-6.68
233.58	-10.23
233.797	-11.46
234.013	-10.49
234.23	-7.69
234.446	-10.89
234.662	-9.26
234.879	-10.44
235.095	-7.81
235.312	-7.78
235.528	-6.37
235.744	-10.6
235.961	-9.2
236.177	-9.98
236.393	-11.39
236.61	-11.03
236.826	-10.41
237.042	-11.61
237.258	-9.88
237.475	-13.46
237.691	-12.35
237.907	-12.56
238.123	-7.23
238.339	-8.25
238.556	-5.33
238.772	-5.18
238.988	-7.22
239.204	-6.1
239.42	-4.05
239.636	-5.29
239.853	-5.36
240.069	-4.92
240.285	-6.02
240.501	-5.96
240.717	-4.19
240.933	-4.85
241.149	-4.69
241.365	-4.35
241.581	-4.58
241.797	-4.25
242.013	-3.87
242.229	-3.72
242.445	-4.13
242.661	-3.61
242.877	-4.59
243.093	-4.96
243.309	-4.75
243.525	-4.8
243.741	-5.02
243.957	-4.5
244.173	-5.53
244.388	-5.2
244.604	-3.96
244.82	-2.93
245.036	-3.21
245.252	-2.38
245.468	-1.54
245.683	-1.74
245.899	-2.08
246.115	-1.54
246.331	-1.77
246.547	-1.08
246.762	-0.64
246.978	-0.83
247.194	-1
247.409	-0.97
247.625	-0.8
247.841	-1.22
248.057	-1.64
248.272	-1.36
248.488	-1.26
248.703	-1.07
248.919	-1.31
249.135	-2.12
249.35	-2.37
249.566	-2.05
249.782	-2.72
249.997	-3.21
250.213	-3.2
250.428	-2.07
250.644	-1.51
250.859	-1.42
251.075	-1.5
251.29	-2.14
251.506	-1.58
251.721	-2.54
251.937	-3.53
252.152	-2.43
252.368	-3
252.583	-2.37
252.798	-2.86
253.014	-3.17
253.229	-3.67
253.445	-4.23
253.66	-4.03
253.875	-4.76
254.091	-4.49
254.306	-3.39
254.521	-4.68
254.737	-3.46
254.952	-4.38
255.167	-5.03
255.383	-5.39
255.598	-5.48
255.813	-4.48
256.028	-4.37
256.244	-3.08
256.459	-3.54
256.674	-4.17
256.889	-4.08
257.104	-3.55
257.32	-3.06
257.535	-2.18
257.75	-1.92
257.965	-1.58
258.18	-1.57
258.395	-1.4
258.61	-1.04
258.826	-0.73
259.041	-0.84
259.256	-0.86
259.471	-0.81
259.686	-0.84
259.901	-0.99
260.116	-0.82
260.331	-0.56
260.546	-0.64
260.761	-0.48
260.976	-0.92
261.191	-1.02
261.406	-0.92
261.621	-0.7
261.836	-0.85
262.05	-0.88
262.265	-1.06
262.48	-1.95
262.695	-2.51
262.91	-2.09
263.125	-2.44
263.34	-2.49
263.555	-2.5
263.769	-2.57
263.984	-3.03
264.199	-2.85
264.414	-2.58
264.629	-2.45
264.843	-2.22
265.058	-1.51
265.273	-1.52
265.488	-2.1
265.702	-2.07
265.917	-1.6
266.132	-1.4
266.346	-1.34
266.561	-1.77
266.776	-2.06
266.99	-2.3
267.205	-2.04
267.42	-2.81
267.634	-3.45
267.849	-3.21
268.063	-3.07
268.278	-2.96
268.492	-3.29
268.707	-2.96
268.922	-2.78
269.136	-2.53
269.351	-1.78
269.565	-1.4
269.78	-0.38
269.994	-0.18
270.209	-0.31
270.423	-0.49
270.637	-0.62
270.852	-0.46
271.066	-0.66
271.281	-0.75
271.495	-0.4
271.709	-0.97
271.924	-0.95
272.138	-1.46
272.353	-1.37
272.567	-1.3
272.781	-1.07
272.996	-1.13
273.21	-0.96
273.424	-1.21
273.638	-1.02
273.853	-1.43
274.067	-0.88
274.281	-1.44
274.495	-2.1
274.71	-2.56
274.924	-2.11
275.138	-2.59
275.352	-2.16
275.566	-2.58
275.781	-2.18
275.995	-2.4
276.209	-2.88
276.423	-3.4
276.637	-2.91
276.851	-1.98
277.065	-1.42
277.279	-1.6
277.493	-0.93
277.707	-1.59
277.921	-1.53
278.135	-1.45
278.349	-1.79
278.563	-1.93
278.777	-1.39
278.991	-1.55
279.205	-2.12
279.419	-1.99
279.633	-2.45
279.847	-2.4
280.061	-1.74
280.275	-1.24
280.489	-1.37
280.703	-1.29
280.917	-0.3
281.131	-0.61
281.344	-0.24
281.558	0.42
281.772	-0.33
281.986	0.03
282.2	0.04
282.414	-0.29
282.627	-0.53
282.841	-0.58
283.055	-0.24
283.269	-0.69
283.482	-0.63
283.696	-1.17
283.91	-1.04
284.123	-0.73
284.337	-0.57
284.551	-0.52
284.764	-0.46
284.978	-0.28
285.192	-0.68
285.405	-0.6
285.619	-0.36
285.833	-0.25
286.046	-0.45
286.26	-0.71
286.473	-0.85
286.687	-0.98
286.9	-0.99
287.114	-1.13
287.327	-1.55
287.541	-1.14
287.754	-1.14
287.968	-1.44
288.181	-1.49
288.395	-1.08
288.608	-0.92
288.822	-0.74
289.035	-0.99
289.248	-1.09
289.462	-0.59
289.675	-0.52
289.889	-0.43
290.102	-0.6
290.315	-0.96
290.529	-0.66
290.742	-0.66
290.955	-0.84
291.169	-0.67
291.382	-0.59
291.595	-0.93
291.808	-1.61
292.022	-1.75
292.235	-2.13
292.448	-2.04
292.661	-1.7
292.875	-2.25
293.088	-1.96
293.301	-2
293.514	-2.1
293.727	-2.58
293.94	-2.44
294.153	-2.03
294.367	-1.77
294.58	-1.91
294.793	-2.07
295.006	-1.86
295.219	-1.85
295.432	-1.7
295.645	-1.52
295.858	-1.43
296.071	-0.86
296.284	-0.83
296.497	-0.86
296.71	-0.89
296.923	-0.19
297.136	-0.08
297.349	0.14
297.562	0.26
297.775	0.19
297.988	0.14
298.201	0.06
298.414	-0.07
298.626	0.01
298.839	0.1
299.052	0.27
299.265	-0.14
299.478	-0.15
299.691	-0.15
299.903	-0.34
300.116	-0.6
300.329	-0.92
300.542	-0.45
300.755	-0.15
300.967	0.08
301.18	0.11
301.393	0.16
301.605	0.51
301.818	0.08
302.031	0.02
302.243	0.48
302.456	0.52
302.669	0.34
302.881	0.07
303.094	-0.05
303.307	-0.09
303.519	-0.21
303.732	-0.4
303.944	-0.48
304.157	-0.17
304.37	-0.85
304.582	-0.86
304.795	-0.79
305.007	-0.18
305.22	0.02
305.432	0.02
305.645	-0.45
305.857	-0.44
306.069	-0
306.282	-0.36
306.494	-0.4
306.707	0.01
306.919	-0.3
307.132	-0.7
307.344	-0.94
307.556	-1.18
307.769	-0.74
307.981	-0.2
308.193	-0.14
308.406	-0.55
308.618	-0.38
308.83	-0.42
309.043	-0.14
309.255	-0.37
309.467	-0.2
309.679	-0.19
309.892	-0.16
310.104	-0.36
310.316	-0.37
310.528	-0.36
310.74	-0.46
310.953	-0.4
311.165	0.11
311.377	-0.09
311.589	0.11
311.801	0.47
312.013	0.43
312.225	0.47
312.437	0.17
312.649	0.03
312.862	-0.22
313.074	0.06
313.286	-0.31
313.498	-1.03
313.71	-0.96
313.922	-0.9
314.134	-1.67
314.346	-1.44
314.558	-1.32
314.77	-1.1
314.982	-1.49
315.193	-1.17
315.405	-1.23
315.617	-0.95
315.829	-0.4
316.041	-0.9
316.253	-0.8
316.465	0.17
316.677	-0.2
316.888	-0.46
317.1	-0.01
317.312	0.88
317.524	0.89
317.736	0.91
317.947	1.13
318.159	0.86
318.371	1.16
318.583	1.17
318.794	0.73
319.006	0.39
319.218	0.57
319.43	-0.06
319.641	-0.59
319.853	-0.17
320.064	0.11
320.276	0.16
320.488	0.67
320.699	1.02
320.911	1.01
321.123	1.01
321.334	1.49
321.546	1.26
321.757	1.82
321.969	1.6
322.18	0.87
322.392	0.79
322.603	0.93
322.815	0.34
323.026	0.82
323.238	1.45
323.449	1.9
323.661	2.54
323.872	2.65
324.083	2.19
324.295	2.51
324.506	2.78
324.718	2.79
324.929	2.83
325.14	3.28
325.352	3.57
325.563	3.56
325.774	3.33
325.986	3.25
326.197	3.73
326.408	4.17
326.62	4.19
326.831	4.66
327.042	4.41
327.253	4.59
327.464	4.96
327.676	4.79
327.887	5.23
328.098	5.21
328.309	4.87
328.52	5.03
328.732	5.05
328.943	5.34
329.154	5.11
329.365	5.39
329.576	5.95
329.787	5.71
329.998	6.19
330.209	5.66
330.42	6.43
330.631	6.84
330.842	6.83
331.053	7.35
331.264	8.08
331.475	8.54
331.686	9.27
331.897	8.69
332.108	9.17
332.319	8.86
332.53	8.94
332.741	8.64
332.952	9.24
333.163	8.79
333.374	8.46
333.585	8.22
333.795	7.9
334.006	7.36
334.217	7.57
334.428	7.49
334.639	7.33
334.849	7.32
335.06	7.45
335.271	6.99
335.482	7.59
335.692	7.73
335.903	7.56
336.114	7.81
336.325	8
336.535	8.34
336.746	8.52
336.957	8.27
337.167	8.54
337.378	8.3
337.589	8.13
337.799	7.87
338.01	7.84
338.22	8.21
338.431	8.36
338.642	8.48
338.852	8.21
339.063	8.15
339.273	8.18
339.484	8.18
339.694	9.06
339.905	9.06
340.115	8.57
340.326	8.71
340.536	8.6
340.746	8.52
340.957	8.46
341.167	8.67
341.378	8.73
341.588	8.87
341.799	8.87
342.009	8.01
342.219	7.92
342.43	8.65
342.64	8.49
342.85	8.23
343.061	8.23
343.271	8.11
343.481	7.78
343.691	7.73
343.902	7.64
344.112	7.39
344.322	7.82
344.532	7.74
344.743	7.62
344.953	7.9
345.163	7.99
345.373	7.84
345.583	7.87
345.793	8.1
346.004	7.97
346.214	8.33
346.424	8.66
346.634	8.73
346.844	9.29
347.054	9.57
347.264	9.68
347.474	9.35
347.684	9.51
347.894	9.43
348.104	9.21
348.314	9.29
348.524	9.37
348.734	9.45
348.944	9.26
349.154	9.37
349.364	9.34
349.574	9.32
349.784	9.52
349.994	9.46
350.204	9.99
350.413	10.18
350.623	10.11
350.833	9.74
351.043	9.62
351.253	9.63
351.463	9.37
351.672	9.22
351.882	9.09
352.092	9.04
352.302	8.69
352.511	8.16
352.721	7.8
352.931	7.83
353.141	8.3
353.35	8.18
353.56	8.24
353.77	8.37
353.979	8.27
354.189	8.1
354.399	8.31
354.608	8.05
354.818	8.5
355.027	8.85
355.237	8.79
355.447	8.52
355.656	8.53
355.866	8.4
356.075	8.68
356.285	8.52
356.494	8.67
356.704	8.68
356.913	9.54
357.123	8.96
357.332	8.85
357.542	8.69
357.751	8.92
357.96	9.01
358.17	9.13
358.379	8.74
358.589	8.98
358.798	9.05
359.007	9.08
359.217	8.57
359.426	9.03
359.635	9.11
359.845	9.35
360.054	9.08
360.263	8.94
360.472	8.8
360.682	8.96
360.891	8.83
361.1	8.56
361.309	8.61
361.519	8.93
361.728	8.74
361.937	8.72
362.146	8.7
362.355	9.02
362.564	9.11
362.774	9.28
362.983	9.19
363.192	9.21
363.401	9.57
363.61	9.65
363.819	9.5
364.028	9.83
364.237	9.83
364.446	9.64
364.655	9.26
364.864	8.93
365.073	8.59
365.282	8.58
365.491	8.4
365.7	8.05
365.909	7.79
366.118	7.96
366.327	7.69
366.536	7.94
366.745	7.9
366.954	8.04
367.162	8.27
367.371	8.65
367.58	8.82
367.789	8.9
367.998	9.16
368.207	9.31
368.415	8.87
368.624	8.62
368.833	8.08
369.042	8.04
369.25	8.03
369.459	7.92
369.668	7.74
369.877	7.43
370.085	7.54
370.294	7.5
370.503	7.44
370.711	7.23
370.92	7.4
371.129	7.84
371.337	7.98
371.546	7.63
371.754	7.83
371.963	7.95
372.171	8.21
372.38	8.36
372.589	8.34
372.797	8.15
373.006	8.36
373.214	8.46
373.423	7.93
373.631	7.99
373.84	8.43
374.048	8.05
374.256	7.75
374.465	7.63
374.673	7.38
374.882	6.95
375.09	6.99
375.298	7.08
375.507	6.84
375.715	7.15
375.923	7.14
376.132	7.17
376.34	7.38
376.548	7.51
376.757	7.18
376.965	7.25
377.173	7.76
377.381	7.8
377.59	7.9
377.798	8
378.006	7.86
378.214	7.94
378.423	7.72
378.631	7.74
378.839	7.87
379.047	8.1
379.255	8.11
379.463	7.8
379.671	7.9
379.879	7.65
380.088	7.83
380.296	7.95
380.504	7.73
380.712	7.84
380.92	7.69
381.128	7.61
381.336	7.6
381.544	7.82
381.752	7.98
381.96	7.85
382.168	8.17
382.376	7.86
382.584	7.75
382.791	7.95
382.999	7.62
383.207	7.56
383.415	7.33
383.623	7.19
383.831	6.87
384.039	6.64
384.247	6.72
384.454	6.64
384.662	6.96
384.87	6.99
385.078	6.83
385.285	7.12
385.493	7.39
385.701	7.56
385.909	7.72
386.116	7.85
386.324	8
386.532	7.96
386.739	8.01
386.947	7.89
387.155	7.74
387.362	7.94
387.57	8
387.778	8
387.985	8.1
388.193	8.14
388.4	8.25
388.608	8.33
388.816	8.15
389.023	8.23
389.231	7.97
389.438	8
389.646	7.8
389.853	7.74
390.061	7.84
390.268	7.91
390.475	7.87
390.683	7.68
390.89	7.64
391.098	7.75
391.305	7.47
391.512	7.58
391.72	7.74
391.927	7.77
392.135	7.69
392.342	7.41
392.549	7.37
392.756	7.45
392.964	7.51
393.171	7.54
393.378	7.59
393.586	7.45
393.793	7.74
394	7.59
394.207	7.6
394.414	7.63
394.622	7.63
394.829	7.55
395.036	7.27
395.243	7.35
395.45	7.23
395.657	7.12
395.864	7.33
396.072	7
396.279	7.22
396.486	7.39
396.693	7.32
396.9	7.38
397.107	7.36
397.314	7.42
397.521	7.17
397.728	7.05
397.935	7.09
398.142	7.14
398.349	7.2
398.556	7.09
398.763	6.99
398.97	7.01
399.177	7.07
399.383	6.98
399.59	6.95
399.797	7.18
400.004	7.26
400.211	7.21
400.418	7.23
400.625	7.29
400.831	7.19
401.038	7.18
401.245	7.19
401.452	7.32
401.658	7.29
401.865	7.49
402.072	7.31
402.279	7.6
402.485	7.9
402.692	7.75
402.899	7.6
403.105	7.76
403.312	7.7
403.519	7.95
403.725	7.96
403.932	8.15
404.138	8.2
404.345	8.32
404.552	8.03
404.758	7.65
404.965	7.7
405.171	7.83
405.378	7.71
405.584	7.71
405.791	7.59
405.997	7.41
406.204	7.25
406.41	7.08
406.617	7.03
406.823	7.09
407.029	7.2
407.236	7.13
407.442	7.24
407.649	7.26
407.855	7.36
408.061	7.34
408.268	7.21
408.474	7.27
408.68	7.23
408.887	7.11
409.093	6.93
409.299	7.02
409.505	7.33
409.712	7.39
409.918	7.41
410.124	7.45
410.33	7.4
410.537	7.47
410.743	7.42
410.949	7.29
411.155	7.36
411.361	7.54
411.567	7.69
411.773	7.49
411.98	7.36
412.186	7.36
412.392	7.05
412.598	6.92
412.804	7.18
413.01	7.08
413.216	7.41
413.422	7.44
413.628	7.35
413.834	7.25
414.04	7.24
414.246	7.12
414.452	7
414.658	7.21
414.864	7.32
415.07	7.3
415.275	7.3
415.481	7.39
415.687	7.49
415.893	7.67
416.099	7.73
416.305	7.76
416.511	7.78
416.716	7.86
416.922	7.96
417.128	7.95
417.334	7.81
417.539	7.9
417.745	7.77
417.951	7.79
418.157	7.78
418.362	7.78
418.568	7.89
418.774	7.98
418.979	8.06
419.185	7.91
419.391	7.99
419.596	8.05
419.802	8.11
420.008	8.13
420.213	8.9
420.419	8.87
420.624	8.87
420.83	8.81
421.035	8.83
421.241	8.83
421.446	8.9
421.652	8.91
421.857	8.94
422.063	8.92
422.268	8.97
422.474	8.14
422.679	8.15
422.885	8.19
423.09	8.08
423.295	8.16
423.501	8.12
423.706	8.08
423.911	8.03
424.117	8
424.322	7.96
424.527	7.97
424.733	8.06
424.938	8.03
425.143	7.92
425.349	7.92
425.554	7.84
425.759	7.96
425.964	8.05
426.169	8.06
426.375	8.01
426.58	8.02
426.785	7.91
426.99	7.89
427.195	7.77
427.4	7.67
427.605	7.68
427.811	7.63
428.016	7.35
428.221	7.19
428.426	7.07
428.631	7.26
428.836	7.38
429.041	7.44
429.246	7.4
429.451	7.6
429.656	7.78
429.861	7.88
430.066	7.88
430.271	7.86
430.476	7.98
430.681	7.96
430.886	7.75
431.09	7.71
431.295	7.74
431.5	7.75
431.705	7.52
431.91	7.42
432.115	7.33
432.32	7.29
432.524	7.43
432.729	7.43
432.934	7.52
433.139	7.63
433.343	7.61
433.548	7.64
433.753	7.68
433.958	8.03
434.162	8.22
434.367	8.41
434.572	8.48
434.776	8.59
434.981	8.65
435.186	8.67
435.39	8.67
435.595	8.79
435.799	8.7
436.004	8.68
436.209	8.55
436.413	8.55
436.618	8.51
436.822	8.48
437.027	8.41
437.231	8.29
437.436	8.21
437.64	8.2
437.845	7.99
438.049	8.05
438.253	8.04
438.458	8.07
438.662	7.95
438.867	7.98
439.071	7.98
439.275	7.99
439.48	7.99
439.684	8.17
439.888	8.16
440.093	8.21
440.297	8.11
440.501	8.11
440.706	7.95
440.91	8.04
441.114	7.98
441.318	7.93
441.523	7.82
441.727	7.88
441.931	7.77
442.135	7.79
442.339	7.82
442.543	7.81
442.748	7.83
442.952	8.01
443.156	8.1
443.36	8.19
443.564	8.2
443.768	8.37
443.972	8.3
444.176	8.23
444.38	8.09
444.584	8.07
444.788	8.15
444.992	8.25
445.196	8.27
445.4	8.15
445.604	8.2
445.808	8.31
446.012	8.22
446.216	8.24
446.42	8.33
446.624	8.37
446.828	8.47
447.032	8.47
447.235	8.45
447.439	8.38
447.643	8.39
447.847	8.37
448.051	8.27
448.254	8.31
448.458	8.47
448.662	8.45
448.866	8.46
449.069	8.47
449.273	8.46
449.477	8.42
449.681	8.47
449.884	8.35
450.088	8.34
450.292	8.36
450.495	8.42
450.699	8.07
450.902	8
451.106	7.91
451.31	7.78
451.513	7.74
451.717	7.67
451.92	7.54
452.124	7.56
452.327	7.52
452.531	7.53
452.734	7.46
452.938	7.69
453.141	7.69
453.345	7.74
453.548	7.84
453.752	7.97
453.955	8.08
454.158	8.11
454.362	8.15
454.565	8.09
454.769	8.06
454.972	8.13
455.175	8.2
455.379	8.24
455.582	8.37
455.785	8.38
455.988	8.22
456.192	8.06
456.395	8.1
456.598	8.13
456.801	8.2
457.005	8.32
457.208	8.17
457.411	7.93
457.614	7.93
457.817	7.84
458.021	7.87
458.224	8.02
458.427	8.1
458.63	8.22
458.833	8.26
459.036	8.25
459.239	8.17
459.442	8.26
459.645	8.35
459.848	8.32
460.051	8.25
460.254	8.16
460.457	8.16
460.66	8.26
460.863	8.22
461.066	8.24
461.269	8.15
461.472	8.25
461.675	8.17
461.878	8.1
462.081	8.17
462.284	8.2
462.486	8.2
462.689	8.22
462.892	8.14
463.095	8.09
463.298	8.03
463.5	8.07
463.703	7.99
463.906	7.93
464.109	7.9
464.311	7.86
464.514	7.98
