Data from 2938776__Reflection_03.txt Node
Date: Fri Mar 13 13:55:49 EDT 2015
User: robert
Spectrometer: USB4E03002
Autoset integration time: false
Trigger mode: 4
Integration Time (sec): 1.000000E-1
Scans to average: 10
Electric dark correction enabled: false
Nonlinearity correction enabled: false
Boxcar width: 5
Stray light correction enabled: false
XAxis mode: Wavelengths
Stop averaging: false
Number of Pixels in Spectrum: 3648
>>>>>Begin Spectral Data<<<<<
177.575	-84.03
177.794	-339.73
178.014	-1133.33
178.233	647.76
178.452	1135.14
178.672	184.09
178.891	201.22
179.11	852.17
179.33	-249.25
179.549	-125.4
179.768	-983.33
179.987	562.69
180.207	1322.22
180.426	666.15
180.645	-1002.86
180.864	-570.97
181.084	-199.21
181.303	-265.89
181.522	-1444.68
181.741	4946.67
181.96	259.37
182.179	190.72
182.398	126.75
182.618	85.51
182.837	106.27
183.056	57.18
183.275	52.55
183.494	45.45
183.713	13.87
183.932	-14.86
184.151	-8.7
184.37	-109.96
184.589	-209.55
184.808	-364.44
185.027	-27.72
185.246	-51.91
185.465	-21.67
185.684	-23.34
185.903	-42.69
186.122	-2.91
186.341	15.75
186.56	15.41
186.779	42.02
186.998	74.14
187.216	105.19
187.435	234.75
187.654	130.11
187.873	96.81
188.092	82.47
188.311	167.05
188.53	197.12
188.748	817.19
188.967	-1487.5
189.186	328.26
189.405	377.7
189.623	207.25
189.842	164.73
190.061	180.53
190.28	251.14
190.498	187.01
190.717	148.27
190.936	144.46
191.154	106.34
191.373	100.62
191.592	94.99
191.81	79.45
192.029	59.53
192.248	62.05
192.466	50
192.685	35.54
192.904	20.7
193.122	-38.5
193.341	-106.81
193.559	-230
193.778	-64.16
193.996	-116.42
194.215	-1172
194.433	-248.6
194.652	-224.32
194.87	-261.7
195.089	-6240
195.307	-1088.46
195.526	124.3
195.744	-55.32
195.963	53.01
196.181	59.92
196.399	64.27
196.618	68.56
196.836	121.74
197.055	101.3
197.273	169.23
197.491	397.06
197.71	240.74
197.928	132.4
198.146	147.46
198.365	81.33
198.583	-106.06
198.801	119.21
199.019	145.86
199.238	113.39
199.456	91.22
199.674	99.34
199.892	122.76
200.111	149.45
200.329	135.24
200.547	111.08
200.765	109.48
200.983	70.78
201.202	180.37
201.42	247.92
201.638	-686.96
201.856	-132.99
202.074	-385.37
202.292	6.32
202.51	-0.78
202.728	39.57
202.946	73.83
203.165	171.43
203.383	6300
203.601	104.93
203.819	114.85
204.037	82.89
204.255	122.12
204.473	56.97
204.691	62.43
204.909	12.56
205.127	-43.1
205.345	-58.28
205.562	-100.33
205.78	-8.66
205.998	7.42
206.216	12.59
206.434	11.83
206.652	35.07
206.87	18.04
207.088	31.2
207.306	69.7
207.523	59.64
207.741	54.67
207.959	65.4
208.177	36.55
208.395	-10.88
208.612	-18.24
208.83	-33.6
209.048	-161.73
209.266	-1336.67
209.483	1644.12
209.701	2352
209.919	-759.38
210.136	-9000
210.354	1338.89
210.572	297.27
210.79	-263.55
211.007	-73.21
211.225	-340.68
211.442	-35.61
211.66	6.64
211.878	28.42
212.095	185.44
212.313	212.59
212.53	188.84
212.748	150.91
212.966	123.52
213.183	147.93
213.401	124.33
213.618	110.46
213.836	106.2
214.053	112.58
214.271	118.08
214.488	0.12
214.705	-1.65
214.923	6.65
215.14	22.17
215.358	3.94
215.575	16.87
215.793	26.81
216.01	23.43
216.227	24.7
216.445	32.37
216.662	28.81
216.879	27.26
217.097	28.35
217.314	25.51
217.531	25
217.749	38.34
217.966	27.18
218.183	21.69
218.4	5.01
218.618	9.83
218.835	1.41
219.052	-8.14
219.269	-4.24
219.487	-28.49
219.704	-16.26
219.921	-22.85
220.138	-16.69
220.355	-14.96
220.572	-9.45
220.79	-4.73
221.007	-12.69
221.224	-11.48
221.441	-13.2
221.658	-11.37
221.875	-1.85
222.092	-4.9
222.309	-7.8
222.526	-14.67
222.743	-15.58
222.96	-11.64
223.177	-9.03
223.394	-9.51
223.611	-12.93
223.828	-5.61
224.045	-9.19
224.262	-4.11
224.479	1.39
224.696	3.58
224.913	5.24
225.13	6.4
225.347	6.34
225.564	8.08
225.781	8.41
225.997	6.73
226.214	7.22
226.431	9.35
226.648	3.96
226.865	4.78
227.082	2.86
227.298	2.45
227.515	1.26
227.732	1.66
227.949	-0.39
228.165	0.07
228.382	0.54
228.599	-0.88
228.816	-0.67
229.032	-0.71
229.249	-1.49
229.466	-0.62
229.682	-1.23
229.899	-1.58
230.116	-2.6
230.332	-2.18
230.549	-2.51
230.765	-2.04
230.982	-1.59
231.199	-1.58
231.415	0.28
231.632	0.91
231.848	1.24
232.065	0.46
232.281	1.59
232.498	1.25
232.714	1.99
232.931	2.29
233.147	1.62
233.364	2.63
233.58	0.92
233.797	-1.86
234.013	-2.53
234.23	-3.37
234.446	-2.01
234.662	-2.81
234.879	-2.53
235.095	-2.21
235.312	-0.07
235.528	-1.21
235.744	-3.65
235.961	-1.87
236.177	-1.17
236.393	-1.08
236.61	-1.84
236.826	-2.4
237.042	-1.92
237.258	-2.2
237.475	-3.22
237.691	-6.09
237.907	-5.4
238.123	-1.88
238.339	-3.47
238.556	-2.51
238.772	-2.85
238.988	-1.5
239.204	-0.04
239.42	1.29
239.636	1.87
239.853	1.95
240.069	3.4
240.285	3.09
240.501	2.78
240.717	3.32
240.933	2.92
241.149	2.26
241.365	1.91
241.581	1.08
241.797	0.22
242.013	0.85
242.229	1.03
242.445	0.56
242.661	0.82
242.877	0.33
243.093	0.07
243.309	-0.08
243.525	0.14
243.741	0.2
243.957	0.42
244.173	0.54
244.388	0.14
244.604	-0.4
244.82	0.01
245.036	-0.04
245.252	-0.24
245.468	0.06
245.683	0.45
245.899	0.07
246.115	0.4
246.331	0.71
246.547	0.56
246.762	0.48
246.978	0.51
247.194	0.58
247.409	0.7
247.625	0.57
247.841	0.38
248.057	0
248.272	0.29
248.488	0.14
248.703	0.26
248.919	0.34
249.135	0.23
249.35	0.94
249.566	0.75
249.782	0.85
249.997	1.33
250.213	1.5
250.428	2.08
250.644	1.79
250.859	1.27
251.075	1.14
251.29	0.88
251.506	1.42
251.721	0.67
251.937	0.08
252.152	-0.73
252.368	-0.11
252.583	-0.18
252.798	-0.16
253.014	-0.1
253.229	0.06
253.445	-0.78
253.66	-0.57
253.875	-0.84
254.091	-1.74
254.306	-1.14
254.521	-0.57
254.737	-1
254.952	-0.87
255.167	-1.6
255.383	-0.96
255.598	-1.45
255.813	-0.32
256.028	-0.16
256.244	-1.38
256.459	-1.19
256.674	-2.25
256.889	-2.56
257.104	-3.23
257.32	-2.5
257.535	-2.37
257.75	-2.01
257.965	-2.02
258.18	-2.18
258.395	-1.78
258.61	-1.03
258.826	-0.87
259.041	-0.2
259.256	0.32
259.471	0.29
259.686	0.08
259.901	0.12
260.116	0.12
260.331	0.47
260.546	0.53
260.761	0.32
260.976	0.08
261.191	0.17
261.406	-0.01
261.621	-0.35
261.836	-0.1
262.05	-0.48
262.265	-0.2
262.48	-0.74
262.695	-1.22
262.91	-1.74
263.125	-1.8
263.34	-1.92
263.555	-1.67
263.769	-1.84
263.984	-2.49
264.199	-2.89
264.414	-2.52
264.629	-2.8
264.843	-2.12
265.058	-1.78
265.273	-1.22
265.488	-1.07
265.702	-0.28
265.917	-0.42
266.132	-0.42
266.346	-0.24
266.561	0.35
266.776	0.5
266.99	0.75
267.205	0.28
267.42	0.35
267.634	0.58
267.849	0.73
268.063	0.59
268.278	0.64
268.492	0.48
268.707	0.82
268.922	0.19
269.136	0.56
269.351	0.2
269.565	0.53
269.78	0.59
269.994	0.14
270.209	-0.11
270.423	-0.43
270.637	-0.7
270.852	-0.47
271.066	-0.32
271.281	0.01
271.495	-0.32
271.709	-0.27
271.924	-0.02
272.138	-0.05
272.353	0.44
272.567	0.78
272.781	0.77
272.996	0.96
273.21	1.43
273.424	1.41
273.638	1.31
273.853	1.36
274.067	1.35
274.281	1.25
274.495	1.29
274.71	1.3
274.924	1.25
275.138	1.41
275.352	1.18
275.566	0.42
275.781	-0.29
275.995	0.37
276.209	0.62
276.423	0.22
276.637	-0.3
276.851	-0.15
277.065	-0.75
277.279	-0.97
277.493	-0.87
277.707	-0.48
277.921	-0.84
278.135	-0.36
278.349	-1.25
278.563	-1.29
278.777	-0.6
278.991	0.09
279.205	0.28
279.419	0.43
279.633	0.47
279.847	0.49
280.061	-0.25
280.275	0.02
280.489	0.14
280.703	0.57
280.917	0.42
281.131	0.1
281.344	-0.22
281.558	-0.63
281.772	-0.56
281.986	-0.43
282.2	-0.51
282.414	-0.16
282.627	0.2
282.841	-0.17
283.055	-0.43
283.269	-0.6
283.482	-0.42
283.696	-0.41
283.91	-0.51
284.123	-0.48
284.337	-0.15
284.551	0.14
284.764	0.26
284.978	-0.16
285.192	-0.03
285.405	-0.02
285.619	-0.02
285.833	-0.01
286.046	-0.19
286.26	-0.05
286.473	-0.06
286.687	-0.29
286.9	-0.57
287.114	-0.78
287.327	-0.56
287.541	-0.7
287.754	-0.85
287.968	-0.71
288.181	-0.83
288.395	-0.52
288.608	-0.32
288.822	-0.29
289.035	-0.4
289.248	-0.47
289.462	0.02
289.675	-0
289.889	0.47
290.102	0.7
290.315	0.86
290.529	1.05
290.742	1.03
290.955	0.89
291.169	1.14
291.382	1.15
291.595	1.37
291.808	1.19
292.022	1.2
292.235	0.81
292.448	0.92
292.661	0.76
292.875	0.37
293.088	0.68
293.301	0.27
293.514	0.08
293.727	0.6
293.94	0.54
294.153	0.28
294.367	0.26
294.58	0.46
294.793	0.12
295.006	0.33
295.219	0.53
295.432	0.15
295.645	0.61
295.858	0.52
296.071	0.39
296.284	0.38
296.497	0.45
296.71	0.64
296.923	0.88
297.136	1.07
297.349	0.89
297.562	1
297.775	1.15
297.988	1.34
298.201	1.48
298.414	1.31
298.626	1.32
298.839	1.39
299.052	1.29
299.265	0.79
299.478	1.04
299.691	1.14
299.903	1.17
300.116	1.11
300.329	0.54
300.542	0.79
300.755	0.56
300.967	0.56
301.18	0.41
301.393	0.45
301.605	0.74
301.818	0.46
302.031	0.54
302.243	0.36
302.456	0.32
302.669	0.48
302.881	0.21
303.094	0.08
303.307	0.22
303.519	0.19
303.732	0.27
303.944	0.13
304.157	0.01
304.37	0.13
304.582	-0.1
304.795	-0.04
305.007	-0.08
305.22	-0.36
305.432	-0.19
305.645	-0.38
305.857	0.14
306.069	0.29
306.282	0.43
306.494	0.46
306.707	-0.15
306.919	0.11
307.132	0.12
307.344	0.44
307.556	0.84
307.769	0.97
307.981	1.12
308.193	0.79
308.406	0.81
308.618	0.76
308.83	0.67
309.043	1.13
309.255	1.11
309.467	1.17
309.679	0.89
309.892	0.59
310.104	1.02
310.316	0.6
310.528	0.63
310.74	0.76
310.953	0.66
311.165	0.92
311.377	0.63
311.589	0.89
311.801	0.82
312.013	1.12
312.225	1.3
312.437	1.15
312.649	1.54
312.862	1.69
313.074	1.12
313.286	1.62
313.498	1.34
313.71	1.63
313.922	1.54
314.134	1.53
314.346	1.17
314.558	1.38
314.77	1
314.982	1.02
315.193	1.26
315.405	1.66
315.617	1.47
315.829	1.46
316.041	1.5
316.253	1.03
316.465	1.14
316.677	1.16
316.888	1.14
317.1	1.34
317.312	1.45
317.524	0.88
317.736	0.59
317.947	0.25
318.159	0.95
318.371	1.17
318.583	1.53
318.794	1.68
319.006	2.02
319.218	1.51
319.43	1.16
319.641	1.43
319.853	1.66
320.064	1.88
320.276	1.95
320.488	1.37
320.699	0.94
320.911	0.91
321.123	0.21
321.334	-0.42
321.546	-0.18
321.757	0.06
321.969	-0.66
322.18	-0.33
322.392	0.05
322.603	0.13
322.815	0.32
323.026	0.9
323.238	0.85
323.449	0.98
323.661	1.07
323.872	1.36
324.083	1.33
324.295	1.64
324.506	1.44
324.718	1.14
324.929	1.03
325.14	1.03
325.352	0.77
325.563	0.74
325.774	0.78
325.986	1.05
326.197	0.97
326.408	1.4
326.62	1.25
326.831	1.34
327.042	1.48
327.253	1.56
327.464	1.68
327.676	1.97
327.887	2.02
328.098	2.56
328.309	2.65
328.52	3.15
328.732	3.25
328.943	3.7
329.154	3.61
329.365	3.59
329.576	3.64
329.787	4.13
329.998	3.82
330.209	4.22
330.42	4.26
330.631	4.49
330.842	4.32
331.053	4.23
331.264	4.1
331.475	4.09
331.686	4.5
331.897	4.86
332.108	4.77
332.319	5.11
332.53	4.94
332.741	5.36
332.952	5.28
333.163	5.1
333.374	4.78
333.585	5.01
333.795	5.34
334.006	5.2
334.217	5.63
334.428	5.4
334.639	5.37
334.849	5.35
335.06	4.79
335.271	4.99
335.482	5.33
335.692	5.79
335.903	5.87
336.114	6.09
336.325	5.93
336.535	5.3
336.746	5.38
336.957	5.19
337.167	5.47
337.378	5.7
337.589	5.88
337.799	5.81
338.01	5.62
338.22	5.63
338.431	5.21
338.642	5.53
338.852	5.87
339.063	6.14
339.273	6.44
339.484	6.67
339.694	6.47
339.905	6.4
340.115	6.33
340.326	6.51
340.536	6.42
340.746	6.7
340.957	6.93
341.167	6.75
341.378	6.59
341.588	6.56
341.799	6.47
342.009	6.55
342.219	6.63
342.43	6.5
342.64	6.81
342.85	6.81
343.061	6.81
343.271	6.4
343.481	6.35
343.691	6.2
343.902	6.17
344.112	6.29
344.322	6.41
344.532	6.4
344.743	6.73
344.953	6.68
345.163	6.53
345.373	6.41
345.583	6.68
345.793	6.83
346.004	7.1
346.214	7.13
346.424	6.92
346.634	7.1
346.844	6.87
347.054	6.54
347.264	6.09
347.474	6.35
347.684	6.44
347.894	6.43
348.104	6.8
348.314	6.71
348.524	6.59
348.734	6.47
348.944	6.31
349.154	6.55
349.364	6.69
349.574	6.96
349.784	6.99
349.994	7.1
350.204	7
350.413	6.81
350.623	6.84
350.833	6.88
351.043	6.82
351.253	6.76
351.463	6.89
351.672	6.77
351.882	7.12
352.092	7.06
352.302	7
352.511	7.07
352.721	6.99
352.931	7.03
353.141	6.85
353.35	7.17
353.56	7.03
353.77	6.99
353.979	6.9
354.189	6.53
354.399	6.57
354.608	6.32
354.818	6.13
355.027	6.17
355.237	6.16
355.447	6.6
355.656	6.34
355.866	6.5
356.075	6.21
356.285	6.36
356.494	6.26
356.704	6
356.913	6.24
357.123	6.38
357.332	6.26
357.542	6.32
357.751	6.18
357.96	6.18
358.17	5.99
358.379	6.07
358.589	6.06
358.798	6.22
359.007	6.27
359.217	6.37
359.426	6.38
359.635	6.39
359.845	6.24
360.054	6.13
360.263	6.31
360.472	6.38
360.682	6.43
360.891	6.3
361.1	6.17
361.309	6.41
361.519	6.27
361.728	6.28
361.937	6.29
362.146	6.26
362.355	6.41
362.564	6.42
362.774	6.45
362.983	6.37
363.192	6.53
363.401	6.62
363.61	6.5
363.819	6.49
364.028	6.22
364.237	6.2
364.446	6.21
364.655	5.99
364.864	5.7
365.073	5.6
365.282	5.75
365.491	5.67
365.7	5.75
365.909	5.75
366.118	5.94
366.327	6.09
366.536	6.25
366.745	6.35
366.954	6.19
367.162	6.36
367.371	6.43
367.58	6.28
367.789	6.02
367.998	5.74
368.207	5.69
368.415	5.41
368.624	5.37
368.833	5.06
369.042	4.88
369.25	5.2
369.459	5.13
369.668	5.02
369.877	4.99
370.085	5.29
370.294	5.58
370.503	5.71
370.711	5.89
370.92	6.01
371.129	6.05
371.337	6.18
371.546	6.04
371.754	6.18
371.963	6.28
372.171	6.48
372.38	6.62
372.589	6.41
372.797	6.36
373.006	6.15
373.214	5.96
373.423	6.09
373.631	6.06
373.84	6.11
374.048	6.16
374.256	6.22
374.465	6.09
374.673	5.86
374.882	6.09
375.09	6.15
375.298	6.56
375.507	6.59
375.715	6.48
375.923	6.5
376.132	6.46
376.34	6.19
376.548	6.3
376.757	6.29
376.965	6.36
377.173	6.19
377.381	6.15
377.59	5.98
377.798	6.21
378.006	6.18
378.214	6.04
378.423	5.88
378.631	6.03
378.839	5.9
379.047	5.85
379.255	5.99
379.463	6.13
379.671	5.96
379.879	6.01
380.088	5.88
380.296	5.94
380.504	5.99
380.712	6.3
380.92	6.34
381.128	6.41
381.336	6.37
381.544	6.23
381.752	6.02
381.96	6.16
382.168	6.2
382.376	6.21
382.584	6.28
382.791	6.25
382.999	6.14
383.207	6.17
383.415	6.1
383.623	5.96
383.831	5.86
384.039	5.91
384.247	5.85
384.454	5.71
384.662	5.72
384.87	5.53
385.078	5.58
385.285	5.44
385.493	5.31
385.701	5.21
385.909	5.38
386.116	5.44
386.324	5.46
386.532	5.42
386.739	5.27
386.947	5.28
387.155	5.44
387.362	5.5
387.57	5.58
387.778	5.92
387.985	6.08
388.193	6.15
388.4	6.17
388.608	6.26
388.816	6.36
389.023	6.43
389.231	6.32
389.438	6.36
389.646	6.37
389.853	6.49
390.061	6.39
390.268	6.27
390.475	6.09
390.683	6.05
390.89	5.88
391.098	5.89
391.305	5.89
391.512	5.87
391.72	5.85
391.927	5.81
392.135	5.73
392.342	5.47
392.549	5.55
392.756	5.57
392.964	5.5
393.171	5.58
393.378	5.29
393.586	5.33
393.793	5.41
394	5.41
394.207	5.39
394.414	5.56
394.622	5.53
394.829	5.46
395.036	5.6
395.243	5.66
395.45	5.61
395.657	5.83
395.864	5.79
396.072	5.87
396.279	5.93
396.486	5.77
396.693	5.7
396.9	5.9
397.107	5.98
397.314	5.94
397.521	5.94
397.728	5.96
397.935	6.03
398.142	6.19
398.349	6.14
398.556	5.89
398.763	5.88
398.97	5.68
399.177	5.42
399.383	5.32
399.59	5.38
399.797	5.28
400.004	5.31
400.211	5.16
400.418	5.08
400.625	5.12
400.831	5.22
401.038	5.49
401.245	5.65
401.452	5.89
401.658	5.95
401.865	5.89
402.072	6.15
402.279	5.94
402.485	6.06
402.692	6.11
402.899	6.15
403.105	6.22
403.312	5.97
403.519	5.86
403.725	5.89
403.932	5.87
404.138	5.96
404.345	5.84
404.552	5.97
404.758	5.86
404.965	5.67
405.171	5.61
405.378	5.58
405.584	5.76
405.791	5.82
405.997	5.67
406.204	5.64
406.41	5.72
406.617	5.78
406.823	5.99
407.029	6.18
407.236	6.26
407.442	6.23
407.649	6.3
407.855	6.16
408.061	6.06
408.268	6.01
408.474	5.99
408.68	5.78
408.887	5.77
409.093	5.66
409.299	5.48
409.505	5.46
409.712	5.51
409.918	5.46
410.124	5.48
410.33	5.77
410.537	5.84
410.743	5.88
410.949	5.92
411.155	5.89
411.361	5.74
411.567	5.95
411.773	5.92
411.98	5.77
412.186	5.74
412.392	5.81
412.598	5.62
412.804	5.64
413.01	5.59
413.216	5.45
413.422	5.32
413.628	5.7
413.834	5.51
414.04	5.58
414.246	5.7
414.452	5.65
414.658	5.73
414.864	5.67
415.07	5.68
415.275	5.64
415.481	5.72
415.687	5.81
415.893	5.55
416.099	5.43
416.305	5.36
416.511	5.36
416.716	5.45
416.922	5.3
417.128	5.27
417.334	5.16
417.539	5.12
417.745	5.23
417.951	5.15
418.157	5.1
418.362	5.19
418.568	5.24
418.774	5.16
418.979	5.17
419.185	5.29
419.391	5.29
419.596	5.42
419.802	5.45
420.008	5.36
420.213	5.42
420.419	5.47
420.624	5.47
420.83	5.5
421.035	5.55
421.241	5.49
421.446	5.41
421.652	5.41
421.857	5.38
422.063	5.41
422.268	5.43
422.474	5.45
422.679	5.45
422.885	5.45
423.09	5.39
423.295	5.34
423.501	5.36
423.706	5.42
423.911	5.4
424.117	5.34
424.322	5.35
424.527	5.31
424.733	5.25
424.938	5.22
425.143	5.24
425.349	5.25
425.554	5.3
425.759	5.18
425.964	5.18
426.169	5.27
426.375	5.35
426.58	5.29
426.785	5.3
426.99	5.33
427.195	5.42
427.4	5.33
427.605	5.42
427.811	5.36
428.016	5.47
428.221	5.43
428.426	5.32
428.631	5.23
428.836	5.36
429.041	5.32
429.246	5.21
429.451	5.17
429.656	5.17
429.861	5.13
430.066	5.12
430.271	5.15
430.476	5.06
430.681	5.16
430.886	5.19
431.09	5.09
431.295	5.25
431.5	5.42
431.705	5.39
431.91	5.47
432.115	5.39
432.32	5.48
432.524	5.48
432.729	5.54
432.934	5.47
433.139	5.39
433.343	5.37
433.548	5.35
433.753	5.36
433.958	5.34
434.162	5.38
434.367	5.47
434.572	5.37
434.776	5.41
434.981	5.45
435.186	5.56
435.39	5.65
435.595	5.7
435.799	5.62
436.004	5.53
436.209	5.61
436.413	5.72
436.618	5.66
436.822	5.73
437.027	5.63
437.231	5.49
437.436	5.51
437.64	5.55
437.845	5.58
438.049	5.62
438.253	5.58
438.458	5.48
438.662	5.29
438.867	5.33
439.071	5.32
439.275	5.39
439.48	5.45
439.684	5.35
439.888	5.27
440.093	5.18
440.297	5.09
440.501	5.12
440.706	5.18
440.91	5.27
441.114	5.24
441.318	5.23
441.523	5.2
441.727	5.28
441.931	5.31
442.135	5.37
442.339	5.52
442.543	5.64
442.748	5.61
442.952	5.55
443.156	5.52
443.36	5.56
443.564	5.56
443.768	5.65
443.972	5.48
444.176	5.4
444.38	5.31
444.584	5.28
444.788	5.24
444.992	5.24
445.196	5.21
445.4	5.28
445.604	5.3
445.808	5.3
446.012	5.17
446.216	5.26
446.42	5.28
446.624	5.25
446.828	5.29
447.032	5.22
447.235	5.25
447.439	5.3
447.643	5.25
447.847	5.19
448.051	5.18
448.254	5.26
448.458	5.31
448.662	5.36
448.866	5.54
449.069	5.54
449.273	5.59
449.477	5.65
449.681	5.64
449.884	5.59
450.088	5.65
450.292	5.71
450.495	5.73
450.699	5.59
450.902	5.57
451.106	5.33
451.31	5.36
451.513	5.4
451.717	5.31
451.92	5.29
452.124	5.31
452.327	5.29
452.531	5.31
452.734	5.3
452.938	5.37
453.141	5.36
453.345	5.47
453.548	5.41
453.752	5.41
453.955	5.5
454.158	5.57
454.362	5.58
454.565	5.59
454.769	5.47
454.972	5.38
455.175	5.43
455.379	5.5
455.582	5.55
455.785	5.48
455.988	5.33
456.192	5.4
456.395	5.33
456.598	5.31
456.801	5.31
457.005	5.39
457.208	5.42
457.411	5.35
457.614	5.25
457.817	5.12
458.021	5.1
458.224	5.19
458.427	5.12
458.63	5.08
458.833	5.07
459.036	4.98
459.239	4.98
459.442	5.01
459.645	5.01
459.848	4.98
460.051	5.04
460.254	5.1
460.457	5.12
460.66	5.18
460.863	5.22
461.066	5.31
461.269	5.44
461.472	5.5
461.675	5.49
461.878	5.55
462.081	5.64
462.284	5.66
462.486	5.7
462.689	5.75
462.892	5.62
463.095	5.57
463.298	5.52
463.5	5.42
463.703	5.38
463.906	5.38
464.109	5.36
464.311	5.33
464.514	5.35
464.717	5.23
464.92	5.26
465.122	5.28
465.325	5.37
465.528	5.33
465.73	5.4
465.933	5.42
466.135	5.42
466.338	5.48
466.541	5.56
466.743	5.53
466.946	5.61
467.148	5.57
467.351	5.63
467.553	5.73
467.756	5.78
467.958	5.68
468.161	5.64
468.363	5.66
