Data from 2938715__Reflection_01.txt Node
Date: Tue Mar 17 19:01:18 EDT 2015
User: robert
Spectrometer: USB4E03002
Autoset integration time: false
Trigger mode: 4
Integration Time (sec): 1.000000E-1
Scans to average: 10
Electric dark correction enabled: false
Nonlinearity correction enabled: false
Boxcar width: 5
Stray light correction enabled: false
XAxis mode: Wavelengths
Stop averaging: false
Number of Pixels in Spectrum: 3648
>>>>>Begin Spectral Data<<<<<
177.575	5.21
177.794	19.06
178.014	14.46
178.233	-35.24
178.452	-10.46
178.672	8.81
178.891	-28.4
179.11	16.39
179.33	-90
179.549	123.76
179.768	179.69
179.987	63.81
180.207	52.67
180.426	41.25
180.645	37.05
180.864	66.8
181.084	104.65
181.303	71.51
181.522	64.53
181.741	19.14
181.96	-11.76
182.179	-1.38
182.398	-5.41
182.618	0
182.837	-19.25
183.056	-42.8
183.275	-50.47
183.494	-368.47
183.713	-156.52
183.932	-212.65
184.151	-150.96
184.37	-264.22
184.589	-681.82
184.808	742.37
185.027	-242.73
185.246	-176.15
185.465	-58.41
185.684	-11.82
185.903	47.25
186.122	46.89
186.341	78.35
186.56	197
186.779	110.32
186.998	104.68
187.216	142.23
187.435	242.57
187.654	250.81
187.873	178.42
188.092	468.27
188.311	-632.14
188.53	-439.58
188.748	-958.7
188.967	222.17
189.186	246.51
189.405	481.52
189.623	331.3
189.842	294.31
190.061	174.19
190.28	227.03
190.498	136.11
190.717	103.38
190.936	112.35
191.154	195.68
191.373	588
191.592	812.82
191.81	-965.85
192.029	-298.86
192.248	952.94
192.466	-419.44
192.685	2005
192.904	-1063.33
193.122	-108.3
193.341	-374.55
193.559	-192.09
193.778	-154.49
193.996	-116.73
194.215	-10.33
194.433	-13.69
194.652	11.27
194.87	9.89
195.089	8.45
195.307	15.27
195.526	-10.17
195.744	9.44
195.963	5.94
196.181	-18.02
196.399	-17.19
196.618	-53.9
196.836	-88.14
197.055	-3262.5
197.273	-384.29
197.491	-2233.33
197.71	82.43
197.928	11800
198.146	-18
198.365	270.27
198.583	914.29
198.801	-74.24
199.019	-191.11
199.238	-715.63
199.456	-79.33
199.674	-57.78
199.892	-193.12
200.111	-75.69
200.329	-335.92
200.547	-539.47
200.765	-202.42
200.983	-1532.5
201.202	1731.25
201.42	-2805.56
201.638	-416.8
201.856	1895.83
202.074	-228.32
202.292	-39.92
202.51	-130.36
202.728	7.88
202.946	16.21
203.165	49.86
203.383	23.73
203.601	30.02
203.819	12.94
204.037	51.87
204.255	51.14
204.473	54.66
204.691	71.21
204.909	52.12
205.127	45.21
205.345	-0.55
205.562	-19.87
205.78	-5.94
205.998	-1.02
206.216	5.07
206.434	-24.49
206.652	-38.59
206.87	-152.38
207.088	-45.28
207.306	-39.16
207.523	-1793.75
207.741	-342.62
207.959	-132.43
208.177	48.28
208.395	59.07
208.612	92
208.83	144.44
209.048	252.94
209.266	-454.84
209.483	692.86
209.701	-291.89
209.919	-47.05
210.136	-64.1
210.354	-116.79
210.572	-175.15
210.79	-187.46
211.007	-313.22
211.225	-129.93
211.442	-91.68
211.66	-43.97
211.878	-54.12
212.095	-22.31
212.313	-20.49
212.53	-24.29
212.748	-2.12
212.966	7.43
213.183	-0.19
213.401	5.38
213.618	-3.24
213.836	6.97
214.053	-59.21
214.271	-103.17
214.488	-62.12
214.705	-41.72
214.923	-60
215.14	-84.98
215.358	-143.07
215.575	-109.35
215.793	-812.9
216.01	-271.05
216.227	-122.33
216.445	-45.19
216.662	-4.87
216.879	-67.72
217.097	-70.19
217.314	-41.23
217.531	-15.69
217.749	-19.08
217.966	-25.61
218.183	-0.36
218.4	6.3
218.618	-8.3
218.835	-5.79
219.052	-6.6
219.269	10.13
219.487	-2.64
219.704	-2.73
219.921	-3.84
220.138	-7.55
220.355	-19.93
220.572	-21.9
220.79	-26.8
221.007	-14.45
221.224	-16.32
221.441	-6.57
221.658	-14.14
221.875	3.01
222.092	4.64
222.309	6.11
222.526	7.78
222.743	10.33
222.96	8.52
223.177	4.12
223.394	1.17
223.611	8
223.828	4.62
224.045	5.36
224.262	-4.48
224.479	-4.5
224.696	-3.6
224.913	-0.23
225.13	3.03
225.347	-2.29
225.564	2.87
225.781	0.24
225.997	-3.22
226.214	-1.54
226.431	1.08
226.648	1.2
226.865	1.08
227.082	-1.04
227.298	0.35
227.515	0.99
227.732	2.7
227.949	2.86
228.165	2.97
228.382	1.94
228.599	1.29
228.816	1.78
229.032	1.96
229.249	2.77
229.466	3.29
229.682	2.48
229.899	2.31
230.116	1.85
230.332	1.59
230.549	1.72
230.765	3.47
230.982	3.73
231.199	3.84
231.415	4.87
231.632	3.4
231.848	3.31
232.065	3.47
232.281	3.21
232.498	2.18
232.714	1.75
232.931	2.54
233.147	0.56
233.364	1.27
233.58	0.19
233.797	0.21
234.013	0.87
234.23	-0.22
234.446	-0.2
234.662	-1.17
234.879	-0.05
235.095	0.81
235.312	0.39
235.528	-0.22
235.744	0.81
235.961	0.93
236.177	-1.83
236.393	-1.44
236.61	-0.55
236.826	-0.05
237.042	0.08
237.258	1.42
237.475	0.7
237.691	0.24
237.907	1.22
238.123	-1.13
238.339	-1.97
238.556	1.07
238.772	0.4
238.988	1.05
239.204	0.84
239.42	1.37
239.636	0.54
239.853	0.34
240.069	1.81
240.285	1.85
240.501	2.16
240.717	2.35
240.933	2.88
241.149	3.58
241.365	2.83
241.581	2.79
241.797	2.77
242.013	2.92
242.229	3.13
242.445	2.79
242.661	2.43
242.877	2.71
243.093	3.1
243.309	2.71
243.525	2.32
243.741	3.06
243.957	3.24
244.173	2.97
244.388	3.24
244.604	4.01
244.82	4.2
245.036	4.12
245.252	4.56
245.468	4.1
245.683	3.78
245.899	3.84
246.115	3.51
246.331	3.58
246.547	4.04
246.762	3.61
246.978	3.28
247.194	3.1
247.409	3.29
247.625	2.95
247.841	3.06
248.057	3.03
248.272	3.05
248.488	3.11
248.703	2.94
248.919	2.62
249.135	3.25
249.35	3.47
249.566	4.03
249.782	4.03
249.997	4.27
250.213	4.13
250.428	4.27
250.644	3.84
250.859	4
251.075	3.99
251.29	3.83
251.506	3.86
251.721	3.18
251.937	2.93
252.152	2.83
252.368	2.44
252.583	2.52
252.798	1.7
253.014	1.36
253.229	0.92
253.445	0.05
253.66	0.16
253.875	-1.28
254.091	-1.33
254.306	-1.97
254.521	-1.98
254.737	-1.95
254.952	-2.17
255.167	-1.29
255.383	-0.12
255.598	0.2
255.813	0.96
256.028	0.38
256.244	0.95
256.459	1.33
256.674	-0.06
256.889	0.06
257.104	0.09
257.32	0.64
257.535	0.3
257.75	0.47
257.965	0.54
258.18	1.32
258.395	1.85
258.61	1.99
258.826	1.87
259.041	2.35
259.256	2.51
259.471	2.65
259.686	2.55
259.901	2.84
260.116	2.76
260.331	2.95
260.546	2.61
260.761	2.54
260.976	2.66
261.191	2.66
261.406	3.08
261.621	3.31
261.836	3.33
262.05	3.2
262.265	3.42
262.48	3.76
262.695	3.45
262.91	3.4
263.125	3.16
263.34	2.97
263.555	3.07
263.769	2.63
263.984	1.75
264.199	1.53
264.414	1.15
264.629	1.31
264.843	0.75
265.058	0.97
265.273	1.66
265.488	1.8
265.702	1.49
265.917	1.5
266.132	1.18
266.346	1.1
266.561	1.3
266.776	1.83
266.99	1.42
267.205	1.55
267.42	1.36
267.634	1.13
267.849	1.59
268.063	1.81
268.278	1.59
268.492	1.76
268.707	1.72
268.922	1.67
269.136	1.35
269.351	1.62
269.565	1.74
269.78	1.75
269.994	1.62
270.209	1.08
270.423	0.97
270.637	1.48
270.852	1.21
271.066	1.67
271.281	1.88
271.495	2.01
271.709	1.86
271.924	1.51
272.138	1.52
272.353	1.68
272.567	1.82
272.781	1.78
272.996	1.68
273.21	2.29
273.424	2.16
273.638	1.73
273.853	1.56
274.067	1.62
274.281	1.84
274.495	1.93
274.71	1.58
274.924	1.62
275.138	1.29
275.352	1.18
275.566	0.77
275.781	0.78
275.995	1.13
276.209	1.32
276.423	1.02
276.637	0.97
276.851	0.6
277.065	0.84
277.279	0.89
277.493	1.29
277.707	1.64
277.921	1.08
278.135	1.06
278.349	1.16
278.563	0.68
278.777	0.82
278.991	0.9
279.205	1.22
279.419	1.12
279.633	0.71
279.847	0.86
280.061	0.54
280.275	1.02
280.489	1.33
280.703	0.81
280.917	1.21
281.131	1.15
281.344	1.37
281.558	1.19
281.772	1.36
281.986	1.67
282.2	1.61
282.414	1.94
282.627	1.82
282.841	1.72
283.055	1.79
283.269	1.76
283.482	2.22
283.696	2.04
283.91	2.31
284.123	2.22
284.337	2.3
284.551	2.15
284.764	1.86
284.978	1.87
285.192	1.79
285.405	1.81
285.619	1.81
285.833	1.63
286.046	1.48
286.26	1.4
286.473	1.51
286.687	1.2
286.9	1.37
287.114	1.46
287.327	1.47
287.541	1.36
287.754	1.81
287.968	1.57
288.181	1.64
288.395	2.09
288.608	2.36
288.822	2.35
289.035	2.89
289.248	2.8
289.462	2.77
289.675	2.84
289.889	3.15
290.102	2.9
290.315	3.32
290.529	3.12
290.742	2.87
290.955	2.86
291.169	2.69
291.382	2.53
291.595	2.67
291.808	2.84
292.022	2.93
292.235	2.96
292.448	3.07
292.661	3.04
292.875	3.1
293.088	3.3
293.301	3.41
293.514	3.85
293.727	3.68
293.94	3.65
294.153	3.14
294.367	2.94
294.58	2.99
294.793	3.14
295.006	3.01
295.219	3.14
295.432	2.96
295.645	2.94
295.858	3.06
296.071	3.25
296.284	3.6
296.497	4.04
296.71	4.03
296.923	3.83
297.136	3.9
297.349	4.09
297.562	4.17
297.775	4.37
297.988	4.31
298.201	4.36
298.414	4.48
298.626	4.31
298.839	4.28
299.052	4.89
299.265	5.17
299.478	5.42
299.691	5.6
299.903	5.72
300.116	5.73
300.329	6.12
300.542	6.05
300.755	6.19
300.967	6.29
301.18	6.27
301.393	5.96
301.605	5.92
301.818	5.65
302.031	5.65
302.243	5.89
302.456	6.13
302.669	5.87
302.881	6.17
303.094	5.93
303.307	5.95
303.519	6.24
303.732	6.43
303.944	6.57
304.157	6.92
304.37	7.09
304.582	7.01
304.795	7.1
305.007	7.33
305.22	7.1
305.432	7.24
305.645	7.33
305.857	7.48
306.069	7.81
306.282	7.91
306.494	7.68
306.707	7.51
306.919	7.86
307.132	7.87
307.344	7.78
307.556	8.11
307.769	8.52
307.981	8.58
308.193	8.14
308.406	7.84
308.618	7.69
308.83	7.94
309.043	7.88
309.255	7.71
309.467	7.46
309.679	7.54
309.892	7.5
310.104	7.18
310.316	7.28
310.528	7.54
310.74	7.58
310.953	7.7
311.165	7.57
311.377	7.57
311.589	7.49
311.801	7.51
312.013	7.73
312.225	7.53
312.437	7.74
312.649	7.89
312.862	7.83
313.074	7.66
313.286	7.54
313.498	7.64
313.71	7.77
313.922	7.57
314.134	7.49
314.346	7.11
314.558	7.34
314.77	7.06
314.982	6.65
315.193	6.59
315.405	6.69
315.617	6.76
315.829	6.44
316.041	6.29
316.253	6.41
316.465	6.84
316.677	6.87
316.888	6.67
317.1	6.89
317.312	6.9
317.524	7.12
317.736	7.24
317.947	7.26
318.159	7.57
318.371	7.69
318.583	7.57
318.794	7.34
319.006	7.42
319.218	7.31
319.43	7.05
319.641	7.41
319.853	7.17
320.064	7.62
320.276	7.67
320.488	7.54
320.699	7.58
320.911	7.88
321.123	8.41
321.334	8.71
321.546	8.78
321.757	9.44
321.969	9.22
322.18	8.97
322.392	8.43
322.603	8.39
322.815	8.38
323.026	8.28
323.238	8.18
323.449	7.95
323.661	7.57
323.872	7.79
324.083	6.77
324.295	7
324.506	7.2
324.718	7.33
324.929	7.55
325.14	7.47
325.352	7.75
325.563	7.87
325.774	7.92
325.986	8.13
326.197	8.27
326.408	8.82
326.62	8.92
326.831	9.08
327.042	8.97
327.253	9.08
327.464	9.31
327.676	9.35
327.887	9.48
328.098	9.3
328.309	9.24
328.52	9.05
328.732	9.32
328.943	9.08
329.154	8.99
329.365	9.07
329.576	9
329.787	9.08
329.998	9.2
330.209	8.65
330.42	9.17
330.631	9.36
330.842	9.68
331.053	9.7
331.264	9.56
331.475	10.14
331.686	10.34
331.897	9.79
332.108	10.04
332.319	10.05
332.53	10.34
332.741	9.91
332.952	9.7
333.163	9.47
333.374	9.4
333.585	9.49
333.795	9.09
334.006	9.12
334.217	9.41
334.428	8.66
334.639	8.59
334.849	8.56
335.06	8.48
335.271	8.55
335.482	8.78
335.692	8.45
335.903	8.42
336.114	8.48
336.325	8.36
336.535	8.48
336.746	8.81
336.957	8.45
337.167	8.52
337.378	8.71
337.589	8.64
337.799	8.59
338.01	8.79
338.22	8.63
338.431	8.62
338.642	8.59
338.852	8.69
339.063	8.82
339.273	9.08
339.484	9.54
339.694	9.71
339.905	9.97
340.115	9.55
340.326	9.57
340.536	10.15
340.746	10.1
340.957	10.44
341.167	10.15
341.378	10.03
341.588	9.99
341.799	9.8
342.009	9.75
342.219	9.43
342.43	9.73
342.64	9.91
342.85	9.54
343.061	9.49
343.271	8.88
343.481	9.21
343.691	9.23
343.902	9.43
344.112	9.2
344.322	9.21
344.532	9.47
344.743	9.32
344.953	9.14
345.163	9.33
345.373	9.43
345.583	9.36
345.793	9.48
346.004	9.75
346.214	9.53
346.424	9.37
346.634	9.09
346.844	8.88
347.054	9.06
347.264	9.48
347.474	9.41
347.684	9.5
347.894	10.03
348.104	9.66
348.314	9.4
348.524	9.29
348.734	9.39
348.944	9.33
349.154	9.74
349.364	9.58
349.574	9
349.784	9.04
349.994	8.99
350.204	9.04
350.413	9.11
350.623	9.06
350.833	9.05
351.043	8.94
351.253	9.16
351.463	8.91
351.672	9.05
351.882	9.3
352.092	9.47
352.302	9.38
352.511	9.2
352.721	9.23
352.931	9.18
353.141	9.55
353.35	9.59
353.56	9.51
353.77	9.65
353.979	9.64
354.189	9.66
354.399	9.33
354.608	9.5
354.818	9.36
355.027	9.23
355.237	9.4
355.447	9.3
355.656	9.26
355.866	9.12
356.075	8.9
356.285	8.96
356.494	9.01
356.704	9.02
356.913	8.82
357.123	8.97
357.332	8.97
357.542	8.94
357.751	8.67
357.96	8.72
358.17	8.9
358.379	8.87
358.589	9.02
358.798	9.06
359.007	9.1
359.217	9.02
359.426	8.96
359.635	8.99
359.845	9.06
360.054	9.23
360.263	9.27
360.472	9.16
360.682	9.33
360.891	9.28
361.1	9.06
361.309	9.04
361.519	9.18
361.728	9.09
361.937	9.09
362.146	8.98
362.355	8.93
362.564	8.94
362.774	8.92
362.983	8.74
363.192	8.66
363.401	8.67
363.61	8.65
363.819	8.65
364.028	8.71
364.237	8.7
364.446	8.69
364.655	8.56
364.864	8.43
365.073	8.57
365.282	8.6
365.491	8.3
365.7	8.41
365.909	8.46
366.118	8.31
366.327	8.11
366.536	8.03
366.745	8.06
366.954	7.96
367.162	7.86
367.371	7.73
367.58	7.69
367.789	7.91
367.998	7.74
368.207	7.76
368.415	7.7
368.624	7.69
368.833	7.65
369.042	7.53
369.25	7.9
369.459	7.93
369.668	7.68
369.877	7.54
370.085	7.19
370.294	7.12
370.503	6.97
370.711	7.05
370.92	7.28
371.129	7.34
371.337	7.23
371.546	7
371.754	7.16
371.963	7.43
372.171	7.48
372.38	7.73
372.589	7.59
372.797	7.4
373.006	7.27
373.214	7.24
373.423	7.3
373.631	7.3
373.84	6.99
374.048	6.89
374.256	6.77
374.465	6.77
374.673	6.44
374.882	6.47
375.09	6.49
375.298	6.54
375.507	6.38
375.715	6.14
375.923	6.17
376.132	6.44
376.34	6.32
376.548	6.31
376.757	6.45
376.965	6.44
377.173	6.46
377.381	6.37
377.59	6.26
377.798	6.06
378.006	6.18
378.214	5.91
378.423	5.99
378.631	6.18
378.839	6.28
379.047	6.11
379.255	6.17
379.463	6.17
379.671	6
379.879	5.85
380.088	6.1
380.296	6.09
380.504	6.25
380.712	5.99
380.92	5.86
381.128	5.69
381.336	5.46
381.544	5.45
381.752	5.5
381.96	5.54
382.168	5.72
382.376	5.58
382.584	5.22
382.791	5.14
382.999	5.15
383.207	4.84
383.415	4.79
383.623	4.85
383.831	4.7
384.039	4.47
384.247	4.6
384.454	4.61
384.662	4.72
384.87	4.74
385.078	4.85
385.285	4.78
385.493	5.07
385.701	4.88
385.909	4.82
386.116	4.92
386.324	5.26
386.532	5.15
386.739	5.07
386.947	5.17
387.155	5.3
387.362	5.07
387.57	4.99
387.778	4.8
387.985	5.05
388.193	5.06
388.4	5.02
388.608	4.78
388.816	4.86
389.023	4.73
389.231	4.43
389.438	4.42
389.646	4.58
389.853	4.52
390.061	4.63
390.268	4.47
390.475	4.62
390.683	4.64
390.89	4.74
391.098	4.73
391.305	4.91
391.512	4.94
391.72	4.92
391.927	4.79
392.135	5.01
392.342	5
392.549	5.05
392.756	4.78
392.964	4.69
393.171	4.43
393.378	4.32
393.586	4.32
393.793	4.41
394	4.29
394.207	4.41
394.414	4.4
394.622	4.38
394.829	4.31
395.036	4.46
395.243	4.45
395.45	4.66
395.657	4.91
395.864	4.81
396.072	4.82
396.279	4.89
396.486	4.77
396.693	4.69
396.9	4.57
397.107	4.67
397.314	4.62
397.521	4.8
397.728	4.78
397.935	4.65
398.142	4.61
398.349	4.41
398.556	4.63
398.763	4.66
398.97	4.59
399.177	4.74
399.383	4.54
399.59	4.53
399.797	4.3
400.004	4.39
400.211	4.29
400.418	4.27
400.625	4.46
400.831	4.21
401.038	4.35
401.245	4.44
401.452	4.45
401.658	4.47
401.865	4.42
402.072	4.6
402.279	4.49
402.485	4.52
402.692	4.47
402.899	4.26
403.105	4.44
403.312	4.26
403.519	4.11
403.725	3.9
403.932	4.01
404.138	4.1
404.345	3.98
404.552	3.89
404.758	3.94
404.965	4
405.171	4.05
405.378	4.05
405.584	4.22
405.791	4.27
405.997	4.33
406.204	4.27
406.41	4.18
406.617	4.28
406.823	4.28
407.029	4.05
407.236	4.11
407.442	4.22
407.649	4.06
407.855	3.93
408.061	4.02
408.268	4.06
408.474	4.23
408.68	4.34
408.887	4.33
409.093	4.41
409.299	4.63
409.505	4.47
409.712	4.36
409.918	4.33
410.124	4.44
410.33	4.39
410.537	4.4
410.743	4.19
410.949	4.19
411.155	4.11
411.361	4.11
411.567	4.02
411.773	4.04
411.98	4.09
412.186	3.94
412.392	3.83
412.598	3.85
412.804	3.78
413.01	3.94
413.216	3.94
413.422	4.08
413.628	4.12
413.834	4.2
414.04	4.32
414.246	4.33
414.452	4.48
414.658	4.56
414.864	4.51
415.07	4.46
415.275	4.4
415.481	4.19
415.687	4.13
415.893	4.09
416.099	4.09
416.305	4.04
416.511	3.98
416.716	4.02
416.922	4.03
417.128	4.06
417.334	4.15
417.539	4.11
417.745	4.24
417.951	4.17
418.157	4.2
418.362	4.12
418.568	4.04
418.774	4.16
418.979	4.12
419.185	4.09
419.391	4.17
419.596	4.15
419.802	4.23
420.008	4.19
420.213	4.19
420.419	4.18
420.624	4.21
420.83	4.29
421.035	4.24
421.241	4.31
421.446	4.32
421.652	4.2
421.857	4.14
422.063	4.1
422.268	4.12
422.474	4.16
422.679	4.13
422.885	4.13
423.09	4.14
423.295	4.14
423.501	4.07
423.706	4.07
423.911	4.17
424.117	4.25
424.322	4.28
424.527	4.3
424.733	4.31
424.938	4.3
425.143	4.33
425.349	4.29
425.554	4.33
425.759	4.33
425.964	4.26
426.169	4.17
426.375	4.1
426.58	4.04
426.785	4.04
426.99	3.97
427.195	4.02
427.4	4
427.605	3.99
427.811	4
428.016	4.03
428.221	4.05
428.426	4.12
428.631	4.13
428.836	4.17
429.041	4.1
429.246	4.22
429.451	4.2
429.656	4.17
429.861	4.22
430.066	3.98
430.271	3.92
430.476	3.96
430.681	3.97
430.886	4
431.09	4.07
431.295	4.22
431.5	4.16
431.705	4.1
431.91	4.05
432.115	4.01
432.32	4.11
432.524	4.1
432.729	4.05
432.934	3.98
433.139	3.94
433.343	3.9
433.548	3.86
433.753	3.81
433.958	3.85
434.162	3.79
434.367	3.82
434.572	3.85
434.776	3.93
434.981	3.99
435.186	4.09
435.39	4.12
435.595	4.03
435.799	3.97
436.004	4.07
436.209	4.09
436.413	4.17
436.618	4.19
436.822	4.18
437.027	4.08
437.231	4.04
437.436	3.95
437.64	3.87
437.845	3.98
438.049	3.89
438.253	3.84
438.458	3.78
438.662	3.81
438.867	3.81
439.071	3.79
439.275	3.87
439.48	3.94
439.684	3.99
439.888	4.07
440.093	4.08
440.297	4.12
440.501	4.14
440.706	4.2
440.91	4.22
441.114	4.15
441.318	4.17
441.523	4.13
441.727	4.11
441.931	4.04
442.135	4.06
442.339	4
442.543	4.06
442.748	4.01
442.952	3.97
443.156	3.92
443.36	3.92
443.564	3.98
443.768	3.98
443.972	3.99
444.176	4.04
444.38	4.03
444.584	3.98
444.788	4.04
444.992	4.06
445.196	4.01
445.4	4.07
445.604	4.09
445.808	4.04
446.012	4.1
446.216	4.09
446.42	4.05
446.624	4.04
446.828	4.09
447.032	4
447.235	4.04
447.439	4.07
447.643	4.07
447.847	4.06
448.051	4.08
448.254	4.03
448.458	4.01
448.662	4.03
448.866	4.01
449.069	3.99
449.273	3.96
449.477	3.95
449.681	4
449.884	4.07
450.088	4.17
450.292	4.06
450.495	4
450.699	3.91
450.902	3.92
451.106	3.94
451.31	3.89
451.513	3.91
451.717	3.85
451.92	3.72
452.124	3.65
452.327	3.65
452.531	3.76
452.734	3.82
452.938	4
453.141	3.99
453.345	3.96
453.548	4.05
453.752	4.11
453.955	4.24
454.158	4.34
454.362	4.21
454.565	4.05
454.769	3.89
454.972	3.92
455.175	3.81
455.379	3.82
455.582	3.89
455.785	3.92
455.988	3.85
456.192	3.83
456.395	3.9
456.598	4.01
456.801	4.19
457.005	4.34
457.208	4.33
457.411	4.36
457.614	4.38
457.817	4.32
458.021	4.32
458.224	4.39
458.427	4.18
458.63	4.16
458.833	4.12
459.036	4.04
459.239	4
459.442	3.99
459.645	3.96
459.848	3.89
460.051	3.84
460.254	3.83
460.457	3.77
460.66	3.8
460.863	3.75
461.066	3.76
461.269	3.8
461.472	3.82
461.675	3.82
461.878	3.92
462.081	3.99
462.284	4.06
462.486	4.01
462.689	4.06
462.892	4.21
463.095	4.21
463.298	4.21
463.5	4.02
463.703	4.11
463.906	4.11
464.109	4.02
464.311	4.06
464.514	3.98
464.717	4.07
464.92	4.05
465.122	4.02
465.325	4.02
465.528	4.13
465.73	4.32
465.933	4.22
466.135	4.15
466.338	4.16
466.541	4.13
466.743	4.17
466.946	4.08
467.148	4.11
467.351	4.05
467.553	4.2
467.756	4.2
467.958	4.12
468.161	4.15
468.363	4.22
468.566	4.19
468.768	4.16
468.971	4.15
469.173	4.27
469.375	4.24
469.578	4.28
469.78	4.03
469.983	3.95
470.185	3.95
470.387	3.98
470.59	3.94
