Data from 2938784__Reflection_02.txt Node
Date: Fri Mar 13 12:12:25 EDT 2015
User: robert
Spectrometer: USB4E03002
Autoset integration time: false
Trigger mode: 4
Integration Time (sec): 1.000000E-1
Scans to average: 10
Electric dark correction enabled: false
Nonlinearity correction enabled: false
Boxcar width: 5
Stray light correction enabled: false
XAxis mode: Wavelengths
Stop averaging: false
Number of Pixels in Spectrum: 3648
>>>>>Begin Spectral Data<<<<<
177.575	97.5
177.794	89.92
178.014	85.21
178.233	84.22
178.452	86.86
178.672	85
178.891	83.78
179.11	80.23
179.33	84.61
179.549	80.8
179.768	84.59
179.987	88.82
180.207	91.62
180.426	92.96
180.645	96.41
180.864	90.92
181.084	90.43
181.303	92.2
181.522	94.52
181.741	88.86
181.96	92.45
182.179	88.74
182.398	82.63
182.618	82.19
182.837	81.18
183.056	76.59
183.275	75.95
183.494	76.3
183.713	74.6
183.932	79.93
184.151	79.14
184.37	77.47
184.589	78.56
184.808	80.07
185.027	80.41
185.246	84.36
185.465	86.15
185.684	96.14
185.903	96.16
186.122	97.08
186.341	89.81
186.56	92.52
186.779	96.95
186.998	100.26
187.216	103.09
187.435	101.12
187.654	93.18
187.873	94.33
188.092	89.39
188.311	85.57
188.53	86.17
188.748	86.4
188.967	88.92
189.186	86
189.405	82.33
189.623	80.65
189.842	83.59
190.061	87.48
190.28	92.77
190.498	91.85
190.717	94.86
190.936	93.23
191.154	92.82
191.373	88.78
191.592	91.17
191.81	91.57
192.029	92.65
192.248	94.42
192.466	92.49
192.685	86.38
192.904	84.61
193.122	81.07
193.341	81.61
193.559	82.07
193.778	83.23
193.996	82.49
194.215	78.03
194.433	79.18
194.652	75.33
194.87	75.76
195.089	73.67
195.307	75.73
195.526	81.8
195.744	82.73
195.963	82.45
196.181	83.12
196.399	81.72
196.618	84.39
196.836	83.31
197.055	85.74
197.273	87.87
197.491	90.85
197.71	90.16
197.928	90.12
198.146	88.38
198.365	90.98
198.583	90.39
198.801	92.27
199.019	92.9
199.238	92.79
199.456	93.25
199.674	90.74
199.892	88.2
200.111	89.04
200.329	90.59
200.547	88.4
200.765	86.17
200.983	85.73
201.202	89.55
201.42	94.37
201.638	95.76
201.856	92.04
202.074	93.65
202.292	93.55
202.51	92.3
202.728	89.96
202.946	90.71
203.165	90.38
203.383	92.55
203.601	86.82
203.819	82.12
204.037	80.21
204.255	80.52
204.473	79.16
204.691	78.89
204.909	82.87
205.127	82.02
205.345	83.88
205.562	79.41
205.78	74.88
205.998	75.57
206.216	78.61
206.434	81.55
206.652	84.33
206.87	83.5
207.088	85.01
207.306	84.93
207.523	85.02
207.741	79.82
207.959	83.54
208.177	86.5
208.395	85.12
208.612	82.52
208.83	81.96
209.048	84.21
209.266	86.87
209.483	82.52
209.701	78.23
209.919	77.03
210.136	80.93
210.354	81.9
210.572	82.36
210.79	80.93
211.007	81.43
211.225	80.91
211.442	74.16
211.66	73.56
211.878	79.98
212.095	84.77
212.313	85.82
212.53	86.6
212.748	86.03
212.966	83.94
213.183	84.24
213.401	83.77
213.618	82.38
213.836	87.37
214.053	84.53
214.271	81.62
214.488	80.78
214.705	79.29
214.923	76.52
215.14	75.49
215.358	73.93
215.575	74.23
215.793	73.97
216.01	72.04
216.227	69.29
216.445	69.24
216.662	71.76
216.879	71.23
217.097	71.73
217.314	74.13
217.531	75.76
217.749	77.24
217.966	78.86
218.183	77.87
218.4	77.87
218.618	79.68
218.835	77.42
219.052	74.96
219.269	73.16
219.487	70.64
219.704	73.28
219.921	69.84
220.138	70.79
220.355	68.57
220.572	68.43
220.79	68.11
221.007	64.96
221.224	65.57
221.441	63.15
221.658	62.47
221.875	62.23
222.092	57.5
222.309	58.25
222.526	54.46
222.743	52.77
222.96	50.47
223.177	51.43
223.394	49.54
223.611	49.68
223.828	51.16
224.045	48.93
224.262	47.43
224.479	45.41
224.696	44.8
224.913	44.11
225.13	43.88
225.347	43.14
225.564	40.62
225.781	40.84
225.997	38.14
226.214	34.48
226.431	32.53
226.648	31.32
226.865	30.95
227.082	29.09
227.298	26.15
227.515	23.39
227.732	20.82
227.949	19.68
228.165	17.95
228.382	17.87
228.599	18.28
228.816	17.75
229.032	16.95
229.249	15.97
229.466	15.13
229.682	15.65
229.899	16.27
230.116	17.47
230.332	17.83
230.549	18.06
230.765	17.88
230.982	17.9
231.199	18.85
231.415	19.66
231.632	21.54
231.848	22.66
232.065	23.28
232.281	23.95
232.498	22.34
232.714	22.05
232.931	22.95
233.147	24.42
233.364	24.42
233.58	23.99
233.797	24.05
234.013	23.73
234.23	22.35
234.446	21.67
234.662	21.79
234.879	21.83
235.095	22.06
235.312	21.95
235.528	21.86
235.744	21.45
235.961	22.11
236.177	21.81
236.393	21.47
236.61	22.82
236.826	22.44
237.042	21.99
237.258	23.26
237.475	23.58
237.691	23.64
237.907	23.67
238.123	24.22
238.339	24.12
238.556	25.13
238.772	24.68
238.988	23.67
239.204	24.14
239.42	23.53
239.636	22.87
239.853	21.44
240.069	20.11
240.285	19.38
240.501	16.85
240.717	16.54
240.933	14.98
241.149	14.25
241.365	13.69
241.581	13.68
241.797	12.92
242.013	12.44
242.229	12.42
242.445	12.46
242.661	12.45
242.877	12.93
243.093	12.79
243.309	13.41
243.525	13.63
243.741	13.73
243.957	13.68
244.173	15.18
244.388	15.38
244.604	15.84
244.82	15.64
245.036	14.48
245.252	14.29
245.468	13.49
245.683	12.8
245.899	11.98
246.115	11.48
246.331	10.5
246.547	9.59
246.762	9.22
246.978	8.76
247.194	8.71
247.409	8.81
247.625	8.67
247.841	8.54
248.057	8.31
248.272	8.35
248.488	8.55
248.703	8.71
248.919	8.93
249.135	9.19
249.35	10.04
249.566	10.7
249.782	11.03
249.997	11.2
250.213	11.39
250.428	12.14
250.644	13.01
250.859	13.11
251.075	13.16
251.29	13.94
251.506	13.69
251.721	12.85
251.937	12.47
252.152	12.69
252.368	12.86
252.583	12.9
252.798	13.29
253.014	13.16
253.229	13.16
253.445	13.78
253.66	12.87
253.875	13.82
254.091	15.06
254.306	15.38
254.521	15.77
254.737	16.91
254.952	16.92
255.167	16.21
255.383	16.48
255.598	15.98
255.813	15.61
256.028	16.35
256.244	15.68
256.459	14.86
256.674	13.56
256.889	12.59
257.104	12.19
257.32	12.2
257.535	11.71
257.75	10.67
257.965	10.43
258.18	10.31
258.395	9.62
258.61	8.9
258.826	7.98
259.041	8.01
259.256	7.71
259.471	7.11
259.686	6.72
259.901	6.51
260.116	6.44
260.331	6.31
260.546	6.24
260.761	6.15
260.976	6.31
261.191	6.24
261.406	6.36
261.621	6.76
261.836	6.87
262.05	7.75
262.265	7.86
262.48	8.67
262.695	9.56
262.91	10.08
263.125	10.47
263.34	10.75
263.555	12.07
263.769	12.62
263.984	12.48
264.199	12.82
264.414	12.35
264.629	12.79
264.843	12.48
265.058	12.05
265.273	11.41
265.488	11.26
265.702	10.92
265.917	10.44
266.132	9.8
266.346	9.55
266.561	9.55
266.776	9.26
266.99	9.15
267.205	9
267.42	8.78
267.634	8.4
267.849	8.5
268.063	8.85
268.278	8.88
268.492	9.07
268.707	9.27
268.922	8.86
269.136	9.01
269.351	8.9
269.565	8.69
269.78	8.23
269.994	8.34
270.209	8.09
270.423	7.46
270.637	6.89
270.852	6.6
271.066	6.03
271.281	6.25
271.495	6.23
271.709	6.15
271.924	5.88
272.138	6.46
272.353	6.56
272.567	6.58
272.781	7
272.996	7.28
273.21	7.39
273.424	7.59
273.638	7.51
273.853	7.5
274.067	7.49
274.281	8.07
274.495	8.13
274.71	8.32
274.924	8.1
275.138	7.84
275.352	7.79
275.566	8.01
275.781	8.32
275.995	8.78
276.209	8.65
276.423	8.77
276.637	8.59
276.851	8.72
277.065	8.51
277.279	8.49
277.493	8.74
277.707	9.44
277.921	9.04
278.135	8.92
278.349	8.32
278.563	8.44
278.777	8.77
278.991	8.49
279.205	8.82
279.419	8.74
279.633	8.58
279.847	8.52
280.061	8.22
280.275	7.79
280.489	7.98
280.703	8.26
280.917	7.96
281.131	7.52
281.344	7.68
281.558	7.01
281.772	7.5
281.986	7.88
282.2	7.92
282.414	7.77
282.627	8.07
282.841	7.77
283.055	7.71
283.269	7.82
283.482	7.75
283.696	7.71
283.91	7.64
284.123	6.77
284.337	6.55
284.551	6.22
284.764	6.01
284.978	5.7
285.192	5.72
285.405	5.83
285.619	5.72
285.833	5.89
286.046	5.63
286.26	5.84
286.473	6.45
286.687	6.26
286.9	6.4
287.114	6.54
287.327	6.93
287.541	7.19
287.754	7.02
287.968	7.19
288.181	7.24
288.395	7.48
288.608	7.38
288.822	7.13
289.035	7.21
289.248	7.12
289.462	7.09
289.675	6.97
289.889	6.77
290.102	6.73
290.315	6.68
290.529	6.55
290.742	6.46
290.955	6.6
291.169	6.86
291.382	7.11
291.595	7.08
291.808	7.18
292.022	7.48
292.235	7.56
292.448	7.85
292.661	7.81
292.875	7.98
293.088	7.98
293.301	7.64
293.514	7.35
293.727	7.17
293.94	7.67
294.153	7.37
294.367	7.23
294.58	7.12
294.793	6.72
295.006	6.6
295.219	6.21
295.432	6.4
295.645	6.29
295.858	5.96
296.071	5.76
296.284	5.36
296.497	5.35
296.71	5.08
296.923	5.12
297.136	5.26
297.349	5.21
297.562	5.29
297.775	5.03
297.988	5.3
298.201	5.6
298.414	5.77
298.626	5.65
298.839	5.45
299.052	5.62
299.265	5.9
299.478	5.96
299.691	6.38
299.903	6.72
300.116	7.21
300.329	7.04
300.542	6.95
300.755	7.14
300.967	7.54
301.18	8.14
301.393	8.18
301.605	8.06
301.818	7.97
302.031	7.95
302.243	7.71
302.456	7.43
302.669	7.66
302.881	7.42
303.094	7.42
303.307	7.32
303.519	6.95
303.732	7.26
303.944	7.17
304.157	7.29
304.37	6.94
304.582	7.22
304.795	7.52
305.007	7.44
305.22	8.03
305.432	8.12
305.645	8.41
305.857	8.88
306.069	8.92
306.282	8.64
306.494	8.52
306.707	8.61
306.919	8.34
307.132	7.92
307.344	7.81
307.556	7.6
307.769	7.57
307.981	7.42
308.193	6.99
308.406	6.47
308.618	6.41
308.83	6.34
309.043	6.25
309.255	6.24
309.467	6.29
309.679	6.19
309.892	6.35
310.104	6.21
310.316	6.29
310.528	6.37
310.74	6.63
310.953	6.7
311.165	6.79
311.377	7.13
311.589	7.4
311.801	7.33
312.013	7.4
312.225	7.02
312.437	7.26
312.649	7.2
312.862	7.4
313.074	7.38
313.286	7.39
313.498	7.73
313.71	7.74
313.922	7.59
314.134	8.04
314.346	8.15
314.558	8.45
314.77	8.68
314.982	8.71
315.193	8.65
315.405	9
315.617	9.77
315.829	9.62
316.041	9.83
316.253	9.9
316.465	9.76
316.677	9.88
316.888	10.12
317.1	10.02
317.312	10.23
317.524	10.35
317.736	10.26
317.947	10.24
318.159	10.61
318.371	10.34
318.583	10.6
318.794	11.31
319.006	11.51
319.218	11.49
319.43	11.39
319.641	11.6
319.853	11.62
320.064	11.76
320.276	11.5
320.488	11.63
320.699	11.73
320.911	12.11
321.123	12.02
321.334	11.73
321.546	11.99
321.757	12.28
321.969	12.16
322.18	12.82
322.392	12.77
322.603	13.19
322.815	13.27
323.026	13.52
323.238	13.12
323.449	12.64
323.661	12.96
323.872	13.04
324.083	12.87
324.295	12.98
324.506	12.62
324.718	12.69
324.929	12.78
325.14	12.85
325.352	12.71
325.563	13.3
325.774	13.85
325.986	14.3
326.197	14.36
326.408	14.79
326.62	15.06
326.831	15.26
327.042	15.88
327.253	16.16
327.464	16.51
327.676	16.68
327.887	16.76
328.098	16.83
328.309	16.82
328.52	17.31
328.732	17.62
328.943	18.24
329.154	18.95
329.365	19.26
329.576	19.75
329.787	19.79
329.998	20.77
330.209	20.91
330.42	21.52
330.631	21.88
330.842	22.29
331.053	23
331.264	22.97
331.475	23.21
331.686	23.34
331.897	23.24
332.108	23.92
332.319	24.33
332.53	24.53
332.741	24.62
332.952	25.13
333.163	25.28
333.374	25.27
333.585	25.43
333.795	25.7
334.006	26.14
334.217	26.41
334.428	26.4
334.639	26.45
334.849	26.85
335.06	27.06
335.271	27.19
335.482	27.32
335.692	27.15
335.903	27.56
336.114	27.33
336.325	27.39
336.535	27.62
336.746	27.49
336.957	27.77
337.167	27.88
337.378	28.35
337.589	28.41
337.799	28.26
338.01	28.81
338.22	28.63
338.431	28.73
338.642	28.86
338.852	28.64
339.063	28.93
339.273	28.4
339.484	28.16
339.694	27.98
339.905	27.93
340.115	28.36
340.326	28.12
340.536	28.08
340.746	28.5
340.957	28.21
341.167	28.66
341.378	28.72
341.588	29.11
341.799	29.26
342.009	29.16
342.219	29.1
342.43	28.95
342.64	29.03
342.85	29.25
343.061	28.92
343.271	29.19
343.481	28.93
343.691	28.52
343.902	28.42
344.112	28.61
344.322	28.48
344.532	28.52
344.743	28.36
344.953	28.3
345.163	28.23
345.373	28.12
345.583	27.82
345.793	27.85
346.004	27.98
346.214	27.77
346.424	27.65
346.634	27.95
346.844	27.91
347.054	28.28
347.264	28.26
347.474	28.17
347.684	28.34
347.894	28.42
348.104	28.42
348.314	28.57
348.524	28.61
348.734	28.64
348.944	28.41
349.154	28.4
349.364	28.19
349.574	28.03
349.784	28.2
349.994	28.36
350.204	28.52
350.413	28.46
350.623	28.44
350.833	28.57
351.043	28.59
351.253	28.25
351.463	28.13
351.672	28.08
351.882	28.03
352.092	27.84
352.302	27.71
352.511	27.46
352.721	27.44
352.931	27.31
353.141	27.31
353.35	27.26
353.56	27.34
353.77	27.22
353.979	27.13
354.189	27.23
354.399	27.22
354.608	27.13
354.818	26.98
355.027	26.98
355.237	26.77
355.447	26.71
355.656	26.58
355.866	26.62
356.075	26.79
356.285	27
356.494	26.79
356.704	26.61
356.913	26.59
357.123	26.68
357.332	26.49
357.542	26.56
357.751	26.5
357.96	26.53
358.17	26.45
358.379	26.36
358.589	26.16
358.798	26.3
359.007	26.43
359.217	26.55
359.426	26.26
359.635	26.21
359.845	26.34
360.054	26.12
360.263	26.02
360.472	26.1
360.682	25.98
360.891	25.79
361.1	25.63
361.309	25.37
361.519	25.39
361.728	25.49
361.937	25.67
362.146	25.6
362.355	25.67
362.564	25.75
362.774	25.76
362.983	25.81
363.192	25.94
363.401	26.03
363.61	26.21
363.819	26.17
364.028	26.42
364.237	26.31
364.446	26.37
364.655	26.41
364.864	26.08
365.073	25.9
365.282	25.69
365.491	25.58
365.7	25.4
365.909	25.39
366.118	25.43
366.327	25.29
366.536	25.52
366.745	25.37
366.954	25.38
367.162	25.56
367.371	25.51
367.58	25.74
367.789	25.69
367.998	25.79
368.207	25.73
368.415	25.62
368.624	25.59
368.833	25.42
369.042	25.67
369.25	25.71
369.459	25.95
369.668	26.01
369.877	25.89
370.085	25.72
370.294	25.78
370.503	25.96
370.711	25.7
370.92	25.52
371.129	25.32
371.337	24.98
371.546	24.88
371.754	24.6
371.963	24.5
372.171	24.57
372.38	24.92
372.589	24.92
372.797	24.84
373.006	24.89
373.214	24.85
373.423	24.71
373.631	24.57
373.84	24.27
374.048	24.15
374.256	24.27
374.465	24.01
374.673	23.73
374.882	23.8
375.09	23.78
375.298	23.67
375.507	23.63
375.715	23.69
375.923	23.81
376.132	23.84
376.34	23.91
376.548	23.86
376.757	24.03
376.965	24.3
377.173	24.09
377.381	24.05
377.59	24.13
377.798	24.16
378.006	24.13
378.214	24
378.423	24.32
378.631	24.2
378.839	24.01
379.047	23.92
379.255	23.68
379.463	23.75
379.671	23.54
379.879	23.34
380.088	23.41
380.296	23.26
380.504	23.38
380.712	23.13
380.92	23.16
381.128	23.26
381.336	23.17
381.544	22.86
381.752	22.88
381.96	22.82
382.168	22.8
382.376	22.57
382.584	22.57
382.791	22.56
382.999	22.49
383.207	22.57
383.415	22.68
383.623	22.68
383.831	22.8
384.039	22.66
384.247	22.68
384.454	22.66
384.662	22.75
384.87	22.94
385.078	22.86
385.285	22.71
385.493	22.66
385.701	22.44
385.909	22.4
386.116	22.33
386.324	22.29
386.532	22.2
386.739	22.19
386.947	22.23
387.155	22.27
387.362	22.28
387.57	22.15
387.778	21.87
387.985	21.96
388.193	22.05
388.4	22.02
388.608	22.06
388.816	22.1
389.023	22.08
389.231	21.91
389.438	21.76
389.646	21.65
389.853	21.92
390.061	21.95
390.268	21.88
390.475	21.77
390.683	21.9
390.89	21.83
391.098	21.81
391.305	21.91
391.512	21.76
391.72	21.82
391.927	21.76
392.135	21.81
392.342	21.85
392.549	21.9
392.756	21.93
392.964	21.7
393.171	21.69
393.378	21.61
393.586	21.54
393.793	21.67
394	21.63
394.207	21.74
394.414	21.7
394.622	21.75
394.829	21.82
395.036	21.92
395.243	22.09
395.45	22.2
395.657	22.33
395.864	22.2
396.072	22.25
396.279	22.22
396.486	22.19
396.693	21.95
396.9	21.91
397.107	21.94
397.314	21.76
397.521	21.89
397.728	21.82
397.935	21.74
398.142	21.7
398.349	21.78
398.556	21.72
398.763	21.69
398.97	21.79
399.177	21.78
399.383	21.66
399.59	21.94
399.797	21.82
400.004	21.78
400.211	21.85
400.418	21.98
400.625	22.04
400.831	21.95
401.038	22.1
401.245	22.07
401.452	22.17
401.658	22.14
401.865	22.01
402.072	21.96
402.279	21.84
402.485	21.5
402.692	21.44
402.899	21.27
403.105	21.29
403.312	21.05
403.519	20.92
403.725	20.95
403.932	20.75
404.138	20.6
404.345	20.45
404.552	20.33
404.758	20.58
404.965	20.51
405.171	20.61
405.378	20.62
405.584	20.71
405.791	20.85
405.997	20.74
406.204	21.08
406.41	21.1
406.617	21.46
406.823	21.76
407.029	21.75
407.236	21.85
407.442	21.68
407.649	21.82
407.855	21.89
408.061	22.07
408.268	22.03
408.474	21.88
408.68	21.82
408.887	21.62
409.093	21.45
409.299	21.56
409.505	21.7
409.712	21.77
409.918	21.67
410.124	21.6
410.33	21.46
410.537	21.49
410.743	21.5
410.949	21.71
411.155	21.83
411.361	21.77
411.567	21.76
411.773	21.66
411.98	21.63
412.186	21.53
412.392	21.63
412.598	21.68
412.804	21.67
413.01	21.69
413.216	21.72
413.422	21.5
413.628	21.77
413.834	21.75
414.04	21.7
414.246	21.76
414.452	21.82
414.658	21.67
414.864	21.56
415.07	21.58
415.275	21.47
415.481	21.36
415.687	21.38
415.893	21.25
416.099	21.11
416.305	21.17
416.511	21.19
416.716	21.17
416.922	21.19
417.128	21.27
417.334	21.25
417.539	21.28
417.745	21.18
417.951	21.17
418.157	21.16
418.362	21.16
418.568	21.02
418.774	20.96
418.979	20.92
419.185	20.92
419.391	20.9
419.596	20.81
419.802	20.79
420.008	20.81
420.213	20.97
420.419	20.92
420.624	20.92
420.83	20.99
421.035	21.02
421.241	21.08
421.446	21.03
421.652	20.97
421.857	20.97
422.063	20.94
422.268	20.89
422.474	20.7
422.679	20.72
422.885	20.75
423.09	20.68
423.295	20.64
423.501	20.59
423.706	20.65
423.911	20.68
424.117	20.71
424.322	20.65
424.527	20.68
424.733	20.69
424.938	20.77
425.143	20.76
425.349	20.79
425.554	20.76
425.759	20.89
425.964	20.87
426.169	20.88
426.375	20.88
426.58	20.92
426.785	21.03
426.99	21.05
427.195	21.08
427.4	21.08
427.605	21.18
427.811	21.24
428.016	21.09
428.221	21.18
428.426	21.14
428.631	21.27
428.836	21.42
429.041	21.4
429.246	21.44
429.451	21.38
429.656	21.46
429.861	21.47
430.066	21.4
430.271	21.33
430.476	21.23
430.681	21.38
430.886	21.32
431.09	21.37
431.295	21.42
431.5	21.52
431.705	21.45
431.91	21.45
432.115	21.54
432.32	21.74
432.524	21.81
432.729	21.89
432.934	21.81
433.139	21.81
433.343	21.78
433.548	21.73
433.753	21.72
433.958	21.75
434.162	21.81
434.367	21.7
434.572	21.7
434.776	21.73
434.981	21.73
435.186	21.81
435.39	21.91
435.595	21.93
435.799	21.89
436.004	21.93
436.209	21.97
436.413	21.97
436.618	21.97
436.822	21.93
437.027	21.99
437.231	21.99
437.436	21.94
437.64	21.89
437.845	21.9
438.049	22.07
438.253	21.99
438.458	22.04
438.662	22.04
438.867	22.08
439.071	22.15
439.275	22
439.48	22.02
439.684	22
439.888	21.94
440.093	21.81
440.297	21.68
440.501	21.67
440.706	21.71
440.91	21.64
441.114	21.67
441.318	21.72
441.523	21.83
441.727	21.8
441.931	21.84
442.135	21.93
442.339	22.09
442.543	22.22
442.748	22.31
442.952	22.23
443.156	22.26
443.36	22.22
443.564	22.13
443.768	22.16
443.972	22.14
444.176	22.17
444.38	22.12
444.584	22.08
444.788	22.01
444.992	21.9
445.196	21.92
445.4	21.95
445.604	21.97
445.808	21.93
446.012	21.87
446.216	21.89
446.42	21.83
446.624	21.84
446.828	21.76
447.032	21.69
447.235	21.78
447.439	21.77
447.643	21.83
447.847	21.82
448.051	21.81
448.254	21.83
448.458	21.82
448.662	21.84
448.866	21.78
449.069	21.93
449.273	22.06
449.477	22.01
449.681	22
449.884	21.93
450.088	22.04
450.292	22.07
450.495	22.13
450.699	22.09
450.902	22.09
451.106	22.2
451.31	22.12
451.513	22.14
451.717	22.16
451.92	22.16
452.124	22.16
452.327	21.99
452.531	22.01
452.734	21.95
452.938	21.98
453.141	22.05
453.345	22.04
453.548	22.01
453.752	21.87
453.955	21.9
454.158	21.9
454.362	21.85
454.565	21.95
454.769	21.91
454.972	21.93
455.175	21.97
455.379	21.95
455.582	21.98
455.785	22.05
455.988	22.14
456.192	22.15
456.395	22.15
456.598	22.3
456.801	22.32
457.005	22.37
457.208	22.41
457.411	22.43
457.614	22.37
457.817	22.35
458.021	22.19
458.224	22.17
458.427	22.1
458.63	22.18
458.833	22.04
459.036	21.99
459.239	21.91
459.442	21.9
459.645	21.88
459.848	21.84
460.051	21.84
460.254	21.93
460.457	21.96
