Data from 2938710__Reflection_01.txt Node
Date: Tue Mar 17 19:31:21 EDT 2015
User: robert
Spectrometer: USB4E03002
Autoset integration time: false
Trigger mode: 4
Integration Time (sec): 1.000000E-1
Scans to average: 10
Electric dark correction enabled: false
Nonlinearity correction enabled: false
Boxcar width: 5
Stray light correction enabled: false
XAxis mode: Wavelengths
Stop averaging: false
Number of Pixels in Spectrum: 3648
>>>>>Begin Spectral Data<<<<<
177.575	112.11
177.794	81.25
178.014	78.06
178.233	45.41
178.452	39.2
178.672	80.72
178.891	43.73
179.11	59.86
179.33	-5.22
179.549	32.1
179.768	1.65
179.987	10.48
180.207	330.43
180.426	23.42
180.645	76.15
180.864	66
181.084	27.77
181.303	34.77
181.522	-7.86
181.741	31.92
181.96	-2.84
182.179	-39.83
182.398	-9.18
182.618	21.08
182.837	31.25
183.056	3.04
183.275	-30.12
183.494	3.78
183.713	7.62
183.932	54.46
184.151	7.12
184.37	-15.13
184.589	29.58
184.808	-17.53
185.027	-49.59
185.246	-132.82
185.465	-231.79
185.684	-238.33
185.903	-84.73
186.122	-123.66
186.341	-227.27
186.56	-106.3
186.779	-61.46
186.998	-107.08
187.216	-85.59
187.435	-75
187.654	11.38
187.873	63.37
188.092	148.58
188.311	534.21
188.53	289.2
188.748	189.1
188.967	125.33
189.186	155.05
189.405	110.12
189.623	126.35
189.842	132.18
190.061	191.46
190.28	124.34
190.498	210.53
190.717	134.69
190.936	130.05
191.154	809.09
191.373	-222.03
191.592	95.62
191.81	242.5
192.029	434.09
192.248	2533.33
192.466	5.26
192.685	34.3
192.904	438.89
193.122	467.69
193.341	1021.43
193.559	-3366.67
193.778	-355.56
193.996	92.45
194.215	25.93
194.433	169.43
194.652	215.62
194.87	36
195.089	31.78
195.307	391.14
195.526	764.52
195.744	400
195.963	69.89
196.181	52.63
196.399	77
196.618	68.18
196.836	43.43
197.055	36.14
197.273	-15.59
197.491	-72.37
197.71	-53.2
197.928	-25.29
198.146	-10.69
198.365	25.99
198.583	-20.33
198.801	8.19
199.019	45.7
199.238	59.19
199.456	66.3
199.674	60.29
199.892	84.7
200.111	59.82
200.329	49.54
200.547	74.79
200.765	321.05
200.983	490.91
201.202	-0.89
201.42	110.76
201.638	130.94
201.856	109
202.074	81.63
202.292	78.04
202.51	51.87
202.728	127.74
202.946	239.35
203.165	-1205.56
203.383	-7860
203.601	585
203.819	562.07
204.037	-1105.41
204.255	1153.85
204.473	-838
204.691	-1008.7
204.909	-486.49
205.127	-176.51
205.345	-242.57
205.562	333.33
205.78	-95.42
205.998	-13.43
206.216	2.18
206.434	-0.26
206.652	21.33
206.87	49.22
207.088	37.48
207.306	76.78
207.523	67.88
207.741	54.62
207.959	39.67
208.177	48.77
208.395	39.83
208.612	36.6
208.83	11.99
209.048	-8.77
209.266	-47.54
209.483	7.59
209.701	-16.72
209.919	-176.74
210.136	-302.91
210.354	-752.27
210.572	-157.06
210.79	2800
211.007	-175.7
211.225	-26.59
211.442	4.05
211.66	-14.93
211.878	-22.22
212.095	-20.14
212.313	-2.93
212.53	-17.82
212.748	-9.75
212.966	-32.75
213.183	-38.52
213.401	-23.88
213.618	-20.29
213.836	-31.83
214.053	-58.62
214.271	-82.69
214.488	-49.87
214.705	-39.94
214.923	-10.96
215.14	-21.19
215.358	-11.17
215.575	-2.69
215.793	-28.46
216.01	-39.04
216.227	-34.43
216.445	-11.22
216.662	34.67
216.879	47.98
217.097	64.93
217.314	64.46
217.531	34.48
217.749	17.63
217.966	14.95
218.183	17.78
218.4	21.51
218.618	15.66
218.835	6.04
219.052	-9.83
219.269	-46.12
219.487	-66.94
219.704	-57.55
219.921	-49.47
220.138	-54.85
220.355	-52.45
220.572	-48
220.79	-26.4
221.007	-19.66
221.224	-11.58
221.441	-20.84
221.658	-6.49
221.875	-9.88
222.092	1.89
222.309	8.99
222.526	8.86
222.743	12.18
222.96	7.94
223.177	2.44
223.394	4.99
223.611	8.02
223.828	11.48
224.045	12.06
224.262	12.65
224.479	7.12
224.696	8.06
224.913	6.89
225.13	1.61
225.347	-1.41
225.564	2.31
225.781	1.23
225.997	-2.69
226.214	-3.08
226.431	-4.99
226.648	-6.4
226.865	-4.84
227.082	-4.57
227.298	-4.16
227.515	-3.35
227.732	0.56
227.949	0.46
228.165	0.68
228.382	1.53
228.599	2.01
228.816	3.71
229.032	3.9
229.249	3.49
229.466	3.51
229.682	3.93
229.899	4.32
230.116	4.15
230.332	3.43
230.549	2.45
230.765	2.96
230.982	2.18
231.199	-0.55
231.415	-1.03
231.632	-0.84
231.848	-2.26
232.065	-2.79
232.281	-3.09
232.498	-3.57
232.714	-2.59
232.931	-0.93
233.147	-4.26
233.364	-3.48
233.58	-3.12
233.797	-1.94
234.013	-1.9
234.23	0.08
234.446	0.58
234.662	1.71
234.879	-0.62
235.095	-0.56
235.312	-0.21
235.528	1.55
235.744	1.03
235.961	0.18
236.177	-0.38
236.393	0.56
236.61	0.42
236.826	-2.24
237.042	-2.69
237.258	-0.91
237.475	-1.94
237.691	-3.13
237.907	-2.76
238.123	-2.14
238.339	-1.67
238.556	0.61
238.772	-1.1
238.988	-1.09
239.204	0.66
239.42	2.59
239.636	2.83
239.853	2.37
240.069	2.82
240.285	1.89
240.501	2.11
240.717	3.37
240.933	3.12
241.149	2.79
241.365	2.06
241.581	2.04
241.797	1.63
242.013	1.4
242.229	1.85
242.445	2.21
242.661	2.96
242.877	2.62
243.093	2.3
243.309	1.52
243.525	1.76
243.741	2.08
243.957	1.55
244.173	1.34
244.388	1.81
244.604	1.3
244.82	1.01
245.036	1.36
245.252	2.09
245.468	2.58
245.683	3.55
245.899	4.04
246.115	4.35
246.331	4.96
246.547	4.75
246.762	4.24
246.978	4.46
247.194	4.87
247.409	4.31
247.625	4.1
247.841	4.04
248.057	4.06
248.272	3.77
248.488	3.64
248.703	3.41
248.919	3.84
249.135	4.52
249.35	4.43
249.566	3.51
249.782	3.78
249.997	3.63
250.213	3.58
250.428	3.27
250.644	3.49
250.859	3.36
251.075	3.78
251.29	3.14
251.506	2.92
251.721	3.13
251.937	3.92
252.152	4.09
252.368	4.06
252.583	4.47
252.798	3.92
253.014	3.37
253.229	3.13
253.445	2.63
253.66	2.23
253.875	1.36
254.091	1.85
254.306	0.99
254.521	0.34
254.737	1.38
254.952	1.17
255.167	0.63
255.383	1.22
255.598	1.49
255.813	1.34
256.028	1.87
256.244	2.44
256.459	1.41
256.674	1.06
256.889	1.58
257.104	0.62
257.32	0.15
257.535	1.49
257.75	1.52
257.965	1.7
258.18	2.1
258.395	1.99
258.61	1.94
258.826	2.08
259.041	2.15
259.256	1.98
259.471	1.87
259.686	1.76
259.901	1.59
260.116	1.76
260.331	1.65
260.546	1.44
260.761	1.45
260.976	1.26
261.191	1.26
261.406	1.26
261.621	1.32
261.836	1.71
262.05	1.75
262.265	1.55
262.48	1.12
262.695	1.39
262.91	1.7
263.125	1.48
263.34	1.7
263.555	1.89
263.769	1.74
263.984	2.13
264.199	1.96
264.414	2.22
264.629	2.58
264.843	2.59
265.058	2.32
265.273	2.11
265.488	2.29
265.702	2.36
265.917	2.56
266.132	2.76
266.346	2.29
266.561	2.42
266.776	2.47
266.99	2.24
267.205	2.59
267.42	2.73
267.634	2.83
267.849	2.62
268.063	2.87
268.278	2.35
268.492	2.26
268.707	2.52
268.922	1.93
269.136	2.29
269.351	2.06
269.565	1.77
269.78	1.53
269.994	0.95
270.209	0.88
270.423	0.34
270.637	0.66
270.852	0.68
271.066	0.62
271.281	1.11
271.495	0.5
271.709	1.07
271.924	1.22
272.138	1.32
272.353	1.77
272.567	2.12
272.781	2.31
272.996	2.07
273.21	2.43
273.424	2.68
273.638	2.63
273.853	2.99
274.067	2.84
274.281	2.62
274.495	2.42
274.71	2.15
274.924	1.94
275.138	2.11
275.352	2.35
275.566	1.91
275.781	1.33
275.995	1.33
276.209	1.13
276.423	1.14
276.637	1.31
276.851	1.41
277.065	1.27
277.279	1.21
277.493	0.76
277.707	0.51
277.921	0.58
278.135	1.3
278.349	0.97
278.563	0.9
278.777	0.63
278.991	0.36
279.205	0.27
279.419	0.3
279.633	0.26
279.847	0.56
280.061	0.62
280.275	0.6
280.489	0.17
280.703	0.18
280.917	0.29
281.131	0.2
281.344	0.31
281.558	0.36
281.772	0.68
281.986	0.63
282.2	0.75
282.414	0.74
282.627	0.83
282.841	0.67
283.055	0.91
283.269	0.92
283.482	0.81
283.696	0.82
283.91	1.2
284.123	1.09
284.337	1.29
284.551	1.39
284.764	1.35
284.978	1.57
285.192	1.99
285.405	2.03
285.619	2.05
285.833	2.26
286.046	2.5
286.26	2.31
286.473	2.63
286.687	2.54
286.9	2.48
287.114	2.31
287.327	2.21
287.541	1.8
287.754	2.01
287.968	2.14
288.181	2.16
288.395	2.14
288.608	2.27
288.822	2.3
289.035	2.24
289.248	2.18
289.462	2.78
289.675	2.52
289.889	2.6
290.102	2.17
290.315	2.33
290.529	2.47
290.742	2.23
290.955	2.19
291.169	1.94
291.382	1.78
291.595	1.57
291.808	1.15
292.022	1.26
292.235	1.59
292.448	1.69
292.661	1.64
292.875	1.44
293.088	1.61
293.301	1.72
293.514	1.57
293.727	1.65
293.94	2.05
294.153	2.12
294.367	2.3
294.58	2.22
294.793	2.51
295.006	2.42
295.219	2.63
295.432	2.13
295.645	2.18
295.858	2.24
296.071	2.56
296.284	2.5
296.497	2.59
296.71	2.58
296.923	2.26
297.136	2.61
297.349	2.7
297.562	2.65
297.775	3.19
297.988	3.15
298.201	3.3
298.414	3.28
298.626	3.56
298.839	3.53
299.052	3.38
299.265	3.58
299.478	3.07
299.691	3.39
299.903	3.53
300.116	3.47
300.329	3.6
300.542	3.69
300.755	3.45
300.967	2.9
301.18	3.09
301.393	3.4
301.605	3.36
301.818	3.41
302.031	3.3
302.243	3.31
302.456	3.28
302.669	3.21
302.881	3.32
303.094	3.71
303.307	3.93
303.519	4.06
303.732	3.85
303.944	4.26
304.157	4.71
304.37	4.38
304.582	4.41
304.795	4.78
305.007	4.94
305.22	4.83
305.432	4.6
305.645	4.98
305.857	4.98
306.069	5.27
306.282	4.95
306.494	4.26
306.707	4.41
306.919	4.41
307.132	4.29
307.344	4.14
307.556	4.07
307.769	4.56
307.981	4.24
308.193	4.32
308.406	4.43
308.618	4.63
308.83	4.74
309.043	4.87
309.255	4.95
309.467	4.93
309.679	4.66
309.892	4.97
310.104	4.9
310.316	4.93
310.528	4.73
310.74	4.46
310.953	4.65
311.165	4.89
311.377	5.07
311.589	4.92
311.801	4.66
312.013	5
312.225	4.99
312.437	4.68
312.649	4.76
312.862	4.81
313.074	4.87
313.286	5.04
313.498	5.13
313.71	4.84
313.922	5.07
314.134	5.19
314.346	4.95
314.558	4.62
314.77	5.07
314.982	4.79
315.193	5.03
315.405	5.26
315.617	4.89
315.829	4.6
316.041	4.37
316.253	4.33
316.465	4.46
316.677	4.77
316.888	4.8
317.1	5.1
317.312	5.33
317.524	5.25
317.736	5.06
317.947	5.09
318.159	5.64
318.371	5.94
318.583	6.11
318.794	6.13
319.006	6.08
319.218	5.98
319.43	5.87
319.641	5.83
319.853	6.24
320.064	6.37
320.276	6.34
320.488	6.11
320.699	6.56
320.911	6.56
321.123	6.97
321.334	6.79
321.546	7.46
321.757	6.96
321.969	7.56
322.18	7.22
322.392	7.08
322.603	7.26
322.815	6.74
323.026	6.57
323.238	6.56
323.449	6.36
323.661	6.65
323.872	6.57
324.083	6.68
324.295	6.45
324.506	6.39
324.718	6.54
324.929	6.37
325.14	6.78
325.352	7.11
325.563	7.04
325.774	7.05
325.986	7.12
326.197	7.27
326.408	7.73
326.62	8.17
326.831	8.22
327.042	8.18
327.253	8.25
327.464	8.38
327.676	8.13
327.887	8.53
328.098	8.66
328.309	8.78
328.52	8.51
328.732	8.3
328.943	8.24
329.154	8.62
329.365	8.99
329.576	9.36
329.787	9.41
329.998	9.31
330.209	9.39
330.42	9.36
330.631	9.28
330.842	9.86
331.053	9.99
331.264	9.89
331.475	9.56
331.686	9.71
331.897	9.5
332.108	9.83
332.319	10.21
332.53	10.05
332.741	10.08
332.952	10.41
333.163	10.29
333.374	10.46
333.585	10.53
333.795	11.01
334.006	10.95
334.217	11.23
334.428	11.04
334.639	11.14
334.849	11.22
335.06	11.32
335.271	11.23
335.482	11.06
335.692	11.42
335.903	11.38
336.114	11.28
336.325	11.75
336.535	11.67
336.746	11.75
336.957	11.47
337.167	11.54
337.378	11.77
337.589	11.66
337.799	11.66
338.01	11.72
338.22	11.77
338.431	11.84
338.642	11.45
338.852	11.45
339.063	11.6
339.273	11.85
339.484	11.97
339.694	11.77
339.905	11.65
340.115	11.84
340.326	11.21
340.536	11.34
340.746	11.14
340.957	11.34
341.167	11.61
341.378	11.36
341.588	11.12
341.799	10.93
342.009	11.04
342.219	11.17
342.43	11.22
342.64	11.07
342.85	10.93
343.061	11.08
343.271	10.67
343.481	10.28
343.691	10.28
343.902	10.14
344.112	10.29
344.322	10.4
344.532	10.36
344.743	10.03
344.953	10.37
345.163	10.23
345.373	10.23
345.583	10.2
345.793	10.56
346.004	10.63
346.214	10.82
346.424	10.64
346.634	10.55
346.844	10.65
347.054	10.79
347.264	10.9
347.474	10.86
347.684	10.74
347.894	10.86
348.104	10.83
348.314	10.74
348.524	10.76
348.734	10.79
348.944	10.69
349.154	10.78
349.364	10.81
349.574	10.46
349.784	10.71
349.994	10.59
350.204	10.43
350.413	10.27
350.623	10.2
350.833	10.19
351.043	9.84
351.253	9.9
351.463	9.9
351.672	10.05
351.882	10.32
352.092	10.04
352.302	10.19
352.511	10.72
352.721	10.52
352.931	10.51
353.141	10.72
353.35	10.99
353.56	10.92
353.77	10.47
353.979	10.26
354.189	10.29
354.399	10.31
354.608	10.24
354.818	10.26
355.027	10.42
355.237	10.48
355.447	10.55
355.656	10.55
355.866	10.39
356.075	10.52
356.285	10.49
356.494	10.44
356.704	10.57
356.913	10.87
357.123	10.66
357.332	10.29
357.542	10.44
357.751	10.16
357.96	10.36
358.17	10.44
358.379	10.57
358.589	10.64
358.798	10.53
359.007	10.58
359.217	10.3
359.426	10.2
359.635	10.67
359.845	10.69
360.054	10.69
360.263	10.32
360.472	10.46
360.682	10.78
360.891	10.84
361.1	10.64
361.309	10.54
361.519	10.35
361.728	10.38
361.937	10.35
362.146	10.3
362.355	10.24
362.564	10.38
362.774	10.29
362.983	10.07
363.192	10.04
363.401	10.48
363.61	10.5
363.819	10.74
364.028	10.68
364.237	10.47
364.446	10.42
364.655	10.4
364.864	10.45
365.073	10.28
365.282	10.04
365.491	9.85
365.7	9.38
365.909	9.35
366.118	9.22
366.327	9.17
366.536	9.23
366.745	9.19
366.954	9.49
367.162	9.4
367.371	9.56
367.58	9.5
367.789	9.4
367.998	9.72
368.207	9.59
368.415	9.86
368.624	9.76
368.833	9.73
369.042	9.66
369.25	9.55
369.459	9.54
369.668	9.73
369.877	10.03
370.085	10.05
370.294	10.02
370.503	10.15
370.711	9.9
370.92	10.01
371.129	10.18
371.337	9.93
371.546	9.67
371.754	9.59
371.963	9.26
372.171	9.08
372.38	9.35
372.589	9.17
372.797	9.02
373.006	8.73
373.214	8.76
373.423	8.56
373.631	8.77
373.84	8.86
374.048	9.05
374.256	9.2
374.465	9.06
374.673	8.8
374.882	8.62
375.09	8.5
375.298	8.53
375.507	8.28
375.715	8.16
375.923	8.11
376.132	8.15
376.34	7.93
376.548	7.82
376.757	8.01
376.965	7.9
377.173	7.84
377.381	7.9
377.59	8.2
377.798	8.36
378.006	8.25
378.214	8.46
378.423	8.37
378.631	8.49
378.839	8.58
379.047	8.54
379.255	8.62
379.463	8.82
379.671	8.85
379.879	8.47
380.088	8.42
380.296	8.62
380.504	8.35
380.712	8.17
380.92	7.84
381.128	7.66
381.336	7.61
381.544	7.47
381.752	7.18
381.96	7.07
382.168	7.43
382.376	7.42
382.584	7.28
382.791	7.23
382.999	7.17
383.207	7.16
383.415	7.24
383.623	7.19
383.831	7.22
384.039	7.56
384.247	7.61
384.454	7.3
384.662	7.08
384.87	7.07
385.078	7.12
385.285	7.34
385.493	7.33
385.701	7.34
385.909	7.27
386.116	7.38
386.324	7.28
386.532	7.29
386.739	7.45
386.947	7.51
387.155	7.62
387.362	7.79
387.57	7.55
387.778	7.65
387.985	7.7
388.193	7.57
388.4	7.51
388.608	7.37
388.816	7.19
389.023	7.28
389.231	7.2
389.438	7.13
389.646	6.93
389.853	7.14
390.061	7.24
390.268	7.08
390.475	7.35
390.683	7.32
390.89	7.37
391.098	7.59
391.305	7.41
391.512	7.57
391.72	7.5
391.927	7.65
392.135	7.46
392.342	7.27
392.549	7.21
392.756	7.19
392.964	7.19
393.171	7.1
393.378	6.97
393.586	7.03
393.793	7.08
394	7.15
394.207	7.15
394.414	7.19
394.622	7.08
394.829	7.05
395.036	6.76
395.243	6.64
395.45	6.57
395.657	6.57
395.864	6.54
396.072	6.35
396.279	6.37
396.486	6.17
396.693	6.07
396.9	6.05
397.107	6.08
397.314	6.15
397.521	6.45
397.728	6.46
397.935	6.18
398.142	6.13
398.349	6.25
398.556	6.22
398.763	6.2
398.97	6.39
399.177	6.56
399.383	6.47
399.59	6.48
399.797	6.26
400.004	6.33
400.211	6.59
400.418	6.74
400.625	6.8
400.831	6.76
401.038	6.83
401.245	6.77
401.452	6.75
401.658	6.89
401.865	7
402.072	7.01
402.279	7.09
402.485	7.12
402.692	6.98
402.899	6.91
403.105	7.08
403.312	6.98
403.519	7.04
403.725	7.07
403.932	6.9
404.138	6.89
404.345	7.04
404.552	6.93
404.758	6.9
404.965	6.95
405.171	6.96
405.378	6.93
405.584	6.98
405.791	6.96
405.997	6.96
406.204	7.22
406.41	7.27
406.617	7.08
406.823	7.27
407.029	7.21
407.236	7.3
407.442	7.24
407.649	7.1
407.855	7.07
408.061	6.88
408.268	6.9
408.474	6.73
408.68	6.64
408.887	6.86
409.093	6.78
409.299	6.96
409.505	6.81
409.712	6.73
409.918	6.74
410.124	6.87
410.33	6.98
410.537	7.03
410.743	7.17
410.949	7.23
411.155	7.02
411.361	6.9
411.567	6.74
411.773	6.66
411.98	6.62
412.186	6.65
412.392	6.52
412.598	6.4
412.804	6.32
413.01	6.32
413.216	6.4
413.422	6.35
413.628	6.49
413.834	6.54
414.04	6.65
414.246	6.69
414.452	6.69
414.658	6.79
414.864	6.9
415.07	6.99
415.275	6.85
415.481	6.79
415.687	6.78
415.893	6.81
416.099	6.86
416.305	6.99
416.511	6.95
416.716	7
416.922	6.91
417.128	7
417.334	7
417.539	7.09
417.745	7
417.951	7.06
418.157	6.95
418.362	6.93
418.568	6.86
418.774	6.93
418.979	6.97
419.185	6.99
419.391	6.99
419.596	7.02
419.802	6.99
420.008	7.01
420.213	7.67
420.419	7.66
420.624	7.7
420.83	7.62
421.035	7.62
421.241	7.57
421.446	7.61
421.652	7.53
421.857	7.49
422.063	7.52
422.268	7.56
422.474	6.93
422.679	6.97
422.885	6.91
423.09	7
423.295	7.04
423.501	6.99
423.706	7
423.911	7.01
424.117	6.94
424.322	6.9
424.527	6.97
424.733	7.02
424.938	7.01
425.143	7
425.349	6.97
425.554	6.92
425.759	6.99
425.964	7.02
426.169	7.08
426.375	7.13
426.58	7.17
426.785	7.08
426.99	7.11
427.195	7.12
427.4	7.2
427.605	7.18
427.811	7.29
428.016	7.22
428.221	7.15
428.426	7.13
428.631	7.2
428.836	7.12
429.041	7.05
429.246	7.12
429.451	7.21
429.656	7.06
429.861	7.14
430.066	7.1
430.271	7.17
430.476	7.17
430.681	7.18
430.886	7.2
431.09	7.19
431.295	7.26
431.5	7.18
431.705	7.04
431.91	7.17
432.115	7.2
432.32	7.25
432.524	7.23
432.729	7.19
432.934	7.22
433.139	7.17
433.343	7.22
433.548	7.23
433.753	7.26
433.958	7.34
434.162	7.42
434.367	7.37
434.572	7.3
434.776	7.41
434.981	7.49
435.186	7.5
435.39	7.55
435.595	7.55
435.799	7.55
436.004	7.59
436.209	7.57
436.413	7.51
436.618	7.56
436.822	7.67
437.027	7.6
437.231	7.54
437.436	7.46
437.64	7.5
437.845	7.54
438.049	7.48
438.253	7.38
438.458	7.56
438.662	7.56
438.867	7.5
439.071	7.44
439.275	7.38
439.48	7.41
439.684	7.46
439.888	7.46
440.093	7.43
440.297	7.45
440.501	7.47
440.706	7.4
440.91	7.43
441.114	7.55
441.318	7.54
441.523	7.63
441.727	7.66
441.931	7.69
442.135	7.67
442.339	7.8
442.543	7.79
442.748	7.86
442.952	7.84
443.156	7.74
443.36	7.67
443.564	7.69
443.768	7.6
443.972	7.59
444.176	7.58
444.38	7.54
444.584	7.47
444.788	7.52
444.992	7.51
445.196	7.5
445.4	7.58
445.604	7.55
445.808	7.58
446.012	7.56
446.216	7.59
446.42	7.61
446.624	7.67
446.828	7.65
447.032	7.67
447.235	7.65
447.439	7.72
447.643	7.69
447.847	7.69
448.051	7.68
448.254	7.7
448.458	7.64
448.662	7.65
448.866	7.59
449.069	7.68
449.273	7.68
449.477	7.72
449.681	7.68
449.884	7.75
450.088	7.74
450.292	7.75
450.495	7.71
450.699	7.71
450.902	7.7
451.106	7.74
451.31	7.53
451.513	7.47
451.717	7.43
451.92	7.41
452.124	7.23
452.327	7.21
452.531	7.22
452.734	7.3
452.938	7.32
453.141	7.25
453.345	7.1
453.548	7.25
453.752	7.24
453.955	7.26
454.158	7.25
454.362	7.29
454.565	7.34
454.769	7.34
454.972	7.23
455.175	7.16
455.379	7.21
455.582	7.38
455.785	7.26
455.988	7.32
456.192	7.25
456.395	7.24
456.598	7.26
456.801	7.33
457.005	7.33
457.208	7.43
457.411	7.47
457.614	7.46
457.817	7.41
458.021	7.45
458.224	7.46
458.427	7.51
458.63	7.51
458.833	7.56
459.036	7.51
459.239	7.55
459.442	7.56
459.645	7.58
459.848	7.61
460.051	7.55
460.254	7.57
460.457	7.59
460.66	7.59
460.863	7.54
461.066	7.56
461.269	7.6
461.472	7.5
461.675	7.49
461.878	7.44
462.081	7.31
462.284	7.43
462.486	7.41
462.689	7.34
462.892	7.3
463.095	7.43
463.298	7.34
463.5	7.25
463.703	7.35
463.906	7.44
464.109	7.49
464.311	7.57
464.514	7.51
464.717	7.51
464.92	7.47
465.122	7.5
465.325	7.44
465.528	7.44
465.73	7.6
465.933	7.55
466.135	7.42
466.338	7.5
466.541	7.53
466.743	7.52
466.946	7.52
467.148	7.6
467.351	7.57
467.553	7.59
467.756	7.63
467.958	7.52
468.161	7.55
468.363	7.5
468.566	7.36
468.768	7.37
