Data from 2938792__Reflection_01.txt Node
Date: Fri Mar 13 11:04:48 EDT 2015
User: robert
Spectrometer: USB4E03002
Autoset integration time: false
Trigger mode: 4
Integration Time (sec): 1.000000E-1
Scans to average: 10
Electric dark correction enabled: false
Nonlinearity correction enabled: false
Boxcar width: 5
Stray light correction enabled: false
XAxis mode: Wavelengths
Stop averaging: false
Number of Pixels in Spectrum: 3648
>>>>>Begin Spectral Data<<<<<
177.575	-376.67
177.794	-4685.71
178.014	-673.04
178.233	-486.26
178.452	-292.53
178.672	-189.6
178.891	-201.35
179.11	-215.69
179.33	-209.23
179.549	-263.73
179.768	-293.55
179.987	-490.44
180.207	-311.49
180.426	-526.84
180.645	-999.36
180.864	-4026.83
181.084	1297.01
181.303	2001.12
181.522	1023.73
181.741	2344.59
181.96	1001.7
182.179	452.8
182.398	373.4
182.618	297.77
182.837	319.78
183.056	239.56
183.275	238.87
183.494	278.67
183.713	253.88
183.932	241.27
184.151	232.72
184.37	247.25
184.589	302.55
184.808	378.8
185.027	353.35
185.246	341.61
185.465	1094.02
185.684	557.2
185.903	610.84
186.122	650.28
186.341	2221.57
186.56	990.52
186.779	1509.64
186.998	714.94
187.216	-1640.63
187.435	-385.71
187.654	-471.31
187.873	-665.34
188.092	-1742.03
188.311	10223.08
188.53	-1758.02
188.748	4750
188.967	-673.33
189.186	-784.3
189.405	-377.71
189.623	-1419.61
189.842	3589.36
190.061	1215.38
190.28	1742.39
190.498	-952.94
190.717	-677.98
190.936	-494.44
191.154	-284.54
191.373	-938.93
191.592	-694.77
191.81	-536.67
192.029	-468.4
192.248	-474.3
192.466	-1952.11
192.685	-9464.29
192.904	-453.49
193.122	-2265.45
193.341	616.8
193.559	373.78
193.778	439.95
193.996	358.14
194.215	400.84
194.433	373.35
194.652	316.05
194.87	553.24
195.089	462.7
195.307	237.97
195.526	268.5
195.744	285.3
195.963	245.89
196.181	227.51
196.399	248.56
196.618	214.55
196.836	249.47
197.055	287.16
197.273	306.04
197.491	330.2
197.71	321.98
197.928	445.59
198.146	454.34
198.365	3587.5
198.583	-2022.64
198.801	-828.79
199.019	-939.06
199.238	-2352
199.456	824.16
199.674	479.31
199.892	420.8
200.111	669.53
200.329	615.19
200.547	587.63
200.765	428.71
200.983	387.44
201.202	412.06
201.42	506.45
201.638	524.09
201.856	875
202.074	1059.87
202.292	-2412.9
202.51	9512.5
202.728	5544.83
202.946	-1876.62
203.165	-2021.25
203.383	3088.46
203.601	1160
203.819	2749.09
204.037	576.62
204.255	610.4
204.473	668.2
204.691	403.5
204.909	327.97
205.127	323.95
205.345	350.49
205.562	438.71
205.78	510.53
205.998	487.23
206.216	253.47
206.434	404.56
206.652	261.74
206.87	248.19
207.088	232.78
207.306	385.86
207.523	337.4
207.741	282.66
207.959	268.34
208.177	376.88
208.395	419.47
208.612	665.38
208.83	438.38
209.048	510.73
209.266	734.27
209.483	622.11
209.701	598.04
209.919	849.09
210.136	670.4
210.354	567.79
210.572	435.45
210.79	316.09
211.007	284.52
211.225	352.64
211.442	352.66
211.66	247.56
211.878	277.68
212.095	-795.9
212.313	-2157.45
212.53	-1337.33
212.748	-900.49
212.966	-1498.29
213.183	-1047.59
213.401	-1663.39
213.618	3558.18
213.836	-10911.76
214.053	-5938.71
214.271	6834.62
214.488	156.93
214.705	163.54
214.923	137.31
215.14	151.72
215.358	176.7
215.575	202.61
215.793	198.83
216.01	295.76
216.227	274.91
216.445	286
216.662	334.94
216.879	415.97
217.097	377.29
217.314	326.44
217.531	217.76
217.749	190.35
217.966	163.66
218.183	148.49
218.4	136.86
218.618	137.66
218.835	114.14
219.052	114.77
219.269	109.4
219.487	100.8
219.704	114.54
219.921	109.33
220.138	112.63
220.355	117.29
220.572	109.59
220.79	85.74
221.007	90.69
221.224	94.81
221.441	84.53
221.658	83.65
221.875	84.43
222.092	82.09
222.309	74.27
222.526	68.76
222.743	55.86
222.96	55.84
223.177	67.53
223.394	60.95
223.611	60.76
223.828	59.94
224.045	60.71
224.262	54.02
224.479	48.87
224.696	53.45
224.913	48.87
225.13	48.42
225.347	49.81
225.564	44.09
225.781	43.88
225.997	38.95
226.214	34.44
226.431	28.12
226.648	28.05
226.865	27.34
227.082	25.22
227.298	22.97
227.515	19.68
227.732	16.36
227.949	14.61
228.165	12.68
228.382	12.1
228.599	12.69
228.816	13.3
229.032	12.46
229.249	11.84
229.466	10.65
229.682	10.12
229.899	10.59
230.116	10.37
230.332	11.01
230.549	11.52
230.765	12.5
230.982	11.86
231.199	12.3
231.415	13.95
231.632	14.79
231.848	15.62
232.065	17.45
232.281	18.6
232.498	18.66
232.714	18.19
232.931	18.25
233.147	18.47
233.364	19.64
233.58	18.24
233.797	15.3
234.013	14.2
234.23	15.22
234.446	14.12
234.662	13.79
234.879	13.65
235.095	14.22
235.312	14.74
235.528	15.02
235.744	14.09
235.961	13.41
236.177	13.93
236.393	13.35
236.61	13.89
236.826	13.47
237.042	13.18
237.258	14.26
237.475	15.38
237.691	15.33
237.907	16.22
238.123	17.02
238.339	17.98
238.556	18.74
238.772	18.82
238.988	17.86
239.204	19.14
239.42	19.32
239.636	19.01
239.853	17.16
240.069	15.23
240.285	13.09
240.501	12.17
240.717	12.48
240.933	11.87
241.149	11.91
241.365	10.2
241.581	9.9
241.797	9.4
242.013	8.37
242.229	8.55
242.445	8.49
242.661	8.89
242.877	8.57
243.093	8.47
243.309	8.29
243.525	8.12
243.741	9.04
243.957	8.85
244.173	9.62
244.388	9.97
244.604	10.09
244.82	10.65
245.036	9.7
245.252	9.02
245.468	8.64
245.683	8.64
245.899	8.1
246.115	7.97
246.331	7.47
246.547	6.99
246.762	6.81
246.978	6.71
247.194	6.46
247.409	6.49
247.625	6.78
247.841	6.54
248.057	6.45
248.272	6.49
248.488	6.25
248.703	6.52
248.919	6.36
249.135	6.72
249.35	7.01
249.566	7.34
249.782	7.38
249.997	7.27
250.213	7.05
250.428	7.33
250.644	7.94
250.859	7.57
251.075	7.09
251.29	8.31
251.506	7.73
251.721	7.33
251.937	7.44
252.152	7.95
252.368	8.51
252.583	8.85
252.798	8.57
253.014	8.77
253.229	9.6
253.445	9.73
253.66	8.92
253.875	9.39
254.091	9.9
254.306	9.71
254.521	11.13
254.737	11.76
254.952	11.07
255.167	11.08
255.383	10.21
255.598	9.8
255.813	10.07
256.028	9.87
256.244	9.38
256.459	9.73
256.674	8.87
256.889	6.95
257.104	6.28
257.32	6.72
257.535	6.18
257.75	5.37
257.965	5.74
258.18	5.59
258.395	5.33
258.61	5.14
258.826	4.6
259.041	4.82
259.256	4.9
259.471	4.62
259.686	4.62
259.901	4.41
260.116	4.74
260.331	4.52
260.546	4.73
260.761	4.85
260.976	4.81
261.191	4.4
261.406	4.44
261.621	4.55
261.836	4.57
262.05	4.79
262.265	5.36
262.48	5.52
262.695	5.94
262.91	6.21
263.125	6.28
263.34	6.35
263.555	7.4
263.769	7.77
263.984	7.35
264.199	7.21
264.414	6.68
264.629	6.67
264.843	6.96
265.058	6.24
265.273	5.8
265.488	5.36
265.702	5.34
265.917	5.07
266.132	4.38
266.346	4.72
266.561	4.71
266.776	4.8
266.99	4.79
267.205	4.34
267.42	4.54
267.634	4.02
267.849	4.33
268.063	4.77
268.278	4.77
268.492	4.97
268.707	5.08
268.922	5.22
269.136	6.01
269.351	5.75
269.565	5.55
269.78	5.55
269.994	5.7
270.209	5.36
270.423	5.05
270.637	4.9
270.852	4.83
271.066	4.36
271.281	4.66
271.495	4.07
271.709	4.26
271.924	4.44
272.138	4.59
272.353	4.73
272.567	4.94
272.781	5.23
272.996	5.12
273.21	5.14
273.424	5.25
273.638	4.65
273.853	4.68
274.067	4.87
274.281	5.07
274.495	5
274.71	5.28
274.924	5.56
275.138	5.67
275.352	5.85
275.566	6.21
275.781	6.31
275.995	7.21
276.209	7.28
276.423	7.07
276.637	7.2
276.851	7.67
277.065	7.27
277.279	7.37
277.493	7.12
277.707	6.96
277.921	6.78
278.135	6.69
278.349	6.26
278.563	6.28
278.777	6.37
278.991	6.07
279.205	5.44
279.419	5.57
279.633	5.26
279.847	5.07
280.061	5.6
280.275	5.19
280.489	5.4
280.703	5.79
280.917	5.59
281.131	5.42
281.344	4.98
281.558	5.06
281.772	5.27
281.986	5.16
282.2	5.62
282.414	5.54
282.627	5.73
282.841	5.7
283.055	5.36
283.269	5.47
283.482	5.43
283.696	5.64
283.91	5.6
284.123	5.09
284.337	4.96
284.551	4.66
284.764	4.49
284.978	4.44
285.192	4.45
285.405	4.29
285.619	3.95
285.833	4.23
286.046	4.13
286.26	4.17
286.473	4.56
286.687	4.64
286.9	4.61
287.114	4.73
287.327	4.55
287.541	4.69
287.754	4.95
287.968	5.57
288.181	5.61
288.395	5.78
288.608	5.75
288.822	5.62
289.035	5.44
289.248	5.38
289.462	5.14
289.675	5.53
289.889	5.54
290.102	5.3
290.315	4.89
290.529	4.78
290.742	4.76
290.955	4.85
291.169	5.06
291.382	5.56
291.595	5.61
291.808	5.91
292.022	6.11
292.235	6.14
292.448	6.78
292.661	6.98
292.875	6.91
293.088	7.11
293.301	7.06
293.514	6.75
293.727	6.49
293.94	6.74
294.153	6.71
294.367	6.26
294.58	5.99
294.793	6.05
295.006	5.99
295.219	6.14
295.432	6.15
295.645	6.27
295.858	6.12
296.071	6.06
296.284	5.99
296.497	5.86
296.71	6.06
296.923	6.33
297.136	6.34
297.349	6.37
297.562	6.47
297.775	6.46
297.988	6.61
298.201	6.9
298.414	7.03
298.626	7.03
298.839	7.18
299.052	7.18
299.265	7.24
299.478	7.02
299.691	7.56
299.903	7.53
300.116	7.8
300.329	7.82
300.542	7.9
300.755	7.97
300.967	8.27
301.18	8.39
301.393	8.48
301.605	8.5
301.818	8.57
302.031	8.3
302.243	8.45
302.456	8.36
302.669	8.61
302.881	8.54
303.094	9.01
303.307	9.07
303.519	9.05
303.732	9.27
303.944	9.2
304.157	9.26
304.37	9.29
304.582	9.37
304.795	9.68
305.007	9.41
305.22	9.55
305.432	9.36
305.645	9.31
305.857	9.67
306.069	9.9
306.282	9.8
306.494	10.13
306.707	10.24
306.919	10.53
307.132	10.33
307.344	10.58
307.556	10.88
307.769	11
307.981	11.15
308.193	10.83
308.406	10.7
308.618	10.72
308.83	10.6
309.043	10.48
309.255	9.97
309.467	10.2
309.679	10.04
309.892	9.82
310.104	9.56
310.316	9.41
310.528	9.41
310.74	9.53
310.953	9.45
311.165	9.38
311.377	9.66
311.589	10.18
311.801	9.96
312.013	9.85
312.225	9.78
312.437	9.88
312.649	9.97
312.862	10.12
313.074	10.01
313.286	10.3
313.498	10.77
313.71	10.62
313.922	10.19
314.134	10.19
314.346	10.22
314.558	10.32
314.77	10.59
314.982	10.56
315.193	10.58
315.405	10.64
315.617	10.67
315.829	10.22
316.041	10.53
316.253	10.44
316.465	10.62
316.677	10.74
316.888	10.9
317.1	10.74
317.312	11.04
317.524	11.31
317.736	11.47
317.947	12.18
318.159	12.47
318.371	12.13
318.583	12.46
318.794	12.87
319.006	12.88
319.218	12.81
319.43	12.8
319.641	12.9
319.853	12.42
320.064	12.48
320.276	11.96
320.488	12.28
320.699	12.18
320.911	12.45
321.123	12.11
321.334	12.13
321.546	12.49
321.757	12.78
321.969	12.89
322.18	13.66
322.392	13.31
322.603	13.71
322.815	12.93
323.026	13.29
323.238	13.22
323.449	12.81
323.661	13.05
323.872	12.65
324.083	12.22
324.295	11.72
324.506	11.39
324.718	11.15
324.929	10.76
325.14	11.14
325.352	11.06
325.563	11.11
325.774	11.32
325.986	11.46
326.197	11.78
326.408	12.34
326.62	12.72
326.831	12.96
327.042	13.63
327.253	14.33
327.464	14.41
327.676	14.64
327.887	14.76
328.098	14.99
328.309	14.98
328.52	15.24
328.732	15.12
328.943	15.09
329.154	15.08
329.365	15.23
329.576	14.63
329.787	14.75
329.998	14.94
330.209	14.95
330.42	15.02
330.631	15.27
330.842	15.22
331.053	15.5
331.264	15.43
331.475	15.74
331.686	15.66
331.897	15.75
332.108	15.89
332.319	15.94
332.53	15.71
332.741	15.79
332.952	15.55
333.163	15.6
333.374	15.35
333.585	15.55
333.795	15.63
334.006	15.27
334.217	15.35
334.428	15.23
334.639	14.9
334.849	14.85
335.06	14.87
335.271	14.85
335.482	15.04
335.692	15.05
335.903	14.86
336.114	14.42
336.325	14.68
336.535	14.83
336.746	14.5
336.957	14.7
337.167	15.03
337.378	15.13
337.589	15.03
337.799	14.55
338.01	14.62
338.22	14.77
338.431	14.83
338.642	14.71
338.852	14.47
339.063	14.55
339.273	14.39
339.484	13.98
339.694	13.76
339.905	13.82
340.115	14.21
340.326	14.09
340.536	14
340.746	14.22
340.957	14.34
341.167	14.33
341.378	14.79
341.588	14.88
341.799	15.05
342.009	14.97
342.219	15.03
342.43	14.81
342.64	15.08
342.85	15.16
343.061	15.02
343.271	15.16
343.481	15.01
343.691	14.76
343.902	14.91
344.112	15
344.322	15.08
344.532	15.13
344.743	14.84
344.953	14.58
345.163	14.37
345.373	14.16
345.583	13.83
345.793	14.14
346.004	14.2
346.214	14.02
346.424	13.85
346.634	13.87
346.844	13.84
347.054	14.05
347.264	14.38
347.474	14.35
347.684	14.47
347.894	14.4
348.104	14.49
348.314	14.3
348.524	14.08
348.734	14.33
348.944	14.37
349.154	14.14
349.364	14.27
349.574	13.99
349.784	14.36
349.994	14.46
350.204	14.71
350.413	14.24
350.623	14.3
350.833	14.4
351.043	14.27
351.253	13.96
351.463	13.9
351.672	13.83
351.882	13.66
352.092	13.2
352.302	13.15
352.511	13.11
352.721	13.4
352.931	13.37
353.141	13.49
353.35	13.19
353.56	13.27
353.77	13.55
353.979	13.32
354.189	13.65
354.399	13.9
354.608	13.62
354.818	13.41
355.027	13.08
355.237	13.23
355.447	13.16
355.656	13.25
355.866	13.24
356.075	12.96
356.285	13.04
356.494	12.82
356.704	12.71
356.913	12.8
357.123	12.82
357.332	13.06
357.542	12.86
357.751	12.84
357.96	12.99
358.17	12.83
358.379	12.87
358.589	12.99
358.798	12.89
359.007	12.9
359.217	13.02
359.426	12.93
359.635	12.7
359.845	12.87
360.054	12.55
360.263	12.25
360.472	12.31
360.682	12.1
360.891	12.04
361.1	11.88
361.309	11.81
361.519	11.78
361.728	11.65
361.937	11.68
362.146	11.37
362.355	11.5
362.564	11.75
362.774	11.79
362.983	11.95
363.192	11.96
363.401	11.96
363.61	11.91
363.819	11.9
364.028	12.14
364.237	12.39
364.446	12.43
364.655	12.51
364.864	12.11
365.073	11.95
365.282	11.93
365.491	11.74
365.7	11.88
365.909	11.74
366.118	11.89
366.327	11.72
366.536	11.48
366.745	11.63
366.954	11.5
367.162	11.68
367.371	11.63
367.58	11.7
367.789	11.61
367.998	11.6
368.207	11.7
368.415	11.42
368.624	11.51
368.833	11.48
369.042	11.36
369.25	11.4
369.459	11.54
369.668	11.41
369.877	11.17
370.085	11.19
370.294	11.33
370.503	11.56
370.711	11.5
370.92	11.38
371.129	11.33
371.337	11.22
371.546	11.23
371.754	11.13
371.963	11
372.171	11.1
372.38	11.38
372.589	11.11
372.797	10.77
373.006	10.68
373.214	10.6
373.423	10.44
373.631	10.49
373.84	10.24
374.048	10.14
374.256	10.28
374.465	10.27
374.673	9.77
374.882	9.96
375.09	10.11
375.298	10.06
375.507	10.01
375.715	9.89
375.923	9.86
376.132	10.02
376.34	9.92
376.548	9.95
376.757	9.88
376.965	10.07
377.173	10.06
377.381	9.98
377.59	10.35
377.798	10.47
378.006	10.57
378.214	10.48
378.423	10.42
378.631	10.46
378.839	10.41
379.047	10.52
379.255	10.59
379.463	10.2
379.671	10.01
379.879	9.6
380.088	9.48
380.296	9.37
380.504	9.35
380.712	9
380.92	9.04
381.128	9.15
381.336	8.99
381.544	8.68
381.752	8.76
381.96	8.73
382.168	8.81
382.376	8.81
382.584	9
382.791	9.11
382.999	9.17
383.207	8.97
383.415	8.89
383.623	8.85
383.831	8.71
384.039	8.7
384.247	8.92
384.454	8.94
384.662	8.95
384.87	8.86
385.078	8.66
385.285	8.71
385.493	8.82
385.701	8.59
385.909	8.49
386.116	8.6
386.324	8.5
386.532	8.28
386.739	8.11
386.947	8.25
387.155	8.26
387.362	8.14
387.57	8.12
387.778	8.01
387.985	8.31
388.193	8.34
388.4	8.34
388.608	8.5
388.816	8.58
389.023	8.53
389.231	8.2
389.438	8.06
389.646	8.23
389.853	8.28
390.061	8.19
390.268	8.16
390.475	7.91
390.683	7.93
390.89	7.8
391.098	7.83
391.305	7.95
391.512	7.84
391.72	8.02
391.927	7.86
392.135	7.93
392.342	8.14
392.549	8.02
392.756	8.19
392.964	8.12
393.171	8.29
393.378	8.11
393.586	7.87
393.793	7.92
394	7.67
394.207	7.92
394.414	7.83
394.622	7.69
394.829	7.7
395.036	7.74
395.243	7.79
395.45	7.51
395.657	7.57
395.864	7.61
396.072	7.73
396.279	7.87
396.486	7.57
396.693	7.53
396.9	7.37
397.107	7.29
397.314	7.46
397.521	7.31
397.728	7.36
397.935	7.27
398.142	7.21
398.349	7.21
398.556	7.06
398.763	7.13
398.97	7.1
399.177	7.31
399.383	7.39
399.59	7.23
399.797	7.32
400.004	7.28
400.211	7.48
400.418	7.51
400.625	7.54
400.831	7.61
401.038	7.79
401.245	7.81
401.452	7.74
401.658	7.63
401.865	7.64
402.072	7.72
402.279	7.72
402.485	7.47
402.692	7.39
402.899	7.37
403.105	7.5
403.312	7.38
403.519	7.06
403.725	7.06
403.932	6.94
404.138	6.9
404.345	6.91
404.552	6.91
404.758	7.11
404.965	7.1
405.171	7.03
405.378	6.74
405.584	6.55
405.791	6.84
405.997	6.7
406.204	6.77
406.41	6.61
406.617	6.57
406.823	6.64
407.029	6.54
407.236	6.67
407.442	6.62
407.649	6.88
407.855	7.2
408.061	7.28
408.268	7.48
408.474	7.42
408.68	7.43
408.887	7.25
409.093	7.17
409.299	7.31
409.505	7.19
409.712	7.17
409.918	7.02
410.124	6.7
410.33	6.57
410.537	6.51
410.743	6.61
410.949	6.69
411.155	6.79
411.361	6.78
411.567	6.59
411.773	6.68
411.98	6.6
412.186	6.6
412.392	6.87
412.598	6.79
412.804	6.59
413.01	6.49
413.216	6.41
413.422	6.42
413.628	6.44
413.834	6.52
414.04	6.58
414.246	6.64
414.452	6.53
414.658	6.42
414.864	6.33
415.07	6.52
415.275	6.52
415.481	6.5
415.687	6.44
415.893	6.48
416.099	6.47
416.305	6.36
416.511	6.4
416.716	6.38
416.922	6.28
417.128	6.27
417.334	6.23
417.539	6.27
417.745	6.18
417.951	6.19
418.157	6.09
418.362	5.95
418.568	5.88
418.774	5.82
418.979	5.81
419.185	5.85
419.391	5.84
419.596	5.77
419.802	5.69
420.008	5.78
420.213	6.36
420.419	6.31
420.624	6.34
420.83	6.4
421.035	6.47
421.241	6.52
421.446	6.44
421.652	6.42
421.857	6.39
422.063	6.41
422.268	6.35
422.474	5.72
422.679	5.8
422.885	5.77
423.09	5.72
423.295	5.58
423.501	5.53
423.706	5.55
423.911	5.56
424.117	5.59
424.322	5.51
424.527	5.51
424.733	5.5
424.938	5.44
425.143	5.39
425.349	5.37
425.554	5.37
425.759	5.44
425.964	5.43
426.169	5.45
426.375	5.48
426.58	5.59
426.785	5.6
426.99	5.66
427.195	5.72
427.4	5.73
427.605	5.71
427.811	5.78
428.016	5.78
428.221	5.94
428.426	5.95
428.631	5.96
428.836	5.87
429.041	5.89
429.246	5.88
429.451	5.85
429.656	5.97
429.861	6.08
430.066	5.98
430.271	5.79
430.476	5.66
430.681	5.75
430.886	5.68
431.09	5.74
431.295	5.75
431.5	5.87
431.705	5.87
431.91	5.84
432.115	5.77
432.32	5.97
432.524	6.02
432.729	6.14
432.934	6.07
433.139	6.02
433.343	6.01
433.548	6.01
433.753	6.01
433.958	6.02
434.162	5.97
434.367	6.11
434.572	6.06
434.776	6.09
434.981	5.97
435.186	6.01
435.39	6.12
435.595	6.14
435.799	6.02
436.004	6.06
436.209	6.11
436.413	6.19
436.618	6.05
436.822	5.96
437.027	5.99
437.231	5.99
437.436	5.97
437.64	5.94
437.845	5.93
438.049	6.03
438.253	5.98
438.458	5.89
438.662	5.8
438.867	5.78
439.071	5.79
439.275	5.72
439.48	5.68
439.684	5.66
439.888	5.62
440.093	5.59
440.297	5.56
440.501	5.52
440.706	5.52
440.91	5.55
441.114	5.55
441.318	5.59
441.523	5.64
441.727	5.66
441.931	5.68
442.135	5.76
442.339	5.85
442.543	5.87
442.748	5.77
442.952	5.82
443.156	5.87
443.36	5.9
443.564	5.89
443.768	5.89
443.972	5.87
444.176	5.78
444.38	5.65
444.584	5.53
444.788	5.51
444.992	5.54
445.196	5.47
445.4	5.39
445.604	5.43
445.808	5.46
446.012	5.38
446.216	5.4
446.42	5.47
446.624	5.46
446.828	5.42
447.032	5.39
447.235	5.43
447.439	5.42
447.643	5.43
447.847	5.36
448.051	5.29
448.254	5.29
448.458	5.26
448.662	5.23
448.866	5.24
449.069	5.38
449.273	5.47
449.477	5.49
449.681	5.51
449.884	5.57
450.088	5.72
450.292	5.69
450.495	5.73
450.699	5.77
450.902	5.72
451.106	5.71
451.31	5.67
451.513	5.66
451.717	5.58
451.92	5.53
452.124	5.51
452.327	5.32
452.531	5.33
452.734	5.36
452.938	5.43
453.141	5.52
453.345	5.64
453.548	5.63
453.752	5.57
453.955	5.66
454.158	5.72
454.362	5.71
454.565	5.85
454.769	5.92
454.972	5.83
455.175	5.73
455.379	5.61
455.582	5.59
455.785	5.57
455.988	5.57
456.192	5.5
456.395	5.47
456.598	5.53
456.801	5.47
457.005	5.39
457.208	5.48
457.411	5.48
457.614	5.45
457.817	5.42
458.021	5.38
458.224	5.41
458.427	5.42
458.63	5.48
458.833	5.38
459.036	5.35
459.239	5.37
459.442	5.32
459.645	5.32
459.848	5.31
460.051	5.33
460.254	5.38
460.457	5.38
460.66	5.42
460.863	5.37
461.066	5.43
461.269	5.4
461.472	5.48
461.675	5.54
461.878	5.59
462.081	5.7
462.284	5.67
462.486	5.64
462.689	5.57
462.892	5.55
