Data from 2938848__Reflection_05.txt Node
Date: Wed Mar 11 13:45:57 EDT 2015
User: robert
Spectrometer: USB4E03002
Autoset integration time: false
Trigger mode: 4
Integration Time (sec): 1.000000E-1
Scans to average: 10
Electric dark correction enabled: false
Nonlinearity correction enabled: false
Boxcar width: 5
Stray light correction enabled: false
XAxis mode: Wavelengths
Stop averaging: false
Number of Pixels in Spectrum: 3648
>>>>>Begin Spectral Data<<<<<
177.575	-425.93
177.794	187.5
178.014	-12.33
178.233	-155.88
178.452	-148.91
178.672	-28.96
178.891	-23.83
179.11	-24.84
179.33	-97.49
179.549	-74.69
179.768	-137.02
179.987	-151.6
180.207	-95.67
180.426	-7.62
180.645	80.93
180.864	113.61
181.084	87.77
181.303	-14.29
181.522	-25.66
181.741	82.84
181.96	32.62
182.179	131.03
182.398	249.41
182.618	-69.23
182.837	67.69
183.056	595.74
183.275	100.71
183.494	18.7
183.713	50.3
183.932	45.87
184.151	73.65
184.37	30.95
184.589	65.56
184.808	53.28
185.027	552.38
185.246	312.22
185.465	176.38
185.684	106.34
185.903	94.63
186.122	67.16
186.341	60.88
186.56	55.14
186.779	22.32
186.998	44.91
187.216	42.86
187.435	21.51
187.654	34.15
187.873	27.91
188.092	21.79
188.311	22.93
188.53	39.43
188.748	34.08
188.967	33.91
189.186	43.84
189.405	36.8
189.623	37.07
189.842	37.31
190.061	30.74
190.28	42.78
190.498	38.24
190.717	37.62
190.936	44.93
191.154	47.64
191.373	43.02
191.592	37.58
191.81	30.55
192.029	26.97
192.248	17.99
192.466	-4.18
192.685	-63.67
192.904	-48.61
193.122	-6.88
193.341	-97.9
193.559	-196.67
193.778	-285.19
193.996	-62.69
194.215	-12.8
194.433	-10.36
194.652	-4.71
194.87	-7.53
195.089	26.54
195.307	-8.35
195.526	-55.86
195.744	-10.46
195.963	25.27
196.181	33.52
196.399	15.92
196.618	-5.3
196.836	-2.55
197.055	15.89
197.273	26.85
197.491	-3.61
197.71	3.34
197.928	21.71
198.146	12.21
198.365	-16.65
198.583	-12.77
198.801	-4.27
199.019	6.62
199.238	0.7
199.456	-5.88
199.674	-21.88
199.892	5.91
200.111	20.55
200.329	-1.73
200.547	2.14
200.765	5.3
200.983	-31.07
201.202	-46.12
201.42	-19.31
201.638	-10.02
201.856	-12.81
202.074	-36.88
202.292	-56.95
202.51	-89.94
202.728	-80.34
202.946	-59.91
203.165	-61.76
203.383	11.82
203.601	-14.25
203.819	-71.08
204.037	-60.07
204.255	-20.17
204.473	-23.68
204.691	-27.42
204.909	-16.26
205.127	-37.88
205.345	-92.63
205.562	-46.05
205.78	-63.79
205.998	-65.27
206.216	-76.1
206.434	-28.57
206.652	-26.45
206.87	-22.35
207.088	9.78
207.306	-1.73
207.523	8.16
207.741	24.04
207.959	12.73
208.177	14.73
208.395	0.91
208.612	7.5
208.83	1.92
209.048	-3.02
209.266	16.18
209.483	-26.92
209.701	-25.11
209.919	-7.39
210.136	-10.28
210.354	-10.3
210.572	-23.14
210.79	-17.44
211.007	-36.87
211.225	-44.26
211.442	-35.11
211.66	-76.09
211.878	-40.2
212.095	-21
212.313	-28.34
212.53	-18.42
212.748	6.11
212.966	9.92
213.183	16.98
213.401	30.18
213.618	32.4
213.836	39.59
214.053	39.09
214.271	36.44
214.488	32.27
214.705	24.11
214.923	17.84
215.14	9.68
215.358	2.55
215.575	4.63
215.793	-1.32
216.01	-7.61
216.227	-13.94
216.445	-0.28
216.662	-3.97
216.879	-2.93
217.097	4.97
217.314	4.82
217.531	10.94
217.749	11.69
217.966	15.57
218.183	19.28
218.4	19.12
218.618	10.17
218.835	12.78
219.052	15.86
219.269	14.94
219.487	11.79
219.704	13.48
219.921	9.59
220.138	18.34
220.355	16.13
220.572	9.7
220.79	8.33
221.007	10.67
221.224	2.47
221.441	1.66
221.658	5.29
221.875	3.57
222.092	4.94
222.309	3.97
222.526	3.21
222.743	-0.11
222.96	-0.28
223.177	-4.18
223.394	0.89
223.611	0.27
223.828	6.19
224.045	7.71
224.262	11.81
224.479	12.45
224.696	13.97
224.913	13.19
225.13	12.92
225.347	11.98
225.564	12.78
225.781	10.15
225.997	10.46
226.214	7.2
226.431	4.69
226.648	3.15
226.865	2.77
227.082	2.98
227.298	2.33
227.515	1.73
227.732	1.42
227.949	2.26
228.165	2.13
228.382	2.62
228.599	3.35
228.816	4.52
229.032	4.9
229.249	4.4
229.466	5.06
229.682	4.7
229.899	5.81
230.116	6.21
230.332	6.29
230.549	6.23
230.765	6.13
230.982	5.68
231.199	4.73
231.415	5.13
231.632	4.84
231.848	2.79
232.065	4.28
232.281	3.54
232.498	3.49
232.714	2.18
232.931	3.26
233.147	3.66
233.364	4.36
233.58	4.39
233.797	3.48
234.013	4.93
234.23	5.9
234.446	5.17
234.662	3.85
234.879	3.4
235.095	4.15
235.312	4.72
235.528	3.74
235.744	2.91
235.961	2.26
236.177	3.44
236.393	2.74
236.61	1.66
236.826	3.1
237.042	4.56
237.258	3.89
237.475	4.62
237.691	3.96
237.907	5.42
238.123	5.75
238.339	6.84
238.556	5.51
238.772	5.5
238.988	5.86
239.204	5.64
239.42	6.13
239.636	6.4
239.853	6.42
240.069	5.7
240.285	5.6
240.501	6.43
240.717	6.81
240.933	6.54
241.149	6.69
241.365	6.3
241.581	5.47
241.797	4.91
242.013	5.47
242.229	5.44
242.445	5.55
242.661	5.53
242.877	5.01
243.093	4.68
243.309	4.63
243.525	4.9
243.741	5.28
243.957	5.08
244.173	4.85
244.388	4.74
244.604	4
244.82	3.3
245.036	3.02
245.252	3.18
245.468	3.81
245.683	4.63
245.899	4.19
246.115	4.56
246.331	4.99
246.547	5.42
246.762	5.23
246.978	5.44
247.194	5.81
247.409	6.13
247.625	6.21
247.841	5.82
248.057	5.55
248.272	5.64
248.488	5.48
248.703	5.46
248.919	5.26
249.135	5.41
249.35	5.39
249.566	5.04
249.782	4.45
249.997	3.79
250.213	4.13
250.428	4.65
250.644	4.41
250.859	4.34
251.075	4.51
251.29	4.94
251.506	5.17
251.721	5.77
251.937	6.28
252.152	6.33
252.368	7.01
252.583	6.85
252.798	6
253.014	6.42
253.229	6.5
253.445	6.5
253.66	6.04
253.875	5.98
254.091	4.9
254.306	4.91
254.521	5.46
254.737	6
254.952	5.62
255.167	6.25
255.383	6.07
255.598	6.54
255.813	6.73
256.028	6.64
256.244	6.76
256.459	7.37
256.674	6.62
256.889	6.35
257.104	4.96
257.32	5.15
257.535	4.9
257.75	4.69
257.965	4.31
258.18	4.15
258.395	4.36
258.61	4.17
258.826	4.02
259.041	4.2
259.256	4.12
259.471	4.26
259.686	4.43
259.901	4.45
260.116	4.4
260.331	4.22
260.546	4.32
260.761	4.11
260.976	4.01
261.191	4.11
261.406	4.29
261.621	4.33
261.836	4.26
262.05	4
262.265	3.92
262.48	3.87
262.695	3.79
262.91	3.12
263.125	3.64
263.34	3.65
263.555	3.54
263.769	2.94
263.984	1.73
264.199	1.93
264.414	1.84
264.629	1.76
264.843	2.21
265.058	2.76
265.273	2.79
265.488	2.15
265.702	1.87
265.917	2.37
266.132	2.28
266.346	3.47
266.561	3.57
266.776	3.71
266.99	3.75
267.205	3.24
267.42	3.29
267.634	3.48
267.849	3.88
268.063	3.91
268.278	3.5
268.492	4.03
268.707	3.7
268.922	3.28
269.136	3.01
269.351	2.82
269.565	3.21
269.78	2.9
269.994	2.65
270.209	2.6
270.423	2.74
270.637	2.9
270.852	2.76
271.066	2.9
271.281	3.13
271.495	3.06
271.709	3.12
271.924	3.08
272.138	3.07
272.353	3.19
272.567	3.22
272.781	3.43
272.996	3.24
273.21	3.13
273.424	3.28
273.638	3.54
273.853	4.07
274.067	4.29
274.281	4.37
274.495	4.49
274.71	4.63
274.924	4.46
275.138	4.64
275.352	5.09
275.566	5.43
275.781	5.12
275.995	4.96
276.209	4.52
276.423	4.71
276.637	3.98
276.851	4.19
277.065	4.28
277.279	4.54
277.493	4.29
277.707	3.89
277.921	3.84
278.135	4.06
278.349	3.69
278.563	3.43
278.777	3.13
278.991	3.76
279.205	3.69
279.419	3.74
279.633	3.61
279.847	3.91
280.061	4.19
280.275	4.14
280.489	3.97
280.703	4.2
280.917	4.71
281.131	4.61
281.344	4.9
281.558	4.84
281.772	4.63
281.986	4.56
282.2	4.24
282.414	4
282.627	3.85
282.841	4.25
283.055	4.23
283.269	3.98
283.482	4.16
283.696	3.9
283.91	3.73
284.123	3.57
284.337	3.51
284.551	3.51
284.764	3.42
284.978	3.25
285.192	2.92
285.405	2.75
285.619	2.7
285.833	2.65
286.046	2.76
286.26	2.99
286.473	3.13
286.687	3.35
286.9	3.68
287.114	3.79
287.327	3.86
287.541	3.92
287.754	4.17
287.968	4.19
288.181	4.74
288.395	4.75
288.608	4.58
288.822	4.62
289.035	4.29
289.248	3.96
289.462	4.13
289.675	4.14
289.889	4.03
290.102	4.01
290.315	4.15
290.529	3.85
290.742	3.97
290.955	3.68
291.169	3.76
291.382	4.1
291.595	4.24
291.808	4.16
292.022	4.35
292.235	4.03
292.448	3.91
292.661	3.74
292.875	3.41
293.088	3.3
293.301	3.53
293.514	3.36
293.727	3.16
293.94	3.11
294.153	2.99
294.367	3.2
294.58	3.96
294.793	4.04
295.006	4.12
295.219	4.51
295.432	4.44
295.645	4.79
295.858	5.21
296.071	5.1
296.284	5.26
296.497	5.33
296.71	5.34
296.923	5.36
297.136	5.37
297.349	5.46
297.562	5.51
297.775	5.55
297.988	5.45
298.201	5.23
298.414	5.56
298.626	5.44
298.839	5.56
299.052	5.56
299.265	5.35
299.478	5.58
299.691	5.75
299.903	5.73
300.116	5.76
300.329	5.93
300.542	5.95
300.755	5.79
300.967	6.06
301.18	6.19
301.393	6.46
301.605	6.84
301.818	6.89
302.031	6.96
302.243	6.9
302.456	7.28
302.669	7.18
302.881	7.56
303.094	7.86
303.307	7.67
303.519	7.91
303.732	7.63
303.944	7.68
304.157	7.77
304.37	7.76
304.582	7.69
304.795	7.56
305.007	7.26
305.22	7.44
305.432	7.33
305.645	7.52
305.857	7.54
306.069	7.7
306.282	7.46
306.494	7.56
306.707	7.34
306.919	7.68
307.132	7.59
307.344	8.34
307.556	7.71
307.769	7.79
307.981	7.91
308.193	7.69
308.406	7.85
308.618	8.18
308.83	8.09
309.043	8.16
309.255	8.07
309.467	8.01
309.679	8.06
309.892	8.16
310.104	8.23
310.316	8.22
310.528	8.36
310.74	8.31
310.953	7.82
311.165	7.71
311.377	8.01
311.589	7.95
311.801	8.2
312.013	8.3
312.225	8.54
312.437	8.65
312.649	8.78
312.862	8.74
313.074	9.02
313.286	9.31
313.498	9.63
313.71	9.71
313.922	9.86
314.134	9.92
314.346	9.57
314.558	9.85
314.77	9.78
314.982	9.66
315.193	9.63
315.405	9.11
315.617	9.13
315.829	8.82
316.041	8.62
316.253	8.17
316.465	8.01
316.677	8.37
316.888	8.19
317.1	8.21
317.312	8.48
317.524	8.63
317.736	8.72
317.947	9.13
318.159	9.4
318.371	9.37
318.583	10.17
318.794	10.75
319.006	10.74
319.218	10.68
319.43	10.63
319.641	10.6
319.853	10.36
320.064	10.14
320.276	9.83
320.488	9.77
320.699	10.04
320.911	10.16
321.123	9.88
321.334	10.02
321.546	10.35
321.757	10.56
321.969	10.62
322.18	10.87
322.392	11.72
322.603	11.75
322.815	11.66
323.026	11.68
323.238	11
323.449	10.99
323.661	10.67
323.872	10.54
324.083	10.63
324.295	10.77
324.506	10.56
324.718	10.2
324.929	10.34
325.14	10.59
325.352	10.74
325.563	11.33
325.774	11.27
325.986	10.96
326.197	10.92
326.408	10.72
326.62	10.44
326.831	10.95
327.042	11.05
327.253	11.25
327.464	11.31
327.676	11.21
327.887	11.09
328.098	11.37
328.309	11.64
328.52	11.54
328.732	11.45
328.943	11.65
329.154	11.63
329.365	11.49
329.576	11.69
329.787	11.62
329.998	11.45
330.209	11.49
330.42	11.35
330.631	11.56
330.842	11.74
331.053	11.91
331.264	11.78
331.475	11.89
331.686	11.87
331.897	11.82
332.108	11.6
332.319	11.75
332.53	11.82
332.741	11.78
332.952	11.74
333.163	11.75
333.374	11.99
333.585	12.01
333.795	12
334.006	12.31
334.217	12.18
334.428	12.73
334.639	12.75
334.849	12.79
335.06	12.55
335.271	12.46
335.482	12.67
335.692	12.5
335.903	12.5
336.114	12.6
336.325	12.5
336.535	12.27
336.746	11.78
336.957	11.78
337.167	11.69
337.378	11.65
337.589	11.9
337.799	11.62
338.01	11.56
338.22	11.59
338.431	10.98
338.642	10.8
338.852	10.87
339.063	10.98
339.273	10.95
339.484	10.88
339.694	11.19
339.905	11.05
340.115	11.21
340.326	10.98
340.536	10.82
340.746	11.11
340.957	11.15
341.167	11.13
341.378	11.32
341.588	11.47
341.799	11.67
342.009	11.76
342.219	11.78
342.43	11.6
342.64	11.64
342.85	11.52
343.061	11.53
343.271	11.53
343.481	11.39
343.691	11.25
343.902	11.28
344.112	10.95
344.322	10.89
344.532	10.97
344.743	11.07
344.953	11.36
345.163	11.35
345.373	11.52
345.583	11.64
345.793	11.76
346.004	11.73
346.214	11.38
346.424	11.65
346.634	11.5
346.844	11.56
347.054	11.55
347.264	11.37
347.474	11.52
347.684	11.35
347.894	11.05
348.104	11
348.314	10.87
348.524	11.01
348.734	10.76
348.944	10.8
349.154	10.39
349.364	10.51
349.574	10.6
349.784	10.67
349.994	10.41
350.204	10.44
350.413	10.46
350.623	10.49
350.833	10.35
351.043	10.04
351.253	9.82
351.463	10.16
351.672	9.8
351.882	9.81
352.092	9.98
352.302	10.07
352.511	10.24
352.721	10.18
352.931	10.25
353.141	10.5
353.35	10.73
353.56	11.09
353.77	10.99
353.979	11.25
354.189	11.42
354.399	10.95
354.608	11.04
354.818	11.04
355.027	11.32
355.237	11.12
355.447	10.95
355.656	10.88
355.866	10.44
356.075	10.58
356.285	10.56
356.494	10.52
356.704	10.89
356.913	10.99
357.123	10.91
357.332	10.87
357.542	11.04
357.751	11.05
357.96	11.03
358.17	11.2
358.379	10.95
358.589	10.71
358.798	10.6
359.007	10.37
359.217	10.16
359.426	10.32
359.635	10.11
359.845	9.97
360.054	9.77
360.263	9.98
360.472	9.96
360.682	9.97
360.891	10.08
361.1	10.02
361.309	10.04
361.519	10.07
361.728	9.87
361.937	9.9
362.146	9.89
362.355	10.08
362.564	9.94
362.774	10.12
362.983	10.1
363.192	10.02
363.401	10.03
363.61	10.13
363.819	10.04
364.028	10.14
364.237	10.1
364.446	10.41
364.655	10.32
364.864	10.22
365.073	10.17
365.282	10.14
365.491	10.14
365.7	10.01
365.909	9.99
366.118	10.02
366.327	10.07
366.536	10.04
366.745	9.6
366.954	9.79
367.162	9.97
367.371	9.81
367.58	9.78
367.789	9.92
367.998	9.84
368.207	9.57
368.415	9.36
368.624	9.43
368.833	9.43
369.042	9.54
369.25	9.34
369.459	9.25
369.668	9.29
369.877	9.32
370.085	9.16
370.294	9.38
370.503	9.54
370.711	9.71
370.92	9.63
371.129	9.59
371.337	9.6
371.546	9.52
371.754	9.46
371.963	9.55
372.171	9.56
372.38	9.46
372.589	9.22
372.797	9.09
373.006	8.97
373.214	9.04
373.423	9.1
373.631	9.12
373.84	9.12
374.048	9.22
374.256	9.04
374.465	9.01
374.673	9.27
374.882	9.31
375.09	9.24
375.298	9.18
375.507	8.85
375.715	8.56
375.923	8.3
376.132	8.2
376.34	8.2
376.548	8.15
376.757	7.99
376.965	7.85
377.173	8.1
377.381	8.25
377.59	8.44
377.798	8.52
378.006	8.76
378.214	9.01
378.423	9.05
378.631	8.87
378.839	8.92
379.047	9.09
379.255	9.19
379.463	9.07
379.671	8.98
379.879	8.92
380.088	9.05
380.296	8.94
380.504	9.1
380.712	9.16
380.92	9.19
381.128	8.97
381.336	8.88
381.544	8.77
381.752	8.68
381.96	8.67
382.168	8.66
382.376	8.48
382.584	8.35
382.791	8.16
382.999	7.89
383.207	7.93
383.415	7.91
383.623	7.98
383.831	8.01
384.039	8.06
384.247	7.98
384.454	8.12
384.662	8.1
384.87	8.35
385.078	8.37
385.285	8.67
385.493	8.49
385.701	8.66
385.909	8.72
386.116	8.65
386.324	8.65
386.532	8.79
386.739	8.56
386.947	8.55
387.155	8.39
387.362	8.27
387.57	8.04
387.778	8.1
387.985	7.92
388.193	7.86
388.4	7.73
388.608	7.61
388.816	7.61
389.023	7.5
389.231	7.4
389.438	7.43
389.646	7.47
389.853	7.46
390.061	7.42
390.268	7.37
390.475	7.43
390.683	7.48
390.89	7.63
391.098	7.5
391.305	7.61
391.512	7.63
391.72	7.56
391.927	7.43
392.135	7.46
392.342	7.62
392.549	7.76
392.756	7.6
392.964	7.58
393.171	7.47
393.378	7.51
393.586	7.49
393.793	7.41
394	7.44
394.207	7.51
394.414	7.57
394.622	7.31
394.829	7.29
395.036	7.15
395.243	7.19
395.45	7.31
395.657	7.23
395.864	7.24
396.072	7.34
396.279	7.37
396.486	7.39
396.693	7.25
396.9	7.43
397.107	7.38
397.314	7.46
397.521	7.35
397.728	7.1
397.935	7.13
398.142	7.08
398.349	7.19
398.556	7.06
398.763	6.86
398.97	6.73
399.177	6.66
399.383	6.63
399.59	6.72
399.797	6.8
400.004	6.86
400.211	6.95
400.418	6.99
400.625	6.96
400.831	7.07
401.038	7.2
401.245	7.41
401.452	7.35
401.658	7.53
401.865	7.32
402.072	7.24
402.279	7.09
402.485	6.95
402.692	7.03
402.899	6.87
403.105	7.05
403.312	7.01
403.519	7.08
403.725	7.19
403.932	6.97
404.138	7.03
404.345	7.12
404.552	7.15
404.758	7.12
404.965	7.04
405.171	7.17
405.378	7.12
405.584	7.2
405.791	7.05
405.997	7.14
406.204	7.05
406.41	7.08
406.617	6.99
406.823	7.12
407.029	7.3
407.236	7.29
407.442	7.16
407.649	6.91
407.855	6.82
408.061	6.73
408.268	6.65
408.474	6.81
408.68	6.8
408.887	6.59
409.093	6.53
409.299	6.4
409.505	6.18
409.712	6.14
409.918	6.26
410.124	6.27
410.33	6.38
410.537	6.39
410.743	6.46
410.949	6.55
411.155	6.65
411.361	6.68
411.567	6.68
411.773	6.92
411.98	7.07
412.186	7.08
412.392	7.14
412.598	7.28
412.804	7.22
413.01	7.17
413.216	7.25
413.422	7.18
413.628	7.24
413.834	7.19
414.04	7.16
414.246	7.11
414.452	7.11
414.658	6.91
414.864	6.77
415.07	6.72
415.275	6.8
415.481	6.86
415.687	7.03
415.893	6.97
416.099	7.01
416.305	6.98
416.511	7.04
416.716	7.03
416.922	7.24
417.128	7.26
417.334	7.3
417.539	7.27
417.745	7.26
417.951	7.26
418.157	7.21
418.362	7.3
418.568	7.26
418.774	7.25
418.979	7.2
419.185	7.18
419.391	7.22
419.596	7.33
419.802	7.34
420.008	7.21
420.213	7.25
420.419	7.27
420.624	7.16
420.83	7.16
421.035	7.14
421.241	7.2
421.446	7.23
421.652	7.24
421.857	7.15
422.063	7.12
422.268	7.16
422.474	7.16
422.679	7.19
422.885	7.22
423.09	7.19
423.295	7.19
423.501	7.12
423.706	7.13
423.911	7.12
424.117	7.07
424.322	7.16
424.527	7.22
424.733	7.24
424.938	7.24
425.143	7.19
425.349	7.25
425.554	7.28
425.759	7.38
425.964	7.31
426.169	7.35
426.375	7.4
426.58	7.26
426.785	7.18
426.99	7.24
427.195	7.24
427.4	7.35
427.605	7.32
427.811	7.38
428.016	7.36
428.221	7.38
428.426	7.35
428.631	7.42
428.836	7.55
429.041	7.53
429.246	7.37
429.451	7.49
429.656	7.56
429.861	7.63
430.066	7.52
430.271	7.5
430.476	7.45
430.681	7.4
430.886	7.38
431.09	7.23
431.295	7.29
431.5	7.32
431.705	7.23
431.91	7.14
432.115	7.15
432.32	7.19
432.524	7.27
432.729	7.27
432.934	7.26
433.139	7.28
433.343	7.39
433.548	7.36
433.753	7.4
433.958	7.35
434.162	7.44
434.367	7.46
434.572	7.52
434.776	7.51
434.981	7.61
435.186	7.64
435.39	7.64
435.595	7.67
435.799	7.73
436.004	7.74
436.209	7.9
436.413	7.87
436.618	7.78
436.822	7.77
437.027	7.81
437.231	7.81
437.436	7.85
437.64	7.81
437.845	7.74
438.049	7.72
438.253	7.72
438.458	7.63
438.662	7.63
438.867	7.64
439.071	7.75
439.275	7.72
439.48	7.71
439.684	7.72
439.888	7.75
440.093	7.84
440.297	7.85
440.501	7.85
440.706	7.84
440.91	7.93
441.114	7.99
441.318	7.79
441.523	7.79
441.727	7.86
441.931	7.87
442.135	7.83
442.339	7.75
442.543	7.78
442.748	7.72
442.952	7.73
443.156	7.5
443.36	7.45
443.564	7.57
443.768	7.58
443.972	7.64
444.176	7.55
444.38	7.59
444.584	7.59
444.788	7.54
444.992	7.66
445.196	7.72
445.4	7.79
445.604	7.89
445.808	7.95
446.012	7.9
446.216	7.79
446.42	7.86
446.624	7.88
446.828	7.88
447.032	7.89
447.235	7.81
447.439	7.81
447.643	7.81
447.847	7.81
448.051	7.75
448.254	7.8
448.458	7.78
448.662	7.73
448.866	7.77
449.069	7.76
449.273	7.71
449.477	7.66
449.681	7.62
449.884	7.66
450.088	7.63
450.292	7.7
450.495	7.71
450.699	7.73
450.902	7.84
451.106	7.85
451.31	7.93
451.513	8.07
451.717	8.19
451.92	8.23
452.124	8.25
452.327	8.12
452.531	7.98
452.734	7.99
452.938	7.98
453.141	7.96
453.345	7.9
453.548	7.9
453.752	7.83
453.955	7.74
454.158	7.74
454.362	7.66
454.565	7.81
454.769	7.88
454.972	7.83
455.175	7.9
455.379	7.75
455.582	7.85
455.785	7.77
455.988	7.87
456.192	8.05
456.395	8.05
456.598	8.12
456.801	8.03
457.005	8
457.208	8
457.411	7.97
457.614	8.1
457.817	8.03
458.021	8.06
458.224	7.99
458.427	7.91
458.63	7.84
458.833	7.8
459.036	7.82
459.239	7.79
459.442	7.88
459.645	7.8
459.848	7.85
460.051	7.79
460.254	7.84
460.457	7.83
460.66	7.75
460.863	7.82
461.066	7.86
461.269	7.89
461.472	7.98
461.675	7.84
461.878	7.9
462.081	7.82
462.284	7.88
462.486	7.77
462.689	7.8
462.892	7.87
463.095	7.82
463.298	7.86
463.5	7.81
463.703	7.8
463.906	7.84
464.109	7.91
464.311	7.84
464.514	7.85
464.717	7.85
464.92	7.82
465.122	7.88
465.325	7.95
465.528	7.87
465.73	7.84
465.933	7.75
466.135	7.7
466.338	7.63
466.541	7.67
466.743	7.68
466.946	7.64
467.148	7.58
467.351	7.57
467.553	7.54
467.756	7.56
467.958	7.63
468.161	7.66
468.363	7.76
468.566	7.69
468.768	7.72
468.971	7.64
