Data from 2938842__Reflection_03.txt Node
Date: Wed Mar 11 15:26:39 EDT 2015
User: robert
Spectrometer: USB4E03002
Autoset integration time: false
Trigger mode: 4
Integration Time (sec): 1.000000E-1
Scans to average: 10
Electric dark correction enabled: false
Nonlinearity correction enabled: false
Boxcar width: 5
Stray light correction enabled: false
XAxis mode: Wavelengths
Stop averaging: false
Number of Pixels in Spectrum: 3648
>>>>>Begin Spectral Data<<<<<
177.575	195.56
177.794	38.67
178.014	85.92
178.233	156.62
178.452	301.61
178.672	460.94
178.891	505.77
179.11	-1742.86
179.33	-39.77
179.549	-40.73
179.768	-148.34
179.987	-240.66
180.207	-334.62
180.426	-178.08
180.645	-182.68
180.864	-80.43
181.084	38.21
181.303	35.65
181.522	41.01
181.741	-67.5
181.96	232.43
182.179	-68.09
182.398	-396
182.618	176.19
182.837	167.33
183.056	123.81
183.275	-57.41
183.494	15.81
183.713	16.42
183.932	22.33
184.151	60.9
184.37	-3600
184.589	-32.5
184.808	1.6
185.027	-74.64
185.246	-139
185.465	-76
185.684	-79.1
185.903	28.72
186.122	79.47
186.341	78.14
186.56	49
186.779	159.2
186.998	170.09
187.216	162.81
187.435	190.18
187.654	207.05
187.873	154.97
188.092	108.06
188.311	114.11
188.53	90.67
188.748	83.54
188.967	250
189.186	-31.39
189.405	67.07
189.623	52.43
189.842	61.14
190.061	284.62
190.28	133.57
190.498	51.45
190.717	-3.5
190.936	11.73
191.154	30.23
191.373	45.3
191.592	-56.79
191.81	114.29
192.029	52.76
192.248	98.66
192.466	118.89
192.685	87.88
192.904	61.35
193.122	51.49
193.341	24.88
193.559	39.53
193.778	43.82
193.996	45.73
194.215	45.11
194.433	55.07
194.652	8.62
194.87	13.66
195.089	-91.6
195.307	-1658.33
195.526	-91.27
195.744	-319.57
195.963	536.84
196.181	-35.29
196.399	-125.2
196.618	-73.61
196.836	-33.62
197.055	19.46
197.273	18.1
197.491	43.13
197.71	55.04
197.928	44
198.146	60.14
198.365	54.01
198.583	45.15
198.801	91.03
199.019	112.5
199.238	-40.34
199.456	-24.44
199.674	-266.04
199.892	66.2
200.111	67.45
200.329	75.73
200.547	56.56
200.765	49.54
200.983	48.5
201.202	46.37
201.42	50.87
201.638	58.07
201.856	30.4
202.074	-7.31
202.292	37.07
202.51	34.82
202.728	60.22
202.946	160.14
203.165	151.24
203.383	129.71
203.601	173.94
203.819	56.49
204.037	42.22
204.255	102.11
204.473	89.55
204.691	65
204.909	28.57
205.127	26.12
205.345	26.19
205.562	32.73
205.78	36.04
205.998	28.62
206.216	60.31
206.434	52.45
206.652	56.2
206.87	60.7
207.088	52.45
207.306	82.52
207.523	132.84
207.741	244.16
207.959	-591.53
208.177	-140.61
208.395	-79.04
208.612	-17.11
208.83	-52.7
209.048	-56.34
209.266	-20.08
209.483	-34.7
209.701	-160
209.919	60
210.136	145.03
210.354	-928.57
210.572	-456.76
210.79	-197.41
211.007	-77.54
211.225	-5.04
211.442	4.74
211.66	35.51
211.878	37.31
212.095	435.68
212.313	348.55
212.53	341.55
212.748	291.24
212.966	204.04
213.183	164.45
213.401	126.5
213.618	131.58
213.836	154.35
214.053	122.89
214.271	104.75
214.488	-34.52
214.705	-22.81
214.923	11.82
215.14	18.67
215.358	13.55
215.575	14.49
215.793	18.87
216.01	23.59
216.227	7.23
216.445	-11.96
216.662	2.14
216.879	18.76
217.097	22.21
217.314	18.24
217.531	29.17
217.749	37.97
217.966	26.98
218.183	28.73
218.4	22.4
218.618	25.27
218.835	27.04
219.052	20.5
219.269	17.7
219.487	25.3
219.704	16.71
219.921	-0.66
220.138	-0.9
220.355	-2.08
220.572	-5.68
220.79	-3.44
221.007	-4.01
221.224	0.52
221.441	-5.31
221.658	-2.45
221.875	-12.54
222.092	-4.12
222.309	-0.54
222.526	-5.06
222.743	-4.08
222.96	-5.94
223.177	-0.91
223.394	0.7
223.611	-7.45
223.828	1.65
224.045	0.28
224.262	8.66
224.479	4.96
224.696	12.13
224.913	10.48
225.13	7.24
225.347	8.49
225.564	0.97
225.781	-1.85
225.997	3.97
226.214	2
226.431	-0.16
226.648	-3.01
226.865	0.62
227.082	-0.11
227.298	1.61
227.515	3.13
227.732	3.29
227.949	4.28
228.165	4.73
228.382	3.79
228.599	4.97
228.816	5.84
229.032	5.65
229.249	4.18
229.466	4.62
229.682	4
229.899	3.85
230.116	3.27
230.332	3.54
230.549	3.44
230.765	3.61
230.982	1.25
231.199	-0.06
231.415	0.14
231.632	0.13
231.848	-2.6
232.065	-3.95
232.281	-3.62
232.498	-3.91
232.714	-4.52
232.931	-4.31
233.147	-4.47
233.364	-3.99
233.58	-3.89
233.797	-3.95
234.013	-2.22
234.23	-0.6
234.446	-0.26
234.662	-1.36
234.879	-1.11
235.095	-0.14
235.312	0.01
235.528	1.25
235.744	2.57
235.961	2.45
236.177	3.5
236.393	3.44
236.61	2.87
236.826	4.76
237.042	4.86
237.258	5.02
237.475	4.19
237.691	3.66
237.907	1.9
238.123	2.32
238.339	2.92
238.556	2.32
238.772	3.61
238.988	5.13
239.204	4.47
239.42	4.77
239.636	4.53
239.853	4.62
240.069	4.3
240.285	5.05
240.501	3.92
240.717	4.76
240.933	4.62
241.149	3.39
241.365	3.39
241.581	3.76
241.797	4.02
242.013	4.81
242.229	4.72
242.445	5.21
242.661	4.88
242.877	5.8
243.093	5.01
243.309	4.86
243.525	4.85
243.741	4.79
243.957	4.86
244.173	5.16
244.388	5.1
244.604	5.09
244.82	4.8
245.036	4.76
245.252	4.75
245.468	5.29
245.683	5.39
245.899	6.12
246.115	5.45
246.331	5.61
246.547	5.7
246.762	5.57
246.978	5.62
247.194	5.13
247.409	5.27
247.625	4.99
247.841	5
248.057	5.11
248.272	4.96
248.488	5.22
248.703	4.89
248.919	4.54
249.135	4.12
249.35	4.01
249.566	4.5
249.782	4.32
249.997	4.35
250.213	3.98
250.428	3.6
250.644	3.22
250.859	3.19
251.075	2.65
251.29	2.19
251.506	2.59
251.721	2.86
251.937	2.52
252.152	2.39
252.368	2.01
252.583	2.26
252.798	2.29
253.014	2.13
253.229	1.62
253.445	2.46
253.66	3.11
253.875	2.77
254.091	2.96
254.306	2.99
254.521	2.56
254.737	2.71
254.952	2.8
255.167	2.5
255.383	3.42
255.598	3.11
255.813	2.65
256.028	2.24
256.244	2.56
256.459	2.29
256.674	2.74
256.889	2.73
257.104	2.15
257.32	2.08
257.535	2.5
257.75	1.83
257.965	2.78
258.18	3.42
258.395	3.89
258.61	4.09
258.826	3.93
259.041	4.21
259.256	4.53
259.471	4.85
259.686	4.92
259.901	4.39
260.116	4.49
260.331	4.31
260.546	4.1
260.761	3.77
260.976	3.26
261.191	3.24
261.406	2.83
261.621	2.83
261.836	2.61
262.05	2.51
262.265	3.05
262.48	2.95
262.695	2.97
262.91	2.73
263.125	3.05
263.34	3.48
263.555	3.01
263.769	3.31
263.984	2.92
264.199	2.68
264.414	2.48
264.629	2.56
264.843	2.44
265.058	2.73
265.273	2.84
265.488	2.63
265.702	2.52
265.917	3.46
266.132	3.29
266.346	3.22
266.561	3.61
266.776	3.58
266.99	3.46
267.205	3.56
267.42	3.37
267.634	2.91
267.849	2.83
268.063	2.94
268.278	2.57
268.492	2.27
268.707	2.2
268.922	2.2
269.136	2.07
269.351	2.23
269.565	2.09
269.78	1.97
269.994	2.24
270.209	2.57
270.423	2.3
270.637	2.05
270.852	2.24
271.066	2.28
271.281	2.17
271.495	2.22
271.709	2.21
271.924	2.28
272.138	2.36
272.353	2.48
272.567	2.43
272.781	2.69
272.996	2.92
273.21	2.76
273.424	2.34
273.638	1.91
273.853	1.95
274.067	1.67
274.281	1.84
274.495	1.65
274.71	1.2
274.924	1.1
275.138	0.8
275.352	1.1
275.566	1.39
275.781	2.21
275.995	3.16
276.209	3.05
276.423	3.15
276.637	3.07
276.851	3.1
277.065	3.49
277.279	3.07
277.493	3.35
277.707	2.98
277.921	3
278.135	2.36
278.349	1.98
278.563	2.08
278.777	1.93
278.991	1.91
279.205	2.01
279.419	1.71
279.633	1.78
279.847	1.97
280.061	2.03
280.275	1.78
280.489	2.43
280.703	2.32
280.917	2.34
281.131	2.61
281.344	2.73
281.558	2.94
281.772	3.4
281.986	3.58
282.2	3.78
282.414	3.55
282.627	3.79
282.841	3.56
283.055	3.81
283.269	3.74
283.482	3.7
283.696	3.68
283.91	3.66
284.123	3.43
284.337	3.25
284.551	2.91
284.764	3.21
284.978	3
285.192	3.06
285.405	2.85
285.619	2.9
285.833	2.85
286.046	2.91
286.26	2.98
286.473	2.82
286.687	2.96
286.9	3.14
287.114	3.11
287.327	3.36
287.541	3.01
287.754	3.2
287.968	3.26
288.181	3.14
288.395	2.99
288.608	2.77
288.822	2.85
289.035	2.9
289.248	2.92
289.462	3.05
289.675	2.97
289.889	3.33
290.102	3.32
290.315	3.23
290.529	3.55
290.742	3.54
290.955	3.86
291.169	4.1
291.382	4.37
291.595	4.54
291.808	4.27
292.022	4.29
292.235	4.41
292.448	4.41
292.661	4.73
292.875	5
293.088	5.23
293.301	5.38
293.514	5.26
293.727	4.78
293.94	4.82
294.153	4.93
294.367	5.15
294.58	4.95
294.793	4.63
295.006	4.45
295.219	4.19
295.432	4.14
295.645	3.74
295.858	3.93
296.071	4.21
296.284	4.17
296.497	4.18
296.71	4.24
296.923	4.34
297.136	4.56
297.349	4.52
297.562	4.61
297.775	4.57
297.988	4.95
298.201	5.08
298.414	5.24
298.626	5.1
298.839	5.31
299.052	5.12
299.265	5.12
299.478	5.3
299.691	5.31
299.903	5.39
300.116	5.73
300.329	5.64
300.542	5.56
300.755	5.66
300.967	5.96
301.18	5.97
301.393	6.23
301.605	6.25
301.818	6
302.031	5.72
302.243	5.48
302.456	5.02
302.669	5
302.881	5.16
303.094	4.46
303.307	4.56
303.519	4.62
303.732	4.7
303.944	5.11
304.157	5.73
304.37	6.12
304.582	6.21
304.795	6.65
305.007	6.36
305.22	6.13
305.432	6.61
305.645	6.63
305.857	6.76
306.069	6.95
306.282	6.81
306.494	6.28
306.707	6.68
306.919	6.94
307.132	7.05
307.344	7.49
307.556	7.83
307.769	7.89
307.981	7.64
308.193	7.27
308.406	7.33
308.618	7.26
308.83	7.67
309.043	7.48
309.255	7.51
309.467	7.52
309.679	7.41
309.892	7.26
310.104	7.43
310.316	7.61
310.528	8
310.74	7.97
310.953	7.98
311.165	7.63
311.377	7.74
311.589	7.62
311.801	7.45
312.013	7.41
312.225	7.57
312.437	7.37
312.649	7.27
312.862	7.12
313.074	7
313.286	7.16
313.498	7.46
313.71	7.56
313.922	7.59
314.134	7.8
314.346	7.98
314.558	7.33
314.77	7.71
314.982	7.96
315.193	8.07
315.405	7.43
315.617	7.3
315.829	7.18
316.041	6.91
316.253	7.14
316.465	7.2
316.677	7.14
316.888	7.4
317.1	7.19
317.312	6.85
317.524	6.64
317.736	7.1
317.947	7.17
318.159	7.56
318.371	7.79
318.583	7.73
318.794	7.56
319.006	7.39
319.218	7.8
319.43	7.87
319.641	8.08
319.853	8.35
320.064	8.68
320.276	8.67
320.488	8.48
320.699	8.32
320.911	8.35
321.123	8.36
321.334	8.4
321.546	8.56
321.757	8.43
321.969	8.74
322.18	8.51
322.392	8.41
322.603	8.58
322.815	8.77
323.026	9.07
323.238	8.93
323.449	9.42
323.661	9.45
323.872	9.21
324.083	9.07
324.295	8.74
324.506	8.99
324.718	8.8
324.929	8.96
325.14	8.9
325.352	8.74
325.563	8.89
325.774	8.65
325.986	9.01
326.197	9.22
326.408	9.54
326.62	9.82
326.831	10.08
327.042	10.51
327.253	10.58
327.464	10.81
327.676	10.83
327.887	11
328.098	11.4
328.309	11.17
328.52	11.52
328.732	11.56
328.943	11.65
329.154	11.56
329.365	11.39
329.576	11.37
329.787	11.03
329.998	11.07
330.209	11.02
330.42	10.9
330.631	11.21
330.842	10.82
331.053	10.99
331.264	11.23
331.475	11.24
331.686	11.6
331.897	11.47
332.108	11.6
332.319	12.16
332.53	12.45
332.741	12.39
332.952	12.27
333.163	12.68
333.374	12.42
333.585	12.1
333.795	12
334.006	12.01
334.217	11.85
334.428	12.14
334.639	11.8
334.849	11.5
335.06	11.32
335.271	11.53
335.482	11.33
335.692	11.23
335.903	11.39
336.114	11.43
336.325	11.41
336.535	11.4
336.746	11.4
336.957	11.33
337.167	11.31
337.378	11.36
337.589	11.38
337.799	11.33
338.01	11.38
338.22	11.35
338.431	11.17
338.642	11.03
338.852	11.13
339.063	10.6
339.273	10.58
339.484	10.51
339.694	10.4
339.905	10.02
340.115	9.93
340.326	10.34
340.536	10.46
340.746	10.58
340.957	10.77
341.167	11.02
341.378	11.38
341.588	11.54
341.799	11.62
342.009	11.75
342.219	11.92
342.43	11.89
342.64	11.51
342.85	11.42
343.061	11.4
343.271	11.2
343.481	10.97
343.691	10.91
343.902	10.84
344.112	10.7
344.322	10.44
344.532	10.47
344.743	10.42
344.953	10.76
345.163	10.53
345.373	10.47
345.583	10.51
345.793	10.57
346.004	10.61
346.214	10.63
346.424	10.56
346.634	10.68
346.844	10.91
347.054	11.21
347.264	10.85
347.474	10.97
347.684	11.12
347.894	10.81
348.104	11.07
348.314	11.26
348.524	11.32
348.734	11.55
348.944	11.59
349.154	11.44
349.364	11.44
349.574	11.27
349.784	11.29
349.994	10.87
350.204	11.04
350.413	10.78
350.623	10.65
350.833	10.15
351.043	10.02
351.253	9.78
351.463	9.86
351.672	9.87
351.882	9.93
352.092	10.01
352.302	10.22
352.511	10.3
352.721	10.14
352.931	9.98
353.141	10.25
353.35	10.33
353.56	10.51
353.77	10.15
353.979	9.85
354.189	9.93
354.399	9.83
354.608	9.8
354.818	9.62
355.027	9.56
355.237	9.54
355.447	9.51
355.656	9.25
355.866	9.33
356.075	9.55
356.285	9.71
356.494	9.74
356.704	9.85
356.913	9.84
357.123	9.8
357.332	10.08
357.542	10.02
357.751	10.17
357.96	10.27
358.17	10.09
358.379	9.99
358.589	9.79
358.798	9.82
359.007	9.71
359.217	9.8
359.426	9.85
359.635	9.83
359.845	9.93
360.054	9.89
360.263	9.73
360.472	9.66
360.682	9.67
360.891	9.79
361.1	9.79
361.309	9.79
361.519	9.74
361.728	9.71
361.937	9.71
362.146	9.61
362.355	9.48
362.564	9.73
362.774	10.04
362.983	10.02
363.192	9.96
363.401	9.75
363.61	9.86
363.819	9.83
364.028	9.84
364.237	9.74
364.446	9.77
364.655	9.75
364.864	9.59
365.073	9.14
365.282	9.11
365.491	9.01
365.7	9.15
365.909	8.91
366.118	9
366.327	9.19
366.536	9.11
366.745	9.05
366.954	9.09
367.162	9.2
367.371	9.46
367.58	9.47
367.789	9.61
367.998	9.64
368.207	9.8
368.415	9.58
368.624	9.02
368.833	9.03
369.042	9.06
369.25	8.98
369.459	8.87
369.668	8.59
369.877	8.36
370.085	8.36
370.294	8.35
370.503	8.39
370.711	8.32
370.92	8.42
371.129	8.34
371.337	8.22
371.546	8.02
371.754	7.71
371.963	7.85
372.171	8.01
372.38	7.89
372.589	7.83
372.797	7.71
373.006	7.74
373.214	7.93
373.423	7.61
373.631	7.35
373.84	7.65
374.048	7.85
374.256	7.71
374.465	7.65
374.673	7.64
374.882	7.61
375.09	7.43
375.298	7.54
375.507	7.49
375.715	7.71
375.923	7.78
376.132	7.44
376.34	7.34
376.548	7.4
376.757	7.34
376.965	7.25
377.173	7.05
377.381	7.01
377.59	6.86
377.798	6.75
378.006	6.74
378.214	6.98
378.423	7.12
378.631	7.02
378.839	6.95
379.047	6.9
379.255	6.93
379.463	6.91
379.671	6.74
379.879	6.64
380.088	6.63
380.296	6.71
380.504	6.5
380.712	6.54
380.92	6.79
381.128	6.58
381.336	6.6
381.544	6.41
381.752	6.64
381.96	6.8
382.168	6.96
382.376	7.12
382.584	7.07
382.791	7
382.999	7.04
383.207	7.01
383.415	7.05
383.623	6.98
383.831	6.82
384.039	6.55
384.247	6.47
384.454	6.42
384.662	6.06
384.87	6.02
385.078	5.88
385.285	5.76
385.493	5.73
385.701	5.75
385.909	5.57
386.116	5.83
386.324	5.94
386.532	5.81
386.739	5.65
386.947	5.8
387.155	5.69
387.362	5.88
387.57	5.91
387.778	5.81
387.985	5.91
388.193	6.02
388.4	5.75
388.608	5.67
388.816	5.76
389.023	5.91
389.231	5.95
389.438	5.81
389.646	5.84
389.853	5.81
390.061	5.75
390.268	5.64
390.475	5.61
390.683	5.74
390.89	5.74
391.098	5.72
391.305	5.72
391.512	5.76
391.72	5.87
391.927	5.69
392.135	5.57
392.342	5.64
392.549	5.84
392.756	5.8
392.964	5.73
393.171	5.75
393.378	5.75
393.586	5.52
393.793	5.39
394	5.43
394.207	5.44
394.414	5.47
394.622	5.3
394.829	5.06
395.036	5.02
395.243	5.02
395.45	4.95
395.657	4.79
395.864	4.8
396.072	4.8
396.279	4.64
396.486	4.6
396.693	4.71
396.9	4.8
397.107	4.76
397.314	4.9
397.521	4.86
397.728	4.82
397.935	4.78
398.142	4.73
398.349	4.63
398.556	4.73
398.763	4.79
398.97	4.58
399.177	4.5
399.383	4.6
399.59	4.23
399.797	4.24
400.004	4.07
400.211	4.23
400.418	4.37
400.625	4.35
400.831	4.37
401.038	4.37
401.245	4.42
401.452	4.41
401.658	4.29
401.865	4.54
402.072	4.44
402.279	4.7
402.485	4.6
402.692	4.62
402.899	4.71
403.105	4.64
403.312	4.48
403.519	4.52
403.725	4.52
403.932	4.53
404.138	4.36
404.345	4.4
404.552	4.19
404.758	4.2
404.965	4.19
405.171	4.14
405.378	4.24
405.584	4.39
405.791	4.29
405.997	4.21
406.204	4.25
406.41	4.25
406.617	4.31
406.823	4.4
407.029	4.48
407.236	4.39
407.442	4.37
407.649	4.17
407.855	3.93
408.061	3.84
408.268	3.8
408.474	3.59
408.68	3.64
408.887	3.47
409.093	3.47
409.299	3.33
409.505	3.28
409.712	3.26
409.918	3.31
410.124	3.51
410.33	3.65
410.537	3.72
410.743	3.8
410.949	3.82
411.155	3.84
411.361	3.82
411.567	3.93
411.773	3.91
411.98	4.01
412.186	4.14
412.392	3.97
412.598	3.87
412.804	3.86
413.01	3.93
413.216	3.91
413.422	3.97
413.628	4
413.834	3.97
414.04	3.95
414.246	3.89
414.452	3.77
414.658	3.91
414.864	3.9
415.07	3.97
415.275	3.91
415.481	4.01
415.687	4.08
415.893	4.08
416.099	4.08
416.305	4.25
416.511	4.15
416.716	4.11
416.922	4.12
417.128	4.17
417.334	4.16
417.539	4.17
417.745	4.15
417.951	4.03
418.157	4.04
418.362	4.04
418.568	3.99
418.774	4.02
418.979	4.01
419.185	3.95
419.391	3.91
419.596	3.92
419.802	3.96
420.008	3.93
420.213	4.29
420.419	4.23
420.624	4.2
420.83	4.18
421.035	4.23
421.241	4.25
421.446	4.29
421.652	4.38
421.857	4.31
422.063	4.24
422.268	4.2
422.474	3.92
422.679	3.88
422.885	3.88
423.09	3.86
423.295	3.81
423.501	3.8
423.706	3.73
423.911	3.64
424.117	3.68
424.322	3.71
424.527	3.76
424.733	3.79
424.938	3.81
425.143	3.73
425.349	3.7
425.554	3.66
425.759	3.63
425.964	3.69
426.169	3.66
426.375	3.53
426.58	3.57
426.785	3.46
426.99	3.41
427.195	3.43
427.4	3.49
427.605	3.54
427.811	3.54
428.016	3.57
428.221	3.47
428.426	3.48
428.631	3.52
428.836	3.43
429.041	3.37
429.246	3.36
429.451	3.26
429.656	3.3
429.861	3.26
430.066	3.38
430.271	3.42
430.476	3.38
430.681	3.44
430.886	3.48
431.09	3.55
431.295	3.61
431.5	3.62
431.705	3.63
431.91	3.54
432.115	3.58
432.32	3.43
432.524	3.36
432.729	3.49
432.934	3.55
433.139	3.58
433.343	3.49
433.548	3.54
433.753	3.5
433.958	3.53
434.162	3.66
434.367	3.66
434.572	3.7
434.776	3.7
434.981	3.56
435.186	3.45
435.39	3.4
435.595	3.4
435.799	3.42
436.004	3.36
436.209	3.37
436.413	3.24
436.618	3.24
436.822	3.25
437.027	3.26
437.231	3.32
437.436	3.27
437.64	3.37
437.845	3.42
438.049	3.41
438.253	3.45
438.458	3.56
438.662	3.56
438.867	3.51
439.071	3.52
439.275	3.48
439.48	3.53
439.684	3.62
439.888	3.53
440.093	3.57
440.297	3.55
440.501	3.56
440.706	3.44
440.91	3.44
441.114	3.44
441.318	3.45
441.523	3.53
441.727	3.34
441.931	3.24
442.135	3.24
442.339	3.12
442.543	3.13
442.748	3.17
442.952	3.19
443.156	3.19
443.36	3.2
443.564	3.18
443.768	3.19
443.972	3.32
444.176	3.37
444.38	3.38
444.584	3.48
444.788	3.52
444.992	3.52
445.196	3.53
445.4	3.58
445.604	3.61
445.808	3.64
446.012	3.64
446.216	3.7
446.42	3.68
446.624	3.65
446.828	3.63
447.032	3.54
447.235	3.53
447.439	3.55
447.643	3.54
447.847	3.53
448.051	3.53
448.254	3.52
448.458	3.51
448.662	3.56
448.866	3.6
449.069	3.61
449.273	3.65
449.477	3.64
449.681	3.67
449.884	3.62
450.088	3.57
450.292	3.56
450.495	3.48
450.699	3.4
450.902	3.35
451.106	3.28
451.31	3.23
451.513	3.24
451.717	3.07
451.92	3.02
452.124	3.03
452.327	3.06
452.531	3.05
452.734	3.07
452.938	3.09
453.141	3.07
453.345	3.15
453.548	3.15
453.752	3.11
453.955	3.22
454.158	3.26
454.362	3.26
454.565	3.23
454.769	3.19
454.972	3.16
455.175	3.18
455.379	3.2
455.582	3.16
455.785	3.2
455.988	3.26
456.192	3.29
456.395	3.22
456.598	3.17
456.801	3.24
457.005	3.31
457.208	3.35
457.411	3.38
457.614	3.37
457.817	3.39
458.021	3.38
458.224	3.37
458.427	3.36
458.63	3.41
458.833	3.43
459.036	3.33
459.239	3.28
459.442	3.22
459.645	3.22
459.848	3.23
460.051	3.24
460.254	3.28
460.457	3.31
460.66	3.33
460.863	3.31
461.066	3.31
461.269	3.39
461.472	3.41
461.675	3.5
461.878	3.45
462.081	3.47
462.284	3.43
462.486	3.41
462.689	3.45
462.892	3.49
463.095	3.51
463.298	3.45
463.5	3.47
463.703	3.5
463.906	3.43
464.109	3.4
464.311	3.39
464.514	3.44
464.717	3.4
464.92	3.3
465.122	3.27
465.325	3.29
465.528	3.36
465.73	3.32
465.933	3.34
466.135	3.44
466.338	3.65
466.541	3.65
466.743	3.58
466.946	3.67
467.148	3.64
467.351	3.67
467.553	3.68
467.756	3.65
467.958	3.59
468.161	3.47
468.363	3.42
468.566	3.29
468.768	3.23
468.971	3.32
469.173	3.28
469.375	3.31
469.578	3.27
469.78	3.25
469.983	3.29
