Data from 2938771__Reflection_02.txt Node
Date: Fri Mar 13 15:02:23 EDT 2015
User: robert
Spectrometer: USB4E03002
Autoset integration time: false
Trigger mode: 4
Integration Time (sec): 1.000000E-1
Scans to average: 10
Electric dark correction enabled: false
Nonlinearity correction enabled: false
Boxcar width: 5
Stray light correction enabled: false
XAxis mode: Wavelengths
Stop averaging: false
Number of Pixels in Spectrum: 3648
>>>>>Begin Spectral Data<<<<<
177.575	-317.36
177.794	-710.96
178.014	-2259.26
178.233	1195.52
178.452	2140.54
178.672	530.68
178.891	650
179.11	4321.74
179.33	-1440.3
179.549	-628.57
179.768	-2566.67
179.987	1300
180.207	3740.74
180.426	1695.38
180.645	-2720
180.864	-1664.52
181.084	-325.59
181.303	-314.95
181.522	-1668.09
181.741	6460
181.96	368.57
182.179	327.85
182.398	254.56
182.618	205.03
182.837	266.79
183.056	247.13
183.275	220.41
183.494	182.4
183.713	243.35
183.932	237.46
184.151	144.76
184.37	144.44
184.589	133.71
184.808	270
185.027	157.54
185.246	150
185.465	113.84
185.684	108.65
185.903	111.7
186.122	94.9
186.341	96.02
186.56	119.77
186.779	190.16
186.998	182.83
187.216	218.4
187.435	623.73
187.654	280.3
187.873	217.02
188.092	202.74
188.311	443.93
188.53	399.52
188.748	1385.94
188.967	-3604.17
189.186	702.9
189.405	788.49
189.623	423.19
189.842	315.7
190.061	330.77
190.28	461.89
190.498	323.92
190.717	263.38
190.936	284.87
191.154	252.25
191.373	255.69
191.592	233.99
191.81	171.47
192.029	184.13
192.248	187.5
192.466	203.83
192.685	203.77
192.904	245.9
193.122	222.78
193.341	311.47
193.559	506.88
193.778	346.24
193.996	500
194.215	4424
194.433	1083.18
194.652	775
194.87	1092.55
195.089	17760
195.307	3334.62
195.526	-733.64
195.744	1976.6
195.963	449.18
196.181	379.34
196.399	242.93
196.618	245.81
196.836	278.93
197.055	366.23
197.273	685.71
197.491	1991.18
197.71	1277.78
197.928	462.01
198.146	751.69
198.365	1274.67
198.583	1392.42
198.801	-335.81
199.019	-281.03
199.238	-183.46
199.456	-182.68
199.674	-243.71
199.892	-274.8
200.111	-246.15
200.329	-203.31
200.547	-167.96
200.765	-372.99
200.983	-266.26
201.202	-661.68
201.42	-1493.75
201.638	3660.87
201.856	935.05
202.074	1897.56
202.292	481.05
202.51	613.95
202.728	361.28
202.946	533.56
203.165	1198.41
203.383	69300
203.601	511.97
203.819	515.84
204.037	225.13
204.255	238.25
204.473	142.79
204.691	296.13
204.909	150.5
205.127	178.24
205.345	141.12
205.562	91.3
205.78	115.88
205.998	152.15
206.216	163.87
206.434	175
206.652	212.33
206.87	270.38
207.088	228.6
207.306	316.4
207.523	273.57
207.741	261.33
207.959	270.53
208.177	280.49
208.395	308.1
208.612	380.19
208.83	311.02
209.048	332.1
209.266	2510
209.483	-1491.18
209.701	-1948
209.919	740.63
210.136	9180
210.354	-1116.67
210.572	-199.45
210.79	456.07
211.007	192.83
211.225	1018.64
211.442	214.39
211.66	124.02
211.878	144.96
212.095	143.5
212.313	176.43
212.53	153.3
212.748	120.89
212.966	93.81
213.183	125.12
213.401	134.17
213.618	95.82
213.836	89.08
214.053	116.67
214.271	103.77
214.488	101.53
214.705	110.66
214.923	99.26
215.14	94.09
215.358	79.87
215.575	77.26
215.793	70.16
216.01	80.06
216.227	109.72
216.445	99.49
216.662	100.25
216.879	97.65
217.097	92.01
217.314	109.89
217.531	123.38
217.749	132.14
217.966	136.69
218.183	136.82
218.4	106.3
218.618	88.25
218.835	87.12
219.052	83.39
219.269	77.37
219.487	63.37
219.704	43.29
219.921	36.08
220.138	34.23
220.355	32.03
220.572	39.39
220.79	42.88
221.007	37.84
221.224	32.28
221.441	34.79
221.658	39.45
221.875	42.71
222.092	55.8
222.309	55.3
222.526	54.62
222.743	52.68
222.96	47.29
223.177	52.92
223.394	48.51
223.611	50.65
223.828	45.27
224.045	48.27
224.262	56.01
224.479	47.42
224.696	48.7
224.913	49.14
225.13	48.37
225.347	50.43
225.564	43.16
225.781	42.73
225.997	36.38
226.214	37.98
226.431	35.27
226.648	24.05
226.865	23.24
227.082	20.4
227.298	17.71
227.515	15.79
227.732	12.49
227.949	11.39
228.165	10.58
228.382	10.28
228.599	7.7
228.816	6.82
229.032	7.12
229.249	6.18
229.466	6.07
229.682	5.99
229.899	5.66
230.116	6.08
230.332	7.01
230.549	7.13
230.765	7.9
230.982	9.84
231.199	10.04
231.415	11.53
231.632	12.01
231.848	13.91
232.065	14.24
232.281	14.87
232.498	14.91
232.714	15.19
232.931	16.76
233.147	16.11
233.364	15.18
233.58	14.72
233.797	13.37
234.013	14.61
234.23	12.41
234.446	13.17
234.662	11.84
234.879	12.33
235.095	11.49
235.312	11.75
235.528	9.71
235.744	8.5
235.961	10.08
236.177	9.61
236.393	9.04
236.61	8.49
236.826	7.2
237.042	10.16
237.258	8.11
237.475	9.13
237.691	7.79
237.907	10.24
238.123	11.85
238.339	11.58
238.556	11.28
238.772	10.22
238.988	12.47
239.204	12.13
239.42	10.85
239.636	12.36
239.853	11.18
240.069	10.76
240.285	10.52
240.501	9.73
240.717	9.66
240.933	9.7
241.149	9.98
241.365	9.24
241.581	8.95
241.797	9.39
242.013	8.78
242.229	8.9
242.445	8.52
242.661	8.34
242.877	8.45
243.093	8.32
243.309	7.98
243.525	7.65
243.741	7.74
243.957	8.05
244.173	7.59
244.388	8.06
244.604	7.65
244.82	8.05
245.036	7.66
245.252	7.17
245.468	6.6
245.683	6.96
245.899	6.64
246.115	6.18
246.331	5.8
246.547	5.55
246.762	5.37
246.978	5.43
247.194	5.3
247.409	5.51
247.625	5.16
247.841	5.39
248.057	5.27
248.272	5.41
248.488	5.71
248.703	6.06
248.919	6.29
249.135	6.38
249.35	6.77
249.566	7.16
249.782	7.33
249.997	7.99
250.213	7.79
250.428	8.15
250.644	7.73
250.859	7.15
251.075	7.15
251.29	6.51
251.506	6.75
251.721	6.84
251.937	6.41
252.152	5.93
252.368	6.47
252.583	6.48
252.798	6.41
253.014	7.27
253.229	8.09
253.445	7.77
253.66	8.3
253.875	8.3
254.091	7.76
254.306	8.63
254.521	9.23
254.737	9.37
254.952	9.1
255.167	8.68
255.383	8.27
255.598	6.8
255.813	6.97
256.028	6.14
256.244	5.95
256.459	6.43
256.674	4.85
256.889	4.55
257.104	4
257.32	4.67
257.535	4.92
257.75	4.92
257.965	4.76
258.18	4.48
258.395	4.74
258.61	4.84
258.826	4.6
259.041	4.9
259.256	4.65
259.471	4.75
259.686	4.51
259.901	4.34
260.116	4.16
260.331	4.41
260.546	4.38
260.761	4.34
260.976	4.08
261.191	4.11
261.406	4.1
261.621	4.29
261.836	4
262.05	3.39
262.265	3.58
262.48	3.47
262.695	3.83
262.91	4.35
263.125	4.44
263.34	4.33
263.555	4.27
263.769	4.24
263.984	3.82
264.199	3.47
264.414	4.37
264.629	4.49
264.843	4.69
265.058	3.9
265.273	3.28
265.488	3.52
265.702	4.36
265.917	4.24
266.132	4.5
266.346	5.1
266.561	5.89
266.776	6.06
266.99	5.76
267.205	5.45
267.42	5.55
267.634	5.62
267.849	5.56
268.063	5.56
268.278	5.67
268.492	5.36
268.707	4.56
268.922	3.99
269.136	4.26
269.351	4.01
269.565	4.44
269.78	4.57
269.994	4.93
270.209	4.51
270.423	4.26
270.637	3.98
270.852	3.98
271.066	4.73
271.281	4.94
271.495	4.49
271.709	4.14
271.924	4.2
272.138	4.08
272.353	3.89
272.567	4.27
272.781	4.03
272.996	4.28
273.21	4.64
273.424	4.87
273.638	4.59
273.853	4.79
274.067	5.53
274.281	5.33
274.495	5.18
274.71	5.6
274.924	5.49
275.138	5.83
275.352	5.55
275.566	5.01
275.781	4.31
275.995	4.87
276.209	4.76
276.423	4.34
276.637	4.07
276.851	4.37
277.065	4.2
277.279	3.96
277.493	3.79
277.707	4.29
277.921	4.47
278.135	4.76
278.349	4.17
278.563	4.54
278.777	4.55
278.991	4.88
279.205	4.74
279.419	4.27
279.633	4.37
279.847	4.31
280.061	3.52
280.275	3.49
280.489	3.41
280.703	3.56
280.917	3.06
281.131	3.32
281.344	3.1
281.558	2.71
281.772	2.95
281.986	2.98
282.2	3.15
282.414	3.42
282.627	3.35
282.841	2.99
283.055	2.99
283.269	3.08
283.482	2.66
283.696	3.1
283.91	3.03
284.123	2.68
284.337	2.94
284.551	2.78
284.764	2.93
284.978	2.98
285.192	3.06
285.405	3.19
285.619	3.09
285.833	3.37
286.046	2.79
286.26	3.15
286.473	3.25
286.687	2.86
286.9	2.93
287.114	2.84
287.327	2.71
287.541	2.89
287.754	2.82
287.968	2.81
288.181	2.73
288.395	3.13
288.608	3.24
288.822	3.44
289.035	3.56
289.248	3.43
289.462	3.46
289.675	3.58
289.889	3.54
290.102	3.48
290.315	3.82
290.529	4.14
290.742	3.91
290.955	3.71
291.169	4.01
291.382	4.15
291.595	4.43
291.808	4.54
292.022	4.52
292.235	4.52
292.448	4.39
292.661	4.14
292.875	3.85
293.088	4.27
293.301	4.51
293.514	4.44
293.727	4.55
293.94	4.51
294.153	4.44
294.367	4.15
294.58	4.09
294.793	4.21
295.006	4.15
295.219	4.19
295.432	3.71
295.645	3.89
295.858	3.5
296.071	3.37
296.284	3.27
296.497	3.18
296.71	3.58
296.923	3.71
297.136	3.73
297.349	3.67
297.562	3.71
297.775	3.95
297.988	3.89
298.201	4.12
298.414	4.17
298.626	4.55
298.839	4.53
299.052	4.42
299.265	4.23
299.478	4.36
299.691	4.64
299.903	4.43
300.116	4.46
300.329	4.39
300.542	4.45
300.755	4.32
300.967	3.97
301.18	4
301.393	4.31
301.605	4.72
301.818	4.56
302.031	4.66
302.243	4.71
302.456	5
302.669	4.98
302.881	5.09
303.094	5.11
303.307	4.93
303.519	4.97
303.732	4.78
303.944	4.44
304.157	4.64
304.37	4.62
304.582	4.45
304.795	4.32
305.007	4.45
305.22	4.24
305.432	4.26
305.645	4.55
305.857	5.15
306.069	5.25
306.282	5.34
306.494	5.27
306.707	4.77
306.919	4.91
307.132	4.79
307.344	4.71
307.556	5
307.769	5.16
307.981	5.24
308.193	4.88
308.406	4.8
308.618	4.71
308.83	4.74
309.043	5.03
309.255	5.22
309.467	5.24
309.679	5.03
309.892	4.89
310.104	5.06
310.316	4.64
310.528	4.4
310.74	4.5
310.953	4.55
311.165	4.48
311.377	4.55
311.589	4.78
311.801	4.82
312.013	4.97
312.225	4.91
312.437	4.81
312.649	5.17
312.862	5.64
313.074	5.49
313.286	5.83
313.498	5.81
313.71	6
313.922	6.1
314.134	6.27
314.346	6.11
314.558	6.49
314.77	6.43
314.982	6.31
315.193	6.07
315.405	6.4
315.617	6.21
315.829	6.33
316.041	5.79
316.253	5.39
316.465	5.74
316.677	6.14
316.888	5.89
317.1	5.6
317.312	5.87
317.524	5.68
317.736	6.17
317.947	6.15
318.159	6.57
318.371	7.24
318.583	7.59
318.794	7.22
319.006	7.03
319.218	6.79
319.43	7.11
319.641	7.24
319.853	8.02
320.064	7.47
320.276	8
320.488	7.9
320.699	8
320.911	8.01
321.123	7.68
321.334	7.57
321.546	7.88
321.757	8.02
321.969	7.65
322.18	7.72
322.392	7.84
322.603	7.61
322.815	7.56
323.026	7.72
323.238	7.72
323.449	7.89
323.661	7.83
323.872	8.05
324.083	8.09
324.295	8.7
324.506	8.42
324.718	8.13
324.929	8.03
325.14	8.04
325.352	7.68
325.563	7.7
325.774	7.82
325.986	8.18
326.197	8.01
326.408	8.46
326.62	8.29
326.831	8.09
327.042	8.18
327.253	8.4
327.464	9.04
327.676	9.31
327.887	9.4
328.098	10.07
328.309	10.12
328.52	10.49
328.732	10.29
328.943	10.66
329.154	11.26
329.365	11.44
329.576	11.4
329.787	11.21
329.998	11.09
330.209	11.45
330.42	11.22
330.631	11.56
330.842	11.63
331.053	11.57
331.264	11.21
331.475	11.24
331.686	11.62
331.897	11.9
332.108	11.86
332.319	12.41
332.53	12.17
332.741	12.5
332.952	12.42
333.163	12.01
333.374	12.07
333.585	12.46
333.795	12.38
334.006	12.23
334.217	12.18
334.428	12.29
334.639	12.2
334.849	12.12
335.06	11.64
335.271	11.8
335.482	11.95
335.692	12.1
335.903	11.68
336.114	11.75
336.325	11.4
336.535	11.17
336.746	11.17
336.957	10.72
337.167	10.6
337.378	10.58
337.589	10.52
337.799	10.57
338.01	10.45
338.22	10.75
338.431	10.38
338.642	10.75
338.852	11.03
339.063	11.01
339.273	11.51
339.484	11.73
339.694	11.82
339.905	11.67
340.115	11.99
340.326	12.03
340.536	11.93
340.746	12.1
340.957	12.22
341.167	11.98
341.378	11.66
341.588	11.25
341.799	11.29
342.009	11.29
342.219	11.43
342.43	11.01
342.64	11.02
342.85	10.95
343.061	10.85
343.271	10.76
343.481	10.74
343.691	10.56
343.902	10.66
344.112	10.61
344.322	10.52
344.532	10.53
344.743	10.95
344.953	10.93
345.163	10.88
345.373	10.71
345.583	10.75
345.793	10.91
346.004	11.35
346.214	11.5
346.424	11.54
346.634	11.47
346.844	11.2
347.054	10.88
347.264	11.2
347.474	11.13
347.684	11.24
347.894	10.97
348.104	11.09
348.314	10.8
348.524	10.22
348.734	10.1
348.944	10.49
349.154	10.78
349.364	10.84
349.574	10.47
349.784	10.7
349.994	11.21
350.204	11.36
350.413	11.12
350.623	11.12
350.833	11.34
351.043	11.44
351.253	11.21
351.463	11.21
351.672	10.89
351.882	11.09
352.092	10.93
352.302	10.65
352.511	10.7
352.721	10.66
352.931	10.97
353.141	10.85
353.35	10.85
353.56	10.8
353.77	10.56
353.979	10.56
354.189	10.39
354.399	10.51
354.608	10.23
354.818	10.02
355.027	10.01
355.237	9.88
355.447	10.17
355.656	9.91
355.866	9.79
356.075	9.78
356.285	9.83
356.494	9.8
356.704	9.49
356.913	9.6
357.123	9.45
357.332	9.51
357.542	9.38
357.751	9.31
357.96	9.44
358.17	9.42
358.379	9.28
358.589	9.34
358.798	9.58
359.007	9.62
359.217	9.65
359.426	9.79
359.635	9.62
359.845	9.47
360.054	9.23
360.263	9.11
360.472	9.16
360.682	9.06
360.891	9.04
361.1	8.84
361.309	8.83
361.519	8.61
361.728	8.61
361.937	8.68
362.146	8.7
362.355	8.76
362.564	8.79
362.774	8.79
362.983	8.85
363.192	8.82
363.401	8.53
363.61	8.76
363.819	8.93
364.028	8.74
364.237	8.62
364.446	8.45
364.655	8.68
364.864	8.78
365.073	8.89
365.282	9.2
365.491	9.09
365.7	9.41
365.909	9.42
366.118	9.57
366.327	9.85
366.536	10.08
366.745	10.14
366.954	9.83
367.162	9.83
367.371	9.6
367.58	9.36
367.789	9.51
367.998	9.33
368.207	9.01
368.415	8.92
368.624	8.83
368.833	8.59
369.042	8.9
369.25	9.13
369.459	9.22
369.668	9.29
369.877	9.25
370.085	9.26
370.294	9.5
370.503	9.91
370.711	9.92
370.92	9.88
371.129	9.86
371.337	9.62
371.546	9.52
371.754	9.53
371.963	9.6
372.171	9.82
372.38	9.88
372.589	9.79
372.797	9.55
373.006	9.27
373.214	9.27
373.423	9.39
373.631	9.54
373.84	9.52
374.048	9.18
374.256	9.13
374.465	9.27
374.673	9.22
374.882	9.19
375.09	9.3
375.298	9.83
375.507	9.75
375.715	9.52
375.923	9.24
376.132	9.31
376.34	9.25
376.548	9.53
376.757	9.19
376.965	9.07
377.173	8.98
377.381	8.95
377.59	8.68
377.798	8.9
378.006	9.02
378.214	9.05
378.423	8.95
378.631	9.12
378.839	8.85
379.047	8.91
379.255	8.91
379.463	8.86
379.671	8.68
379.879	8.68
380.088	8.45
380.296	8.32
380.504	8.49
380.712	8.55
380.92	8.53
381.128	8.52
381.336	8.48
381.544	8.35
381.752	8.31
381.96	8.29
382.168	8.16
382.376	8.31
382.584	8.37
382.791	8.24
382.999	8.12
383.207	8.04
383.415	8.04
383.623	7.76
383.831	7.96
384.039	8.07
384.247	8.04
384.454	8.04
384.662	8.02
384.87	7.95
385.078	7.99
385.285	7.97
385.493	7.92
385.701	7.74
385.909	7.98
386.116	8
386.324	8.02
386.532	8.07
386.739	8.03
386.947	7.95
387.155	8.05
387.362	8.11
387.57	8.28
387.778	8.48
387.985	8.67
388.193	8.74
388.4	8.64
388.608	8.69
388.816	8.61
389.023	8.66
389.231	8.63
389.438	8.61
389.646	8.53
389.853	8.59
390.061	8.41
390.268	8.26
390.475	8.17
390.683	8.15
390.89	7.9
391.098	7.89
391.305	7.94
391.512	7.73
391.72	7.64
391.927	7.69
392.135	7.45
392.342	7.44
392.549	7.44
392.756	7.24
392.964	7.25
393.171	7.31
393.378	7.2
393.586	7.14
393.793	7.32
394	7.41
394.207	7.43
394.414	7.52
394.622	7.54
394.829	7.56
395.036	7.68
395.243	7.57
395.45	7.64
395.657	7.73
395.864	7.71
396.072	7.68
396.279	7.81
396.486	7.68
396.693	7.84
396.9	7.99
397.107	8.03
397.314	8.13
397.521	8.26
397.728	8.36
397.935	8.61
398.142	8.83
398.349	8.91
398.556	8.7
398.763	8.82
398.97	8.58
399.177	8.36
399.383	8.23
399.59	8.35
399.797	8.28
400.004	8.11
400.211	7.95
400.418	7.7
400.625	7.76
400.831	7.78
401.038	7.72
401.245	7.89
401.452	8.16
401.658	8.2
401.865	8.07
402.072	8.2
402.279	8.2
402.485	8.15
402.692	8.19
402.899	8.11
403.105	8.12
403.312	8.17
403.519	7.95
403.725	7.73
403.932	7.84
404.138	7.88
404.345	7.75
404.552	7.83
404.758	7.77
404.965	7.66
405.171	7.63
405.378	7.6
405.584	7.48
405.791	7.56
405.997	7.62
406.204	7.56
406.41	7.56
406.617	7.8
406.823	7.7
407.029	7.85
407.236	7.89
407.442	7.83
407.649	7.86
407.855	7.93
408.061	8.08
408.268	8
408.474	8.01
408.68	7.85
408.887	7.65
409.093	7.79
409.299	7.73
409.505	7.71
409.712	7.78
409.918	7.84
410.124	7.91
410.33	7.99
410.537	8.13
410.743	8.13
410.949	8.13
411.155	8.2
411.361	8.15
411.567	8.28
411.773	8.48
411.98	8.35
412.186	8.24
412.392	8.21
412.598	8.03
412.804	7.98
413.01	7.94
413.216	8.19
413.422	7.96
413.628	8
413.834	7.97
414.04	7.87
414.246	7.97
414.452	8.1
414.658	8.16
414.864	8.28
415.07	8.31
415.275	8.27
415.481	8.06
415.687	8.24
415.893	8.02
416.099	7.8
416.305	7.77
416.511	7.64
416.716	7.54
416.922	7.42
417.128	7.22
417.334	7.16
417.539	7.13
417.745	7.02
417.951	6.86
418.157	6.84
418.362	6.78
418.568	6.72
418.774	6.68
418.979	6.68
419.185	6.61
419.391	6.59
419.596	6.51
419.802	6.4
420.008	6.39
420.213	6.46
420.419	6.45
420.624	6.43
420.83	6.39
421.035	6.36
421.241	6.23
421.446	6.21
421.652	6.17
421.857	6.18
422.063	6.25
422.268	6.29
422.474	6.27
422.679	6.32
422.885	6.23
423.09	6.22
423.295	6.23
423.501	6.25
423.706	6.24
423.911	6.22
424.117	6.2
424.322	6.12
424.527	6.06
424.733	6.02
424.938	6.02
425.143	6.16
425.349	6.18
425.554	6.21
425.759	6.22
425.964	6.29
426.169	6.37
426.375	6.38
426.58	6.44
426.785	6.53
426.99	6.56
427.195	6.58
427.4	6.6
427.605	6.65
427.811	6.74
428.016	6.8
428.221	6.74
428.426	6.7
428.631	6.76
428.836	6.78
429.041	6.8
429.246	6.7
429.451	6.71
429.656	6.71
429.861	6.62
430.066	6.56
430.271	6.53
430.476	6.47
430.681	6.48
430.886	6.44
431.09	6.51
431.295	6.66
431.5	6.82
431.705	6.74
431.91	6.67
432.115	6.71
432.32	6.82
432.524	6.82
432.729	6.9
432.934	6.84
433.139	6.78
433.343	6.74
433.548	6.63
433.753	6.69
433.958	6.78
434.162	6.89
434.367	6.85
434.572	6.76
434.776	6.84
434.981	6.9
435.186	7.04
435.39	7.15
435.595	7.26
435.799	7.19
436.004	7.12
436.209	7.08
436.413	7.15
436.618	7.21
436.822	7.16
437.027	7.08
437.231	7.03
437.436	6.95
437.64	6.92
437.845	6.8
438.049	6.91
438.253	6.83
438.458	6.83
438.662	6.61
438.867	6.63
439.071	6.62
439.275	6.7
439.48	6.6
439.684	6.56
439.888	6.57
440.093	6.53
440.297	6.39
440.501	6.34
440.706	6.35
440.91	6.44
441.114	6.43
441.318	6.53
441.523	6.49
441.727	6.53
441.931	6.51
442.135	6.47
442.339	6.54
442.543	6.67
442.748	6.76
442.952	6.73
443.156	6.76
443.36	6.82
443.564	6.69
443.768	6.74
443.972	6.68
444.176	6.73
444.38	6.68
444.584	6.68
444.788	6.63
444.992	6.57
445.196	6.51
445.4	6.5
445.604	6.41
445.808	6.37
446.012	6.27
446.216	6.36
446.42	6.31
446.624	6.24
446.828	6.21
447.032	6.13
447.235	6.12
447.439	6.16
447.643	6.13
447.847	6.08
448.051	6.09
448.254	6.12
448.458	6.14
448.662	6.25
448.866	6.42
449.069	6.46
449.273	6.5
449.477	6.61
449.681	6.6
449.884	6.6
450.088	6.74
450.292	6.99
450.495	7.05
450.699	7.04
450.902	7.04
451.106	6.92
451.31	7.09
451.513	7.27
451.717	7.17
451.92	7.14
452.124	7.1
452.327	7
452.531	6.91
452.734	6.9
452.938	6.93
453.141	6.87
453.345	7
453.548	6.86
453.752	6.73
453.955	6.79
454.158	6.82
454.362	6.9
454.565	7.01
454.769	7
454.972	6.94
455.175	7.02
455.379	7.06
455.582	7.07
455.785	7.01
455.988	7.03
456.192	7.19
456.395	7.23
456.598	7.25
456.801	7.24
457.005	7.26
457.208	7.28
457.411	7.02
457.614	6.86
457.817	6.72
458.021	6.61
458.224	6.64
458.427	6.47
458.63	6.36
458.833	6.31
459.036	6.14
459.239	6.09
459.442	6.02
459.645	6.07
459.848	6.13
460.051	6.18
460.254	6.24
460.457	6.14
460.66	6.17
460.863	6.25
461.066	6.35
461.269	6.52
461.472	6.61
461.675	6.68
461.878	6.73
462.081	6.8
462.284	6.92
462.486	6.97
462.689	7.14
462.892	7.2
463.095	7.22
463.298	7.27
463.5	7.2
463.703	7.12
463.906	7.2
464.109	7.19
464.311	7.19
464.514	7.16
464.717	7.21
464.92	7.23
465.122	7.24
465.325	7.23
465.528	7.07
465.73	7.13
465.933	7.21
466.135	7.2
466.338	7.28
466.541	7.35
466.743	7.2
466.946	7.23
467.148	7.24
467.351	7.15
467.553	7.19
467.756	7.24
