Data from 2938812__Reflection_06.txt Node
Date: Thu Mar 12 16:52:09 EDT 2015
User: robert
Spectrometer: USB4E03002
Autoset integration time: false
Trigger mode: 4
Integration Time (sec): 1.000000E-1
Scans to average: 10
Electric dark correction enabled: false
Nonlinearity correction enabled: false
Boxcar width: 5
Stray light correction enabled: false
XAxis mode: Wavelengths
Stop averaging: false
Number of Pixels in Spectrum: 3648
>>>>>Begin Spectral Data<<<<<
177.575	-45.64
177.794	-253.09
178.014	678.57
178.233	-957.14
178.452	-2725
178.672	-119.23
178.891	165.71
179.11	75.93
179.33	-100
179.549	-393.48
179.768	-63.03
179.987	111.56
180.207	123.46
180.426	-106.67
180.645	-15.66
180.864	81.4
181.084	88
181.303	15.68
181.522	21.43
181.741	69.6
181.96	405.13
182.179	251.85
182.398	259.65
182.618	0.65
182.837	-20.41
183.056	73.82
183.275	116.28
183.494	530.77
183.713	-20900
183.932	179.49
184.151	93.46
184.37	64.74
184.589	65.99
184.808	83.2
185.027	89.6
185.246	70.22
185.465	65.98
185.684	-18.03
185.903	-117.07
186.122	-167.86
186.341	822.03
186.56	8700
186.779	233.51
186.998	114.96
187.216	106.18
187.435	67.66
187.654	51.38
187.873	34.27
188.092	-23.21
188.311	-102.09
188.53	-115.42
188.748	-143.81
188.967	-111.55
189.186	-358.02
189.405	-1664.86
189.623	1238.89
189.842	152.67
190.061	155.69
190.28	141.1
190.498	128.05
190.717	123.05
190.936	92.65
191.154	76.95
191.373	65.67
191.592	86.01
191.81	67.57
192.029	64.82
192.248	150.65
192.466	155.94
192.685	187.8
192.904	195.34
193.122	151
193.341	155.94
193.559	133.02
193.778	130.44
193.996	157.84
194.215	157.49
194.433	137.61
194.652	116.91
194.87	130.76
195.089	118.5
195.307	94.41
195.526	127.97
195.744	129.49
195.963	211.76
196.181	245.53
196.399	101.55
196.618	151.79
196.836	182.19
197.055	131.61
197.273	105.34
197.491	96.36
197.71	185.06
197.928	106.87
198.146	61.19
198.365	54.03
198.583	38.3
198.801	143.61
199.019	99.1
199.238	175.27
199.456	247.78
199.674	238.97
199.892	989.47
200.111	302.38
200.329	181.28
200.547	151.74
200.765	161.02
200.983	114.61
201.202	155.06
201.42	1048.28
201.638	29100
201.856	769.23
202.074	-2373.33
202.292	614.06
202.51	292.09
202.728	277.95
202.946	299.24
203.165	178.21
203.383	182.86
203.601	157.28
203.819	92.56
204.037	97.14
204.255	62.09
204.473	55.44
204.691	57.29
204.909	50.3
205.127	51.23
205.345	88.35
205.562	82.81
205.78	36.54
205.998	92.19
206.216	270.19
206.434	196.93
206.652	-1360.87
206.87	-553.49
207.088	0.69
207.306	-54.97
207.523	-174.19
207.741	-274
207.959	217.31
208.177	133.73
208.395	92.34
208.612	70.99
208.83	64.52
209.048	52.12
209.266	49.96
209.483	44.86
209.701	49.59
209.919	35.89
210.136	31.17
210.354	17.33
210.572	0.59
210.79	14.23
211.007	1.19
211.225	-15.5
211.442	7.3
211.66	19.75
211.878	39.75
212.095	39.82
212.313	38.03
212.53	31.2
212.748	38.19
212.966	47.42
213.183	41.24
213.401	45.28
213.618	53.82
213.836	38.77
214.053	44.41
214.271	37.39
214.488	28.63
214.705	32.3
214.923	30.31
215.14	44.7
215.358	34.75
215.575	33.5
215.793	41.34
216.01	19.68
216.227	12.27
216.445	-2.63
216.662	-33.38
216.879	-27.97
217.097	-29.05
217.314	-13.11
217.531	-11.1
217.749	-1.72
217.966	-3.89
218.183	-5.39
218.4	14.34
218.618	20.36
218.835	17.94
219.052	32.38
219.269	32.51
219.487	33.96
219.704	38.54
219.921	32.85
220.138	19.61
220.355	23.46
220.572	17.03
220.79	15.87
221.007	20.18
221.224	23.93
221.441	24.26
221.658	22.06
221.875	16.25
222.092	18.43
222.309	22.51
222.526	21.89
222.743	26.17
222.96	27.55
223.177	20.95
223.394	24.92
223.611	21.77
223.828	16.97
224.045	11.08
224.262	12.03
224.479	8.02
224.696	7.41
224.913	8.14
225.13	-1.71
225.347	-6.69
225.564	-4.39
225.781	-11.5
225.997	-10.63
226.214	-5.13
226.431	-2.47
226.648	-0.04
226.865	0.8
227.082	0.07
227.298	-2.62
227.515	-0.28
227.732	1.68
227.949	3
228.165	5.35
228.382	6.59
228.599	6.7
228.816	6.43
229.032	5.63
229.249	5.48
229.466	5.47
229.682	6.44
229.899	6.71
230.116	5.97
230.332	5.29
230.549	3.66
230.765	2.3
230.982	1.97
231.199	2.22
231.415	2.67
231.632	3.19
231.848	3.25
232.065	2.86
232.281	2.45
232.498	4.22
232.714	4.91
232.931	5.79
233.147	6.77
233.364	6.61
233.58	7.52
233.797	7.38
234.013	7.32
234.23	7.88
234.446	7.56
234.662	8.24
234.879	7.56
235.095	6.21
235.312	5.59
235.528	6.43
235.744	7.43
235.961	6.66
236.177	6.67
236.393	6.39
236.61	6.86
236.826	8.64
237.042	6.47
237.258	7.12
237.475	9.23
237.691	9.66
237.907	8.07
238.123	6.56
238.339	7.61
238.556	7.16
238.772	6.22
238.988	6.29
239.204	5.61
239.42	6.14
239.636	6.56
239.853	5.69
240.069	4.64
240.285	4.93
240.501	4.7
240.717	3.93
240.933	4.32
241.149	4.67
241.365	4.52
241.581	4.82
241.797	4.9
242.013	4.45
242.229	4.64
242.445	5.58
242.661	5.38
242.877	5.04
243.093	5.13
243.309	4.87
243.525	4.9
243.741	4.64
243.957	4.37
244.173	4.21
244.388	4.21
244.604	3.29
244.82	2.22
245.036	3.42
245.252	4.5
245.468	3.8
245.683	4.07
245.899	4.14
246.115	4.01
246.331	3.9
246.547	3.76
246.762	4.26
246.978	4.62
247.194	4.64
247.409	4.4
247.625	4.03
247.841	4.59
248.057	4.46
248.272	4.59
248.488	4.87
248.703	5.36
248.919	5.32
249.135	5.07
249.35	4.74
249.566	4.85
249.782	4.67
249.997	5.27
250.213	4.54
250.428	4.88
250.644	4.8
250.859	4.74
251.075	4.06
251.29	4.79
251.506	4.57
251.721	4.79
251.937	4.77
252.152	4.99
252.368	4.26
252.583	4.69
252.798	4.49
253.014	3.98
253.229	4.26
253.445	4.34
253.66	4.43
253.875	3.81
254.091	3.5
254.306	2.85
254.521	2.14
254.737	2.77
254.952	2.29
255.167	1.74
255.383	3.45
255.598	2.97
255.813	3.67
256.028	3.08
256.244	4.09
256.459	4.04
256.674	5.16
256.889	4.91
257.104	4.55
257.32	5.01
257.535	5.34
257.75	4.39
257.965	4.3
258.18	4
258.395	4.11
258.61	3.65
258.826	3.64
259.041	3.65
259.256	3.64
259.471	3.78
259.686	3.69
259.901	3.64
260.116	3.74
260.331	3.48
260.546	3.34
260.761	3.47
260.976	3.53
261.191	3.81
261.406	3.68
261.621	3.7
261.836	3.65
262.05	3.72
262.265	3.82
262.48	3.5
262.695	4.11
262.91	4.57
263.125	4.83
263.34	5.16
263.555	4.46
263.769	4.37
263.984	4.54
264.199	4.47
264.414	3.75
264.629	4.07
264.843	4.29
265.058	3.66
265.273	3.36
265.488	3.65
265.702	3.68
265.917	3.61
266.132	3.26
266.346	3.25
266.561	3.12
266.776	3.71
266.99	3.58
267.205	3.94
267.42	4.29
267.634	4.53
267.849	3.84
268.063	3.72
268.278	4.62
268.492	4.65
268.707	4.33
268.922	4.17
269.136	4.18
269.351	3.7
269.565	3.36
269.78	3.36
269.994	3.43
270.209	3.62
270.423	3.62
270.637	2.86
270.852	3.08
271.066	3.59
271.281	3.67
271.495	3.36
271.709	3.62
271.924	3.31
272.138	3.28
272.353	3.13
272.567	3.07
272.781	3.44
272.996	3.62
273.21	3.47
273.424	3.49
273.638	3.55
273.853	3.74
274.067	3.73
274.281	4.2
274.495	4.02
274.71	3.74
274.924	3.76
275.138	3.55
275.352	3.75
275.566	4.05
275.781	3.87
275.995	4.09
276.209	3.74
276.423	3.83
276.637	3.73
276.851	3.89
277.065	3.74
277.279	3.64
277.493	3.43
277.707	3.55
277.921	3.34
278.135	3.38
278.349	3.57
278.563	4.31
278.777	4.35
278.991	3.63
279.205	3.71
279.419	3.92
279.633	4.21
279.847	3.62
280.061	3.72
280.275	4.21
280.489	3.93
280.703	3.6
280.917	2.98
281.131	2.83
281.344	3.55
281.558	3.15
281.772	3.25
281.986	2.94
282.2	3.25
282.414	3
282.627	2.62
282.841	2.97
283.055	3
283.269	3.02
283.482	3.17
283.696	3.03
283.91	3.35
284.123	3.54
284.337	3.6
284.551	3.72
284.764	4.08
284.978	4.34
285.192	4.04
285.405	3.93
285.619	3.84
285.833	3.77
286.046	3.78
286.26	3.85
286.473	3.86
286.687	3.95
286.9	4.11
287.114	3.6
287.327	3.26
287.541	3.38
287.754	3.61
287.968	4.09
288.181	3.8
288.395	3.88
288.608	3.47
288.822	3.56
289.035	3.6
289.248	3.25
289.462	3.65
289.675	3.58
289.889	3.39
290.102	3.12
290.315	2.83
290.529	3.28
290.742	3.04
290.955	3.61
291.169	3.65
291.382	3.88
291.595	3.96
291.808	3.82
292.022	4
292.235	4.35
292.448	4.73
292.661	4.99
292.875	5.27
293.088	5.78
293.301	5.43
293.514	5.21
293.727	5.06
293.94	5.74
294.153	5.77
294.367	5.75
294.58	5.85
294.793	5.96
295.006	5.82
295.219	5.37
295.432	5.31
295.645	5.32
295.858	5.58
296.071	5.35
296.284	5.07
296.497	5.19
296.71	5.46
296.923	5.56
297.136	5.56
297.349	5.65
297.562	5.85
297.775	6.03
297.988	6.21
298.201	6.2
298.414	6.42
298.626	6.43
298.839	6.51
299.052	6.38
299.265	6.41
299.478	6.61
299.691	6.67
299.903	6.74
300.116	6.5
300.329	6.46
300.542	6.29
300.755	6.39
300.967	6.36
301.18	6.56
301.393	6.35
301.605	6.22
301.818	5.98
302.031	5.95
302.243	5.81
302.456	6.21
302.669	6.2
302.881	6.02
303.094	6.05
303.307	6.24
303.519	6.35
303.732	6.86
303.944	6.88
304.157	7.2
304.37	7.17
304.582	7.16
304.795	6.74
305.007	6.89
305.22	7.66
305.432	7.78
305.645	7.72
305.857	7.67
306.069	7.38
306.282	7.36
306.494	7.01
306.707	7.17
306.919	7.38
307.132	7.82
307.344	7.96
307.556	7.43
307.769	7.4
307.981	7.33
308.193	7.23
308.406	7.88
308.618	8.15
308.83	8.45
309.043	8.62
309.255	8.79
309.467	8.64
309.679	8.57
309.892	8.94
310.104	9.08
310.316	9.17
310.528	9.39
310.74	9.3
310.953	9.27
311.165	9.4
311.377	9.4
311.589	9.19
311.801	9.28
312.013	9.36
312.225	9.25
312.437	9.21
312.649	9.39
312.862	9.25
313.074	8.7
313.286	8.51
313.498	8.49
313.71	8.83
313.922	8.99
314.134	8.54
314.346	8.66
314.558	8.81
314.77	8.4
314.982	8.3
315.193	8.35
315.405	8.76
315.617	9.12
315.829	8.85
316.041	8.48
316.253	8.16
316.465	8.86
316.677	8.82
316.888	8.54
317.1	8.84
317.312	8.84
317.524	8.79
317.736	9.49
317.947	9.51
318.159	9.51
318.371	9.65
318.583	10.08
318.794	10.42
319.006	10.59
319.218	10.6
319.43	10.97
319.641	11.29
319.853	11.45
320.064	10.54
320.276	10.44
320.488	10.54
320.699	10.69
320.911	10.58
321.123	10.18
321.334	9.66
321.546	10.26
321.757	9.99
321.969	9.84
322.18	9.71
322.392	9.73
322.603	9.75
322.815	9.7
323.026	9.85
323.238	9.74
323.449	9.8
323.661	10.21
323.872	9.82
324.083	9.92
324.295	9.97
324.506	9.97
324.718	10.01
324.929	9.97
325.14	10.09
325.352	9.8
325.563	10.28
325.774	10.22
325.986	10.31
326.197	10.64
326.408	10.51
326.62	10.73
326.831	10.7
327.042	11.12
327.253	11.17
327.464	11.24
327.676	11.22
327.887	11.12
328.098	11.04
328.309	11.16
328.52	11.36
328.732	11.88
328.943	11.93
329.154	11.96
329.365	11.98
329.576	12.01
329.787	12.06
329.998	12.69
330.209	12.46
330.42	12.78
330.631	12.55
330.842	11.91
331.053	11.74
331.264	11.73
331.475	11.89
331.686	12.09
331.897	12.04
332.108	12.16
332.319	12.03
332.53	12.13
332.741	12.02
332.952	12.56
333.163	13.29
333.374	13.37
333.585	13.37
333.795	13.18
334.006	13.21
334.217	13.61
334.428	13.39
334.639	13.26
334.849	13.9
335.06	14.08
335.271	14.19
335.482	13.92
335.692	13.66
335.903	13.74
336.114	13.79
336.325	13.4
336.535	13.25
336.746	13.41
336.957	13.41
337.167	12.77
337.378	12.76
337.589	12.04
337.799	12.12
338.01	12.18
338.22	11.89
338.431	11.65
338.642	11.49
338.852	11.34
339.063	11.33
339.273	11.58
339.484	11.56
339.694	11.19
339.905	11.51
340.115	11.25
340.326	11.45
340.536	11.46
340.746	12.09
340.957	12.24
341.167	12.12
341.378	12.15
341.588	12.29
341.799	12.82
342.009	13.08
342.219	12.92
342.43	13.19
342.64	13.12
342.85	13.24
343.061	12.72
343.271	12.78
343.481	13.12
343.691	13.06
343.902	12.36
344.112	12.28
344.322	12.27
344.532	12.46
344.743	12.16
344.953	12.41
345.163	12.52
345.373	12.95
345.583	13.12
345.793	13.35
346.004	13.33
346.214	13.84
346.424	13.75
346.634	13.92
346.844	13.63
347.054	13.98
347.264	13.75
347.474	13.48
347.684	13.15
347.894	12.92
348.104	12.79
348.314	12.91
348.524	12.55
348.734	12.53
348.944	12.13
349.154	12.44
349.364	12.28
349.574	12.21
349.784	12.55
349.994	12.96
350.204	12.87
350.413	12.7
350.623	12.47
350.833	12.52
351.043	12.19
351.253	12.45
351.463	12.4
351.672	12.43
351.882	12.5
352.092	12.33
352.302	12.1
352.511	12.3
352.721	12.1
352.931	12.36
353.141	12.19
353.35	12.11
353.56	12.12
353.77	12.29
353.979	12.1
354.189	12.12
354.399	11.94
354.608	12.07
354.818	11.91
355.027	12.02
355.237	11.9
355.447	12.25
355.656	12.44
355.866	12.33
356.075	12.15
356.285	12.37
356.494	12.2
356.704	12.19
356.913	12.2
357.123	12.44
357.332	12.42
357.542	12.5
357.751	12.42
357.96	12.51
358.17	12.61
358.379	12.58
358.589	12.46
358.798	12.6
359.007	12.91
359.217	12.91
359.426	12.77
359.635	12.8
359.845	12.44
360.054	12.54
360.263	12.41
360.472	12.39
360.682	12.71
360.891	12.69
361.1	12.6
361.309	12.39
361.519	12.12
361.728	11.96
361.937	11.85
362.146	12.06
362.355	11.84
362.564	11.9
362.774	11.83
362.983	11.56
363.192	11.41
363.401	11.55
363.61	11.59
363.819	11.77
364.028	11.9
364.237	12.05
364.446	12.21
364.655	12.38
364.864	12.34
365.073	12.1
365.282	12.06
365.491	12.06
365.7	11.88
365.909	11.88
366.118	11.85
366.327	11.89
366.536	11.72
366.745	11.68
366.954	11.64
367.162	11.59
367.371	11.71
367.58	11.59
367.789	11.47
367.998	11.43
368.207	11.51
368.415	11.54
368.624	11.33
368.833	11.4
369.042	10.95
369.25	10.94
369.459	10.84
369.668	10.68
369.877	10.58
370.085	10.55
370.294	10.43
370.503	10.23
370.711	10.18
370.92	10.49
371.129	10.29
371.337	10.51
371.546	10.27
371.754	10.43
371.963	10.58
372.171	10.58
372.38	10.5
372.589	10.35
372.797	10.55
373.006	10.53
373.214	10.21
373.423	10.18
373.631	10.07
373.84	10.01
374.048	9.85
374.256	9.83
374.465	9.81
374.673	9.81
374.882	9.73
375.09	9.51
375.298	9.58
375.507	9.6
375.715	9.85
375.923	9.86
376.132	9.71
376.34	9.52
376.548	9.23
376.757	9.2
376.965	9.32
377.173	9.47
377.381	9.29
377.59	9.21
377.798	9.28
378.006	9.02
378.214	8.99
378.423	9.28
378.631	9.4
378.839	9.7
379.047	10.09
379.255	10.14
379.463	10.25
379.671	10.44
379.879	10.3
380.088	10.16
380.296	10.23
380.504	9.99
380.712	9.82
380.92	9.59
381.128	9.16
381.336	8.93
381.544	8.87
381.752	8.61
381.96	8.39
382.168	8.35
382.376	8.43
382.584	8.35
382.791	8.48
382.999	8.32
383.207	8.68
383.415	8.96
383.623	8.71
383.831	8.53
384.039	8.62
384.247	8.65
384.454	8.67
384.662	8.44
384.87	8.46
385.078	8.36
385.285	8.41
385.493	8.21
385.701	7.94
385.909	7.68
386.116	7.88
386.324	7.8
386.532	7.69
386.739	7.58
386.947	7.73
387.155	8.01
387.362	8.18
387.57	8.2
387.778	8.28
387.985	8.38
388.193	8.58
388.4	8.47
388.608	8.53
388.816	8.56
389.023	8.52
389.231	8.41
389.438	8.15
389.646	7.69
389.853	7.74
390.061	7.67
390.268	7.66
390.475	7.64
390.683	7.53
390.89	7.44
391.098	7.38
391.305	7.39
391.512	7.31
391.72	7.16
391.927	7.46
392.135	7.27
392.342	7.11
392.549	7.01
392.756	7.09
392.964	7.01
393.171	7.09
393.378	7.11
393.586	7.11
393.793	7.24
394	7.32
394.207	7.44
394.414	7.52
394.622	7.55
394.829	8.02
395.036	7.79
395.243	7.99
395.45	7.89
395.657	7.76
395.864	7.61
396.072	7.6
396.279	7.38
396.486	7.3
396.693	7.2
396.9	7.17
397.107	6.81
397.314	7.06
397.521	6.85
397.728	6.73
397.935	7.06
398.142	7.24
398.349	7.19
398.556	7.44
398.763	7.45
398.97	7.48
399.177	7.56
399.383	7.56
399.59	7.28
399.797	7.37
400.004	7.47
400.211	7.08
400.418	7
400.625	7.04
400.831	7.18
401.038	6.99
401.245	7.08
401.452	7.02
401.658	7.01
401.865	7.3
402.072	7.21
402.279	7.21
402.485	7.31
402.692	7.36
402.899	7.32
403.105	7.19
403.312	7.35
403.519	7.2
403.725	7.2
403.932	7.11
404.138	6.98
404.345	7.08
404.552	7.08
404.758	7.08
404.965	7.13
405.171	6.98
405.378	6.81
405.584	6.61
405.791	6.68
405.997	6.73
406.204	6.58
406.41	6.62
406.617	6.62
406.823	6.61
407.029	6.8
407.236	6.6
407.442	6.52
407.649	6.69
407.855	6.79
408.061	7.03
408.268	6.86
408.474	7.02
408.68	6.91
408.887	6.86
409.093	6.92
409.299	6.89
409.505	6.9
409.712	7.07
409.918	6.99
410.124	6.73
410.33	6.58
410.537	6.77
410.743	6.89
410.949	7.01
411.155	6.98
411.361	6.93
411.567	6.87
411.773	6.88
411.98	6.79
412.186	6.74
412.392	7.02
412.598	7.02
412.804	6.93
413.01	6.74
413.216	6.79
413.422	6.72
413.628	6.83
413.834	6.63
414.04	6.73
414.246	6.8
414.452	6.71
414.658	6.68
414.864	6.52
415.07	6.48
415.275	6.41
415.481	6.1
415.687	6.08
415.893	5.98
416.099	6.1
416.305	6.12
416.511	6.19
416.716	6.11
416.922	6.17
417.128	6.27
417.334	6.32
417.539	6.41
417.745	6.58
417.951	6.54
418.157	6.56
418.362	6.59
418.568	6.51
418.774	6.53
418.979	6.53
419.185	6.49
419.391	6.46
419.596	6.44
419.802	6.5
420.008	6.42
420.213	5.69
420.419	5.61
420.624	5.52
420.83	5.56
421.035	5.5
421.241	5.6
421.446	5.63
421.652	5.66
421.857	5.63
422.063	5.62
422.268	5.68
422.474	6.41
422.679	6.39
422.885	6.66
423.09	6.68
423.295	6.62
423.501	6.58
423.706	6.49
423.911	6.42
424.117	6.46
424.322	6.38
424.527	6.3
424.733	6.2
424.938	6.33
425.143	6.12
425.349	6.08
425.554	6.11
425.759	6.12
425.964	6.17
426.169	6.19
426.375	6.11
426.58	6.07
426.785	6.07
426.99	6.26
427.195	6.27
427.4	6.25
427.605	6.17
427.811	6.13
428.016	6.21
428.221	6.24
428.426	6.28
428.631	6.3
428.836	6.34
429.041	6.58
429.246	6.46
429.451	6.28
429.656	6.24
429.861	6.28
430.066	6.37
430.271	6.36
430.476	6.3
430.681	6.13
430.886	6.18
431.09	6.27
431.295	6.03
431.5	6.02
431.705	6
431.91	6.01
432.115	6.02
432.32	6
432.524	5.93
432.729	6.03
432.934	6.25
433.139	6.16
433.343	6.12
433.548	6.18
433.753	6.2
433.958	6.32
434.162	6.35
434.367	6.43
434.572	6.47
434.776	6.62
434.981	6.55
435.186	6.42
435.39	6.49
435.595	6.5
435.799	6.52
436.004	6.44
436.209	6.46
436.413	6.49
436.618	6.5
436.822	6.5
437.027	6.33
437.231	6.31
437.436	6.29
437.64	6.29
437.845	6.3
438.049	6.3
438.253	6.37
438.458	6.25
438.662	6.23
438.867	6.07
439.071	5.95
439.275	5.98
439.48	5.98
439.684	5.97
439.888	6.03
440.093	5.99
440.297	5.96
440.501	5.98
440.706	5.97
440.91	5.92
441.114	6.01
441.318	6.05
441.523	6.02
441.727	5.98
441.931	6.08
442.135	6.05
442.339	6.02
442.543	6.03
442.748	6.07
442.952	6.21
443.156	6.27
443.36	6.26
443.564	6.31
443.768	6.33
443.972	6.37
444.176	6.3
444.38	6.27
444.584	6.25
444.788	6.18
444.992	6.11
445.196	5.93
445.4	5.92
445.604	5.99
445.808	5.96
446.012	5.89
446.216	5.85
446.42	5.86
446.624	5.88
446.828	5.88
447.032	5.91
447.235	5.92
447.439	5.95
447.643	5.88
447.847	5.76
448.051	5.85
448.254	5.98
448.458	5.95
448.662	6
448.866	5.94
449.069	5.9
449.273	5.95
449.477	5.86
449.681	5.96
449.884	5.99
450.088	5.99
450.292	5.86
450.495	5.75
450.699	5.79
450.902	5.72
451.106	5.66
451.31	5.75
451.513	5.75
451.717	5.75
451.92	5.7
452.124	5.67
452.327	5.65
452.531	5.65
452.734	5.64
452.938	5.63
453.141	5.66
453.345	5.63
453.548	5.53
453.752	5.51
453.955	5.56
454.158	5.62
454.362	5.73
454.565	5.77
454.769	5.81
454.972	5.87
455.175	5.87
455.379	5.9
455.582	5.91
455.785	5.95
455.988	5.88
456.192	5.9
456.395	5.91
456.598	5.72
456.801	5.65
457.005	5.6
457.208	5.62
457.411	5.57
457.614	5.46
457.817	5.44
458.021	5.47
458.224	5.41
458.427	5.34
458.63	5.28
458.833	5.44
459.036	5.56
459.239	5.54
459.442	5.48
459.645	5.47
459.848	5.44
460.051	5.56
460.254	5.64
460.457	5.71
460.66	5.8
460.863	5.85
461.066	5.73
461.269	5.67
461.472	5.71
461.675	5.64
461.878	5.78
462.081	5.85
462.284	5.75
462.486	5.71
462.689	5.69
462.892	5.63
463.095	5.51
463.298	5.62
463.5	5.75
463.703	5.71
463.906	5.88
464.109	5.82
464.311	5.85
464.514	5.95
464.717	5.98
464.92	5.97
465.122	6.02
465.325	6.1
465.528	6.05
465.73	5.93
465.933	5.98
466.135	5.95
466.338	5.87
466.541	5.84
466.743	5.78
466.946	5.81
467.148	5.95
467.351	5.9
467.553	5.95
