Data from 2938789__Reflection_01.txt Node
Date: Fri Mar 13 11:31:22 EDT 2015
User: robert
Spectrometer: USB4E03002
Autoset integration time: false
Trigger mode: 4
Integration Time (sec): 1.000000E-1
Scans to average: 10
Electric dark correction enabled: false
Nonlinearity correction enabled: false
Boxcar width: 5
Stray light correction enabled: false
XAxis mode: Wavelengths
Stop averaging: false
Number of Pixels in Spectrum: 3648
>>>>>Begin Spectral Data<<<<<
177.575	-720
177.794	-8364.29
178.014	-1131.3
178.233	-797.25
178.452	-515.58
178.672	-387.39
178.891	-424.04
179.11	-446.44
179.33	-436.54
179.549	-507.73
179.768	-542.4
179.987	-852.57
180.207	-494.94
180.426	-875
180.645	-1653.21
180.864	-6653.66
181.084	2074.63
181.303	3098.88
181.522	1548.59
181.741	3729.73
181.96	1585.8
182.179	745.5
182.398	642.13
182.618	552.49
182.837	564.93
183.056	403.46
183.275	379.49
183.494	406.96
183.713	368.84
183.932	368.42
184.151	337.55
184.37	396.88
184.589	489.62
184.808	598.29
185.027	576.56
185.246	609.69
185.465	2273.5
185.684	1252.54
185.903	1528.57
186.122	1718.44
186.341	5911.76
186.56	2644.83
186.779	3444.58
186.998	1610.92
187.216	-4192.19
187.435	-992.28
187.654	-1108.76
187.873	-1463.64
188.092	-3437.68
188.311	17961.54
188.53	-2956.79
188.748	7659.38
188.967	-1138.46
189.186	-1338.95
189.405	-660.84
189.623	-2210.78
189.842	5370.21
190.061	1796.92
190.28	2788.04
190.498	-1558.82
190.717	-1205.96
190.936	-943.7
191.154	-597.58
191.373	-1811.41
191.592	-1601.74
191.81	-1353.81
192.029	-1114
192.248	-1118.47
192.466	-4329.58
192.685	-20707.14
192.904	-1011.24
193.122	-4890.91
193.341	1146.8
193.559	647.33
193.778	733.51
193.996	557.95
194.215	579.37
194.433	595.04
194.652	485.54
194.87	938.13
195.089	729.19
195.307	392.78
195.526	424.71
195.744	500.34
195.963	433.85
196.181	394.87
196.399	435.12
196.618	376.25
196.836	422.81
197.055	529.64
197.273	538.59
197.491	651.84
197.71	612.28
197.928	915.88
198.146	951.77
198.365	8562.5
198.583	-5252.83
198.801	-2156.82
199.019	-2243.75
199.238	-5504
199.456	1792.62
199.674	950.34
199.892	741.6
200.111	1166.09
200.329	1067.09
200.547	956.18
200.765	707.43
200.983	630.14
201.202	635.27
201.42	794.43
201.638	864.02
201.856	1447.96
202.074	1852.23
202.292	-4498.39
202.51	17906.25
202.728	9803.45
202.946	-3316.88
203.165	-3082.5
203.383	4903.85
203.601	1906.67
203.819	4589.09
204.037	929.5
204.255	983.6
204.473	1071.89
204.691	603
204.909	512.78
205.127	503.99
205.345	593.41
205.562	762.58
205.78	922.67
205.998	926.81
206.216	524.01
206.434	817.11
206.652	504.13
206.87	543.37
207.088	521.46
207.306	816.12
207.523	693.1
207.741	568.71
207.959	532.2
208.177	716.88
208.395	769.07
208.612	1183.85
208.83	825.95
209.048	971.29
209.266	1217.74
209.483	1083.86
209.701	1122.35
209.919	1798.18
210.136	1348.88
210.354	1077.9
210.572	817.72
210.79	598.85
211.007	579.76
211.225	687.02
211.442	720
211.66	498.66
211.878	516.17
212.095	-1281.15
212.313	-3165.96
212.53	-1940
212.748	-1418.54
212.966	-2521.37
213.183	-1679.52
213.401	-2407.14
213.618	5023.64
213.836	-16158.82
214.053	-9303.23
214.271	11523.08
214.488	281.32
214.705	289.33
214.923	256.15
215.14	266.19
215.358	295.4
215.575	330.4
215.793	334.39
216.01	504.8
216.227	486.67
216.445	488.51
216.662	541.84
216.879	710.36
217.097	613.29
217.314	553.33
217.531	355.4
217.749	302.74
217.966	256.22
218.183	222.35
218.4	214.78
218.618	208.4
218.835	190.86
219.052	188.68
219.269	166.9
219.487	173.13
219.704	181.84
219.921	195.6
220.138	189.87
220.355	197.86
220.572	195.83
220.79	176.7
221.007	164.47
221.224	172
221.441	167.65
221.658	166.8
221.875	160.42
222.092	155.46
222.309	144.66
222.526	143.67
222.743	140
222.96	140.75
223.177	138.35
223.394	137.45
223.611	127.51
223.828	125.04
224.045	130.47
224.262	129.13
224.479	121.92
224.696	120.65
224.913	109.95
225.13	100.5
225.347	87.39
225.564	80.75
225.781	75.67
225.997	69.97
226.214	60.41
226.431	50.58
226.648	44.08
226.865	37.9
227.082	33.74
227.298	32.07
227.515	28.47
227.732	27.43
227.949	25.38
228.165	23.25
228.382	22.8
228.599	22.94
228.816	22.77
229.032	21.42
229.249	21.05
229.466	19.98
229.682	19.76
229.899	21.12
230.116	20.72
230.332	21.63
230.549	21.84
230.765	22.01
230.982	21.74
231.199	22.49
231.415	24.64
231.632	26.92
231.848	28.86
232.065	30.3
232.281	29.92
232.498	30.15
232.714	29.81
232.931	31.27
233.147	32.88
233.364	33.93
233.58	33.31
233.797	33.26
234.013	32.76
234.23	31.31
234.446	31.13
234.662	31.31
234.879	31.77
235.095	31.3
235.312	30.81
235.528	29.85
235.744	30.15
235.961	30.4
236.177	30.91
236.393	31.84
236.61	33.07
236.826	32.29
237.042	32.07
237.258	31.68
237.475	32.57
237.691	32.23
237.907	32.96
238.123	32.94
238.339	32.65
238.556	32.55
238.772	30.74
238.988	30.03
239.204	28.97
239.42	28.96
239.636	28.86
239.853	27
240.069	25.86
240.285	24.25
240.501	21.36
240.717	20.64
240.933	18.98
241.149	18.17
241.365	17.53
241.581	17.34
241.797	16.49
242.013	15.55
242.229	15.53
242.445	15.39
242.661	15.17
242.877	15.66
243.093	15.7
243.309	16.12
243.525	16.17
243.741	16.08
243.957	15.77
244.173	16.18
244.388	16.35
244.604	16.14
244.82	16.64
245.036	16.62
245.252	15.57
245.468	15.1
245.683	14.73
245.899	14.39
246.115	13.61
246.331	13.23
246.547	13.05
246.762	12.45
246.978	12.01
247.194	11.44
247.409	11.17
247.625	11.44
247.841	10.93
248.057	10.58
248.272	10.35
248.488	10.61
248.703	10.92
248.919	10.8
249.135	11.13
249.35	12.41
249.566	13.25
249.782	13.78
249.997	14.15
250.213	14.85
250.428	16.39
250.644	17.37
250.859	18.05
251.075	17.35
251.29	17.57
251.506	17.28
251.721	16.13
251.937	15.18
252.152	15
252.368	15.33
252.583	15.3
252.798	14.8
253.014	15.48
253.229	15.01
253.445	16.24
253.66	15.98
253.875	17.05
254.091	17.67
254.306	18.91
254.521	20.8
254.737	21.49
254.952	22.13
255.167	22.07
255.383	20.81
255.598	20.56
255.813	20.15
256.028	20.41
256.244	19.83
256.459	19.74
256.674	18.98
256.889	16.71
257.104	15.99
257.32	15.63
257.535	14.22
257.75	13.65
257.965	13.55
258.18	12.57
258.395	11.76
258.61	10.91
258.826	10.22
259.041	10.02
259.256	9.92
259.471	9.11
259.686	8.86
259.901	8.72
260.116	8.48
260.331	8.18
260.546	8.25
260.761	8.37
260.976	8.65
261.191	8.45
261.406	8.27
261.621	8.81
261.836	8.95
262.05	9.3
262.265	10.17
262.48	10.67
262.695	11.33
262.91	11.92
263.125	12.07
263.34	12.03
263.555	13.24
263.769	13.97
263.984	13.54
264.199	14.58
264.414	14.53
264.629	14.44
264.843	14.61
265.058	14
265.273	13.57
265.488	13.51
265.702	13.46
265.917	12.97
266.132	12.35
266.346	12.18
266.561	11.88
266.776	11.95
266.99	11.69
267.205	11.2
267.42	11.39
267.634	11.1
267.849	11.15
268.063	11.18
268.278	11.19
268.492	11.46
268.707	11.35
268.922	11.12
269.136	11.3
269.351	11.11
269.565	11.44
269.78	11.12
269.994	10.86
270.209	10.72
270.423	10.48
270.637	10.15
270.852	9.83
271.066	9.96
271.281	10.21
271.495	9.75
271.709	9.83
271.924	9.42
272.138	9.8
272.353	10.25
272.567	9.97
272.781	10.08
272.996	10.32
273.21	10.78
273.424	10.47
273.638	10.09
273.853	9.97
274.067	9.78
274.281	10.41
274.495	10.68
274.71	10.48
274.924	10.74
275.138	10.94
275.352	10.87
275.566	11.24
275.781	11.47
275.995	12.07
276.209	12.49
276.423	12.73
276.637	12.6
276.851	12.46
277.065	12.41
277.279	12.35
277.493	11.94
277.707	12.11
277.921	11.42
278.135	11.39
278.349	10.96
278.563	10.85
278.777	11.06
278.991	11.01
279.205	10.89
279.419	11.14
279.633	11.16
279.847	11.22
280.061	10.7
280.275	10.25
280.489	10.47
280.703	10.76
280.917	10.46
281.131	10.14
281.344	9.73
281.558	9.61
281.772	9.43
281.986	9.51
282.2	9.68
282.414	9.84
282.627	9.68
282.841	9.58
283.055	9.17
283.269	9.31
283.482	9.3
283.696	9.2
283.91	9.11
284.123	8.48
284.337	8.13
284.551	8.12
284.764	8.02
284.978	7.83
285.192	7.48
285.405	7.57
285.619	7.35
285.833	7.45
286.046	7.66
286.26	7.63
286.473	8.08
286.687	8.26
286.9	8.04
287.114	7.89
287.327	8.19
287.541	8.7
287.754	8.78
287.968	9.28
288.181	9.3
288.395	9.4
288.608	9.44
288.822	9.49
289.035	9.38
289.248	9.25
289.462	9.18
289.675	9.3
289.889	9.09
290.102	8.76
290.315	8.47
290.529	8.47
290.742	8.4
290.955	8.4
291.169	8.51
291.382	8.54
291.595	8.7
291.808	9.07
292.022	9.12
292.235	9.25
292.448	9.59
292.661	9.79
292.875	9.56
293.088	9.62
293.301	9.51
293.514	9.23
293.727	9.1
293.94	9.17
294.153	8.87
294.367	8.92
294.58	8.3
294.793	8.13
295.006	7.86
295.219	7.91
295.432	8.03
295.645	7.93
295.858	7.83
296.071	7.67
296.284	7.36
296.497	7.29
296.71	7.12
296.923	7.48
297.136	7.46
297.349	7.35
297.562	7.41
297.775	7.07
297.988	7.08
298.201	7.11
298.414	7.17
298.626	7.27
298.839	7.35
299.052	7.38
299.265	7.52
299.478	7.73
299.691	8.22
299.903	8.46
300.116	9.17
300.329	9.55
300.542	9.71
300.755	9.96
300.967	10.3
301.18	10.28
301.393	10.42
301.605	10.18
301.818	9.96
302.031	9.77
302.243	9.44
302.456	8.95
302.669	8.77
302.881	8.59
303.094	8.8
303.307	8.89
303.519	9.03
303.732	9.15
303.944	8.98
304.157	9.19
304.37	9.07
304.582	9.23
304.795	9.43
305.007	9.28
305.22	9.55
305.432	9.4
305.645	9.19
305.857	9.54
306.069	9.86
306.282	9.64
306.494	9.79
306.707	9.99
306.919	9.86
307.132	9.57
307.344	9.66
307.556	9.73
307.769	9.59
307.981	9.37
308.193	8.84
308.406	8.55
308.618	8.9
308.83	8.87
309.043	8.73
309.255	8.81
309.467	8.84
309.679	8.85
309.892	8.69
310.104	8.61
310.316	8.82
310.528	8.97
310.74	8.92
310.953	8.64
311.165	8.66
311.377	8.99
311.589	9.17
311.801	9.23
312.013	9.25
312.225	9.14
312.437	9.29
312.649	9.52
312.862	9.64
313.074	9.53
313.286	9.86
313.498	9.93
313.71	9.46
313.922	9.29
314.134	9.44
314.346	9.44
314.558	9.76
314.77	10.05
314.982	9.77
315.193	9.79
315.405	10.32
315.617	10.52
315.829	10.49
316.041	11.19
316.253	11.11
316.465	10.98
316.677	11.01
316.888	10.94
317.1	10.98
317.312	11.18
317.524	11.56
317.736	11.37
317.947	11.91
318.159	12.55
318.371	12.12
318.583	12.23
318.794	12.64
319.006	12.83
319.218	13.03
319.43	12.99
319.641	12.91
319.853	12.45
320.064	12.69
320.276	11.98
320.488	11.83
320.699	11.99
320.911	12.68
321.123	12.73
321.334	12.62
321.546	12.77
321.757	12.9
321.969	13.38
322.18	14.09
322.392	13.79
322.603	14
322.815	13.21
323.026	13.39
323.238	12.81
323.449	12.16
323.661	12.29
323.872	12.03
324.083	11.83
324.295	11.44
324.506	10.95
324.718	10.63
324.929	10.93
325.14	11.24
325.352	10.85
325.563	11.39
325.774	11.65
325.986	11.83
326.197	12.02
326.408	12.37
326.62	12.4
326.831	12.16
327.042	12.72
327.253	12.78
327.464	13.26
327.676	13.39
327.887	13.3
328.098	13.67
328.309	13.44
328.52	13.5
328.732	13.42
328.943	13.76
329.154	14.47
329.365	14.58
329.576	14.53
329.787	14.46
329.998	15.33
330.209	15.34
330.42	15.32
330.631	15.63
330.842	15.85
331.053	15.94
331.264	15.62
331.475	15.49
331.686	15.61
331.897	15.97
332.108	15.88
332.319	15.38
332.53	15.3
332.741	15.26
332.952	15.24
333.163	15.44
333.374	15.31
333.585	15.76
333.795	15.78
334.006	15.5
334.217	14.86
334.428	14.93
334.639	15.12
334.849	14.75
335.06	14.7
335.271	14.66
335.482	14.83
335.692	14.86
335.903	14.99
336.114	14.59
336.325	14.8
336.535	14.88
336.746	14.53
336.957	14.55
337.167	15
337.378	15.18
337.589	15.36
337.799	14.78
338.01	14.86
338.22	14.29
338.431	14.69
338.642	14.64
338.852	14.59
339.063	14.9
339.273	14.83
339.484	14.43
339.694	14.58
339.905	14.54
340.115	14.82
340.326	14.46
340.536	14.75
340.746	14.78
340.957	14.72
341.167	15.14
341.378	15.19
341.588	15.13
341.799	15.5
342.009	14.93
342.219	14.78
342.43	14.47
342.64	14.89
342.85	14.8
343.061	14.49
343.271	14.69
343.481	14.41
343.691	14.07
343.902	14.22
344.112	14.1
344.322	14.14
344.532	14.23
344.743	14.08
344.953	13.67
345.163	13.58
345.373	13.56
345.583	13.34
345.793	13.54
346.004	13.65
346.214	13.4
346.424	13.48
346.634	14.02
346.844	13.71
347.054	14.12
347.264	14.08
347.474	14.19
347.684	14.31
347.894	14.53
348.104	14.28
348.314	14.03
348.524	13.73
348.734	13.55
348.944	13.13
349.154	13.22
349.364	12.86
349.574	13.26
349.784	13.38
349.994	13.46
350.204	13.37
350.413	13.31
350.623	13.44
350.833	13.57
351.043	13.59
351.253	13.57
351.463	13.4
351.672	13.95
351.882	13.81
352.092	13.8
352.302	13.61
352.511	13.69
352.721	13.75
352.931	13.73
353.141	13.76
353.35	13.82
353.56	13.63
353.77	13.55
353.979	13
354.189	12.93
354.399	12.71
354.608	12.69
354.818	12.24
355.027	12.22
355.237	12.37
355.447	12.47
355.656	12.17
355.866	12.44
356.075	12.61
356.285	12.89
356.494	12.88
356.704	12.87
356.913	13
357.123	13.33
357.332	13.25
357.542	13.06
357.751	12.89
357.96	13.23
358.17	12.97
358.379	12.93
358.589	12.8
358.798	12.84
359.007	12.79
359.217	12.77
359.426	12.37
359.635	12.27
359.845	12.23
360.054	12.18
360.263	11.8
360.472	11.78
360.682	11.68
360.891	11.59
361.1	11.44
361.309	11.37
361.519	11.35
361.728	11.19
361.937	11.14
362.146	11.14
362.355	11.06
362.564	11.19
362.774	11.16
362.983	11.12
363.192	11.2
363.401	11.15
363.61	11.16
363.819	11.1
364.028	11.5
364.237	11.63
364.446	11.64
364.655	11.82
364.864	11.64
365.073	11.77
365.282	11.71
365.491	11.46
365.7	11.45
365.909	11.31
366.118	11.45
366.327	11.68
366.536	11.73
366.745	11.72
366.954	11.61
367.162	11.73
367.371	11.69
367.58	12.01
367.789	12.07
367.998	12.24
368.207	12.29
368.415	12.18
368.624	12.05
368.833	12.01
369.042	12.03
369.25	12.19
369.459	12.48
369.668	12.43
369.877	12.23
370.085	12.35
370.294	12.42
370.503	12.59
370.711	12.42
370.92	12.2
371.129	12.23
371.337	12.12
371.546	12.06
371.754	11.93
371.963	11.89
372.171	11.92
372.38	12.09
372.589	11.79
372.797	11.64
373.006	11.76
373.214	11.58
373.423	11.58
373.631	11.52
373.84	11.47
374.048	11.28
374.256	11.34
374.465	11.53
374.673	11.39
374.882	11.55
375.09	11.84
375.298	11.88
375.507	11.97
375.715	11.89
375.923	11.93
376.132	11.91
376.34	11.83
376.548	11.63
376.757	11.42
376.965	11.46
377.173	11.39
377.381	11.01
377.59	11.12
377.798	11.13
378.006	11.06
378.214	11.24
378.423	11.21
378.631	11.26
378.839	11.46
379.047	11.45
379.255	11.38
379.463	11.36
379.671	11.49
379.879	11.11
380.088	10.96
380.296	10.77
380.504	10.59
380.712	10.39
380.92	10.49
381.128	10.33
381.336	10.32
381.544	10.15
381.752	10.01
381.96	9.96
382.168	10.06
382.376	10.17
382.584	10.3
382.791	10.37
382.999	10.45
383.207	10.28
383.415	10.43
383.623	10.41
383.831	10.35
384.039	10.3
384.247	10.3
384.454	10.48
384.662	10.51
384.87	10.57
385.078	10.5
385.285	10.44
385.493	10.45
385.701	10.24
385.909	10.18
386.116	10.36
386.324	10.38
386.532	10.27
386.739	10.09
386.947	10.02
387.155	10
387.362	9.93
387.57	9.81
387.778	9.79
387.985	9.81
388.193	9.76
388.4	9.66
388.608	9.83
388.816	9.86
389.023	9.93
389.231	9.93
389.438	9.7
389.646	9.67
389.853	9.84
390.061	9.77
390.268	9.9
390.475	9.7
390.683	9.77
390.89	9.52
391.098	9.47
391.305	9.39
391.512	9.15
391.72	9.24
391.927	9.23
392.135	9.29
392.342	9.33
392.549	9.16
392.756	9.22
392.964	8.98
393.171	9.18
393.378	9.22
393.586	9.11
393.793	9.11
394	9.05
394.207	9.05
394.414	8.94
394.622	8.86
394.829	8.7
395.036	8.75
395.243	8.78
395.45	8.62
395.657	8.49
395.864	8.57
396.072	8.59
396.279	8.69
396.486	8.62
396.693	8.49
396.9	8.44
397.107	8.65
397.314	8.82
397.521	8.8
397.728	8.81
397.935	8.87
398.142	8.67
398.349	8.84
398.556	8.79
398.763	8.8
398.97	8.86
399.177	8.89
399.383	8.78
399.59	8.68
399.797	8.68
400.004	8.63
400.211	8.68
400.418	8.86
400.625	8.7
400.831	8.75
401.038	8.8
401.245	8.81
401.452	8.82
401.658	8.75
401.865	8.9
402.072	8.89
402.279	9.01
402.485	8.78
402.692	8.54
402.899	8.43
403.105	8.3
403.312	8.19
403.519	8
403.725	7.93
403.932	7.86
404.138	7.62
404.345	7.63
404.552	7.4
404.758	7.48
404.965	7.44
405.171	7.52
405.378	7.47
405.584	7.45
405.791	7.53
405.997	7.54
406.204	7.74
406.41	7.69
406.617	7.71
406.823	7.84
407.029	7.86
407.236	7.88
407.442	7.9
407.649	7.97
407.855	8.09
408.061	8.2
408.268	8.32
408.474	8.26
408.68	8.39
408.887	8.3
409.093	8.21
409.299	8.3
409.505	8.52
409.712	8.5
409.918	8.41
410.124	8.24
410.33	8.14
410.537	7.94
410.743	7.78
410.949	7.74
411.155	7.8
411.361	7.86
411.567	7.64
411.773	7.55
411.98	7.53
412.186	7.56
412.392	7.76
412.598	7.8
412.804	7.77
413.01	7.9
413.216	7.86
413.422	7.78
413.628	7.67
413.834	7.83
414.04	7.86
414.246	7.9
414.452	7.76
414.658	7.64
414.864	7.47
415.07	7.6
415.275	7.49
415.481	7.46
415.687	7.26
415.893	7.3
416.099	7.26
416.305	7.12
416.511	7.12
416.716	6.98
416.922	6.76
417.128	6.76
417.334	6.6
417.539	6.64
417.745	6.4
417.951	6.41
418.157	6.32
418.362	6.18
418.568	6.11
418.774	5.82
418.979	5.91
419.185	5.96
419.391	5.86
419.596	5.8
419.802	5.64
420.008	5.73
420.213	5.71
420.419	5.73
420.624	5.71
420.83	5.77
421.035	5.84
421.241	5.72
421.446	5.69
421.652	5.7
421.857	5.7
422.063	5.75
422.268	5.7
422.474	5.73
422.679	5.69
422.885	5.6
423.09	5.52
423.295	5.5
423.501	5.53
423.706	5.53
423.911	5.51
424.117	5.47
424.322	5.35
424.527	5.34
424.733	5.31
424.938	5.3
425.143	5.39
425.349	5.35
425.554	5.36
425.759	5.41
425.964	5.42
426.169	5.53
426.375	5.57
426.58	5.73
426.785	5.78
426.99	5.84
427.195	5.84
427.4	5.87
427.605	5.96
427.811	6
428.016	5.96
428.221	6.06
428.426	6.02
428.631	5.98
428.836	6.03
429.041	6.05
429.246	6.02
429.451	6
429.656	5.91
429.861	5.95
430.066	5.98
430.271	6.04
430.476	6
430.681	6.05
430.886	6.12
431.09	6.15
431.295	6.15
431.5	6.11
431.705	6.15
431.91	6.25
432.115	6.15
432.32	6.14
432.524	6.02
432.729	6.02
432.934	5.9
433.139	5.87
433.343	5.85
433.548	5.84
433.753	5.93
433.958	5.91
434.162	5.95
434.367	6.1
434.572	6.19
434.776	6.24
434.981	6.27
435.186	6.38
435.39	6.54
435.595	6.54
435.799	6.48
436.004	6.39
436.209	6.48
436.413	6.41
436.618	6.24
436.822	6.15
437.027	6.13
437.231	6
437.436	5.98
437.64	5.89
437.845	5.78
438.049	5.86
438.253	5.87
438.458	5.76
438.662	5.71
438.867	5.71
439.071	5.66
439.275	5.59
439.48	5.59
439.684	5.49
439.888	5.41
440.093	5.46
440.297	5.4
440.501	5.4
440.706	5.35
440.91	5.35
441.114	5.41
441.318	5.49
441.523	5.54
441.727	5.52
441.931	5.58
442.135	5.65
442.339	5.7
442.543	5.73
442.748	5.75
442.952	5.81
443.156	5.79
443.36	5.73
443.564	5.6
443.768	5.66
443.972	5.59
444.176	5.53
444.38	5.45
444.584	5.33
444.788	5.31
444.992	5.24
445.196	5.17
445.4	5.21
445.604	5.21
445.808	5.26
446.012	5.16
446.216	5.19
446.42	5.19
446.624	5.21
446.828	5.21
447.032	5.13
447.235	5.18
447.439	5.2
447.643	5.18
447.847	5.15
448.051	5.17
448.254	5.21
448.458	5.23
448.662	5.22
448.866	5.21
449.069	5.34
449.273	5.45
449.477	5.38
449.681	5.42
449.884	5.48
450.088	5.64
450.292	5.58
450.495	5.66
450.699	5.63
450.902	5.64
451.106	5.66
451.31	5.57
451.513	5.58
451.717	5.64
451.92	5.65
452.124	5.67
452.327	5.53
452.531	5.54
452.734	5.42
452.938	5.47
453.141	5.65
453.345	5.67
453.548	5.67
453.752	5.66
453.955	5.67
454.158	5.64
454.362	5.61
454.565	5.65
454.769	5.66
454.972	5.7
455.175	5.67
455.379	5.65
455.582	5.66
455.785	5.68
455.988	5.58
456.192	5.65
456.395	5.68
456.598	5.69
456.801	5.69
457.005	5.7
457.208	5.7
457.411	5.71
457.614	5.52
457.817	5.45
458.021	5.45
458.224	5.52
458.427	5.33
458.63	5.25
458.833	5.24
459.036	5.15
459.239	5.06
459.442	4.98
459.645	4.89
459.848	4.89
