Data from 2938712__Reflection_02.txt Node
Date: Tue Mar 17 19:21:43 EDT 2015
User: robert
Spectrometer: USB4E03002
Autoset integration time: false
Trigger mode: 4
Integration Time (sec): 1.000000E-1
Scans to average: 10
Electric dark correction enabled: false
Nonlinearity correction enabled: false
Boxcar width: 5
Stray light correction enabled: false
XAxis mode: Wavelengths
Stop averaging: false
Number of Pixels in Spectrum: 3648
>>>>>Begin Spectral Data<<<<<
177.575	5.15
177.794	13.56
178.014	11.95
178.233	16.72
178.452	19.84
178.672	22.82
178.891	25.9
179.11	59.38
179.33	200.49
179.549	183.76
179.768	-7966.67
179.987	-81.36
180.207	-72.55
180.426	1015.79
180.645	300
180.864	153.85
181.084	185.19
181.303	3842.86
181.522	389.47
181.741	97.86
181.96	65.8
182.179	50.77
182.398	72.99
182.618	50.79
182.837	40.55
183.056	48.95
183.275	66.02
183.494	58.12
183.713	56.74
183.932	37.24
184.151	38.62
184.37	54.56
184.589	57.19
184.808	52.26
185.027	77.79
185.246	74.81
185.465	74.83
185.684	66.52
185.903	99.09
186.122	129.54
186.341	125.92
186.56	95.2
186.779	60.94
186.998	98.07
187.216	85.33
187.435	102.1
187.654	114.26
187.873	102.83
188.092	95.92
188.311	80.26
188.53	85.8
188.748	85.95
188.967	94.16
189.186	119.65
189.405	97.46
189.623	122.12
189.842	78.48
190.061	79.27
190.28	89.28
190.498	76.26
190.717	84.7
190.936	63.55
191.154	64.94
191.373	60.75
191.592	60.38
191.81	68.79
192.029	53
192.248	69.75
192.466	63.69
192.685	65.71
192.904	68.85
193.122	66.2
193.341	66.24
193.559	83.9
193.778	79.94
193.996	83.27
194.215	76.8
194.433	89.56
194.652	82.7
194.87	90.24
195.089	84.95
195.307	92.07
195.526	108.85
195.744	127.44
195.963	118.06
196.181	125.07
196.399	111.3
196.618	126.44
196.836	129.93
197.055	96.01
197.273	92.02
197.491	58.33
197.71	98.63
197.928	31.84
198.146	51.16
198.365	97.22
198.583	128.21
198.801	166.98
199.019	158.8
199.238	117.07
199.456	120.9
199.674	127.56
199.892	120.18
200.111	115.46
200.329	122.33
200.547	106.26
200.765	83.55
200.983	68.75
201.202	63.52
201.42	81.03
201.638	85.22
201.856	92.32
202.074	96.22
202.292	111.25
202.51	89.84
202.728	86.04
202.946	79.89
203.165	95.71
203.383	99.34
203.601	109.67
203.819	89.51
204.037	79.37
204.255	96.41
204.473	87.56
204.691	76.13
204.909	66.35
205.127	76.83
205.345	66.1
205.562	50.71
205.78	52.18
205.998	36.4
206.216	41.04
206.434	40.04
206.652	31.49
206.87	18.58
207.088	13.66
207.306	34.27
207.523	15.2
207.741	25.36
207.959	15.37
208.177	11
208.395	8.11
208.612	5.32
208.83	20.51
209.048	25.79
209.266	40.4
209.483	48.9
209.701	41.94
209.919	54.78
210.136	46.08
210.354	60.84
210.572	56.03
210.79	55.36
211.007	55.52
211.225	60.08
211.442	57.24
211.66	75.48
211.878	57.33
212.095	129.05
212.313	119.41
212.53	104.52
212.748	107.76
212.966	108.98
213.183	121.57
213.401	113.28
213.618	100.4
213.836	94.47
214.053	79.86
214.271	74.93
214.488	30.78
214.705	42.66
214.923	56.06
215.14	49.45
215.358	48.07
215.575	53.33
215.793	37.45
216.01	28.85
216.227	29.19
216.445	23.49
216.662	26.63
216.879	15.31
217.097	-3.27
217.314	-2.13
217.531	9.74
217.749	17.43
217.966	11.81
218.183	35.76
218.4	34
218.618	22.71
218.835	35.09
219.052	35.84
219.269	45.74
219.487	47.28
219.704	46.09
219.921	48.85
220.138	47.79
220.355	50.18
220.572	33.91
220.79	37.41
221.007	39.86
221.224	29.66
221.441	25.99
221.658	17.65
221.875	18.31
222.092	10.83
222.309	2.89
222.526	-0.04
222.743	-1.03
222.96	4.6
223.177	-3.03
223.394	-1.54
223.611	4.03
223.828	6.89
224.045	5.96
224.262	-1.93
224.479	3.26
224.696	5.9
224.913	5.91
225.13	3.52
225.347	1.8
225.564	4.13
225.781	1.6
225.997	4.77
226.214	2.7
226.431	6.16
226.648	9.21
226.865	7.72
227.082	7.06
227.298	7.58
227.515	8
227.732	8.3
227.949	7.73
228.165	7.74
228.382	7.29
228.599	7.44
228.816	6.22
229.032	5.15
229.249	4.81
229.466	4.46
229.682	3.14
229.899	2.65
230.116	2.07
230.332	2.17
230.549	1.78
230.765	1.58
230.982	1.41
231.199	1.38
231.415	2.34
231.632	2.44
231.848	2.06
232.065	3.83
232.281	4.65
232.498	6.05
232.714	6.7
232.931	7.34
233.147	6.98
233.364	6.01
233.58	7.34
233.797	5.71
234.013	6.27
234.23	7.4
234.446	6.44
234.662	6.71
234.879	5.44
235.095	5.45
235.312	5.22
235.528	5.41
235.744	7.74
235.961	7.08
236.177	8.87
236.393	7.81
236.61	6.96
236.826	6.66
237.042	4.77
237.258	5.87
237.475	4.81
237.691	4.31
237.907	3
238.123	2.69
238.339	1.58
238.556	0.48
238.772	0.83
238.988	2.48
239.204	4.32
239.42	6.31
239.636	6.09
239.853	5.7
240.069	6.33
240.285	7.08
240.501	6.15
240.717	6.11
240.933	6.56
241.149	6.77
241.365	5.76
241.581	4.75
241.797	4.71
242.013	4.43
242.229	5.52
242.445	5.12
242.661	4.56
242.877	4.92
243.093	5.23
243.309	4.91
243.525	5.27
243.741	5.6
243.957	6.1
244.173	5.94
244.388	5.98
244.604	4.5
244.82	4.54
245.036	5.04
245.252	4.84
245.468	5.37
245.683	5.24
245.899	5.11
246.115	5.76
246.331	5.45
246.547	5.39
246.762	5.36
246.978	5.55
247.194	5.59
247.409	5.79
247.625	5.86
247.841	5.37
248.057	5.51
248.272	5.62
248.488	5.07
248.703	5.16
248.919	5.29
249.135	5.29
249.35	5.62
249.566	6.22
249.782	5.91
249.997	5.63
250.213	5.84
250.428	6.43
250.644	6.26
250.859	6.95
251.075	7.08
251.29	6.88
251.506	6.68
251.721	6.37
251.937	5.86
252.152	5.88
252.368	5.52
252.583	5.74
252.798	5.14
253.014	4.71
253.229	4.4
253.445	4.15
253.66	4.74
253.875	4.89
254.091	4.61
254.306	4.43
254.521	4.61
254.737	4.59
254.952	5.54
255.167	5.29
255.383	5.51
255.598	5.22
255.813	5.68
256.028	4.84
256.244	4.64
256.459	5
256.674	5.24
256.889	5.18
257.104	5.76
257.32	4.97
257.535	4.72
257.75	5.01
257.965	5.04
258.18	4.85
258.395	4.37
258.61	4.45
258.826	4.36
259.041	4.38
259.256	4.43
259.471	4.32
259.686	4.24
259.901	4.39
260.116	4.34
260.331	4.35
260.546	4.29
260.761	4.22
260.976	4.16
261.191	3.95
261.406	3.87
261.621	3.61
261.836	3.74
262.05	3.57
262.265	3.47
262.48	2.96
262.695	2.53
262.91	2.5
263.125	2.87
263.34	2.1
263.555	2.55
263.769	2.39
263.984	2.38
264.199	2.05
264.414	1.82
264.629	2.05
264.843	1.98
265.058	2.05
265.273	2.48
265.488	2.62
265.702	3.56
265.917	2.95
266.132	3.12
266.346	3.12
266.561	3.12
266.776	3.47
266.99	3.6
267.205	4.09
267.42	4.31
267.634	4.32
267.849	4.14
268.063	3.99
268.278	4.23
268.492	4.05
268.707	3.85
268.922	4.48
269.136	4.67
269.351	4.76
269.565	4.68
269.78	4.27
269.994	3.57
270.209	3.81
270.423	3.33
270.637	3.21
270.852	3.57
271.066	3.97
271.281	3.46
271.495	3.28
271.709	2.92
271.924	2.83
272.138	3.04
272.353	3.6
272.567	3.31
272.781	3.77
272.996	3.9
273.21	3.65
273.424	3.32
273.638	3.22
273.853	3.29
274.067	3.15
274.281	3.01
274.495	2.91
274.71	2.21
274.924	2.01
275.138	1.96
275.352	1.87
275.566	1.87
275.781	2.15
275.995	2.28
276.209	2.25
276.423	2.4
276.637	2.46
276.851	2.5
277.065	3.17
277.279	3.6
277.493	3.64
277.707	3.55
277.921	3.32
278.135	3.56
278.349	3.29
278.563	3.27
278.777	3.47
278.991	3.41
279.205	3.39
279.419	2.83
279.633	2.96
279.847	3.03
280.061	2.79
280.275	2.98
280.489	2.92
280.703	2.93
280.917	3.23
281.131	3.46
281.344	3.55
281.558	3.44
281.772	3.79
281.986	3.78
282.2	3.61
282.414	3.44
282.627	3.31
282.841	3.12
283.055	3.09
283.269	2.93
283.482	2.6
283.696	2.6
283.91	2.85
284.123	2.51
284.337	2.5
284.551	2.5
284.764	3.05
284.978	3.07
285.192	2.84
285.405	3.19
285.619	3.19
285.833	3.19
286.046	3.23
286.26	3.29
286.473	3.33
286.687	3.19
286.9	3.19
287.114	3.13
287.327	3.15
287.541	3.21
287.754	3.02
287.968	3.01
288.181	3.09
288.395	2.97
288.608	2.89
288.822	2.97
289.035	3.01
289.248	3.07
289.462	2.97
289.675	3.14
289.889	3.63
290.102	3.43
290.315	3.45
290.529	3.25
290.742	3.38
290.955	3.42
291.169	3.44
291.382	3.68
291.595	3.93
291.808	3.88
292.022	3.68
292.235	3.05
292.448	3.7
292.661	3.63
292.875	3.66
293.088	3.75
293.301	3.58
293.514	3.59
293.727	3.73
293.94	3.69
294.153	3.94
294.367	4.32
294.58	4.57
294.793	4.17
295.006	4.04
295.219	4.19
295.432	4.14
295.645	4.42
295.858	4.55
296.071	4.27
296.284	4.53
296.497	4.51
296.71	4.4
296.923	4.51
297.136	4.55
297.349	4.84
297.562	4.98
297.775	4.74
297.988	4.44
298.201	4.43
298.414	4.34
298.626	4.08
298.839	4.06
299.052	4.04
299.265	4.05
299.478	4.13
299.691	4.19
299.903	4.15
300.116	4.56
300.329	4.99
300.542	5.13
300.755	5.58
300.967	5.84
301.18	5.78
301.393	5.8
301.605	5.56
301.818	5.45
302.031	5.35
302.243	5.39
302.456	5.58
302.669	5.71
302.881	5.76
303.094	5.71
303.307	5.5
303.519	5.77
303.732	5.87
303.944	6.36
304.157	6.46
304.37	6.33
304.582	6.46
304.795	6.39
305.007	6
305.22	6.05
305.432	5.83
305.645	6.18
305.857	6.37
306.069	6.13
306.282	5.66
306.494	5.74
306.707	5.79
306.919	5.46
307.132	5.45
307.344	5.75
307.556	5.91
307.769	6.26
307.981	6.01
308.193	5.76
308.406	6.13
308.618	6.52
308.83	6.4
309.043	6.64
309.255	6.87
309.467	6.56
309.679	6.53
309.892	6.35
310.104	6.19
310.316	6.1
310.528	6.3
310.74	6.28
310.953	6.21
311.165	6.5
311.377	6.11
311.589	6.34
311.801	6.8
312.013	6.52
312.225	6.56
312.437	6.66
312.649	6.95
312.862	6.6
313.074	6.51
313.286	6.36
313.498	6.08
313.71	6.71
313.922	6.39
314.134	5.82
314.346	6.17
314.558	6.13
314.77	6.08
314.982	5.51
315.193	5.82
315.405	6.02
315.617	6.2
315.829	6.16
316.041	5.8
316.253	6.11
316.465	6.68
316.677	6.75
316.888	6.86
317.1	6.69
317.312	7.41
317.524	7.22
317.736	7.02
317.947	6.82
318.159	7.18
318.371	7.03
318.583	7.02
318.794	6.39
319.006	6.39
319.218	6.26
319.43	6.64
319.641	6.59
319.853	6.77
320.064	7.21
320.276	7.64
320.488	7.66
320.699	7.83
320.911	7.19
321.123	7.65
321.334	7.35
321.546	7.77
321.757	7.92
321.969	7.63
322.18	7.71
322.392	7.28
322.603	7.03
322.815	6.91
323.026	7.38
323.238	7.21
323.449	6.76
323.661	6.97
323.872	6.64
324.083	6.31
324.295	6.31
324.506	6.51
324.718	6.7
324.929	6.58
325.14	6.72
325.352	6.5
325.563	7.08
325.774	7.09
325.986	7.04
326.197	7.21
326.408	7.32
326.62	7.27
326.831	7.52
327.042	7.56
327.253	7.85
327.464	7.87
327.676	7.82
327.887	7.61
328.098	7.72
328.309	8.07
328.52	7.87
328.732	7.81
328.943	7.89
329.154	7.78
329.365	8.1
329.576	7.96
329.787	7.91
329.998	7.81
330.209	8.07
330.42	8.49
330.631	8.34
330.842	8.37
331.053	8.11
331.264	8.2
331.475	7.84
331.686	7.87
331.897	7.85
332.108	7.96
332.319	8.21
332.53	7.63
332.741	7.5
332.952	7.29
333.163	7.65
333.374	8.04
333.585	7.8
333.795	7.93
334.006	7.44
334.217	7.32
334.428	7.12
334.639	6.84
334.849	7.11
335.06	6.81
335.271	7.03
335.482	7.05
335.692	7.25
335.903	7.45
336.114	7.26
336.325	7.23
336.535	7.32
336.746	7.23
336.957	7.25
337.167	7.83
337.378	8.2
337.589	7.92
337.799	7.35
338.01	7.01
338.22	7.07
338.431	7.29
338.642	7.24
338.852	7.1
339.063	7.53
339.273	7.67
339.484	7.45
339.694	7.65
339.905	8.01
340.115	8.5
340.326	8.52
340.536	8.4
340.746	8.34
340.957	8.49
341.167	8.8
341.378	8.3
341.588	8.1
341.799	7.93
342.009	7.23
342.219	6.97
342.43	6.69
342.64	6.7
342.85	7.05
343.061	6.88
343.271	6.83
343.481	6.83
343.691	7
343.902	7.19
344.112	7.14
344.322	7.78
344.532	7.99
344.743	8.08
344.953	8.25
345.163	7.89
345.373	7.86
345.583	7.84
345.793	7.53
346.004	7.43
346.214	7.23
346.424	7.47
346.634	7.06
346.844	6.77
347.054	6.76
347.264	6.32
347.474	6.15
347.684	6.44
347.894	6.38
348.104	6.35
348.314	6.41
348.524	6.55
348.734	6.35
348.944	6.59
349.154	6.99
349.364	6.91
349.574	7.28
349.784	7.34
349.994	7.16
350.204	7.32
350.413	7.55
350.623	7.27
350.833	7.47
351.043	7.42
351.253	7.51
351.463	7.14
351.672	6.8
351.882	6.69
352.092	6.59
352.302	6.58
352.511	6.63
352.721	6.59
352.931	6.88
353.141	6.74
353.35	6.73
353.56	6.81
353.77	6.77
353.979	7.2
354.189	6.92
354.399	6.91
354.608	6.9
354.818	6.82
355.027	6.56
355.237	6.6
355.447	6.56
355.656	6.76
355.866	6.75
356.075	6.81
356.285	6.68
356.494	6.9
356.704	6.94
356.913	6.91
357.123	6.63
357.332	6.75
357.542	6.84
357.751	6.79
357.96	6.58
358.17	6.45
358.379	6.38
358.589	6.57
358.798	6.7
359.007	6.61
359.217	6.57
359.426	6.92
359.635	6.85
359.845	6.69
360.054	6.82
360.263	6.93
360.472	6.99
360.682	7.2
360.891	7.06
361.1	6.84
361.309	6.9
361.519	7.01
361.728	6.84
361.937	7
362.146	6.89
362.355	6.67
362.564	6.71
362.774	6.6
362.983	6.36
363.192	6.42
363.401	6.39
363.61	6.3
363.819	6.15
364.028	6.12
364.237	5.95
364.446	6.36
364.655	6.51
364.864	6.59
365.073	6.64
365.282	6.68
365.491	6.57
365.7	6.73
365.909	6.84
366.118	6.63
366.327	6.55
366.536	6.66
366.745	6.29
366.954	6.32
367.162	5.78
367.371	5.54
367.58	5.48
367.789	5.34
367.998	5.02
368.207	5.05
368.415	5.37
368.624	5.3
368.833	5.07
369.042	5.2
369.25	5.25
369.459	5.56
369.668	5.68
369.877	5.58
370.085	5.52
370.294	5.71
370.503	5.63
370.711	5.38
370.92	5.66
371.129	5.93
371.337	5.72
371.546	5.61
371.754	5.54
371.963	5.53
372.171	5.65
372.38	5.53
372.589	5.56
372.797	5.42
373.006	5.39
373.214	5.3
373.423	5.05
373.631	5.14
373.84	4.95
374.048	4.88
374.256	4.7
374.465	4.56
374.673	4.99
374.882	4.95
375.09	5.11
375.298	5.12
375.507	5.22
375.715	5.09
375.923	5.04
376.132	5.14
376.34	5.13
376.548	5.11
376.757	5.2
376.965	4.98
377.173	4.96
377.381	4.94
377.59	5.16
377.798	5.01
378.006	5.17
378.214	5.14
378.423	4.92
378.631	4.85
378.839	4.81
379.047	4.79
379.255	4.71
379.463	4.65
379.671	4.54
379.879	4.21
380.088	4.25
380.296	4.18
380.504	4.19
380.712	4.16
380.92	4.25
381.128	4.3
381.336	4.3
381.544	4.3
381.752	4.17
381.96	4.1
382.168	4.14
382.376	4.16
382.584	4.02
382.791	3.95
382.999	4.02
383.207	4.02
383.415	4
383.623	4.14
383.831	4.03
384.039	4.26
384.247	4.57
384.454	4.47
384.662	4.25
384.87	4.29
385.078	4.38
385.285	4.29
385.493	4.1
385.701	4.15
385.909	3.86
386.116	3.88
386.324	3.83
386.532	3.58
386.739	3.88
386.947	3.97
387.155	4.13
387.362	4.04
387.57	4.26
387.778	4.49
387.985	4.43
388.193	4.6
388.4	4.53
388.608	4.49
388.816	4.29
389.023	4.08
389.231	3.91
389.438	3.77
389.646	3.67
389.853	3.53
390.061	3.51
390.268	3.41
390.475	3.35
390.683	3.39
390.89	3.3
391.098	3.51
391.305	3.67
391.512	3.85
391.72	3.77
391.927	3.74
392.135	3.67
392.342	3.48
392.549	3.59
392.756	3.58
392.964	3.55
393.171	3.46
393.378	3.39
393.586	3.15
393.793	3.19
394	3.28
394.207	3.41
394.414	3.41
394.622	3.34
394.829	3.33
395.036	3.3
395.243	3.33
395.45	3.62
395.657	3.56
395.864	3.68
396.072	3.55
396.279	3.53
396.486	3.5
396.693	3.55
396.9	3.79
397.107	3.71
397.314	3.87
397.521	3.8
397.728	3.49
397.935	3.5
398.142	3.43
398.349	3.34
398.556	3.24
398.763	3.34
398.97	3.49
399.177	3.33
399.383	3.22
399.59	3.11
399.797	3.46
400.004	3.64
400.211	3.62
400.418	3.45
400.625	3.71
400.831	3.99
401.038	3.66
401.245	3.5
401.452	3.45
401.658	3.59
401.865	3.4
402.072	3.14
402.279	3.21
402.485	3.02
402.692	3.19
402.899	3.11
403.105	2.89
403.312	2.92
403.519	3
403.725	3.1
403.932	3.21
404.138	3.39
404.345	3.41
404.552	3.37
404.758	3.59
404.965	3.56
405.171	3.56
405.378	3.56
405.584	3.68
405.791	3.63
405.997	3.54
406.204	3.47
406.41	3.49
406.617	3.57
406.823	3.39
407.029	3.36
407.236	3.26
407.442	3.21
407.649	3.19
407.855	3.05
408.061	3.1
408.268	3.06
408.474	2.9
408.68	2.89
408.887	2.75
409.093	2.71
409.299	2.8
409.505	2.92
409.712	2.87
409.918	2.84
410.124	2.95
410.33	2.82
410.537	2.88
410.743	3.01
410.949	3.01
411.155	2.97
411.361	3.13
411.567	3.07
411.773	3.08
411.98	3.18
412.186	3.21
412.392	3.06
412.598	3.27
412.804	3.37
413.01	3.24
413.216	3.1
413.422	3.27
413.628	3.35
413.834	3.28
414.04	3.34
414.246	3.23
414.452	3.3
414.658	3.35
414.864	3.24
415.07	3.08
415.275	3.16
415.481	3.14
415.687	3.02
415.893	2.92
416.099	2.92
416.305	2.86
416.511	2.8
416.716	2.61
416.922	2.69
417.128	2.75
417.334	2.9
417.539	2.89
417.745	2.95
417.951	2.99
418.157	2.96
418.362	3.05
418.568	3.08
418.774	3.16
418.979	3.23
419.185	3.27
419.391	3.09
419.596	3.03
419.802	2.93
420.008	2.92
420.213	2.21
420.419	2.23
420.624	2.2
420.83	2.11
421.035	2.09
421.241	2.11
421.446	2.06
421.652	2.13
421.857	2.13
422.063	2.27
422.268	2.27
422.474	2.86
422.679	2.87
422.885	2.85
423.09	2.87
423.295	2.85
423.501	2.86
423.706	2.84
423.911	2.85
424.117	2.82
424.322	2.82
424.527	2.8
424.733	2.8
424.938	2.76
425.143	2.77
425.349	2.84
425.554	2.89
425.759	2.84
425.964	2.88
426.169	2.91
426.375	2.99
426.58	3.01
426.785	2.99
426.99	3.08
427.195	3.08
427.4	2.95
427.605	2.94
427.811	2.9
428.016	2.91
428.221	2.92
428.426	2.78
428.631	2.66
428.836	2.54
429.041	2.53
429.246	2.45
429.451	2.56
429.656	2.66
429.861	2.72
430.066	2.69
430.271	2.84
430.476	2.81
430.681	2.92
430.886	2.98
431.09	3.08
431.295	3.14
431.5	3.19
431.705	3.23
431.91	3.21
432.115	3.13
432.32	3.04
432.524	3.01
432.729	3.01
432.934	2.99
433.139	2.99
433.343	2.86
433.548	2.87
433.753	2.87
433.958	2.79
434.162	2.82
434.367	2.82
434.572	2.98
434.776	2.98
434.981	2.99
435.186	3.04
435.39	3.05
435.595	3.2
435.799	3.27
436.004	3.29
436.209	3.24
436.413	3.14
436.618	3.08
436.822	2.97
437.027	2.91
437.231	2.89
437.436	2.84
437.64	2.85
437.845	2.78
438.049	2.7
438.253	2.68
438.458	2.79
438.662	2.86
438.867	2.9
439.071	2.86
439.275	2.95
439.48	2.94
439.684	2.9
439.888	2.87
440.093	2.82
440.297	2.82
440.501	2.85
440.706	2.76
440.91	2.69
441.114	2.68
441.318	2.7
441.523	2.68
441.727	2.71
441.931	2.77
442.135	2.77
442.339	2.81
442.543	2.77
442.748	2.7
442.952	2.76
443.156	2.86
443.36	2.79
443.564	2.8
443.768	2.67
443.972	2.58
444.176	2.54
444.38	2.61
444.584	2.52
444.788	2.59
444.992	2.58
445.196	2.59
445.4	2.57
445.604	2.62
445.808	2.66
446.012	2.75
446.216	2.8
446.42	2.85
446.624	2.79
446.828	2.84
447.032	2.84
447.235	2.81
447.439	2.76
447.643	2.79
447.847	2.8
448.051	2.8
448.254	2.72
448.458	2.69
448.662	2.69
448.866	2.7
449.069	2.78
449.273	2.71
449.477	2.79
449.681	2.76
449.884	2.72
450.088	2.78
450.292	2.81
450.495	2.83
450.699	2.85
450.902	2.76
451.106	2.74
451.31	2.58
451.513	2.63
451.717	2.61
451.92	2.64
452.124	2.66
452.327	2.61
452.531	2.58
452.734	2.55
452.938	2.59
453.141	2.58
453.345	2.66
453.548	2.78
453.752	2.73
453.955	2.68
454.158	2.7
454.362	2.59
454.565	2.55
454.769	2.54
454.972	2.6
455.175	2.56
455.379	2.49
455.582	2.43
455.785	2.41
455.988	2.37
456.192	2.47
456.395	2.43
456.598	2.46
456.801	2.49
457.005	2.48
457.208	2.46
457.411	2.41
457.614	2.53
457.817	2.5
458.021	2.52
458.224	2.58
458.427	2.5
458.63	2.53
458.833	2.58
459.036	2.59
459.239	2.53
459.442	2.59
459.645	2.63
459.848	2.63
460.051	2.69
460.254	2.58
460.457	2.56
460.66	2.59
460.863	2.6
461.066	2.53
461.269	2.56
461.472	2.65
461.675	2.56
461.878	2.54
462.081	2.47
462.284	2.39
462.486	2.53
462.689	2.62
462.892	2.62
463.095	2.65
463.298	2.78
463.5	2.65
463.703	2.49
463.906	2.43
464.109	2.47
464.311	2.6
464.514	2.66
464.717	2.7
464.92	2.54
465.122	2.55
465.325	2.54
465.528	2.55
465.73	2.69
465.933	2.86
466.135	3.01
466.338	3.03
466.541	3.07
466.743	3.04
466.946	3.02
467.148	3.05
467.351	3.01
467.553	3.12
467.756	3.04
467.958	2.95
468.161	2.98
468.363	2.98
468.566	2.9
468.768	2.77
468.971	2.79
469.173	2.79
469.375	2.83
469.578	2.84
469.78	2.8
469.983	2.84
470.185	2.96
470.387	2.93
470.59	2.89
470.792	2.91
470.994	3
471.196	2.94
471.399	2.95
471.601	3.01
471.803	2.95
472.005	3
472.208	3.01
472.41	2.93
472.612	2.93
472.814	2.88
