Data from 2938736__Reflection_04.txt Node
Date: Sun Mar 15 18:19:41 EDT 2015
User: robert
Spectrometer: USB4E03002
Autoset integration time: false
Trigger mode: 4
Integration Time (sec): 1.000000E-1
Scans to average: 10
Electric dark correction enabled: false
Nonlinearity correction enabled: false
Boxcar width: 5
Stray light correction enabled: false
XAxis mode: Wavelengths
Stop averaging: false
Number of Pixels in Spectrum: 3648
>>>>>Begin Spectral Data<<<<<
177.575	374.55
177.794	353.39
178.014	268.38
178.233	344.61
178.452	399.38
178.672	434.6
178.891	424.46
179.11	628.86
179.33	-2049.15
179.549	-2003.51
179.768	-30620
179.987	-4435.48
180.207	-7050
180.426	-1019.86
180.645	-2073.53
180.864	8737.5
181.084	1876.81
181.303	1709.3
181.522	818.95
181.741	378.28
181.96	526.32
182.179	418.82
182.398	389.53
182.618	520.21
182.837	631.22
183.056	806.21
183.275	1137.6
183.494	3200
183.713	6525
183.932	-1441.24
184.151	-998.57
184.37	-1067.65
184.589	-1185.16
184.808	-550.8
185.027	-1828
185.246	5053.13
185.465	6904.55
185.684	2273.77
185.903	473.78
186.122	368.7
186.341	236.72
186.56	233.02
186.779	142.25
186.998	146.03
187.216	146.15
187.435	163.75
187.654	143.44
187.873	141.55
188.092	151.28
188.311	169.19
188.53	181.57
188.748	270.68
188.967	193.43
189.186	221.14
189.405	315.58
189.623	340.52
189.842	305.43
190.061	258.47
190.28	251.39
190.498	302.73
190.717	328.75
190.936	257.56
191.154	240.13
191.373	380.66
191.592	541.33
191.81	409.52
192.029	351.15
192.248	401.3
192.466	452.75
192.685	404.47
192.904	411.61
193.122	632.02
193.341	442.61
193.559	313.2
193.778	288.12
193.996	282.62
194.215	246.73
194.433	252.25
194.652	204.32
194.87	251.75
195.089	256.66
195.307	302.41
195.526	298.57
195.744	545.42
195.963	600.38
196.181	2952
196.399	22957.14
196.618	-10506.25
196.836	-25271.43
197.055	-1812.5
197.273	-769.61
197.491	-408.01
197.71	-339.15
197.928	-549.77
198.146	-840.69
198.365	-1954.24
198.583	2273.47
198.801	534.48
199.019	467.84
199.238	409.82
199.456	312.06
199.674	189.18
199.892	157.2
200.111	151.42
200.329	300.65
200.547	302.68
200.765	380.81
200.983	495.8
201.202	1113.56
201.42	833.82
201.638	-13800
201.856	-697.37
202.074	-23166.67
202.292	2514.71
202.51	1134.78
202.728	1806.25
202.946	-2063.27
203.165	-2476.19
203.383	2551.16
203.601	-2157.45
203.819	-1105.26
204.037	-1219.1
204.255	-551.32
204.473	-307.34
204.691	-328.15
204.909	-259.21
205.127	-236.87
205.345	-378.75
205.562	-335.99
205.78	-302.26
205.998	-685.19
206.216	-958.77
206.434	-2019.64
206.652	-2171.15
206.87	-1958.93
207.088	-777.55
207.306	-1748.39
207.523	2706.38
207.741	1267.44
207.959	525.88
208.177	577.88
208.395	512.93
208.612	434.75
208.83	417.86
209.048	321.33
209.266	229.74
209.483	173.23
209.701	245.39
209.919	209.76
210.136	228.4
210.354	260.22
210.572	279.87
210.79	338.29
211.007	344.82
211.225	293.08
211.442	280.78
211.66	255.47
211.878	254.91
212.095	238.31
212.313	258.72
212.53	330.24
212.748	293.3
212.966	271.63
213.183	276.59
213.401	254.46
213.618	279.26
213.836	280.7
214.053	308.01
214.271	364.32
214.488	389.34
214.705	386.27
214.923	369.21
215.14	306.34
215.358	371.8
215.575	262.6
215.793	276.45
216.01	294.31
216.227	308.02
216.445	266.79
216.662	246.84
216.879	220.77
217.097	230.82
217.314	216.24
217.531	173.07
217.749	151.97
217.966	167.65
218.183	139.12
218.4	126.01
218.618	101.02
218.835	134.9
219.052	113.51
219.269	111.21
219.487	105.41
219.704	100.41
219.921	104.8
220.138	102.21
220.355	90.49
220.572	104.94
220.79	104.75
221.007	111.89
221.224	95.63
221.441	99.15
221.658	90.58
221.875	85.78
222.092	82.25
222.309	81.96
222.526	77.61
222.743	79.16
222.96	74.67
223.177	70.87
223.394	70.46
223.611	69.91
223.828	67.3
224.045	60.31
224.262	65.1
224.479	60.18
224.696	56.38
224.913	55.08
225.13	53.84
225.347	54.55
225.564	52.7
225.781	45.67
225.997	44.45
226.214	39.48
226.431	38.41
226.648	31.05
226.865	27.31
227.082	27.33
227.298	27.12
227.515	22.35
227.732	17.79
227.949	15.81
228.165	13.19
228.382	10.98
228.599	11.12
228.816	9.56
229.032	8.5
229.249	8.6
229.466	8.8
229.682	7
229.899	6.99
230.116	6.48
230.332	6.61
230.549	7.89
230.765	8.64
230.982	8.3
231.199	8.45
231.415	9.99
231.632	10.08
231.848	9.62
232.065	8.89
232.281	9.95
232.498	12.41
232.714	13.37
232.931	12.19
233.147	13.89
233.364	13.91
233.58	16.96
233.797	15.92
234.013	13.16
234.23	13.48
234.446	13.83
234.662	13.74
234.879	11.41
235.095	9.92
235.312	8.75
235.528	6.73
235.744	7.82
235.961	6.94
236.177	7.83
236.393	11.02
236.61	11.66
236.826	12.43
237.042	12.46
237.258	14.75
237.475	17.54
237.691	19.73
237.907	21.16
238.123	19.4
238.339	17.15
238.556	17.59
238.772	17.21
238.988	16.33
239.204	16.1
239.42	16.45
239.636	14.7
239.853	12.24
240.069	11.96
240.285	10.18
240.501	9
240.717	8.48
240.933	7.08
241.149	6.65
241.365	6.11
241.581	5.44
241.797	5.63
242.013	5.07
242.229	5.1
242.445	4.9
242.661	4
242.877	4.27
243.093	4.59
243.309	4.98
243.525	5.2
243.741	5.33
243.957	6.3
244.173	4.88
244.388	6.78
244.604	7.41
244.82	7.36
245.036	8.21
245.252	7.86
245.468	7.07
245.683	6.44
245.899	5.45
246.115	4.92
246.331	4.07
246.547	3.99
246.762	3.3
246.978	3.16
247.194	3.24
247.409	3.28
247.625	3.4
247.841	3.43
248.057	3.88
248.272	4.38
248.488	4.67
248.703	5.07
248.919	5.63
249.135	5.99
249.35	5.83
249.566	6.36
249.782	6.88
249.997	6.96
250.213	7.48
250.428	7
250.644	6.81
250.859	5.97
251.075	6.31
251.29	6.45
251.506	6.29
251.721	7.02
251.937	6.69
252.152	6.68
252.368	6.79
252.583	6.28
252.798	7.02
253.014	6.83
253.229	8.45
253.445	9
253.66	9.13
253.875	9.69
254.091	8.91
254.306	9.38
254.521	9.68
254.737	10.57
254.952	10.77
255.167	10.15
255.383	10.94
255.598	10.55
255.813	10.15
256.028	9.22
256.244	8.5
256.459	9.24
256.674	8.43
256.889	8.55
257.104	8.6
257.32	8.9
257.535	8.15
257.75	7.48
257.965	6.99
258.18	5.69
258.395	6.01
258.61	5.55
258.826	4.85
259.041	4.72
259.256	4.47
259.471	3.9
259.686	3.69
259.901	3.63
260.116	3.36
260.331	3.12
260.546	3.4
260.761	2.98
260.976	3.05
261.191	3.29
261.406	3.29
261.621	3.4
261.836	3.33
262.05	3.48
262.265	3.8
262.48	4.65
262.695	4.58
262.91	4.32
263.125	4.84
263.34	5.08
263.555	5.82
263.769	5.81
263.984	5.34
264.199	5.81
264.414	5.43
264.629	5.17
264.843	4.76
265.058	5.5
265.273	5.44
265.488	5.33
265.702	5.06
265.917	4.16
266.132	4.61
266.346	4.67
266.561	4.48
266.776	5.06
266.99	5.1
267.205	4.87
267.42	4.04
267.634	4.14
267.849	3.91
268.063	3.76
268.278	4.12
268.492	3.89
268.707	4.12
268.922	4.01
269.136	3.25
269.351	2.75
269.565	2.51
269.78	3.25
269.994	3.56
270.209	3.62
270.423	3.74
270.637	3.37
270.852	3.48
271.066	3.27
271.281	3.23
271.495	3.45
271.709	3.52
271.924	3.58
272.138	3.12
272.353	2.82
272.567	2.98
272.781	3.12
272.996	2.92
273.21	2.59
273.424	2.18
273.638	2.13
273.853	1.99
274.067	2.33
274.281	2.56
274.495	2.82
274.71	3.02
274.924	3.4
275.138	3.25
275.352	3.83
275.566	3.73
275.781	3.89
275.995	3.84
276.209	3.9
276.423	3.47
276.637	3.49
276.851	3.54
277.065	3.6
277.279	3.26
277.493	3.6
277.707	3.47
277.921	3.63
278.135	4.17
278.349	4.6
278.563	5.08
278.777	5.18
278.991	5.17
279.205	5.76
279.419	5.52
279.633	5.8
279.847	4.92
280.061	4.41
280.275	4.68
280.489	4.69
280.703	4.37
280.917	4.03
281.131	4.27
281.344	4.59
281.558	3.9
281.772	3.8
281.986	3.32
282.2	3.36
282.414	3.42
282.627	3.13
282.841	2.68
283.055	2.79
283.269	2.54
283.482	2.84
283.696	2.53
283.91	2.55
284.123	2.19
284.337	2.19
284.551	2.61
284.764	2.87
284.978	2.97
285.192	3.16
285.405	3.11
285.619	2.95
285.833	2.42
286.046	2.25
286.26	2.33
286.473	2.72
286.687	2.92
286.9	3.08
287.114	3.25
287.327	3.41
287.541	3.35
287.754	3.21
287.968	3.74
288.181	3.69
288.395	3.82
288.608	3.52
288.822	3.3
289.035	3.48
289.248	3.06
289.462	2.89
289.675	2.63
289.889	2.71
290.102	2.62
290.315	2.2
290.529	2.49
290.742	2.57
290.955	2.8
291.169	2.97
291.382	2.83
291.595	3.05
291.808	3.15
292.022	3.16
292.235	3
292.448	3.53
292.661	3.6
292.875	3.57
293.088	3.24
293.301	2.92
293.514	2.64
293.727	2.78
293.94	2.44
294.153	2.31
294.367	2.07
294.58	2.13
294.793	1.82
295.006	2.33
295.219	2.44
295.432	2.92
295.645	3.41
295.858	3.5
296.071	3.07
296.284	3.28
296.497	3.22
296.71	3.38
296.923	3.48
297.136	3.33
297.349	3.14
297.562	3.06
297.775	2.9
297.988	2.87
298.201	2.78
298.414	2.84
298.626	2.71
298.839	3.06
299.052	3.19
299.265	2.76
299.478	3.18
299.691	3.14
299.903	3.19
300.116	3.02
300.329	3.04
300.542	3.32
300.755	3.52
300.967	4.18
301.18	3.87
301.393	3.84
301.605	4.39
301.818	3.59
302.031	3.59
302.243	3.7
302.456	4.05
302.669	4.2
302.881	4.13
303.094	4.43
303.307	3.83
303.519	3.83
303.732	4.12
303.944	4.09
304.157	5.27
304.37	5.39
304.582	5.32
304.795	5.37
305.007	5.33
305.22	5.44
305.432	4.88
305.645	4.69
305.857	4.8
306.069	4.68
306.282	4.47
306.494	3.93
306.707	3.88
306.919	4
307.132	3.44
307.344	3.47
307.556	3.74
307.769	4.01
307.981	4.21
308.193	4.01
308.406	3.66
308.618	4.28
308.83	4.25
309.043	4.43
309.255	4.13
309.467	4.48
309.679	4.51
309.892	4.41
310.104	4.16
310.316	4.36
310.528	4.4
310.74	4.27
310.953	4.11
311.165	4.23
311.377	4.26
311.589	4.54
311.801	4.89
312.013	4.79
312.225	4.61
312.437	4.87
312.649	4.99
312.862	5.4
313.074	5.73
313.286	5.54
313.498	5.52
313.71	5.19
313.922	5.09
314.134	4.33
314.346	4.22
314.558	4.17
314.77	5.11
314.982	4.67
315.193	4.21
315.405	4.86
315.617	5.21
315.829	4.8
316.041	5.01
316.253	5.11
316.465	5.65
316.677	5.93
316.888	6.48
317.1	5.54
317.312	5.76
317.524	6.09
317.736	5.87
317.947	5.96
318.159	6.44
318.371	6.74
318.583	7.03
318.794	7.11
319.006	6.98
319.218	7.01
319.43	7.09
319.641	7.03
319.853	6.81
320.064	6.46
320.276	6.6
320.488	7.22
320.699	7.44
320.911	7.57
321.123	7.48
321.334	7.33
321.546	7.27
321.757	7.43
321.969	8.18
322.18	8.56
322.392	8.84
322.603	8.69
322.815	8.7
323.026	8.83
323.238	8.39
323.449	8.84
323.661	9.47
323.872	9.44
324.083	9.91
324.295	9.62
324.506	9.75
324.718	9.67
324.929	9.87
325.14	9.88
325.352	9.87
325.563	10.67
325.774	10.62
325.986	10.85
326.197	11.34
326.408	11.06
326.62	11.65
326.831	11.93
327.042	12.39
327.253	12.77
327.464	13.33
327.676	13.84
327.887	14.31
328.098	14.66
328.309	15.12
328.52	15.54
328.732	16.38
328.943	16.39
329.154	17.11
329.365	17.97
329.576	18.27
329.787	18.36
329.998	19.02
330.209	18.98
330.42	19.27
330.631	19.25
330.842	19.53
331.053	19.82
331.264	20.86
331.475	20.79
331.686	20.97
331.897	20.86
332.108	21.18
332.319	21.09
332.53	21.18
332.741	21.75
332.952	22.57
333.163	22.62
333.374	22.93
333.585	22.72
333.795	22.95
334.006	23.09
334.217	23.68
334.428	23.38
334.639	23.81
334.849	24.08
335.06	24.18
335.271	23.6
335.482	23.99
335.692	23.86
335.903	24.09
336.114	24.04
336.325	24.11
336.535	24.05
336.746	24.22
336.957	24.19
337.167	24.49
337.378	24.16
337.589	24.76
337.799	24.77
338.01	25.33
338.22	25.37
338.431	25.57
338.642	25.38
338.852	25.83
339.063	26.2
339.273	26.17
339.484	26.4
339.694	27.05
339.905	26.69
340.115	26.87
340.326	26.63
340.536	26.65
340.746	26.74
340.957	26.56
341.167	26.3
341.378	26.16
341.588	25.93
341.799	25.35
342.009	25.22
342.219	24.99
342.43	25.03
342.64	24.74
342.85	24.98
343.061	25.15
343.271	25.22
343.481	25.28
343.691	25.32
343.902	25.33
344.112	25.91
344.322	25.79
344.532	26.08
344.743	25.85
344.953	25.76
345.163	25.6
345.373	25.48
345.583	25.8
345.793	25.67
346.004	25.89
346.214	25.91
346.424	25.77
346.634	25.7
346.844	25.8
347.054	25.87
347.264	26.12
347.474	25.9
347.684	25.98
347.894	26
348.104	26.33
348.314	25.84
348.524	25.95
348.734	25.72
348.944	25.8
349.154	25.88
349.364	25.72
349.574	25.59
349.784	25.7
349.994	25.62
350.204	25.19
350.413	25.13
350.623	25.46
350.833	25.53
351.043	25.48
351.253	25.33
351.463	24.87
351.672	24.99
351.882	25.12
352.092	24.82
352.302	24.68
352.511	25.05
352.721	24.84
352.931	24.55
353.141	24.5
353.35	24.6
353.56	24.75
353.77	24.68
353.979	24.57
354.189	24.38
354.399	24.24
354.608	24.11
354.818	24.3
355.027	24.48
355.237	25
355.447	24.78
355.656	24.37
355.866	24.19
356.075	24.44
356.285	24.36
356.494	24.25
356.704	24.39
356.913	24.46
357.123	24.03
357.332	23.88
357.542	23.63
357.751	23.76
357.96	24.05
358.17	24.13
358.379	24.16
358.589	24.17
358.798	24.29
359.007	24.43
359.217	24.43
359.426	24.46
359.635	24.45
359.845	24.21
360.054	24.23
360.263	24.06
360.472	24
360.682	24.04
360.891	23.88
361.1	23.87
361.309	23.66
361.519	23.58
361.728	23.5
361.937	23.52
362.146	23.52
362.355	23.36
362.564	23.36
362.774	23.35
362.983	23.22
363.192	23.41
363.401	23.49
363.61	23.54
363.819	23.82
364.028	23.89
364.237	23.72
364.446	23.83
364.655	23.87
364.864	23.98
365.073	23.94
365.282	24.01
365.491	24.14
365.7	24.07
365.909	24.12
366.118	23.96
366.327	23.9
366.536	24.04
366.745	23.76
366.954	23.79
367.162	23.5
367.371	23.48
367.58	23.45
367.789	23.23
367.998	23.41
368.207	23.46
368.415	23.36
368.624	23.34
368.833	23.31
369.042	23.36
369.25	23.31
369.459	23.49
369.668	23.62
369.877	23.27
370.085	23.33
370.294	22.86
370.503	22.76
370.711	22.7
370.92	23.04
371.129	23.06
371.337	23.15
371.546	23.12
371.754	23.21
371.963	23.13
372.171	23.23
372.38	23.24
372.589	23.28
372.797	23.63
373.006	23.61
373.214	23.28
373.423	23.19
373.631	22.95
373.84	23.13
374.048	22.9
374.256	22.57
374.465	22.6
374.673	22.4
374.882	22.48
375.09	22.17
375.298	22.1
375.507	22.03
375.715	22.01
375.923	22.3
376.132	22.19
376.34	21.98
376.548	22.29
376.757	22.22
376.965	22.12
377.173	22.14
377.381	22.17
377.59	22.22
377.798	22.21
378.006	22.2
378.214	22.1
378.423	21.68
378.631	21.99
378.839	21.82
379.047	22.04
379.255	21.87
379.463	21.84
379.671	21.82
379.879	21.96
380.088	22.16
380.296	22.05
380.504	21.92
380.712	22.14
380.92	22.01
381.128	21.9
381.336	21.66
381.544	21.84
381.752	21.6
381.96	21.39
382.168	21.18
382.376	21.07
382.584	21.36
382.791	21.34
382.999	21.48
383.207	21.41
383.415	21.62
383.623	21.87
383.831	21.91
384.039	22.2
384.247	22.47
384.454	22.52
384.662	22.42
384.87	22.01
385.078	22.07
385.285	21.99
385.493	22.21
385.701	21.9
385.909	21.52
386.116	21.76
386.324	21.79
386.532	21.65
386.739	21.63
386.947	21.76
387.155	21.85
387.362	21.72
387.57	21.71
387.778	21.84
387.985	22.08
388.193	22.39
388.4	22.21
388.608	22.02
388.816	21.85
389.023	21.62
389.231	21.37
389.438	21.34
389.646	21.68
389.853	21.71
390.061	21.51
390.268	21.49
390.475	21.5
390.683	21.51
390.89	21.45
391.098	21.46
391.305	21.59
391.512	21.74
391.72	21.75
391.927	21.58
392.135	21.71
392.342	21.54
392.549	21.3
392.756	21.32
392.964	21.05
393.171	21.33
393.378	21.46
393.586	21.31
393.793	21.15
394	21.25
394.207	21.24
394.414	21.25
394.622	21.25
394.829	21.52
395.036	21.26
395.243	21.32
395.45	21.22
395.657	21.07
395.864	21.37
396.072	21.63
396.279	21.29
396.486	21.47
396.693	21.29
396.9	21.33
397.107	20.9
397.314	20.95
397.521	20.88
397.728	20.82
397.935	20.98
398.142	21.12
398.349	20.88
398.556	21.06
398.763	20.97
398.97	21.18
399.177	21.26
399.383	21.62
399.59	21.72
399.797	21.94
400.004	22.02
400.211	21.75
400.418	21.43
400.625	21.67
400.831	21.74
401.038	21.63
401.245	21.47
401.452	21.37
401.658	21.45
401.865	21.65
402.072	21.8
402.279	21.71
402.485	21.87
402.692	21.93
402.899	21.54
403.105	21.36
403.312	21.26
403.519	21.18
403.725	21.17
403.932	21.05
404.138	20.83
404.345	20.69
404.552	20.68
404.758	20.81
404.965	20.87
405.171	21.04
405.378	21.28
405.584	21.39
405.791	21.56
405.997	21.61
406.204	21.74
406.41	21.75
406.617	21.84
406.823	21.78
407.029	21.68
407.236	21.68
407.442	21.78
407.649	21.64
407.855	21.74
408.061	21.67
408.268	21.6
408.474	21.59
408.68	21.54
408.887	21.57
409.093	21.65
409.299	21.58
409.505	21.55
409.712	21.58
409.918	21.68
410.124	21.69
410.33	21.73
410.537	21.91
410.743	21.93
410.949	22.03
411.155	21.91
411.361	21.96
411.567	22.15
411.773	22.15
411.98	22.19
412.186	22.2
412.392	22.01
412.598	21.9
412.804	21.98
413.01	21.88
413.216	21.92
413.422	21.97
413.628	21.91
413.834	21.75
414.04	21.75
414.246	21.7
414.452	21.73
414.658	21.83
414.864	22.03
415.07	21.77
415.275	21.86
415.481	21.84
415.687	21.76
415.893	21.72
416.099	21.73
416.305	21.68
416.511	21.82
416.716	21.74
416.922	21.65
417.128	21.54
417.334	21.61
417.539	21.53
417.745	21.6
417.951	21.63
418.157	21.57
418.362	21.63
418.568	21.58
418.774	21.45
418.979	21.42
419.185	21.46
419.391	21.44
419.596	21.49
419.802	21.46
420.008	21.29
420.213	20.81
420.419	20.77
420.624	20.67
420.83	20.73
421.035	20.66
421.241	20.73
421.446	20.72
421.652	20.7
421.857	20.64
422.063	20.62
422.268	20.63
422.474	21.11
422.679	21.24
422.885	21.2
423.09	21.22
423.295	21.3
423.501	21.17
423.706	21.27
423.911	21.31
424.117	21.28
424.322	21.31
424.527	21.41
424.733	21.43
424.938	21.34
425.143	21.51
425.349	21.43
425.554	21.39
425.759	21.56
425.964	21.55
426.169	21.5
426.375	21.6
426.58	21.59
426.785	21.51
426.99	21.55
427.195	21.59
427.4	21.52
427.605	21.55
427.811	21.61
428.016	21.55
428.221	21.57
428.426	21.59
428.631	21.52
428.836	21.65
429.041	21.78
429.246	21.66
429.451	21.63
429.656	21.65
429.861	21.64
430.066	21.7
430.271	21.63
430.476	21.49
430.681	21.54
430.886	21.61
431.09	21.43
431.295	21.38
431.5	21.39
431.705	21.29
431.91	21.28
432.115	21.32
432.32	21.23
432.524	21.3
432.729	21.47
432.934	21.54
433.139	21.47
433.343	21.68
433.548	21.78
433.753	21.74
433.958	21.89
434.162	21.96
434.367	22.05
434.572	22.18
434.776	22.18
434.981	22.15
435.186	22.15
435.39	22.14
435.595	22.09
435.799	21.96
436.004	22.01
436.209	21.97
436.413	21.94
436.618	21.95
436.822	21.9
437.027	21.84
437.231	21.76
437.436	21.64
437.64	21.67
437.845	21.66
438.049	21.75
438.253	21.72
438.458	21.75
438.662	21.6
438.867	21.54
439.071	21.56
439.275	21.58
439.48	21.61
439.684	21.63
439.888	21.64
440.093	21.57
440.297	21.49
440.501	21.46
440.706	21.47
440.91	21.62
441.114	21.63
441.318	21.58
441.523	21.63
441.727	21.62
441.931	21.58
442.135	21.67
442.339	21.68
442.543	21.75
442.748	21.84
442.952	21.9
443.156	21.68
443.36	21.73
443.564	21.77
443.768	21.79
443.972	21.68
444.176	21.68
444.38	21.59
444.584	21.62
444.788	21.57
444.992	21.52
445.196	21.48
445.4	21.54
445.604	21.52
445.808	21.48
446.012	21.34
446.216	21.33
446.42	21.32
446.624	21.38
446.828	21.36
447.032	21.43
447.235	21.49
447.439	21.44
447.643	21.46
447.847	21.4
448.051	21.45
448.254	21.48
448.458	21.53
448.662	21.6
448.866	21.5
449.069	21.41
449.273	21.31
449.477	21.33
449.681	21.35
449.884	21.48
450.088	21.52
450.292	21.49
450.495	21.51
450.699	21.56
450.902	21.48
451.106	21.49
451.31	21.56
451.513	21.57
451.717	21.53
451.92	21.53
452.124	21.4
452.327	21.48
452.531	21.46
452.734	21.46
452.938	21.43
453.141	21.42
453.345	21.35
453.548	21.43
453.752	21.48
453.955	21.41
454.158	21.41
454.362	21.44
454.565	21.31
454.769	21.39
454.972	21.49
455.175	21.5
455.379	21.5
455.582	21.71
455.785	21.63
455.988	21.55
456.192	21.41
456.395	21.47
456.598	21.48
456.801	21.52
457.005	21.45
457.208	21.35
457.411	21.3
457.614	21.4
457.817	21.18
458.021	21.2
458.224	21.17
458.427	21.22
458.63	21.27
458.833	21.24
