Data from 2938737__Reflection_18-06-17-621.txt Node
Date: Sun Mar 15 18:06:17 EDT 2015
User: robert
Spectrometer: USB4E03002
Autoset integration time: false
Trigger mode: 4
Integration Time (sec): 1.000000E-1
Scans to average: 10
Electric dark correction enabled: false
Nonlinearity correction enabled: false
Boxcar width: 5
Stray light correction enabled: false
XAxis mode: Wavelengths
Stop averaging: false
Number of Pixels in Spectrum: 3648
>>>>>Begin Spectral Data<<<<<
177.575	129.85
177.794	189.82
178.014	217.52
178.233	266.95
178.452	396.88
178.672	370.67
178.891	501.19
179.11	464.74
179.33	592.01
179.549	644.44
179.768	1604.84
179.987	819.05
180.207	395.44
180.426	365.84
180.645	340.81
180.864	271.01
181.084	322.14
181.303	306.94
181.522	381.61
181.741	369.3
181.96	466.07
182.179	475
182.398	516.36
182.618	617.81
182.837	623.05
183.056	543.75
183.275	684.76
183.494	466.91
183.713	372.85
183.932	376.82
184.151	435.34
184.37	550.46
184.589	820.45
184.808	609.61
185.027	521.08
185.246	371.62
185.465	393.07
185.684	371.29
185.903	419.07
186.122	546.15
186.341	578.3
186.56	339.54
186.779	248.56
186.998	229.26
187.216	246.46
187.435	248.1
187.654	299.32
187.873	315.41
188.092	286.33
188.311	296.33
188.53	320.27
188.748	277.13
188.967	265.19
189.186	271.1
189.405	247.28
189.623	269.08
189.842	316.39
190.061	325.96
190.28	299.64
190.498	603.98
190.717	537.92
190.936	511.36
191.154	600.36
191.373	-7610
191.592	-7875
191.81	-1710.34
192.029	-1823.66
192.248	-1309.92
192.466	-1505.08
192.685	1790.27
192.904	615.26
193.122	512.66
193.341	474.81
193.559	439.86
193.778	378.17
193.996	436.48
194.215	354.13
194.433	274.92
194.652	250.22
194.87	197.36
195.089	266.13
195.307	287.56
195.526	453.92
195.744	373.37
195.963	562.2
196.181	1872.6
196.399	987.16
196.618	864.32
196.836	992.07
197.055	1643.01
197.273	1467.27
197.491	1077.12
197.71	662.88
197.928	354.49
198.146	376.97
198.365	302.5
198.583	237.11
198.801	275.29
199.019	331.97
199.238	262.1
199.456	306.42
199.674	332.8
199.892	349.45
200.111	320.71
200.329	367.67
200.547	411.61
200.765	554.49
200.983	410.02
201.202	321.72
201.42	289.46
201.638	752.15
201.856	528.74
202.074	839.26
202.292	678.38
202.51	1263.44
202.728	4645.83
202.946	-2807.14
203.165	-1311.9
203.383	-719.69
203.601	-621.23
203.819	-433.83
204.037	889.83
204.255	596.23
204.473	614.16
204.691	386.96
204.909	273.76
205.127	279.34
205.345	194.08
205.562	183.26
205.78	233.58
205.998	226.6
206.216	222.84
206.434	264.15
206.652	256.49
206.87	236.18
207.088	230.2
207.306	301.01
207.523	267.38
207.741	438.54
207.959	335.98
208.177	259.22
208.395	232.68
208.612	246.68
208.83	274.23
209.048	269.1
209.266	331.15
209.483	375.88
209.701	343.31
209.919	363.24
210.136	263.75
210.354	267.37
210.572	314.18
210.79	260.07
211.007	238.93
211.225	234.49
211.442	258.66
211.66	216.72
211.878	209.3
212.095	197.7
212.313	187.73
212.53	215.56
212.748	203.88
212.966	214.4
213.183	241.17
213.401	220.69
213.618	204.65
213.836	233
214.053	231.86
214.271	258.25
214.488	273.68
214.705	315.68
214.923	262.29
215.14	519.16
215.358	336.7
215.575	381.01
215.793	372.73
216.01	320.14
216.227	249.09
216.445	236.94
216.662	224.1
216.879	231.39
217.097	235.49
217.314	214.35
217.531	185.03
217.749	181.59
217.966	164.22
218.183	163.18
218.4	177.08
218.618	196.14
218.835	180.61
219.052	164.9
219.269	157.77
219.487	139.7
219.704	142.88
219.921	140.93
220.138	157.26
220.355	151.75
220.572	148.48
220.79	135.87
221.007	115.49
221.224	123.85
221.441	117.06
221.658	118.01
221.875	124.86
222.092	131.56
222.309	117.5
222.526	98.69
222.743	97.74
222.96	101.42
223.177	92.17
223.394	91.7
223.611	88.21
223.828	84.29
224.045	79.37
224.262	75.71
224.479	70.98
224.696	73.67
224.913	69.82
225.13	66.99
225.347	62.87
225.564	61.75
225.781	57.92
225.997	54.76
226.214	54.99
226.431	52.61
226.648	49.28
226.865	44.69
227.082	39.98
227.298	38.36
227.515	32.99
227.732	28.97
227.949	25.46
228.165	23.07
228.382	22.09
228.599	20.4
228.816	19.8
229.032	18.13
229.249	17.68
229.466	17.25
229.682	16.52
229.899	16.55
230.116	16.5
230.332	18.01
230.549	19.11
230.765	20.68
230.982	22.22
231.199	21.43
231.415	22.28
231.632	22.8
231.848	23.12
232.065	24.04
232.281	25.88
232.498	26.17
232.714	26.89
232.931	24.99
233.147	23.5
233.364	20.8
233.58	21.93
233.797	24.21
234.013	25.97
234.23	26.29
234.446	24.22
234.662	22.67
234.879	24.43
235.095	23.81
235.312	26.66
235.528	26.51
235.744	27.82
235.961	27.03
236.177	25.04
236.393	24.7
236.61	26.21
236.826	25.57
237.042	27.03
237.258	26.2
237.475	28.71
237.691	25.48
237.907	26.27
238.123	28.04
238.339	28.46
238.556	28.94
238.772	28.03
238.988	26.58
239.204	27.62
239.42	25.84
239.636	24.67
239.853	20.15
240.069	20.66
240.285	17.7
240.501	15.64
240.717	14.95
240.933	14.72
241.149	13.94
241.365	13.46
241.581	12.62
241.797	12.36
242.013	12.38
242.229	13.19
242.445	12.51
242.661	13.1
242.877	13.6
243.093	13
243.309	12.95
243.525	12.59
243.741	13.57
243.957	14.3
244.173	14.76
244.388	13.94
244.604	14.03
244.82	14.21
245.036	14.24
245.252	12.67
245.468	12.84
245.683	11.39
245.899	11.46
246.115	10.18
246.331	10.07
246.547	9.8
246.762	10.33
246.978	9.84
247.194	9.27
247.409	9.3
247.625	9.68
247.841	9.31
248.057	9.6
248.272	9.65
248.488	10.05
248.703	10.14
248.919	9.99
249.135	9.9
249.35	9.93
249.566	10.92
249.782	10.55
249.997	10.85
250.213	11.92
250.428	12.22
250.644	12.56
250.859	12.67
251.075	12.93
251.29	13.53
251.506	13.48
251.721	13.58
251.937	13.46
252.152	13.43
252.368	13.32
252.583	12.99
252.798	14.2
253.014	14.02
253.229	14.64
253.445	14.88
253.66	15.56
253.875	16.02
254.091	17.03
254.306	18.35
254.521	17.98
254.737	17.96
254.952	17.77
255.167	16.71
255.383	17.98
255.598	17.4
255.813	17.23
256.028	16.42
256.244	15.7
256.459	15.28
256.674	13.58
256.889	14.83
257.104	14
257.32	13.87
257.535	13.65
257.75	12.35
257.965	11.48
258.18	10.9
258.395	10.58
258.61	9.84
258.826	9.39
259.041	9.5
259.256	8.98
259.471	8.98
259.686	9.02
259.901	8.57
260.116	8.54
260.331	8.55
260.546	8.57
260.761	8.39
260.976	8.27
261.191	8.22
261.406	7.94
261.621	8.15
261.836	8.52
262.05	8.24
262.265	8.36
262.48	8.01
262.695	8.04
262.91	8.07
263.125	8.39
263.34	9.6
263.555	8.98
263.769	10.07
263.984	10.58
264.199	9.97
264.414	10.73
264.629	10.93
264.843	10.9
265.058	10.72
265.273	10.1
265.488	10.44
265.702	9.53
265.917	9.8
266.132	8.94
266.346	8.46
266.561	9.05
266.776	8.66
266.99	8.43
267.205	8.68
267.42	9.15
267.634	9.79
267.849	9.18
268.063	9.24
268.278	9.8
268.492	10.21
268.707	10.16
268.922	9.48
269.136	9.61
269.351	10.26
269.565	9.94
269.78	9.75
269.994	9.44
270.209	9.93
270.423	9.83
270.637	9.58
270.852	9.16
271.066	8.96
271.281	9.28
271.495	9.28
271.709	9.16
271.924	9.34
272.138	9.12
272.353	9.24
272.567	9.03
272.781	9.24
272.996	9.24
273.21	9.46
273.424	9.67
273.638	9.49
273.853	9.57
274.067	9.22
274.281	9.63
274.495	9.69
274.71	9.68
274.924	9.69
275.138	9.65
275.352	9.82
275.566	10.12
275.781	10.21
275.995	10.21
276.209	9.48
276.423	9.53
276.637	9.44
276.851	9.43
277.065	9.06
277.279	8.95
277.493	9.27
277.707	8.62
277.921	8.35
278.135	7.93
278.349	7.7
278.563	8.08
278.777	8.39
278.991	8.16
279.205	8.31
279.419	8.33
279.633	8.4
279.847	8.37
280.061	8.23
280.275	8.52
280.489	8.95
280.703	8.57
280.917	9.2
281.131	8.53
281.344	8.76
281.558	8.31
281.772	8.26
281.986	7.91
282.2	7.58
282.414	7.71
282.627	7.28
282.841	7.22
283.055	7.57
283.269	7.21
283.482	7.57
283.696	6.95
283.91	6.81
284.123	6.75
284.337	6.92
284.551	6.95
284.764	6.67
284.978	6.63
285.192	6.6
285.405	6.55
285.619	6.26
285.833	6.33
286.046	6.32
286.26	6.69
286.473	6.81
286.687	7.02
286.9	6.9
287.114	7.22
287.327	7.42
287.541	7.57
287.754	7.68
287.968	7.76
288.181	7.29
288.395	7.36
288.608	7.35
288.822	7.08
289.035	6.84
289.248	6.97
289.462	7.2
289.675	7.09
289.889	6.58
290.102	6.42
290.315	6.4
290.529	6.96
290.742	7.26
290.955	7.17
291.169	7.33
291.382	7.22
291.595	7.27
291.808	7.45
292.022	7.25
292.235	7.95
292.448	8.19
292.661	8.1
292.875	7.84
293.088	7.66
293.301	7.71
293.514	7.74
293.727	7.85
293.94	7.65
294.153	7.38
294.367	7.14
294.58	6.47
294.793	6.61
295.006	6.85
295.219	6.52
295.432	6.46
295.645	6.48
295.858	6.33
296.071	6.45
296.284	6.56
296.497	6.57
296.71	6.97
296.923	7.22
297.136	7.24
297.349	7.25
297.562	7.64
297.775	7.69
297.988	7.67
298.201	7.83
298.414	7.81
298.626	7.7
298.839	7.84
299.052	7.55
299.265	7.76
299.478	7.77
299.691	8.03
299.903	7.98
300.116	8.03
300.329	8.26
300.542	8.4
300.755	8.7
300.967	9.05
301.18	9.07
301.393	9.5
301.605	9.05
301.818	8.92
302.031	8.54
302.243	8.44
302.456	8.51
302.669	8.17
302.881	7.95
303.094	7.41
303.307	7.32
303.519	7.37
303.732	7.01
303.944	7.35
304.157	7.96
304.37	8.21
304.582	8.11
304.795	8.61
305.007	8.84
305.22	8.96
305.432	9.29
305.645	9.24
305.857	9.13
306.069	9.53
306.282	9.44
306.494	8.92
306.707	8.6
306.919	8.7
307.132	7.98
307.344	8.06
307.556	8.1
307.769	7.94
307.981	7.99
308.193	7.8
308.406	7.78
308.618	8.01
308.83	8.03
309.043	8.38
309.255	8.31
309.467	8.56
309.679	8.62
309.892	8.77
310.104	9.08
310.316	9.18
310.528	9.19
310.74	9.34
310.953	9.12
311.165	8.86
311.377	9.03
311.589	9.17
311.801	9.27
312.013	8.61
312.225	8.62
312.437	8.75
312.649	8.85
312.862	8.93
313.074	8.47
313.286	8.48
313.498	8.45
313.71	8.22
313.922	8.32
314.134	8.5
314.346	9.18
314.558	9.13
314.77	8.91
314.982	8.66
315.193	8.73
315.405	9.3
315.617	9.57
315.829	10.12
316.041	10.5
316.253	10.49
316.465	10.33
316.677	10.5
316.888	11.11
317.1	11.3
317.312	11.7
317.524	11.71
317.736	11.52
317.947	11.67
318.159	11.19
318.371	10.73
318.583	10.96
318.794	11.4
319.006	11.41
319.218	10.89
319.43	10.97
319.641	10.89
319.853	11.38
320.064	12
320.276	12.03
320.488	12.96
320.699	13.48
320.911	13.59
321.123	13.51
321.334	13.33
321.546	13.17
321.757	13.11
321.969	12.87
322.18	12.6
322.392	11.93
322.603	11.94
322.815	11.47
323.026	11.09
323.238	10.81
323.449	11.04
323.661	11.41
323.872	11.61
324.083	11.43
324.295	11.45
324.506	11.26
324.718	11.54
324.929	11.19
325.14	11.21
325.352	11.04
325.563	11.26
325.774	10.7
325.986	10.58
326.197	10.89
326.408	11.07
326.62	11.61
326.831	11.68
327.042	11.82
327.253	11.93
327.464	11.88
327.676	12.08
327.887	11.51
328.098	11.48
328.309	11.66
328.52	11.27
328.732	10.91
328.943	10.48
329.154	10.96
329.365	10.93
329.576	11.32
329.787	10.96
329.998	10.99
330.209	11.79
330.42	12.01
330.631	12.08
330.842	12.46
331.053	12.84
331.264	12.68
331.475	12.28
331.686	12.18
331.897	11.77
332.108	12.48
332.319	12.25
332.53	12.18
332.741	12.11
332.952	12.16
333.163	12.05
333.374	12.16
333.585	12.25
333.795	12.28
334.006	12.04
334.217	11.9
334.428	11.97
334.639	12.33
334.849	12.15
335.06	12.06
335.271	11.68
335.482	11.77
335.692	11.53
335.903	11.37
336.114	11.44
336.325	11.57
336.535	11.68
336.746	11.52
336.957	11.61
337.167	11.54
337.378	11.72
337.589	11.94
337.799	11.8
338.01	12.17
338.22	12.56
338.431	12.19
338.642	12.38
338.852	12.65
339.063	12.51
339.273	12.41
339.484	12.43
339.694	12.38
339.905	12.49
340.115	12.36
340.326	11.71
340.536	11.57
340.746	12.06
340.957	11.81
341.167	11.6
341.378	11.58
341.588	11.5
341.799	11.44
342.009	11.36
342.219	11.11
342.43	11.03
342.64	11.2
342.85	10.88
343.061	10.37
343.271	10.59
343.481	10.53
343.691	10.43
343.902	10.01
344.112	10
344.322	9.91
344.532	9.8
344.743	9.8
344.953	10.22
345.163	10.34
345.373	10.65
345.583	10.68
345.793	10.78
346.004	10.86
346.214	10.77
346.424	10.75
346.634	10.6
346.844	10.32
347.054	10.37
347.264	10.34
347.474	10.67
347.684	10.61
347.894	10.26
348.104	10.29
348.314	10.35
348.524	10.47
348.734	10.66
348.944	10.37
349.154	10.79
349.364	11.45
349.574	10.99
349.784	10.96
349.994	11.22
350.204	11.1
350.413	10.98
350.623	10.93
350.833	11.38
351.043	11.23
351.253	11.92
351.463	11.85
351.672	11.04
351.882	10.99
352.092	10.89
352.302	10.6
352.511	10.92
352.721	11.16
352.931	11.38
353.141	11.38
353.35	11.51
353.56	10.97
353.77	10.54
353.979	10.68
354.189	11.01
354.399	10.7
354.608	10.57
354.818	10.29
355.027	10
355.237	9.85
355.447	9.52
355.656	9.36
355.866	9.22
356.075	9.51
356.285	9.65
356.494	9.15
356.704	9.25
356.913	9.58
357.123	9.72
357.332	9.61
357.542	9.57
357.751	9.71
357.96	9.58
358.17	9.76
358.379	9.98
358.589	9.59
358.798	9.69
359.007	9.64
359.217	9.25
359.426	9.02
359.635	9.15
359.845	8.82
360.054	8.71
360.263	8.76
360.472	8.9
360.682	8.47
360.891	8.56
361.1	8.63
361.309	8.54
361.519	8.44
361.728	8.55
361.937	8.46
362.146	8.39
362.355	8.31
362.564	8.37
362.774	8.39
362.983	8.45
363.192	8.4
363.401	8.31
363.61	8.42
363.819	8.58
364.028	8.69
364.237	8.58
364.446	8.68
364.655	8.75
364.864	8.58
365.073	8.47
365.282	8.63
365.491	8.55
365.7	8.64
365.909	8.64
366.118	8.77
366.327	8.6
366.536	8.64
366.745	8.91
366.954	9.14
367.162	9.52
367.371	9.53
367.58	9.59
367.789	9.91
367.998	9.86
368.207	9.87
368.415	9.72
368.624	9.72
368.833	10.14
369.042	10.03
369.25	9.9
369.459	9.58
369.668	9.32
369.877	9.13
370.085	9.05
370.294	9.03
370.503	9.12
370.711	9.16
370.92	9.01
371.129	8.5
371.337	8.46
371.546	8.3
371.754	8.14
371.963	8.41
372.171	8.57
372.38	8.59
372.589	8.51
372.797	8.59
373.006	8.71
373.214	8.88
373.423	8.86
373.631	8.79
373.84	8.59
374.048	8.92
374.256	8.75
374.465	8.82
374.673	8.83
374.882	8.92
375.09	8.74
375.298	8.4
375.507	8.17
375.715	8.26
375.923	8.3
376.132	8.71
376.34	8.34
376.548	8.41
376.757	8.03
376.965	7.99
377.173	7.65
377.381	7.54
377.59	7.62
377.798	7.89
378.006	7.75
378.214	7.76
378.423	7.4
378.631	7.51
378.839	7.25
379.047	7.42
379.255	7.27
379.463	7.21
379.671	6.84
379.879	6.71
380.088	6.6
380.296	6.62
380.504	6.6
380.712	6.82
380.92	7.02
381.128	7.17
381.336	7.26
381.544	7.39
381.752	7.65
381.96	7.91
382.168	7.93
382.376	7.81
382.584	7.96
382.791	8.18
382.999	8.07
383.207	7.69
383.415	7.92
383.623	7.74
383.831	7.64
384.039	7.85
384.247	7.81
384.454	7.99
384.662	7.87
384.87	7.85
385.078	7.6
385.285	7.64
385.493	8.1
385.701	7.79
385.909	7.89
386.116	7.81
386.324	7.6
386.532	7.56
386.739	7.38
386.947	7.37
387.155	7.48
387.362	7.67
387.57	7.53
387.778	7.29
387.985	7.18
388.193	7.16
388.4	6.84
388.608	7
388.816	6.84
389.023	6.92
389.231	6.94
389.438	6.48
389.646	6.29
389.853	6.35
390.061	6.27
390.268	6.46
390.475	6.24
390.683	6.42
390.89	6.26
391.098	6.41
391.305	6.17
391.512	6.36
391.72	6.35
391.927	6.22
392.135	6.07
392.342	6.02
392.549	5.93
392.756	5.92
392.964	5.89
393.171	5.9
393.378	5.83
393.586	5.87
393.793	5.6
394	5.72
394.207	5.82
394.414	6.04
394.622	5.92
394.829	5.97
395.036	6.07
395.243	6.1
395.45	6.12
395.657	6.15
395.864	6.14
396.072	6.31
396.279	6.33
396.486	6.23
396.693	6.14
396.9	6.32
397.107	6.22
397.314	6.28
397.521	6.32
397.728	6.3
397.935	6.5
398.142	6.4
398.349	6.13
398.556	6.24
398.763	6.19
398.97	6.03
399.177	5.89
399.383	5.93
399.59	5.81
399.797	5.79
400.004	5.53
400.211	5.34
400.418	5.62
400.625	5.68
400.831	5.71
401.038	5.7
401.245	5.66
401.452	5.6
401.658	5.57
401.865	5.61
402.072	5.53
402.279	5.7
402.485	5.83
402.692	5.69
402.899	5.85
403.105	5.73
403.312	5.67
403.519	5.68
403.725	5.6
403.932	5.36
404.138	5.29
404.345	5.39
404.552	5.19
404.758	5.04
404.965	4.93
405.171	4.77
405.378	4.71
405.584	4.84
405.791	4.93
405.997	5
406.204	5.21
406.41	5.12
406.617	5.04
406.823	5.27
407.029	5.46
407.236	5.8
407.442	5.93
407.649	5.83
407.855	5.71
408.061	5.65
408.268	5.72
408.474	5.76
408.68	5.96
408.887	5.94
409.093	5.77
409.299	5.6
409.505	5.38
409.712	5.31
409.918	5.26
410.124	5.27
410.33	5.29
410.537	5.34
410.743	5.17
410.949	4.9
411.155	4.93
411.361	4.9
411.567	4.7
411.773	4.64
411.98	4.46
412.186	4.64
412.392	4.99
412.598	4.85
412.804	4.72
413.01	4.81
413.216	4.9
413.422	4.96
413.628	5.11
413.834	5.18
414.04	5.38
414.246	5.62
414.452	5.47
414.658	4.94
414.864	5.1
415.07	5.24
415.275	5.27
415.481	5.35
415.687	5.18
415.893	5.16
416.099	5.19
416.305	4.97
416.511	4.78
416.716	4.85
416.922	5.1
417.128	5.17
417.334	5.01
417.539	4.83
417.745	4.81
417.951	4.82
418.157	4.7
418.362	4.65
418.568	4.58
418.774	4.49
418.979	4.27
419.185	4.09
419.391	3.83
419.596	3.78
419.802	3.87
420.008	3.85
420.213	3.91
420.419	4.01
420.624	3.99
420.83	4
421.035	4.02
421.241	4.12
421.446	4.2
421.652	4.21
421.857	4.21
422.063	4.29
422.268	4.22
422.474	4.16
422.679	4.06
422.885	4.08
423.09	4.06
423.295	4.12
423.501	4.13
423.706	4.1
423.911	4.12
424.117	4.14
424.322	4.09
424.527	4.1
424.733	4.05
424.938	4.15
425.143	4.19
425.349	4.22
425.554	4.25
425.759	4.3
425.964	4.28
426.169	4.34
426.375	4.39
426.58	4.41
426.785	4.45
426.99	4.51
427.195	4.39
427.4	4.37
427.605	4.47
427.811	4.41
428.016	4.33
428.221	4.38
428.426	4.51
428.631	4.34
428.836	4.28
429.041	4.35
429.246	4.33
429.451	4.34
429.656	4.44
429.861	4.3
430.066	4.36
430.271	4.38
430.476	4.4
430.681	4.25
430.886	4.25
431.09	4.27
431.295	4.2
431.5	4.24
431.705	4.24
431.91	4.05
432.115	4.05
432.32	4.03
432.524	3.98
432.729	3.96
432.934	4.01
433.139	4.04
433.343	3.99
433.548	3.95
433.753	4.03
433.958	4.16
434.162	4.23
434.367	4.27
434.572	4.17
434.776	4.29
434.981	4.3
435.186	4.32
435.39	4.32
435.595	4.46
435.799	4.47
436.004	4.35
436.209	4.3
436.413	4.2
436.618	4.17
436.822	4.22
437.027	4.22
437.231	4.21
437.436	4.03
437.64	4.08
437.845	3.95
438.049	3.85
438.253	3.91
438.458	3.83
438.662	3.85
438.867	3.92
439.071	3.95
439.275	3.91
439.48	3.85
439.684	3.99
439.888	3.95
440.093	3.93
440.297	3.96
440.501	3.91
440.706	4.01
440.91	4.06
441.114	3.96
441.318	3.94
441.523	3.81
441.727	3.93
441.931	3.93
442.135	3.93
442.339	3.98
442.543	4.05
442.748	4.01
442.952	3.96
443.156	4.01
443.36	4.1
443.564	4.08
443.768	4.28
443.972	4.22
444.176	4.21
444.38	4.18
444.584	4.23
444.788	4.21
444.992	4.3
445.196	4.22
445.4	4.08
445.604	3.96
445.808	3.98
446.012	3.91
446.216	3.85
446.42	3.78
446.624	3.85
446.828	3.84
447.032	3.81
447.235	3.74
447.439	3.75
447.643	3.77
447.847	3.87
448.051	3.93
448.254	4
448.458	4.04
448.662	4.12
448.866	3.95
449.069	3.86
449.273	3.86
449.477	3.89
449.681	3.93
449.884	4.01
450.088	4.02
450.292	3.96
450.495	3.86
450.699	3.86
450.902	3.89
451.106	4.02
451.31	4.11
451.513	4.14
451.717	4.13
451.92	4.18
452.124	4.1
452.327	4.04
452.531	4
452.734	3.97
452.938	4.03
453.141	3.96
453.345	4.01
453.548	4.05
453.752	4.09
453.955	4.13
454.158	4.07
454.362	4.23
454.565	4.21
454.769	4.37
454.972	4.38
455.175	4.27
455.379	4.24
455.582	4.28
455.785	4.13
455.988	4.02
456.192	3.94
456.395	3.88
456.598	3.74
456.801	3.82
457.005	3.73
457.208	3.76
457.411	3.74
457.614	3.7
457.817	3.55
458.021	3.54
458.224	3.64
458.427	3.66
458.63	3.72
458.833	3.71
459.036	3.64
459.239	3.64
459.442	3.72
459.645	3.79
459.848	3.85
460.051	3.93
460.254	4
460.457	3.94
460.66	3.96
460.863	3.92
461.066	3.92
461.269	3.95
461.472	4.01
461.675	3.96
461.878	3.95
462.081	4.03
462.284	3.93
462.486	3.91
462.689	3.97
462.892	4
463.095	4.18
463.298	4.33
463.5	4.39
463.703	4.27
463.906	4.24
464.109	4.24
464.311	4.12
464.514	4.27
464.717	4.4
464.92	4.39
