Data from 2938835__Reflection_03.txt Node
Date: Thu Mar 12 11:29:39 EDT 2015
User: robert
Spectrometer: USB4E03002
Autoset integration time: false
Trigger mode: 4
Integration Time (sec): 1.000000E-1
Scans to average: 10
Electric dark correction enabled: false
Nonlinearity correction enabled: false
Boxcar width: 5
Stray light correction enabled: false
XAxis mode: Wavelengths
Stop averaging: false
Number of Pixels in Spectrum: 3648
>>>>>Begin Spectral Data<<<<<
177.575	799.7
177.794	1370.45
178.014	1281.67
178.233	1407.45
178.452	1297.97
178.672	1393.69
178.891	1670.82
179.11	1602.57
179.33	1466.36
179.549	1243.41
179.768	1204.01
179.987	2523.68
180.207	2251.19
180.426	2576.26
180.645	1803.16
180.864	1260.55
181.084	1551.03
181.303	1360.12
181.522	1441.68
181.741	2075.47
181.96	4244.3
182.179	4468.21
182.398	2502.55
182.618	1725.63
182.837	1568.16
183.056	1959.27
183.275	8138.46
183.494	3980.25
183.713	5811.11
183.932	-23277.78
184.151	19825.81
184.37	2375.88
184.589	4520.15
184.808	4301.41
185.027	4599.25
185.246	13484.78
185.465	-5513.39
185.684	6540.4
185.903	673600
186.122	2110.62
186.341	1303.31
186.56	984.73
186.779	1000.72
186.998	1066.46
187.216	1009.68
187.435	956.81
187.654	866.27
187.873	695.87
188.092	865.92
188.311	762.27
188.53	862.66
188.748	864.86
188.967	1091.9
189.186	1472.37
189.405	1175.4
189.623	1067.5
189.842	1051.42
190.061	967.96
190.28	967.29
190.498	1057.97
190.717	887.63
190.936	945.98
191.154	1192.06
191.373	1058.13
191.592	988.18
191.81	1018.62
192.029	1431.02
192.248	1339.68
192.466	1461.22
192.685	1580.52
192.904	1010.56
193.122	1023.57
193.341	1302.36
193.559	988.55
193.778	961.15
193.996	921.73
194.215	1049.45
194.433	890.87
194.652	992.69
194.87	1467.7
195.089	1735.15
195.307	2474.42
195.526	5376.47
195.744	7967.5
195.963	-108633.33
196.181	-5943.24
196.399	-3603.83
196.618	-2903.08
196.836	-1610.72
197.055	-1931.27
197.273	-9941.79
197.491	36063.16
197.71	170850
197.928	7127.08
198.146	5808.55
198.365	9873.53
198.583	5963.64
198.801	2784.68
199.019	1821.82
199.238	1179.9
199.456	1336.6
199.674	1333.07
199.892	1211.39
200.111	1102.79
200.329	1074.28
200.547	939.02
200.765	851.42
200.983	870.46
201.202	1066.51
201.42	1017.33
201.638	953.92
201.856	1053.17
202.074	1213.87
202.292	1773.78
202.51	2622.89
202.728	2137.5
202.946	2612.89
203.165	1596.49
203.383	1510.29
203.601	1073.7
203.819	1343.37
204.037	1493.56
204.255	1115.87
204.473	909.05
204.691	796.15
204.909	771.45
205.127	803.57
205.345	697.49
205.562	728.69
205.78	768.68
205.998	970.41
206.216	781.38
206.434	722.14
206.652	855.09
206.87	979.38
207.088	984.5
207.306	811.48
207.523	733.19
207.741	801.63
207.959	771.49
208.177	680.55
208.395	595.79
208.612	627.03
208.83	626.55
209.048	554.56
209.266	564.21
209.483	485.58
209.701	565.89
209.919	593.47
210.136	637.77
210.354	781.46
210.572	953.24
210.79	1049.54
211.007	1545.88
211.225	2140.19
211.442	2371.75
211.66	1854.62
211.878	3759.17
212.095	2219.4
212.313	1899.71
212.53	1774.54
212.748	1394.93
212.966	1103.52
213.183	891.1
213.401	701.38
213.618	676.82
213.836	681.13
214.053	727.86
214.271	630.7
214.488	649.65
214.705	757.24
214.923	649.31
215.14	615.04
215.358	627.03
215.575	684.83
215.793	637.43
216.01	693.53
216.227	683.49
216.445	634.05
216.662	741.57
216.879	684.64
217.097	658.86
217.314	626.97
217.531	732.69
217.749	728.17
217.966	678.2
218.183	628.3
218.4	520.99
218.618	525.4
218.835	524.43
219.052	477.51
219.269	487.27
219.487	438.64
219.704	459.25
219.921	377.19
220.138	353.59
220.355	379.63
220.572	393.05
220.79	391.77
221.007	392.92
221.224	389.86
221.441	389.97
221.658	331.72
221.875	326.83
222.092	307.54
222.309	324.98
222.526	354.52
222.743	323.13
222.96	292.74
223.177	294.48
223.394	276.89
223.611	260.18
223.828	251.05
224.045	266.65
224.262	263.83
224.479	254.46
224.696	247
224.913	222.31
225.13	203.55
225.347	199.57
225.564	191.27
225.781	182.62
225.997	170.95
226.214	161.8
226.431	138.6
226.648	122.02
226.865	106.92
227.082	95.9
227.298	82.85
227.515	72.31
227.732	63.54
227.949	58.05
228.165	51.44
228.382	46.97
228.599	43.73
228.816	41.07
229.032	39.86
229.249	39.33
229.466	37.96
229.682	37.85
229.899	38.61
230.116	39.32
230.332	39.85
230.549	42.59
230.765	44.96
230.982	46.35
231.199	50.21
231.415	52.66
231.632	55.64
231.848	59.57
232.065	62.03
232.281	66.32
232.498	68.96
232.714	70.94
232.931	70.6
233.147	70.59
233.364	71.54
233.58	70.52
233.797	69.78
234.013	69.18
234.23	67.9
234.446	68.59
234.662	68.12
234.879	68.34
235.095	67.43
235.312	66.99
235.528	68.01
235.744	68.08
235.961	67.85
236.177	66.42
236.393	68.25
236.61	68.27
236.826	67.94
237.042	67.61
237.258	68.13
237.475	68.62
237.691	70.6
237.907	69.56
238.123	70.4
238.339	71.08
238.556	72.8
238.772	69.77
238.988	67.55
239.204	65.86
239.42	64.38
239.636	61.36
239.853	58.25
240.069	56.11
240.285	53.08
240.501	48.95
240.717	44.25
240.933	40.76
241.149	37.84
241.365	35.56
241.581	33.71
241.797	31.49
242.013	29.46
242.229	28.3
242.445	27.07
242.661	26.52
242.877	26.55
243.093	26.9
243.309	27.26
243.525	27.62
243.741	28.87
243.957	30.07
244.173	30.93
244.388	33.38
244.604	33.96
244.82	34.29
245.036	33.82
245.252	33.11
245.468	31.05
245.683	28.78
245.899	26.86
246.115	25.18
246.331	23.21
246.547	21.61
246.762	20.16
246.978	19.36
247.194	18.35
247.409	17.61
247.625	17.04
247.841	17.12
248.057	17.51
248.272	18.01
248.488	18.4
248.703	18.89
248.919	20.06
249.135	21.2
249.35	22.51
249.566	24.27
249.782	27.01
249.997	29.57
250.213	30.7
250.428	31.03
250.644	31.4
250.859	31.17
251.075	32.1
251.29	31.96
251.506	31.34
251.721	30.85
251.937	30.11
252.152	29.08
252.368	28.02
252.583	28.8
252.798	30.08
253.014	30.9
253.229	32.49
253.445	33.28
253.66	34.35
253.875	35.25
254.091	36.77
254.306	39.14
254.521	41.27
254.737	43.58
254.952	43.09
255.167	43.9
255.383	43.12
255.598	42.57
255.813	41.43
256.028	41.54
256.244	40.9
256.459	39.56
256.674	38.8
256.889	36.89
257.104	34.47
257.32	33.83
257.535	30.92
257.75	29.63
257.965	27.16
258.18	25.25
258.395	23.11
258.61	21.44
258.826	20.33
259.041	18.81
259.256	17.8
259.471	16.85
259.686	16.12
259.901	15.79
260.116	15.42
260.331	15.51
260.546	15.8
260.761	15.63
260.976	16.01
261.191	16.49
261.406	16.68
261.621	17.48
261.836	18.34
262.05	19.25
262.265	20.56
262.48	21.47
262.695	22.13
262.91	23.1
263.125	24.84
263.34	25.73
263.555	26.16
263.769	27.42
263.984	28.03
264.199	29.14
264.414	29.4
264.629	29.21
264.843	29.64
265.058	29.77
265.273	28.63
265.488	27.45
265.702	26.87
265.917	26.17
266.132	25.61
266.346	24.98
266.561	24.33
266.776	23.99
266.99	23.38
267.205	22.86
267.42	22.26
267.634	22.79
267.849	22.91
268.063	22.73
268.278	23.08
268.492	23.27
268.707	23.59
268.922	23.58
269.136	23.64
269.351	23.82
269.565	23.66
269.78	23.45
269.994	22.86
270.209	22.65
270.423	22.56
270.637	21.82
270.852	20.94
271.066	20.19
271.281	19.53
271.495	19.2
271.709	18.83
271.924	18.34
272.138	18.22
272.353	18.29
272.567	17.88
272.781	17.69
272.996	17.81
273.21	18.49
273.424	18.5
273.638	19.05
273.853	19.25
274.067	19.47
274.281	20.21
274.495	20.56
274.71	20.33
274.924	20.61
275.138	20.73
275.352	20.76
275.566	21.08
275.781	21.51
275.995	21.22
276.209	21.44
276.423	21.88
276.637	22.11
276.851	22.3
277.065	22.14
277.279	22.33
277.493	22.21
277.707	22.88
277.921	22.67
278.135	22.68
278.349	22.99
278.563	22.52
278.777	22.29
278.991	21.91
279.205	21.97
279.419	22.27
279.633	22.63
279.847	22.88
280.061	22.11
280.275	21.31
280.489	21.25
280.703	20.36
280.917	20.11
281.131	19.75
281.344	19.3
281.558	18.79
281.772	18.53
281.986	17.89
282.2	17.26
282.414	17.21
282.627	17.24
282.841	17.13
283.055	17.4
283.269	17.57
283.482	17.52
283.696	17.31
283.91	17.06
284.123	16.48
284.337	16.38
284.551	16.51
284.764	16.14
284.978	15.96
285.192	15.3
285.405	14.9
285.619	14.64
285.833	14.48
286.046	14.41
286.26	14.53
286.473	14.86
286.687	15.26
286.9	15.25
287.114	15.38
287.327	15.65
287.541	16.25
287.754	16.81
287.968	17.35
288.181	17.56
288.395	17.74
288.608	17.83
288.822	17.98
289.035	17.63
289.248	17.66
289.462	17.77
289.675	17.48
289.889	17.26
290.102	16.82
290.315	16.49
290.529	16.62
290.742	16.73
290.955	16.68
291.169	16.38
291.382	16.47
291.595	16.74
291.808	17.16
292.022	17.7
292.235	17.95
292.448	18.34
292.661	18.19
292.875	18.09
293.088	18.25
293.301	18.57
293.514	18.86
293.727	18.77
293.94	18.27
294.153	17.62
294.367	17.45
294.58	17.12
294.793	16.88
295.006	16.79
295.219	16.84
295.432	16.66
295.645	16.08
295.858	15.68
296.071	15.61
296.284	15.41
296.497	15.2
296.71	14.84
296.923	14.76
297.136	14.79
297.349	14.84
297.562	14.58
297.775	14.47
297.988	14.64
298.201	15.2
298.414	15.15
298.626	15.62
298.839	16.24
299.052	16.7
299.265	17.06
299.478	17.32
299.691	17.98
299.903	18.44
300.116	19.01
300.329	19.46
300.542	19.45
300.755	19.89
300.967	20.32
301.18	20.49
301.393	20.25
301.605	20.56
301.818	21.02
302.031	21.02
302.243	21.35
302.456	21.35
302.669	21.55
302.881	21.62
303.094	21.69
303.307	21.14
303.519	21.17
303.732	21.21
303.944	21.13
304.157	21.16
304.37	21.27
304.582	21.32
304.795	21.49
305.007	21.77
305.22	21.69
305.432	21.48
305.645	21.91
305.857	21.86
306.069	22.24
306.282	22.34
306.494	22.37
306.707	22.29
306.919	22.17
307.132	21.79
307.344	21.41
307.556	21.52
307.769	21.75
307.981	21.72
308.193	21.45
308.406	21.39
308.618	21.24
308.83	20.99
309.043	20.46
309.255	20.24
309.467	20.53
309.679	20.28
309.892	20.27
310.104	19.76
310.316	19.44
310.528	19.31
310.74	18.76
310.953	18.64
311.165	18.54
311.377	18.69
311.589	19.11
311.801	18.94
312.013	19.24
312.225	19.15
312.437	19.9
312.649	20.51
312.862	20.83
313.074	21.65
313.286	21.9
313.498	22.32
313.71	22.41
313.922	22.32
314.134	22.71
314.346	22.81
314.558	23.32
314.77	23.29
314.982	23.19
315.193	23.22
315.405	23.27
315.617	23.44
315.829	23.66
316.041	24.37
316.253	24.44
316.465	24.5
316.677	24.42
316.888	24.68
317.1	24.66
317.312	24.57
317.524	24.93
317.736	25.4
317.947	25.85
318.159	25.98
318.371	25.96
318.583	25.92
318.794	26.1
319.006	26.64
319.218	26.31
319.43	26.34
319.641	26.83
319.853	26.63
320.064	26.84
320.276	27.11
320.488	27.33
320.699	27.48
320.911	28.18
321.123	28.48
321.334	28.68
321.546	29.06
321.757	29.54
321.969	29.38
322.18	29.75
322.392	29.12
322.603	28.55
322.815	27.97
323.026	27.92
323.238	27.18
323.449	26.54
323.661	25.92
323.872	25.47
324.083	24.91
324.295	24.81
324.506	24.37
324.718	24.05
324.929	23.92
325.14	23.67
325.352	23.52
325.563	23.76
325.774	23.77
325.986	23.91
326.197	23.67
326.408	23.82
326.62	23.38
326.831	23.56
327.042	24.02
327.253	24
327.464	24.35
327.676	24.28
327.887	24.5
328.098	24.71
328.309	24.8
328.52	25.36
328.732	25.4
328.943	26.09
329.154	26.6
329.365	26.74
329.576	27.2
329.787	27.72
329.998	28.32
330.209	28.1
330.42	28.26
330.631	28.3
330.842	28.35
331.053	28.51
331.264	28.09
331.475	28.02
331.686	27.75
331.897	27.99
332.108	27.47
332.319	27.12
332.53	26.83
332.741	26.6
332.952	26.48
333.163	26.41
333.374	26.16
333.585	26.26
333.795	26.01
334.006	25.87
334.217	25.59
334.428	25.93
334.639	26.04
334.849	25.9
335.06	25.87
335.271	25.78
335.482	25.51
335.692	25.43
335.903	25.48
336.114	25.39
336.325	25.83
336.535	25.55
336.746	25.46
336.957	25.18
337.167	25.45
337.378	25.79
337.589	26.07
337.799	26.13
338.01	26.41
338.22	26.34
338.431	26.48
338.642	26.23
338.852	26.31
339.063	26.06
339.273	26.1
339.484	25.9
339.694	25.42
339.905	25.29
340.115	25.36
340.326	25.48
340.536	25.16
340.746	24.9
340.957	24.7
341.167	24.74
341.378	24.58
341.588	24.51
341.799	24.43
342.009	24.25
342.219	24
342.43	23.63
342.64	23.41
342.85	23.75
343.061	23.82
343.271	23.64
343.481	23.57
343.691	23.66
343.902	23.35
344.112	23.08
344.322	23.2
344.532	23.15
344.743	23.27
344.953	22.97
345.163	22.73
345.373	22.44
345.583	22.55
345.793	22.16
346.004	21.93
346.214	21.99
346.424	22.26
346.634	22.55
346.844	22.69
347.054	22.92
347.264	23.33
347.474	23.46
347.684	23.73
347.894	23.88
348.104	24.49
348.314	24.43
348.524	24.46
348.734	24.7
348.944	24.34
349.154	24.13
349.364	23.82
349.574	23.6
349.784	23.27
349.994	23.58
350.204	23.34
350.413	23.18
350.623	23.68
350.833	23.53
351.043	23.24
351.253	23.6
351.463	23.74
351.672	23.81
351.882	23.79
352.092	24.01
352.302	23.28
352.511	23.48
352.721	23.11
352.931	22.58
353.141	22.52
353.35	22.75
353.56	22.26
353.77	21.77
353.979	21.89
354.189	21.53
354.399	21.19
354.608	21.4
354.818	21.54
355.027	21.43
355.237	21.39
355.447	21.25
355.656	20.93
355.866	20.81
356.075	21.36
356.285	21.08
356.494	21.05
356.704	21.1
356.913	20.88
357.123	20.37
357.332	20.3
357.542	20.09
357.751	20.08
357.96	20.14
358.17	20.03
358.379	19.89
358.589	19.73
358.798	19.81
359.007	19.78
359.217	19.82
359.426	19.48
359.635	19.55
359.845	19.38
360.054	19.21
360.263	18.91
360.472	18.94
360.682	18.56
360.891	18.42
361.1	18.13
361.309	17.94
361.519	17.63
361.728	17.75
361.937	17.7
362.146	17.89
362.355	17.71
362.564	17.89
362.774	17.54
362.983	17.52
363.192	17.55
363.401	17.85
363.61	17.84
363.819	18.33
364.028	18.43
364.237	18.53
364.446	18.67
364.655	19
364.864	19.08
365.073	19.49
365.282	19.45
365.491	19.62
365.7	19.49
365.909	19.84
366.118	19.66
366.327	19.63
366.536	19.71
366.745	19.68
366.954	19.49
367.162	19.25
367.371	19.45
367.58	19.78
367.789	19.64
367.998	19.44
368.207	19.28
368.415	19.2
368.624	19.27
368.833	19.03
369.042	19.06
369.25	19.29
369.459	19.54
369.668	19.16
369.877	18.79
370.085	18.56
370.294	18.59
370.503	18.19
370.711	18.13
370.92	18.09
371.129	18.1
371.337	17.77
371.546	17.65
371.754	17.33
371.963	17.31
372.171	17.35
372.38	17.51
372.589	17.6
372.797	17.85
373.006	17.55
373.214	17.32
373.423	17.3
373.631	17.35
373.84	17.26
374.048	17.41
374.256	17.21
374.465	17.15
374.673	17.16
374.882	16.87
375.09	16.87
375.298	16.77
375.507	16.74
375.715	16.45
375.923	16.27
376.132	16.22
376.34	15.61
376.548	15.61
376.757	15.38
376.965	15.19
377.173	15.37
377.381	14.99
377.59	15.23
377.798	15.22
378.006	15.27
378.214	15.25
378.423	15
378.631	15.25
378.839	15.37
379.047	15.31
379.255	15.29
379.463	15.23
379.671	15.45
379.879	15.45
380.088	15.36
380.296	15.57
380.504	15.86
380.712	16.08
380.92	16.16
381.128	16.24
381.336	16.42
381.544	16.4
381.752	16.21
381.96	16.22
382.168	16.03
382.376	16.13
382.584	16.02
382.791	15.87
382.999	15.66
383.207	15.54
383.415	15.32
383.623	15.27
383.831	15.21
384.039	15.28
384.247	15.17
384.454	15.52
384.662	15.5
384.87	15.4
385.078	15.26
385.285	15.31
385.493	15.19
385.701	15.21
385.909	15.09
386.116	15.04
386.324	14.89
386.532	14.69
386.739	14.17
386.947	13.98
387.155	13.86
387.362	13.52
387.57	13.58
387.778	13.82
387.985	13.64
388.193	13.68
388.4	13.74
388.608	13.98
388.816	13.99
389.023	13.95
389.231	13.85
389.438	13.73
389.646	13.74
389.853	13.62
390.061	13.18
390.268	13.28
390.475	13.27
390.683	13.11
390.89	12.51
391.098	12.53
391.305	12.43
391.512	12.41
391.72	12.26
391.927	12.28
392.135	11.94
392.342	12.01
392.549	11.98
392.756	11.8
392.964	11.71
393.171	11.97
393.378	12
393.586	11.92
393.793	11.92
394	11.9
394.207	11.88
394.414	12.07
394.622	12.2
394.829	12.09
395.036	12.24
395.243	12.38
395.45	12.39
395.657	12.32
395.864	12.64
396.072	12.71
396.279	12.74
396.486	12.69
396.693	12.64
396.9	12.39
397.107	12.53
397.314	12.6
397.521	12.63
397.728	12.64
397.935	12.68
398.142	12.54
398.349	12.53
398.556	12.67
398.763	12.81
398.97	12.75
399.177	12.76
399.383	12.67
399.59	12.3
399.797	12.08
400.004	12.04
400.211	11.92
400.418	11.93
400.625	12.03
400.831	12
401.038	11.83
401.245	12
401.452	12.07
401.658	11.87
401.865	12.08
402.072	12.29
402.279	12.4
402.485	12.42
402.692	12.41
402.899	12.12
403.105	12.13
403.312	12.31
403.519	12.32
403.725	12.14
403.932	12.1
404.138	11.89
404.345	11.68
404.552	11.48
404.758	11.44
404.965	11.4
405.171	11.25
405.378	11.23
405.584	10.96
405.791	10.71
405.997	10.87
406.204	11.07
406.41	11.18
406.617	11.17
406.823	11.11
407.029	11.09
407.236	11.08
407.442	11.24
407.649	11.25
407.855	11.23
408.061	11.26
408.268	11.17
408.474	11.09
408.68	10.99
408.887	10.98
409.093	10.91
409.299	10.87
409.505	10.69
409.712	10.75
409.918	10.61
410.124	10.65
410.33	10.73
410.537	10.66
410.743	10.7
410.949	10.73
411.155	10.8
411.361	11
411.567	11.16
411.773	11.29
411.98	11.31
412.186	11.31
412.392	11.29
412.598	11.07
412.804	11.11
413.01	11.03
413.216	11.18
413.422	11.15
413.628	10.87
413.834	10.78
414.04	10.82
414.246	10.69
414.452	10.48
414.658	10.6
414.864	10.86
415.07	10.87
415.275	10.85
415.481	10.53
415.687	10.37
415.893	10.4
416.099	10.13
416.305	9.89
416.511	9.65
416.716	9.52
416.922	9.16
417.128	8.94
417.334	8.82
417.539	8.6
417.745	8.47
417.951	8.34
418.157	8.32
418.362	8.21
418.568	8.15
418.774	8.02
418.979	8.09
419.185	8.06
419.391	7.92
419.596	7.7
419.802	7.67
420.008	7.66
420.213	7.6
420.419	7.5
420.624	7.43
420.83	7.3
421.035	7.37
421.241	7.38
421.446	7.31
421.652	7.27
421.857	7.3
422.063	7.28
422.268	7.25
422.474	7.2
422.679	7.14
422.885	7.22
423.09	7.24
423.295	7.25
423.501	7.13
423.706	7.06
423.911	7.06
424.117	7.08
424.322	7.04
424.527	7.05
424.733	7.08
424.938	7.07
425.143	7.04
425.349	7.16
425.554	7.14
425.759	7.28
425.964	7.48
426.169	7.58
426.375	7.74
426.58	7.82
426.785	7.98
426.99	8.07
427.195	8.19
427.4	8.3
427.605	8.36
427.811	8.44
428.016	8.37
428.221	8.37
428.426	8.38
428.631	8.28
428.836	8.32
429.041	8.23
429.246	8.33
429.451	8.23
429.656	8.35
429.861	8.37
430.066	8.51
430.271	8.53
430.476	8.6
430.681	8.67
430.886	8.73
431.09	8.86
431.295	8.85
431.5	8.72
431.705	8.77
431.91	8.52
432.115	8.35
432.32	8.14
432.524	8.11
432.729	8.13
432.934	8.03
433.139	8.06
433.343	7.88
433.548	7.89
433.753	7.93
433.958	8.07
434.162	8.15
434.367	8.22
434.572	8.31
434.776	8.26
434.981	8.35
435.186	8.43
435.39	8.4
435.595	8.59
435.799	8.51
436.004	8.56
436.209	8.35
436.413	8.38
436.618	8.34
436.822	8.38
437.027	8.33
437.231	8.17
437.436	8.1
437.64	8.01
437.845	7.97
438.049	7.99
438.253	7.91
438.458	7.96
438.662	7.87
438.867	7.78
439.071	7.71
439.275	7.69
439.48	7.58
439.684	7.44
439.888	7.36
440.093	7.18
440.297	7.07
440.501	7.03
440.706	7
440.91	7.01
441.114	7.01
441.318	6.98
441.523	7.1
441.727	7.15
441.931	7.24
442.135	7.23
442.339	7.26
442.543	7.44
442.748	7.45
442.952	7.54
443.156	7.54
443.36	7.63
443.564	7.61
443.768	7.5
443.972	7.42
444.176	7.43
444.38	7.39
444.584	7.36
444.788	7.19
444.992	7.07
445.196	6.88
445.4	6.8
445.604	6.61
445.808	6.56
446.012	6.45
446.216	6.35
446.42	6.29
446.624	6.29
446.828	6.31
447.032	6.33
447.235	6.4
447.439	6.4
447.643	6.44
447.847	6.61
448.051	6.68
448.254	6.78
448.458	6.95
448.662	6.96
448.866	7.05
449.069	7.05
449.273	7.13
449.477	7.24
449.681	7.42
449.884	7.47
450.088	7.5
450.292	7.61
450.495	7.68
450.699	7.72
450.902	7.87
451.106	7.91
451.31	7.99
451.513	8.07
451.717	7.92
451.92	7.91
452.124	7.85
452.327	7.89
452.531	7.75
452.734	7.76
452.938	7.68
453.141	7.75
453.345	7.75
453.548	7.74
453.752	7.67
453.955	7.77
454.158	7.71
454.362	7.85
454.565	7.84
