Data from 2938852__Reflection_01.txt Node
Date: Wed Mar 11 12:23:12 EDT 2015
User: robert
Spectrometer: USB4E03002
Autoset integration time: false
Trigger mode: 4
Integration Time (sec): 1.000000E-1
Scans to average: 10
Electric dark correction enabled: false
Nonlinearity correction enabled: false
Boxcar width: 5
Stray light correction enabled: false
XAxis mode: Wavelengths
Stop averaging: false
Number of Pixels in Spectrum: 3648
>>>>>Begin Spectral Data<<<<<
177.575	85.19
177.794	166.67
178.014	77.4
178.233	64.71
178.452	-40.88
178.672	28.66
178.891	11.06
179.11	23.31
179.33	-13.69
179.549	-26.88
179.768	-34.62
179.987	-26.03
180.207	-36.61
180.426	-39.46
180.645	-36.86
180.864	34.18
181.084	-85.11
181.303	-550
181.522	-243.36
181.741	-97.63
181.96	-155.32
182.179	-525.86
182.398	-231.76
182.618	421.98
182.837	653.85
183.056	944.68
183.275	172.5
183.494	110.57
183.713	170.3
183.932	116.52
184.151	119.83
184.37	81.29
184.589	184.11
184.808	310.22
185.027	-540.48
185.246	-263.33
185.465	-25.83
185.684	-15.54
185.903	-55.24
186.122	-40.47
186.341	-11.3
186.56	-18.62
186.779	-58.55
186.998	-27.31
187.216	3.36
187.435	9.2
187.654	22.26
187.873	37.26
188.092	28.69
188.311	41.95
188.53	50.37
188.748	45.33
188.967	43.53
189.186	67.47
189.405	70.72
189.623	70.61
189.842	59.61
190.061	63.23
190.28	52.93
190.498	63.4
190.717	62.69
190.936	72.97
191.154	59.34
191.373	74.91
191.592	67.01
191.81	56.56
192.029	50.88
192.248	132.74
192.466	94.86
192.685	35.33
192.904	0.69
193.122	-11.46
193.341	-67.13
193.559	-4.67
193.778	-106.17
193.996	-32.84
194.215	-15.24
194.433	-1.29
194.652	-45.74
194.87	-55.71
195.089	-38.22
195.307	-12.09
195.526	-19.44
195.744	17.03
195.963	29.68
196.181	33.52
196.399	39.89
196.618	13.16
196.836	18.03
197.055	29.93
197.273	59.01
197.491	65.74
197.71	58.88
197.928	43.86
198.146	33.59
198.365	12.33
198.583	7.7
198.801	10.09
199.019	23.83
199.238	29.82
199.456	25.74
199.674	-14.65
199.892	17.02
200.111	11.97
200.329	12.08
200.547	11.35
200.765	10.6
200.983	12.93
201.202	13.95
201.42	31.11
201.638	17.85
201.856	21.77
202.074	24.31
202.292	3.95
202.51	10.06
202.728	23.06
202.946	33.69
203.165	25.98
203.383	51.82
203.601	35.62
203.819	75.26
204.037	74.1
204.255	39.27
204.473	28.12
204.691	53.83
204.909	55.89
205.127	25.96
205.345	-15.85
205.562	11.25
205.78	3.45
205.998	4.18
206.216	-14.63
206.434	9.52
206.652	15.7
206.87	16.9
207.088	20.26
207.306	12.33
207.523	40.21
207.741	34.4
207.959	28.18
208.177	10.94
208.395	-10.39
208.612	-24.06
208.83	-36.58
209.048	-50
209.266	-2.27
209.483	-29.27
209.701	-36.81
209.919	-33.52
210.136	-22.2
210.354	10.71
210.572	31.1
210.79	59.36
211.007	52.51
211.225	58
211.442	59.43
211.66	29.79
211.878	55.65
212.095	-52.03
212.313	-84.01
212.53	-64.73
212.748	-49.74
212.966	-55.02
213.183	-66.67
213.401	-37.12
213.618	-53.92
213.836	-52.04
214.053	-32.76
214.271	-35.78
214.488	14.95
214.705	11.33
214.923	-1.55
215.14	-26.26
215.358	-25.92
215.575	-8.09
215.793	-17.03
216.01	-15.87
216.227	-14.15
216.445	-10.1
216.662	-23.03
216.879	-23.25
217.097	-14.84
217.314	-9.1
217.531	3.38
217.749	0.98
217.966	6.62
218.183	17.11
218.4	15.48
218.618	5.05
218.835	2
219.052	9.73
219.269	20.03
219.487	16.57
219.704	16.85
219.921	16.46
220.138	24.33
220.355	13.03
220.572	11.21
220.79	13.87
221.007	15.66
221.224	8.67
221.441	5.33
221.658	4.79
221.875	10.18
222.092	12.69
222.309	10.05
222.526	8.55
222.743	5.37
222.96	4.17
223.177	2.5
223.394	-0.78
223.611	0.13
223.828	1.52
224.045	0.73
224.262	0.8
224.479	3.07
224.696	3.58
224.913	3.29
225.13	8.48
225.347	3.15
225.564	3.78
225.781	6.78
225.997	6.28
226.214	3.77
226.431	3.44
226.648	0.95
226.865	0.11
227.082	2.2
227.298	2.14
227.515	0.52
227.732	1.38
227.949	1.79
228.165	1.67
228.382	2.12
228.599	3
228.816	3.79
229.032	3.92
229.249	3.44
229.466	2.79
229.682	2.25
229.899	2.66
230.116	2.8
230.332	2.54
230.549	2.08
230.765	2.25
230.982	1.42
231.199	0.26
231.415	0.03
231.632	0.36
231.848	0.79
232.065	2.56
232.281	2.39
232.498	2.75
232.714	1.91
232.931	3.21
233.147	2.36
233.364	2.55
233.58	3.51
233.797	3.43
234.013	3.75
234.23	2.83
234.446	1.95
234.662	1.17
234.879	0.19
235.095	0.56
235.312	0.28
235.528	0.17
235.744	0.53
235.961	-1.23
236.177	-1.26
236.393	-1.57
236.61	-1.44
236.826	0.05
237.042	2.15
237.258	2.51
237.475	2.91
237.691	2.74
237.907	3.84
238.123	3.2
238.339	4.59
238.556	4.67
238.772	4.29
238.988	4.81
239.204	2.98
239.42	2.7
239.636	3.2
239.853	2.63
240.069	2.26
240.285	2.18
240.501	3.55
240.717	3.36
240.933	2.82
241.149	3.24
241.365	2.95
241.581	3.37
241.797	2.65
242.013	3.02
242.229	3.32
242.445	3.85
242.661	4.17
242.877	3.67
243.093	3.19
243.309	3.65
243.525	3.52
243.741	3.63
243.957	2.98
244.173	3.55
244.388	2.81
244.604	2.49
244.82	1.46
245.036	0.67
245.252	0.71
245.468	1.73
245.683	2.6
245.899	2.58
246.115	2.74
246.331	3.1
246.547	3.07
246.762	3.39
246.978	3.45
247.194	3.82
247.409	4.24
247.625	4.31
247.841	3.88
248.057	3.63
248.272	3.75
248.488	3.58
248.703	3.98
248.919	4.19
249.135	4.28
249.35	4.43
249.566	3.87
249.782	3.51
249.997	3.47
250.213	3.79
250.428	3.51
250.644	3.43
250.859	3.14
251.075	2.6
251.29	2.51
251.506	2.39
251.721	2.89
251.937	3.53
252.152	4.31
252.368	4.32
252.583	4.64
252.798	4.29
253.014	4.79
253.229	5.41
253.445	5.03
253.66	4.74
253.875	5
254.091	3.66
254.306	3.92
254.521	2.57
254.737	2.71
254.952	2.41
255.167	2.9
255.383	2.05
255.598	1.1
255.813	1.4
256.028	1.74
256.244	2.14
256.459	3.58
256.674	2.86
256.889	2.88
257.104	2.66
257.32	2.48
257.535	2.28
257.75	2.34
257.965	3.1
258.18	3.07
258.395	3.39
258.61	3.08
258.826	2.76
259.041	2.96
259.256	2.96
259.471	3.02
259.686	3.18
259.901	3.34
260.116	3.45
260.331	3.28
260.546	3.36
260.761	3.01
260.976	2.83
261.191	2.83
261.406	2.91
261.621	3.26
261.836	3.17
262.05	2.55
262.265	2.29
262.48	1.86
262.695	1.33
262.91	1.12
263.125	1.32
263.34	1.48
263.555	1.54
263.769	1.25
263.984	0.09
264.199	-0.2
264.414	0.88
264.629	1.21
264.843	1.25
265.058	1.94
265.273	1.45
265.488	0.95
265.702	0.7
265.917	1.05
266.132	0.8
266.346	1.53
266.561	1.84
266.776	1.67
266.99	1.52
267.205	1.33
267.42	1.45
267.634	1.86
267.849	2.29
268.063	2.51
268.278	2.1
268.492	2.89
268.707	2.59
268.922	2.72
269.136	2.58
269.351	2.84
269.565	2.61
269.78	2.38
269.994	2.07
270.209	2.09
270.423	2.13
270.637	2.55
270.852	2.3
271.066	2.21
271.281	2.08
271.495	2.19
271.709	1.58
271.924	2.27
272.138	2.18
272.353	2.28
272.567	2
272.781	1.97
272.996	1.48
273.21	1.21
273.424	1.53
273.638	1.11
273.853	1.2
274.067	1.78
274.281	1.75
274.495	2.1
274.71	2.19
274.924	2.35
275.138	2.62
275.352	3.42
275.566	3.81
275.781	3.82
275.995	4.09
276.209	3.92
276.423	3.95
276.637	3.55
276.851	3.54
277.065	3.51
277.279	3.58
277.493	3.39
277.707	2.85
277.921	2.47
278.135	2.17
278.349	2.31
278.563	2.18
278.777	2.27
278.991	2.51
279.205	2.31
279.419	2.38
279.633	2.77
279.847	3.04
280.061	3.29
280.275	3.57
280.489	3.26
280.703	3.34
280.917	3.64
281.131	3.42
281.344	3.68
281.558	3.5
281.772	3.25
281.986	2.74
282.2	2.58
282.414	2.24
282.627	2.11
282.841	2.91
283.055	2.76
283.269	2.61
283.482	2.84
283.696	2.58
283.91	2.56
284.123	2.67
284.337	2.76
284.551	2.9
284.764	3.22
284.978	3.04
285.192	2.65
285.405	2.67
285.619	2.5
285.833	2.28
286.046	2.31
286.26	2.51
286.473	2.67
286.687	2.84
286.9	2.91
287.114	3.01
287.327	3.1
287.541	3.25
287.754	3.44
287.968	3.61
288.181	3.91
288.395	3.89
288.608	4.01
288.822	3.84
289.035	3.71
289.248	3.42
289.462	3.39
289.675	3.69
289.889	3.55
290.102	3.37
290.315	3.46
290.529	3.48
290.742	3.47
290.955	3.24
291.169	3.4
291.382	3.62
291.595	3.55
291.808	3.42
292.022	3.54
292.235	3.21
292.448	3.25
292.661	3
292.875	2.77
293.088	2.96
293.301	3.13
293.514	3.28
293.727	3.3
293.94	3.47
294.153	3.36
294.367	3.05
294.58	3.41
294.793	3.46
295.006	3.52
295.219	3.45
295.432	3.3
295.645	3.17
295.858	3.22
296.071	2.94
296.284	2.94
296.497	2.95
296.71	2.97
296.923	3.1
297.136	3.18
297.349	3.23
297.562	3.34
297.775	3.46
297.988	3.62
298.201	3.38
298.414	3.51
298.626	3.65
298.839	3.63
299.052	3.56
299.265	3.54
299.478	3.65
299.691	3.93
299.903	3.87
300.116	3.73
300.329	3.36
300.542	3.4
300.755	3.67
300.967	3.48
301.18	3.76
301.393	4.14
301.605	4.43
301.818	4.41
302.031	4.51
302.243	4.7
302.456	4.72
302.669	5.13
302.881	5.44
303.094	5.67
303.307	5.75
303.519	5.64
303.732	5.56
303.944	5.35
304.157	5.01
304.37	4.76
304.582	4.31
304.795	4.45
305.007	4.34
305.22	4.37
305.432	3.98
305.645	4.2
305.857	4
306.069	3.53
306.282	3.38
306.494	3.67
306.707	3.4
306.919	4.15
307.132	4.19
307.344	4.44
307.556	4.32
307.769	4.31
307.981	4.42
308.193	4.64
308.406	4.94
308.618	5.08
308.83	5.12
309.043	5.37
309.255	4.83
309.467	4.5
309.679	4.42
309.892	4.39
310.104	4.62
310.316	4.48
310.528	4.57
310.74	4.71
310.953	4.61
311.165	4.41
311.377	4.51
311.589	4.66
311.801	4.86
312.013	4.67
312.225	4.67
312.437	4.53
312.649	4.7
312.862	4.8
313.074	4.92
313.286	4.9
313.498	5.25
313.71	5.18
313.922	5.28
314.134	5.4
314.346	5.37
314.558	5.58
314.77	5.5
314.982	5.09
315.193	4.98
315.405	4.75
315.617	4.85
315.829	4.45
316.041	4.57
316.253	4.43
316.465	4.19
316.677	4.64
316.888	4.59
317.1	4.64
317.312	4.77
317.524	4.96
317.736	4.97
317.947	5.23
318.159	5.45
318.371	5.34
318.583	5.42
318.794	5.72
319.006	5.43
319.218	5.53
319.43	5.67
319.641	5.94
319.853	5.51
320.064	5.37
320.276	5.13
320.488	5.34
320.699	5.3
320.911	6.03
321.123	6.12
321.334	6.29
321.546	6.41
321.757	6.43
321.969	6.69
322.18	6.94
322.392	7.52
322.603	7.53
322.815	7.49
323.026	7.68
323.238	6.97
323.449	6.95
323.661	7.05
323.872	7.09
324.083	6.8
324.295	6.68
324.506	6.51
324.718	6.27
324.929	6.14
325.14	6.23
325.352	6.08
325.563	6.35
325.774	6.29
325.986	6.14
326.197	5.97
326.408	6.08
326.62	5.84
326.831	6.47
327.042	6.49
327.253	6.65
327.464	6.52
327.676	6.65
327.887	6.47
328.098	6.6
328.309	6.65
328.52	6.56
328.732	6.53
328.943	6.82
329.154	6.48
329.365	6.47
329.576	6.85
329.787	6.99
329.998	6.84
330.209	7.13
330.42	7.31
330.631	7.54
330.842	7.68
331.053	7.64
331.264	7.37
331.475	7.66
331.686	7.87
331.897	7.53
332.108	7.03
332.319	7.25
332.53	7.05
332.741	6.74
332.952	6.42
333.163	6.78
333.374	7.16
333.585	7.18
333.795	7.47
334.006	7.39
334.217	7.58
334.428	8.04
334.639	7.87
334.849	8.04
335.06	8.02
335.271	8.04
335.482	7.98
335.692	8
335.903	8.12
336.114	7.66
336.325	7.62
336.535	7.43
336.746	7.83
336.957	7.74
337.167	7.82
337.378	7.88
337.589	8.12
337.799	8
338.01	8.02
338.22	7.75
338.431	7.67
338.642	7.66
338.852	7.86
339.063	7.51
339.273	7.6
339.484	7.44
339.694	7.64
339.905	7.6
340.115	7.7
340.326	7.43
340.536	7.63
340.746	7.85
340.957	7.53
341.167	7.67
341.378	7.69
341.588	7.8
341.799	7.94
342.009	8.01
342.219	7.91
342.43	8.03
342.64	8.16
342.85	8.21
343.061	7.97
343.271	8.34
343.481	8.03
343.691	8.09
343.902	8.23
344.112	7.94
344.322	7.81
344.532	7.78
344.743	7.49
344.953	7.41
345.163	7.44
345.373	7.67
345.583	7.68
345.793	7.78
346.004	7.94
346.214	7.62
346.424	8.04
346.634	8.17
346.844	8.29
347.054	8.41
347.264	8.4
347.474	8.31
347.684	8.13
347.894	8.29
348.104	8.21
348.314	7.8
348.524	7.79
348.734	7.78
348.944	7.76
349.154	7.72
349.364	7.59
349.574	7.63
349.784	7.87
349.994	7.71
350.204	7.34
350.413	7.39
350.623	7.41
350.833	7.59
351.043	7.09
351.253	6.91
351.463	6.96
351.672	7.03
351.882	7.06
352.092	7.05
352.302	7.12
352.511	7.35
352.721	7.18
352.931	7.36
353.141	7.12
353.35	7.2
353.56	7.32
353.77	7.45
353.979	7.44
354.189	7.61
354.399	7.42
354.608	7.53
354.818	7.34
355.027	7.66
355.237	7.54
355.447	7.63
355.656	7.87
355.866	7.62
356.075	7.48
356.285	7.69
356.494	7.56
356.704	7.64
356.913	7.7
357.123	7.77
357.332	7.73
357.542	7.82
357.751	7.94
357.96	8.09
358.17	8.23
358.379	8.24
358.589	7.97
358.798	7.97
359.007	7.97
359.217	7.86
359.426	7.98
359.635	7.88
359.845	7.67
360.054	7.57
360.263	7.44
360.472	7.4
360.682	7.12
360.891	7.19
361.1	7.22
361.309	7.27
361.519	7.47
361.728	7.38
361.937	7.4
362.146	7.44
362.355	7.38
362.564	7.37
362.774	7.49
362.983	7.67
363.192	7.68
363.401	7.72
363.61	7.62
363.819	7.37
364.028	7.32
364.237	7.28
364.446	7.51
364.655	7.69
364.864	7.67
365.073	7.53
365.282	7.57
365.491	7.53
365.7	7.37
365.909	7.47
366.118	7.44
366.327	7.51
366.536	7.39
366.745	7.28
366.954	7.24
367.162	7.28
367.371	7.18
367.58	7.26
367.789	7.33
367.998	7.39
368.207	7.3
368.415	7.22
368.624	7.28
368.833	7.33
369.042	7.25
369.25	7.15
369.459	7.03
369.668	7.2
369.877	7.15
370.085	7.01
370.294	6.97
370.503	7.01
370.711	6.99
370.92	6.77
371.129	6.8
371.337	6.72
371.546	6.74
371.754	6.87
371.963	6.8
372.171	6.71
372.38	6.59
372.589	6.39
372.797	6.2
373.006	6.25
373.214	6.31
373.423	6.38
373.631	6.29
373.84	6.27
374.048	6.01
374.256	6.12
374.465	6.26
374.673	6.54
374.882	6.88
375.09	7.07
375.298	6.96
375.507	6.77
375.715	6.65
375.923	6.58
376.132	6.75
376.34	7.03
376.548	6.8
376.757	6.62
376.965	6.44
377.173	6.46
377.381	6.35
377.59	6.57
377.798	6.83
378.006	6.9
378.214	7.13
378.423	6.96
378.631	6.78
378.839	6.82
379.047	6.76
379.255	6.83
379.463	6.67
379.671	6.75
379.879	6.68
380.088	6.58
380.296	6.55
380.504	6.61
380.712	6.63
380.92	6.51
381.128	6.28
381.336	6.58
381.544	6.62
381.752	6.52
381.96	6.54
382.168	6.51
382.376	6.37
382.584	6.42
382.791	6.35
382.999	6.11
383.207	6.23
383.415	6.35
383.623	6.09
383.831	6.05
384.039	6.03
384.247	5.98
384.454	6.11
384.662	6.16
384.87	6.13
385.078	6.05
385.285	6.19
385.493	6.01
385.701	6.24
385.909	6.55
386.116	6.58
386.324	6.71
386.532	6.74
386.739	6.57
386.947	6.54
387.155	6.66
387.362	6.75
387.57	6.81
387.778	6.83
387.985	6.66
388.193	6.4
388.4	6.22
388.608	6.1
388.816	6.04
389.023	5.94
389.231	5.91
389.438	5.73
389.646	5.49
389.853	5.45
390.061	5.6
390.268	5.65
390.475	5.65
390.683	5.71
390.89	5.75
391.098	5.78
391.305	5.75
391.512	5.63
391.72	5.66
391.927	5.62
392.135	5.67
392.342	5.64
392.549	5.62
392.756	5.6
392.964	5.61
393.171	5.73
393.378	5.74
393.586	5.97
393.793	6.04
394	6.05
394.207	6.27
394.414	6.19
394.622	6.07
394.829	6.1
395.036	6
395.243	5.97
395.45	5.95
395.657	5.95
395.864	5.79
396.072	5.81
396.279	5.8
396.486	5.63
396.693	5.7
396.9	5.81
397.107	5.78
397.314	5.97
397.521	5.86
397.728	5.76
397.935	5.71
398.142	5.69
398.349	5.81
398.556	5.77
398.763	5.71
398.97	5.57
399.177	5.55
399.383	5.5
399.59	5.52
399.797	5.56
400.004	5.55
400.211	5.48
400.418	5.59
400.625	5.69
400.831	5.72
401.038	5.83
401.245	5.98
401.452	5.96
401.658	6.03
401.865	5.81
402.072	5.87
402.279	5.87
402.485	5.73
402.692	5.56
402.899	5.16
403.105	5.15
403.312	5.19
403.519	5.28
403.725	5.23
403.932	5.11
404.138	5.15
404.345	5.18
404.552	5.19
404.758	5.17
404.965	5.28
405.171	5.52
405.378	5.55
405.584	5.6
405.791	5.5
405.997	5.65
406.204	5.81
406.41	5.88
406.617	5.87
406.823	5.96
407.029	6.3
407.236	6.34
407.442	6.17
407.649	6.2
407.855	5.9
408.061	5.86
408.268	5.69
408.474	5.53
408.68	5.56
408.887	5.49
409.093	5.38
409.299	5.16
409.505	4.98
409.712	5.09
409.918	5.05
410.124	5.31
410.33	5.36
410.537	5.41
410.743	5.45
410.949	5.52
411.155	5.56
411.361	5.54
411.567	5.57
411.773	5.71
411.98	5.72
412.186	5.72
412.392	5.62
412.598	5.69
412.804	5.66
413.01	5.65
413.216	5.68
413.422	5.71
413.628	5.59
413.834	5.49
414.04	5.48
414.246	5.42
414.452	5.48
414.658	5.52
414.864	5.27
415.07	5.32
415.275	5.41
415.481	5.37
415.687	5.32
415.893	5.44
416.099	5.49
416.305	5.4
416.511	5.5
416.716	5.28
416.922	5.35
417.128	5.51
417.334	5.56
417.539	5.61
417.745	5.58
417.951	5.63
418.157	5.56
418.362	5.61
418.568	5.61
418.774	5.54
418.979	5.6
419.185	5.54
419.391	5.52
419.596	5.41
419.802	5.31
420.008	5.25
420.213	4.6
420.419	4.61
420.624	4.55
420.83	4.54
421.035	4.57
421.241	4.61
421.446	4.64
421.652	4.66
421.857	4.67
422.063	4.72
422.268	4.71
422.474	5.32
422.679	5.41
422.885	5.39
423.09	5.44
423.295	5.46
423.501	5.41
423.706	5.36
423.911	5.34
424.117	5.35
424.322	5.41
424.527	5.49
424.733	5.54
424.938	5.49
425.143	5.52
425.349	5.51
425.554	5.53
425.759	5.59
425.964	5.57
426.169	5.65
426.375	5.61
426.58	5.5
426.785	5.44
426.99	5.41
427.195	5.43
427.4	5.4
427.605	5.38
427.811	5.39
428.016	5.45
428.221	5.55
428.426	5.47
428.631	5.66
428.836	5.68
429.041	5.74
429.246	5.73
429.451	5.76
429.656	5.88
429.861	5.98
430.066	5.91
430.271	5.86
430.476	5.88
430.681	5.86
430.886	5.8
431.09	5.7
431.295	5.58
431.5	5.52
431.705	5.43
431.91	5.33
432.115	5.3
432.32	5.31
432.524	5.31
432.729	5.18
432.934	5.14
433.139	5.09
433.343	5.22
433.548	5.29
433.753	5.32
433.958	5.36
434.162	5.47
434.367	5.44
434.572	5.49
434.776	5.51
434.981	5.67
435.186	5.72
435.39	5.71
435.595	5.64
435.799	5.5
436.004	5.48
436.209	5.5
436.413	5.43
436.618	5.43
436.822	5.41
437.027	5.34
437.231	5.29
437.436	5.36
437.64	5.45
437.845	5.56
438.049	5.69
438.253	5.7
438.458	5.72
438.662	5.72
438.867	5.69
439.071	5.7
439.275	5.79
439.48	5.69
439.684	5.64
439.888	5.59
440.093	5.55
440.297	5.56
440.501	5.52
440.706	5.51
440.91	5.57
441.114	5.58
441.318	5.59
441.523	5.55
441.727	5.64
441.931	5.6
442.135	5.66
442.339	5.65
442.543	5.59
442.748	5.56
442.952	5.53
443.156	5.39
443.36	5.36
443.564	5.37
443.768	5.38
443.972	5.37
444.176	5.39
444.38	5.33
444.584	5.3
444.788	5.23
444.992	5.34
445.196	5.32
445.4	5.33
445.604	5.42
445.808	5.38
446.012	5.33
446.216	5.29
446.42	5.25
446.624	5.25
446.828	5.26
447.032	5.28
447.235	5.27
447.439	5.33
447.643	5.39
447.847	5.34
448.051	5.29
448.254	5.27
448.458	5.25
448.662	5.29
448.866	5.34
449.069	5.36
449.273	5.46
449.477	5.38
449.681	5.31
449.884	5.23
450.088	5.22
450.292	5.38
450.495	5.45
450.699	5.49
450.902	5.52
451.106	5.49
451.31	5.49
451.513	5.54
451.717	5.58
451.92	5.61
452.124	5.68
452.327	5.65
452.531	5.57
452.734	5.5
452.938	5.57
453.141	5.53
453.345	5.53
453.548	5.55
453.752	5.42
453.955	5.31
454.158	5.29
454.362	5.24
454.565	5.26
454.769	5.23
454.972	5.39
455.175	5.4
455.379	5.39
455.582	5.42
455.785	5.34
455.988	5.41
456.192	5.51
456.395	5.55
456.598	5.51
456.801	5.45
457.005	5.41
457.208	5.31
457.411	5.16
457.614	5.25
457.817	5.27
458.021	5.31
458.224	5.28
458.427	5.29
458.63	5.2
458.833	5.23
459.036	5.28
459.239	5.31
459.442	5.31
459.645	5.28
459.848	5.29
460.051	5.24
460.254	5.22
460.457	5.17
460.66	5.19
460.863	5.22
461.066	5.23
461.269	5.22
461.472	5.24
461.675	5.23
461.878	5.19
462.081	5.11
462.284	5.17
462.486	5.21
462.689	5.4
462.892	5.35
463.095	5.36
463.298	5.42
463.5	5.46
463.703	5.42
463.906	5.34
464.109	5.5
464.311	5.5
464.514	5.41
464.717	5.38
464.92	5.19
465.122	5.19
465.325	5.2
465.528	5.06
465.73	5.07
465.933	5.05
466.135	5.14
466.338	5.11
466.541	5.07
466.743	5.14
466.946	5.09
467.148	5.19
467.351	5.28
467.553	5.34
467.756	5.43
467.958	5.42
468.161	5.38
468.363	5.31
468.566	5.28
468.768	5.39
468.971	5.31
469.173	5.37
469.375	5.39
469.578	5.28
469.78	5.29
469.983	5.29
470.185	5.17
470.387	5.17
470.59	5.19
470.792	5.22
470.994	5.18
471.196	5.2
471.399	5.23
471.601	5.22
471.803	5.3
472.005	5.28
