Data from 2938729__Reflection_03.txt Node
Date: Sun Mar 15 19:07:06 EDT 2015
User: robert
Spectrometer: USB4E03002
Autoset integration time: false
Trigger mode: 4
Integration Time (sec): 1.000000E-1
Scans to average: 10
Electric dark correction enabled: false
Nonlinearity correction enabled: false
Boxcar width: 5
Stray light correction enabled: false
XAxis mode: Wavelengths
Stop averaging: false
Number of Pixels in Spectrum: 3648
>>>>>Begin Spectral Data<<<<<
177.575	-45.81
177.794	-4.74
178.014	-56.12
178.233	-75.49
178.452	-76.08
178.672	-34.87
178.891	-36.18
179.11	-53.63
179.33	-310.14
179.549	-1478.57
179.768	-467.74
179.987	-9.27
180.207	346.58
180.426	800
180.645	-50.62
180.864	5.17
181.084	41.09
181.303	64.5
181.522	60.98
181.741	66
181.96	25.81
182.179	59.11
182.398	53.87
182.618	34.07
182.837	52.75
183.056	91.41
183.275	72.57
183.494	90.89
183.713	79.64
183.932	107.26
184.151	95.55
184.37	86.36
184.589	66.32
184.808	62.6
185.027	77.59
185.246	99.66
185.465	65.45
185.684	83.01
185.903	30.83
186.122	-11.54
186.341	26.59
186.56	40
186.779	156.67
186.998	-136
187.216	1828.57
187.435	-151.11
187.654	-8200
187.873	20.6
188.092	15.47
188.311	-458.82
188.53	-455.56
188.748	757.69
188.967	429.82
189.186	330.33
189.405	374.07
189.623	260.71
189.842	301.82
190.061	680.95
190.28	200
190.498	170.42
190.717	72
190.936	123.96
191.154	130.45
191.373	-38.78
191.592	-33.33
191.81	33.46
192.029	31.43
192.248	56.29
192.466	42.38
192.685	30.25
192.904	43.73
193.122	10
193.341	-3.72
193.559	-17.47
193.778	60.86
193.996	56.96
194.215	110.13
194.433	119.4
194.652	16.22
194.87	800
195.089	-179.84
195.307	-470.77
195.526	-430.88
195.744	-103.43
195.963	-92.54
196.181	-109.85
196.399	-114.97
196.618	-217.19
196.836	1880
197.055	364.81
197.273	8.41
197.491	-11.85
197.71	-21.71
197.928	22.31
198.146	33.92
198.365	68.22
198.583	119.75
198.801	85.34
199.019	110.89
199.238	97.3
199.456	155.14
199.674	242.2
199.892	147.17
200.111	180.7
200.329	144.4
200.547	131.49
200.765	231.86
200.983	184.91
201.202	469.57
201.42	206.69
201.638	366.92
201.856	154.44
202.074	133.33
202.292	495.08
202.51	219.8
202.728	250
202.946	157.8
203.165	71.7
203.383	4.02
203.601	-8.16
203.819	-58.87
204.037	-42.37
204.255	-134.85
204.473	-281.13
204.691	-154.46
204.909	-60.77
205.127	-167.57
205.345	-221.01
205.562	-391.67
205.78	-93.38
205.998	1138.1
206.216	-170.68
206.434	-71.19
206.652	-3.31
206.87	-1.17
207.088	25.6
207.306	30.64
207.523	50.67
207.741	55.57
207.959	58.48
208.177	63.67
208.395	79.7
208.612	85.92
208.83	89.44
209.048	89.73
209.266	85.19
209.483	81.77
209.701	72.53
209.919	73.76
210.136	80
210.354	62.22
210.572	45.59
210.79	28.74
211.007	47.56
211.225	31.87
211.442	32.55
211.66	29.86
211.878	23.8
212.095	32
212.313	35.77
212.53	29.2
212.748	29.12
212.966	27.65
213.183	23.6
213.401	10.95
213.618	17.28
213.836	17.52
214.053	20.42
214.271	17.61
214.488	1.99
214.705	-0.6
214.923	-1.86
215.14	10.75
215.358	10.37
215.575	27.79
215.793	34.42
216.01	5
216.227	-67.76
216.445	-28.15
216.662	-13.16
216.879	8.27
217.097	4.35
217.314	8.7
217.531	11.34
217.749	-17.65
217.966	-31.23
218.183	-6.92
218.4	3.32
218.618	24.82
218.835	9.56
219.052	-19.27
219.269	27.72
219.487	29.37
219.704	72.08
219.921	83.01
220.138	96.36
220.355	100.74
220.572	81.54
220.79	77.68
221.007	69.37
221.224	79.35
221.441	78.88
221.658	71.47
221.875	61.94
222.092	47.37
222.309	45.85
222.526	39.67
222.743	34.54
222.96	40.29
223.177	35.94
223.394	30.61
223.611	36.97
223.828	34.82
224.045	26.92
224.262	30.82
224.479	26.29
224.696	24.21
224.913	20.07
225.13	19.37
225.347	11.06
225.564	10.19
225.781	14.09
225.997	8.97
226.214	10.17
226.431	10.89
226.648	9.58
226.865	12.42
227.082	12.19
227.298	11.88
227.515	12.51
227.732	11.78
227.949	11.76
228.165	9.18
228.382	8.48
228.599	8.42
228.816	6.7
229.032	7.09
229.249	6.01
229.466	6.35
229.682	5.62
229.899	4.6
230.116	6.01
230.332	4.97
230.549	4.41
230.765	3.36
230.982	2.87
231.199	4.34
231.415	2.87
231.632	2.67
231.848	0.44
232.065	0.6
232.281	1.5
232.498	-0.55
232.714	-0.86
232.931	1.84
233.147	3.01
233.364	3.64
233.58	4.59
233.797	5.84
234.013	5.89
234.23	7.24
234.446	9.74
234.662	9.89
234.879	10.44
235.095	12.17
235.312	11.92
235.528	13.11
235.744	12.1
235.961	10.65
236.177	9.52
236.393	10.61
236.61	7.33
236.826	5.2
237.042	3.95
237.258	3.47
237.475	2.88
237.691	0.48
237.907	0.95
238.123	0.55
238.339	2.01
238.556	2.45
238.772	1.41
238.988	3.6
239.204	4.77
239.42	4.14
239.636	4.35
239.853	2.86
240.069	3.45
240.285	2.27
240.501	2.45
240.717	1.23
240.933	2.67
241.149	2.14
241.365	1.51
241.581	1.59
241.797	2.13
242.013	1.71
242.229	2.45
242.445	2.97
242.661	3.48
242.877	3.06
243.093	3.32
243.309	2.84
243.525	3
243.741	3.17
243.957	2.66
244.173	2.37
244.388	2.72
244.604	2.22
244.82	1.73
245.036	1.47
245.252	2.06
245.468	2.37
245.683	2.05
245.899	2.75
246.115	3.05
246.331	2.88
246.547	2.76
246.762	2.57
246.978	2.46
247.194	2.48
247.409	2.59
247.625	2.59
247.841	2.9
248.057	2.92
248.272	2.76
248.488	2.71
248.703	2.86
248.919	3.35
249.135	3.31
249.35	4.02
249.566	3.92
249.782	4.18
249.997	3.9
250.213	3.17
250.428	3.34
250.644	3.5
250.859	2.9
251.075	3.69
251.29	3.33
251.506	3.41
251.721	2.43
251.937	3.02
252.152	2.86
252.368	3.17
252.583	2.88
252.798	3.29
253.014	1.71
253.229	2.52
253.445	2.99
253.66	3.73
253.875	5.19
254.091	6.02
254.306	4.92
254.521	4.36
254.737	4.44
254.952	3.75
255.167	2.39
255.383	5.19
255.598	4.93
255.813	2.5
256.028	1.83
256.244	0.16
256.459	0.01
256.674	1.46
256.889	1.44
257.104	0.9
257.32	1.33
257.535	1.81
257.75	1.86
257.965	2.33
258.18	2.29
258.395	1.84
258.61	1.86
258.826	2.18
259.041	2.06
259.256	2.24
259.471	2.49
259.686	2.81
259.901	2.68
260.116	2.35
260.331	2.11
260.546	2.4
260.761	2.5
260.976	2.44
261.191	2.23
261.406	2.48
261.621	2.48
261.836	2.71
262.05	2.53
262.265	2.62
262.48	2.93
262.695	3.05
262.91	2.89
263.125	3.18
263.34	3.51
263.555	3.87
263.769	3.02
263.984	3.41
264.199	2.4
264.414	1.92
264.629	2.36
264.843	2.18
265.058	1.44
265.273	1.51
265.488	1.98
265.702	1.67
265.917	1.26
266.132	1.55
266.346	1.16
266.561	1.63
266.776	2.12
266.99	1.68
267.205	1.52
267.42	1.92
267.634	1.81
267.849	1.58
268.063	1.64
268.278	1.85
268.492	0.98
268.707	0.77
268.922	1.14
269.136	0.98
269.351	0.93
269.565	0.55
269.78	0.01
269.994	0.21
270.209	-0.19
270.423	0.07
270.637	0.57
270.852	1.34
271.066	1.41
271.281	1.24
271.495	1.41
271.709	1.58
271.924	2.02
272.138	2.65
272.353	2.38
272.567	2.39
272.781	2.58
272.996	1.96
273.21	1.83
273.424	1.82
273.638	1.9
273.853	1.85
274.067	1.92
274.281	2.08
274.495	2.16
274.71	1.84
274.924	2.1
275.138	1.94
275.352	1.93
275.566	2.01
275.781	2.13
275.995	2.35
276.209	1.68
276.423	1.55
276.637	1.32
276.851	0.92
277.065	1.7
277.279	1.49
277.493	1.25
277.707	1.7
277.921	1.46
278.135	1.4
278.349	1.55
278.563	1.84
278.777	2.43
278.991	1.99
279.205	2.25
279.419	1.97
279.633	1.99
279.847	1.92
280.061	1.21
280.275	1.74
280.489	1.46
280.703	1.37
280.917	1.4
281.131	1.16
281.344	1.5
281.558	1.5
281.772	1.37
281.986	1.42
282.2	1.51
282.414	1.93
282.627	1.64
282.841	1.92
283.055	1.7
283.269	2.29
283.482	2.27
283.696	2.14
283.91	1.85
284.123	2.28
284.337	2.2
284.551	2.68
284.764	2.94
284.978	2.75
285.192	2.58
285.405	2.43
285.619	1.67
285.833	1.22
286.046	1.6
286.26	1.58
286.473	1.25
286.687	1.45
286.9	1.1
287.114	0.68
287.327	1.08
287.541	0.61
287.754	0.58
287.968	0.93
288.181	1.55
288.395	1.33
288.608	1.74
288.822	1.98
289.035	1.71
289.248	1.77
289.462	1.51
289.675	1.73
289.889	2.15
290.102	2.2
290.315	1.93
290.529	1.89
290.742	1.9
290.955	1.59
291.169	1.75
291.382	1.78
291.595	1.6
291.808	2.24
292.022	1.85
292.235	2.14
292.448	1.85
292.661	2.34
292.875	2.26
293.088	2.04
293.301	2.27
293.514	2.09
293.727	2.24
293.94	2.69
294.153	2.38
294.367	2.12
294.58	2.15
294.793	2.28
295.006	2.6
295.219	2.31
295.432	2.54
295.645	2.29
295.858	2.11
296.071	2.07
296.284	1.62
296.497	1.79
296.71	1.93
296.923	1.82
297.136	1.89
297.349	1.78
297.562	2.08
297.775	2.03
297.988	2.02
298.201	2
298.414	1.67
298.626	1.85
298.839	1.8
299.052	1.91
299.265	2.16
299.478	2.42
299.691	2.36
299.903	2.31
300.116	2.3
300.329	2.56
300.542	2.94
300.755	3.12
300.967	3.14
301.18	2.96
301.393	2.65
301.605	2.37
301.818	2.08
302.031	2.01
302.243	2.13
302.456	2.12
302.669	1.82
302.881	1.78
303.094	1.89
303.307	1.88
303.519	2.14
303.732	2.66
303.944	2.72
304.157	2.98
304.37	3.38
304.582	3.36
304.795	3.02
305.007	3.36
305.22	2.88
305.432	3.06
305.645	3.25
305.857	3.14
306.069	2.6
306.282	2.41
306.494	2.22
306.707	1.72
306.919	1.26
307.132	1.58
307.344	1.25
307.556	1.75
307.769	2.08
307.981	2.22
308.193	2.19
308.406	2.74
308.618	2.43
308.83	2.22
309.043	2.41
309.255	2.74
309.467	3.03
309.679	3.14
309.892	3
310.104	2.71
310.316	2.6
310.528	2.48
310.74	2.45
310.953	2.72
311.165	2.71
311.377	2.4
311.589	1.9
311.801	1.57
312.013	1.97
312.225	2.05
312.437	2.18
312.649	2.12
312.862	2.18
313.074	1.99
313.286	2.29
313.498	2.18
313.71	2.4
313.922	3.03
314.134	2.99
314.346	2.43
314.558	2.33
314.77	2.25
314.982	1.92
315.193	2.09
315.405	1.66
315.617	1.3
315.829	1.69
316.041	1.65
316.253	1.31
316.465	1.79
316.677	2.36
316.888	2.83
317.1	3.08
317.312	3.22
317.524	3.53
317.736	4.35
317.947	4.55
318.159	4.94
318.371	4.65
318.583	4.88
318.794	4.91
319.006	4.66
319.218	4.19
319.43	4.15
319.641	4.02
319.853	3.78
320.064	3.7
320.276	3.88
320.488	3.55
320.699	4.13
320.911	3.83
321.123	3.45
321.334	3.58
321.546	3.5
321.757	2.93
321.969	3.08
322.18	3.11
322.392	3.29
322.603	3.4
322.815	2.83
323.026	3.09
323.238	3.87
323.449	4.36
323.661	4.28
323.872	4.87
324.083	5.31
324.295	5.84
324.506	6.25
324.718	6.18
324.929	6.44
325.14	7.38
325.352	7.78
325.563	8.18
325.774	8.75
325.986	9.26
326.197	9.25
326.408	9.73
326.62	9.88
326.831	9.86
327.042	10.19
327.253	10.91
327.464	11
327.676	10.86
327.887	11.02
328.098	10.87
328.309	11.29
328.52	11.93
328.732	12.52
328.943	12.87
329.154	13.86
329.365	14.33
329.576	14.18
329.787	14.55
329.998	15.48
330.209	15.36
330.42	16.01
330.631	16.41
330.842	16.66
331.053	16.69
331.264	16.95
331.475	16.87
331.686	17.37
331.897	18
332.108	18.27
332.319	18.05
332.53	19.08
332.741	19.09
332.952	19.12
333.163	19.98
333.374	20.05
333.585	20.14
333.795	20.33
334.006	20.65
334.217	20.97
334.428	21.07
334.639	21.48
334.849	21.17
335.06	21.53
335.271	21.71
335.482	21.25
335.692	21.33
335.903	21.52
336.114	21.67
336.325	21.52
336.535	21.46
336.746	21.77
336.957	21.86
337.167	22.38
337.378	22.79
337.589	23.06
337.799	22.91
338.01	23.41
338.22	23.91
338.431	24.22
338.642	24.22
338.852	24.33
339.063	24.24
339.273	23.82
339.484	23.64
339.694	23.33
339.905	23.62
340.115	24.38
340.326	24.46
340.536	24.37
340.746	24.19
340.957	24.84
341.167	24.49
341.378	24.82
341.588	25.29
341.799	25.36
342.009	25.61
342.219	25.64
342.43	24.96
342.64	24.87
342.85	24.71
343.061	25.19
343.271	24.63
343.481	25.17
343.691	25.37
343.902	25.35
344.112	25.35
344.322	25.1
344.532	24.9
344.743	25.36
344.953	25.4
345.163	25.77
345.373	25.59
345.583	26.03
345.793	25.73
346.004	25.55
346.214	25.55
346.424	25.68
346.634	25.83
346.844	26.1
347.054	25.97
347.264	26.26
347.474	26.15
347.684	25.86
347.894	25.86
348.104	25.83
348.314	25.69
348.524	25.76
348.734	25.48
348.944	25.35
349.154	24.65
349.364	24.8
349.574	24.3
349.784	24.06
349.994	24.62
350.204	24.51
350.413	24.58
350.623	24.69
350.833	24.58
351.043	24.74
351.253	24.83
351.463	25.32
351.672	25.12
351.882	25.2
352.092	25.62
352.302	25.21
352.511	25.08
352.721	25.13
352.931	25.06
353.141	25.11
353.35	25.11
353.56	25.14
353.77	25.07
353.979	25.01
354.189	25.16
354.399	25.42
354.608	25.35
354.818	25.2
355.027	25.39
355.237	25.28
355.447	25.42
355.656	25.24
355.866	25.14
356.075	25.12
356.285	25.17
356.494	25.13
356.704	24.61
356.913	24.57
357.123	24.57
357.332	24.25
357.542	24.3
357.751	24.28
357.96	24.38
358.17	24.47
358.379	24.42
358.589	24.25
358.798	23.97
359.007	24.12
359.217	24.11
359.426	24.4
359.635	24.36
359.845	24.55
360.054	24.49
360.263	24.69
360.472	24.61
360.682	24.57
360.891	24.91
361.1	24.83
361.309	24.87
361.519	24.99
361.728	25.13
361.937	25.14
362.146	25.17
362.355	25.24
362.564	25.07
362.774	25.03
362.983	25.07
363.192	24.92
363.401	25.15
363.61	25.03
363.819	25.18
364.028	24.92
364.237	25.16
364.446	25.23
364.655	25.27
364.864	25.11
365.073	25.08
365.282	25.27
365.491	25.36
365.7	25.33
365.909	25.51
366.118	25.47
366.327	25.5
366.536	25.45
366.745	25.13
366.954	24.84
367.162	25.13
367.371	25.19
367.58	24.83
367.789	24.51
367.998	24.57
368.207	24.34
368.415	23.94
368.624	23.99
368.833	24.02
369.042	24.17
369.25	24.4
369.459	24.26
369.668	24.26
369.877	24.4
370.085	24.3
370.294	24.72
370.503	24.93
370.711	25.02
370.92	24.83
371.129	24.8
371.337	24.74
371.546	24.6
371.754	24.67
371.963	24.71
372.171	24.52
372.38	24.58
372.589	24.22
372.797	24.01
373.006	24.29
373.214	24.15
373.423	24.15
373.631	24.05
373.84	24.15
374.048	24.14
374.256	24.02
374.465	24.25
374.673	24.17
374.882	23.95
375.09	23.84
375.298	23.62
375.507	23.72
375.715	23.51
375.923	23.66
376.132	23.47
376.34	23.48
376.548	23.68
376.757	23.64
376.965	23.83
377.173	23.97
377.381	24.1
377.59	23.93
377.798	23.96
378.006	23.94
378.214	23.78
378.423	23.99
378.631	23.81
378.839	23.49
379.047	23.52
379.255	23.45
379.463	23.46
379.671	23.36
379.879	23.39
380.088	23.33
380.296	23.41
380.504	23.58
380.712	23.55
380.92	23.48
381.128	23.6
381.336	23.53
381.544	23.52
381.752	23.47
381.96	23.55
382.168	23.72
382.376	23.82
382.584	23.55
382.791	23.42
382.999	23.19
383.207	23.23
383.415	23.27
383.623	23
383.831	22.9
384.039	22.96
384.247	22.95
384.454	22.83
384.662	22.72
384.87	23.03
385.078	22.98
385.285	22.8
385.493	23.02
385.701	22.97
385.909	22.94
386.116	23.09
386.324	22.97
386.532	22.97
386.739	22.93
386.947	23
387.155	22.86
387.362	23.01
387.57	23.18
387.778	23.31
387.985	23.23
388.193	23.5
388.4	23.59
388.608	23.67
388.816	23.56
389.023	23.73
389.231	23.67
389.438	23.79
389.646	23.5
389.853	23.56
390.061	23.42
390.268	23.43
390.475	23.46
390.683	23.34
390.89	23.21
391.098	22.99
391.305	22.8
391.512	22.71
391.72	22.6
391.927	22.88
392.135	22.81
392.342	22.67
392.549	22.9
392.756	22.8
392.964	22.73
393.171	22.79
393.378	23.03
393.586	23.21
393.793	23.11
394	23.18
394.207	22.93
394.414	22.95
394.622	23
394.829	22.82
395.036	22.93
395.243	23.11
395.45	23.11
395.657	23.04
395.864	23.06
396.072	23.17
396.279	23.04
396.486	23.09
396.693	23.07
396.9	23.12
397.107	23.12
397.314	23.04
397.521	23
397.728	23.06
397.935	23.33
398.142	23.33
398.349	23.51
398.556	23.72
398.763	23.72
398.97	23.78
399.177	23.77
399.383	23.89
399.59	23.97
399.797	24.17
400.004	24.32
400.211	24.47
400.418	24.52
400.625	24.5
400.831	24.43
401.038	24.58
401.245	24.75
401.452	24.86
401.658	24.75
401.865	24.92
402.072	24.76
402.279	24.9
402.485	24.82
402.692	25.01
402.899	25.03
403.105	25.27
403.312	25.44
403.519	25.54
403.725	25.92
403.932	26.15
404.138	26.14
404.345	26.09
404.552	25.97
404.758	25.91
404.965	25.53
405.171	25.41
405.378	25.33
405.584	25.18
405.791	25.11
405.997	24.64
406.204	24.55
406.41	24.51
406.617	24.59
406.823	24.53
407.029	24.44
407.236	24.69
407.442	24.81
407.649	24.66
407.855	24.71
408.061	24.49
408.268	24.57
408.474	24.57
408.68	24.44
408.887	24.35
409.093	24.31
409.299	24.23
409.505	24.15
409.712	24.11
409.918	24.29
410.124	24.14
410.33	24.22
410.537	24.16
410.743	24.03
410.949	24.07
411.155	24.03
411.361	24
411.567	24.01
411.773	23.94
411.98	23.94
412.186	23.86
412.392	23.83
412.598	23.9
412.804	23.96
413.01	24.04
413.216	24.14
413.422	24.09
413.628	24.33
413.834	24.34
414.04	24.39
414.246	24.42
414.452	24.37
414.658	24.41
414.864	24.52
415.07	24.42
415.275	24.29
415.481	24.1
415.687	24.21
415.893	24.07
416.099	24.06
416.305	24.01
416.511	24.05
416.716	23.95
416.922	23.93
417.128	23.84
417.334	23.76
417.539	23.83
417.745	23.75
417.951	23.79
418.157	23.78
418.362	23.68
418.568	23.65
418.774	23.54
418.979	23.57
419.185	23.53
419.391	23.54
419.596	23.59
419.802	23.6
420.008	23.65
420.213	23.58
420.419	23.44
420.624	23.46
420.83	23.49
421.035	23.57
421.241	23.44
421.446	23.49
421.652	23.33
421.857	23.34
422.063	23.3
422.268	23.33
422.474	23.28
422.679	23.25
422.885	23.32
423.09	23.28
423.295	23.21
423.501	23.29
423.706	23.29
423.911	23.32
424.117	23.22
424.322	23.21
424.527	23.17
424.733	23.19
424.938	23.35
425.143	23.27
425.349	23.35
425.554	23.4
425.759	23.43
425.964	23.32
426.169	23.42
426.375	23.49
426.58	23.48
426.785	23.54
426.99	23.54
427.195	23.54
427.4	23.74
427.605	23.56
427.811	23.7
428.016	23.75
428.221	24.05
428.426	24.02
428.631	24.02
428.836	23.99
429.041	24.04
429.246	24.17
429.451	24.1
429.656	23.96
429.861	23.98
430.066	23.91
430.271	23.99
430.476	23.85
430.681	23.93
430.886	23.99
431.09	24.2
431.295	24.17
431.5	24.12
431.705	24.17
431.91	24.2
432.115	24.23
432.32	24.11
432.524	24.01
432.729	24.09
432.934	24.21
433.139	24.57
433.343	24.93
433.548	25.34
433.753	25.79
433.958	26.38
434.162	26.89
434.367	27.57
434.572	28.2
434.776	28.94
434.981	29.64
435.186	30.26
435.39	30.6
435.595	30.67
435.799	30.54
436.004	30.28
436.209	29.91
436.413	29.47
436.618	28.89
436.822	28.44
437.027	27.87
437.231	27.16
437.436	26.6
437.64	26.15
437.845	25.7
438.049	25.44
438.253	25.19
438.458	25.02
438.662	24.86
438.867	24.8
439.071	24.75
439.275	24.68
439.48	24.61
439.684	24.55
439.888	24.37
440.093	24.42
440.297	24.32
440.501	24.3
440.706	24.27
440.91	24.33
441.114	24.26
441.318	24.22
441.523	24.19
441.727	24.27
441.931	24.35
442.135	24.47
442.339	24.47
442.543	24.62
442.748	24.74
442.952	24.82
443.156	24.91
443.36	24.94
443.564	24.99
443.768	25
443.972	24.97
444.176	24.72
444.38	24.7
444.584	24.58
444.788	24.57
444.992	24.66
445.196	24.63
445.4	24.6
445.604	24.69
445.808	24.63
446.012	24.67
446.216	24.65
446.42	24.73
446.624	24.68
446.828	24.7
447.032	24.7
447.235	24.6
447.439	24.5
447.643	24.45
447.847	24.39
448.051	24.44
448.254	24.46
448.458	24.55
448.662	24.73
448.866	24.78
449.069	24.84
449.273	24.81
449.477	24.95
449.681	25.06
449.884	25.26
450.088	25.36
450.292	25.42
450.495	25.41
450.699	25.48
450.902	25.38
451.106	25.46
451.31	25.53
451.513	25.47
451.717	25.44
451.92	25.54
452.124	25.4
452.327	25.49
452.531	25.51
452.734	25.42
452.938	25.43
453.141	25.28
453.345	25.28
453.548	25.31
453.752	25.52
453.955	25.49
454.158	25.49
454.362	25.53
454.565	25.49
454.769	25.54
454.972	25.71
455.175	25.55
455.379	25.6
455.582	25.62
455.785	25.64
455.988	25.64
456.192	25.65
456.395	25.62
456.598	25.61
456.801	25.54
457.005	25.33
457.208	25.09
457.411	25.18
457.614	25.17
457.817	25.04
458.021	25
458.224	24.9
458.427	24.9
458.63	24.81
458.833	24.74
459.036	24.71
459.239	24.72
459.442	24.76
459.645	24.7
459.848	24.7
460.051	24.82
460.254	24.73
460.457	24.73
460.66	24.7
460.863	24.73
461.066	24.79
461.269	24.92
461.472	24.96
461.675	25.19
461.878	25.23
462.081	25.39
462.284	25.42
