Data from 2938773__Reflection_02.txt Node
Date: Fri Mar 13 14:33:33 EDT 2015
User: robert
Spectrometer: USB4E03002
Autoset integration time: false
Trigger mode: 4
Integration Time (sec): 1.000000E-1
Scans to average: 10
Electric dark correction enabled: false
Nonlinearity correction enabled: false
Boxcar width: 5
Stray light correction enabled: false
XAxis mode: Wavelengths
Stop averaging: false
Number of Pixels in Spectrum: 3648
>>>>>Begin Spectral Data<<<<<
177.575	-172.22
177.794	-346.58
178.014	-1259.26
178.233	692.54
178.452	1291.89
178.672	350
178.891	343.9
179.11	2239.13
179.33	-728.36
179.549	-288.89
179.768	-1396.67
179.987	700
180.207	1974.07
180.426	741.54
180.645	-1054.29
180.864	-525.81
181.084	-75.2
181.303	-115.42
181.522	-378.72
181.741	826.67
181.96	112.7
182.179	111.14
182.398	75.8
182.618	60.56
182.837	57.56
183.056	68.39
183.275	49.23
183.494	44.68
183.713	15.9
183.932	50.77
184.151	45.52
184.37	-45.21
184.589	-89.33
184.808	-46.67
185.027	70.88
185.246	80.6
185.465	70.76
185.684	84.15
185.903	102.05
186.122	81.42
186.341	66.97
186.56	92.46
186.779	182.45
186.998	154.95
187.216	161.08
187.435	309.32
187.654	140.52
187.873	109.04
188.092	105.48
188.311	203.47
188.53	194.23
188.748	635.94
188.967	-912.5
189.186	139.13
189.405	237.41
189.623	147.1
189.842	120.53
190.061	138.7
190.28	176.22
190.498	129
190.717	96.12
190.936	106.4
191.154	109.3
191.373	121.69
191.592	121.85
191.81	86.78
192.029	86.32
192.248	97.14
192.466	99.85
192.685	112.95
192.904	160.25
193.122	150.11
193.341	215.41
193.559	246.88
193.778	193.19
193.996	195.52
194.215	1464
194.433	323.36
194.652	234.46
194.87	307.45
195.089	3680
195.307	680.77
195.526	-156.07
195.744	504.26
195.963	159.56
196.181	88.43
196.399	100.8
196.618	95.51
196.836	128.09
197.055	87.01
197.273	179.12
197.491	517.65
197.71	390.74
197.928	175.42
198.146	353.39
198.365	496
198.583	660.61
198.801	-175.11
199.019	-122.76
199.238	-119.16
199.456	-158.29
199.674	-196.69
199.892	-215.45
200.111	-167.03
200.329	-122.59
200.547	-82.63
200.765	-241.23
200.983	-149.79
201.202	-258.88
201.42	-608.33
201.638	904.35
201.856	0
202.074	-73.17
202.292	75.26
202.51	-34.88
202.728	13.19
202.946	75.17
203.165	7.94
203.383	3000
203.601	52.11
203.819	-62.38
204.037	-56.68
204.255	51.61
204.473	58.68
204.691	69.06
204.909	48.49
205.127	48.95
205.345	7.1
205.562	-47.49
205.78	16.7
205.998	10.05
206.216	32.85
206.434	57.82
206.652	60.94
206.87	77.73
207.088	59.79
207.306	93.85
207.523	76.25
207.741	80
207.959	107.95
208.177	111.74
208.395	126.62
208.612	202.83
208.83	144.09
209.048	139.51
209.266	723.33
209.483	-450
209.701	-584
209.919	456.25
210.136	5120
210.354	-597.22
210.572	61.2
210.79	60.75
211.007	48.68
211.225	122.03
211.442	107.95
211.66	65.63
211.878	62.23
212.095	49.71
212.313	23.57
212.53	-11.85
212.748	-29.61
212.966	12.65
213.183	21.82
213.401	4.5
213.618	20.65
213.836	-5.53
214.053	-9.8
214.271	-5.03
214.488	13.11
214.705	15.74
214.923	25.45
215.14	26.23
215.358	32.16
215.575	35.08
215.793	31.75
216.01	41.48
216.227	56.45
216.445	55.31
216.662	50.58
216.879	47.09
217.097	43.99
217.314	54.32
217.531	66.77
217.749	59.77
217.966	54.81
218.183	57.88
218.4	25.58
218.618	40.41
218.835	37.47
219.052	33.22
219.269	48.16
219.487	47.44
219.704	30.39
219.921	25.44
220.138	22.01
220.355	22.66
220.572	21.93
220.79	13.34
221.007	1.87
221.224	-1.16
221.441	6.35
221.658	8.15
221.875	10.07
222.092	15.93
222.309	21.7
222.526	20.72
222.743	17.07
222.96	15.5
223.177	32.17
223.394	29.76
223.611	35.55
223.828	39.66
224.045	33.77
224.262	38.49
224.479	38.2
224.696	31.91
224.913	29.86
225.13	30.57
225.347	32.68
225.564	24.53
225.781	24.57
225.997	21.19
226.214	17.67
226.431	17.27
226.648	11.97
226.865	12
227.082	11.53
227.298	14.2
227.515	12.08
227.732	10.64
227.949	9.82
228.165	9.51
228.382	9.3
228.599	8.19
228.816	8.59
229.032	8.2
229.249	7.72
229.466	7.51
229.682	6.83
229.899	6.69
230.116	6.47
230.332	7.13
230.549	7.32
230.765	6.94
230.982	7.48
231.199	7.16
231.415	8.57
231.632	8.71
231.848	9.94
232.065	8.97
232.281	9.58
232.498	9.74
232.714	10.29
232.931	10.46
233.147	11.76
233.364	12.98
233.58	11.25
233.797	11.14
234.013	11.67
234.23	11.54
234.446	11.17
234.662	10.97
234.879	11.1
235.095	10.06
235.312	11.65
235.528	8.51
235.744	6.52
235.961	9.29
236.177	8.29
236.393	8.25
236.61	6.94
236.826	6.4
237.042	7.21
237.258	5.51
237.475	5.77
237.691	3.87
237.907	3.53
238.123	6.08
238.339	5.3
238.556	5.19
238.772	4
238.988	3.51
239.204	4.22
239.42	4.18
239.636	5.32
239.853	5.91
240.069	6.87
240.285	8.18
240.501	7.84
240.717	8.35
240.933	8.76
241.149	8.38
241.365	9.08
241.581	8.29
241.797	8.27
242.013	9.23
242.229	9.2
242.445	8.69
242.661	8.9
242.877	8.69
243.093	8.74
243.309	8.62
243.525	9.09
243.741	9.09
243.957	10
244.173	9.97
244.388	9.73
244.604	9.6
244.82	9.71
245.036	9.05
245.252	8.63
245.468	8.16
245.683	8.24
245.899	7.48
246.115	7.79
246.331	7.46
246.547	7.84
246.762	7.45
246.978	7.38
247.194	7.26
247.409	7.49
247.625	7.29
247.841	7.14
248.057	6.99
248.272	7.37
248.488	6.98
248.703	7.06
248.919	6.53
249.135	6.64
249.35	6.62
249.566	6.83
249.782	6.7
249.997	7.22
250.213	7.84
250.428	8.41
250.644	7.76
250.859	7.65
251.075	8.12
251.29	7.95
251.506	8.14
251.721	8.06
251.937	7.91
252.152	7.83
252.368	8.11
252.583	7.65
252.798	7.55
253.014	8.35
253.229	8.83
253.445	8.45
253.66	8.15
253.875	7.52
254.091	7.35
254.306	7.4
254.521	7.11
254.737	7.26
254.952	6.77
255.167	5.44
255.383	5.46
255.598	3.76
255.813	3.79
256.028	5.03
256.244	4.93
256.459	4.87
256.674	4.06
256.889	4.6
257.104	3.57
257.32	4.09
257.535	4.89
257.75	4.6
257.965	5.1
258.18	4.82
258.395	4.75
258.61	5.14
258.826	5.31
259.041	5.52
259.256	5.5
259.471	5.47
259.686	5.35
259.901	5.2
260.116	5.19
260.331	5.5
260.546	5.41
260.761	5.2
260.976	4.9
261.191	4.92
261.406	4.57
261.621	4.58
261.836	4.52
262.05	4.17
262.265	3.93
262.48	3.63
262.695	3.13
262.91	3.19
263.125	3.14
263.34	3.65
263.555	3.37
263.769	3.55
263.984	2.6
264.199	2.38
264.414	3.09
264.629	3.77
264.843	4.33
265.058	4.24
265.273	4.45
265.488	4.82
265.702	4.37
265.917	4.31
266.132	4.65
266.346	4.95
266.561	5.28
266.776	5.31
266.99	5.22
267.205	5
267.42	5.23
267.634	5.32
267.849	5.61
268.063	5.97
268.278	6.1
268.492	5.88
268.707	6.03
268.922	5.6
269.136	6.05
269.351	5.63
269.565	5.58
269.78	5.74
269.994	5.68
270.209	5.27
270.423	4.92
270.637	5.24
270.852	5.31
271.066	5.12
271.281	5.32
271.495	4.85
271.709	4.75
271.924	4.74
272.138	4.8
272.353	5.08
272.567	5.03
272.781	4.95
272.996	4.57
273.21	4.82
273.424	5.03
273.638	4.98
273.853	4.87
274.067	4.91
274.281	5.19
274.495	4.69
274.71	4.45
274.924	4.8
275.138	4.87
275.352	4.76
275.566	4.16
275.781	3.75
275.995	4.17
276.209	4.41
276.423	4.3
276.637	3.71
276.851	4.26
277.065	4.49
277.279	4.31
277.493	4.76
277.707	5.49
277.921	5.49
278.135	5.81
278.349	5.31
278.563	5.18
278.777	5.88
278.991	6.37
279.205	5.88
279.419	5.27
279.633	4.83
279.847	4.5
280.061	3.65
280.275	3.61
280.489	4.22
280.703	4.76
280.917	4.65
281.131	4.12
281.344	3.91
281.558	3.9
281.772	4.21
281.986	4.29
282.2	4.42
282.414	4.66
282.627	4.85
282.841	4.24
283.055	4.01
283.269	3.78
283.482	3.85
283.696	3.74
283.91	3.62
284.123	3.44
284.337	3.97
284.551	4.06
284.764	4.42
284.978	4.31
285.192	4.4
285.405	4.52
285.619	4.63
285.833	4.64
286.046	4.41
286.26	4.43
286.473	4.73
286.687	4.23
286.9	4.17
287.114	3.74
287.327	3.73
287.541	3.75
287.754	3.71
287.968	3.61
288.181	3.76
288.395	4.33
288.608	4.66
288.822	4.46
289.035	4.9
289.248	4.61
289.462	4.88
289.675	5.15
289.889	5.26
290.102	5.17
290.315	5.45
290.529	5.42
290.742	5.21
290.955	5.15
291.169	5.17
291.382	4.96
291.595	5.17
291.808	5.14
292.022	4.97
292.235	4.79
292.448	4.78
292.661	4.65
292.875	4.51
293.088	4.63
293.301	4.23
293.514	4.33
293.727	4.72
293.94	4.66
294.153	4.49
294.367	4.35
294.58	4.28
294.793	3.77
295.006	3.8
295.219	3.58
295.432	3.33
295.645	3.81
295.858	3.54
296.071	3.5
296.284	3.41
296.497	3.39
296.71	3.76
296.923	4.01
297.136	4.57
297.349	4.58
297.562	4.9
297.775	5.01
297.988	5.14
298.201	5.33
298.414	5.17
298.626	5.3
298.839	5.43
299.052	5.33
299.265	5.07
299.478	4.89
299.691	4.83
299.903	4.8
300.116	4.65
300.329	4.45
300.542	4.59
300.755	4.28
300.967	4.67
301.18	4.61
301.393	4.48
301.605	4.76
301.818	4.82
302.031	5.02
302.243	4.73
302.456	5.08
302.669	4.98
302.881	4.84
303.094	5.11
303.307	4.8
303.519	4.64
303.732	4.71
303.944	4.49
304.157	4.42
304.37	4.39
304.582	4.64
304.795	4.74
305.007	5.23
305.22	5.36
305.432	5.57
305.645	5.24
305.857	5.78
306.069	6.02
306.282	6.33
306.494	6.32
306.707	6.51
306.919	6.08
307.132	5.97
307.344	5.76
307.556	5.81
307.769	5.78
307.981	6.22
308.193	5.82
308.406	5.81
308.618	5.78
308.83	5.96
309.043	5.84
309.255	6.45
309.467	6.37
309.679	5.95
309.892	5.74
310.104	5.86
310.316	5.5
310.528	5.55
310.74	5.61
310.953	5.53
311.165	5.49
311.377	5.46
311.589	5.33
311.801	5.2
312.013	5.32
312.225	5.27
312.437	5.4
312.649	5.59
312.862	5.76
313.074	5.64
313.286	6.06
313.498	5.68
313.71	5.73
313.922	5.64
314.134	6.16
314.346	6
314.558	6.48
314.77	6.14
314.982	6.44
315.193	6.53
315.405	6.79
315.617	6.46
315.829	6.84
316.041	6.95
316.253	6.83
316.465	7
316.677	7.52
316.888	7.49
317.1	7.45
317.312	7.49
317.524	7.32
317.736	7.49
317.947	7.29
318.159	7.73
318.371	7.77
318.583	7.98
318.794	7.53
319.006	7.68
319.218	7.44
319.43	7.41
319.641	7.47
319.853	8.03
320.064	7.43
320.276	7.87
320.488	7.7
320.699	7.78
320.911	7.64
321.123	7.48
321.334	6.61
321.546	6.96
321.757	7.08
321.969	6.82
322.18	6.79
322.392	7.41
322.603	7.08
322.815	7.06
323.026	7.31
323.238	7.56
323.449	7.87
323.661	8.29
323.872	8.23
324.083	8.32
324.295	8.91
324.506	8.83
324.718	8.27
324.929	8.54
325.14	8.43
325.352	8.35
325.563	8.42
325.774	8.09
325.986	8.5
326.197	8.64
326.408	9.14
326.62	8.65
326.831	8.65
327.042	8.99
327.253	9.18
327.464	9.47
327.676	9.58
327.887	9.88
328.098	10.53
328.309	10.06
328.52	10.56
328.732	10.64
328.943	11.24
329.154	11.34
329.365	11.73
329.576	11.17
329.787	11.49
329.998	11.25
330.209	11.29
330.42	11.39
330.631	12.15
330.842	11.89
331.053	12.05
331.264	11.99
331.475	11.93
331.686	11.95
331.897	12.63
332.108	12.83
332.319	13.51
332.53	13.58
332.741	13.74
332.952	13.67
333.163	13.42
333.374	13
333.585	13.08
333.795	13.39
334.006	12.97
334.217	13.01
334.428	12.87
334.639	12.56
334.849	12.28
335.06	12.24
335.271	12.08
335.482	12.22
335.692	12.44
335.903	12.43
336.114	12.66
336.325	12.91
336.535	12.89
336.746	12.76
336.957	12.82
337.167	13.15
337.378	12.9
337.589	12.9
337.799	12.81
338.01	12.91
338.22	12.77
338.431	12.23
338.642	11.88
338.852	11.76
339.063	11.66
339.273	11.62
339.484	11.52
339.694	11.58
339.905	11.48
340.115	11.48
340.326	11.4
340.536	11.6
340.746	11.86
340.957	12.27
341.167	12.37
341.378	12.36
341.588	12.06
341.799	12.06
342.009	12.3
342.219	12.53
342.43	12.4
342.64	12.55
342.85	12.17
343.061	11.78
343.271	11.53
343.481	11.43
343.691	11.52
343.902	11.73
344.112	11.85
344.322	11.48
344.532	11.33
344.743	11.69
344.953	11.5
345.163	11.76
345.373	11.99
345.583	12.23
345.793	12.16
346.004	12.17
346.214	12.4
346.424	12.39
346.634	12.68
346.844	12.67
347.054	12.29
347.264	12.43
347.474	12.54
347.684	12.74
347.894	12.68
348.104	12.93
348.314	12.62
348.524	12.26
348.734	12.08
348.944	11.85
349.154	12.11
349.364	12.24
349.574	11.93
349.784	11.82
349.994	11.73
350.204	11.7
350.413	11.5
350.623	11.8
350.833	11.79
351.043	11.85
351.253	11.86
351.463	11.84
351.672	11.53
351.882	11.96
352.092	11.81
352.302	11.84
352.511	12
352.721	11.92
352.931	11.83
353.141	11.5
353.35	11.67
353.56	11.67
353.77	11.62
353.979	11.92
354.189	11.72
354.399	11.88
354.608	11.65
354.818	11.51
355.027	11.72
355.237	12.06
355.447	12.64
355.656	12.19
355.866	12.34
356.075	12.11
356.285	11.98
356.494	11.76
356.704	11.71
356.913	11.74
357.123	11.59
357.332	11.49
357.542	11.18
357.751	11.09
357.96	11.26
358.17	11.07
358.379	10.89
358.589	11.07
358.798	11.34
359.007	10.99
359.217	11.1
359.426	11.39
359.635	11.44
359.845	11.37
360.054	11.13
360.263	11.07
360.472	11.24
360.682	11.44
360.891	11.29
361.1	11.06
361.309	11.31
361.519	11.18
361.728	10.91
361.937	10.85
362.146	10.88
362.355	10.97
362.564	11.06
362.774	10.92
362.983	10.9
363.192	10.93
363.401	10.9
363.61	10.9
363.819	10.86
364.028	10.89
364.237	10.86
364.446	10.55
364.655	10.43
364.864	10.44
365.073	10.39
365.282	10.5
365.491	10.49
365.7	10.58
365.909	10.58
366.118	10.65
366.327	10.79
366.536	10.79
366.745	11.12
366.954	10.95
367.162	10.85
367.371	11
367.58	10.77
367.789	10.58
367.998	10.56
368.207	10.24
368.415	10.11
368.624	9.84
368.833	9.69
369.042	9.6
369.25	9.86
369.459	9.77
369.668	9.37
369.877	9.37
370.085	9.63
370.294	9.8
370.503	10
370.711	9.94
370.92	10.08
371.129	10.04
371.337	9.98
371.546	9.92
371.754	10.02
371.963	10.21
372.171	10.55
372.38	10.52
372.589	10.45
372.797	10.31
373.006	10.21
373.214	9.93
373.423	10.22
373.631	10.17
373.84	10.14
374.048	9.91
374.256	9.83
374.465	9.54
374.673	9.41
374.882	9.1
375.09	9.21
375.298	9.67
375.507	9.83
375.715	9.58
375.923	9.55
376.132	9.5
376.34	9.38
376.548	9.44
376.757	9.43
376.965	9.51
377.173	9.55
377.381	9.43
377.59	9.04
377.798	9.19
378.006	9.24
378.214	9.37
378.423	9.37
378.631	9.47
378.839	9.23
379.047	9.19
379.255	9.1
379.463	8.96
379.671	8.85
379.879	8.82
380.088	8.59
380.296	8.48
380.504	8.16
380.712	8.2
380.92	8.12
381.128	8.09
381.336	7.99
381.544	7.89
381.752	7.97
381.96	8.06
382.168	8.21
382.376	8.3
382.584	8.43
382.791	8.35
382.999	8.18
383.207	8.43
383.415	8.45
383.623	8.34
383.831	8.43
384.039	8.54
384.247	8.57
384.454	8.61
384.662	8.64
384.87	8.23
385.078	8.45
385.285	8.34
385.493	8.1
385.701	8.07
385.909	8.13
386.116	8.04
386.324	7.84
386.532	7.81
386.739	7.58
386.947	7.43
387.155	7.66
387.362	7.67
387.57	7.62
387.778	7.65
387.985	7.88
388.193	7.78
388.4	7.65
388.608	7.85
388.816	7.86
389.023	7.91
389.231	7.74
389.438	7.55
389.646	7.37
389.853	7.61
390.061	7.6
390.268	7.28
390.475	7.24
390.683	7.26
390.89	6.94
391.098	6.83
391.305	6.88
391.512	6.86
391.72	7.04
391.927	7.2
392.135	7
392.342	6.94
392.549	7.02
392.756	6.99
392.964	6.95
393.171	6.99
393.378	6.78
393.586	6.8
393.793	6.79
394	6.64
394.207	6.62
394.414	6.56
394.622	6.53
394.829	6.48
395.036	6.49
395.243	6.34
395.45	6.37
395.657	6.49
395.864	6.43
396.072	6.32
396.279	6.31
396.486	5.97
396.693	6.17
396.9	6.19
397.107	6.1
397.314	6.01
397.521	6.14
397.728	6.03
397.935	6
398.142	5.97
398.349	6.11
398.556	6.06
398.763	6.15
398.97	5.95
399.177	5.83
399.383	5.8
399.59	5.94
399.797	5.89
400.004	5.95
400.211	5.96
400.418	5.98
400.625	5.98
400.831	5.97
401.038	6
401.245	6.18
401.452	6.28
401.658	6.33
401.865	6.23
402.072	6.28
402.279	6.18
402.485	6.07
402.692	5.96
402.899	6.03
403.105	6.08
403.312	6.09
403.519	6.04
403.725	6.08
403.932	6.13
404.138	6.26
404.345	6.18
404.552	6.14
404.758	6.13
404.965	5.99
405.171	6.02
405.378	6.02
405.584	5.94
405.791	5.81
405.997	5.68
406.204	5.53
406.41	5.29
406.617	5.35
406.823	5.61
407.029	5.74
407.236	5.83
407.442	5.7
407.649	5.64
407.855	5.71
408.061	5.69
408.268	5.59
408.474	5.7
408.68	5.76
408.887	5.74
409.093	5.66
409.299	5.53
409.505	5.48
409.712	5.53
409.918	5.47
410.124	5.43
410.33	5.63
410.537	5.75
410.743	5.75
410.949	5.84
411.155	5.91
411.361	5.85
411.567	5.99
411.773	6.16
411.98	6.06
412.186	6.14
412.392	6.21
412.598	6.21
412.804	6.19
413.01	6.01
413.216	6.16
413.422	5.98
413.628	5.97
413.834	6.03
414.04	5.96
414.246	6.05
414.452	6.1
414.658	6.13
414.864	5.94
415.07	5.98
415.275	6.21
415.481	5.99
415.687	6.18
415.893	6.25
416.099	6.02
416.305	5.95
416.511	5.85
416.716	5.74
416.922	5.67
417.128	5.72
417.334	5.75
417.539	5.6
417.745	5.65
417.951	5.56
418.157	5.5
418.362	5.54
418.568	5.6
418.774	5.51
418.979	5.58
419.185	5.56
419.391	5.47
419.596	5.48
419.802	5.53
420.008	5.49
420.213	5.52
420.419	5.53
420.624	5.5
420.83	5.48
421.035	5.6
421.241	5.57
421.446	5.57
421.652	5.69
421.857	5.67
422.063	5.72
422.268	5.78
422.474	5.79
422.679	5.79
422.885	5.8
423.09	5.79
423.295	5.8
423.501	5.84
423.706	5.78
423.911	5.7
424.117	5.7
424.322	5.66
424.527	5.65
424.733	5.59
424.938	5.57
425.143	5.64
425.349	5.73
425.554	5.72
425.759	5.64
425.964	5.74
426.169	5.78
426.375	5.73
426.58	5.7
426.785	5.62
426.99	5.67
427.195	5.76
427.4	5.81
427.605	5.76
427.811	5.77
428.016	5.73
428.221	5.71
428.426	5.63
428.631	5.63
428.836	5.66
429.041	5.73
429.246	5.59
429.451	5.55
429.656	5.54
429.861	5.46
430.066	5.43
430.271	5.53
430.476	5.41
430.681	5.5
430.886	5.49
431.09	5.52
431.295	5.72
431.5	5.9
431.705	5.81
431.91	5.74
432.115	5.78
432.32	5.9
432.524	5.88
432.729	6.06
432.934	6.11
433.139	6.15
433.343	6.16
433.548	5.99
433.753	5.96
433.958	5.96
434.162	6.02
434.367	6.08
434.572	5.95
434.776	5.9
434.981	5.85
435.186	5.89
435.39	5.9
435.595	5.89
435.799	5.92
436.004	5.89
436.209	5.9
436.413	5.95
436.618	5.87
436.822	5.88
437.027	5.89
437.231	5.78
437.436	5.73
437.64	5.67
437.845	5.72
438.049	5.78
438.253	5.77
438.458	5.83
438.662	5.66
438.867	5.76
439.071	5.7
439.275	5.82
439.48	5.85
439.684	5.88
439.888	5.98
440.093	5.9
440.297	5.92
440.501	5.88
440.706	5.88
440.91	5.98
441.114	5.89
441.318	6.04
441.523	5.91
441.727	5.96
441.931	5.85
442.135	5.78
442.339	5.8
442.543	5.75
442.748	5.77
442.952	5.76
443.156	5.67
443.36	5.73
443.564	5.7
443.768	5.86
443.972	5.79
444.176	5.84
444.38	5.79
444.584	5.86
444.788	5.84
444.992	5.9
445.196	5.78
445.4	5.92
445.604	5.97
445.808	5.92
446.012	5.77
446.216	5.85
446.42	5.85
446.624	5.81
446.828	5.74
447.032	5.71
447.235	5.61
447.439	5.7
447.643	5.63
447.847	5.54
448.051	5.51
448.254	5.62
448.458	5.51
448.662	5.56
448.866	5.63
449.069	5.69
449.273	5.62
449.477	5.69
449.681	5.64
449.884	5.64
450.088	5.67
450.292	5.71
450.495	5.73
450.699	5.84
450.902	5.84
451.106	5.73
451.31	5.84
451.513	5.97
451.717	5.96
451.92	5.97
452.124	5.88
452.327	5.82
452.531	5.92
452.734	5.89
452.938	5.89
453.141	5.87
453.345	6.03
453.548	5.84
453.752	5.81
453.955	5.82
454.158	5.82
454.362	5.91
454.565	5.88
454.769	5.79
454.972	5.75
455.175	5.81
455.379	5.88
455.582	5.89
455.785	5.92
455.988	5.88
456.192	5.95
456.395	6.01
456.598	6.08
456.801	6.19
457.005	6.29
457.208	6.28
457.411	6.22
457.614	6.12
457.817	5.99
458.021	5.97
458.224	6.02
458.427	6.03
458.63	5.98
458.833	5.92
459.036	5.82
459.239	5.75
459.442	5.75
459.645	5.76
459.848	5.72
460.051	5.77
460.254	5.8
460.457	5.79
460.66	5.76
460.863	5.8
461.066	5.81
461.269	5.92
461.472	5.91
461.675	5.91
461.878	5.87
462.081	5.92
462.284	5.99
462.486	5.98
462.689	6.03
462.892	6.01
463.095	5.96
463.298	5.98
463.5	5.95
463.703	5.99
463.906	6.03
464.109	6.07
464.311	5.98
464.514	6.03
464.717	6.01
464.92	6.06
465.122	6.03
465.325	6.12
465.528	6.12
465.73	6.12
465.933	6.14
466.135	6.12
466.338	6.11
466.541	6.2
466.743	6.13
466.946	6.14
467.148	6.12
467.351	6.12
467.553	6.17
467.756	6.08
467.958	6.11
468.161	6.07
