Data from 2938798__Reflection_02.txt Node
Date: Thu Mar 12 23:03:32 EDT 2015
User: robert
Spectrometer: USB4E03002
Autoset integration time: false
Trigger mode: 4
Integration Time (sec): 1.000000E-1
Scans to average: 10
Electric dark correction enabled: false
Nonlinearity correction enabled: false
Boxcar width: 5
Stray light correction enabled: false
XAxis mode: Wavelengths
Stop averaging: false
Number of Pixels in Spectrum: 3648
>>>>>Begin Spectral Data<<<<<
177.575	924.3
177.794	2663.89
178.014	819.87
178.233	878.67
178.452	411.7
178.672	415.74
178.891	478.93
179.11	418.23
179.33	392.67
179.549	426.81
179.768	321.35
179.987	280.9
180.207	268.47
180.426	288.49
180.645	314.98
180.864	314.24
181.084	375.7
181.303	244.1
181.522	218.96
181.741	186.16
181.96	187
182.179	204.67
182.398	212.12
182.618	195.35
182.837	187.62
183.056	194.15
183.275	204.06
183.494	179.15
183.713	188.59
183.932	205.28
184.151	230.65
184.37	197.21
184.589	192.02
184.808	193.87
185.027	208.31
185.246	207.37
185.465	181.57
185.684	190.27
185.903	178.25
186.122	182.77
186.341	196.17
186.56	189.31
186.779	209.66
186.998	220.19
187.216	205.72
187.435	191.75
187.654	189.66
187.873	204.87
188.092	204.77
188.311	233.08
188.53	222
188.748	204.41
188.967	220.64
189.186	218.63
189.405	217.27
189.623	225.93
189.842	210.12
190.061	193.86
190.28	194.55
190.498	177.43
190.717	157.17
190.936	172.35
191.154	151.67
191.373	141.34
191.592	131.39
191.81	125.26
192.029	127.66
192.248	135.03
192.466	136.43
192.685	131.78
192.904	158.25
193.122	168.93
193.341	178.76
193.559	215.75
193.778	205.99
193.996	227.62
194.215	218.67
194.433	234.31
194.652	269.43
194.87	311.74
195.089	352.14
195.307	279.75
195.526	245.53
195.744	244.12
195.963	215.5
196.181	246.12
196.399	243.73
196.618	214.77
196.836	191.57
197.055	175.51
197.273	169.55
197.491	158.93
197.71	162.28
197.928	183.36
198.146	160.82
198.365	151.08
198.583	143.96
198.801	138.09
199.019	175.35
199.238	170.16
199.456	172.24
199.674	181.06
199.892	160.99
200.111	168.21
200.329	167.2
200.547	196.17
200.765	221.3
200.983	194.61
201.202	191.25
201.42	170.16
201.638	181.48
201.856	186.21
202.074	178.51
202.292	179.12
202.51	160.37
202.728	159.54
202.946	145.03
203.165	143.67
203.383	163.05
203.601	163.69
203.819	166.57
204.037	179.29
204.255	182.49
204.473	166.72
204.691	172.04
204.909	166.64
205.127	158.88
205.345	163.53
205.562	145.77
205.78	139.22
205.998	150.22
206.216	138.8
206.434	142.58
206.652	144.29
206.87	154.27
207.088	142.67
207.306	160.03
207.523	163.81
207.741	152
207.959	174.16
208.177	175
208.395	156.32
208.612	169.05
208.83	156.9
209.048	153.41
209.266	145.43
209.483	161.32
209.701	134.86
209.919	140.29
210.136	151.35
210.354	144.72
210.572	144.79
210.79	154.22
211.007	150.28
211.225	144.22
211.442	135.72
211.66	135.21
211.878	127
212.095	143
212.313	134.13
212.53	130.25
212.748	129.66
212.966	130.93
213.183	128.11
213.401	126.02
213.618	127.98
213.836	133.16
214.053	142.64
214.271	141.11
214.488	136.1
214.705	135.02
214.923	140.83
215.14	143.76
215.358	153.9
215.575	176.46
215.793	165.79
216.01	166.63
216.227	157.43
216.445	153.39
216.662	186.62
216.879	161.31
217.097	180.08
217.314	156.65
217.531	145.24
217.749	143.24
217.966	133.23
218.183	139.2
218.4	123.95
218.618	136.27
218.835	136.31
219.052	121.65
219.269	127.31
219.487	113.84
219.704	114.77
219.921	113.27
220.138	102.59
220.355	102.34
220.572	100.77
220.79	100.15
221.007	95.34
221.224	89.39
221.441	87.7
221.658	87.02
221.875	86.15
222.092	84.68
222.309	86.65
222.526	86.75
222.743	83.66
222.96	83.44
223.177	80.63
223.394	76.79
223.611	76.92
223.828	77.34
224.045	78.14
224.262	77.9
224.479	77.67
224.696	72.61
224.913	72.38
225.13	68.06
225.347	62.33
225.564	62.78
225.781	61.13
225.997	55.88
226.214	50.2
226.431	44.51
226.648	38.11
226.865	34.2
227.082	31.82
227.298	27.48
227.515	25
227.732	23.24
227.949	20.75
228.165	18.46
228.382	17.02
228.599	16.3
228.816	15.42
229.032	15.41
229.249	14.87
229.466	13.76
229.682	13.15
229.899	13.26
230.116	12.77
230.332	13.19
230.549	13.95
230.765	15.32
230.982	16.48
231.199	16.55
231.415	16.79
231.632	17.79
231.848	18.8
232.065	20.36
232.281	21.24
232.498	23.22
232.714	23.57
232.931	24.28
233.147	23.8
233.364	23.23
233.58	25.04
233.797	25.31
234.013	25.73
234.23	26.9
234.446	26.82
234.662	26.18
234.879	25.78
235.095	25.38
235.312	23.88
235.528	24.89
235.744	25.66
235.961	24.61
236.177	24.64
236.393	23.24
236.61	23.17
236.826	24.36
237.042	24.66
237.258	24.05
237.475	24.14
237.691	25.11
237.907	25.04
238.123	23.52
238.339	23.06
238.556	23.96
238.772	24.62
238.988	24
239.204	22.25
239.42	21.58
239.636	21.06
239.853	20.92
240.069	19.62
240.285	18.14
240.501	17.44
240.717	16.74
240.933	14.85
241.149	14.05
241.365	12.63
241.581	12.15
241.797	11.79
242.013	11.55
242.229	11.1
242.445	11.07
242.661	10.8
242.877	10.78
243.093	10.88
243.309	11.66
243.525	11.58
243.741	12.15
243.957	12.74
244.173	12.38
244.388	13.26
244.604	13.18
244.82	12.92
245.036	12.88
245.252	13.03
245.468	12.41
245.683	10.91
245.899	10.69
246.115	9.97
246.331	9.35
246.547	9.41
246.762	8.71
246.978	8.41
247.194	8.4
247.409	8.27
247.625	7.99
247.841	8.09
248.057	8.29
248.272	8.09
248.488	8.24
248.703	8.45
248.919	8.45
249.135	8.97
249.35	9.76
249.566	10.26
249.782	10.59
249.997	11.59
250.213	11.76
250.428	12.85
250.644	13.15
250.859	13.33
251.075	13.4
251.29	12.98
251.506	12.2
251.721	11.64
251.937	11.35
252.152	11.41
252.368	10.77
252.583	10.71
252.798	10.57
253.014	11.21
253.229	11.69
253.445	11.99
253.66	12.76
253.875	12.96
254.091	13.16
254.306	14.27
254.521	14.5
254.737	14.49
254.952	14.96
255.167	14.67
255.383	13.96
255.598	13.33
255.813	12.36
256.028	12.22
256.244	13.2
256.459	13.49
256.674	12.05
256.889	11.38
257.104	11.25
257.32	10.87
257.535	10.48
257.75	10.56
257.965	10.67
258.18	10.29
258.395	9.73
258.61	8.8
258.826	8.19
259.041	7.81
259.256	7.36
259.471	7.11
259.686	6.99
259.901	6.73
260.116	6.32
260.331	5.9
260.546	5.87
260.761	5.97
260.976	6.06
261.191	5.9
261.406	6.03
261.621	6.49
261.836	6.9
262.05	6.88
262.265	7.29
262.48	7.78
262.695	8.56
262.91	9.28
263.125	10.03
263.34	10.81
263.555	11.86
263.769	11.77
263.984	11.66
264.199	11.4
264.414	11.5
264.629	12.01
264.843	11.97
265.058	11.39
265.273	10.23
265.488	9.7
265.702	9.41
265.917	9.07
266.132	9.53
266.346	9.75
266.561	9.73
266.776	10.14
266.99	9.49
267.205	9.49
267.42	9.29
267.634	9.47
267.849	9.16
268.063	8.68
268.278	8.84
268.492	9.14
268.707	8.94
268.922	9.21
269.136	8.57
269.351	8.51
269.565	7.95
269.78	8.1
269.994	8.27
270.209	8.21
270.423	8.18
270.637	7.72
270.852	7.09
271.066	6.91
271.281	6.55
271.495	6.72
271.709	6.82
271.924	7.11
272.138	6.95
272.353	6.87
272.567	6.88
272.781	6.92
272.996	7.16
273.21	7.31
273.424	7.57
273.638	7.92
273.853	8.03
274.067	8.05
274.281	8.37
274.495	8.51
274.71	8.74
274.924	8.95
275.138	8.61
275.352	8.42
275.566	8.49
275.781	8.44
275.995	8.12
276.209	8.02
276.423	8.39
276.637	8.15
276.851	8.37
277.065	8.63
277.279	9.16
277.493	9.45
277.707	9.48
277.921	9.62
278.135	9.77
278.349	9.93
278.563	10.12
278.777	9.89
278.991	9.64
279.205	9.57
279.419	9.5
279.633	8.81
279.847	8.87
280.061	8.84
280.275	8.7
280.489	8.52
280.703	8.52
280.917	8.27
281.131	8.38
281.344	8.15
281.558	7.93
281.772	7.54
281.986	7.12
282.2	7.06
282.414	6.99
282.627	6.97
282.841	6.84
283.055	6.63
283.269	6.63
283.482	6.7
283.696	6.78
283.91	6.78
284.123	7.03
284.337	7.42
284.551	7.3
284.764	7.54
284.978	7.2
285.192	7.02
285.405	7.26
285.619	7.15
285.833	6.9
286.046	7.07
286.26	7.08
286.473	6.89
286.687	7.01
286.9	7.25
287.114	6.89
287.327	7.39
287.541	7.49
287.754	7.29
287.968	7.75
288.181	7.66
288.395	7.66
288.608	7.76
288.822	7.58
289.035	7.19
289.248	7.09
289.462	7.17
289.675	6.7
289.889	6.74
290.102	6.61
290.315	6.3
290.529	6.59
290.742	6.51
290.955	6.59
291.169	6.91
291.382	7.29
291.595	7.56
291.808	8.01
292.022	8.56
292.235	8.77
292.448	9
292.661	8.83
292.875	8.71
293.088	9.09
293.301	9.12
293.514	8.92
293.727	8.83
293.94	8.86
294.153	8.47
294.367	8.3
294.58	7.86
294.793	7.94
295.006	8.35
295.219	8.42
295.432	8.35
295.645	8.41
295.858	8.38
296.071	8.16
296.284	7.96
296.497	7.95
296.71	8.03
296.923	8.25
297.136	8.07
297.349	7.9
297.562	7.85
297.775	7.69
297.988	7.38
298.201	7.61
298.414	7.72
298.626	7.61
298.839	7.74
299.052	7.51
299.265	7.89
299.478	8.04
299.691	8.2
299.903	8.23
300.116	8.37
300.329	8.97
300.542	8.83
300.755	8.88
300.967	9.48
301.18	9.72
301.393	9.91
301.605	9.44
301.818	9.68
302.031	9.7
302.243	9.9
302.456	10.44
302.669	10.23
302.881	10.18
303.094	10.3
303.307	9.7
303.519	9.54
303.732	9.64
303.944	9.75
304.157	10.06
304.37	10.08
304.582	10
304.795	9.48
305.007	9.8
305.22	9.71
305.432	9.7
305.645	10.08
305.857	10.26
306.069	10.28
306.282	10.41
306.494	10.08
306.707	10.2
306.919	10.29
307.132	10.38
307.344	10.02
307.556	10.04
307.769	10.23
307.981	9.95
308.193	9.71
308.406	9.52
308.618	9.63
308.83	9.48
309.043	9.45
309.255	9.24
309.467	9.02
309.679	9.18
309.892	9.25
310.104	8.73
310.316	8.75
310.528	8.88
310.74	8.88
310.953	8.9
311.165	8.94
311.377	8.88
311.589	9.18
311.801	9.33
312.013	9.22
312.225	9.27
312.437	10.01
312.649	10.21
312.862	10.26
313.074	10.28
313.286	10.62
313.498	10.57
313.71	10.98
313.922	10.84
314.134	10.89
314.346	10.79
314.558	11.25
314.77	11.16
314.982	11.21
315.193	11.07
315.405	11.24
315.617	10.97
315.829	11.34
316.041	11.25
316.253	10.99
316.465	11.31
316.677	11.56
316.888	11.69
317.1	11.4
317.312	11.64
317.524	11.71
317.736	11.65
317.947	11.33
318.159	11.59
318.371	11.36
318.583	11.97
318.794	11.71
319.006	12.05
319.218	12.24
319.43	12.59
319.641	12.78
319.853	13.08
320.064	13.27
320.276	13.51
320.488	13.1
320.699	13.63
320.911	13.22
321.123	13.46
321.334	13.38
321.546	13.51
321.757	13.87
321.969	13.94
322.18	14.03
322.392	14.39
322.603	14.75
322.815	15.06
323.026	14.55
323.238	14.5
323.449	14.43
323.661	14.32
323.872	14.09
324.083	13.8
324.295	13.5
324.506	13.25
324.718	13.25
324.929	13.65
325.14	13.96
325.352	14.58
325.563	15.32
325.774	15.81
325.986	16.18
326.197	16.36
326.408	16.86
326.62	17.39
326.831	18.13
327.042	18.44
327.253	18.47
327.464	18.82
327.676	18.57
327.887	18.51
328.098	18.86
328.309	19.17
328.52	19.42
328.732	19.61
328.943	19.8
329.154	20.04
329.365	20.47
329.576	20.76
329.787	21.03
329.998	22.13
330.209	22.79
330.42	23.12
330.631	23.37
330.842	23.46
331.053	23.91
331.264	24.21
331.475	24.3
331.686	24.41
331.897	24.63
332.108	24.67
332.319	24.67
332.53	25.03
332.741	24.98
332.952	25.17
333.163	25.47
333.374	25.5
333.585	25.69
333.795	26.06
334.006	26.29
334.217	26.55
334.428	26.76
334.639	26.63
334.849	26.39
335.06	26.18
335.271	26.02
335.482	26.2
335.692	26.39
335.903	26.2
336.114	26.24
336.325	26.16
336.535	26.35
336.746	26.46
336.957	26.37
337.167	26.31
337.378	26.74
337.589	26.75
337.799	26.99
338.01	26.67
338.22	27.03
338.431	26.77
338.642	26.62
338.852	26.26
339.063	26.19
339.273	26.62
339.484	26.84
339.694	26.51
339.905	26.67
340.115	26.13
340.326	26.09
340.536	26.06
340.746	26.09
340.957	26.34
341.167	26.37
341.378	26.29
341.588	26.31
341.799	25.98
342.009	26.08
342.219	26.18
342.43	26.31
342.64	26.44
342.85	26.42
343.061	26.52
343.271	26.43
343.481	26.33
343.691	26.34
343.902	26.01
344.112	26.35
344.322	26.49
344.532	26.38
344.743	26.63
344.953	26.23
345.163	26.08
345.373	26.11
345.583	25.9
345.793	25.81
346.004	25.6
346.214	25.83
346.424	25.49
346.634	25.44
346.844	25.7
347.054	25.65
347.264	26.18
347.474	26
347.684	25.62
347.894	25.9
348.104	25.83
348.314	25.87
348.524	25.66
348.734	25.87
348.944	26.02
349.154	25.72
349.364	25.49
349.574	25.27
349.784	25.15
349.994	25.28
350.204	25.2
350.413	25.53
350.623	25.21
350.833	25.19
351.043	25.37
351.253	24.92
351.463	24.97
351.672	24.99
351.882	24.93
352.092	25.16
352.302	25.08
352.511	25.01
352.721	24.94
352.931	25.25
353.141	25.24
353.35	24.94
353.56	25.05
353.77	25.03
353.979	25.04
354.189	24.92
354.399	24.88
354.608	24.8
354.818	24.8
355.027	24.52
355.237	24.53
355.447	24.47
355.656	24.58
355.866	24.45
356.075	24.22
356.285	23.92
356.494	23.91
356.704	23.73
356.913	23.72
357.123	23.58
357.332	23.74
357.542	23.59
357.751	23.41
357.96	23.01
358.17	22.81
358.379	22.9
358.589	22.9
358.798	22.98
359.007	23.04
359.217	23
359.426	22.87
359.635	22.69
359.845	22.84
360.054	22.91
360.263	22.91
360.472	23.02
360.682	22.77
360.891	22.78
361.1	22.65
361.309	22.8
361.519	22.72
361.728	22.78
361.937	22.76
362.146	22.44
362.355	22.45
362.564	22.58
362.774	22.55
362.983	22.63
363.192	22.67
363.401	22.6
363.61	22.29
363.819	22.4
364.028	22.22
364.237	21.95
364.446	21.89
364.655	21.8
364.864	21.9
365.073	21.86
365.282	21.66
365.491	21.56
365.7	21.57
365.909	21.81
366.118	21.68
366.327	21.95
366.536	22.09
366.745	22.35
366.954	22.56
367.162	22.62
367.371	22.72
367.58	23.19
367.789	23.37
367.998	23.27
368.207	23.12
368.415	23.16
368.624	23.1
368.833	23.35
369.042	23.15
369.25	22.86
369.459	22.66
369.668	22.62
369.877	22.31
370.085	22.2
370.294	22.18
370.503	22.24
370.711	22.34
370.92	22.3
371.129	22.24
371.337	22.43
371.546	22.4
371.754	22.34
371.963	22.33
372.171	22.03
372.38	22.15
372.589	22.33
372.797	22.08
373.006	21.99
373.214	21.9
373.423	21.64
373.631	21.64
373.84	21.64
374.048	21.72
374.256	21.71
374.465	22.17
374.673	21.82
374.882	21.67
375.09	21.77
375.298	21.76
375.507	21.92
375.715	22.13
375.923	21.96
376.132	21.79
376.34	21.57
376.548	21.39
376.757	21.16
376.965	21.39
377.173	21.28
377.381	21.11
377.59	20.83
377.798	20.4
378.006	19.98
378.214	20.06
378.423	20.11
378.631	20.14
378.839	20.15
379.047	20.26
379.255	20.18
379.463	20.49
379.671	20.8
379.879	20.9
380.088	21.38
380.296	21.66
380.504	21.47
380.712	21.44
380.92	21.39
381.128	21.45
381.336	21.39
381.544	21.19
381.752	20.93
381.96	20.69
382.168	20.71
382.376	20.46
382.584	20.3
382.791	20.34
382.999	20.31
383.207	20.38
383.415	20.25
383.623	20.38
383.831	20.35
384.039	20.42
384.247	20.43
384.454	20.53
384.662	20.45
384.87	20.53
385.078	20.51
385.285	20.49
385.493	20.49
385.701	20.53
385.909	20.28
386.116	20.25
386.324	20.21
386.532	20.25
386.739	20.24
386.947	20.27
387.155	20.38
387.362	20.45
387.57	20.56
387.778	20.45
387.985	20.58
388.193	20.64
388.4	20.76
388.608	20.78
388.816	20.59
389.023	20.62
389.231	20.61
389.438	20.5
389.646	20.46
389.853	20.3
390.061	20.27
390.268	20.2
390.475	20.17
390.683	20.13
390.89	20.08
391.098	20.14
391.305	20.07
391.512	19.98
391.72	20.02
391.927	19.85
392.135	19.96
392.342	19.95
392.549	19.87
392.756	19.87
392.964	19.91
393.171	19.82
393.378	19.73
393.586	19.68
393.793	19.71
394	19.62
394.207	19.64
394.414	19.67
394.622	19.82
394.829	19.86
395.036	19.91
395.243	19.85
395.45	20.02
395.657	20.2
395.864	20.2
396.072	20.36
396.279	20.46
396.486	20.62
396.693	20.72
396.9	20.54
397.107	20.53
397.314	20.47
397.521	20.51
397.728	20.31
397.935	20.38
398.142	20.29
398.349	20.11
398.556	20.03
398.763	20.02
398.97	19.86
399.177	19.92
399.383	19.91
399.59	19.86
399.797	19.98
400.004	20.03
400.211	19.92
400.418	20.14
400.625	20.12
400.831	20.05
401.038	20.09
401.245	19.95
401.452	19.94
401.658	19.74
401.865	19.84
402.072	19.55
402.279	19.63
402.485	19.67
402.692	19.57
402.899	19.57
403.105	19.75
403.312	19.57
403.519	19.67
403.725	19.69
403.932	19.83
404.138	19.75
404.345	19.93
404.552	19.91
404.758	19.75
404.965	19.76
405.171	19.86
405.378	19.63
405.584	19.52
405.791	19.36
405.997	19.31
406.204	19.41
406.41	19.39
406.617	19.36
406.823	19.5
407.029	19.65
407.236	19.59
407.442	19.55
407.649	19.73
407.855	19.97
408.061	20.16
408.268	20.04
408.474	20.07
408.68	20.1
408.887	19.93
409.093	19.8
409.299	19.59
409.505	19.52
409.712	19.41
409.918	19.46
410.124	19.45
410.33	19.46
410.537	19.52
410.743	19.42
410.949	19.42
411.155	19.53
411.361	19.34
411.567	19.5
411.773	19.6
411.98	19.71
412.186	19.7
412.392	19.51
412.598	19.46
412.804	19.39
413.01	19.22
413.216	19.27
413.422	19.37
413.628	19.51
413.834	19.54
414.04	19.64
414.246	19.53
414.452	19.48
414.658	19.74
414.864	19.78
415.07	19.82
415.275	19.95
415.481	19.84
415.687	19.67
415.893	19.58
416.099	19.55
416.305	19.43
416.511	19.51
416.716	19.43
416.922	19.3
417.128	19.29
417.334	19.32
417.539	19.36
417.745	19.31
417.951	19.32
418.157	19.31
418.362	19.28
418.568	19.33
418.774	19.2
418.979	19.18
419.185	19.14
419.391	19.08
419.596	19.08
419.802	19.01
420.008	19.05
420.213	18.46
420.419	18.45
420.624	18.44
420.83	18.37
421.035	18.45
421.241	18.45
421.446	18.41
421.652	18.37
421.857	18.26
422.063	18.22
422.268	18.19
422.474	18.71
422.679	18.74
422.885	18.77
423.09	18.79
423.295	18.78
423.501	18.77
423.706	18.78
423.911	18.85
424.117	18.99
424.322	19.05
424.527	19.05
424.733	19.06
424.938	18.98
425.143	18.95
425.349	18.98
425.554	19
425.759	19.08
425.964	19.18
426.169	19.21
426.375	19.17
426.58	19.14
426.785	19.13
426.99	19.25
427.195	19.4
427.4	19.49
427.605	19.5
427.811	19.52
428.016	19.39
428.221	19.39
428.426	19.39
428.631	19.53
428.836	19.54
429.041	19.78
429.246	19.71
429.451	19.72
429.656	19.56
429.861	19.55
430.066	19.59
430.271	19.62
430.476	19.48
430.681	19.49
430.886	19.35
431.09	19.44
431.295	19.23
431.5	19.2
431.705	19.17
431.91	19.2
432.115	19.11
432.32	19.08
432.524	19.17
432.729	19.23
432.934	19.08
433.139	19.11
433.343	18.92
433.548	18.98
433.753	18.98
433.958	18.96
434.162	19.04
434.367	19.09
434.572	19.03
434.776	18.98
434.981	19.07
435.186	19.16
435.39	19.22
435.595	19.38
435.799	19.39
436.004	19.39
436.209	19.47
436.413	19.46
436.618	19.48
436.822	19.53
437.027	19.49
437.231	19.45
437.436	19.5
437.64	19.49
437.845	19.46
438.049	19.5
438.253	19.57
438.458	19.51
438.662	19.48
438.867	19.48
439.071	19.53
439.275	19.51
439.48	19.47
439.684	19.38
439.888	19.33
440.093	19.24
440.297	19.17
440.501	19.09
440.706	19.06
440.91	19.07
441.114	19.06
441.318	19.07
441.523	19.13
441.727	19.19
441.931	19.24
442.135	19.28
442.339	19.37
442.543	19.34
442.748	19.41
442.952	19.52
443.156	19.45
443.36	19.53
443.564	19.46
443.768	19.53
443.972	19.5
444.176	19.47
444.38	19.4
444.584	19.44
444.788	19.45
444.992	19.45
445.196	19.36
445.4	19.37
445.604	19.31
445.808	19.24
446.012	19.07
446.216	19
446.42	19.03
446.624	19.02
446.828	18.98
447.032	18.97
447.235	18.89
447.439	18.91
447.643	18.91
447.847	18.92
448.051	18.92
448.254	18.96
448.458	18.98
448.662	18.89
448.866	18.89
449.069	18.81
449.273	18.86
449.477	18.94
449.681	18.94
449.884	19.06
450.088	19.09
450.292	19.27
450.495	19.31
450.699	19.39
450.902	19.56
451.106	19.65
451.31	19.8
451.513	19.77
451.717	19.65
451.92	19.72
452.124	19.57
452.327	19.49
452.531	19.38
452.734	19.42
452.938	19.4
453.141	19.31
453.345	19.18
453.548	19.18
453.752	19.24
453.955	19.39
454.158	19.36
454.362	19.39
454.565	19.4
454.769	19.41
454.972	19.43
455.175	19.49
455.379	19.45
455.582	19.6
455.785	19.51
455.988	19.38
456.192	19.27
456.395	19.26
456.598	19.32
456.801	19.43
457.005	19.46
457.208	19.53
457.411	19.52
