Data from 2938848__Reflection_02.txt Node
Date: Wed Mar 11 13:35:40 EDT 2015
User: robert
Spectrometer: USB4E03002
Autoset integration time: false
Trigger mode: 4
Integration Time (sec): 1.000000E-1
Scans to average: 10
Electric dark correction enabled: false
Nonlinearity correction enabled: false
Boxcar width: 5
Stray light correction enabled: false
XAxis mode: Wavelengths
Stop averaging: false
Number of Pixels in Spectrum: 3648
>>>>>Begin Spectral Data<<<<<
177.575	977.78
177.794	-572.92
178.014	-199.32
178.233	-504.41
178.452	-325.55
178.672	-132.93
178.891	-88.7
179.11	-53.59
179.33	-87.99
179.549	-56.56
179.768	-69.23
179.987	-100.46
180.207	-102.36
180.426	-68.61
180.645	-72.88
180.864	-31.01
181.084	-93.09
181.303	-671.43
181.522	-296.46
181.741	-171.01
181.96	-350.35
182.179	-856.9
182.398	-527.06
182.618	517.58
182.837	1009.23
183.056	1251.06
183.275	210.36
183.494	165.45
183.713	218.79
183.932	137.61
184.151	151.84
184.37	121.43
184.589	245.7
184.808	286.13
185.027	-723.81
185.246	-52.22
185.465	13.28
185.684	21.88
185.903	-0.51
186.122	-0.85
186.341	-10.46
186.56	-12.94
186.779	-29.57
186.998	-16.89
187.216	-8.4
187.435	-5.48
187.654	-23.98
187.873	-37.38
188.092	-56.56
188.311	-39.82
188.53	-21.69
188.748	-8.5
188.967	0
189.186	6.49
189.405	-3.62
189.623	0.97
189.842	-9.22
190.061	-2.53
190.28	0.91
190.498	6.45
190.717	-6.63
190.936	-30.04
191.154	-18.32
191.373	-11.62
191.592	-21.02
191.81	-11.66
192.029	-35.63
192.248	-26.84
192.466	-32.8
192.685	-96.33
192.904	-100.69
193.122	-65.62
193.341	-204.9
193.559	-302
193.778	-608.64
193.996	-331.34
194.215	-282.32
194.433	-129.77
194.652	-102.24
194.87	-128.77
195.089	-118.26
195.307	-112.31
195.526	-156.17
195.744	-69.48
195.963	-56.01
196.181	-69.58
196.399	-64.04
196.618	-57.09
196.836	-67.76
197.055	-50.07
197.273	-20.88
197.491	-50.66
197.71	-56.06
197.928	-29.61
198.146	-21.5
198.365	-33.79
198.583	-17.53
198.801	-13
199.019	-5.09
199.238	-8.77
199.456	-18.38
199.674	-38.88
199.892	30.97
200.111	29.59
200.329	26.58
200.547	5.61
200.765	-2.36
200.983	-25.71
201.202	-5.39
201.42	15.56
201.638	27.87
201.856	38.31
202.074	26.66
202.292	-7.17
202.51	-12.43
202.728	-3.4
202.946	59.06
203.165	65.2
203.383	66.82
203.601	27.74
203.819	0
204.037	-23.38
204.255	-43.13
204.473	-41.23
204.691	-40.12
204.909	-61.59
205.127	-70.19
205.345	-129.91
205.562	-84.53
205.78	-78.28
205.998	-125.59
206.216	-112.2
206.434	-54.76
206.652	-40.77
206.87	-43.44
207.088	-20.14
207.306	-12.1
207.523	-12
207.741	-20.84
207.959	-28.83
208.177	-36.89
208.395	-28.31
208.612	-47.52
208.83	-72.04
209.048	-119.61
209.266	-52.91
209.483	-124.57
209.701	-108.94
209.919	-94.13
210.136	-91.12
210.354	-65.66
210.572	-38.69
210.79	-59.52
211.007	-69.83
211.225	-61.71
211.442	-23.77
211.66	-89.56
211.878	-50.83
212.095	-52.3
212.313	-61.63
212.53	-39.52
212.748	-26.24
212.966	-37.86
213.183	-14.05
213.401	-0.08
213.618	-8.29
213.836	-4.22
214.053	-1.27
214.271	-5.53
214.488	-18.63
214.705	-21.9
214.923	-33.13
215.14	-61.82
215.358	-55.1
215.575	-51.81
215.793	-61.43
216.01	-71.2
216.227	-64.2
216.445	-39.28
216.662	-33.01
216.879	-28.1
217.097	-18.91
217.314	-15.65
217.531	-5.29
217.749	-12.37
217.966	-21.64
218.183	-11.69
218.4	-16.14
218.618	-25.45
218.835	-30.1
219.052	-38.79
219.269	-40.52
219.487	-39.58
219.704	-41.24
219.921	-36.97
220.138	-26.63
220.355	-20.86
220.572	-29.2
220.79	-23.05
221.007	-23.19
221.224	-33.37
221.441	-27.05
221.658	-16.3
221.875	-15.82
222.092	-11.38
222.309	-10.88
222.526	-12.97
222.743	-16.47
222.96	-20.03
223.177	-18.74
223.394	-20.33
223.611	-15.41
223.828	-10.39
224.045	-11.42
224.262	-6.67
224.479	-3.87
224.696	-4.71
224.913	-3.43
225.13	3.48
225.347	4.47
225.564	4.81
225.781	5.96
225.997	6.78
226.214	4.05
226.431	3.96
226.648	1.23
226.865	1.02
227.082	1.85
227.298	2.45
227.515	1.25
227.732	0.86
227.949	0.63
228.165	0.33
228.382	0.77
228.599	1.23
228.816	1.57
229.032	1.95
229.249	1.63
229.466	1.75
229.682	1.32
229.899	1.54
230.116	1.94
230.332	2.32
230.549	2.52
230.765	1.73
230.982	1.58
231.199	1.09
231.415	-0.06
231.632	-0.43
231.848	-1.97
232.065	-1.21
232.281	-1.02
232.498	-1.62
232.714	-2.25
232.931	-2.9
233.147	-2.38
233.364	-2.29
233.58	-0.89
233.797	1
234.013	1.26
234.23	2.18
234.446	2.01
234.662	0.42
234.879	0.58
235.095	0.57
235.312	1.88
235.528	1.43
235.744	1.79
235.961	0.85
236.177	0.42
236.393	0.26
236.61	0.38
236.826	1.47
237.042	1.99
237.258	1.08
237.475	0.44
237.691	-0.98
237.907	0.76
238.123	0.9
238.339	0.87
238.556	0.35
238.772	0.78
238.988	1.24
239.204	-0.43
239.42	0.53
239.636	1.65
239.853	2.91
240.069	2.77
240.285	2.12
240.501	1.66
240.717	2.47
240.933	2.32
241.149	2.11
241.365	2.16
241.581	2.13
241.797	1.86
242.013	2.3
242.229	2.23
242.445	2.22
242.661	2.16
242.877	1.87
243.093	1.17
243.309	1.18
243.525	1.4
243.741	1.44
243.957	1.6
244.173	1.43
244.388	0.71
244.604	0.44
244.82	0.12
245.036	0.13
245.252	0.52
245.468	1.58
245.683	2.63
245.899	2.48
246.115	2.89
246.331	3.11
246.547	2.96
246.762	3.31
246.978	3.26
247.194	3.61
247.409	3.75
247.625	4.02
247.841	3.66
248.057	3.37
248.272	3.38
248.488	3.04
248.703	3.17
248.919	3.53
249.135	3.15
249.35	3
249.566	2.83
249.782	2.73
249.997	2.12
250.213	2.07
250.428	1.88
250.644	1.62
250.859	1.45
251.075	1.38
251.29	1.64
251.506	2.41
251.721	2.72
251.937	3.12
252.152	3.35
252.368	4.16
252.583	3.96
252.798	3.55
253.014	4.03
253.229	4.39
253.445	3.97
253.66	3.3
253.875	2.88
254.091	2.48
254.306	2.41
254.521	1.46
254.737	0.44
254.952	0.48
255.167	0.48
255.383	-0.32
255.598	-0.22
255.813	-0.01
256.028	0.32
256.244	0.71
256.459	0.94
256.674	0.92
256.889	1.49
257.104	1
257.32	1.29
257.535	1.44
257.75	1.71
257.965	1.62
258.18	1.75
258.395	2.07
258.61	2.04
258.826	2.1
259.041	1.88
259.256	1.85
259.471	2.25
259.686	2.17
259.901	2.22
260.116	2.31
260.331	2.2
260.546	2.25
260.761	2.03
260.976	1.7
261.191	1.59
261.406	1.75
261.621	1.77
261.836	1.55
262.05	1.31
262.265	1.16
262.48	1.16
262.695	0.81
262.91	0.62
263.125	0.67
263.34	1.12
263.555	1.26
263.769	0.66
263.984	0.07
264.199	-0.1
264.414	0.74
264.629	0.66
264.843	0.64
265.058	1.39
265.273	1.07
265.488	0.76
265.702	0.66
265.917	1.39
266.132	1.18
266.346	1.66
266.561	1.82
266.776	1.34
266.99	1.74
267.205	1.18
267.42	0.81
267.634	0.94
267.849	1.33
268.063	1.44
268.278	0.86
268.492	1.51
268.707	1.27
268.922	1.04
269.136	1.19
269.351	1.27
269.565	1.78
269.78	1.68
269.994	1.35
270.209	1.16
270.423	1.02
270.637	1.04
270.852	0.8
271.066	0.96
271.281	0.98
271.495	0.98
271.709	0.55
271.924	0.74
272.138	0.97
272.353	1.37
272.567	1.17
272.781	1.26
272.996	1.16
273.21	1.23
273.424	1.5
273.638	1.46
273.853	1.64
274.067	2.16
274.281	2.16
274.495	2.15
274.71	1.65
274.924	1.97
275.138	2.15
275.352	2.54
275.566	2.6
275.781	2.08
275.995	2.08
276.209	1.8
276.423	1.61
276.637	1.33
276.851	1.32
277.065	1.65
277.279	1.62
277.493	1.63
277.707	1.26
277.921	1.29
278.135	1.78
278.349	2.02
278.563	1.82
278.777	1.79
278.991	1.86
279.205	1.57
279.419	1.83
279.633	1.94
279.847	1.75
280.061	1.91
280.275	1.87
280.489	1.55
280.703	1.45
280.917	2.01
281.131	1.78
281.344	1.82
281.558	2.01
281.772	1.8
281.986	1.69
282.2	1.81
282.414	1.78
282.627	1.62
282.841	1.87
283.055	1.83
283.269	1.81
283.482	2.11
283.696	2.13
283.91	2.23
284.123	2.25
284.337	2.34
284.551	2.26
284.764	2.32
284.978	2.29
285.192	2.25
285.405	2.18
285.619	2.08
285.833	2.18
286.046	2.06
286.26	2.12
286.473	2.09
286.687	2.05
286.9	2.3
287.114	2.39
287.327	2.63
287.541	2.3
287.754	2.53
287.968	2.26
288.181	2.18
288.395	2.19
288.608	2.01
288.822	2.01
289.035	1.98
289.248	1.79
289.462	1.74
289.675	1.88
289.889	2.18
290.102	2.19
290.315	2.35
290.529	2.4
290.742	2.28
290.955	2.28
291.169	2.38
291.382	2.8
291.595	2.73
291.808	2.91
292.022	2.8
292.235	2.66
292.448	2.58
292.661	2.59
292.875	2.43
293.088	2.81
293.301	2.91
293.514	3.27
293.727	2.73
293.94	2.89
294.153	2.52
294.367	2.44
294.58	3.03
294.793	3.07
295.006	3.34
295.219	3.49
295.432	3.3
295.645	3.36
295.858	3.24
296.071	3.35
296.284	3.47
296.497	3.59
296.71	3.74
296.923	3.67
297.136	3.97
297.349	3.87
297.562	3.85
297.775	4.22
297.988	4.53
298.201	4.49
298.414	4.89
298.626	4.82
298.839	5.18
299.052	5.29
299.265	4.96
299.478	4.75
299.691	4.98
299.903	5.22
300.116	5
300.329	4.87
300.542	5.06
300.755	4.89
300.967	5.26
301.18	5.35
301.393	5.28
301.605	5.74
301.818	5.83
302.031	5.99
302.243	6.06
302.456	6.21
302.669	6.12
302.881	6.41
303.094	6.34
303.307	6.24
303.519	5.96
303.732	5.95
303.944	6.02
304.157	6.32
304.37	6.23
304.582	6.29
304.795	6.19
305.007	6.11
305.22	6.09
305.432	6.44
305.645	6.47
305.857	6.72
306.069	7.09
306.282	7.04
306.494	6.93
306.707	6.81
306.919	6.88
307.132	6.69
307.344	7.06
307.556	6.75
307.769	6.58
307.981	6.64
308.193	6.8
308.406	6.71
308.618	6.96
308.83	7.06
309.043	7.01
309.255	6.98
309.467	7.24
309.679	7.23
309.892	7.58
310.104	7.85
310.316	8.04
310.528	8.11
310.74	8.12
310.953	8.04
311.165	7.84
311.377	8.25
311.589	8.16
311.801	8.24
312.013	8.38
312.225	8.14
312.437	8.04
312.649	7.88
312.862	7.75
313.074	8.24
313.286	8.15
313.498	8.8
313.71	8.71
313.922	9
314.134	9.19
314.346	9.14
314.558	9.39
314.77	9.15
314.982	9.19
315.193	9.06
315.405	8.6
315.617	8.28
315.829	7.73
316.041	7.74
316.253	7.68
316.465	7.74
316.677	7.95
316.888	8.16
317.1	8.35
317.312	8.38
317.524	8.81
317.736	8.44
317.947	9.33
318.159	9.98
318.371	9.93
318.583	9.97
318.794	10.08
319.006	10.04
319.218	9.81
319.43	9.88
319.641	10.14
319.853	9.82
320.064	9.95
320.276	9.5
320.488	9.12
320.699	9.44
320.911	9.56
321.123	9.67
321.334	9.59
321.546	10.04
321.757	10.15
321.969	10.23
322.18	10.55
322.392	11.33
322.603	11.81
322.815	11.95
323.026	11.97
323.238	11.86
323.449	11.56
323.661	11.92
323.872	11.58
324.083	11.7
324.295	11.83
324.506	11.98
324.718	11.77
324.929	11.6
325.14	11.65
325.352	11.5
325.563	11.96
325.774	12.16
325.986	12.13
326.197	12.45
326.408	12.68
326.62	12.81
326.831	13.03
327.042	13.21
327.253	13.74
327.464	13.9
327.676	14.03
327.887	14.25
328.098	14.5
328.309	14.73
328.52	14.94
328.732	14.93
328.943	15.01
329.154	15.27
329.365	15.57
329.576	15.51
329.787	15.76
329.998	16.35
330.209	16.43
330.42	16.83
330.631	16.77
330.842	17.09
331.053	17.29
331.264	17.48
331.475	17.6
331.686	17.68
331.897	17.89
332.108	17.96
332.319	17.55
332.53	17.91
332.741	17.7
332.952	17.84
333.163	17.89
333.374	18.22
333.585	18.29
333.795	18.64
334.006	18.86
334.217	18.97
334.428	19.16
334.639	19.53
334.849	19.33
335.06	19.45
335.271	19.55
335.482	19.47
335.692	19.31
335.903	19.12
336.114	18.81
336.325	18.72
336.535	18.43
336.746	18.58
336.957	18.47
337.167	18.26
337.378	18.27
337.589	18.61
337.799	18.43
338.01	18.41
338.22	18.48
338.431	18.24
338.642	17.9
338.852	18.13
339.063	17.99
339.273	17.98
339.484	17.9
339.694	17.92
339.905	17.53
340.115	17.52
340.326	17.71
340.536	17.72
340.746	18.02
340.957	18.03
341.167	18.06
341.378	17.99
341.588	17.97
341.799	18.4
342.009	18.53
342.219	18.54
342.43	18.77
342.64	18.66
342.85	18.57
343.061	18.34
343.271	18.55
343.481	18.41
343.691	18.31
343.902	18.62
344.112	18.38
344.322	18.35
344.532	18.39
344.743	18.37
344.953	18.27
345.163	18.31
345.373	18.38
345.583	18.42
345.793	18.51
346.004	18.76
346.214	18.41
346.424	18.38
346.634	18.48
346.844	18.37
347.054	18.18
347.264	18.03
347.474	18.17
347.684	18.29
347.894	18.38
348.104	18.32
348.314	17.85
348.524	17.93
348.734	18.29
348.944	18.04
349.154	17.99
349.364	18.12
349.574	18.41
349.784	18.32
349.994	18.12
350.204	17.94
350.413	18.01
350.623	18.22
350.833	18.25
351.043	17.73
351.253	17.69
351.463	17.73
351.672	17.64
351.882	17.45
352.092	17.4
352.302	17.4
352.511	17.4
352.721	17.4
352.931	17.47
353.141	17.4
353.35	17.27
353.56	17.18
353.77	17.38
353.979	17.48
354.189	17.55
354.399	17.38
354.608	17.44
354.818	17.68
355.027	17.74
355.237	17.6
355.447	17.72
355.656	17.9
355.866	17.75
356.075	17.75
356.285	17.67
356.494	17.72
356.704	17.94
356.913	18.16
357.123	17.86
357.332	17.77
357.542	17.83
357.751	17.89
357.96	17.82
358.17	18.06
358.379	18.07
358.589	18.02
358.798	18.03
359.007	17.89
359.217	17.66
359.426	17.84
359.635	17.67
359.845	17.47
360.054	17.31
360.263	17.44
360.472	17.44
360.682	17.07
360.891	17.01
361.1	16.99
361.309	17.04
361.519	16.98
361.728	16.7
361.937	16.76
362.146	16.9
362.355	16.97
362.564	16.9
362.774	16.9
362.983	17.09
363.192	17.11
363.401	17.06
363.61	17.1
363.819	17.15
364.028	17.35
364.237	17.36
364.446	17.37
364.655	17.24
364.864	17.2
365.073	17.15
365.282	17.04
365.491	17.07
365.7	16.88
365.909	16.68
366.118	16.6
366.327	16.71
366.536	16.65
366.745	16.53
366.954	16.7
367.162	16.84
367.371	16.61
367.58	16.68
367.789	16.88
367.998	16.97
368.207	17.01
368.415	16.86
368.624	16.77
368.833	16.76
369.042	16.7
369.25	16.38
369.459	16.22
369.668	16.47
369.877	16.42
370.085	16.24
370.294	16.26
370.503	16.53
370.711	16.63
370.92	16.68
371.129	16.6
371.337	16.75
371.546	16.9
371.754	16.98
371.963	16.94
372.171	17.08
372.38	16.9
372.589	16.74
372.797	16.49
373.006	16.28
373.214	16.29
373.423	16.31
373.631	16.13
373.84	16.2
374.048	16.08
374.256	15.95
374.465	15.79
374.673	16.13
374.882	16.2
375.09	16.22
375.298	16.27
375.507	16
375.715	15.95
375.923	15.8
376.132	15.6
376.34	15.79
376.548	15.68
376.757	15.59
376.965	15.4
377.173	15.58
377.381	15.7
377.59	15.86
377.798	16.03
378.006	15.95
378.214	16.35
378.423	16.49
378.631	16.17
378.839	16.35
379.047	16.4
379.255	16.28
379.463	15.98
379.671	15.68
379.879	15.68
380.088	15.83
380.296	15.99
380.504	15.89
380.712	15.9
380.92	15.89
381.128	15.7
381.336	15.91
381.544	16.06
381.752	16.16
381.96	16.38
382.168	16.39
382.376	16.03
382.584	15.96
382.791	15.79
382.999	15.54
383.207	15.78
383.415	15.83
383.623	15.58
383.831	15.55
384.039	15.48
384.247	15.32
384.454	15.37
384.662	15.37
384.87	15.55
385.078	15.53
385.285	15.65
385.493	15.45
385.701	15.4
385.909	15.6
386.116	15.59
386.324	15.76
386.532	15.86
386.739	15.76
386.947	15.93
387.155	15.83
387.362	16.01
387.57	15.93
387.778	15.94
387.985	15.97
388.193	16.07
388.4	15.77
388.608	15.61
388.816	15.72
389.023	15.43
389.231	15.34
389.438	15.28
389.646	15.25
389.853	15.33
390.061	15.36
390.268	15.47
390.475	15.24
390.683	15.53
390.89	15.59
391.098	15.48
391.305	15.72
391.512	15.66
391.72	15.63
391.927	15.47
392.135	15.52
392.342	15.52
392.549	15.5
392.756	15.39
392.964	15.33
393.171	15.47
393.378	15.51
393.586	15.54
393.793	15.61
394	15.63
394.207	15.66
394.414	15.6
394.622	15.51
394.829	15.45
395.036	15.47
395.243	15.59
395.45	15.54
395.657	15.57
395.864	15.58
396.072	15.64
396.279	15.7
396.486	15.66
396.693	15.65
396.9	15.71
397.107	15.72
397.314	15.79
397.521	15.54
397.728	15.31
397.935	15.25
398.142	15.19
398.349	15.12
398.556	15.14
398.763	15.21
398.97	15.2
399.177	15.28
399.383	15.38
399.59	15.42
399.797	15.51
400.004	15.67
400.211	15.75
400.418	15.85
400.625	15.91
400.831	15.88
401.038	15.82
401.245	15.99
401.452	15.9
401.658	15.95
401.865	15.91
402.072	15.98
402.279	16.11
402.485	16.06
402.692	16.03
402.899	15.82
403.105	15.92
403.312	16.02
403.519	16.02
403.725	15.99
403.932	15.82
404.138	15.78
404.345	15.78
404.552	15.75
404.758	15.63
404.965	15.52
405.171	15.7
405.378	15.68
405.584	15.77
405.791	15.81
405.997	15.85
406.204	15.95
406.41	16.04
406.617	16.02
406.823	16.07
407.029	16.34
407.236	16.44
407.442	16.39
407.649	16.27
407.855	16.05
408.061	15.79
408.268	15.89
408.474	16.03
408.68	16.03
408.887	16.01
409.093	15.87
409.299	15.66
409.505	15.62
409.712	15.62
409.918	15.62
410.124	15.66
410.33	15.96
410.537	16
410.743	15.85
410.949	16.08
411.155	15.99
411.361	15.96
411.567	16.13
411.773	16.24
411.98	16.35
412.186	16.4
412.392	16.51
412.598	16.63
412.804	16.65
413.01	16.78
413.216	16.77
413.422	17
413.628	17.1
413.834	16.93
414.04	16.75
414.246	16.73
414.452	16.76
414.658	16.75
414.864	16.52
415.07	16.38
415.275	16.42
415.481	16.27
415.687	16.2
415.893	16.29
416.099	16.32
416.305	16.53
416.511	16.63
416.716	16.59
416.922	16.63
417.128	16.71
417.334	16.84
417.539	16.91
417.745	16.97
417.951	17.07
418.157	17.08
418.362	17.16
418.568	17.04
418.774	16.96
418.979	17.08
419.185	17.13
419.391	17.14
419.596	17.15
419.802	17.09
420.008	17.15
420.213	17.19
420.419	17.17
420.624	17.19
420.83	17.27
421.035	17.29
421.241	17.27
421.446	17.32
421.652	17.32
421.857	17.31
422.063	17.31
422.268	17.24
422.474	17.21
422.679	17.24
422.885	17.26
423.09	17.31
423.295	17.37
423.501	17.41
423.706	17.35
423.911	17.37
424.117	17.41
424.322	17.49
424.527	17.63
424.733	17.69
424.938	17.69
425.143	17.62
425.349	17.61
425.554	17.67
425.759	17.69
425.964	17.72
426.169	17.77
426.375	17.81
426.58	17.79
426.785	17.68
426.99	17.65
427.195	17.76
427.4	17.89
427.605	17.75
427.811	17.71
428.016	17.71
428.221	17.71
428.426	17.72
428.631	17.72
428.836	17.74
429.041	17.81
429.246	17.81
429.451	17.78
429.656	17.87
429.861	18.08
430.066	18.15
430.271	18.25
430.476	18.27
430.681	18.17
430.886	18.17
431.09	18.14
431.295	18.1
431.5	18.13
431.705	18.09
431.91	18.02
432.115	18.08
432.32	18.12
432.524	18.05
432.729	18.12
432.934	18.17
433.139	18.19
433.343	18.31
433.548	18.37
433.753	18.45
433.958	18.53
434.162	18.57
434.367	18.49
434.572	18.48
434.776	18.61
434.981	18.66
435.186	18.74
435.39	18.81
435.595	18.77
435.799	18.77
436.004	18.73
436.209	18.77
436.413	18.83
436.618	18.92
436.822	18.92
437.027	18.82
437.231	18.84
437.436	18.92
437.64	18.86
437.845	18.84
438.049	18.82
438.253	18.8
438.458	18.72
438.662	18.72
438.867	18.71
439.071	18.74
439.275	18.85
439.48	18.86
439.684	18.87
439.888	18.92
440.093	18.98
440.297	19.09
440.501	19.12
440.706	19.16
440.91	19.2
441.114	19.2
441.318	19.19
441.523	19.16
441.727	19.15
441.931	19.12
442.135	19.14
442.339	19.14
442.543	19.09
442.748	19.1
442.952	19.08
443.156	19.07
443.36	19.05
443.564	19.04
443.768	19.07
443.972	19.11
444.176	19.18
444.38	19.18
444.584	19.16
444.788	19.15
444.992	19.14
445.196	19.21
445.4	19.26
445.604	19.39
445.808	19.42
446.012	19.41
446.216	19.41
446.42	19.37
446.624	19.33
446.828	19.34
447.032	19.33
447.235	19.3
447.439	19.34
447.643	19.28
447.847	19.29
448.051	19.28
448.254	19.24
448.458	19.27
448.662	19.29
448.866	19.38
449.069	19.41
449.273	19.39
449.477	19.43
449.681	19.44
449.884	19.46
450.088	19.39
450.292	19.41
450.495	19.51
450.699	19.51
450.902	19.54
451.106	19.55
451.31	19.57
451.513	19.56
451.717	19.53
451.92	19.53
452.124	19.59
452.327	19.55
452.531	19.63
452.734	19.6
452.938	19.56
453.141	19.56
453.345	19.53
453.548	19.54
453.752	19.64
453.955	19.62
454.158	19.55
454.362	19.52
454.565	19.52
454.769	19.4
454.972	19.44
455.175	19.43
455.379	19.4
455.582	19.33
455.785	19.29
455.988	19.33
456.192	19.45
456.395	19.54
456.598	19.47
456.801	19.43
457.005	19.51
457.208	19.51
457.411	19.46
457.614	19.53
457.817	19.56
458.021	19.49
458.224	19.37
458.427	19.32
458.63	19.24
458.833	19.29
459.036	19.31
459.239	19.26
459.442	19.29
459.645	19.29
459.848	19.28
