Data from 2938742__Reflection_01.txt Node
Date: Sun Mar 15 12:03:06 EDT 2015
User: robert
Spectrometer: USB4E03002
Autoset integration time: false
Trigger mode: 4
Integration Time (sec): 1.000000E-1
Scans to average: 10
Electric dark correction enabled: false
Nonlinearity correction enabled: false
Boxcar width: 5
Stray light correction enabled: false
XAxis mode: Wavelengths
Stop averaging: false
Number of Pixels in Spectrum: 3648
>>>>>Begin Spectral Data<<<<<
177.575	656.8
177.794	496.83
178.014	886.19
178.233	1036.05
178.452	1338.65
178.672	2011.49
178.891	2303.01
179.11	-7225.58
179.33	-1890.96
179.549	-1668.21
179.768	-2452.45
179.987	-4438.96
180.207	-1291.76
180.426	-7121.15
180.645	-5689.55
180.864	-54185.71
181.084	3453.57
181.303	-18014.29
181.522	2027.98
181.741	1794.39
181.96	3124.39
182.179	879.69
182.398	843.66
182.618	591.92
182.837	610.93
183.056	551.64
183.275	594.38
183.494	698.26
183.713	590.58
183.932	531.59
184.151	464.98
184.37	456.45
184.589	712.67
184.808	707.15
185.027	758.69
185.246	779.48
185.465	679.62
185.684	734.03
185.903	633.7
186.122	579.23
186.341	926.2
186.56	1476.92
186.779	1117.74
186.998	1011.5
187.216	1173.05
187.435	2093.63
187.654	1986.31
187.873	6456
188.092	2070.99
188.311	1533.33
188.53	2192.31
188.748	1944.26
188.967	1581.47
189.186	1824.52
189.405	1502.33
189.623	2037.17
189.842	1364.83
190.061	1365.86
190.28	1333.67
190.498	2507.14
190.717	1929
190.936	3054.76
191.154	2091.62
191.373	1735.51
191.592	811.7
191.81	684.15
192.029	574.68
192.248	641.44
192.466	901.16
192.685	802.4
192.904	602.29
193.122	833.41
193.341	890.1
193.559	667.74
193.778	753.23
193.996	1581.37
194.215	2398.48
194.433	-11596.3
194.652	3630.68
194.87	2543.08
195.089	3675.58
195.307	6177.36
195.526	2319.62
195.744	4701.3
195.963	-3991.58
196.181	-9365.12
196.399	-8142
196.618	-3222.4
196.836	-3348.28
197.055	-1542.46
197.273	-1866.99
197.491	-2228.25
197.71	-7271.43
197.928	-3941.84
198.146	-3243.22
198.365	-3504.59
198.583	-6346.55
198.801	11067.65
199.019	2400.62
199.238	1291.59
199.456	882.54
199.674	1223.86
199.892	1580
200.111	1854.92
200.329	2181.87
200.547	807.78
200.765	590.98
200.983	576.92
201.202	556.52
201.42	623.17
201.638	593.76
201.856	731.16
202.074	526.98
202.292	429.38
202.51	526.24
202.728	460.93
202.946	593.67
203.165	751.03
203.383	766.19
203.601	760.58
203.819	732.24
204.037	765.78
204.255	591.17
204.473	485
204.691	508.56
204.909	465.68
205.127	512.69
205.345	420.11
205.562	390.28
205.78	532.66
205.998	658.45
206.216	801.53
206.434	791.87
206.652	1131.27
206.87	3066.41
207.088	10985.29
207.306	1779.91
207.523	2452.53
207.741	2738.89
207.959	3257.02
208.177	1196.34
208.395	897.53
208.612	747.25
208.83	822.34
209.048	899.07
209.266	626.25
209.483	635.61
209.701	749.59
209.919	831.15
210.136	611.72
210.354	542.7
210.572	808.53
210.79	704.88
211.007	556.8
211.225	485.71
211.442	423.18
211.66	449.7
211.878	514.03
212.095	279.93
212.313	257.83
212.53	293.92
212.748	315.33
212.966	271.57
213.183	261.07
213.401	278.77
213.618	282.56
213.836	263.64
214.053	268.91
214.271	237.88
214.488	468.36
214.705	401.6
214.923	410.03
215.14	359.23
215.358	356.34
215.575	416.47
215.793	337.82
216.01	334.6
216.227	315.26
216.445	310.72
216.662	349.85
216.879	320.68
217.097	325.55
217.314	311.79
217.531	288.3
217.749	277.23
217.966	270.82
218.183	340.74
218.4	340.87
218.618	386.52
218.835	391.21
219.052	309.09
219.269	315.54
219.487	328.91
219.704	320.91
219.921	354.6
220.138	358.49
220.355	284.43
220.572	236.57
220.79	229.46
221.007	211.72
221.224	195.54
221.441	198.23
221.658	188.3
221.875	175.65
222.092	172.63
222.309	167.32
222.526	160.91
222.743	163.22
222.96	168.56
223.177	164.33
223.394	158.61
223.611	162.29
223.828	160.74
224.045	149.22
224.262	147.4
224.479	137.27
224.696	126.75
224.913	128.95
225.13	118.07
225.347	108.65
225.564	102.16
225.781	100.08
225.997	94.26
226.214	89.12
226.431	83.82
226.648	75.43
226.865	69.42
227.082	62.03
227.298	51.03
227.515	47.2
227.732	40.86
227.949	37.22
228.165	33.05
228.382	30.82
228.599	28.37
228.816	26.31
229.032	25.41
229.249	24.46
229.466	24.39
229.682	24.71
229.899	24.36
230.116	24.92
230.332	24.86
230.549	25.87
230.765	26.77
230.982	28.34
231.199	29.27
231.415	30.98
231.632	34.17
231.848	36.98
232.065	37.96
232.281	39.96
232.498	42.5
232.714	44.89
232.931	44.57
233.147	44.81
233.364	44.65
233.58	44.81
233.797	43.47
234.013	42.43
234.23	40.77
234.446	42.19
234.662	43.3
234.879	42.34
235.095	41.84
235.312	43.39
235.528	43.61
235.744	43.91
235.961	44.37
236.177	44.43
236.393	44.19
236.61	45.46
236.826	43.47
237.042	43.64
237.258	44.95
237.475	46.64
237.691	47.84
237.907	47.17
238.123	45.19
238.339	43.73
238.556	46.28
238.772	43.47
238.988	40.81
239.204	41.72
239.42	38.9
239.636	35.19
239.853	31.6
240.069	30.13
240.285	28.13
240.501	26.83
240.717	26.31
240.933	22.61
241.149	21.47
241.365	20.11
241.581	18.33
241.797	17.59
242.013	16.54
242.229	15.93
242.445	14.78
242.661	15.16
242.877	15.29
243.093	15.07
243.309	15.55
243.525	15.92
243.741	17.09
243.957	18.65
244.173	18.86
244.388	20.32
244.604	20.74
244.82	21.05
245.036	19.1
245.252	18.27
245.468	16.57
245.683	15.82
245.899	14.54
246.115	12.62
246.331	10.74
246.547	9.75
246.762	9.43
246.978	9.28
247.194	8.85
247.409	8.98
247.625	8.85
247.841	9.04
248.057	9.09
248.272	9.68
248.488	9.94
248.703	10.46
248.919	11.42
249.135	12.5
249.35	13.5
249.566	14.64
249.782	15.62
249.997	16.56
250.213	16.83
250.428	17.34
250.644	17.03
250.859	18.3
251.075	18.81
251.29	18.97
251.506	17.71
251.721	17.05
251.937	16.9
252.152	16.13
252.368	15.27
252.583	16.32
252.798	16.29
253.014	16.55
253.229	16.73
253.445	17.12
253.66	17.87
253.875	19.27
254.091	20.75
254.306	21.57
254.521	23.97
254.737	25.14
254.952	26.11
255.167	27.26
255.383	27
255.598	26.31
255.813	25.73
256.028	24.3
256.244	24
256.459	21.92
256.674	20.77
256.889	18.3
257.104	18.05
257.32	17.03
257.535	15.36
257.75	15.2
257.965	14.53
258.18	13.5
258.395	12.39
258.61	10.56
258.826	10.4
259.041	9.94
259.256	9.59
259.471	9.16
259.686	8.37
259.901	8
260.116	7.27
260.331	7.06
260.546	6.85
260.761	7.1
260.976	7.35
261.191	7.17
261.406	7.44
261.621	7.99
261.836	8.19
262.05	8.86
262.265	9.93
262.48	11.57
262.695	11.92
262.91	12.98
263.125	13.07
263.34	14.33
263.555	15.99
263.769	15.95
263.984	16.3
264.199	17.14
264.414	17.14
264.629	16.88
264.843	15.76
265.058	16.48
265.273	15.79
265.488	15.81
265.702	14.98
265.917	13.98
266.132	13.64
266.346	13.67
266.561	13.15
266.776	13.32
266.99	13.85
267.205	14.09
267.42	13.55
267.634	14.13
267.849	13.75
268.063	13.84
268.278	13.95
268.492	14.52
268.707	14.26
268.922	14.19
269.136	13.96
269.351	13.71
269.565	13.94
269.78	13.5
269.994	12.96
270.209	12.96
270.423	12.53
270.637	12.1
270.852	11.46
271.066	11.07
271.281	11.01
271.495	10.63
271.709	10.16
271.924	9.98
272.138	10.14
272.353	9.98
272.567	10.21
272.781	10.43
272.996	10.42
273.21	10.81
273.424	11.23
273.638	11.44
273.853	11.91
274.067	11.96
274.281	12.09
274.495	12.03
274.71	12.76
274.924	12.79
275.138	12.95
275.352	13.03
275.566	13.18
275.781	12.89
275.995	12.46
276.209	12.49
276.423	12.49
276.637	12.49
276.851	12.17
277.065	11.33
277.279	11.04
277.493	10.99
277.707	11.04
277.921	10.83
278.135	11.08
278.349	11.33
278.563	10.95
278.777	11.12
278.991	11.04
279.205	11.79
279.419	12.29
279.633	12.7
279.847	12.21
280.061	12.14
280.275	11.94
280.489	11.66
280.703	11.65
280.917	11.61
281.131	11.32
281.344	11.32
281.558	11.45
281.772	11.16
281.986	11.12
282.2	11.43
282.414	11.67
282.627	11.28
282.841	11.14
283.055	11.27
283.269	11.09
283.482	11.07
283.696	10.68
283.91	10.38
284.123	10.12
284.337	9.39
284.551	8.97
284.764	8.59
284.978	8.73
285.192	8.74
285.405	8.23
285.619	8.37
285.833	8.02
286.046	8.14
286.26	8
286.473	8.17
286.687	8.59
286.9	8.83
287.114	8.52
287.327	8.58
287.541	8.54
287.754	8.98
287.968	8.88
288.181	9.16
288.395	8.93
288.608	8.94
288.822	8.47
289.035	8.31
289.248	8.28
289.462	8.52
289.675	8.32
289.889	8.22
290.102	7.71
290.315	7.8
290.529	7.85
290.742	8.04
290.955	8.25
291.169	8.24
291.382	8.61
291.595	8.59
291.808	8.45
292.022	9.4
292.235	9.67
292.448	9.81
292.661	9.63
292.875	9.63
293.088	9.76
293.301	9.77
293.514	10.03
293.727	9.67
293.94	9.57
294.153	9.99
294.367	8.92
294.58	8.54
294.793	8.33
295.006	8.4
295.219	8.21
295.432	8.16
295.645	7.83
295.858	7.93
296.071	7.73
296.284	7.4
296.497	6.99
296.71	7.06
296.923	6.97
297.136	7.09
297.349	7.02
297.562	6.86
297.775	6.45
297.988	6.54
298.201	6.6
298.414	6.77
298.626	7.06
298.839	7.31
299.052	7.46
299.265	7.87
299.478	8.11
299.691	8.47
299.903	9.15
300.116	9.43
300.329	9.85
300.542	9.44
300.755	9.58
300.967	9.83
301.18	9.76
301.393	9.77
301.605	9.84
301.818	10.1
302.031	10.14
302.243	10.01
302.456	10.41
302.669	9.72
302.881	10.26
303.094	10.58
303.307	10.43
303.519	10.56
303.732	10.72
303.944	10.52
304.157	10.68
304.37	10.46
304.582	10.46
304.795	10.38
305.007	10.46
305.22	10.51
305.432	10.31
305.645	10.17
305.857	10.32
306.069	10.28
306.282	10.37
306.494	9.6
306.707	9.91
306.919	10.08
307.132	9.82
307.344	9.83
307.556	9.49
307.769	9.9
307.981	9.67
308.193	9.22
308.406	9.05
308.618	8.97
308.83	8.93
309.043	8.92
309.255	8.62
309.467	8.64
309.679	8.85
309.892	8.88
310.104	8.34
310.316	8.45
310.528	8.63
310.74	8.57
310.953	8.64
311.165	8.96
311.377	8.54
311.589	8.65
311.801	8.86
312.013	8.69
312.225	8.85
312.437	9.05
312.649	9.09
312.862	8.96
313.074	8.98
313.286	8.84
313.498	8.57
313.71	8.82
313.922	8.65
314.134	9.05
314.346	9.55
314.558	9.57
314.77	9.37
314.982	9.92
315.193	10.29
315.405	10.28
315.617	10.59
315.829	10.95
316.041	11.18
316.253	11.41
316.465	11.15
316.677	10.88
316.888	11.23
317.1	11.17
317.312	11.43
317.524	11.37
317.736	12.11
317.947	12.54
318.159	12.84
318.371	12.56
318.583	12.65
318.794	12.68
319.006	12.55
319.218	12.22
319.43	12.4
319.641	12.11
319.853	12.8
320.064	12.85
320.276	13.13
320.488	13.03
320.699	13.71
320.911	13.81
321.123	13.8
321.334	14.03
321.546	14.25
321.757	14.84
321.969	14.94
322.18	14.39
322.392	14.29
322.603	14.25
322.815	14.6
323.026	13.8
323.238	13.62
323.449	13.26
323.661	13.39
323.872	13.36
324.083	13.04
324.295	12.96
324.506	13.53
324.718	13.04
324.929	12.63
325.14	12.17
325.352	12.86
325.563	13.2
325.774	13.74
325.986	13.61
326.197	13.47
326.408	14.1
326.62	14.13
326.831	13.81
327.042	14.39
327.253	15.01
327.464	15.46
327.676	15.48
327.887	15.29
328.098	15.44
328.309	16.32
328.52	16.97
328.732	16.74
328.943	17.23
329.154	17.66
329.365	17.7
329.576	17.94
329.787	18.07
329.998	18.35
330.209	18.99
330.42	19.19
330.631	19.11
330.842	19.41
331.053	19.82
331.264	20.15
331.475	20.42
331.686	20.44
331.897	20.33
332.108	20.3
332.319	20.45
332.53	20.57
332.741	20.66
332.952	20.75
333.163	20.21
333.374	19.75
333.585	19.25
333.795	19.25
334.006	19.65
334.217	19.47
334.428	19.53
334.639	19.61
334.849	19.37
335.06	19.52
335.271	19.49
335.482	20.05
335.692	20.34
335.903	20.74
336.114	20.78
336.325	20.58
336.535	20.99
336.746	21
336.957	20.85
337.167	21.26
337.378	20.99
337.589	21.01
337.799	20.66
338.01	20.77
338.22	20.93
338.431	20.64
338.642	20.72
338.852	20.22
339.063	20.61
339.273	20.41
339.484	20.02
339.694	20.49
339.905	20.46
340.115	20.78
340.326	20.9
340.536	20.87
340.746	20.73
340.957	21
341.167	21.01
341.378	20.47
341.588	20.45
341.799	20.62
342.009	20.02
342.219	19.66
342.43	19.46
342.64	19.12
342.85	18.77
343.061	19.01
343.271	18.55
343.481	18.75
343.691	19.14
343.902	19.2
344.112	19.16
344.322	19.18
344.532	19.34
344.743	19.42
344.953	19.33
345.163	19.3
345.373	19.2
345.583	19.3
345.793	19.16
346.004	18.98
346.214	19.13
346.424	18.88
346.634	18.93
346.844	19.11
347.054	19.07
347.264	19.47
347.474	19.61
347.684	19.67
347.894	19.71
348.104	19.81
348.314	20.2
348.524	20.49
348.734	20.36
348.944	20.56
349.154	19.99
349.364	19.67
349.574	19.15
349.784	19.29
349.994	19.35
350.204	19.33
350.413	19.24
350.623	18.68
350.833	18.64
351.043	18.91
351.253	18.75
351.463	19.3
351.672	19.66
351.882	19.69
352.092	19.71
352.302	19.59
352.511	19.55
352.721	19.36
352.931	19.5
353.141	19.24
353.35	19.05
353.56	19.07
353.77	18.94
353.979	18.52
354.189	18.7
354.399	18.11
354.608	18.17
354.818	17.94
355.027	18.1
355.237	17.96
355.447	17.67
355.656	17.58
355.866	17.54
356.075	17.22
356.285	17.44
356.494	17.35
356.704	17.62
356.913	17.55
357.123	17.69
357.332	17.35
357.542	17.52
357.751	17.35
357.96	17.5
358.17	17.47
358.379	17.63
358.589	17.48
358.798	17.27
359.007	17
359.217	16.9
359.426	16.7
359.635	16.81
359.845	16.67
360.054	16.6
360.263	16.55
360.472	16.22
360.682	16.09
360.891	15.93
361.1	15.87
361.309	15.82
361.519	15.61
361.728	15.59
361.937	15.74
362.146	15.85
362.355	15.95
362.564	16.15
362.774	16.25
362.983	16.27
363.192	16.37
363.401	16.65
363.61	16.71
363.819	17.11
364.028	17.27
364.237	17.29
364.446	17.27
364.655	17.32
364.864	17.3
365.073	17.72
365.282	17.9
365.491	18.15
365.7	17.85
365.909	17.99
366.118	17.91
366.327	17.94
366.536	17.88
366.745	17.82
366.954	18.02
367.162	17.68
367.371	17.34
367.58	17.3
367.789	17.08
367.998	17.14
368.207	17.46
368.415	17.61
368.624	17.36
368.833	17.12
369.042	17.08
369.25	17.24
369.459	17.87
369.668	17.97
369.877	17.69
370.085	17.95
370.294	17.91
370.503	17.38
370.711	17.33
370.92	17.55
371.129	17.94
371.337	17.87
371.546	17.61
371.754	17.34
371.963	17.22
372.171	17.28
372.38	17.23
372.589	17.21
372.797	17.46
373.006	17.48
373.214	17.33
373.423	16.93
373.631	16.81
373.84	16.71
374.048	16.72
374.256	16.68
374.465	16.68
374.673	16.55
374.882	16.62
375.09	16.42
375.298	16.49
375.507	16.46
375.715	16.66
375.923	16.57
376.132	16.74
376.34	16.31
376.548	16.31
376.757	16.36
376.965	16.39
377.173	16.33
377.381	16.42
377.59	15.9
377.798	16.13
378.006	15.97
378.214	16.31
378.423	16.24
378.631	16.39
378.839	16.5
379.047	16.58
379.255	16.6
379.463	16.83
379.671	16.95
379.879	17.08
380.088	16.72
380.296	16.59
380.504	16.5
380.712	16.65
380.92	16.67
381.128	16.84
381.336	16.58
381.544	16.31
381.752	16.1
381.96	16.1
382.168	16.14
382.376	16.56
382.584	16.89
382.791	16.91
382.999	16.61
383.207	16.37
383.415	15.96
383.623	15.99
383.831	16.06
384.039	16.07
384.247	16.02
384.454	16.32
384.662	16.4
384.87	16.26
385.078	16.05
385.285	16.13
385.493	16.34
385.701	16.43
385.909	16.52
386.116	16.54
386.324	16.62
386.532	16.5
386.739	16.37
386.947	16.28
387.155	16.46
387.362	16.52
387.57	16.6
387.778	16.73
387.985	16.78
388.193	17.03
388.4	17.17
388.608	17.38
388.816	17.47
389.023	17.36
389.231	17.35
389.438	17.02
389.646	17.18
389.853	17.08
390.061	17.03
390.268	17
390.475	16.76
390.683	16.64
390.89	16.33
391.098	16.35
391.305	16.27
391.512	16.05
391.72	16.16
391.927	16.01
392.135	15.77
392.342	15.51
392.549	15.47
392.756	15.27
392.964	15.25
393.171	15.37
393.378	15.12
393.586	15.14
393.793	15.26
394	15.32
394.207	15.47
394.414	15.66
394.622	15.76
394.829	15.85
395.036	16.06
395.243	16.2
395.45	16.14
395.657	16.17
395.864	16.38
396.072	16.24
396.279	16.17
396.486	15.99
396.693	15.97
396.9	16.12
397.107	16.01
397.314	16.21
397.521	16.02
397.728	16.02
397.935	16.13
398.142	15.96
398.349	15.97
398.556	16.11
398.763	16.18
398.97	16.29
399.177	16.31
399.383	16.4
399.59	16.19
399.797	16.32
400.004	16.39
400.211	16.62
400.418	16.68
400.625	16.73
400.831	16.74
401.038	16.84
401.245	16.74
401.452	16.83
401.658	16.91
401.865	17.06
402.072	17.01
402.279	16.98
402.485	17.12
402.692	17.09
402.899	17.09
403.105	17.1
403.312	17.16
403.519	17.12
403.725	17.05
403.932	16.96
404.138	16.98
404.345	16.92
404.552	16.99
404.758	16.86
404.965	16.94
405.171	16.9
405.378	16.79
405.584	16.77
405.791	16.98
405.997	16.95
406.204	17.09
406.41	17.03
406.617	17.26
406.823	17.32
407.029	17.34
407.236	17.48
407.442	17.75
407.649	18.04
407.855	17.95
408.061	18
408.268	17.96
408.474	18.1
408.68	18.12
408.887	18
409.093	18.01
409.299	17.89
409.505	17.63
409.712	17.55
409.918	17.32
410.124	17.45
410.33	17.52
410.537	17.72
410.743	17.62
410.949	17.74
411.155	17.94
411.361	17.95
411.567	18.07
411.773	18.26
411.98	18.03
412.186	18.09
412.392	17.94
412.598	17.74
412.804	17.62
413.01	17.6
413.216	17.44
413.422	17.38
413.628	17.49
413.834	17.45
414.04	17.28
414.246	17.38
414.452	17.26
414.658	17.36
414.864	17.48
415.07	17.67
415.275	17.61
415.481	17.66
415.687	17.59
415.893	17.22
416.099	17.1
416.305	17.1
416.511	16.93
416.716	16.85
416.922	16.63
417.128	16.43
417.334	16.09
417.539	15.91
417.745	15.74
417.951	15.47
418.157	15.46
418.362	15.34
418.568	15.19
418.774	15.16
418.979	15.11
419.185	15.02
419.391	14.78
419.596	14.74
419.802	14.65
420.008	14.66
420.213	14.66
420.419	14.65
420.624	14.56
420.83	14.67
421.035	14.66
421.241	14.55
421.446	14.5
421.652	14.5
421.857	14.56
422.063	14.49
422.268	14.4
422.474	14.29
422.679	14.23
422.885	14.32
423.09	14.14
423.295	14.03
423.501	14.06
423.706	14.07
423.911	14.08
424.117	13.92
424.322	14.01
424.527	14.03
424.733	14.12
424.938	14.1
425.143	14.06
425.349	14.18
425.554	14.24
425.759	14.33
425.964	14.54
426.169	14.73
426.375	14.87
426.58	15.06
426.785	15.18
426.99	15.31
427.195	15.52
427.4	15.76
427.605	15.98
427.811	16.25
428.016	16.18
428.221	16.01
428.426	16.1
428.631	16.18
428.836	16.13
429.041	16.2
429.246	16.27
429.451	16.41
429.656	16.3
429.861	16.15
430.066	16.11
430.271	16.2
430.476	16.36
430.681	16.32
430.886	16.35
431.09	16.34
431.295	16.29
431.5	16.29
431.705	16.21
431.91	16.13
432.115	16
432.32	15.98
432.524	16.05
432.729	16
432.934	16.04
433.139	16.04
433.343	16.1
433.548	16.24
433.753	16.36
433.958	16.41
434.162	16.61
434.367	16.83
434.572	16.95
434.776	17.05
434.981	17.25
435.186	17.4
435.39	17.6
435.595	17.67
435.799	17.69
436.004	17.68
436.209	17.67
436.413	17.57
436.618	17.53
436.822	17.37
437.027	17.33
437.231	17.14
437.436	17.01
437.64	16.72
437.845	16.64
438.049	16.45
438.253	16.38
438.458	16.25
438.662	16.17
438.867	16.09
439.071	16.02
439.275	15.87
439.48	15.78
439.684	15.68
439.888	15.64
440.093	15.48
440.297	15.38
440.501	15.25
440.706	15.23
440.91	15.21
441.114	15.18
441.318	15.22
441.523	15.28
441.727	15.4
441.931	15.42
442.135	15.58
442.339	15.76
442.543	15.92
442.748	16.09
442.952	16.11
443.156	16.26
443.36	16.36
443.564	16.36
443.768	16.26
443.972	16.16
444.176	16.07
444.38	15.92
444.584	15.7
444.788	15.54
444.992	15.38
445.196	15.33
445.4	15.08
445.604	14.95
445.808	14.86
446.012	14.83
446.216	14.76
446.42	14.76
446.624	14.77
446.828	14.85
447.032	14.9
447.235	14.9
447.439	14.99
447.643	15.09
447.847	15.1
448.051	15.18
448.254	15.25
448.458	15.37
448.662	15.51
448.866	15.57
449.069	15.73
449.273	15.96
449.477	16.18
449.681	16.26
449.884	16.39
450.088	16.6
450.292	16.74
450.495	16.87
450.699	16.96
450.902	17.09
451.106	17.1
451.31	17.02
451.513	16.88
451.717	16.77
451.92	16.63
452.124	16.71
452.327	16.69
452.531	16.62
452.734	16.65
452.938	16.58
453.141	16.47
453.345	16.48
453.548	16.62
453.752	16.8
453.955	16.94
454.158	17.07
454.362	17
454.565	17.03
