Data from 2938709__Reflection_01.txt Node
Date: Tue Mar 17 19:37:22 EDT 2015
User: robert
Spectrometer: USB4E03002
Autoset integration time: false
Trigger mode: 4
Integration Time (sec): 1.000000E-1
Scans to average: 10
Electric dark correction enabled: false
Nonlinearity correction enabled: false
Boxcar width: 5
Stray light correction enabled: false
XAxis mode: Wavelengths
Stop averaging: false
Number of Pixels in Spectrum: 3648
>>>>>Begin Spectral Data<<<<<
177.575	135.26
177.794	115.42
178.014	119.13
178.233	87.14
178.452	67.61
178.672	125.54
178.891	152.09
179.11	186.02
179.33	164.06
179.549	253.09
179.768	277.37
179.987	289.05
180.207	-2578.26
180.426	487.34
180.645	289.3
180.864	215.31
181.084	178.45
181.303	139.23
181.522	163.06
181.741	176.57
181.96	181.99
182.179	149.57
182.398	154.09
182.618	102.53
182.837	100.18
183.056	116.73
183.275	149.12
183.494	135.47
183.713	139.88
183.932	112.14
184.151	180.34
184.37	112.55
184.589	108.64
184.808	115.23
185.027	136.59
185.246	136.64
185.465	177.48
185.684	161.67
185.903	109.85
186.122	187.1
186.341	145.91
186.56	132.96
186.779	208.28
186.998	299.53
187.216	299.58
187.435	272.62
187.654	191.6
187.873	227.62
188.092	291.48
188.311	1072.37
188.53	444.89
188.748	354.5
188.967	176.8
189.186	165.47
189.405	159.28
189.623	128.08
189.842	133.66
190.061	173.58
190.28	116.13
190.498	145.61
190.717	128.57
190.936	123.5
191.154	693.94
191.373	-662.71
191.592	398.54
191.81	1042.5
192.029	1352.27
192.248	21966.67
192.466	-755.26
192.685	-162.81
192.904	-594.44
193.122	-580
193.341	-1639.29
193.559	8216.67
193.778	1433.33
193.996	-639.62
194.215	-372.84
194.433	-95.54
194.652	-310.94
194.87	660
195.089	422.43
195.307	529.11
195.526	1435.48
195.744	1588.46
195.963	519.35
196.181	617.11
196.399	572
196.618	2831.82
196.836	595.96
197.055	299.5
197.273	361.29
197.491	298.68
197.71	261.62
197.928	192.15
198.146	207.23
198.365	160.35
198.583	179.91
198.801	151.05
199.019	127.79
199.238	153.81
199.456	171.95
199.674	171.69
199.892	178.23
200.111	178.59
200.329	268.2
200.547	332.23
200.765	3684.21
200.983	1584.85
201.202	-327.68
201.42	-94.42
201.638	-40.36
201.856	-55.67
202.074	-10.5
202.292	-96.96
202.51	-101.15
202.728	-129.79
202.946	-233.55
203.165	1247.22
203.383	12140
203.601	-685
203.819	-634.48
204.037	2143.24
204.255	-1907.69
204.473	1612
204.691	1491.3
204.909	617.12
205.127	443.98
205.345	773.27
205.562	-1731.11
205.78	600
205.998	260.9
206.216	174.55
206.434	201.03
206.652	153.58
206.87	166.9
207.088	185.28
207.306	185.99
207.523	168.6
207.741	134.36
207.959	101.79
208.177	115.95
208.395	114.97
208.612	125.77
208.83	119.5
209.048	112.53
209.266	98.59
209.483	94.31
209.701	98.36
209.919	113.18
210.136	153.4
210.354	404.55
210.572	72.32
210.79	200
211.007	-35.51
211.225	34.68
211.442	57.03
211.66	32.74
211.878	18.58
212.095	26.96
212.313	52.56
212.53	43.53
212.748	70.04
212.966	73.84
213.183	72.95
213.401	66.03
213.618	62.59
213.836	67.21
214.053	97.57
214.271	76.8
214.488	61.42
214.705	42.97
214.923	51.5
215.14	41.05
215.358	51.77
215.575	56.48
215.793	73.13
216.01	93.66
216.227	100.22
216.445	101.16
216.662	99.72
216.879	134.5
217.097	102.81
217.314	139.39
217.531	83.73
217.749	72.73
217.966	53.7
218.183	35.13
218.4	8.6
218.618	8.27
218.835	-2.15
219.052	10.66
219.269	8.08
219.487	5.83
219.704	26.37
219.921	33.37
220.138	8.5
220.355	7.18
220.572	28.32
220.79	31.49
221.007	35.32
221.224	31.49
221.441	20.14
221.658	19.58
221.875	22.98
222.092	16.33
222.309	20.71
222.526	29.49
222.743	26.56
222.96	23.71
223.177	22.58
223.394	26.71
223.611	26.53
223.828	28.3
224.045	28.86
224.262	27.2
224.479	25.39
224.696	26.85
224.913	25.56
225.13	28.98
225.347	24.85
225.564	25.39
225.781	19.46
225.997	20.17
226.214	20.53
226.431	16.77
226.648	10.38
226.865	9.2
227.082	5.69
227.298	4.17
227.515	3.54
227.732	5.97
227.949	4.82
228.165	4.5
228.382	4.86
228.599	4.08
228.816	4.75
229.032	5.4
229.249	5.23
229.466	6.48
229.682	6.73
229.899	6.45
230.116	6.16
230.332	6.62
230.549	6.08
230.765	5.03
230.982	4.66
231.199	5.32
231.415	6.49
231.632	7.38
231.848	6
232.065	5.2
232.281	4.72
232.498	2.26
232.714	0.99
232.931	3.67
233.147	3.47
233.364	4.58
233.58	3.61
233.797	3.43
234.013	2.53
234.23	2.76
234.446	3.63
234.662	5.79
234.879	6.56
235.095	8.55
235.312	7.08
235.528	9.02
235.744	7.77
235.961	7.4
236.177	7.01
236.393	7.87
236.61	8.52
236.826	7.61
237.042	6.51
237.258	7.27
237.475	5.71
237.691	6.37
237.907	5.59
238.123	6.21
238.339	4.1
238.556	5.23
238.772	5.18
238.988	5.53
239.204	6.55
239.42	8.33
239.636	7.27
239.853	6.9
240.069	6.48
240.285	5.48
240.501	5.04
240.717	6.36
240.933	6.41
241.149	5.77
241.365	4.65
241.581	4.11
241.797	4.07
242.013	3.91
242.229	3.58
242.445	3.38
242.661	3.87
242.877	4.27
243.093	3.94
243.309	3.13
243.525	3.2
243.741	3.61
243.957	3.77
244.173	3.03
244.388	3.92
244.604	4.86
244.82	5.11
245.036	4.87
245.252	4.84
245.468	4.78
245.683	5.16
245.899	5.03
246.115	5.33
246.331	5
246.547	4.83
246.762	4.02
246.978	3.75
247.194	4.07
247.409	3.95
247.625	4.01
247.841	4
248.057	3.97
248.272	3.88
248.488	3.48
248.703	3.83
248.919	4.13
249.135	4.97
249.35	5.31
249.566	4.77
249.782	4.7
249.997	4.34
250.213	4.99
250.428	5.03
250.644	5.46
250.859	5.59
251.075	4.72
251.29	4.28
251.506	3.86
251.721	3.88
251.937	4.39
252.152	5.02
252.368	4.91
252.583	4.41
252.798	3.92
253.014	3.42
253.229	3.03
253.445	3.1
253.66	2.75
253.875	2.63
254.091	2.47
254.306	1.43
254.521	0.54
254.737	1.19
254.952	1.28
255.167	1.86
255.383	2.56
255.598	3.93
255.813	3.53
256.028	4.09
256.244	4.38
256.459	3.38
256.674	3.56
256.889	3.69
257.104	2.85
257.32	2.58
257.535	3.02
257.75	2.68
257.965	2.65
258.18	3.08
258.395	2.6
258.61	2.58
258.826	2.85
259.041	2.63
259.256	2.59
259.471	2.71
259.686	2.66
259.901	2.3
260.116	2.24
260.331	2.03
260.546	1.95
260.761	2.17
260.976	1.81
261.191	1.76
261.406	2.15
261.621	2.05
261.836	2.05
262.05	1.8
262.265	1.73
262.48	1.97
262.695	2.6
262.91	3.16
263.125	3.44
263.34	4.32
263.555	4.91
263.769	4.24
263.984	4.51
264.199	4.55
264.414	4.68
264.629	5.54
264.843	5.09
265.058	3.98
265.273	3.06
265.488	2.57
265.702	2.26
265.917	1.86
266.132	2.52
266.346	2.52
266.561	2.81
266.776	2.54
266.99	2.12
267.205	2.36
267.42	2.42
267.634	3.06
267.849	3.05
268.063	3.38
268.278	3.14
268.492	3.04
268.707	2.91
268.922	2.64
269.136	3.44
269.351	3.5
269.565	3.08
269.78	3.12
269.994	2.72
270.209	2.73
270.423	2.57
270.637	2.51
270.852	2.56
271.066	2.65
271.281	2.68
271.495	2.44
271.709	2.45
271.924	2.81
272.138	3.08
272.353	2.98
272.567	3.28
272.781	3.13
272.996	3.11
273.21	3.2
273.424	3.23
273.638	3.2
273.853	3.32
274.067	3.01
274.281	3.07
274.495	2.92
274.71	3
274.924	2.54
275.138	2.45
275.352	2.88
275.566	2.4
275.781	2.25
275.995	2.27
276.209	2.03
276.423	2.5
276.637	2.21
276.851	2.23
277.065	2.32
277.279	2.36
277.493	2.21
277.707	2.12
277.921	2.26
278.135	2.7
278.349	2.54
278.563	2.46
278.777	2.31
278.991	2.39
279.205	1.93
279.419	1.59
279.633	1.35
279.847	1.19
280.061	0.99
280.275	0.71
280.489	0.35
280.703	0.48
280.917	0.56
281.131	0.51
281.344	0.46
281.558	0.55
281.772	1.01
281.986	1.08
282.2	1.07
282.414	1.3
282.627	1.74
282.841	1.59
283.055	1.25
283.269	1.31
283.482	1.4
283.696	1.5
283.91	1.91
284.123	1.82
284.337	1.96
284.551	2.44
284.764	2.01
284.978	1.88
285.192	2.35
285.405	2.6
285.619	2.77
285.833	2.91
286.046	3.36
286.26	3.1
286.473	3.25
286.687	3.1
286.9	2.96
287.114	3.26
287.327	3.42
287.541	3.16
287.754	3.15
287.968	2.86
288.181	2.58
288.395	2.35
288.608	2.86
288.822	2.88
289.035	3.09
289.248	3.11
289.462	3.67
289.675	3.45
289.889	3.69
290.102	3.65
290.315	3.59
290.529	3.75
290.742	3.48
290.955	3.19
291.169	3.1
291.382	3.07
291.595	3
291.808	2.6
292.022	2.45
292.235	2.38
292.448	2.31
292.661	2.81
292.875	2.85
293.088	2.79
293.301	2.65
293.514	2.57
293.727	2.14
293.94	2.39
294.153	2.34
294.367	2.56
294.58	2.72
294.793	2.83
295.006	2.93
295.219	2.62
295.432	2.6
295.645	2.61
295.858	2.64
296.071	3.06
296.284	3.29
296.497	3.27
296.71	3.41
296.923	3.17
297.136	3.25
297.349	3.06
297.562	3.22
297.775	3.47
297.988	3.76
298.201	3.77
298.414	3.75
298.626	3.74
298.839	3.99
299.052	3.98
299.265	3.97
299.478	3.99
299.691	4.53
299.903	4.83
300.116	5.06
300.329	5.07
300.542	5.26
300.755	5.5
300.967	5.19
301.18	5.09
301.393	5.13
301.605	4.96
301.818	4.79
302.031	4.27
302.243	3.93
302.456	3.54
302.669	3.54
302.881	3.51
303.094	3.66
303.307	3.55
303.519	3.45
303.732	3.34
303.944	3.88
304.157	4.26
304.37	4.62
304.582	5.12
304.795	5.46
305.007	5.61
305.22	5.46
305.432	5.04
305.645	5.75
305.857	5.91
306.069	6.08
306.282	6.08
306.494	5.63
306.707	5.42
306.919	5.21
307.132	5.06
307.344	4.4
307.556	4.52
307.769	4.99
307.981	4.71
308.193	4.47
308.406	4.78
308.618	4.79
308.83	5.07
309.043	5.3
309.255	5.68
309.467	5.6
309.679	6.02
309.892	6.36
310.104	6.01
310.316	5.61
310.528	5.78
310.74	5.62
310.953	5.49
311.165	5.76
311.377	5.54
311.589	5.3
311.801	5.29
312.013	4.97
312.225	4.77
312.437	4.57
312.649	4.92
312.862	4.79
313.074	4.56
313.286	4.92
313.498	4.75
313.71	4.91
313.922	4.95
314.134	4.86
314.346	5.31
314.558	5.07
314.77	5.69
314.982	5.81
315.193	6.3
315.405	6.75
315.617	6.39
315.829	6.35
316.041	6.02
316.253	6.04
316.465	6.31
316.677	6.29
316.888	6.38
317.1	6.3
317.312	6.07
317.524	5.83
317.736	5.56
317.947	5.79
318.159	5.93
318.371	6.48
318.583	6.54
318.794	6.61
319.006	6.94
319.218	6.91
319.43	7.52
319.641	8.09
319.853	8.39
320.064	9.18
320.276	9.27
320.488	9.4
320.699	9.39
320.911	9.54
321.123	10.09
321.334	10.11
321.546	10.36
321.757	9.55
321.969	9.3
322.18	9.54
322.392	9.01
322.603	9
322.815	8.97
323.026	9.05
323.238	8.95
323.449	8.58
323.661	8.93
323.872	9.43
324.083	9.88
324.295	10.21
324.506	10.28
324.718	10.88
324.929	11.03
325.14	11.43
325.352	12.02
325.563	12.41
325.774	12.7
325.986	12.73
326.197	12.84
326.408	13.4
326.62	13.8
326.831	13.72
327.042	13.63
327.253	14.18
327.464	14.4
327.676	14.21
327.887	14.58
328.098	14.82
328.309	15.05
328.52	15.44
328.732	15.52
328.943	15.94
329.154	16.59
329.365	16.91
329.576	16.94
329.787	17.08
329.998	17.36
330.209	17.49
330.42	18.01
330.631	18.29
330.842	18.52
331.053	18.58
331.264	18.49
331.475	18.43
331.686	18.75
331.897	18.78
332.108	19.53
332.319	19.82
332.53	19.75
332.741	19.53
332.952	19.73
333.163	19.97
333.374	20.15
333.585	20.47
333.795	20.58
334.006	20.72
334.217	21.29
334.428	21.14
334.639	21.22
334.849	21.49
335.06	21.88
335.271	22.04
335.482	22.13
335.692	22.48
335.903	22.31
336.114	22.62
336.325	22.76
336.535	22.81
336.746	22.49
336.957	22.65
337.167	22.86
337.378	23.1
337.589	22.84
337.799	22.72
338.01	23.04
338.22	23.29
338.431	23.34
338.642	23.45
338.852	23.21
339.063	23.7
339.273	23.93
339.484	23.96
339.694	23.57
339.905	23.77
340.115	24.16
340.326	23.85
340.536	23.77
340.746	23.48
340.957	23.34
341.167	23.54
341.378	23.33
341.588	23.27
341.799	23.27
342.009	23.39
342.219	23.32
342.43	23.33
342.64	23.14
342.85	23.14
343.061	23.25
343.271	23
343.481	22.86
343.691	22.91
343.902	22.41
344.112	22.68
344.322	22.77
344.532	22.72
344.743	22.39
344.953	22.35
345.163	22.28
345.373	22.47
345.583	22.7
345.793	22.85
346.004	23.22
346.214	23.32
346.424	23.01
346.634	23.21
346.844	23.24
347.054	23.49
347.264	23.68
347.474	23.61
347.684	23.52
347.894	23.41
348.104	23.3
348.314	22.66
348.524	22.99
348.734	23.17
348.944	22.79
349.154	22.75
349.364	22.58
349.574	22.33
349.784	22.69
349.994	22.6
350.204	22.37
350.413	22.36
350.623	22.38
350.833	22.46
351.043	22.35
351.253	22.39
351.463	22.51
351.672	22.32
351.882	22.53
352.092	22.41
352.302	22.35
352.511	22.53
352.721	22.38
352.931	22.56
353.141	22.44
353.35	22.36
353.56	22.4
353.77	22.28
353.979	22.36
354.189	22.51
354.399	22.01
354.608	22.07
354.818	22.41
355.027	22.25
355.237	22.19
355.447	22.24
355.656	22.14
355.866	22.12
356.075	22.28
356.285	22.19
356.494	22.14
356.704	22.5
356.913	22.57
357.123	22.3
357.332	22.2
357.542	22.26
357.751	22.07
357.96	22.35
358.17	22.3
358.379	22.14
358.589	22.3
358.798	22.09
359.007	22.13
359.217	21.97
359.426	21.89
359.635	22.2
359.845	22.16
360.054	22.18
360.263	21.93
360.472	21.83
360.682	21.93
360.891	21.94
361.1	21.86
361.309	21.81
361.519	21.82
361.728	21.67
361.937	21.69
362.146	21.62
362.355	21.49
362.564	21.41
362.774	21.56
362.983	21.47
363.192	21.28
363.401	21.47
363.61	21.13
363.819	21.23
364.028	21.17
364.237	21.03
364.446	20.9
364.655	20.9
364.864	20.85
365.073	20.58
365.282	20.68
365.491	20.59
365.7	20.3
365.909	20.59
366.118	20.49
366.327	20.48
366.536	20.65
366.745	20.71
366.954	20.83
367.162	20.93
367.371	21.13
367.58	20.96
367.789	21.06
367.998	21.06
368.207	20.93
368.415	21.02
368.624	21.27
368.833	20.9
369.042	20.92
369.25	20.98
369.459	20.88
369.668	20.93
369.877	20.9
370.085	20.77
370.294	20.95
370.503	20.88
370.711	20.56
370.92	20.64
371.129	20.72
371.337	20.47
371.546	20.29
371.754	20.34
371.963	20.12
372.171	20.09
372.38	20.27
372.589	20.19
372.797	20.07
373.006	19.9
373.214	19.81
373.423	19.86
373.631	20.06
373.84	19.88
374.048	19.88
374.256	19.95
374.465	20.06
374.673	19.92
374.882	19.89
375.09	19.97
375.298	19.94
375.507	19.63
375.715	19.38
375.923	19.34
376.132	19.41
376.34	19.2
376.548	19.16
376.757	19.07
376.965	19
377.173	18.86
377.381	18.84
377.59	19.26
377.798	19.33
378.006	19.36
378.214	19.42
378.423	19.43
378.631	19.55
378.839	19.43
379.047	19.46
379.255	19.53
379.463	19.55
379.671	19.62
379.879	19.31
380.088	19.26
380.296	19.45
380.504	19.2
380.712	18.92
380.92	18.8
381.128	18.66
381.336	18.58
381.544	18.59
381.752	18.41
381.96	18.37
382.168	18.5
382.376	18.59
382.584	18.39
382.791	18.76
382.999	18.88
383.207	18.88
383.415	19.08
383.623	18.96
383.831	18.65
384.039	18.87
384.247	18.76
384.454	18.49
384.662	18.45
384.87	18.49
385.078	18.18
385.285	18.09
385.493	17.91
385.701	17.94
385.909	18
386.116	18.09
386.324	18.06
386.532	17.99
386.739	18.25
386.947	18.24
387.155	18.2
387.362	18.21
387.57	18.27
387.778	18.42
387.985	18.26
388.193	18.15
388.4	18.18
388.608	18.29
388.816	18.19
389.023	18.18
389.231	17.86
389.438	17.9
389.646	17.8
389.853	17.99
390.061	18.01
390.268	17.86
390.475	17.98
390.683	18.05
390.89	17.81
391.098	17.86
391.305	17.66
391.512	17.78
391.72	17.65
391.927	17.72
392.135	17.38
392.342	17.18
392.549	17.31
392.756	17.16
392.964	17.09
393.171	17.1
393.378	17.1
393.586	17.01
393.793	16.96
394	17.03
394.207	17.13
394.414	17.27
394.622	17.25
394.829	17.26
395.036	17.1
395.243	16.92
395.45	16.76
395.657	16.86
395.864	17
396.072	17.12
396.279	17.06
396.486	16.91
396.693	16.66
396.9	16.7
397.107	16.44
397.314	16.55
397.521	16.66
397.728	16.73
397.935	16.53
398.142	16.35
398.349	16.29
398.556	16.2
398.763	16.21
398.97	16.54
399.177	16.57
399.383	16.58
399.59	16.6
399.797	16.51
400.004	16.62
400.211	16.73
400.418	16.74
400.625	16.65
400.831	16.63
401.038	16.47
401.245	16.34
401.452	16.35
401.658	16.39
401.865	16.25
402.072	16.3
402.279	16.25
402.485	16.13
402.692	16.15
402.899	16.25
403.105	16.38
403.312	16.34
403.519	16.4
403.725	16.29
403.932	16.35
404.138	16.41
404.345	16.38
404.552	16.23
404.758	16.33
404.965	16.44
405.171	16.29
405.378	16.28
405.584	16.29
405.791	16.16
405.997	16.37
406.204	16.36
406.41	16.41
406.617	16.39
406.823	16.6
407.029	16.48
407.236	16.4
407.442	16.54
407.649	16.42
407.855	16.51
408.061	16.56
408.268	16.24
408.474	16.2
408.68	16.12
408.887	16.3
409.093	16.22
409.299	16.34
409.505	16.33
409.712	16.2
409.918	16.21
410.124	16.32
410.33	16.29
410.537	16.4
410.743	16.52
410.949	16.59
411.155	16.43
411.361	16.3
411.567	16.19
411.773	16.07
411.98	16.23
412.186	16.23
412.392	16.13
412.598	15.99
412.804	15.97
413.01	16.03
413.216	16.02
413.422	15.89
413.628	16.05
413.834	16.14
414.04	16.33
414.246	16.29
414.452	16.28
414.658	16.3
414.864	16.41
415.07	16.52
415.275	16.4
415.481	16.45
415.687	16.55
415.893	16.54
416.099	16.49
416.305	16.46
416.511	16.49
416.716	16.58
416.922	16.59
417.128	16.71
417.334	16.61
417.539	16.59
417.745	16.56
417.951	16.55
418.157	16.5
418.362	16.55
418.568	16.55
418.774	16.52
418.979	16.48
419.185	16.47
419.391	16.35
419.596	16.38
419.802	16.37
420.008	16.29
420.213	16.35
420.419	16.32
420.624	16.26
420.83	16.18
421.035	16.13
421.241	16.14
421.446	16.21
421.652	16.23
421.857	16.21
422.063	16.31
422.268	16.35
422.474	16.31
422.679	16.35
422.885	16.35
423.09	16.38
423.295	16.43
423.501	16.36
423.706	16.32
423.911	16.31
424.117	16.28
424.322	16.17
424.527	16.21
424.733	16.15
424.938	16.11
425.143	16.17
425.349	16.2
425.554	16.2
425.759	16.22
425.964	16.2
426.169	16.23
426.375	16.23
426.58	16.24
426.785	16.24
426.99	16.29
427.195	16.31
427.4	16.26
427.605	16.25
427.811	16.35
428.016	16.33
428.221	16.3
428.426	16.35
428.631	16.48
428.836	16.54
429.041	16.45
429.246	16.48
429.451	16.55
429.656	16.5
429.861	16.56
430.066	16.52
430.271	16.6
430.476	16.61
430.681	16.55
430.886	16.46
431.09	16.45
431.295	16.47
431.5	16.45
431.705	16.4
431.91	16.45
432.115	16.47
432.32	16.45
432.524	16.45
432.729	16.56
432.934	16.59
433.139	16.66
433.343	16.63
433.548	16.62
433.753	16.64
433.958	16.59
434.162	16.63
434.367	16.61
434.572	16.63
434.776	16.75
434.981	16.74
435.186	16.74
435.39	16.69
435.595	16.74
435.799	16.78
436.004	16.81
436.209	16.79
436.413	16.79
436.618	16.9
436.822	16.82
437.027	16.66
437.231	16.56
437.436	16.59
437.64	16.75
437.845	16.81
438.049	16.9
438.253	16.94
438.458	17.13
438.662	17.12
438.867	17.05
439.071	17.12
439.275	17.14
439.48	17.21
439.684	17.21
439.888	17.11
440.093	17.06
440.297	17.03
440.501	16.95
440.706	16.96
440.91	16.99
441.114	17.07
441.318	17.09
441.523	17.14
441.727	17.13
441.931	17.1
442.135	17.08
442.339	17.12
442.543	17.08
442.748	17.14
442.952	17
443.156	17
443.36	16.82
443.564	16.77
443.768	16.85
443.972	16.82
444.176	16.84
444.38	16.88
444.584	16.89
444.788	16.91
444.992	16.94
445.196	16.98
445.4	16.96
445.604	17.03
445.808	17.08
446.012	16.97
446.216	17.07
446.42	17.1
446.624	17.08
446.828	17.03
447.032	17.02
447.235	16.99
447.439	17.07
447.643	17.03
447.847	16.96
448.051	16.92
448.254	16.91
448.458	16.83
448.662	16.78
448.866	16.8
449.069	16.77
449.273	16.79
449.477	16.83
449.681	16.73
449.884	16.85
450.088	16.94
450.292	16.86
450.495	16.89
450.699	16.85
450.902	16.85
451.106	16.87
451.31	16.95
451.513	16.89
451.717	16.82
451.92	16.88
452.124	16.76
452.327	16.67
452.531	16.74
452.734	16.74
452.938	16.66
453.141	16.71
453.345	16.58
453.548	16.6
453.752	16.64
453.955	16.66
454.158	16.59
454.362	16.57
454.565	16.62
454.769	16.61
454.972	16.6
455.175	16.69
455.379	16.6
455.582	16.83
455.785	16.82
455.988	16.85
456.192	16.84
456.395	16.86
456.598	16.99
456.801	16.93
457.005	16.92
457.208	17.05
457.411	17.11
457.614	17.24
457.817	17.15
458.021	17.07
458.224	17.1
458.427	17.08
458.63	17.05
458.833	16.95
459.036	16.96
459.239	17.09
459.442	17
459.645	16.95
459.848	16.9
460.051	16.88
460.254	16.92
460.457	16.89
460.66	16.91
460.863	16.93
461.066	17.05
