Data from 2938792__Reflection_03.txt Node
Date: Fri Mar 13 11:05:27 EDT 2015
User: robert
Spectrometer: USB4E03002
Autoset integration time: false
Trigger mode: 4
Integration Time (sec): 1.000000E-1
Scans to average: 10
Electric dark correction enabled: false
Nonlinearity correction enabled: false
Boxcar width: 5
Stray light correction enabled: false
XAxis mode: Wavelengths
Stop averaging: false
Number of Pixels in Spectrum: 3648
>>>>>Begin Spectral Data<<<<<
177.575	-400
177.794	-4514.29
178.014	-784.35
178.233	-549.45
178.452	-355.84
178.672	-271.9
178.891	-307.64
179.11	-325.1
179.33	-321.35
179.549	-387.34
179.768	-425.81
179.987	-713.6
180.207	-436.32
180.426	-665.07
180.645	-1221.15
180.864	-4875.61
181.084	1449.25
181.303	2168.54
181.522	1026.55
181.741	2187.84
181.96	935.8
182.179	431.14
182.398	348.09
182.618	301.72
182.837	323.88
183.056	249.65
183.275	241.97
183.494	276.59
183.713	256.46
183.932	290.17
184.151	286.96
184.37	306.09
184.589	373.95
184.808	470.88
185.027	462.5
185.246	473.52
185.465	1632.48
185.684	860.59
185.903	1058.13
186.122	1243.02
186.341	3925.49
186.56	1769.83
186.779	2584.34
186.998	1232.18
187.216	-2832.81
187.435	-697.68
187.654	-775.7
187.873	-1075
188.092	-2556.52
188.311	12623.08
188.53	-1900
188.748	4950
188.967	-712.31
189.186	-775
189.405	-400.6
189.623	-1592.16
189.842	3765.96
190.061	1336.92
190.28	2103.26
190.498	-1207.06
190.717	-926.61
190.936	-705.93
191.154	-459.42
191.373	-1446.98
191.592	-1245.93
191.81	-996.19
192.029	-790
192.248	-699.2
192.466	-2598.59
192.685	-11314.29
192.904	-535.66
193.122	-2720
193.341	664.4
193.559	384.44
193.778	400.52
193.996	310.27
194.215	356.84
194.433	366.74
194.652	363.84
194.87	682.01
195.089	556.76
195.307	301.2
195.526	303.9
195.744	338.68
195.963	289.94
196.181	273.23
196.399	287.79
196.618	243.18
196.836	267.51
197.055	299.68
197.273	304.03
197.491	336.53
197.71	299.41
197.928	446.18
198.146	490.03
198.365	4212.5
198.583	-2571.7
198.801	-1130.3
199.019	-1151.56
199.238	-2966
199.456	1037.58
199.674	586.21
199.892	472.8
200.111	741.63
200.329	733.33
200.547	618.02
200.765	439.6
200.983	383.33
201.202	400
201.42	520.23
201.638	545.73
201.856	843.88
202.074	1004.46
202.292	-2477.42
202.51	9487.5
202.728	5082.76
202.946	-1914.29
203.165	-1847.5
203.383	2900
203.601	1052.59
203.819	2085.45
204.037	456.47
204.255	506.8
204.473	596.31
204.691	360.25
204.909	352.2
205.127	356.76
205.345	387.56
205.562	498.39
205.78	640.89
205.998	691.06
206.216	429.21
206.434	606.84
206.652	410.65
206.87	433.73
207.088	406.6
207.306	550.66
207.523	472.41
207.741	355.6
207.959	324.69
208.177	449.35
208.395	504
208.612	736.54
208.83	557.84
209.048	590.85
209.266	714.92
209.483	602.11
209.701	648.24
209.919	919.39
210.136	768.16
210.354	649.44
210.572	449.21
210.79	322.03
211.007	314.09
211.225	337.98
211.442	348.86
211.66	269.58
211.878	293.32
212.095	-706.15
212.313	-1896.81
212.53	-1192
212.748	-852.2
212.966	-1518.8
213.183	-1044.58
213.401	-1710.71
213.618	3725.45
213.836	-11976.47
214.053	-6767.74
214.271	8134.62
214.488	212.78
214.705	223.12
214.923	187.53
215.14	190.13
215.358	210.83
215.575	204.22
215.793	184.74
216.01	257.38
216.227	234.04
216.445	241.29
216.662	246.65
216.879	298.6
217.097	263.04
217.314	233.33
217.531	156.39
217.749	127.18
217.966	123.8
218.183	106.56
218.4	98.77
218.618	98.87
218.835	89.5
219.052	96.47
219.269	89.5
219.487	88.45
219.704	95.86
219.921	96.94
220.138	103.68
220.355	107.12
220.572	106.08
220.79	100.7
221.007	99.07
221.224	96.68
221.441	92.87
221.658	93.1
221.875	82.85
222.092	79.92
222.309	70
222.526	70.19
222.743	71.26
222.96	69.4
223.177	74.85
223.394	71.42
223.611	68.33
223.828	66.9
224.045	62.17
224.262	67.5
224.479	64.86
224.696	71.29
224.913	63.57
225.13	60.16
225.347	58.11
225.564	56.34
225.781	54.6
225.997	51.1
226.214	44.36
226.431	40.52
226.648	35.72
226.865	30.73
227.082	26.81
227.298	25.17
227.515	20.98
227.732	18.29
227.949	16.25
228.165	14.1
228.382	12.99
228.599	14.29
228.816	14.14
229.032	13.31
229.249	13.6
229.466	12.68
229.682	13.2
229.899	13.44
230.116	13.41
230.332	13.63
230.549	14.44
230.765	16.1
230.982	15.58
231.199	16.9
231.415	18.4
231.632	19.91
231.848	22.05
232.065	21.9
232.281	22.83
232.498	23.1
232.714	22.79
232.931	22.33
233.147	22.95
233.364	23.09
233.58	21.99
233.797	22.15
234.013	21.84
234.23	21.94
234.446	22.85
234.662	21.75
234.879	22.48
235.095	21.63
235.312	21.47
235.528	22.45
235.744	23.11
235.961	23.32
236.177	23.3
236.393	22.02
236.61	21.34
236.826	19.99
237.042	21.17
237.258	20.61
237.475	21.26
237.691	22.11
237.907	19.49
238.123	16.96
238.339	16.54
238.556	16.49
238.772	16.75
238.988	17.07
239.204	17.27
239.42	15.57
239.636	15.62
239.853	14.96
240.069	14.06
240.285	14.4
240.501	14.25
240.717	13.96
240.933	12.78
241.149	11.88
241.365	10.7
241.581	10.73
241.797	10.95
242.013	10.51
242.229	10.54
242.445	10.27
242.661	9.76
242.877	10.1
243.093	10.07
243.309	10.18
243.525	10.55
243.741	10.81
243.957	10.29
244.173	11.02
244.388	11.1
244.604	10.55
244.82	10.99
245.036	10.64
245.252	9.74
245.468	9.5
245.683	9.44
245.899	9
246.115	8.84
246.331	8.57
246.547	8.03
246.762	7.57
246.978	7.52
247.194	7.34
247.409	7.31
247.625	7.48
247.841	7.32
248.057	7.39
248.272	7.24
248.488	7.35
248.703	7.21
248.919	7.13
249.135	7.41
249.35	7.88
249.566	8.43
249.782	8.49
249.997	8.6
250.213	8.57
250.428	8.79
250.644	10
250.859	9.77
251.075	10.08
251.29	10.84
251.506	10.35
251.721	9.68
251.937	9.33
252.152	9.69
252.368	10.12
252.583	10.39
252.798	9.9
253.014	9.37
253.229	9.43
253.445	9.62
253.66	9.26
253.875	10.24
254.091	11.71
254.306	11.18
254.521	12.15
254.737	12.63
254.952	11.98
255.167	11.94
255.383	12.16
255.598	12.62
255.813	13.23
256.028	12.11
256.244	11.26
256.459	11.38
256.674	11.86
256.889	9.87
257.104	9.59
257.32	9.94
257.535	9.1
257.75	8.53
257.965	8.4
258.18	8.03
258.395	8
258.61	7.78
258.826	6.72
259.041	6.67
259.256	6.47
259.471	5.91
259.686	5.68
259.901	5.9
260.116	5.94
260.331	5.79
260.546	5.75
260.761	5.94
260.976	6.19
261.191	6.04
261.406	5.64
261.621	6.06
261.836	5.97
262.05	6.41
262.265	6.41
262.48	6.53
262.695	6.74
262.91	6.6
263.125	6.55
263.34	6.16
263.555	7.12
263.769	8.02
263.984	8.05
264.199	8.86
264.414	8.27
264.629	7.93
264.843	8.47
265.058	8.29
265.273	8.64
265.488	8.3
265.702	7.65
265.917	7.83
266.132	7.34
266.346	7.37
266.561	7.15
266.776	7.56
266.99	8.13
267.205	7.78
267.42	7.86
267.634	7.04
267.849	7.29
268.063	8.02
268.278	7.54
268.492	7.93
268.707	7.54
268.922	7.5
269.136	7.19
269.351	6.82
269.565	6.81
269.78	6.11
269.994	6.06
270.209	5.84
270.423	5.08
270.637	4.75
270.852	4.08
271.066	4
271.281	4.05
271.495	4.32
271.709	4.35
271.924	4.31
272.138	4.77
272.353	5.14
272.567	5.38
272.781	5.87
272.996	6
273.21	6.25
273.424	6.39
273.638	6.36
273.853	5.86
274.067	5.93
274.281	5.73
274.495	5.67
274.71	6.22
274.924	6.02
275.138	5.94
275.352	6.13
275.566	6.53
275.781	6.67
275.995	7.16
276.209	7.58
276.423	7.84
276.637	8.02
276.851	8.62
277.065	8.16
277.279	8.08
277.493	7.76
277.707	7.85
277.921	7.53
278.135	7.33
278.349	6.85
278.563	7.18
278.777	7.05
278.991	7.04
279.205	6.53
279.419	6.54
279.633	6.25
279.847	6.84
280.061	7.15
280.275	6.41
280.489	6.55
280.703	6.89
280.917	6.48
281.131	6.82
281.344	6.53
281.558	6.33
281.772	6.52
281.986	7.03
282.2	6.86
282.414	6.98
282.627	7.35
282.841	7.61
283.055	7.73
283.269	7.81
283.482	7.11
283.696	6.91
283.91	6.97
284.123	6.6
284.337	6.08
284.551	5.92
284.764	5.27
284.978	5.2
285.192	4.99
285.405	4.75
285.619	4.53
285.833	5.08
286.046	5.4
286.26	5.48
286.473	5.75
286.687	5.8
286.9	5.91
287.114	6.24
287.327	6.36
287.541	6.45
287.754	6.39
287.968	6.84
288.181	6.56
288.395	6.43
288.608	6.39
288.822	6.12
289.035	6.26
289.248	5.98
289.462	5.76
289.675	5.76
289.889	5.68
290.102	5.58
290.315	5.39
290.529	5.47
290.742	5.6
290.955	5.52
291.169	5.62
291.382	5.95
291.595	6.31
291.808	6.52
292.022	6.9
292.235	7.27
292.448	7.69
292.661	7.63
292.875	7.55
293.088	7.37
293.301	7.38
293.514	7.46
293.727	6.95
293.94	6.94
294.153	6.75
294.367	6.42
294.58	5.99
294.793	5.87
295.006	5.94
295.219	5.83
295.432	6.03
295.645	6.12
295.858	5.97
296.071	6.1
296.284	6.15
296.497	6.47
296.71	6.53
296.923	6.91
297.136	7.03
297.349	7.03
297.562	7.13
297.775	7.14
297.988	7.27
298.201	7.46
298.414	7.43
298.626	7.43
298.839	7.21
299.052	7.38
299.265	7.61
299.478	7.55
299.691	7.94
299.903	8.29
300.116	8.55
300.329	8.69
300.542	8.87
300.755	9.25
300.967	9.55
301.18	9.97
301.393	10.07
301.605	9.75
301.818	9.71
302.031	9.62
302.243	9.43
302.456	9.23
302.669	9.46
302.881	9.3
303.094	9.63
303.307	9.39
303.519	9.2
303.732	9.24
303.944	9.22
304.157	9.45
304.37	9.21
304.582	9.4
304.795	9.85
305.007	9.6
305.22	9.98
305.432	9.53
305.645	9.76
305.857	10.19
306.069	10.32
306.282	10.42
306.494	10.4
306.707	10.93
306.919	11.29
307.132	11.17
307.344	11.52
307.556	11.5
307.769	11.54
307.981	11.4
308.193	11.2
308.406	11.08
308.618	11.1
308.83	11.22
309.043	11.04
309.255	10.55
309.467	10.75
309.679	10.27
309.892	10.2
310.104	10.26
310.316	10.18
310.528	9.76
310.74	9.8
310.953	9.7
311.165	9.75
311.377	9.74
311.589	10.09
311.801	9.85
312.013	10.08
312.225	9.96
312.437	10.04
312.649	10.24
312.862	10.55
313.074	10.33
313.286	10.63
313.498	10.67
313.71	10.61
313.922	10.31
314.134	10.52
314.346	10.5
314.558	10.45
314.77	10.45
314.982	10.72
315.193	11.02
315.405	11.4
315.617	11.42
315.829	11.33
316.041	11.89
316.253	12.12
316.465	12.27
316.677	12.17
316.888	12.47
317.1	12.76
317.312	12.56
317.524	12.74
317.736	12.74
317.947	13.38
318.159	13.38
318.371	13.15
318.583	13.25
318.794	13.52
319.006	13.73
319.218	13.91
319.43	13.86
319.641	13.66
319.853	13.49
320.064	13.69
320.276	12.71
320.488	13.14
320.699	13.03
320.911	12.84
321.123	12.63
321.334	12.31
321.546	12.11
321.757	12.31
321.969	12.49
322.18	12.58
322.392	12.42
322.603	12.62
322.815	12.15
323.026	12.37
323.238	12.39
323.449	12.06
323.661	12.42
323.872	12.28
324.083	11.92
324.295	12.06
324.506	11.84
324.718	11.76
324.929	12.09
325.14	12.33
325.352	12.17
325.563	12.55
325.774	12.57
325.986	12.43
326.197	12.92
326.408	13.06
326.62	13.11
326.831	13.49
327.042	13.87
327.253	13.74
327.464	13.81
327.676	13.68
327.887	13.49
328.098	13.75
328.309	13.9
328.52	13.58
328.732	13.74
328.943	14.02
329.154	14.3
329.365	14.14
329.576	14.28
329.787	14.31
329.998	15.03
330.209	14.81
330.42	14.87
330.631	15.18
330.842	15.3
331.053	15.61
331.264	15.2
331.475	15.22
331.686	15.74
331.897	15.86
332.108	15.95
332.319	15.71
332.53	16.26
332.741	16.27
332.952	16.12
333.163	16.13
333.374	16.02
333.585	16.15
333.795	15.9
334.006	15.25
334.217	14.99
334.428	14.7
334.639	14.86
334.849	14.27
335.06	14.2
335.271	14.09
335.482	14.34
335.692	14.1
335.903	13.99
336.114	13.75
336.325	13.98
336.535	14.13
336.746	14.09
336.957	13.78
337.167	14.14
337.378	14.32
337.589	14.37
337.799	13.91
338.01	13.87
338.22	13.78
338.431	13.77
338.642	13.87
338.852	13.44
339.063	13.41
339.273	13.62
339.484	13.51
339.694	13.19
339.905	13.4
340.115	13.79
340.326	13.94
340.536	14
340.746	14.03
340.957	13.89
341.167	14.28
341.378	14.47
341.588	14.13
341.799	14.13
342.009	14.06
342.219	13.88
342.43	13.5
342.64	13.42
342.85	13.46
343.061	13.17
343.271	13.06
343.481	12.88
343.691	12.87
343.902	13.27
344.112	13.25
344.322	13.04
344.532	13.12
344.743	13.2
344.953	12.89
345.163	12.69
345.373	12.74
345.583	12.85
345.793	12.99
346.004	12.94
346.214	12.83
346.424	13.04
346.634	13.47
346.844	13.47
347.054	13.65
347.264	13.94
347.474	14.01
347.684	14.03
347.894	13.93
348.104	13.96
348.314	13.8
348.524	13.73
348.734	13.7
348.944	13.71
349.154	13.55
349.364	13.33
349.574	13.36
349.784	13.42
349.994	13.95
350.204	14.03
350.413	13.76
350.623	14.04
350.833	13.93
351.043	13.6
351.253	13.47
351.463	13.34
351.672	13.4
351.882	13.56
352.092	13.3
352.302	12.88
352.511	12.88
352.721	12.99
352.931	12.75
353.141	12.38
353.35	12.35
353.56	12.16
353.77	12.33
353.979	12.32
354.189	12.29
354.399	12.51
354.608	12.44
354.818	11.92
355.027	11.85
355.237	11.85
355.447	12.38
355.656	12.21
355.866	12.36
356.075	12.43
356.285	12.55
356.494	12.24
356.704	12.26
356.913	12.22
357.123	12.54
357.332	12.45
357.542	12.39
357.751	12
357.96	12.33
358.17	12.15
358.379	11.87
358.589	11.88
358.798	11.96
359.007	12.09
359.217	12.25
359.426	11.96
359.635	11.96
359.845	12.06
360.054	11.89
360.263	11.66
360.472	11.72
360.682	11.5
360.891	11.54
361.1	11.4
361.309	11.05
361.519	10.9
361.728	11.1
361.937	10.98
362.146	10.86
362.355	11.06
362.564	11.19
362.774	11.13
362.983	11.28
363.192	11.25
363.401	11.23
363.61	11.38
363.819	11.5
364.028	11.53
364.237	11.79
364.446	11.71
364.655	11.74
364.864	11.51
365.073	11.46
365.282	11.45
365.491	11.26
365.7	11.22
365.909	10.98
366.118	10.94
366.327	10.89
366.536	10.7
366.745	10.83
366.954	10.69
367.162	10.79
367.371	10.76
367.58	10.78
367.789	10.66
367.998	10.69
368.207	10.99
368.415	11.07
368.624	11.17
368.833	11.4
369.042	11.39
369.25	11.43
369.459	11.57
369.668	11.56
369.877	11.46
370.085	11.38
370.294	11.51
370.503	11.47
370.711	11.13
370.92	10.98
371.129	10.81
371.337	10.72
371.546	10.67
371.754	10.62
371.963	10.42
372.171	10.48
372.38	10.79
372.589	10.63
372.797	10.47
373.006	10.56
373.214	10.46
373.423	10.12
373.631	9.98
373.84	9.91
374.048	9.72
374.256	9.8
374.465	9.85
374.673	9.39
374.882	9.5
375.09	9.65
375.298	9.67
375.507	9.63
375.715	9.7
375.923	9.64
376.132	9.6
376.34	9.54
376.548	9.57
376.757	9.57
376.965	9.76
377.173	9.53
377.381	9.41
377.59	9.56
377.798	9.5
378.006	9.43
378.214	9.33
378.423	9.39
378.631	9.3
378.839	9.18
379.047	8.99
379.255	8.83
379.463	8.99
379.671	8.83
379.879	8.62
380.088	8.49
380.296	8.62
380.504	8.51
380.712	8.33
380.92	8.52
381.128	8.47
381.336	8.14
381.544	7.82
381.752	7.64
381.96	7.78
382.168	7.58
382.376	7.64
382.584	7.59
382.791	7.69
382.999	7.44
383.207	7.15
383.415	7.16
383.623	7.39
383.831	7.43
384.039	7.41
384.247	7.3
384.454	7.39
384.662	7.4
384.87	7.3
385.078	7.27
385.285	7.29
385.493	7.31
385.701	7.17
385.909	7.07
386.116	7.31
386.324	7.15
386.532	7.19
386.739	7.07
386.947	6.89
387.155	6.92
387.362	6.98
387.57	7.07
387.778	7.01
387.985	7.18
388.193	7.17
388.4	7.09
388.608	7.29
388.816	7.26
389.023	7.38
389.231	7.47
389.438	7.28
389.646	7.21
389.853	7.07
390.061	7
390.268	6.83
390.475	6.64
390.683	6.53
390.89	6.42
391.098	6.27
391.305	6.17
391.512	6.04
391.72	6.09
391.927	6.03
392.135	6.23
392.342	6.37
392.549	6.47
392.756	6.65
392.964	6.54
393.171	6.66
393.378	6.55
393.586	6.63
393.793	6.43
394	6.47
394.207	6.49
394.414	6.45
394.622	6.29
394.829	6.25
395.036	6.25
395.243	6.51
395.45	6.25
395.657	6.43
395.864	6.28
396.072	6.39
396.279	6.57
396.486	6.42
396.693	6.23
396.9	6.27
397.107	6.17
397.314	6.2
397.521	5.81
397.728	5.81
397.935	5.68
398.142	5.63
398.349	5.82
398.556	5.6
398.763	5.76
398.97	5.64
399.177	5.74
399.383	5.77
399.59	5.72
399.797	5.95
400.004	5.97
400.211	6.08
400.418	6.13
400.625	6.18
400.831	6.2
401.038	6.1
401.245	6.38
401.452	6.2
401.658	6.19
401.865	6.27
402.072	6.11
402.279	6.1
402.485	5.87
402.692	5.66
402.899	5.46
403.105	5.32
403.312	5.31
403.519	5
403.725	5.06
403.932	4.85
404.138	4.74
404.345	4.83
404.552	4.68
404.758	4.77
404.965	4.62
405.171	4.61
405.378	4.59
405.584	4.55
405.791	4.7
405.997	4.73
406.204	4.92
406.41	4.73
406.617	4.78
406.823	5.06
407.029	5.04
407.236	5.34
407.442	5.31
407.649	5.45
407.855	5.58
408.061	5.64
408.268	5.58
408.474	5.5
408.68	5.68
408.887	5.46
409.093	5.35
409.299	5.44
409.505	5.37
409.712	5.38
409.918	5.39
410.124	5.21
410.33	5.12
410.537	4.96
410.743	4.96
410.949	4.94
411.155	5.02
411.361	4.95
411.567	4.78
411.773	4.76
411.98	4.71
412.186	4.58
412.392	4.72
412.598	4.63
412.804	4.71
413.01	4.77
413.216	4.91
413.422	4.96
413.628	5.04
413.834	5.11
414.04	5.14
414.246	5.23
414.452	5.06
414.658	4.85
414.864	4.75
415.07	4.73
415.275	4.61
415.481	4.47
415.687	4.34
415.893	4.23
416.099	4.18
416.305	4.19
416.511	4.09
416.716	4.07
416.922	4.11
417.128	4.13
417.334	4.07
417.539	4.06
417.745	3.84
417.951	3.84
418.157	3.86
418.362	3.81
418.568	3.68
418.774	3.66
418.979	3.72
419.185	3.67
419.391	3.67
419.596	3.66
419.802	3.64
420.008	3.71
420.213	4.32
420.419	4.21
420.624	4.17
420.83	4.18
421.035	4.17
421.241	4.13
421.446	4.09
421.652	4.06
421.857	3.95
422.063	3.9
422.268	3.85
422.474	3.24
422.679	3.27
422.885	3.26
423.09	3.2
423.295	3.14
423.501	3.11
423.706	3.16
423.911	3.17
424.117	3.24
424.322	3.23
424.527	3.27
424.733	3.23
424.938	3.24
425.143	3.23
425.349	3.26
425.554	3.27
425.759	3.32
425.964	3.31
426.169	3.32
426.375	3.33
426.58	3.43
426.785	3.44
426.99	3.51
427.195	3.53
427.4	3.57
427.605	3.61
427.811	3.7
428.016	3.68
428.221	3.76
428.426	3.63
428.631	3.63
428.836	3.59
429.041	3.62
429.246	3.58
429.451	3.52
429.656	3.48
429.861	3.49
430.066	3.35
430.271	3.41
430.476	3.36
430.681	3.44
430.886	3.48
431.09	3.53
431.295	3.4
431.5	3.56
431.705	3.56
431.91	3.65
432.115	3.64
432.32	3.76
432.524	3.68
432.729	3.69
432.934	3.72
433.139	3.59
433.343	3.57
433.548	3.61
433.753	3.57
433.958	3.59
434.162	3.59
434.367	3.71
434.572	3.7
434.776	3.68
434.981	3.68
435.186	3.72
435.39	3.88
435.595	3.88
435.799	3.84
436.004	3.74
436.209	3.72
436.413	3.68
436.618	3.56
436.822	3.61
437.027	3.64
437.231	3.64
437.436	3.57
437.64	3.57
437.845	3.55
438.049	3.74
438.253	3.73
438.458	3.7
438.662	3.59
438.867	3.59
439.071	3.62
439.275	3.61
439.48	3.6
439.684	3.56
439.888	3.49
440.093	3.43
440.297	3.29
440.501	3.35
440.706	3.4
440.91	3.43
441.114	3.44
441.318	3.37
441.523	3.36
441.727	3.27
441.931	3.4
442.135	3.46
442.339	3.49
442.543	3.61
442.748	3.59
442.952	3.56
443.156	3.55
443.36	3.44
443.564	3.4
443.768	3.46
443.972	3.57
444.176	3.53
444.38	3.52
444.584	3.47
444.788	3.35
444.992	3.28
445.196	3.28
445.4	3.26
445.604	3.38
445.808	3.42
446.012	3.34
446.216	3.26
446.42	3.24
446.624	3.16
446.828	3.11
447.032	3.05
447.235	3.11
447.439	3.06
447.643	3.2
447.847	3.11
448.051	3.08
448.254	3.09
448.458	3.15
448.662	3.13
448.866	3.1
449.069	3.25
449.273	3.33
449.477	3.3
449.681	3.36
449.884	3.32
450.088	3.46
450.292	3.41
450.495	3.48
450.699	3.44
450.902	3.38
451.106	3.38
451.31	3.31
451.513	3.32
451.717	3.33
451.92	3.39
452.124	3.28
452.327	3.13
452.531	3.19
452.734	3.18
452.938	3.18
453.141	3.31
453.345	3.45
453.548	3.42
453.752	3.47
453.955	3.48
454.158	3.41
454.362	3.45
454.565	3.45
454.769	3.4
454.972	3.33
455.175	3.32
455.379	3.19
455.582	3.17
455.785	3.2
455.988	3.18
456.192	3.2
456.395	3.21
456.598	3.29
456.801	3.39
457.005	3.37
457.208	3.48
457.411	3.54
457.614	3.58
457.817	3.49
458.021	3.43
458.224	3.41
458.427	3.38
458.63	3.36
458.833	3.25
459.036	3.2
459.239	3.18
459.442	3.12
459.645	3.04
459.848	2.98
460.051	3.01
460.254	3.1
460.457	3.08
460.66	3.09
460.863	3.11
461.066	3.12
461.269	3.11
461.472	3.22
461.675	3.22
461.878	3.24
462.081	3.29
462.284	3.27
462.486	3.25
462.689	3.21
462.892	3.18
463.095	3.16
