Data from 2938780__Reflection_03.txt Node
Date: Fri Mar 13 13:01:36 EDT 2015
User: robert
Spectrometer: USB4E03002
Autoset integration time: false
Trigger mode: 4
Integration Time (sec): 1.000000E-1
Scans to average: 10
Electric dark correction enabled: false
Nonlinearity correction enabled: false
Boxcar width: 5
Stray light correction enabled: false
XAxis mode: Wavelengths
Stop averaging: false
Number of Pixels in Spectrum: 3648
>>>>>Begin Spectral Data<<<<<
177.575	97.02
177.794	98.37
178.014	94.9
178.233	88.37
178.452	90.99
178.672	87.45
178.891	90.28
179.11	88.05
179.33	92.89
179.549	89.32
179.768	91.16
179.987	93.63
180.207	93.66
180.426	90.88
180.645	95.23
180.864	90.86
181.084	87.01
181.303	84.63
181.522	83.9
181.741	80.73
181.96	81.05
182.179	77.03
182.398	72.49
182.618	71.29
182.837	75.06
183.056	75.6
183.275	77.49
183.494	82.8
183.713	85.08
183.932	91.2
184.151	88.35
184.37	89.12
184.589	92.34
184.808	95.31
185.027	95.43
185.246	96.74
185.465	94.45
185.684	99.64
185.903	100.36
186.122	98.28
186.341	90.87
186.56	92.87
186.779	94
186.998	95.04
187.216	95.55
187.435	94.58
187.654	86.04
187.873	84.18
188.092	80.89
188.311	78.91
188.53	77.4
188.748	80.28
188.967	79.65
189.186	77.19
189.405	79.3
189.623	81.55
189.842	83.78
190.061	90.39
190.28	97.31
190.498	95.55
190.717	98.27
190.936	101.72
191.154	101.37
191.373	100.98
191.592	101.58
191.81	95.99
192.029	94.64
192.248	92.54
192.466	91.47
192.685	85
192.904	87.34
193.122	83.01
193.341	83.38
193.559	80.93
193.778	79.68
193.996	82.41
194.215	80.67
194.433	80
194.652	80.66
194.87	78.1
195.089	79.99
195.307	78.76
195.526	79.84
195.744	79.19
195.963	81.94
196.181	81.05
196.399	77.85
196.618	79.69
196.836	82.14
197.055	83.2
197.273	86.14
197.491	86.48
197.71	88.48
197.928	89.22
198.146	90.25
198.365	88.68
198.583	90.39
198.801	92.76
199.019	94.4
199.238	92.51
199.456	94.76
199.674	92.64
199.892	89.14
200.111	86.32
200.329	91.67
200.547	88.12
200.765	92.97
200.983	92.1
201.202	90.88
201.42	94.05
201.638	90.57
201.856	84.09
202.074	85.87
202.292	87.14
202.51	84.19
202.728	77.24
202.946	77.92
203.165	75.48
203.383	78.81
203.601	78.13
203.819	74.6
204.037	77.97
204.255	82.14
204.473	81.89
204.691	83.6
204.909	87.63
205.127	88.66
205.345	88.33
205.562	84.94
205.78	85.76
205.998	86.65
206.216	87.64
206.434	85.85
206.652	88.93
206.87	87.78
207.088	85.92
207.306	86.73
207.523	87.62
207.741	85.91
207.959	85.21
208.177	82.38
208.395	83.72
208.612	81.82
208.83	82.26
209.048	76.64
209.266	77.1
209.483	75.48
209.701	72.79
209.919	68.78
210.136	72.07
210.354	72.81
210.572	72.59
210.79	68.89
211.007	71.82
211.225	70.59
211.442	68.08
211.66	70.9
211.878	74.58
212.095	75.86
212.313	81.21
212.53	77.32
212.748	74.4
212.966	75.9
213.183	74.78
213.401	74.59
213.618	73.98
213.836	76.85
214.053	74.42
214.271	74.63
214.488	76.63
214.705	73.81
214.923	73.01
215.14	74.88
215.358	71.33
215.575	76.42
215.793	75.9
216.01	77.7
216.227	79.6
216.445	75.61
216.662	77.99
216.879	76.19
217.097	76.45
217.314	75.88
217.531	75.7
217.749	78.26
217.966	75.34
218.183	76.14
218.4	71.94
218.618	71.28
218.835	69.68
219.052	65.53
219.269	66.39
219.487	66.67
219.704	72.13
219.921	72.37
220.138	72.32
220.355	70.78
220.572	68.99
220.79	67.81
221.007	67.2
221.224	69.7
221.441	68.58
221.658	68.44
221.875	67.97
222.092	64.16
222.309	63.78
222.526	61.44
222.743	60.57
222.96	57.61
223.177	59.91
223.394	56.36
223.611	55.87
223.828	56.98
224.045	54.24
224.262	48.96
224.479	45.7
224.696	45.88
224.913	43.22
225.13	42.66
225.347	43.04
225.564	42.06
225.781	40.97
225.997	39.25
226.214	35.49
226.431	34.21
226.648	33.5
226.865	32.59
227.082	28.73
227.298	26.64
227.515	23.87
227.732	20.96
227.949	18.98
228.165	17.7
228.382	16.64
228.599	16.74
228.816	15.58
229.032	15.21
229.249	14.06
229.466	14.34
229.682	14.98
229.899	15.37
230.116	15.22
230.332	15.9
230.549	16.53
230.765	17.11
230.982	17.34
231.199	18.22
231.415	20.43
231.632	23.14
231.848	24.97
232.065	25.85
232.281	26.84
232.498	27.82
232.714	27.99
232.931	28.65
233.147	29.01
233.364	28.34
233.58	28.65
233.797	27.6
234.013	25.99
234.23	24.98
234.446	23.81
234.662	23.58
234.879	23.68
235.095	23.1
235.312	23.45
235.528	23.05
235.744	23.21
235.961	22.65
236.177	22.7
236.393	23.96
236.61	24.53
236.826	24.78
237.042	23.79
237.258	24.36
237.475	25.19
237.691	25.43
237.907	26.02
238.123	27.05
238.339	27.78
238.556	27.12
238.772	25.16
238.988	23.11
239.204	22.99
239.42	23.6
239.636	23.21
239.853	22.07
240.069	19.98
240.285	19.39
240.501	17.38
240.717	16.29
240.933	15.29
241.149	15.14
241.365	14.73
241.581	14.2
241.797	13.73
242.013	13.19
242.229	13.2
242.445	13.04
242.661	13.1
242.877	13.22
243.093	13.38
243.309	13.79
243.525	13.86
243.741	13.84
243.957	13.93
244.173	14.69
244.388	14.75
244.604	14.7
244.82	15.04
245.036	14.12
245.252	13.46
245.468	12.99
245.683	12.33
245.899	11.64
246.115	11.35
246.331	10.76
246.547	10.17
246.762	9.75
246.978	9.24
247.194	9.2
247.409	9.07
247.625	9.01
247.841	8.77
248.057	8.71
248.272	9.02
248.488	9.03
248.703	9.2
248.919	9.36
249.135	9.66
249.35	10.77
249.566	10.73
249.782	11.42
249.997	12.07
250.213	12.18
250.428	12.68
250.644	12.86
250.859	12.9
251.075	12.66
251.29	13.2
251.506	13.05
251.721	12.15
251.937	12.24
252.152	12.23
252.368	12.21
252.583	12.31
252.798	12.87
253.014	12.96
253.229	13.35
253.445	14.43
253.66	13.92
253.875	14.92
254.091	15.88
254.306	16.28
254.521	16.97
254.737	18.29
254.952	18.54
255.167	17.94
255.383	17.96
255.598	17.73
255.813	17.05
256.028	16.97
256.244	15.86
256.459	15.76
256.674	15.3
256.889	14.1
257.104	13.17
257.32	12.79
257.535	11.95
257.75	10.81
257.965	10.43
258.18	9.82
258.395	9.02
258.61	8.53
258.826	7.57
259.041	7.41
259.256	7.07
259.471	6.37
259.686	6.29
259.901	6.22
260.116	6.27
260.331	6.13
260.546	6.35
260.761	6.58
260.976	6.77
261.191	6.79
261.406	6.64
261.621	7.03
261.836	7.31
262.05	7.74
262.265	7.95
262.48	8.46
262.695	8.91
262.91	9.12
263.125	9.11
263.34	9.14
263.555	10.27
263.769	11.04
263.984	11.02
264.199	11.54
264.414	10.89
264.629	11.33
264.843	11.66
265.058	11.87
265.273	11.43
265.488	11.28
265.702	11.18
265.917	10.9
266.132	10.63
266.346	10.26
266.561	10.25
266.776	10.93
266.99	10.62
267.205	10.32
267.42	9.87
267.634	9.13
267.849	9.38
268.063	9.6
268.278	9.42
268.492	9.76
268.707	9.92
268.922	9.48
269.136	9.11
269.351	8.87
269.565	8.29
269.78	8.31
269.994	8.58
270.209	8.01
270.423	7.32
270.637	7.01
270.852	6.38
271.066	6.21
271.281	6.61
271.495	6.58
271.709	6.75
271.924	6.89
272.138	6.78
272.353	6.95
272.567	7.4
272.781	7.76
272.996	7.64
273.21	7.91
273.424	8.08
273.638	7.78
273.853	7.77
274.067	7.99
274.281	8.31
274.495	8.43
274.71	8.95
274.924	9.02
275.138	9.2
275.352	9.37
275.566	9.53
275.781	9.51
275.995	10.12
276.209	10.07
276.423	10.06
276.637	9.97
276.851	10.26
277.065	9.8
277.279	9.72
277.493	9.64
277.707	10.04
277.921	9.55
278.135	9.39
278.349	8.85
278.563	9
278.777	8.89
278.991	8.44
279.205	8.74
279.419	9.11
279.633	8.66
279.847	8.56
280.061	8.33
280.275	8.1
280.489	8.46
280.703	8.85
280.917	8.88
281.131	8.82
281.344	8.81
281.558	8.11
281.772	7.97
281.986	8.08
282.2	7.87
282.414	8.06
282.627	8.06
282.841	7.93
283.055	7.73
283.269	7.5
283.482	7.26
283.696	7.48
283.91	7.68
284.123	7.13
284.337	6.96
284.551	6.91
284.764	6.62
284.978	6.59
285.192	6.28
285.405	6.28
285.619	6.17
285.833	6.52
286.046	6.21
286.26	6.29
286.473	6.61
286.687	6.55
286.9	6.6
287.114	6.32
287.327	6.63
287.541	6.96
287.754	6.79
287.968	7.29
288.181	7.04
288.395	7.47
288.608	7.49
288.822	7.31
289.035	7.26
289.248	7.22
289.462	7.49
289.675	7.2
289.889	7.14
290.102	6.96
290.315	6.38
290.529	6.42
290.742	6.26
290.955	6.24
291.169	6.54
291.382	6.68
291.595	6.91
291.808	7.01
292.022	7.58
292.235	7.65
292.448	7.84
292.661	8.18
292.875	8.14
293.088	8.15
293.301	7.93
293.514	7.84
293.727	8.02
293.94	7.99
294.153	7.69
294.367	7.08
294.58	7.04
294.793	7.26
295.006	6.87
295.219	6.66
295.432	6.9
295.645	6.81
295.858	6.43
296.071	6.08
296.284	5.87
296.497	5.87
296.71	5.63
296.923	5.6
297.136	5.42
297.349	5.51
297.562	5.56
297.775	5.45
297.988	5.46
298.201	5.69
298.414	5.77
298.626	5.88
298.839	5.84
299.052	6.16
299.265	6.43
299.478	6.46
299.691	6.86
299.903	7
300.116	7.28
300.329	7.47
300.542	7.54
300.755	8.06
300.967	7.99
301.18	8.12
301.393	8.28
301.605	8.15
301.818	8.17
302.031	8.05
302.243	7.79
302.456	7.48
302.669	7.71
302.881	7.83
303.094	7.96
303.307	8.01
303.519	8.03
303.732	8.26
303.944	8.24
304.157	8.54
304.37	8.33
304.582	8.6
304.795	8.63
305.007	8.25
305.22	8.34
305.432	7.86
305.645	8.03
305.857	8.53
306.069	8.35
306.282	8.23
306.494	8.17
306.707	8.27
306.919	8.57
307.132	8.45
307.344	8.56
307.556	8.36
307.769	8.6
307.981	8.4
308.193	7.84
308.406	7.72
308.618	7.79
308.83	7.8
309.043	7.77
309.255	7.38
309.467	7.4
309.679	7.17
309.892	7.15
310.104	6.86
310.316	6.84
310.528	7
310.74	6.91
310.953	6.62
311.165	6.61
311.377	6.82
311.589	7.08
311.801	7.09
312.013	7.25
312.225	7.17
312.437	7.45
312.649	7.59
312.862	7.91
313.074	8.35
313.286	8.53
313.498	8.88
313.71	8.93
313.922	9.07
314.134	9.29
314.346	9.78
314.558	10.01
314.77	10.15
314.982	10.35
315.193	10.42
315.405	10.42
315.617	10.73
315.829	10.59
316.041	10.58
316.253	10.54
316.465	10.57
316.677	10.43
316.888	10.2
317.1	10.38
317.312	10.5
317.524	10.46
317.736	10.44
317.947	10.85
318.159	10.83
318.371	10.99
318.583	11.23
318.794	11.3
319.006	11.31
319.218	11.7
319.43	11.67
319.641	11.91
319.853	11.79
320.064	11.93
320.276	11.47
320.488	11.78
320.699	12.12
320.911	12.32
321.123	12.53
321.334	12.57
321.546	12.84
321.757	13.05
321.969	12.96
322.18	13.04
322.392	13.06
322.603	13.83
322.815	13.65
323.026	13.49
323.238	13.48
323.449	13.39
323.661	13.71
323.872	13.8
324.083	13.72
324.295	13.48
324.506	13.72
324.718	13.77
324.929	13.87
325.14	14.18
325.352	14.16
325.563	14.42
325.774	14.85
325.986	14.9
326.197	14.85
326.408	15.24
326.62	15.94
326.831	16.23
327.042	16.6
327.253	17.06
327.464	17.57
327.676	17.91
327.887	18.27
328.098	18.37
328.309	18.91
328.52	19.55
328.732	19.81
328.943	20.28
329.154	20.79
329.365	21.15
329.576	21.26
329.787	21.43
329.998	21.84
330.209	21.96
330.42	22.73
330.631	23.15
330.842	23.24
331.053	23.99
331.264	23.75
331.475	23.74
331.686	23.92
331.897	23.97
332.108	24.1
332.319	24.39
332.53	24.55
332.741	24.45
332.952	24.22
333.163	24.52
333.374	24.66
333.585	25.09
333.795	25.62
334.006	25.99
334.217	25.94
334.428	25.96
334.639	26.07
334.849	25.97
335.06	26.31
335.271	26.49
335.482	26.85
335.692	26.43
335.903	26.64
336.114	26.15
336.325	26.12
336.535	26.44
336.746	26.37
336.957	26.6
337.167	27.03
337.378	26.96
337.589	27.26
337.799	26.9
338.01	27.27
338.22	27.05
338.431	27.17
338.642	27.42
338.852	27.03
339.063	27.2
339.273	26.8
339.484	26.61
339.694	26.27
339.905	26.29
340.115	26.6
340.326	26.52
340.536	26.39
340.746	26.53
340.957	26.37
341.167	26.64
341.378	26.65
341.588	26.84
341.799	26.77
342.009	26.93
342.219	26.79
342.43	26.8
342.64	26.45
342.85	26.58
343.061	26.62
343.271	26.73
343.481	26.61
343.691	26.48
343.902	26.88
344.112	26.9
344.322	26.75
344.532	26.96
344.743	26.6
344.953	26.71
345.163	26.68
345.373	26.39
345.583	26.04
345.793	26.27
346.004	26.31
346.214	26.11
346.424	26.22
346.634	26.53
346.844	26.48
347.054	26.73
347.264	26.69
347.474	26.46
347.684	26.58
347.894	26.86
348.104	26.72
348.314	26.81
348.524	26.74
348.734	26.77
348.944	27.03
349.154	26.71
349.364	26.39
349.574	26.51
349.784	26.54
349.994	26.48
350.204	26.34
350.413	26.23
350.623	26.17
350.833	25.83
351.043	25.68
351.253	25.18
351.463	25.24
351.672	25.34
351.882	25.31
352.092	25.37
352.302	25.45
352.511	25.21
352.721	25.37
352.931	25.38
353.141	25.37
353.35	25.21
353.56	25.02
353.77	24.89
353.979	24.76
354.189	24.77
354.399	24.62
354.608	24.7
354.818	24.7
355.027	24.71
355.237	24.66
355.447	25.07
355.656	25.02
355.866	25.02
356.075	25.2
356.285	25.29
356.494	25.08
356.704	25.28
356.913	25.05
357.123	25.07
357.332	24.82
357.542	24.61
357.751	24.41
357.96	24.4
358.17	24.37
358.379	24.15
358.589	24.09
358.798	24.22
359.007	24.14
359.217	24.22
359.426	24.06
359.635	24.08
359.845	24.31
360.054	24.07
360.263	24.12
360.472	24.11
360.682	24.14
360.891	24.05
361.1	23.78
361.309	23.6
361.519	23.6
361.728	23.59
361.937	23.61
362.146	23.46
362.355	23.46
362.564	23.59
362.774	23.66
362.983	23.47
363.192	23.45
363.401	23.48
363.61	23.49
363.819	23.54
364.028	23.71
364.237	23.79
364.446	23.8
364.655	23.87
364.864	23.35
365.073	23.28
365.282	23.46
365.491	23.39
365.7	23.45
365.909	23.29
366.118	23.2
366.327	23.15
366.536	23.12
366.745	23.13
366.954	23.15
367.162	23.55
367.371	23.7
367.58	23.75
367.789	23.81
367.998	23.85
368.207	24.22
368.415	24.36
368.624	24.46
368.833	24.28
369.042	24.3
369.25	24.31
369.459	24.18
369.668	24.02
369.877	23.95
370.085	23.69
370.294	23.63
370.503	23.46
370.711	23.3
370.92	23.16
371.129	23.25
371.337	22.98
371.546	22.83
371.754	22.88
371.963	22.82
372.171	22.76
372.38	23.13
372.589	23.07
372.797	23.02
373.006	23.05
373.214	23.13
373.423	23.08
373.631	23.35
373.84	23.29
374.048	23.23
374.256	23.08
374.465	22.99
374.673	22.96
374.882	23.2
375.09	23.42
375.298	23.12
375.507	23.06
375.715	23.16
375.923	23.01
376.132	23.03
376.34	23.15
376.548	23.24
376.757	23.17
376.965	23.31
377.173	23.18
377.381	22.88
377.59	23.29
377.798	23.12
378.006	22.95
378.214	22.83
378.423	22.92
378.631	22.79
378.839	22.89
379.047	22.79
379.255	22.53
379.463	22.63
379.671	22.71
379.879	22.44
380.088	22.48
380.296	22.52
380.504	22.52
380.712	22.31
380.92	22.39
381.128	22.32
381.336	22.39
381.544	22.23
381.752	22.13
381.96	22.07
382.168	22.14
382.376	22.29
382.584	22.47
382.791	22.5
382.999	22.45
383.207	22.28
383.415	22.22
383.623	22.33
383.831	22.41
384.039	22.23
384.247	22.34
384.454	22.31
384.662	22.14
384.87	22.01
385.078	22.08
385.285	22.18
385.493	22.03
385.701	21.93
385.909	22
386.116	22.13
386.324	22.07
386.532	22.07
386.739	22.02
386.947	22.14
387.155	22.16
387.362	22.23
387.57	22.21
387.778	22.28
387.985	22.31
388.193	22.32
388.4	22.15
388.608	22.44
388.816	22.3
389.023	22.22
389.231	22.09
389.438	21.88
389.646	21.76
389.853	21.67
390.061	21.61
390.268	21.68
390.475	21.6
390.683	21.6
390.89	21.4
391.098	21.44
391.305	21.53
391.512	21.47
391.72	21.44
391.927	21.4
392.135	21.55
392.342	21.65
392.549	21.66
392.756	21.52
392.964	21.48
393.171	21.7
393.378	21.61
393.586	21.42
393.793	21.28
394	21.33
394.207	21.42
394.414	21.39
394.622	21.36
394.829	21.39
395.036	21.5
395.243	21.56
395.45	21.25
395.657	21.33
395.864	21.44
396.072	21.62
396.279	21.73
396.486	21.7
396.693	21.56
396.9	21.58
397.107	21.55
397.314	21.64
397.521	21.63
397.728	21.79
397.935	21.88
398.142	21.83
398.349	22
398.556	21.89
398.763	21.86
398.97	21.91
399.177	21.8
399.383	21.75
399.59	21.59
399.797	21.63
400.004	21.68
400.211	21.72
400.418	21.82
400.625	21.84
400.831	21.79
401.038	21.91
401.245	21.78
401.452	22.06
401.658	22
401.865	22.03
402.072	22.09
402.279	22.09
402.485	21.9
402.692	21.82
402.899	21.71
403.105	21.71
403.312	21.6
403.519	21.64
403.725	21.45
403.932	21.38
404.138	21.37
404.345	21.32
404.552	21.19
404.758	21.32
404.965	21.29
405.171	21.33
405.378	21.35
405.584	21.42
405.791	21.52
405.997	21.61
406.204	21.81
406.41	21.75
406.617	21.73
406.823	21.8
407.029	21.81
407.236	21.97
407.442	22.04
407.649	22.19
407.855	22.23
408.061	22.27
408.268	22.17
408.474	22.14
408.68	22.19
408.887	22.21
409.093	22.15
409.299	22.03
409.505	21.88
409.712	21.74
409.918	21.63
410.124	21.53
410.33	21.48
410.537	21.55
410.743	21.52
410.949	21.68
411.155	21.64
411.361	21.71
411.567	21.76
411.773	21.8
411.98	21.79
412.186	21.75
412.392	21.73
412.598	21.77
412.804	21.72
413.01	21.7
413.216	21.75
413.422	21.72
413.628	21.76
413.834	21.73
414.04	21.64
414.246	21.7
414.452	21.66
414.658	21.69
414.864	21.62
415.07	21.79
415.275	21.73
415.481	21.66
415.687	21.61
415.893	21.48
416.099	21.57
416.305	21.67
416.511	21.76
416.716	21.8
416.922	21.74
417.128	21.7
417.334	21.43
417.539	21.49
417.745	21.39
417.951	21.43
418.157	21.51
418.362	21.39
418.568	21.29
418.774	21.12
418.979	21.1
419.185	21.09
419.391	21.13
419.596	21.13
419.802	21.05
420.008	21.02
420.213	21.03
420.419	20.97
420.624	20.99
420.83	21.06
421.035	21.09
421.241	21.02
421.446	21.05
421.652	21
421.857	21.05
422.063	21.09
422.268	21.07
422.474	21.04
422.679	21.06
422.885	21.03
423.09	20.95
423.295	20.9
423.501	20.99
423.706	20.94
423.911	20.97
424.117	20.99
424.322	20.95
424.527	21.02
424.733	21.03
424.938	21.05
425.143	21.01
425.349	21.03
425.554	21.04
425.759	21.05
425.964	21.14
426.169	21.18
426.375	21.17
426.58	21.27
426.785	21.27
426.99	21.31
427.195	21.38
427.4	21.46
427.605	21.58
427.811	21.68
428.016	21.69
428.221	21.71
428.426	21.79
428.631	21.82
428.836	21.79
429.041	21.79
429.246	21.67
429.451	21.7
429.656	21.73
429.861	21.77
430.066	21.73
430.271	21.76
430.476	21.75
430.681	21.74
430.886	21.76
431.09	21.81
431.295	21.88
431.5	22.08
431.705	21.99
431.91	22.07
432.115	22.04
432.32	22.12
432.524	21.96
432.729	22.07
432.934	22.02
433.139	22.03
433.343	22.1
433.548	22.05
433.753	22.04
433.958	22.05
434.162	22.04
434.367	22.06
434.572	22.05
434.776	22.17
434.981	22.06
435.186	22.12
435.39	22.24
435.595	22.22
435.799	22.22
436.004	22.25
436.209	22.29
436.413	22.28
436.618	22.33
436.822	22.33
437.027	22.34
437.231	22.36
437.436	22.41
437.64	22.35
437.845	22.29
438.049	22.42
438.253	22.46
438.458	22.46
438.662	22.44
438.867	22.4
439.071	22.45
439.275	22.38
439.48	22.42
439.684	22.38
439.888	22.41
440.093	22.37
440.297	22.36
440.501	22.3
440.706	22.3
440.91	22.33
441.114	22.38
441.318	22.36
441.523	22.46
441.727	22.49
441.931	22.57
442.135	22.56
442.339	22.62
442.543	22.68
442.748	22.63
442.952	22.73
443.156	22.75
443.36	22.66
443.564	22.62
443.768	22.71
443.972	22.59
444.176	22.56
444.38	22.57
444.584	22.56
444.788	22.41
444.992	22.42
445.196	22.33
445.4	22.35
445.604	22.37
445.808	22.45
446.012	22.36
446.216	22.41
446.42	22.32
446.624	22.27
446.828	22.23
447.032	22.21
447.235	22.27
447.439	22.25
447.643	22.29
447.847	22.33
448.051	22.31
448.254	22.31
448.458	22.37
448.662	22.38
448.866	22.35
449.069	22.48
449.273	22.58
449.477	22.43
449.681	22.53
449.884	22.55
450.088	22.6
450.292	22.57
450.495	22.54
450.699	22.58
450.902	22.57
451.106	22.61
451.31	22.57
451.513	22.61
451.717	22.73
451.92	22.76
452.124	22.63
452.327	22.56
452.531	22.55
452.734	22.59
452.938	22.52
453.141	22.71
453.345	22.89
453.548	22.85
453.752	22.84
453.955	22.92
454.158	22.84
454.362	22.81
454.565	22.75
454.769	22.74
454.972	22.73
455.175	22.77
455.379	22.63
455.582	22.58
455.785	22.6
455.988	22.55
456.192	22.42
456.395	22.42
456.598	22.43
456.801	22.47
457.005	22.51
457.208	22.56
457.411	22.55
457.614	22.5
457.817	22.38
458.021	22.21
458.224	22.26
458.427	22.28
458.63	22.32
458.833	22.29
459.036	22.24
459.239	22.17
459.442	22.07
459.645	21.99
459.848	22.05
460.051	22.07
