Data from 2938760__Reflection_01.txt Node
Date: Fri Mar 13 17:47:26 EDT 2015
User: robert
Spectrometer: USB4E03002
Autoset integration time: false
Trigger mode: 4
Integration Time (sec): 1.000000E-1
Scans to average: 10
Electric dark correction enabled: false
Nonlinearity correction enabled: false
Boxcar width: 5
Stray light correction enabled: false
XAxis mode: Wavelengths
Stop averaging: false
Number of Pixels in Spectrum: 3648
>>>>>Begin Spectral Data<<<<<
177.575	-1975
177.794	-9092.31
178.014	-1578.21
178.233	-832.47
178.452	-644.95
178.672	-505.04
178.891	-288.69
179.11	-176.52
179.33	-235.95
179.549	-514.67
179.768	-441.84
179.987	-474.05
180.207	-340.56
180.426	-335.69
180.645	-1376.67
180.864	-5833.33
181.084	1571.91
181.303	1697.7
181.522	663.27
181.741	980.82
181.96	1342.55
182.179	570.35
182.398	567.36
182.618	479.2
182.837	337.39
183.056	368.8
183.275	354.63
183.494	260.71
183.713	208.25
183.932	162.3
184.151	141.11
184.37	137.71
184.589	109.92
184.808	109.34
185.027	120.33
185.246	120.37
185.465	124.15
185.684	154.36
185.903	230.52
186.122	273.48
186.341	512.39
186.56	2200
186.779	914.41
186.998	-481.58
187.216	-1504.55
187.435	731.75
187.654	-5080
187.873	-431.33
188.092	11966.67
188.311	666.67
188.53	252
188.748	255.88
188.967	259.32
189.186	264.67
189.405	200.41
189.623	219.9
189.842	283.91
190.061	595.42
190.28	424.54
190.498	593.65
190.717	457.85
190.936	565.95
191.154	437.55
191.373	395.58
191.592	345.45
191.81	372.69
192.029	592
192.248	845.3
192.466	281.69
192.685	228.39
192.904	257.23
193.122	237.39
193.341	347.2
193.559	803.09
193.778	1371.43
193.996	3688.89
194.215	-2358.54
194.433	3324.14
194.652	-1077.46
194.87	-326.63
195.089	-3705.26
195.307	1267.86
195.526	-4676.47
195.744	920.79
195.963	490.91
196.181	329.21
196.399	288.73
196.618	231.09
196.836	250.45
197.055	259.61
197.273	246.11
197.491	308.31
197.71	231.04
197.928	187.06
198.146	176.67
198.365	136.06
198.583	144.3
198.801	144.23
199.019	182.2
199.238	198.52
199.456	169.46
199.674	180.13
199.892	171.57
200.111	197.89
200.329	214.8
200.547	254.74
200.765	375.41
200.983	412.5
201.202	364.37
201.42	307.94
201.638	217.08
201.856	289.83
202.074	192.57
202.292	251.29
202.51	196.34
202.728	230.71
202.946	178.82
203.165	160.54
203.383	171.7
203.601	173.1
203.819	208.96
204.037	250.25
204.255	279.06
204.473	346.2
204.691	240.63
204.909	227.35
205.127	210.3
205.345	237.28
205.562	268.06
205.78	228.57
205.998	274.83
206.216	376.82
206.434	282.25
206.652	263.77
206.87	450.44
207.088	405.24
207.306	1398.41
207.523	720
207.741	644.7
207.959	496.86
208.177	592.56
208.395	262.94
208.612	161.87
208.83	195.83
209.048	246.65
209.266	230.73
209.483	242.67
209.701	228.74
209.919	254.14
210.136	234.69
210.354	281.77
210.572	268.58
210.79	281.25
211.007	294.93
211.225	250.79
211.442	245.63
211.66	210.73
211.878	171.51
212.095	182.52
212.313	150.84
212.53	151.74
212.748	124.05
212.966	135.13
213.183	148.15
213.401	173.47
213.618	133.85
213.836	113.32
214.053	107.57
214.271	138.49
214.488	143.96
214.705	190.57
214.923	209.67
215.14	236.3
215.358	202.6
215.575	161.72
215.793	142.53
216.01	173.93
216.227	198.34
216.445	172.33
216.662	137.56
216.879	125.97
217.097	117.66
217.314	105.36
217.531	98.13
217.749	99.03
217.966	96.73
218.183	92.29
218.4	95.78
218.618	84.83
218.835	87.55
219.052	101.02
219.269	88.77
219.487	87.89
219.704	83.31
219.921	83.45
220.138	83.76
220.355	76.08
220.572	70.11
220.79	69.91
221.007	75.75
221.224	82.56
221.441	68.83
221.658	57.46
221.875	61.27
222.092	62.95
222.309	65.13
222.526	62.84
222.743	64.66
222.96	60.98
223.177	58.15
223.394	56.88
223.611	45.38
223.828	48.43
224.045	58.49
224.262	50.78
224.479	53.61
224.696	45.46
224.913	44.4
225.13	41.58
225.347	39.93
225.564	35.48
225.781	30.27
225.997	28.1
226.214	22.91
226.431	22.05
226.648	18.96
226.865	16.35
227.082	17.02
227.298	13.75
227.515	11.63
227.732	8.95
227.949	7.68
228.165	6.96
228.382	5.63
228.599	5.54
228.816	4.84
229.032	5.27
229.249	4.39
229.466	4.1
229.682	5.4
229.899	5.78
230.116	6.12
230.332	7.08
230.549	7.89
230.765	8.92
230.982	9.3
231.199	9.79
231.415	10.17
231.632	11.43
231.848	11.08
232.065	10.73
232.281	10.9
232.498	10.86
232.714	10.44
232.931	10.09
233.147	11.19
233.364	10.29
233.58	10.21
233.797	8.65
234.013	8.05
234.23	7.98
234.446	6.65
234.662	7.77
234.879	7.86
235.095	8.29
235.312	8.52
235.528	5.91
235.744	5.45
235.961	5.39
236.177	7.16
236.393	8.08
236.61	7.59
236.826	9.58
237.042	8.63
237.258	9.72
237.475	10.22
237.691	11.1
237.907	12.45
238.123	14.06
238.339	13.99
238.556	14.18
238.772	12.64
238.988	12.02
239.204	11.53
239.42	11.78
239.636	10.71
239.853	9.27
240.069	8.45
240.285	7.8
240.501	7.26
240.717	7.2
240.933	6.77
241.149	5.65
241.365	5.85
241.581	4.85
241.797	4.07
242.013	3.9
242.229	3.67
242.445	3.11
242.661	3.63
242.877	3.73
243.093	3.21
243.309	3
243.525	3.51
243.741	4.32
243.957	5.17
244.173	5.55
244.388	5.96
244.604	6.67
244.82	7.47
245.036	7.31
245.252	6.13
245.468	5.87
245.683	5.96
245.899	5.52
246.115	4.25
246.331	4.28
246.547	4.35
246.762	3.62
246.978	3.71
247.194	2.92
247.409	2.87
247.625	3.18
247.841	3.58
248.057	3.2
248.272	3.21
248.488	3.49
248.703	3.22
248.919	2.93
249.135	3.53
249.35	3.38
249.566	4.22
249.782	3.79
249.997	3.67
250.213	3.5
250.428	4.19
250.644	5.44
250.859	5.16
251.075	4.37
251.29	4.76
251.506	4.56
251.721	4.58
251.937	4.32
252.152	4.76
252.368	5.37
252.583	5.62
252.798	6.12
253.014	5.62
253.229	6.68
253.445	7.23
253.66	7.66
253.875	8.1
254.091	7.96
254.306	8.47
254.521	9.47
254.737	9.42
254.952	7.43
255.167	6.62
255.383	6.01
255.598	5.83
255.813	6.25
256.028	7.09
256.244	6.29
256.459	6.14
256.674	5.49
256.889	5.19
257.104	4.74
257.32	5.6
257.535	4.41
257.75	3.62
257.965	2.69
258.18	2.22
258.395	1.69
258.61	1.59
258.826	1.81
259.041	1.61
259.256	1.36
259.471	1.32
259.686	1.45
259.901	1.64
260.116	1.92
260.331	1.81
260.546	1.92
260.761	1.71
260.976	1.9
261.191	1.73
261.406	2.33
261.621	2.55
261.836	2.87
262.05	2.72
262.265	2.94
262.48	3.18
262.695	3.91
262.91	4.65
263.125	4.91
263.34	5.68
263.555	5.92
263.769	5.6
263.984	5.3
264.199	5.08
264.414	5.62
264.629	5.54
264.843	5.69
265.058	6.06
265.273	5.54
265.488	5.4
265.702	4.82
265.917	5.36
266.132	5.36
266.346	5.23
266.561	4.99
266.776	4.66
266.99	4.47
267.205	4.51
267.42	3.91
267.634	3.89
267.849	4.24
268.063	4.7
268.278	4.13
268.492	3.67
268.707	3.43
268.922	3.55
269.136	3.94
269.351	3.88
269.565	3.51
269.78	3.46
269.994	3.35
270.209	3.46
270.423	2.74
270.637	2.75
270.852	3.13
271.066	2.97
271.281	2.92
271.495	2.42
271.709	2.55
271.924	2.52
272.138	2.77
272.353	2.53
272.567	2.04
272.781	2.32
272.996	2.17
273.21	2.24
273.424	2.68
273.638	2.55
273.853	2.64
274.067	3.1
274.281	3.5
274.495	2.91
274.71	2.84
274.924	2.87
275.138	2.93
275.352	3.27
275.566	2.83
275.781	2.6
275.995	2.63
276.209	3.01
276.423	2.75
276.637	2.45
276.851	3.03
277.065	3.16
277.279	3.16
277.493	2.78
277.707	2.97
277.921	3.18
278.135	3.53
278.349	3.13
278.563	3.46
278.777	3.45
278.991	3.73
279.205	3.67
279.419	3.29
279.633	3.72
279.847	3.97
280.061	3.72
280.275	3.67
280.489	3.5
280.703	4.07
280.917	3.45
281.131	2.95
281.344	2.64
281.558	2.66
281.772	3.29
281.986	2.87
282.2	2.79
282.414	2.79
282.627	2.87
282.841	2.74
283.055	2.71
283.269	2.8
283.482	2.79
283.696	2.78
283.91	2.9
284.123	2.53
284.337	2.53
284.551	2.72
284.764	2.49
284.978	2.63
285.192	2.69
285.405	2.49
285.619	2.47
285.833	2.56
286.046	2.71
286.26	2.26
286.473	2.31
286.687	2.29
286.9	2.03
287.114	2.12
287.327	2.03
287.541	1.94
287.754	2.21
287.968	2.37
288.181	2.55
288.395	2.03
288.608	2.41
288.822	2.66
289.035	2.79
289.248	2.86
289.462	2.98
289.675	3.06
289.889	3.11
290.102	2.72
290.315	2.55
290.529	2.54
290.742	3.06
290.955	2.65
291.169	2.47
291.382	2.52
291.595	2.44
291.808	2.29
292.022	1.75
292.235	1.88
292.448	2.05
292.661	1.95
292.875	1.78
293.088	1.56
293.301	2.16
293.514	2.35
293.727	2.2
293.94	2.21
294.153	2.28
294.367	2.52
294.58	2.37
294.793	2.35
295.006	2.38
295.219	2.45
295.432	2.29
295.645	2.07
295.858	1.7
296.071	1.6
296.284	1.57
296.497	1.57
296.71	1.63
296.923	1.67
297.136	2.08
297.349	2.19
297.562	2.31
297.775	2.09
297.988	2.25
298.201	2.48
298.414	2.55
298.626	2.74
298.839	2.77
299.052	2.73
299.265	2.76
299.478	2.36
299.691	2.6
299.903	2.46
300.116	2.84
300.329	2.68
300.542	2.56
300.755	2.62
300.967	2.44
301.18	2.42
301.393	2.67
301.605	2.77
301.818	2.68
302.031	2.22
302.243	2.23
302.456	2.42
302.669	2.39
302.881	2.57
303.094	2.55
303.307	2.88
303.519	2.72
303.732	2.4
303.944	2.48
304.157	2.68
304.37	2.67
304.582	2.69
304.795	2.72
305.007	2.88
305.22	2.99
305.432	3.04
305.645	3.04
305.857	3.31
306.069	3.63
306.282	3.57
306.494	3.76
306.707	4.04
306.919	4.09
307.132	3.87
307.344	3.77
307.556	3.44
307.769	3.73
307.981	3.7
308.193	3.43
308.406	3.2
308.618	3.09
308.83	2.77
309.043	2.31
309.255	2.19
309.467	2.12
309.679	2.09
309.892	2.4
310.104	1.92
310.316	2.09
310.528	2.47
310.74	2.46
310.953	2.63
311.165	2.62
311.377	2.77
311.589	2.93
311.801	3.08
312.013	3.2
312.225	3.34
312.437	3.72
312.649	3.47
312.862	3.29
313.074	3.32
313.286	2.99
313.498	3.27
313.71	3.33
313.922	3.38
314.134	3.09
314.346	3.15
314.558	2.82
314.77	3.17
314.982	2.89
315.193	2.9
315.405	3.03
315.617	3.09
315.829	2.99
316.041	3.55
316.253	3.43
316.465	4.14
316.677	4.33
316.888	4.27
317.1	4.26
317.312	4.66
317.524	4.48
317.736	4.36
317.947	4.48
318.159	4.65
318.371	4.38
318.583	4.61
318.794	4.28
319.006	4.35
319.218	4.2
319.43	3.9
319.641	3.79
319.853	4.13
320.064	4.67
320.276	5.2
320.488	4.95
320.699	4.9
320.911	4.91
321.123	4.99
321.334	4.68
321.546	5.37
321.757	5.99
321.969	6.14
322.18	6.5
322.392	6.17
322.603	5.96
322.815	6.31
323.026	6.46
323.238	6.3
323.449	6.6
323.661	6.67
323.872	6.34
324.083	5.99
324.295	6.13
324.506	5.96
324.718	6.09
324.929	6.37
325.14	6.55
325.352	6.86
325.563	7.01
325.774	7.22
325.986	7.55
326.197	7.96
326.408	8.19
326.62	8.08
326.831	8.33
327.042	8.94
327.253	8.71
327.464	8.44
327.676	8.65
327.887	9.16
328.098	9.3
328.309	9.69
328.52	9.91
328.732	9.95
328.943	10.37
329.154	10.55
329.365	10.55
329.576	11.21
329.787	11.91
329.998	11.99
330.209	12.44
330.42	12.99
330.631	13.04
330.842	12.92
331.053	13.53
331.264	13.84
331.475	14.18
331.686	14.6
331.897	14.95
332.108	15.58
332.319	16.03
332.53	15.88
332.741	15.97
332.952	16.09
333.163	16.54
333.374	16.58
333.585	16.88
333.795	17.17
334.006	17.15
334.217	17.18
334.428	16.95
334.639	17.01
334.849	17.23
335.06	17.07
335.271	17.08
335.482	17.24
335.692	17.44
335.903	17.75
336.114	18
336.325	18.24
336.535	18.25
336.746	18.27
336.957	18.17
337.167	18.04
337.378	18.58
337.589	18.75
337.799	18.81
338.01	18.91
338.22	18.54
338.431	18.36
338.642	18.43
338.852	18.57
339.063	18.81
339.273	19.08
339.484	19.25
339.694	18.95
339.905	19.02
340.115	18.99
340.326	18.85
340.536	19.05
340.746	19.11
340.957	18.93
341.167	18.76
341.378	18.61
341.588	18.34
341.799	18.4
342.009	18.15
342.219	18.09
342.43	17.79
342.64	17.89
342.85	17.77
343.061	17.78
343.271	17.77
343.481	17.69
343.691	18
343.902	17.92
344.112	18.02
344.322	18.4
344.532	18.47
344.743	18.7
344.953	18.52
345.163	18.79
345.373	18.47
345.583	18.58
345.793	18.7
346.004	18.56
346.214	18.84
346.424	18.71
346.634	18.54
346.844	18.4
347.054	18.48
347.264	18.46
347.474	18.38
347.684	18.52
347.894	18.21
348.104	18.06
348.314	18.1
348.524	17.97
348.734	17.75
348.944	17.65
349.154	17.57
349.364	17.47
349.574	17.73
349.784	17.52
349.994	17.14
350.204	17.51
350.413	17.27
350.623	16.98
350.833	16.98
351.043	17.16
351.253	17.22
351.463	17.08
351.672	17.11
351.882	16.85
352.092	17.13
352.302	17.57
352.511	17.29
352.721	17.62
352.931	17.85
353.141	17.73
353.35	17.63
353.56	17.64
353.77	17.87
353.979	17.78
354.189	17.87
354.399	17.65
354.608	17.71
354.818	17.71
355.027	17.77
355.237	17.75
355.447	17.72
355.656	17.7
355.866	17.57
356.075	17.39
356.285	17.17
356.494	17.03
356.704	16.95
356.913	16.81
357.123	16.75
357.332	16.6
357.542	16.47
357.751	16.55
357.96	16.61
358.17	16.61
358.379	16.87
358.589	17.1
358.798	17.09
359.007	17.12
359.217	17.01
359.426	16.93
359.635	16.91
359.845	16.72
360.054	16.49
360.263	16.27
360.472	16.2
360.682	16.11
360.891	15.89
361.1	15.83
361.309	15.88
361.519	15.85
361.728	15.76
361.937	15.77
362.146	15.6
362.355	15.65
362.564	15.59
362.774	15.73
362.983	15.8
363.192	16.02
363.401	16.11
363.61	15.94
363.819	16.06
364.028	16.19
364.237	16.12
364.446	16.34
364.655	16.41
364.864	16.61
365.073	16.5
365.282	16.34
365.491	16.29
365.7	16.28
365.909	16.48
366.118	16.39
366.327	16.19
366.536	16.3
366.745	16.25
366.954	16.13
367.162	16.13
367.371	16.01
367.58	16.1
367.789	16.15
367.998	16.15
368.207	16.1
368.415	16.05
368.624	16.3
368.833	16.1
369.042	16.14
369.25	16.12
369.459	16.02
369.668	16.08
369.877	15.87
370.085	15.68
370.294	15.73
370.503	15.73
370.711	15.94
370.92	15.86
371.129	16.15
371.337	16.24
371.546	16.27
371.754	16.2
371.963	16.08
372.171	16.05
372.38	16.09
372.589	15.98
372.797	15.89
373.006	15.57
373.214	15.65
373.423	15.43
373.631	15.37
373.84	15.47
374.048	15.69
374.256	15.87
374.465	15.86
374.673	15.95
374.882	16.06
375.09	16.12
375.298	16.19
375.507	16.11
375.715	16.4
375.923	16.51
376.132	16.49
376.34	16.4
376.548	16.41
376.757	16.32
376.965	16.23
377.173	16.13
377.381	15.96
377.59	16.18
377.798	16.35
378.006	16.05
378.214	15.89
378.423	15.83
378.631	15.98
378.839	15.96
379.047	16.16
379.255	16.27
379.463	16.03
379.671	16.22
379.879	16.21
380.088	16.05
380.296	16.16
380.504	16.12
380.712	16.17
380.92	15.94
381.128	15.87
381.336	15.92
381.544	16
381.752	16.35
381.96	16.31
382.168	16.18
382.376	16.01
382.584	16.3
382.791	16.36
382.999	16.46
383.207	16.64
383.415	16.61
383.623	16.49
383.831	16.26
384.039	16.36
384.247	16.38
384.454	16.44
384.662	16.64
384.87	16.27
385.078	16.36
385.285	16.12
385.493	15.98
385.701	15.94
385.909	15.89
386.116	16
386.324	15.85
386.532	15.6
386.739	15.51
386.947	15.29
387.155	15.04
387.362	14.98
387.57	15.19
387.778	15.17
387.985	15.4
388.193	15.41
388.4	15.33
388.608	15.28
388.816	15.29
389.023	15.5
389.231	15.73
389.438	16.01
389.646	15.93
389.853	15.66
390.061	15.62
390.268	15.33
390.475	15.2
390.683	15.16
390.89	15.08
391.098	15.15
391.305	14.87
391.512	14.81
391.72	14.81
391.927	14.8
392.135	14.76
392.342	14.83
392.549	14.91
392.756	14.86
392.964	14.92
393.171	15.03
393.378	14.96
393.586	15.07
393.793	14.99
394	15.09
394.207	15.2
394.414	15.45
394.622	15.41
394.829	15.47
395.036	15.63
395.243	15.62
395.45	15.47
395.657	15.62
395.864	15.55
396.072	15.47
396.279	15.33
396.486	15.2
396.693	15.09
396.9	15.08
397.107	15.29
397.314	15.33
397.521	15.26
397.728	15.45
397.935	15.6
398.142	15.62
398.349	15.84
398.556	15.72
398.763	16.03
398.97	16.01
399.177	16.14
399.383	16
399.59	16.11
399.797	16.11
400.004	16.07
400.211	15.77
400.418	15.77
400.625	15.7
400.831	15.92
401.038	15.65
401.245	15.76
401.452	15.63
401.658	15.51
401.865	15.38
402.072	15.48
402.279	15.45
402.485	15.51
402.692	15.63
402.899	15.61
403.105	15.49
403.312	15.6
403.519	15.61
403.725	15.56
403.932	15.57
404.138	15.54
404.345	15.38
404.552	15.35
404.758	15.41
404.965	15.18
405.171	15.19
405.378	15.21
405.584	15.22
405.791	15.08
405.997	15.12
406.204	15.06
406.41	15.03
406.617	15.25
406.823	15.34
407.029	15.22
407.236	15.33
407.442	15.37
407.649	15.57
407.855	15.52
408.061	15.62
408.268	15.76
408.474	15.78
408.68	15.92
408.887	15.98
409.093	15.95
409.299	16.06
409.505	16.12
409.712	16.05
409.918	15.89
410.124	15.86
410.33	15.84
410.537	15.67
410.743	15.71
410.949	15.65
411.155	15.53
411.361	15.55
411.567	15.43
411.773	15.44
411.98	15.49
412.186	15.52
412.392	15.54
412.598	15.33
412.804	15.45
413.01	15.51
413.216	15.43
413.422	15.4
413.628	15.41
413.834	15.57
414.04	15.54
414.246	15.57
414.452	15.49
414.658	15.52
414.864	15.69
415.07	15.68
415.275	15.61
415.481	15.65
415.687	15.52
415.893	15.35
416.099	15.37
416.305	15.22
416.511	15.16
416.716	15.06
416.922	14.97
417.128	14.9
417.334	14.83
417.539	14.71
417.745	14.74
417.951	14.76
418.157	14.74
418.362	14.65
418.568	14.84
418.774	14.82
418.979	14.9
419.185	14.78
419.391	14.68
419.596	14.65
419.802	14.7
420.008	14.68
420.213	14.69
420.419	14.67
420.624	14.7
420.83	14.59
421.035	14.51
421.241	14.47
421.446	14.53
421.652	14.62
421.857	14.63
422.063	14.63
422.268	14.65
422.474	14.63
422.679	14.63
422.885	14.5
423.09	14.51
423.295	14.55
423.501	14.57
423.706	14.57
423.911	14.58
424.117	14.61
424.322	14.54
424.527	14.48
424.733	14.45
424.938	14.5
425.143	14.57
425.349	14.69
425.554	14.81
425.759	14.76
425.964	14.85
426.169	14.9
426.375	14.93
426.58	15.07
426.785	15.08
426.99	15.25
427.195	15.36
427.4	15.46
427.605	15.33
427.811	15.28
428.016	15.43
428.221	15.43
428.426	15.35
428.631	15.37
428.836	15.37
429.041	15.45
429.246	15.44
429.451	15.36
429.656	15.33
429.861	15.37
430.066	15.42
430.271	15.42
430.476	15.4
430.681	15.4
430.886	15.35
431.09	15.34
431.295	15.34
431.5	15.24
431.705	15.23
431.91	15.3
432.115	15.33
432.32	15.29
432.524	15.12
432.729	15.06
432.934	15.11
433.139	15.2
433.343	15.13
433.548	15.24
433.753	15.23
433.958	15.25
434.162	15.26
434.367	15.34
434.572	15.31
434.776	15.49
434.981	15.47
435.186	15.48
435.39	15.55
435.595	15.66
435.799	15.54
436.004	15.57
436.209	15.5
436.413	15.41
436.618	15.28
436.822	15.3
437.027	15.27
437.231	15.35
437.436	15.37
437.64	15.21
437.845	15.25
438.049	15.23
438.253	15.25
438.458	15.23
438.662	15.29
438.867	15.22
439.071	15.21
439.275	15.15
439.48	15.1
439.684	15.09
439.888	15.09
440.093	15.05
440.297	15
440.501	15.01
440.706	14.98
440.91	14.94
441.114	15
441.318	15.02
441.523	14.99
441.727	15.06
441.931	15.1
442.135	15.15
442.339	15.17
442.543	15.22
442.748	15.2
442.952	15.31
443.156	15.35
443.36	15.35
443.564	15.37
443.768	15.48
443.972	15.49
444.176	15.46
444.38	15.43
444.584	15.41
444.788	15.37
444.992	15.37
445.196	15.35
445.4	15.2
445.604	15.16
445.808	15.14
446.012	15.09
446.216	15
446.42	15.01
446.624	15.03
446.828	15
447.032	15.05
447.235	14.93
447.439	14.96
447.643	15.08
447.847	15.17
448.051	15.21
448.254	15.25
448.458	15.34
448.662	15.28
448.866	15.23
449.069	15.23
449.273	15.25
449.477	15.36
449.681	15.49
449.884	15.55
450.088	15.48
450.292	15.46
450.495	15.43
450.699	15.39
450.902	15.48
451.106	15.59
451.31	15.63
451.513	15.69
451.717	15.83
451.92	15.59
452.124	15.54
452.327	15.58
452.531	15.5
452.734	15.5
452.938	15.65
453.141	15.7
453.345	15.65
453.548	15.6
453.752	15.58
453.955	15.58
454.158	15.68
454.362	15.74
454.565	15.71
454.769	15.74
454.972	15.76
455.175	15.65
455.379	15.54
455.582	15.61
455.785	15.61
455.988	15.6
456.192	15.48
456.395	15.5
456.598	15.44
456.801	15.46
457.005	15.51
457.208	15.46
457.411	15.49
457.614	15.56
457.817	15.47
458.021	15.4
458.224	15.43
458.427	15.39
458.63	15.29
458.833	15.31
459.036	15.29
459.239	15.22
459.442	15.17
459.645	15.13
459.848	15.11
460.051	15.08
