Data from 2938776__Reflection_01.txt Node
Date: Fri Mar 13 13:55:06 EDT 2015
User: robert
Spectrometer: USB4E03002
Autoset integration time: false
Trigger mode: 4
Integration Time (sec): 1.000000E-1
Scans to average: 10
Electric dark correction enabled: false
Nonlinearity correction enabled: false
Boxcar width: 5
Stray light correction enabled: false
XAxis mode: Wavelengths
Stop averaging: false
Number of Pixels in Spectrum: 3648
>>>>>Begin Spectral Data<<<<<
177.575	-94.44
177.794	-235.62
178.014	-918.52
178.233	665.67
178.452	1143.24
178.672	279.55
178.891	262.2
179.11	1486.96
179.33	-595.52
179.549	-228.57
179.768	-1193.33
179.987	758.21
180.207	1996.3
180.426	729.23
180.645	-937.14
180.864	-532.26
181.084	-104.33
181.303	-113.08
181.522	-480.85
181.741	1033.33
181.96	131.43
182.179	124.4
182.398	68.79
182.618	58.15
182.837	64.94
183.056	60.92
183.275	54.34
183.494	25.73
183.713	-27.46
183.932	16.1
184.151	-15.6
184.37	-75.86
184.589	-150.56
184.808	-301.11
185.027	-33.33
185.246	-6.28
185.465	-20.63
185.684	-28.53
185.903	7.6
186.122	51.91
186.341	37.77
186.56	44.39
186.779	85.64
186.998	93.74
187.216	123.11
187.435	233.05
187.654	76.58
187.873	74.47
188.092	105.48
188.311	129.48
188.53	136.06
188.748	517.19
188.967	-979.17
189.186	160.87
189.405	135.25
189.623	101.81
189.842	95.65
190.061	157.45
190.28	188.27
190.498	131.64
190.717	125.1
190.936	130.27
191.154	104.93
191.373	123.08
191.592	106.37
191.81	99.08
192.029	87.05
192.248	84.34
192.466	62.68
192.685	68.37
192.904	70.08
193.122	48.97
193.341	73.12
193.559	72.5
193.778	68.82
193.996	87.56
194.215	488
194.433	134.58
194.652	93.92
194.87	311.7
195.089	5460
195.307	538.46
195.526	-224.3
195.744	614.89
195.963	243.72
196.181	177.27
196.399	144
196.618	141.92
196.836	191.3
197.055	269.48
197.273	327.47
197.491	844.12
197.71	801.85
197.928	187.71
198.146	242.37
198.365	224
198.583	324.24
198.801	-26.2
199.019	-14.48
199.238	-22.83
199.456	-23.41
199.674	-17.88
199.892	16.26
200.111	48.72
200.329	23.49
200.547	38.02
200.765	4.27
200.983	9.88
201.202	14.02
201.42	-166.67
201.638	-165.22
201.856	-11.34
202.074	-202.44
202.292	40.53
202.51	-14.73
202.728	-0.85
202.946	39.6
203.165	103.17
203.383	-200
203.601	91.55
203.819	-43.56
204.037	19.79
204.255	62.67
204.473	71.15
204.691	120.99
204.909	58.79
205.127	43.1
205.345	20.71
205.562	-23.41
205.78	26.8
205.998	-6.46
206.216	8.03
206.434	12.98
206.652	42.36
206.87	49.89
207.088	39.17
207.306	57.4
207.523	53.21
207.741	52.83
207.959	72.35
208.177	65.72
208.395	79.63
208.612	83.96
208.83	58.87
209.048	8.23
209.266	-330
209.483	426.47
209.701	60
209.919	257.81
210.136	2660
210.354	-97.22
210.572	99.45
210.79	42.99
211.007	80
211.225	286.44
211.442	116.67
211.66	70.9
211.878	48.74
212.095	27.57
212.313	4.81
212.53	-1.14
212.748	-8.92
212.966	0.69
213.183	-25.12
213.401	-50.5
213.618	-36.99
213.836	-75.61
214.053	-74.51
214.271	-54.09
214.488	-39.55
214.705	-36.55
214.923	-30.62
215.14	-11.52
215.358	1.6
215.575	5.14
215.793	16.33
216.01	33.9
216.227	50.79
216.445	31.1
216.662	29.47
216.879	35.71
217.097	33.68
217.314	39.09
217.531	41.56
217.749	33.3
217.966	34.88
218.183	29.13
218.4	-17.99
218.618	-1.8
218.835	18.74
219.052	11.73
219.269	11.04
219.487	-0.35
219.704	8.74
219.921	2.78
220.138	2.7
220.355	7.63
220.572	11.33
220.79	21.54
221.007	6.79
221.224	5.86
221.441	11.6
221.658	22.43
221.875	26.62
222.092	21.35
222.309	23.33
222.526	25.11
222.743	20.72
222.96	14.91
223.177	20.36
223.394	24.05
223.611	18.33
223.828	21.17
224.045	18.18
224.262	22.05
224.479	21.59
224.696	16.14
224.913	18.68
225.13	21.45
225.347	26.4
225.564	26.78
225.781	23.88
225.997	21.26
226.214	17.74
226.431	13.51
226.648	9.28
226.865	10.42
227.082	8.86
227.298	9.31
227.515	6.97
227.732	3.32
227.949	1.28
228.165	2.7
228.382	3.44
228.599	2.5
228.816	2.21
229.032	1.81
229.249	1.65
229.466	1.99
229.682	0.97
229.899	0.48
230.116	1.85
230.332	1.79
230.549	0.77
230.765	-0.07
230.982	0.73
231.199	1.1
231.415	2.1
231.632	1.51
231.848	2.74
232.065	0.15
232.281	-0.59
232.498	-1.55
232.714	0.54
232.931	2.38
233.147	3.65
233.364	3.3
233.58	2.17
233.797	2.04
234.013	1.48
234.23	-0.8
234.446	1.12
234.662	2.94
234.879	3.5
235.095	2.9
235.312	3.36
235.528	2.04
235.744	0.39
235.961	4.11
236.177	3.28
236.393	4.72
236.61	4.12
236.826	3.92
237.042	4.01
237.258	2.39
237.475	1.71
237.691	-0.39
237.907	0.51
238.123	3.66
238.339	1.95
238.556	1.47
238.772	1.11
238.988	2.48
239.204	4.27
239.42	4.67
239.636	5.95
239.853	5.67
240.069	6.33
240.285	6
240.501	5.94
240.717	5.62
240.933	5.57
241.149	5.02
241.365	4.76
241.581	3.99
241.797	3.77
242.013	3.27
242.229	3.65
242.445	3.33
242.661	3.35
242.877	3.25
243.093	3.02
243.309	3.1
243.525	2.85
243.741	3.06
243.957	3.51
244.173	3.38
244.388	3.58
244.604	3.4
244.82	3.57
245.036	3.23
245.252	2.42
245.468	2.89
245.683	3.35
245.899	3.09
246.115	2.63
246.331	2.55
246.547	2.69
246.762	2.97
246.978	2.74
247.194	2.77
247.409	3.27
247.625	3.55
247.841	3.13
248.057	2.72
248.272	2.91
248.488	3.49
248.703	3.52
248.919	3.34
249.135	3.14
249.35	3.6
249.566	3.31
249.782	2.75
249.997	3.09
250.213	4.35
250.428	5.1
250.644	5.39
250.859	4.78
251.075	4.86
251.29	4.67
251.506	5.06
251.721	4.61
251.937	4.48
252.152	4.75
252.368	4.82
252.583	4.74
252.798	4.85
253.014	5.17
253.229	5.31
253.445	4.8
253.66	5.65
253.875	5.02
254.091	5.33
254.306	6.42
254.521	6.28
254.737	6.05
254.952	5.17
255.167	4.23
255.383	3.52
255.598	2.85
255.813	3.69
256.028	2.71
256.244	2.9
256.459	2.88
256.674	1.99
256.889	1.38
257.104	1.17
257.32	1.63
257.535	1.83
257.75	2.37
257.965	2.37
258.18	2.02
258.395	2.21
258.61	2.5
258.826	2.22
259.041	2.2
259.256	2.3
259.471	2.1
259.686	1.86
259.901	1.81
260.116	1.72
260.331	2.08
260.546	2
260.761	1.89
260.976	1.56
261.191	1.68
261.406	1.63
261.621	1.44
261.836	1.29
262.05	0.78
262.265	0.64
262.48	0.28
262.695	-0.12
262.91	0
263.125	-0.19
263.34	-0.21
263.555	-0.33
263.769	-0.24
263.984	-0.31
264.199	-0.62
264.414	0.12
264.629	0.56
264.843	0.88
265.058	0.55
265.273	0.92
265.488	0.98
265.702	1.31
265.917	1.66
266.132	1.76
266.346	2
266.561	2.72
266.776	2.69
266.99	2.66
267.205	2.41
267.42	2.63
267.634	2.44
267.849	2.33
268.063	2.84
268.278	2.67
268.492	2.4
268.707	2.41
268.922	2
269.136	2.83
269.351	2.57
269.565	2.64
269.78	3.02
269.994	2.89
270.209	2.9
270.423	2.4
270.637	2.42
270.852	2.62
271.066	2.57
271.281	2.79
271.495	2.28
271.709	2.4
271.924	2.46
272.138	2.13
272.353	2.18
272.567	2.29
272.781	2.25
272.996	2.28
273.21	2.68
273.424	3.08
273.638	2.93
273.853	2.82
274.067	2.82
274.281	3.01
274.495	2.78
274.71	2.85
274.924	3.17
275.138	3.45
275.352	3.17
275.566	2.67
275.781	1.96
275.995	2.24
276.209	2.46
276.423	2.11
276.637	1.75
276.851	2.28
277.065	2.31
277.279	2.14
277.493	2.08
277.707	2.25
277.921	2.19
278.135	2.7
278.349	2.69
278.563	2.77
278.777	3.33
278.991	3.44
279.205	3.44
279.419	3.37
279.633	3.52
279.847	2.88
280.061	2.77
280.275	2.67
280.489	2.5
280.703	2.12
280.917	1.93
281.131	1.81
281.344	1.46
281.558	1.05
281.772	1.11
281.986	0.81
282.2	1.05
282.414	0.93
282.627	0.97
282.841	0.87
283.055	1.2
283.269	0.91
283.482	0.6
283.696	1
283.91	1.04
284.123	0.95
284.337	1.23
284.551	1.37
284.764	1.43
284.978	1.38
285.192	1.6
285.405	1.45
285.619	1.55
285.833	1.44
286.046	1.23
286.26	1.29
286.473	1.5
286.687	1.13
286.9	1.1
287.114	0.96
287.327	0.85
287.541	0.57
287.754	0.52
287.968	0.61
288.181	1.01
288.395	1.51
288.608	1.73
288.822	1.6
289.035	1.9
289.248	1.75
289.462	1.96
289.675	2.28
289.889	2.44
290.102	2.29
290.315	2.13
290.529	2.31
290.742	2.12
290.955	1.66
291.169	1.69
291.382	1.69
291.595	1.79
291.808	2.03
292.022	1.57
292.235	1.37
292.448	1.81
292.661	2.14
292.875	1.73
293.088	1.8
293.301	2.14
293.514	2.23
293.727	2.72
293.94	2.56
294.153	2.49
294.367	2.57
294.58	2.55
294.793	2.07
295.006	2.07
295.219	1.96
295.432	1.57
295.645	1.78
295.858	1.36
296.071	0.97
296.284	1.27
296.497	1.17
296.71	1.56
296.923	1.88
297.136	2.08
297.349	1.98
297.562	2.18
297.775	2.47
297.988	2.52
298.201	2.81
298.414	2.81
298.626	2.66
298.839	2.5
299.052	2.43
299.265	2.11
299.478	2.12
299.691	2.18
299.903	2.11
300.116	1.94
300.329	1.81
300.542	1.91
300.755	1.79
300.967	1.88
301.18	2.16
301.393	2.39
301.605	2.59
301.818	2.7
302.031	2.6
302.243	2.59
302.456	2.54
302.669	2.48
302.881	2.35
303.094	2.33
303.307	2.34
303.519	2
303.732	1.5
303.944	1.21
304.157	1.13
304.37	1.26
304.582	1.13
304.795	1.21
305.007	1.7
305.22	1.68
305.432	1.92
305.645	1.66
305.857	2
306.069	2.29
306.282	2.51
306.494	2.2
306.707	2.1
306.919	2.03
307.132	2.09
307.344	1.78
307.556	2.2
307.769	2.46
307.981	2.92
308.193	2.85
308.406	2.93
308.618	3.01
308.83	3.19
309.043	3.1
309.255	3.21
309.467	3.18
309.679	2.77
309.892	2.39
310.104	2.22
310.316	1.84
310.528	1.65
310.74	1.68
310.953	1.53
311.165	1.48
311.377	1.52
311.589	1.61
311.801	1.47
312.013	1.65
312.225	1.92
312.437	1.89
312.649	2.12
312.862	2.56
313.074	2.18
313.286	2.42
313.498	2.53
313.71	2.83
313.922	2.89
314.134	2.97
314.346	2.73
314.558	2.68
314.77	2.81
314.982	2.52
315.193	2.46
315.405	2.72
315.617	2.55
315.829	2.94
316.041	2.87
316.253	2.37
316.465	2.92
316.677	3.43
316.888	3.46
317.1	3.5
317.312	3.98
317.524	3.8
317.736	4.02
317.947	4.08
318.159	4.33
318.371	4
318.583	4.64
318.794	4.55
319.006	4.6
319.218	4.6
319.43	4.52
319.641	4.79
319.853	5.49
320.064	5.32
320.276	5.34
320.488	5.13
320.699	5.62
320.911	5.94
321.123	5.67
321.334	5.29
321.546	5.2
321.757	5.24
321.969	4.85
322.18	4.7
322.392	5.32
322.603	5.41
322.815	5.5
323.026	5.85
323.238	5.64
323.449	5.6
323.661	5.76
323.872	6.26
324.083	6.48
324.295	7.01
324.506	7.13
324.718	6.73
324.929	6.93
325.14	7.07
325.352	7
325.563	7.16
325.774	7.5
325.986	7.99
326.197	7.84
326.408	8.4
326.62	8.47
326.831	8.43
327.042	8.88
327.253	8.99
327.464	9.2
327.676	9.44
327.887	9.93
328.098	10.48
328.309	10.36
328.52	11.21
328.732	11.55
328.943	12.04
329.154	12.23
329.365	12.4
329.576	12.76
329.787	13.17
329.998	13.22
330.209	13.34
330.42	13.77
330.631	14.59
330.842	14.22
331.053	14.36
331.264	14.59
331.475	14.73
331.686	15.1
331.897	15.56
332.108	15.66
332.319	16.67
332.53	17.02
332.741	17.3
332.952	17.26
333.163	17.36
333.374	17.02
333.585	17.18
333.795	17.65
334.006	17.8
334.217	18.13
334.428	18.37
334.639	18.38
334.849	18.52
335.06	18.13
335.271	18.53
335.482	18.96
335.692	19.57
335.903	19.35
336.114	19.84
336.325	19.86
336.535	19.73
336.746	20.17
336.957	19.87
337.167	19.65
337.378	19.9
337.589	19.67
337.799	19.66
338.01	19.78
338.22	20.1
338.431	19.72
338.642	19.52
338.852	19.66
339.063	19.51
339.273	19.64
339.484	20.31
339.694	20.11
339.905	20.35
340.115	20.55
340.326	20.22
340.536	20
340.746	20.17
340.957	20.74
341.167	20.5
341.378	20.24
341.588	20.15
341.799	19.92
342.009	20.06
342.219	20.13
342.43	19.95
342.64	20.19
342.85	20.33
343.061	20.31
343.271	19.97
343.481	19.99
343.691	20.16
343.902	20.32
344.112	19.91
344.322	19.6
344.532	19.45
344.743	19.65
344.953	19.76
345.163	19.85
345.373	19.83
345.583	19.96
345.793	20.09
346.004	19.87
346.214	19.73
346.424	20.1
346.634	20.58
346.844	20.3
347.054	20.01
347.264	19.97
347.474	19.92
347.684	19.98
347.894	20.08
348.104	20.11
348.314	20.28
348.524	20.19
348.734	19.95
348.944	19.95
349.154	20.42
349.364	20.72
349.574	20.49
349.784	20.4
349.994	20.66
350.204	20.85
350.413	20.69
350.623	20.75
350.833	20.58
351.043	20.69
351.253	20.57
351.463	20.58
351.672	20.26
351.882	20.61
352.092	20.46
352.302	20.08
352.511	20.04
352.721	19.91
352.931	19.62
353.141	19.71
353.35	19.55
353.56	19.44
353.77	19.2
353.979	19.34
354.189	19.08
354.399	19.16
354.608	19.22
354.818	18.94
355.027	19.04
355.237	19.1
355.447	19.24
355.656	19.1
355.866	19.14
356.075	19.2
356.285	19.09
356.494	19.07
356.704	19.03
356.913	19
357.123	18.86
357.332	18.93
357.542	18.93
357.751	18.96
357.96	19.12
358.17	19.08
358.379	18.76
358.589	18.96
358.798	18.91
359.007	18.92
359.217	19.08
359.426	19.21
359.635	19.38
359.845	19.4
360.054	19.26
360.263	19.21
360.472	18.95
360.682	19.17
360.891	19.09
361.1	19.11
361.309	19.11
361.519	18.92
361.728	18.81
361.937	18.58
362.146	18.52
362.355	18.66
362.564	18.59
362.774	18.76
362.983	18.73
363.192	18.58
363.401	18.45
363.61	18.43
363.819	18.46
364.028	18.29
364.237	18.28
364.446	18
364.655	17.91
364.864	18.12
365.073	18.14
365.282	18.21
365.491	18.09
365.7	18.21
365.909	18.21
366.118	18.2
366.327	18.37
366.536	18.31
366.745	18.64
366.954	18.29
367.162	18.15
367.371	18.12
367.58	18.26
367.789	18.16
367.998	17.95
368.207	17.8
368.415	17.55
368.624	17.46
368.833	17.62
369.042	17.87
369.25	18.12
369.459	18.2
369.668	18.16
369.877	18.1
370.085	18.54
370.294	18.9
370.503	19.2
370.711	19.43
370.92	19.61
371.129	19.49
371.337	18.74
371.546	18.74
371.754	18.65
371.963	18.72
372.171	18.63
372.38	18.47
372.589	18.2
372.797	17.86
373.006	17.58
373.214	17.21
373.423	17.03
373.631	17.34
373.84	17.36
374.048	17.32
374.256	17.19
374.465	17.18
374.673	17.09
374.882	17.11
375.09	17.35
375.298	17.94
375.507	18.1
375.715	18.17
375.923	18.19
376.132	18.05
376.34	17.98
376.548	18.1
376.757	18.02
376.965	17.96
377.173	17.7
377.381	17.52
377.59	17.14
377.798	17.25
378.006	17.37
378.214	17.5
378.423	17.39
378.631	17.28
378.839	17.1
379.047	16.8
379.255	16.7
379.463	16.77
379.671	16.8
379.879	17.06
380.088	16.92
380.296	16.94
380.504	16.79
380.712	16.93
380.92	16.96
381.128	16.94
381.336	17
381.544	17.16
381.752	17.4
381.96	17.46
382.168	17.42
382.376	17.62
382.584	17.66
382.791	17.58
382.999	17.7
383.207	17.76
383.415	17.86
383.623	17.84
383.831	17.81
384.039	17.54
384.247	17.39
384.454	17.26
384.662	17.15
384.87	16.9
385.078	16.94
385.285	16.83
385.493	16.75
385.701	16.59
385.909	16.58
386.116	16.58
386.324	16.73
386.532	16.93
386.739	16.75
386.947	16.61
387.155	16.81
387.362	16.93
387.57	16.99
387.778	17.17
387.985	17.5
388.193	17.61
388.4	17.57
388.608	17.62
388.816	17.37
389.023	17.47
389.231	17.68
389.438	17.47
389.646	17.26
389.853	17.11
390.061	17
390.268	16.74
390.475	16.69
390.683	16.7
390.89	16.63
391.098	16.69
391.305	16.57
391.512	16.35
391.72	16.35
391.927	16.44
392.135	16.48
392.342	16.51
392.549	16.48
392.756	16.42
392.964	16.43
393.171	16.28
393.378	16.24
393.586	16.39
393.793	16.47
394	16.56
394.207	16.56
394.414	16.55
394.622	16.52
394.829	16.51
395.036	16.6
395.243	16.44
395.45	16.58
395.657	16.67
395.864	16.3
396.072	16.23
396.279	16.36
396.486	16.24
396.693	16.4
396.9	16.37
397.107	16.45
397.314	16.38
397.521	16.37
397.728	16.27
397.935	16.28
398.142	16.59
398.349	16.56
398.556	16.35
398.763	16.3
398.97	16.11
399.177	16.12
399.383	16.18
399.59	16.25
399.797	16.45
400.004	16.57
400.211	16.43
400.418	16.2
400.625	16.37
400.831	16.23
401.038	16.35
401.245	16.61
401.452	16.72
401.658	16.48
401.865	16.32
402.072	16.39
402.279	16.24
402.485	16.2
402.692	16.44
402.899	16.54
403.105	16.73
403.312	16.59
403.519	16.24
403.725	16.28
403.932	16.34
404.138	16.47
404.345	16.32
404.552	16.37
404.758	16.4
404.965	16.12
405.171	16.02
405.378	15.87
405.584	15.91
405.791	16.04
405.997	15.88
406.204	15.89
406.41	15.87
406.617	16.01
406.823	16.15
407.029	16.26
407.236	16.47
407.442	16.53
407.649	16.65
407.855	16.69
408.061	16.74
408.268	16.62
408.474	16.7
408.68	16.64
408.887	16.71
409.093	16.64
409.299	16.47
409.505	16.44
409.712	16.34
409.918	16.35
410.124	16.36
410.33	16.44
410.537	16.52
410.743	16.54
410.949	16.52
411.155	16.33
411.361	16.26
411.567	16.3
411.773	16.43
411.98	16.47
412.186	16.34
412.392	16.35
412.598	16.29
412.804	16.2
413.01	15.97
413.216	15.99
413.422	15.89
413.628	15.99
413.834	16.07
414.04	15.95
414.246	15.9
414.452	15.97
414.658	16.08
414.864	15.99
415.07	16.08
415.275	16.11
415.481	16.18
415.687	16.33
415.893	16.25
416.099	16.13
416.305	16.08
416.511	16.09
416.716	16.05
416.922	16
417.128	15.9
417.334	15.83
417.539	15.83
417.745	15.89
417.951	15.7
418.157	15.71
418.362	15.73
418.568	15.72
418.774	15.7
418.979	15.77
419.185	15.75
419.391	15.7
419.596	15.86
419.802	15.94
420.008	15.82
420.213	15.32
420.419	15.26
420.624	15.21
420.83	15.26
421.035	15.3
421.241	15.17
421.446	15.19
421.652	15.34
421.857	15.31
422.063	15.25
422.268	15.31
422.474	15.83
422.679	15.87
422.885	15.9
423.09	15.82
423.295	15.74
423.501	15.8
423.706	15.77
423.911	15.7
424.117	15.68
424.322	15.71
424.527	15.66
424.733	15.7
424.938	15.69
425.143	15.75
425.349	15.83
425.554	15.89
425.759	15.91
425.964	15.88
426.169	15.9
426.375	15.79
426.58	15.78
426.785	15.84
426.99	15.81
427.195	15.89
427.4	15.85
427.605	15.88
427.811	15.85
428.016	15.85
428.221	15.88
428.426	15.83
428.631	15.83
428.836	15.8
429.041	15.64
429.246	15.58
429.451	15.61
429.656	15.65
429.861	15.69
430.066	15.72
430.271	15.79
430.476	15.85
430.681	15.89
430.886	15.92
431.09	15.93
431.295	16.25
431.5	16.33
431.705	16.26
431.91	16.15
432.115	16.06
432.32	16.11
432.524	16.18
432.729	16.25
432.934	16.32
433.139	16.35
433.343	16.41
433.548	16.3
433.753	16.43
433.958	16.51
434.162	16.61
434.367	16.59
434.572	16.59
434.776	16.54
434.981	16.57
435.186	16.61
435.39	16.7
435.595	16.66
435.799	16.58
436.004	16.46
436.209	16.43
436.413	16.51
436.618	16.52
436.822	16.46
437.027	16.42
437.231	16.27
437.436	16.22
437.64	16.11
437.845	16.13
438.049	16.19
438.253	16.13
438.458	16.05
438.662	15.94
438.867	16.02
439.071	16.03
439.275	16.13
439.48	16.19
439.684	16.24
439.888	16.36
440.093	16.31
440.297	16.26
440.501	16.26
440.706	16.34
440.91	16.38
441.114	16.33
441.318	16.35
441.523	16.33
441.727	16.28
441.931	16.21
442.135	16.23
442.339	16.33
442.543	16.32
442.748	16.33
442.952	16.3
443.156	16.38
443.36	16.47
443.564	16.38
443.768	16.38
443.972	16.36
444.176	16.33
444.38	16.25
444.584	16.18
444.788	16.29
444.992	16.29
445.196	16.24
445.4	16.23
445.604	16.19
445.808	16.26
446.012	16.19
446.216	16.28
446.42	16.35
446.624	16.28
446.828	16.37
447.032	16.32
447.235	16.31
447.439	16.35
447.643	16.31
447.847	16.32
448.051	16.35
448.254	16.41
448.458	16.28
448.662	16.25
448.866	16.3
449.069	16.27
449.273	16.28
449.477	16.31
449.681	16.32
449.884	16.26
450.088	16.24
450.292	16.31
450.495	16.3
450.699	16.42
450.902	16.43
451.106	16.39
451.31	16.48
451.513	16.53
451.717	16.55
451.92	16.45
452.124	16.41
452.327	16.35
452.531	16.35
452.734	16.34
452.938	16.33
453.141	16.34
453.345	16.47
453.548	16.39
453.752	16.28
453.955	16.21
454.158	16.32
454.362	16.4
454.565	16.5
454.769	16.43
454.972	16.38
455.175	16.4
455.379	16.42
455.582	16.39
455.785	16.37
455.988	16.35
456.192	16.42
456.395	16.29
456.598	16.32
456.801	16.22
457.005	16.33
457.208	16.24
457.411	16.3
457.614	16.2
457.817	16.07
458.021	16.05
458.224	16.18
458.427	16.11
458.63	16.12
458.833	16.09
459.036	16.06
459.239	16.02
459.442	16.06
459.645	16
459.848	15.92
460.051	15.93
460.254	15.94
460.457	15.87
460.66	15.87
460.863	15.9
461.066	15.91
461.269	16
461.472	15.94
461.675	16.05
461.878	15.99
462.081	16.13
462.284	16.34
462.486	16.31
462.689	16.43
