Data from 2938727__Reflection_01.txt Node
Date: Sun Mar 15 19:30:31 EDT 2015
User: robert
Spectrometer: USB4E03002
Autoset integration time: false
Trigger mode: 4
Integration Time (sec): 1.000000E-1
Scans to average: 10
Electric dark correction enabled: false
Nonlinearity correction enabled: false
Boxcar width: 5
Stray light correction enabled: false
XAxis mode: Wavelengths
Stop averaging: false
Number of Pixels in Spectrum: 3648
>>>>>Begin Spectral Data<<<<<
177.575	-617.5
177.794	-18500
178.014	532.81
178.233	-2762.5
178.452	-434
178.672	-146.67
178.891	21.54
179.11	74.09
179.33	58.96
179.549	33.33
179.768	60
179.987	228.57
180.207	248.05
180.426	1377.14
180.645	1557.14
180.864	-7116.67
181.084	-243.52
181.303	-49.56
181.522	-7.56
181.741	-64.71
181.96	-60.17
182.179	-120.24
182.398	176.27
182.618	-39.64
182.837	-26.61
183.056	-130.73
183.275	-190.58
183.494	-10.57
183.713	14.33
183.932	0.82
184.151	-115.73
184.37	-29.63
184.589	-55.13
184.808	-79.22
185.027	44.85
185.246	8.84
185.465	36.3
185.684	20.33
185.903	21.15
186.122	-22.29
186.341	9.45
186.56	4.1
186.779	-3.25
186.998	-30.09
187.216	2.82
187.435	-68.06
187.654	-154.35
187.873	-333.8
188.092	422.86
188.311	-95.79
188.53	51.22
188.748	3.85
188.967	25.09
189.186	38.75
189.405	71.97
189.623	105.77
189.842	42.16
190.061	41.82
190.28	67.03
190.498	77.9
190.717	113.6
190.936	48.97
191.154	71.54
191.373	82.04
191.592	105.03
191.81	28.9
192.029	-3.73
192.248	28
192.466	26.69
192.685	-55.23
192.904	-97.05
193.122	-144.84
193.341	-86.73
193.559	-148.74
193.778	-163.71
193.996	-43.57
194.215	-58.87
194.433	-34.79
194.652	-46.97
194.87	-70.51
195.089	5.62
195.307	-20.66
195.526	-52.79
195.744	-104.85
195.963	-148.15
196.181	-683.33
196.399	-419.28
196.618	1440
196.836	787.5
197.055	-334.85
197.273	-184.21
197.491	-405.19
197.71	784.62
197.928	-507.14
198.146	151.25
198.365	-1900
198.583	-150
198.801	-438.89
199.019	0
199.238	-35.37
199.456	-49.5
199.674	-66.77
199.892	-88.63
200.111	-300
200.329	-27.58
200.547	21.55
200.765	6.15
200.983	0
201.202	-0.7
201.42	-9.22
201.638	7.89
201.856	42.53
202.074	86.71
202.292	90.18
202.51	105.18
202.728	99.21
202.946	67.81
203.165	71.99
203.383	57.94
203.601	51.14
203.819	107.65
204.037	118.25
204.255	40.85
204.473	9.36
204.691	-25.93
204.909	-28.73
205.127	-2.03
205.345	2.34
205.562	29.1
205.78	25.19
205.998	43.96
206.216	23.29
206.434	20.73
206.652	33.39
206.87	23.56
207.088	37.88
207.306	47.75
207.523	40.58
207.741	47.96
207.959	-23.51
208.177	2.89
208.395	-39.09
208.612	-72.61
208.83	-136.75
209.048	-49.07
209.266	-11.48
209.483	-133.76
209.701	-124.59
209.919	-136.77
210.136	-16.38
210.354	-7.77
210.572	-65.25
210.79	-82.89
211.007	-107.22
211.225	-85.84
211.442	-115.8
211.66	-76.87
211.878	-24.24
212.095	20.39
212.313	-15.91
212.53	-49.73
212.748	-60.08
212.966	-16.08
213.183	-2.86
213.401	10.44
213.618	13.45
213.836	28.01
214.053	29.15
214.271	15.37
214.488	-13.38
214.705	22.84
214.923	28.45
215.14	33.43
215.358	30.97
215.575	27.18
215.793	3.39
216.01	7.22
216.227	-4.87
216.445	-9.9
216.662	-13.15
216.879	-6.46
217.097	1.8
217.314	13.71
217.531	1.98
217.749	2.25
217.966	-53.09
218.183	-72.59
218.4	-41.85
218.618	-38.13
218.835	-43.46
219.052	-47.45
219.269	-52.44
219.487	-59.71
219.704	-49.24
219.921	-46.4
220.138	-38.78
220.355	-12.17
220.572	-3.26
220.79	-19.74
221.007	-10.39
221.224	-1.75
221.441	-15.71
221.658	-22.57
221.875	-15.47
222.092	-20.25
222.309	-11
222.526	-12.31
222.743	-6.51
222.96	-3.54
223.177	2.06
223.394	1.45
223.611	-5.7
223.828	-0.06
224.045	3.15
224.262	3.51
224.479	3.84
224.696	-0.5
224.913	8.57
225.13	2.17
225.347	-4.97
225.564	-6.51
225.781	-13.88
225.997	-18.5
226.214	-9
226.431	-4.19
226.648	-3.72
226.865	-4.99
227.082	-3.45
227.298	-6.06
227.515	-3.28
227.732	-0.96
227.949	-0.64
228.165	2.18
228.382	3.49
228.599	3
228.816	2.41
229.032	3.01
229.249	2.95
229.466	1.92
229.682	1.69
229.899	1.66
230.116	1.54
230.332	1.44
230.549	-0.23
230.765	-0.83
230.982	-1.5
231.199	-1.09
231.415	-2.44
231.632	-2.01
231.848	-2.74
232.065	-1.82
232.281	-3.37
232.498	-3.24
232.714	-1.09
232.931	-1.37
233.147	-0.09
233.364	-1.59
233.58	-1.1
233.797	-1.8
234.013	-0.44
234.23	1.11
234.446	-1.04
234.662	-0.15
234.879	-1.61
235.095	-5.24
235.312	-3.19
235.528	-3.35
235.744	-2.4
235.961	-3.09
236.177	-3.37
236.393	-4.65
236.61	-4.76
236.826	-3.42
237.042	-1.28
237.258	1.04
237.475	5.42
237.691	4.72
237.907	3.62
238.123	2.82
238.339	2.13
238.556	4.96
238.772	5.04
238.988	5.77
239.204	6.48
239.42	5.13
239.636	5.93
239.853	4.72
240.069	2.46
240.285	4.08
240.501	4.91
240.717	6.34
240.933	5.95
241.149	5.48
241.365	5.71
241.581	4.69
241.797	4.48
242.013	3.44
242.229	3.32
242.445	4.43
242.661	4.4
242.877	4.04
243.093	3.37
243.309	2.32
243.525	2.83
243.741	2.35
243.957	3.06
244.173	3.6
244.388	4.66
244.604	4.66
244.82	4.17
245.036	4.22
245.252	5.37
245.468	5.65
245.683	6.26
245.899	5.76
246.115	5.09
246.331	5.5
246.547	5.63
246.762	5.63
246.978	5.41
247.194	5.65
247.409	5.73
247.625	5.92
247.841	6.01
248.057	5.77
248.272	5.86
248.488	6.19
248.703	5.85
248.919	5.25
249.135	4.93
249.35	4.93
249.566	4.86
249.782	4.77
249.997	2.97
250.213	2.47
250.428	2.67
250.644	3.16
250.859	2.97
251.075	2.52
251.29	2.64
251.506	2.46
251.721	3.87
251.937	3.09
252.152	2.69
252.368	3.35
252.583	3.31
252.798	3.17
253.014	2.79
253.229	3.05
253.445	2.72
253.66	3.04
253.875	2.93
254.091	1.97
254.306	2.35
254.521	1.06
254.737	1.06
254.952	0.3
255.167	0.4
255.383	1
255.598	0.79
255.813	1.79
256.028	1.47
256.244	1.28
256.459	-0.1
256.674	-0.15
256.889	0.18
257.104	-0.1
257.32	1.21
257.535	1.66
257.75	1.19
257.965	1.25
258.18	1.81
258.395	2.01
258.61	3.08
258.826	3.71
259.041	3.69
259.256	4.2
259.471	4.24
259.686	4.07
259.901	3.77
260.116	3.68
260.331	3.74
260.546	3.45
260.761	3.36
260.976	2.84
261.191	2.34
261.406	2.54
261.621	2.2
261.836	1.77
262.05	1.72
262.265	1.56
262.48	1.3
262.695	1.02
262.91	1.39
263.125	1.4
263.34	1.28
263.555	2.03
263.769	1.71
263.984	1.21
264.199	1.96
264.414	2.16
264.629	1.89
264.843	1.95
265.058	2.77
265.273	2.41
265.488	2.62
265.702	2.86
265.917	2.66
266.132	2.27
266.346	2.45
266.561	3.12
266.776	2.81
266.99	3.3
267.205	3.51
267.42	2.82
267.634	2.56
267.849	2.54
268.063	2.53
268.278	2.71
268.492	3.11
268.707	3.46
268.922	3.14
269.136	2.5
269.351	2.48
269.565	2.95
269.78	3.31
269.994	3.77
270.209	4.01
270.423	4.14
270.637	3.91
270.852	4.29
271.066	3.98
271.281	4.07
271.495	4.36
271.709	4.04
271.924	3.95
272.138	3.53
272.353	3.25
272.567	2.97
272.781	2.9
272.996	2.69
273.21	2.1
273.424	1.81
273.638	1.27
273.853	1.21
274.067	1.38
274.281	0.97
274.495	1.13
274.71	1.33
274.924	1.09
275.138	0.68
275.352	1.42
275.566	1.57
275.781	2.01
275.995	2.39
276.209	2.28
276.423	2.23
276.637	1.98
276.851	1.44
277.065	1.48
277.279	1.54
277.493	1.94
277.707	0.77
277.921	0.67
278.135	0.44
278.349	-0.08
278.563	0.25
278.777	-0.11
278.991	0.44
279.205	1.65
279.419	1.39
279.633	1.66
279.847	1.58
280.061	2.23
280.275	2
280.489	2.27
280.703	2.32
280.917	2.13
281.131	2.54
281.344	2.34
281.558	1.98
281.772	1.66
281.986	2.02
282.2	1.78
282.414	2.06
282.627	2.57
282.841	2.59
283.055	2.49
283.269	2.8
283.482	2.79
283.696	2.52
283.91	2.56
284.123	3.03
284.337	2.91
284.551	2.91
284.764	2.55
284.978	2.25
285.192	1.94
285.405	2.22
285.619	1.82
285.833	1.93
286.046	2.12
286.26	1.73
286.473	1.55
286.687	1.34
286.9	1.72
287.114	1.95
287.327	2.02
287.541	2.41
287.754	2.2
287.968	2.11
288.181	1.98
288.395	2.62
288.608	3.4
288.822	3.68
289.035	3.85
289.248	3.39
289.462	3.59
289.675	3.82
289.889	3.97
290.102	4.29
290.315	4.71
290.529	4.78
290.742	4.63
290.955	4.45
291.169	4.36
291.382	4.47
291.595	4.71
291.808	4.57
292.022	4.1
292.235	3.8
292.448	3.48
292.661	3.05
292.875	2.93
293.088	2.72
293.301	2.6
293.514	2.24
293.727	1.59
293.94	1.81
294.153	1.68
294.367	1.99
294.58	2.28
294.793	2.43
295.006	2.9
295.219	2.94
295.432	3.18
295.645	3.38
295.858	4.02
296.071	4.69
296.284	4.66
296.497	4.85
296.71	5
296.923	5.18
297.136	5.31
297.349	5.15
297.562	5.25
297.775	5.01
297.988	5.02
298.201	4.7
298.414	4.29
298.626	4.57
298.839	4.33
299.052	4.48
299.265	4.42
299.478	4.3
299.691	4.48
299.903	4.74
300.116	4.72
300.329	4.76
300.542	5.08
300.755	5.26
300.967	5.09
301.18	5.42
301.393	5.33
301.605	4.93
301.818	5.24
302.031	4.94
302.243	4.41
302.456	4.89
302.669	4.51
302.881	4.14
303.094	4.08
303.307	3.85
303.519	3.85
303.732	3.94
303.944	4.06
304.157	4.2
304.37	4.89
304.582	5.26
304.795	4.97
305.007	5.34
305.22	5.88
305.432	6.11
305.645	6.62
305.857	6.55
306.069	6.47
306.282	6.62
306.494	6.78
306.707	6.06
306.919	5.96
307.132	6.24
307.344	6.59
307.556	6.67
307.769	6.85
307.981	6.62
308.193	6.47
308.406	6.63
308.618	6.58
308.83	6.42
309.043	6.58
309.255	6.79
309.467	6.76
309.679	6.66
309.892	6.33
310.104	5.94
310.316	6.01
310.528	6.21
310.74	6.31
310.953	6.42
311.165	6.13
311.377	6.28
311.589	6.27
311.801	6.32
312.013	6.14
312.225	6.44
312.437	7
312.649	6.86
312.862	6.87
313.074	6.88
313.286	6.94
313.498	7.3
313.71	7.51
313.922	7.59
314.134	7.62
314.346	7.86
314.558	7.18
314.77	6.86
314.982	7.2
315.193	7.55
315.405	7.24
315.617	7.55
315.829	7.56
316.041	7.63
316.253	7.48
316.465	7.31
316.677	7.47
316.888	7.9
317.1	7.48
317.312	7.13
317.524	6.46
317.736	7.04
317.947	6.42
318.159	6.69
318.371	6.32
318.583	6.87
318.794	6.77
319.006	6.4
319.218	6.68
319.43	7.31
319.641	8.03
319.853	8.35
320.064	8.1
320.276	8.35
320.488	8.09
320.699	8.27
320.911	8.1
321.123	8.11
321.334	7.51
321.546	7.59
321.757	6.92
321.969	6.52
322.18	6.15
322.392	6.15
322.603	6.02
322.815	6.39
323.026	6.39
323.238	5.88
323.449	6.03
323.661	7.03
323.872	7.16
324.083	7.43
324.295	7.49
324.506	7.89
324.718	8.13
324.929	8.76
325.14	8.34
325.352	8.54
325.563	9.23
325.774	9.36
325.986	9.27
326.197	9.21
326.408	9.18
326.62	9.23
326.831	9.31
327.042	9.06
327.253	9.28
327.464	9.38
327.676	9.53
327.887	9.7
328.098	9.8
328.309	9.98
328.52	10.05
328.732	10.67
328.943	10.51
329.154	10.33
329.365	10.48
329.576	9.71
329.787	9.83
329.998	9.76
330.209	8.82
330.42	9.07
330.631	9.07
330.842	9.29
331.053	8.63
331.264	8.87
331.475	9.23
331.686	9.09
331.897	9.41
332.108	9.25
332.319	9.43
332.53	10.11
332.741	10.06
332.952	10.15
333.163	9.98
333.374	10.16
333.585	10.05
333.795	10.07
334.006	10.03
334.217	10.22
334.428	10.38
334.639	9.79
334.849	9.25
335.06	9.35
335.271	9.13
335.482	9.15
335.692	9.41
335.903	9.16
336.114	9.06
336.325	9.15
336.535	8.9
336.746	8.98
336.957	9.5
337.167	9.59
337.378	8.94
337.589	9.1
337.799	8.98
338.01	9.08
338.22	9.44
338.431	9.92
338.642	10.05
338.852	9.96
339.063	9.87
339.273	9.19
339.484	9.07
339.694	9.64
339.905	9.26
340.115	9.73
340.326	9.51
340.536	9.4
340.746	8.76
340.957	8.35
341.167	8.51
341.378	8.83
341.588	9.44
341.799	9.53
342.009	9.1
342.219	9.42
342.43	9.42
342.64	9.34
342.85	9.14
343.061	9.52
343.271	9.68
343.481	9.7
343.691	9.41
343.902	9.49
344.112	9.8
344.322	10.1
344.532	9.92
344.743	9.51
344.953	9.69
345.163	10.18
345.373	9.9
345.583	9.79
345.793	9.59
346.004	9.37
346.214	9.14
346.424	9.04
346.634	8.85
346.844	8.85
347.054	8.65
347.264	8.93
347.474	8.57
347.684	8.49
347.894	8.66
348.104	8.78
348.314	8.76
348.524	8.84
348.734	8.71
348.944	8.93
349.154	9.06
349.364	9.11
349.574	8.4
349.784	8.28
349.994	8.57
350.204	8.69
350.413	8.59
350.623	9.09
350.833	9.02
351.043	9.08
351.253	8.7
351.463	8.05
351.672	8.16
351.882	8.25
352.092	8.53
352.302	8.58
352.511	8.29
352.721	8.2
352.931	7.88
353.141	7.75
353.35	7.66
353.56	7.82
353.77	8.31
353.979	8.62
354.189	8.76
354.399	8.76
354.608	8.41
354.818	8.51
355.027	8.85
355.237	8.74
355.447	8.8
355.656	8.85
355.866	8.86
356.075	8.95
356.285	8.51
356.494	8.47
356.704	8.05
356.913	8.33
357.123	8.24
357.332	8.31
357.542	8.33
357.751	8.38
357.96	8.49
358.17	8.49
358.379	8.49
358.589	8.58
358.798	8.73
359.007	8.98
359.217	8.79
359.426	8.9
359.635	8.79
359.845	9.09
360.054	8.87
360.263	8.52
360.472	8.4
360.682	8.37
360.891	8.38
361.1	8.29
361.309	8.2
361.519	8.18
361.728	8.34
361.937	8.24
362.146	8.01
362.355	8.05
362.564	8.41
362.774	8.38
362.983	8.24
363.192	8.21
363.401	8.24
363.61	8.36
363.819	8.5
364.028	8.3
364.237	8.29
364.446	8.22
364.655	8.39
364.864	8
365.073	8.15
365.282	8.3
365.491	8.23
365.7	8.12
365.909	8.16
366.118	8.16
366.327	7.94
366.536	7.88
366.745	8.03
366.954	7.62
367.162	7.72
367.371	7.62
367.58	7.3
367.789	7.53
367.998	7.41
368.207	7.44
368.415	7.51
368.624	7.58
368.833	7.56
369.042	7.28
369.25	7.54
369.459	7.3
369.668	7.37
369.877	7.81
370.085	7.64
370.294	8.04
370.503	7.9
370.711	7.73
370.92	7.96
371.129	7.99
371.337	8.15
371.546	8.28
371.754	8.39
371.963	8.11
372.171	7.5
372.38	7.37
372.589	6.84
372.797	6.87
373.006	6.88
373.214	6.7
373.423	6.5
373.631	6.39
373.84	6.36
374.048	6.62
374.256	6.66
374.465	7.03
374.673	7.25
374.882	7.46
375.09	7.28
375.298	7.09
375.507	7.15
375.715	7.05
375.923	7.11
376.132	6.82
376.34	6.59
376.548	6.51
376.757	6.63
376.965	6.74
377.173	6.78
377.381	6.73
377.59	6.79
377.798	6.65
378.006	7.03
378.214	7.05
378.423	7.25
378.631	7.26
378.839	7.69
379.047	7.37
379.255	7.05
379.463	6.97
379.671	7.1
379.879	7.12
380.088	7.22
380.296	6.95
380.504	6.88
380.712	7.06
380.92	6.92
381.128	6.67
381.336	6.84
381.544	7.07
381.752	7.16
381.96	7.02
382.168	7.03
382.376	7.02
382.584	7.14
382.791	7.29
382.999	6.93
383.207	6.82
383.415	6.63
383.623	6.92
383.831	6.79
384.039	6.88
384.247	7.01
384.454	6.85
384.662	6.99
384.87	6.95
385.078	6.99
385.285	7.07
385.493	7.26
385.701	7.37
385.909	7.12
386.116	7.12
386.324	7.1
386.532	6.84
386.739	6.89
386.947	6.71
387.155	6.57
387.362	6.43
387.57	6.54
387.778	6.27
387.985	6.42
388.193	6.36
388.4	6.54
388.608	6.26
388.816	6.48
389.023	6.53
389.231	6.47
389.438	6.47
389.646	6.41
389.853	6.32
390.061	6.59
390.268	6.56
390.475	6.51
390.683	6.06
390.89	6.07
391.098	6.06
391.305	6.07
391.512	6.11
391.72	6.15
391.927	6.23
392.135	6.2
392.342	6.22
392.549	6.11
392.756	6.26
392.964	6.32
393.171	6.3
393.378	6.21
393.586	6.19
393.793	6.2
394	6.08
394.207	5.95
394.414	5.99
394.622	6.03
394.829	6.08
395.036	5.88
395.243	5.82
395.45	5.96
395.657	5.83
395.864	5.8
396.072	5.62
396.279	5.78
396.486	5.96
396.693	5.94
396.9	5.77
397.107	5.95
397.314	5.86
397.521	6.02
397.728	6.03
397.935	6.23
398.142	6.21
398.349	6.34
398.556	6.25
398.763	6.17
398.97	6.15
399.177	6.16
399.383	5.99
399.59	6.14
399.797	6.15
400.004	6.06
400.211	6.02
400.418	6.06
400.625	5.9
400.831	5.92
401.038	6.03
401.245	5.99
401.452	6.13
401.658	6.04
401.865	6.05
402.072	6
402.279	5.99
402.485	5.9
402.692	5.77
402.899	5.71
403.105	5.57
403.312	5.3
403.519	5.37
403.725	5.3
403.932	5.27
404.138	5.36
404.345	5.55
404.552	5.63
404.758	5.65
404.965	5.69
405.171	6
405.378	6.29
405.584	6.25
405.791	6.33
405.997	6.28
406.204	6.35
406.41	6.23
406.617	6
406.823	6.03
407.029	5.91
407.236	6
407.442	5.93
407.649	5.88
407.855	6.2
408.061	6.12
408.268	6.25
408.474	6.33
408.68	6.52
408.887	6.84
409.093	6.87
409.299	7.07
409.505	7.15
409.712	6.95
409.918	6.87
410.124	6.53
410.33	6.46
410.537	6.51
410.743	6.63
410.949	6.52
411.155	6.26
411.361	6.06
411.567	6.01
411.773	5.93
411.98	6.17
412.186	6.13
412.392	6.37
412.598	6.45
412.804	6.36
413.01	6.06
413.216	5.91
413.422	6.07
413.628	6.02
413.834	6.02
414.04	6.02
414.246	6.09
414.452	6.31
414.658	6.37
414.864	6.14
415.07	6.08
415.275	6.12
415.481	6.12
415.687	6
415.893	6.09
416.099	5.96
416.305	5.93
416.511	5.92
416.716	5.78
416.922	5.75
417.128	5.92
417.334	6
417.539	6.08
417.745	6.18
417.951	6.24
418.157	6.35
418.362	6.45
418.568	6.44
418.774	6.41
418.979	6.4
419.185	6.35
419.391	6.38
419.596	6.45
419.802	6.41
420.008	6.51
420.213	6.56
420.419	6.56
420.624	6.59
420.83	6.68
421.035	6.69
421.241	6.64
421.446	6.73
421.652	6.8
421.857	6.76
422.063	6.8
422.268	6.79
422.474	6.69
422.679	6.69
422.885	6.71
423.09	6.6
423.295	6.59
423.501	6.61
423.706	6.59
423.911	6.57
424.117	6.56
424.322	6.59
424.527	6.51
424.733	6.55
424.938	6.56
425.143	6.62
425.349	6.7
425.554	6.69
425.759	6.67
425.964	6.72
426.169	6.71
426.375	6.7
426.58	6.75
426.785	6.75
426.99	6.97
427.195	7.01
427.4	6.97
427.605	6.97
427.811	7.03
428.016	7.06
428.221	7.08
428.426	7.08
428.631	7.04
428.836	6.89
429.041	7
429.246	6.75
429.451	6.76
429.656	6.63
429.861	6.6
430.066	6.6
430.271	6.68
430.476	6.67
430.681	6.57
430.886	6.7
431.09	6.79
431.295	6.78
431.5	6.83
431.705	6.8
431.91	6.89
432.115	6.92
432.32	6.94
432.524	6.93
432.729	6.93
432.934	7.05
433.139	7.02
433.343	6.94
433.548	6.9
433.753	6.8
433.958	6.78
434.162	6.95
434.367	7.08
434.572	7.06
434.776	7.17
434.981	7.09
435.186	7.14
435.39	7.19
435.595	7.31
435.799	7.29
436.004	7.57
436.209	7.51
436.413	7.41
436.618	7.31
436.822	7.34
437.027	7.28
437.231	7.36
437.436	7.23
437.64	7.25
437.845	7.32
438.049	7.38
438.253	7.21
438.458	7.34
438.662	7.25
438.867	7.22
439.071	7.22
439.275	7.26
439.48	7.27
439.684	7.23
439.888	7.06
440.093	6.95
440.297	7.04
440.501	7.06
440.706	7.06
440.91	7.14
441.114	7.12
441.318	7.11
441.523	7.05
441.727	6.99
441.931	7.13
442.135	7.28
442.339	7.33
442.543	7.32
442.748	7.29
442.952	7.24
443.156	7.14
443.36	7.2
443.564	7.27
443.768	7.36
443.972	7.45
444.176	7.39
444.38	7.31
444.584	7.42
444.788	7.39
444.992	7.48
445.196	7.49
445.4	7.58
445.604	7.62
445.808	7.54
446.012	7.56
446.216	7.46
446.42	7.49
446.624	7.58
446.828	7.44
447.032	7.48
447.235	7.47
447.439	7.43
447.643	7.41
447.847	7.44
448.051	7.53
448.254	7.46
448.458	7.45
448.662	7.47
448.866	7.41
449.069	7.56
449.273	7.55
449.477	7.53
449.681	7.57
449.884	7.59
450.088	7.42
450.292	7.27
450.495	7.27
450.699	7.27
450.902	7.12
451.106	7.15
451.31	7.04
451.513	6.96
451.717	6.96
451.92	6.99
452.124	6.94
452.327	6.98
452.531	7
452.734	7.05
452.938	7.27
453.141	7.28
453.345	7.13
453.548	7.08
453.752	7.08
453.955	7.02
454.158	6.97
454.362	7.13
454.565	7.11
454.769	7.22
454.972	7.17
455.175	6.98
455.379	7
455.582	7.07
455.785	7.23
455.988	7.16
456.192	7.24
456.395	7.26
456.598	7.12
456.801	7.22
457.005	7.07
457.208	7.06
457.411	7.21
457.614	7.22
457.817	7.32
458.021	7.31
458.224	7.38
458.427	7.43
458.63	7.55
458.833	7.57
459.036	7.52
459.239	7.51
459.442	7.5
459.645	7.42
459.848	7.45
460.051	7.4
460.254	7.46
460.457	7.48
460.66	7.39
460.863	7.31
461.066	7.25
461.269	7.29
461.472	7.32
461.675	7.33
461.878	7.39
462.081	7.37
462.284	7.49
462.486	7.26
462.689	7.13
462.892	7.2
463.095	7.21
463.298	7.23
463.5	7.23
463.703	7.18
463.906	7.05
464.109	6.98
464.311	6.89
464.514	6.86
464.717	6.88
464.92	6.94
465.122	6.99
465.325	6.97
465.528	6.97
465.73	6.97
465.933	7.03
466.135	7.23
466.338	7.42
466.541	7.53
466.743	7.45
466.946	7.6
467.148	7.61
467.351	7.48
467.553	7.45
467.756	7.55
467.958	7.46
468.161	7.47
468.363	7.39
468.566	7.23
468.768	7.23
468.971	7.3
469.173	7.21
469.375	7.2
469.578	7.25
469.78	7.48
469.983	7.53
470.185	7.6
470.387	7.74
470.59	7.73
