Data from 2938826__Reflection_01.txt Node
Date: Thu Mar 12 13:34:16 EDT 2015
User: robert
Spectrometer: USB4E03002
Autoset integration time: false
Trigger mode: 4
Integration Time (sec): 1.000000E-1
Scans to average: 10
Electric dark correction enabled: false
Nonlinearity correction enabled: false
Boxcar width: 5
Stray light correction enabled: false
XAxis mode: Wavelengths
Stop averaging: false
Number of Pixels in Spectrum: 3648
>>>>>Begin Spectral Data<<<<<
177.575	-1098.53
177.794	-2638.67
178.014	-5548.84
178.233	-2324.35
178.452	-2013.42
178.672	-2209.49
178.891	-2985.25
179.11	-4586.59
179.33	6470
179.549	-3822.55
179.768	-3303.97
179.987	3572.88
180.207	2047.06
180.426	2512.57
180.645	1997.7
180.864	941.77
181.084	643.67
181.303	743.09
181.522	635.53
181.741	775.47
181.96	677.35
182.179	602.09
182.398	575.66
182.618	755.94
182.837	824.64
183.056	798.92
183.275	1340.67
183.494	2877.14
183.713	1670.33
183.932	4950.6
184.151	-3854.46
184.37	-5300
184.589	-2206.47
184.808	-2256.14
185.027	-9075.61
185.246	4419.28
185.465	3203.45
185.684	2169.59
185.903	1791.63
186.122	1742.49
186.341	990.87
186.56	556.83
186.779	674.55
186.998	604.22
187.216	580.32
187.435	697.8
187.654	725.68
187.873	646.68
188.092	634.45
188.311	641.8
188.53	553.86
188.748	633.23
188.967	818.75
189.186	665.49
189.405	682.79
189.623	851.68
189.842	654.68
190.061	719.26
190.28	678.86
190.498	543.9
190.717	562.67
190.936	763.92
191.154	880.4
191.373	947.1
191.592	779.18
191.81	839.66
192.029	688.93
192.248	1195.83
192.466	1552.69
192.685	3293.55
192.904	-9894.87
193.122	-23176.47
193.341	8817.78
193.559	4325.26
193.778	31123.08
193.996	-3347.9
194.215	-1763.04
194.433	-928.44
194.652	-1068.82
194.87	-1662.66
195.089	-1354.45
195.307	-1091.11
195.526	-826.29
195.744	-810.54
195.963	-826.51
196.181	-1063.54
196.399	-1182.32
196.618	-2319.21
196.836	-2846.21
197.055	-2072.36
197.273	-1197.34
197.491	-1901.34
197.71	-2728.1
197.928	-2360.69
198.146	-3891.35
198.365	-3705.36
198.583	-43477.78
198.801	10954.29
199.019	4212.22
199.238	1814.22
199.456	1422.79
199.674	1316.21
199.892	1175.3
200.111	2062.23
200.329	838.14
200.547	713.55
200.765	721.34
200.983	792.58
201.202	805.27
201.42	1341.83
201.638	2479.14
201.856	2868.28
202.074	1640.71
202.292	1679.66
202.51	1041.82
202.728	2425.6
202.946	2575.95
203.165	2228.04
203.383	2267.2
203.601	1666.54
203.819	906.19
204.037	871.94
204.255	794.79
204.473	685.2
204.691	756.96
204.909	805.09
205.127	824.46
205.345	1444.55
205.562	1571.74
205.78	1977.1
205.998	1667.06
206.216	3821.1
206.434	3127.21
206.652	-3964.71
206.87	-3445.3
207.088	-2467.08
207.306	-2662.42
207.523	-4278
207.741	-9843.18
207.959	6918.75
208.177	2647.93
208.395	2143.33
208.612	1601.75
208.83	1714.18
209.048	867.66
209.266	895.6
209.483	783.64
209.701	570.83
209.919	495.85
210.136	444.83
210.354	435.86
210.572	472.54
210.79	711.22
211.007	582
211.225	586.65
211.442	515.61
211.66	524.79
211.878	494.59
212.095	577.69
212.313	620.45
212.53	614.86
212.748	547.61
212.966	614.74
213.183	473.71
213.401	557.7
213.618	495.16
213.836	605.04
214.053	721.44
214.271	872.07
214.488	1110.47
214.705	1012.34
214.923	962.32
215.14	1362.29
215.358	707.01
215.575	808.25
215.793	625.92
216.01	638.93
216.227	568.98
216.445	482.81
216.662	431.47
216.879	422.2
217.097	417.43
217.314	400.84
217.531	414.61
217.749	523.65
217.966	399.44
218.183	397.9
218.4	370.44
218.618	361.23
218.835	317.48
219.052	319.38
219.269	305.51
219.487	319.98
219.704	293.53
219.921	269.35
220.138	246.93
220.355	264.93
220.572	278.67
220.79	260.42
221.007	239.36
221.224	275.15
221.441	274.37
221.658	266.71
221.875	235.9
222.092	222.08
222.309	210.36
222.526	207.28
222.743	204.22
222.96	194.62
223.177	197.87
223.394	188.33
223.611	171.42
223.828	160.11
224.045	152.93
224.262	145.34
224.479	140.67
224.696	138.99
224.913	129.14
225.13	121.31
225.347	114.23
225.564	107.32
225.781	104.66
225.997	98.18
226.214	91.53
226.431	81.12
226.648	74.58
226.865	67.47
227.082	61.23
227.298	52.84
227.515	46.11
227.732	39.83
227.949	35.84
228.165	32.26
228.382	29.24
228.599	27.37
228.816	26.22
229.032	24.44
229.249	23.3
229.466	22.19
229.682	22.41
229.899	23.49
230.116	24.11
230.332	25.6
230.549	27.08
230.765	28.53
230.982	29.95
231.199	30.87
231.415	34.43
231.632	36.67
231.848	37.68
232.065	40.21
232.281	41.29
232.498	42.83
232.714	42.6
232.931	41.84
233.147	42.59
233.364	41.81
233.58	42.27
233.797	41.52
234.013	41.56
234.23	41.22
234.446	39.46
234.662	38.05
234.879	36.76
235.095	37.19
235.312	37.92
235.528	37.82
235.744	38.29
235.961	37.86
236.177	38.28
236.393	38.1
236.61	40.77
236.826	42.7
237.042	43.79
237.258	45.46
237.475	46.56
237.691	45.2
237.907	43.92
238.123	43.87
238.339	45.04
238.556	44.11
238.772	44.73
238.988	42.54
239.204	40.8
239.42	38.87
239.636	38.04
239.853	34.37
240.069	33.3
240.285	31.32
240.501	29.71
240.717	27.67
240.933	25.92
241.149	23.63
241.365	21.75
241.581	20.95
241.797	20.16
242.013	18.71
242.229	18.01
242.445	17.74
242.661	17.88
242.877	18.24
243.093	18.02
243.309	18.23
243.525	18.29
243.741	19.66
243.957	20.42
244.173	20.68
244.388	21.28
244.604	22.16
244.82	22.54
245.036	21.63
245.252	19.69
245.468	18.95
245.683	17.84
245.899	16.93
246.115	15.17
246.331	13.8
246.547	12.87
246.762	12.45
246.978	11.98
247.194	11.41
247.409	11.55
247.625	11.71
247.841	11.54
248.057	11.46
248.272	11.7
248.488	12.08
248.703	12.58
248.919	13.65
249.135	14.25
249.35	15.1
249.566	16.26
249.782	16.71
249.997	17.33
250.213	18.06
250.428	19.25
250.644	19.18
250.859	20.16
251.075	19.85
251.29	19.14
251.506	19.37
251.721	19.12
251.937	18.61
252.152	18.82
252.368	18.35
252.583	19.4
252.798	18.96
253.014	19.61
253.229	19.27
253.445	20.25
253.66	20.82
253.875	21.68
254.091	22.78
254.306	23.8
254.521	24.19
254.737	25.29
254.952	24.56
255.167	25.38
255.383	25.58
255.598	26.28
255.813	26.07
256.028	26.94
256.244	26.35
256.459	24.55
256.674	24.28
256.889	23.42
257.104	22.87
257.32	21.92
257.535	20.12
257.75	18.94
257.965	17.71
258.18	16.57
258.395	14.64
258.61	13.13
258.826	12.24
259.041	11.21
259.256	10.8
259.471	9.98
259.686	9.29
259.901	9.22
260.116	8.84
260.331	8.89
260.546	8.79
260.761	8.72
260.976	8.93
261.191	9.02
261.406	9.42
261.621	9.98
261.836	10.59
262.05	11.6
262.265	12.24
262.48	13.36
262.695	14.16
262.91	15.04
263.125	16.06
263.34	16.76
263.555	17.88
263.769	18.23
263.984	17.59
264.199	18.3
264.414	18.42
264.629	19.37
264.843	18.98
265.058	18.54
265.273	18.02
265.488	17.79
265.702	17.23
265.917	17.02
266.132	16.94
266.346	17.62
266.561	16.84
266.776	16.76
266.99	16.09
267.205	15.91
267.42	15.42
267.634	14.97
267.849	15.02
268.063	15.2
268.278	15.29
268.492	15.05
268.707	14.17
268.922	14.25
269.136	13.74
269.351	13.41
269.565	13.03
269.78	12.92
269.994	13.4
270.209	13.41
270.423	12.93
270.637	12.21
270.852	11.78
271.066	12.11
271.281	12.18
271.495	12.05
271.709	11.88
271.924	12.04
272.138	12.07
272.353	11.7
272.567	11.15
272.781	11.44
272.996	11.9
273.21	12.43
273.424	12.2
273.638	11.9
273.853	11.97
274.067	11.83
274.281	12.21
274.495	12.6
274.71	12.68
274.924	12.92
275.138	12.73
275.352	12.43
275.566	12.6
275.781	12.8
275.995	13.07
276.209	13.86
276.423	14.44
276.637	13.94
276.851	13.36
277.065	13.32
277.279	13.1
277.493	13.05
277.707	13.19
277.921	13.14
278.135	13.12
278.349	12.87
278.563	12.55
278.777	12.54
278.991	12.85
279.205	13.31
279.419	13.33
279.633	13.58
279.847	13.62
280.061	13.53
280.275	12.95
280.489	12.48
280.703	11.99
280.917	11.47
281.131	11.23
281.344	11.17
281.558	10.78
281.772	10.83
281.986	10.47
282.2	10.51
282.414	10.25
282.627	10.25
282.841	10.48
283.055	10.99
283.269	10.9
283.482	10.89
283.696	10.34
283.91	10.24
284.123	10.06
284.337	10.11
284.551	9.86
284.764	9.77
284.978	9.19
285.192	8.78
285.405	8.63
285.619	8.95
285.833	8.74
286.046	8.87
286.26	8.92
286.473	8.97
286.687	9.06
286.9	8.98
287.114	9.36
287.327	9.94
287.541	10.69
287.754	10.89
287.968	10.93
288.181	11.05
288.395	11.13
288.608	11.38
288.822	11.61
289.035	11.73
289.248	11.88
289.462	11.6
289.675	11.37
289.889	11.17
290.102	11.07
290.315	10.87
290.529	10.94
290.742	11
290.955	10.73
291.169	10.48
291.382	10.57
291.595	10.98
291.808	11.13
292.022	11.18
292.235	11.35
292.448	11.78
292.661	11.72
292.875	11.88
293.088	12.1
293.301	12.36
293.514	12.37
293.727	12.25
293.94	11.63
294.153	11.37
294.367	11.45
294.58	10.73
294.793	10.44
295.006	10.67
295.219	10.38
295.432	10.37
295.645	10.28
295.858	9.99
296.071	9.96
296.284	10.08
296.497	10.01
296.71	10.09
296.923	10.42
297.136	10.4
297.349	10.29
297.562	10.22
297.775	10.3
297.988	10.36
298.201	10.85
298.414	11.04
298.626	11.1
298.839	11.37
299.052	11.71
299.265	11.72
299.478	11.73
299.691	12.02
299.903	12.4
300.116	12.54
300.329	12.54
300.542	12.52
300.755	12.43
300.967	12.47
301.18	12.33
301.393	12.26
301.605	12.4
301.818	12.71
302.031	12.68
302.243	13.11
302.456	13.22
302.669	13.3
302.881	13.43
303.094	13.55
303.307	13.49
303.519	13.92
303.732	13.87
303.944	13.8
304.157	13.77
304.37	14.11
304.582	13.84
304.795	14.02
305.007	14.2
305.22	14.28
305.432	14.85
305.645	15.2
305.857	15.33
306.069	15.67
306.282	15.86
306.494	15.65
306.707	15.32
306.919	15.07
307.132	14.75
307.344	15.06
307.556	15.12
307.769	14.98
307.981	14.93
308.193	14.65
308.406	14.54
308.618	14.67
308.83	14.9
309.043	15.11
309.255	15.02
309.467	14.98
309.679	14.64
309.892	14.44
310.104	13.91
310.316	13.65
310.528	13.55
310.74	13.05
310.953	12.74
311.165	12.64
311.377	12.54
311.589	12.93
311.801	12.91
312.013	12.87
312.225	12.79
312.437	13.1
312.649	13.23
312.862	13.19
313.074	13.74
313.286	13.97
313.498	14.04
313.71	14.2
313.922	14.21
314.134	14.22
314.346	14.32
314.558	14.48
314.77	14.48
314.982	14.91
315.193	15.38
315.405	15.59
315.617	15.9
315.829	16.04
316.041	15.91
316.253	15.84
316.465	16.28
316.677	16.44
316.888	16.46
317.1	16.62
317.312	16.73
317.524	16.52
317.736	16.66
317.947	17.09
318.159	17.08
318.371	17.21
318.583	17.83
318.794	17.9
319.006	18.07
319.218	18.36
319.43	18.48
319.641	18.79
319.853	19.03
320.064	19.01
320.276	18.65
320.488	19.1
320.699	19.57
320.911	19.35
321.123	19.31
321.334	19.35
321.546	19.42
321.757	19.65
321.969	18.99
322.18	18.96
322.392	18.89
322.603	18.88
322.815	18.53
323.026	17.81
323.238	16.95
323.449	16.49
323.661	16.08
323.872	15.99
324.083	15.8
324.295	15.9
324.506	15.9
324.718	15.7
324.929	15.65
325.14	15.38
325.352	15.35
325.563	15.74
325.774	15.68
325.986	16.13
326.197	16.05
326.408	15.75
326.62	15.28
326.831	15.44
327.042	15.17
327.253	15.08
327.464	15.25
327.676	15.24
327.887	15.29
328.098	15.41
328.309	15.39
328.52	15.49
328.732	15.47
328.943	16.05
329.154	16.34
329.365	16.61
329.576	16.69
329.787	16.99
329.998	17.01
330.209	17.27
330.42	17.66
330.631	17.85
330.842	17.83
331.053	17.83
331.264	17.71
331.475	17.47
331.686	17.65
331.897	17.55
332.108	17.11
332.319	17.45
332.53	17.27
332.741	17.16
332.952	17.26
333.163	16.76
333.374	16.68
333.585	16.71
333.795	16.24
334.006	15.91
334.217	16.15
334.428	16.44
334.639	16.26
334.849	16.5
335.06	16.23
335.271	15.89
335.482	15.96
335.692	16.02
335.903	15.78
336.114	15.84
336.325	16.09
336.535	15.88
336.746	15.52
336.957	15.28
337.167	14.92
337.378	14.92
337.589	14.68
337.799	14.59
338.01	14.86
338.22	14.95
338.431	14.95
338.642	14.94
338.852	14.89
339.063	15.29
339.273	15.12
339.484	15.27
339.694	15.37
339.905	15.46
340.115	15.9
340.326	15.73
340.536	15.69
340.746	15.69
340.957	15.58
341.167	15.92
341.378	15.88
341.588	15.98
341.799	15.66
342.009	15.42
342.219	15.16
342.43	14.93
342.64	14.75
342.85	14.8
343.061	14.61
343.271	14.46
343.481	14.32
343.691	13.97
343.902	13.86
344.112	13.95
344.322	13.76
344.532	13.53
344.743	13.43
344.953	13.31
345.163	13.28
345.373	13.3
345.583	13.48
345.793	13.01
346.004	13.28
346.214	13.49
346.424	13.5
346.634	13.72
346.844	14.19
347.054	14.14
347.264	14.45
347.474	14.77
347.684	14.94
347.894	14.73
348.104	14.93
348.314	14.7
348.524	14.64
348.734	14.86
348.944	14.73
349.154	14.22
349.364	14.28
349.574	14.29
349.784	13.51
349.994	13.41
350.204	13.47
350.413	13.66
350.623	13.5
350.833	13.41
351.043	13.18
351.253	13.15
351.463	13.58
351.672	13.78
351.882	13.66
352.092	13.87
352.302	13.96
352.511	14.03
352.721	14.06
352.931	14.11
353.141	14.17
353.35	13.86
353.56	13.85
353.77	13.48
353.979	13.55
354.189	13.23
354.399	13.32
354.608	13.17
354.818	13.18
355.027	12.85
355.237	12.76
355.447	12.55
355.656	12.7
355.866	12.58
356.075	12.59
356.285	12.26
356.494	12.37
356.704	12.14
356.913	12.25
357.123	12.05
357.332	12.15
357.542	12.31
357.751	12.27
357.96	12.17
358.17	12.14
358.379	12.32
358.589	12.39
358.798	12.29
359.007	12.37
359.217	11.98
359.426	11.79
359.635	11.85
359.845	11.41
360.054	11.36
360.263	11.2
360.472	11.05
360.682	10.8
360.891	10.62
361.1	10.58
361.309	10.43
361.519	10.44
361.728	10.47
361.937	10.3
362.146	10.44
362.355	10.4
362.564	10.37
362.774	10.6
362.983	10.7
363.192	10.67
363.401	10.74
363.61	10.99
363.819	11.14
364.028	11.09
364.237	11.25
364.446	11.35
364.655	11.59
364.864	11.73
365.073	11.52
365.282	11.27
365.491	11.31
365.7	11.28
365.909	11.48
366.118	11.43
366.327	11.55
366.536	11.32
366.745	11.33
366.954	11.17
367.162	11.15
367.371	11.22
367.58	11.59
367.789	11.62
367.998	11.43
368.207	11.21
368.415	11.49
368.624	11.35
368.833	11.3
369.042	11.01
369.25	11.21
369.459	11.29
369.668	11.21
369.877	11.09
370.085	11.16
370.294	11.2
370.503	11.01
370.711	10.68
370.92	10.6
371.129	10.6
371.337	10.69
371.546	10.35
371.754	10.34
371.963	10.41
372.171	10.41
372.38	10.2
372.589	10.25
372.797	10.04
373.006	10.2
373.214	10.33
373.423	10.53
373.631	10.37
373.84	10.41
374.048	10.33
374.256	10.06
374.465	10.14
374.673	9.92
374.882	9.93
375.09	10.34
375.298	10.06
375.507	9.77
375.715	9.55
375.923	9.56
376.132	9.43
376.34	9.3
376.548	9.34
376.757	9.1
376.965	9.29
377.173	9.14
377.381	9.02
377.59	9.13
377.798	9.44
378.006	9.31
378.214	9.34
378.423	9.27
378.631	9.47
378.839	9.53
379.047	9.42
379.255	9.44
379.463	9.49
379.671	9.25
379.879	9.22
380.088	8.87
380.296	9.1
380.504	9.26
380.712	9.38
380.92	9.16
381.128	9.37
381.336	9.5
381.544	9.48
381.752	9.57
381.96	9.56
382.168	9.38
382.376	9.66
382.584	9.55
382.791	9.42
382.999	9.55
383.207	9.37
383.415	9.09
383.623	9.04
383.831	9.01
384.039	8.93
384.247	8.9
384.454	9.07
384.662	8.79
384.87	8.65
385.078	8.58
385.285	8.37
385.493	8.6
385.701	8.42
385.909	8.28
386.116	8.38
386.324	8.43
386.532	8.51
386.739	8.26
386.947	8.35
387.155	8.43
387.362	8.45
387.57	8.63
387.778	8.63
387.985	8.69
388.193	8.77
388.4	8.43
388.608	8.41
388.816	8.33
389.023	8.35
389.231	8.46
389.438	8.48
389.646	8.45
389.853	8.07
390.061	7.74
390.268	7.8
390.475	7.88
390.683	8.02
390.89	7.86
391.098	7.82
391.305	7.88
391.512	7.68
391.72	7.5
391.927	7.45
392.135	7.5
392.342	7.59
392.549	7.77
392.756	7.59
392.964	7.39
393.171	7.25
393.378	7.19
393.586	7.04
393.793	7.01
394	6.91
394.207	6.87
394.414	6.9
394.622	6.94
394.829	6.86
395.036	6.82
395.243	6.97
395.45	7.17
395.657	7.23
395.864	7.29
396.072	7.16
396.279	7.28
396.486	7.34
396.693	7.34
396.9	7.23
397.107	7.09
397.314	7.3
397.521	7.21
397.728	6.93
397.935	7.03
398.142	6.93
398.349	7.2
398.556	7.24
398.763	7.23
398.97	7.42
399.177	7.45
399.383	7.22
399.59	7.12
399.797	7.13
400.004	7.56
400.211	7.38
400.418	7.45
400.625	7.4
400.831	7.38
401.038	7.34
401.245	7.12
401.452	7.29
401.658	7.54
401.865	7.7
402.072	7.74
402.279	7.43
402.485	7.43
402.692	7.5
402.899	7.36
403.105	7.21
403.312	7.12
403.519	7.03
403.725	6.85
403.932	6.76
404.138	6.49
404.345	6.25
404.552	6.44
404.758	6.42
404.965	6.32
405.171	6.24
405.378	6.31
405.584	6.35
405.791	6.37
405.997	6.49
406.204	6.46
406.41	6.53
406.617	6.68
406.823	6.41
407.029	6.59
407.236	6.62
407.442	6.84
407.649	6.95
407.855	6.82
408.061	6.71
408.268	6.53
408.474	6.42
408.68	6.32
408.887	6.25
409.093	6.48
409.299	6.34
409.505	6.11
409.712	5.77
409.918	5.74
410.124	5.85
410.33	5.85
410.537	5.89
410.743	6.03
410.949	5.98
411.155	6.06
411.361	6.04
411.567	6.06
411.773	6.13
411.98	6.26
412.186	6.18
412.392	6.24
412.598	6.47
412.804	6.7
413.01	6.77
413.216	6.93
413.422	7.02
413.628	6.91
413.834	6.85
414.04	6.9
414.246	6.92
414.452	6.85
414.658	6.71
414.864	6.68
415.07	6.54
415.275	6.4
415.481	6.31
415.687	6.21
415.893	6.12
416.099	6.04
416.305	5.98
416.511	6.01
416.716	5.91
416.922	5.85
417.128	5.62
417.334	5.48
417.539	5.36
417.745	5.19
417.951	4.94
418.157	4.8
418.362	4.74
418.568	4.68
418.774	4.46
418.979	4.48
419.185	4.33
419.391	4.29
419.596	4.21
419.802	4.17
420.008	4.22
420.213	4.9
420.419	4.96
420.624	4.88
420.83	4.79
421.035	4.81
421.241	4.73
421.446	4.78
421.652	4.81
421.857	4.72
422.063	4.71
422.268	4.68
422.474	3.98
422.679	3.91
422.885	3.93
423.09	3.99
423.295	4.01
423.501	3.99
423.706	3.98
423.911	3.97
424.117	3.99
424.322	3.99
424.527	4.05
424.733	4.16
424.938	4.16
425.143	4.17
425.349	4.14
425.554	4.17
425.759	4.28
425.964	4.29
426.169	4.3
426.375	4.43
426.58	4.45
426.785	4.36
426.99	4.42
427.195	4.4
427.4	4.35
427.605	4.52
427.811	4.5
428.016	4.53
428.221	4.53
428.426	4.61
428.631	4.52
428.836	4.57
429.041	4.65
429.246	4.67
429.451	4.82
429.656	5.02
429.861	4.97
430.066	5.01
430.271	4.88
430.476	5
430.681	4.9
430.886	4.94
431.09	4.99
431.295	5.02
431.5	5.05
431.705	4.93
431.91	4.71
432.115	4.66
432.32	4.54
432.524	4.4
432.729	4.37
432.934	4.3
433.139	4.35
433.343	4.37
433.548	4.27
433.753	4.22
433.958	4.36
434.162	4.47
434.367	4.54
434.572	4.71
434.776	4.81
434.981	4.78
435.186	4.82
435.39	4.74
435.595	4.66
435.799	4.78
436.004	4.76
436.209	4.64
436.413	4.61
436.618	4.49
436.822	4.36
437.027	4.38
437.231	4.39
437.436	4.37
437.64	4.42
437.845	4.4
438.049	4.32
438.253	4.31
438.458	4.27
438.662	4.13
438.867	4.16
439.071	4.1
439.275	4.13
439.48	4.15
439.684	4.24
439.888	4.16
440.093	4.1
440.297	4.04
440.501	4.05
440.706	4.04
440.91	4.14
441.114	4.14
441.318	4.25
441.523	4.26
441.727	4.32
441.931	4.26
442.135	4.27
442.339	4.36
442.543	4.46
442.748	4.52
442.952	4.59
443.156	4.6
443.36	4.7
443.564	4.71
443.768	4.64
443.972	4.54
444.176	4.51
444.38	4.53
444.584	4.42
444.788	4.35
444.992	4.28
445.196	4.15
445.4	4.11
445.604	3.93
445.808	3.87
446.012	3.86
446.216	3.76
446.42	3.76
446.624	3.78
446.828	3.77
447.032	3.73
447.235	3.69
447.439	3.74
447.643	3.81
447.847	3.88
448.051	3.92
448.254	3.95
448.458	4.06
448.662	4.07
448.866	4.07
449.069	4.09
449.273	4.18
449.477	4.22
449.681	4.26
449.884	4.23
450.088	4.28
450.292	4.28
450.495	4.26
450.699	4.33
450.902	4.38
451.106	4.28
451.31	4.45
451.513	4.52
451.717	4.57
451.92	4.68
452.124	4.67
452.327	4.6
452.531	4.66
452.734	4.69
452.938	4.59
453.141	4.57
453.345	4.69
453.548	4.61
453.752	4.55
453.955	4.58
454.158	4.52
454.362	4.57
454.565	4.69
454.769	4.64
454.972	4.68
455.175	4.77
455.379	4.81
455.582	4.9
455.785	4.84
455.988	4.87
456.192	4.78
456.395	4.79
456.598	4.76
456.801	4.7
457.005	4.67
457.208	4.71
457.411	4.63
457.614	4.58
