Data from 2938849__Reflection_03.txt Node
Date: Wed Mar 11 13:25:51 EDT 2015
User: robert
Spectrometer: USB4E03002
Autoset integration time: false
Trigger mode: 4
Integration Time (sec): 1.000000E-1
Scans to average: 10
Electric dark correction enabled: false
Nonlinearity correction enabled: false
Boxcar width: 5
Stray light correction enabled: false
XAxis mode: Wavelengths
Stop averaging: false
Number of Pixels in Spectrum: 3648
>>>>>Begin Spectral Data<<<<<
177.575	1511.11
177.794	-820.83
178.014	-260.27
178.233	-702.94
178.452	-474.45
178.672	-184.15
178.891	-140.05
179.11	-82.79
179.33	-87.99
179.549	-115.62
179.768	-178.37
179.987	-160.73
180.207	-91.34
180.426	-121.08
180.645	-75.42
180.864	14.56
181.084	-72.87
181.303	-402.38
181.522	-216.81
181.741	-201.78
181.96	-296.45
182.179	-1017.24
182.398	-621.18
182.618	871.43
182.837	1266.15
183.056	1995.74
183.275	368.21
183.494	297.97
183.713	528.48
183.932	285.47
184.151	281.87
184.37	300
184.589	511.92
184.808	633.58
185.027	-1590.48
185.246	-646.67
185.465	-167.53
185.684	-77.1
185.903	-152.94
186.122	-109.11
186.341	-103.97
186.56	-79.26
186.779	-48.84
186.998	-21.56
187.216	10.4
187.435	3.83
187.654	-4.98
187.873	-4
188.092	-13.67
188.311	3.24
188.53	16.64
188.748	15.75
188.967	15.67
189.186	10.48
189.405	6.51
189.623	-2.47
189.842	-5.71
190.061	7.39
190.28	5.21
190.498	4.72
190.717	-4.35
190.936	-19.65
191.154	-5.32
191.373	-9.39
191.592	-25.61
191.81	-29.45
192.029	-42.22
192.248	-83.19
192.466	-137.94
192.685	-133.67
192.904	-144.44
193.122	-71.63
193.341	-98.6
193.559	-172
193.778	-432.1
193.996	-182.84
194.215	-190.85
194.433	-84.47
194.652	-67.71
194.87	-67.35
195.089	-64.33
195.307	-52.75
195.526	-130.86
195.744	-53.79
195.963	-42.93
196.181	-19.67
196.399	-22.47
196.618	-24.62
196.836	-38.62
197.055	-3.4
197.273	19.12
197.491	-7.38
197.71	-26.71
197.928	-5.15
198.146	-29.79
198.365	-53.76
198.583	-53.29
198.801	-36.37
199.019	-22.4
199.238	-14.39
199.456	-38.68
199.674	-62.03
199.892	-18.68
200.111	-6.88
200.329	-10.7
200.547	-0.13
200.765	2.36
200.983	10.41
201.202	-10.14
201.42	0
201.638	-3.91
201.856	-10.7
202.074	-53.04
202.292	-70.86
202.51	-96.84
202.728	-137.14
202.946	-119.62
203.165	-118.87
203.383	-74.77
203.601	-102.04
203.819	-129.62
204.037	-157.91
204.255	-63.95
204.473	-50.74
204.691	-49.4
204.909	-41.87
205.127	-43.65
205.345	-64.06
205.562	-26.89
205.78	-63.62
205.998	-132.64
206.216	-151.46
206.434	-61.59
206.652	-51.24
206.87	-17.04
207.088	6.52
207.306	4.95
207.523	1.4
207.741	-5.07
207.959	-16.23
208.177	-17.11
208.395	3.54
208.612	8.95
208.83	-11.02
209.048	-31.47
209.266	-29.13
209.483	-60.26
209.701	-86.6
209.919	-37.69
210.136	-22.43
210.354	-18.79
210.572	-17.31
210.79	-10.08
211.007	-24.95
211.225	-20.36
211.442	-9.29
211.66	-44.59
211.878	-40.2
212.095	-6.91
212.313	-34.3
212.53	-26.55
212.748	-22.66
212.966	-23.52
213.183	-20.55
213.401	-3.05
213.618	-15.21
213.836	-9.83
214.053	-2.02
214.271	-1.07
214.488	-11.84
214.705	-21.67
214.923	-35.14
215.14	-51.12
215.358	-38.4
215.575	-35.64
215.793	-54.09
216.01	-63.59
216.227	-70.34
216.445	-56.94
216.662	-53.04
216.879	-47.04
217.097	-24.43
217.314	-15.32
217.531	-13.4
217.749	-12.25
217.966	-12.26
218.183	-0.68
218.4	5.4
218.618	2.58
218.835	-1.7
219.052	-2.02
219.269	-0.2
219.487	-7.84
219.704	-5.88
219.921	5.16
220.138	5.77
220.355	8.93
220.572	4.93
220.79	3.94
221.007	1.6
221.224	-6.67
221.441	-6.44
221.658	1.51
221.875	1.95
222.092	2.45
222.309	-8.08
222.526	-8.48
222.743	-13.12
222.96	-16.88
223.177	-19.27
223.394	-20.79
223.611	-13.87
223.828	-9.22
224.045	-12
224.262	-3.88
224.479	-4.75
224.696	-0.2
224.913	3.05
225.13	4.71
225.347	3.5
225.564	6.4
225.781	8.3
225.997	10.09
226.214	11.44
226.431	9.77
226.648	5.83
226.865	5.4
227.082	7.43
227.298	5.49
227.515	5.27
227.732	6.75
227.949	6.41
228.165	6.95
228.382	6.5
228.599	5.62
228.816	5.99
229.032	6.38
229.249	6.3
229.466	5.58
229.682	5.04
229.899	5.02
230.116	4.62
230.332	3.96
230.549	3.38
230.765	2.54
230.982	2.18
231.199	1.31
231.415	0.66
231.632	0.45
231.848	-1.26
232.065	0.95
232.281	1.93
232.498	1.56
232.714	2.71
232.931	2.95
233.147	3.02
233.364	2.79
233.58	3.71
233.797	3.26
234.013	3.91
234.23	5.91
234.446	5.11
234.662	3
234.879	1.73
235.095	1.24
235.312	1.75
235.528	1.32
235.744	2.16
235.961	1.44
236.177	1.34
236.393	0.83
236.61	0.93
236.826	2
237.042	3.53
237.258	4.15
237.475	5.01
237.691	4.52
237.907	6.55
238.123	6.86
238.339	7.58
238.556	8.02
238.772	6.55
238.988	5.64
239.204	3.82
239.42	3.88
239.636	5.59
239.853	5.06
240.069	5.45
240.285	5.8
240.501	5.87
240.717	5.92
240.933	5.78
241.149	6.53
241.365	6.93
241.581	6.8
241.797	6.68
242.013	6.63
242.229	6.84
242.445	7.21
242.661	6.82
242.877	6.89
243.093	6.8
243.309	6.92
243.525	7.22
243.741	7.24
243.957	7.31
244.173	7.35
244.388	7.2
244.604	6.86
244.82	5.8
245.036	6.06
245.252	5.55
245.468	5.88
245.683	6.36
245.899	6.38
246.115	6.42
246.331	6.81
246.547	6.73
246.762	6.81
246.978	6.9
247.194	6.87
247.409	6.83
247.625	7
247.841	6.74
248.057	6.63
248.272	6.4
248.488	6.22
248.703	6.31
248.919	6.22
249.135	5.73
249.35	5.41
249.566	5.28
249.782	5.38
249.997	4.9
250.213	4.9
250.428	4.29
250.644	4.5
250.859	4.71
251.075	4.61
251.29	5
251.506	5.55
251.721	6.21
251.937	6.82
252.152	6.54
252.368	6.95
252.583	6.95
252.798	7.21
253.014	7.37
253.229	7.5
253.445	6.99
253.66	6.56
253.875	6.84
254.091	6.05
254.306	5.82
254.521	5.08
254.737	5.16
254.952	4.74
255.167	4.66
255.383	4.45
255.598	4.86
255.813	4.9
256.028	5.34
256.244	5.29
256.459	5.62
256.674	5.46
256.889	5.8
257.104	5.37
257.32	5.89
257.535	5.35
257.75	5.41
257.965	4.74
258.18	4.64
258.395	4.86
258.61	4.91
258.826	4.83
259.041	4.94
259.256	4.98
259.471	4.99
259.686	5.05
259.901	5.21
260.116	5.37
260.331	5.35
260.546	5.58
260.761	5.44
260.976	5.02
261.191	5.07
261.406	4.9
261.621	5.19
261.836	5.23
262.05	4.82
262.265	4.79
262.48	4.08
262.695	3.75
262.91	3.31
263.125	3.49
263.34	3.92
263.555	3.58
263.769	3.38
263.984	1.85
264.199	1.21
264.414	1.37
264.629	1.21
264.843	1.66
265.058	2.69
265.273	2.66
265.488	1.78
265.702	2.07
265.917	3.05
266.132	3.14
266.346	4.27
266.561	4.82
266.776	4.91
266.99	4.74
267.205	4.3
267.42	3.95
267.634	3.96
267.849	4.59
268.063	4.45
268.278	4
268.492	4.41
268.707	3.9
268.922	3.4
269.136	3.44
269.351	3.5
269.565	3.72
269.78	3.51
269.994	3.72
270.209	3.75
270.423	3.56
270.637	3.86
270.852	3.89
271.066	4.09
271.281	4.44
271.495	4.33
271.709	4.27
271.924	4.37
272.138	4.5
272.353	4.43
272.567	4.2
272.781	4.71
272.996	4.31
273.21	4.04
273.424	4.25
273.638	4.11
273.853	4.32
274.067	4.72
274.281	4.9
274.495	5.08
274.71	4.97
274.924	4.83
275.138	4.71
275.352	5.33
275.566	5.52
275.781	5.12
275.995	5.36
276.209	5.25
276.423	4.95
276.637	4.54
276.851	4.68
277.065	4.78
277.279	5.13
277.493	4.91
277.707	4.44
277.921	4.63
278.135	4.7
278.349	4.53
278.563	4.44
278.777	4.72
278.991	5.01
279.205	4.51
279.419	5.05
279.633	5.05
279.847	5.49
280.061	5.64
280.275	5.39
280.489	5.21
280.703	5.46
280.917	5.81
281.131	5.64
281.344	5.63
281.558	5.62
281.772	5.12
281.986	4.98
282.2	4.58
282.414	4.48
282.627	4.43
282.841	4.82
283.055	4.77
283.269	4.66
283.482	4.7
283.696	4.66
283.91	4.9
284.123	4.96
284.337	4.93
284.551	5.21
284.764	5.22
284.978	5.34
285.192	5.12
285.405	4.94
285.619	4.66
285.833	4.73
286.046	4.91
286.26	4.8
286.473	4.71
286.687	4.85
286.9	4.7
287.114	4.86
287.327	4.84
287.541	4.94
287.754	5.13
287.968	5.31
288.181	5.67
288.395	5.4
288.608	5.25
288.822	5.37
289.035	5.22
289.248	5.16
289.462	5.16
289.675	5.28
289.889	5.36
290.102	5.35
290.315	5.29
290.529	4.99
290.742	5.19
290.955	5.39
291.169	5.35
291.382	5.66
291.595	5.64
291.808	5.49
292.022	5.48
292.235	5.05
292.448	4.88
292.661	4.82
292.875	4.66
293.088	4.68
293.301	4.67
293.514	4.83
293.727	4.43
293.94	4.67
294.153	4.64
294.367	4.57
294.58	5.11
294.793	5.28
295.006	5.49
295.219	5.6
295.432	5.66
295.645	5.77
295.858	5.69
296.071	5.99
296.284	6.17
296.497	6.33
296.71	6.52
296.923	6.46
297.136	6.4
297.349	6.33
297.562	6.48
297.775	6.65
297.988	6.81
298.201	6.92
298.414	6.98
298.626	6.83
298.839	6.7
299.052	6.76
299.265	6.63
299.478	6.73
299.691	6.96
299.903	6.91
300.116	6.74
300.329	6.68
300.542	6.82
300.755	7
300.967	7.08
301.18	7.26
301.393	7.12
301.605	7.59
301.818	7.59
302.031	7.85
302.243	7.94
302.456	7.94
302.669	7.66
302.881	7.96
303.094	8.18
303.307	7.99
303.519	7.86
303.732	7.71
303.944	7.33
304.157	7.38
304.37	7.14
304.582	6.96
304.795	6.99
305.007	7.3
305.22	7.37
305.432	7.07
305.645	7.16
305.857	7.29
306.069	7.45
306.282	7.71
306.494	7.91
306.707	7.92
306.919	8.27
307.132	8.22
307.344	8.43
307.556	7.95
307.769	7.83
307.981	8.15
308.193	8.37
308.406	8.55
308.618	8.63
308.83	8.67
309.043	8.94
309.255	8.85
309.467	8.93
309.679	8.87
309.892	8.92
310.104	9.17
310.316	9.08
310.528	9.3
310.74	9.23
310.953	9.11
311.165	9.15
311.377	9.09
311.589	9.03
311.801	8.99
312.013	8.99
312.225	9.18
312.437	9
312.649	9.15
312.862	8.81
313.074	8.86
313.286	8.74
313.498	8.82
313.71	8.65
313.922	8.95
314.134	9.04
314.346	8.95
314.558	8.74
314.77	8.57
314.982	8.18
315.193	8.17
315.405	7.95
315.617	8.21
315.829	7.72
316.041	7.62
316.253	7.02
316.465	6.9
316.677	6.79
316.888	6.81
317.1	7.03
317.312	7.31
317.524	7.65
317.736	7.28
317.947	7.68
318.159	8.07
318.371	8.21
318.583	8.75
318.794	9
319.006	9.39
319.218	9.49
319.43	9.47
319.641	9.35
319.853	8.97
320.064	9.45
320.276	8.67
320.488	8.61
320.699	8.37
320.911	8.81
321.123	8.84
321.334	8.88
321.546	9.06
321.757	8.89
321.969	9.16
322.18	9.22
322.392	9.33
322.603	9.77
322.815	9.85
323.026	9.95
323.238	9.13
323.449	9.17
323.661	9.19
323.872	9.18
324.083	9.43
324.295	9.44
324.506	9.46
324.718	9.3
324.929	9.28
325.14	9.19
325.352	9.35
325.563	9.81
325.774	9.8
325.986	9.5
326.197	9.33
326.408	9.19
326.62	9.08
326.831	9.42
327.042	9.52
327.253	9.43
327.464	9.54
327.676	9.41
327.887	9.29
328.098	9.35
328.309	9.55
328.52	9.58
328.732	9.5
328.943	9.58
329.154	9.5
329.365	9.65
329.576	9.91
329.787	10
329.998	10.19
330.209	10.12
330.42	10.01
330.631	9.99
330.842	10.22
331.053	10.4
331.264	10.22
331.475	10.41
331.686	10.59
331.897	10.51
332.108	10.18
332.319	10.04
332.53	10.12
332.741	10.07
332.952	9.81
333.163	10.19
333.374	10.29
333.585	10.1
333.795	10.29
334.006	10.06
334.217	9.87
334.428	10.43
334.639	10.49
334.849	10.39
335.06	10.47
335.271	10.52
335.482	10.03
335.692	9.81
335.903	10.1
336.114	9.8
336.325	9.9
336.535	10.14
336.746	9.92
336.957	10.06
337.167	10.45
337.378	10.51
337.589	10.77
337.799	10.99
338.01	11.28
338.22	10.92
338.431	11.11
338.642	10.81
338.852	10.71
339.063	10.36
339.273	10.43
339.484	10.11
339.694	10.03
339.905	9.78
340.115	9.79
340.326	9.71
340.536	10.05
340.746	9.8
340.957	10.05
341.167	9.92
341.378	10.39
341.588	10.05
341.799	10.39
342.009	10.44
342.219	10.53
342.43	10.57
342.64	10.44
342.85	10.36
343.061	10.55
343.271	10.51
343.481	10.7
343.691	10.43
343.902	10.88
344.112	10.6
344.322	10.63
344.532	10.72
344.743	10.54
344.953	10.62
345.163	10.63
345.373	10.47
345.583	10.61
345.793	10.76
346.004	11.1
346.214	10.95
346.424	10.86
346.634	10.78
346.844	10.95
347.054	10.64
347.264	10.61
347.474	10.77
347.684	10.65
347.894	10.49
348.104	10.21
348.314	9.82
348.524	9.41
348.734	9.48
348.944	9.33
349.154	8.92
349.364	9.29
349.574	9.22
349.784	9.16
349.994	8.92
350.204	8.8
350.413	8.85
350.623	8.69
350.833	8.89
351.043	8.81
351.253	8.73
351.463	8.93
351.672	8.66
351.882	8.64
352.092	8.62
352.302	9.08
352.511	9.17
352.721	9.07
352.931	9.39
353.141	9.35
353.35	9.5
353.56	9.77
353.77	9.76
353.979	10.07
354.189	10.2
354.399	9.97
354.608	10.01
354.818	10.2
355.027	10.27
355.237	10.16
355.447	10.27
355.656	10.28
355.866	9.85
356.075	9.79
356.285	9.71
356.494	9.66
356.704	9.89
356.913	9.85
357.123	9.56
357.332	9.73
357.542	9.76
357.751	9.66
357.96	9.71
358.17	10.1
358.379	10.19
358.589	10.04
358.798	10.04
359.007	9.9
359.217	9.79
359.426	9.98
359.635	9.9
359.845	9.72
360.054	9.83
360.263	9.81
360.472	9.87
360.682	9.66
360.891	9.73
361.1	9.78
361.309	9.85
361.519	9.92
361.728	9.8
361.937	9.69
362.146	9.85
362.355	9.89
362.564	9.76
362.774	9.77
362.983	9.95
363.192	9.92
363.401	9.97
363.61	10.02
363.819	9.82
364.028	9.93
364.237	10.05
364.446	10.15
364.655	10.09
364.864	10.06
365.073	9.93
365.282	9.81
365.491	9.94
365.7	9.79
365.909	9.77
366.118	9.91
366.327	9.98
366.536	9.91
366.745	9.61
366.954	9.59
367.162	9.62
367.371	9.36
367.58	9.2
367.789	9.22
367.998	9.29
368.207	9.27
368.415	8.97
368.624	8.83
368.833	8.91
369.042	8.91
369.25	8.73
369.459	8.64
369.668	8.81
369.877	8.92
370.085	8.69
370.294	8.68
370.503	8.77
370.711	9.02
370.92	8.97
371.129	8.85
371.337	8.88
371.546	8.97
371.754	8.92
371.963	8.89
372.171	8.9
372.38	8.65
372.589	8.54
372.797	8.32
373.006	8.2
373.214	8.31
373.423	8.24
373.631	8.17
373.84	8.15
374.048	8.16
374.256	8.27
374.465	8.24
374.673	8.44
374.882	8.55
375.09	8.52
375.298	8.44
375.507	8.15
375.715	8.14
375.923	8.01
376.132	8.15
376.34	8.23
376.548	8.08
376.757	7.97
376.965	8
377.173	8.01
377.381	8.13
377.59	8.2
377.798	8.26
378.006	8.3
378.214	8.48
378.423	8.39
378.631	8.3
378.839	8.26
379.047	8.27
379.255	8.3
379.463	8.19
379.671	8.2
379.879	8.04
380.088	8.07
380.296	8.04
380.504	8.07
380.712	7.94
380.92	7.77
381.128	7.55
381.336	7.75
381.544	7.88
381.752	7.78
381.96	7.63
382.168	7.69
382.376	7.5
382.584	7.51
382.791	7.43
382.999	7.14
383.207	7.23
383.415	7.35
383.623	6.96
383.831	6.75
384.039	6.74
384.247	6.61
384.454	6.78
384.662	6.85
384.87	6.7
385.078	6.52
385.285	6.77
385.493	6.67
385.701	6.57
385.909	6.97
386.116	6.94
386.324	7.01
386.532	7.14
386.739	6.95
386.947	6.91
387.155	7.01
387.362	7.14
387.57	7.07
387.778	6.97
387.985	7.01
388.193	6.91
388.4	6.72
388.608	6.6
388.816	6.58
389.023	6.43
389.231	6.47
389.438	6.42
389.646	6.4
389.853	6.38
390.061	6.57
390.268	6.66
390.475	6.58
390.683	6.63
390.89	6.67
391.098	6.6
391.305	6.61
391.512	6.63
391.72	6.67
391.927	6.44
392.135	6.49
392.342	6.41
392.549	6.36
392.756	6.34
392.964	6.4
393.171	6.39
393.378	6.42
393.586	6.34
393.793	6.03
394	5.97
394.207	6.13
394.414	5.98
394.622	5.88
394.829	5.79
395.036	5.61
395.243	5.65
395.45	5.6
395.657	5.55
395.864	5.58
396.072	5.73
396.279	5.63
396.486	5.61
396.693	5.6
396.9	5.7
397.107	5.64
397.314	5.75
397.521	5.49
397.728	5.33
397.935	5.25
398.142	5.2
398.349	5.26
398.556	5.12
398.763	4.97
398.97	4.89
399.177	4.88
399.383	4.94
399.59	5.05
399.797	5.17
400.004	5.31
400.211	5.37
400.418	5.36
400.625	5.4
400.831	5.49
401.038	5.35
401.245	5.43
401.452	5.39
401.658	5.38
401.865	5
402.072	5.09
402.279	4.88
402.485	4.75
402.692	4.78
402.899	4.73
403.105	4.82
403.312	5.04
403.519	5.17
403.725	4.97
403.932	4.89
404.138	4.94
404.345	4.91
404.552	4.93
404.758	4.9
404.965	4.94
405.171	4.88
405.378	4.81
405.584	4.74
405.791	4.64
405.997	4.87
406.204	4.96
406.41	4.93
406.617	4.84
406.823	4.86
407.029	4.96
407.236	4.95
407.442	4.94
407.649	4.86
407.855	4.8
408.061	4.68
408.268	4.55
408.474	4.42
408.68	4.64
408.887	4.48
409.093	4.48
409.299	4.49
409.505	4.41
409.712	4.4
409.918	4.48
410.124	4.56
410.33	4.56
410.537	4.49
410.743	4.54
410.949	4.53
411.155	4.61
411.361	4.66
411.567	4.65
411.773	4.74
411.98	4.75
412.186	4.67
412.392	4.76
412.598	4.95
412.804	5.06
413.01	5.02
413.216	5.08
413.422	5.12
413.628	4.93
413.834	4.74
414.04	4.6
414.246	4.64
414.452	4.71
414.658	4.68
414.864	4.55
415.07	4.58
415.275	4.64
415.481	4.56
415.687	4.64
415.893	4.77
416.099	4.82
416.305	4.84
416.511	4.73
416.716	4.65
416.922	4.66
417.128	4.65
417.334	4.72
417.539	4.71
417.745	4.67
417.951	4.6
418.157	4.6
418.362	4.69
418.568	4.57
418.774	4.62
418.979	4.63
419.185	4.53
419.391	4.57
419.596	4.55
419.802	4.52
420.008	4.53
420.213	3.92
420.419	3.89
420.624	3.83
420.83	3.9
421.035	3.85
421.241	3.86
421.446	3.84
421.652	3.83
421.857	3.74
422.063	3.73
422.268	3.68
422.474	4.29
422.679	4.37
422.885	4.33
423.09	4.4
423.295	4.43
423.501	4.42
423.706	4.41
423.911	4.36
424.117	4.4
424.322	4.51
424.527	4.57
424.733	4.59
424.938	4.52
425.143	4.51
425.349	4.47
425.554	4.51
425.759	4.5
425.964	4.5
426.169	4.54
426.375	4.4
426.58	4.31
426.785	4.23
426.99	4.14
427.195	4.18
427.4	4.22
427.605	4.15
427.811	4.09
428.016	4.12
428.221	4.14
428.426	4.17
428.631	4.42
428.836	4.41
429.041	4.41
429.246	4.4
429.451	4.38
429.656	4.36
429.861	4.45
430.066	4.4
430.271	4.32
430.476	4.37
430.681	4.31
430.886	4.22
431.09	4.15
431.295	4.14
431.5	4.16
431.705	4.21
431.91	4.18
432.115	4.19
432.32	4.31
432.524	4.41
432.729	4.34
432.934	4.29
433.139	4.24
433.343	4.39
433.548	4.44
433.753	4.42
433.958	4.42
434.162	4.51
434.367	4.44
434.572	4.42
434.776	4.38
434.981	4.43
435.186	4.43
435.39	4.46
435.595	4.34
435.799	4.28
436.004	4.23
436.209	4.25
436.413	4.12
436.618	4.15
436.822	4.14
437.027	4.13
437.231	4.22
437.436	4.33
437.64	4.32
437.845	4.32
438.049	4.27
438.253	4.32
438.458	4.19
438.662	4.27
438.867	4.24
439.071	4.29
439.275	4.32
439.48	4.26
439.684	4.19
439.888	4.19
440.093	4.19
440.297	4.25
440.501	4.21
440.706	4.26
440.91	4.23
441.114	4.26
441.318	4.13
441.523	4.07
441.727	4.08
441.931	4.08
442.135	4.06
442.339	4.05
442.543	3.99
442.748	3.87
442.952	3.85
443.156	3.73
443.36	3.71
443.564	3.8
443.768	3.83
443.972	3.81
444.176	3.91
444.38	3.86
444.584	3.87
444.788	3.86
444.992	3.99
445.196	4
445.4	4.03
445.604	4.11
445.808	4.09
446.012	4.08
446.216	4.02
446.42	3.94
446.624	3.97
446.828	3.89
447.032	3.91
447.235	3.86
447.439	3.92
447.643	3.95
447.847	3.91
448.051	3.92
448.254	3.88
448.458	3.9
448.662	3.91
448.866	3.95
449.069	4.04
449.273	4.05
449.477	4.05
449.681	4.02
449.884	4.06
450.088	4.05
450.292	4.05
450.495	4.06
450.699	4.08
450.902	4.12
451.106	4.15
451.31	4.12
451.513	4.17
451.717	4.23
451.92	4.2
452.124	4.16
452.327	4.11
452.531	4.16
452.734	4.17
452.938	4.18
453.141	4.18
453.345	4.08
453.548	4.17
453.752	4.11
453.955	4
454.158	4.01
454.362	3.97
454.565	4.04
454.769	3.96
454.972	4.09
455.175	4.11
455.379	4.07
455.582	4.09
455.785	3.92
455.988	3.96
456.192	4.04
456.395	4.02
456.598	4.16
456.801	4.08
457.005	4.11
457.208	4.02
457.411	3.94
457.614	4.04
457.817	4.08
458.021	4.16
458.224	4.1
458.427	4.06
458.63	4.03
458.833	3.95
459.036	3.99
459.239	3.93
459.442	3.96
459.645	3.95
459.848	3.96
460.051	3.91
460.254	3.91
460.457	3.95
460.66	3.96
460.863	4.01
461.066	4.06
461.269	3.99
461.472	4.03
461.675	3.96
461.878	3.96
462.081	3.87
462.284	3.96
462.486	3.99
462.689	4.01
462.892	4.07
463.095	4.05
463.298	4.04
463.5	4.16
463.703	4.19
463.906	4.13
464.109	4.16
464.311	4.11
464.514	3.99
464.717	3.82
464.92	3.76
465.122	3.81
465.325	3.86
465.528	3.8
465.73	3.83
465.933	3.72
466.135	3.74
466.338	3.82
466.541	3.82
466.743	3.85
466.946	3.92
467.148	3.97
467.351	3.96
467.553	3.93
467.756	4.01
467.958	3.93
468.161	3.95
468.363	4.02
468.566	3.9
468.768	3.96
468.971	4.06
469.173	4.12
469.375	4.14
