Data from 2938818__Reflection_01.txt Node
Date: Thu Mar 12 14:54:57 EDT 2015
User: robert
Spectrometer: USB4E03002
Autoset integration time: false
Trigger mode: 4
Integration Time (sec): 1.000000E-1
Scans to average: 10
Electric dark correction enabled: false
Nonlinearity correction enabled: false
Boxcar width: 5
Stray light correction enabled: false
XAxis mode: Wavelengths
Stop averaging: false
Number of Pixels in Spectrum: 3648
>>>>>Begin Spectral Data<<<<<
177.575	-424.09
177.794	-505.33
178.014	-334.34
178.233	-284.47
178.452	-262.13
178.672	-301.12
178.891	-260.81
179.11	-353.92
179.33	-376.15
179.549	-409.37
179.768	-508.88
179.987	-432.34
180.207	-506.13
180.426	-769.47
180.645	-1880.45
180.864	-2485.44
181.084	-6295.12
181.303	2150
181.522	25000
181.741	-7300
181.96	-1858.97
182.179	-4281.16
182.398	-11632
182.618	-8396.87
182.837	6797.5
183.056	2372.17
183.275	950
183.494	1154.31
183.713	1105.83
183.932	772.02
184.151	762.67
184.37	657.47
184.589	746.22
184.808	789.46
185.027	817.93
185.246	793.94
185.465	1121.9
185.684	1477.56
185.903	755.18
186.122	747.86
186.341	981.27
186.56	805.6
186.779	892.68
186.998	694.49
187.216	521.5
187.435	584.17
187.654	723.22
187.873	633.79
188.092	650.57
188.311	1056.73
188.53	874.85
188.748	709.07
188.967	1070
189.186	629.46
189.405	890.31
189.623	1143.4
189.842	1228.46
190.061	1444.66
190.28	1399.05
190.498	1031.72
190.717	832.46
190.936	1383.11
191.154	1323.58
191.373	599.81
191.592	790.55
191.81	581.67
192.029	660.52
192.248	707.93
192.466	607.87
192.685	708.53
192.904	700.22
193.122	975.75
193.341	909.84
193.559	1010.11
193.778	3022.58
193.996	-2379.65
194.215	-1591.95
194.433	-16058.82
194.652	1237.12
194.87	3018.39
195.089	1825.83
195.307	2578.9
195.526	2548.28
195.744	2386.47
195.963	3197.03
196.181	1612.18
196.399	1309.28
196.618	2709.17
196.836	5525.45
197.055	-2151.85
197.273	6377.08
197.491	5487.93
197.71	10480
197.928	7458.54
198.146	4740.98
198.365	1175.84
198.583	1240.4
198.801	884.68
199.019	1023.87
199.238	1130.08
199.456	722.76
199.674	1141.37
199.892	1352.85
200.111	1494.08
200.329	1272.77
200.547	1286.57
200.765	-111450
200.983	6310.53
201.202	-13861.11
201.42	18078.57
201.638	2494.34
201.856	22133.33
202.074	-17906.67
202.292	4110.29
202.51	6222.45
202.728	1642.47
202.946	2084.03
203.165	1047.97
203.383	1160.73
203.601	813.24
203.819	514.96
204.037	739.45
204.255	839.41
204.473	992.15
204.691	2444.21
204.909	1521.28
205.127	2159
205.345	1570.83
205.562	-27662.5
205.78	1836.72
205.998	1052.38
206.216	951.59
206.434	559.16
206.652	455.11
206.87	442.56
207.088	373.5
207.306	327.23
207.523	335.33
207.741	309.15
207.959	283.41
208.177	287.55
208.395	351.27
208.612	398.01
208.83	480.19
209.048	572.81
209.266	375.73
209.483	420.37
209.701	459.2
209.919	422.93
210.136	444.78
210.354	472.88
210.572	478.2
210.79	428.95
211.007	418.39
211.225	376.9
211.442	374.26
211.66	417.48
211.878	352.24
212.095	332.13
212.313	291.42
212.53	293.84
212.748	290.85
212.966	324.05
213.183	325
213.401	282.93
213.618	317.26
213.836	307.47
214.053	353.54
214.271	365.99
214.488	450.9
214.705	513.58
214.923	488.96
215.14	555.15
215.358	583.21
215.575	541.24
215.793	802.26
216.01	622.39
216.227	786.92
216.445	601.12
216.662	504.41
216.879	405.73
217.097	479.14
217.314	504.94
217.531	405.38
217.749	458.08
217.966	423.58
218.183	380.66
218.4	385.35
218.618	309.99
218.835	307.55
219.052	278.88
219.269	268.46
219.487	242.13
219.704	229.56
219.921	227.69
220.138	191.36
220.355	197.7
220.572	180.86
220.79	173.48
221.007	178.4
221.224	174.22
221.441	176.21
221.658	184.86
221.875	173.39
222.092	151.7
222.309	147.84
222.526	153.38
222.743	140.58
222.96	134.15
223.177	138.67
223.394	132.13
223.611	127.45
223.828	125.78
224.045	114.85
224.262	111.79
224.479	116.06
224.696	102.58
224.913	95.42
225.13	98.14
225.347	96.13
225.564	91.71
225.781	87.4
225.997	83.54
226.214	79.28
226.431	71.6
226.648	62.5
226.865	53.19
227.082	48.22
227.298	42.12
227.515	34.27
227.732	30.31
227.949	27.97
228.165	25.18
228.382	23.02
228.599	21.05
228.816	20.26
229.032	20.45
229.249	19.6
229.466	19.12
229.682	18.8
229.899	19.72
230.116	20.22
230.332	19.42
230.549	20.4
230.765	20.4
230.982	21.47
231.199	21.61
231.415	22.94
231.632	24.67
231.848	25.74
232.065	26.04
232.281	27.58
232.498	27.88
232.714	31.03
232.931	31.84
233.147	32.09
233.364	30.54
233.58	31.04
233.797	31.25
234.013	31.81
234.23	32.23
234.446	32.77
234.662	31.9
234.879	32.41
235.095	31.31
235.312	31.18
235.528	32.36
235.744	34.13
235.961	36.5
236.177	36.49
236.393	36.29
236.61	37.07
236.826	37.56
237.042	37.43
237.258	38.28
237.475	38.7
237.691	38.89
237.907	38.15
238.123	38.5
238.339	36.52
238.556	35.99
238.772	35.11
238.988	34.44
239.204	34.56
239.42	33.13
239.636	32.49
239.853	30.01
240.069	28.6
240.285	27.42
240.501	25.37
240.717	23.15
240.933	21.21
241.149	20.08
241.365	18.26
241.581	16.5
241.797	16.38
242.013	14.82
242.229	14.01
242.445	13.15
242.661	12.74
242.877	12.38
243.093	12.62
243.309	13.39
243.525	12.99
243.741	13.26
243.957	14.45
244.173	14.18
244.388	14.8
244.604	15.05
244.82	15.16
245.036	14.38
245.252	14.31
245.468	13.17
245.683	11.65
245.899	11.44
246.115	10.78
246.331	9.88
246.547	9.33
246.762	8.85
246.978	8.81
247.194	8.81
247.409	8.59
247.625	8.29
247.841	8.79
248.057	9.15
248.272	9.1
248.488	9.68
248.703	9.9
248.919	10.6
249.135	11.29
249.35	11.68
249.566	12.01
249.782	12.94
249.997	14.16
250.213	13.55
250.428	13.51
250.644	13.99
250.859	13.28
251.075	12.72
251.29	12.92
251.506	12.4
251.721	12.02
251.937	12.34
252.152	12.67
252.368	12.51
252.583	12.69
252.798	13.03
253.014	13.18
253.229	14.25
253.445	15.14
253.66	15.09
253.875	16.06
254.091	17.62
254.306	18.48
254.521	19.02
254.737	19.39
254.952	19.83
255.167	19.79
255.383	20.24
255.598	19.71
255.813	19.18
256.028	19.6
256.244	18.9
256.459	18.1
256.674	16.92
256.889	16.76
257.104	16.26
257.32	16.14
257.535	14.44
257.75	13.65
257.965	12.88
258.18	12.19
258.395	10.81
258.61	9.65
258.826	8.7
259.041	7.99
259.256	7.43
259.471	7.16
259.686	6.87
259.901	6.99
260.116	6.86
260.331	6.75
260.546	6.69
260.761	6.87
260.976	7.34
261.191	7.94
261.406	8.68
261.621	8.99
261.836	9.36
262.05	9.72
262.265	10.21
262.48	10.42
262.695	10.75
262.91	11.63
263.125	11.82
263.34	11.78
263.555	11.6
263.769	11.59
263.984	11.44
264.199	11.39
264.414	11.57
264.629	11.97
264.843	11.76
265.058	11.6
265.273	10.82
265.488	11.28
265.702	11.6
265.917	11.85
266.132	11.88
266.346	12.34
266.561	11.92
266.776	11.88
266.99	10.82
267.205	11.11
267.42	11.35
267.634	11.9
267.849	11.1
268.063	10.9
268.278	10.83
268.492	10.81
268.707	10.4
268.922	10.95
269.136	10.79
269.351	11.47
269.565	11.3
269.78	10.77
269.994	10.67
270.209	10.72
270.423	10.56
270.637	10.15
270.852	10
271.066	9.98
271.281	9.44
271.495	9.28
271.709	9.17
271.924	9.25
272.138	9.52
272.353	9.2
272.567	9.47
272.781	9.62
272.996	9.52
273.21	9.49
273.424	9.54
273.638	9.75
273.853	9.82
274.067	9.72
274.281	9.98
274.495	9.79
274.71	10.23
274.924	10.14
275.138	9.77
275.352	9.81
275.566	9.71
275.781	9.92
275.995	9.79
276.209	10.01
276.423	10.28
276.637	9.87
276.851	10.12
277.065	9.41
277.279	9.4
277.493	9.71
277.707	10.02
277.921	10.02
278.135	9.69
278.349	9.63
278.563	9.25
278.777	9.2
278.991	9.07
279.205	9.07
279.419	9.06
279.633	9.39
279.847	9.4
280.061	9.47
280.275	9.14
280.489	9.42
280.703	9.51
280.917	9.5
281.131	8.94
281.344	8.88
281.558	8.44
281.772	8.58
281.986	7.91
282.2	7.4
282.414	7.19
282.627	7.31
282.841	7.16
283.055	7.35
283.269	7.51
283.482	7.89
283.696	7.68
283.91	7.67
284.123	7.48
284.337	7.27
284.551	7.31
284.764	7.13
284.978	7.22
285.192	7.05
285.405	6.71
285.619	6.61
285.833	6.66
286.046	6.76
286.26	6.62
286.473	6.62
286.687	7.05
286.9	7.43
287.114	7.58
287.327	7.58
287.541	7.54
287.754	7.76
287.968	7.61
288.181	7.45
288.395	7.33
288.608	7.63
288.822	7.62
289.035	7.62
289.248	7.27
289.462	7.23
289.675	7.19
289.889	7.12
290.102	6.55
290.315	6.44
290.529	6.31
290.742	6.5
290.955	6.58
291.169	6.47
291.382	6.24
291.595	6.5
291.808	6.45
292.022	6.36
292.235	6.46
292.448	7.05
292.661	7.48
292.875	7.5
293.088	7.7
293.301	7.79
293.514	8.24
293.727	8.72
293.94	8.54
294.153	8.67
294.367	8.89
294.58	9.11
294.793	8.79
295.006	8.56
295.219	8.75
295.432	8.57
295.645	8.41
295.858	8.31
296.071	8
296.284	8.09
296.497	7.86
296.71	7.53
296.923	7.51
297.136	7.65
297.349	8.02
297.562	7.96
297.775	7.92
297.988	7.74
298.201	7.71
298.414	7.89
298.626	7.81
298.839	8.11
299.052	8.45
299.265	8.28
299.478	8.29
299.691	8.19
299.903	8.37
300.116	8.54
300.329	9.07
300.542	9.17
300.755	9.45
300.967	9.57
301.18	9.52
301.393	9.69
301.605	9.68
301.818	9.98
302.031	10.02
302.243	9.88
302.456	10.17
302.669	10.08
302.881	10.12
303.094	9.89
303.307	9.79
303.519	9.64
303.732	9.47
303.944	9.83
304.157	9.61
304.37	9.42
304.582	9.63
304.795	9.27
305.007	9.64
305.22	9.61
305.432	9.7
305.645	10.22
305.857	10.58
306.069	10.95
306.282	10.87
306.494	11.08
306.707	10.96
306.919	11.14
307.132	11.49
307.344	11.25
307.556	11.18
307.769	11.09
307.981	10.87
308.193	10.66
308.406	10.23
308.618	10.67
308.83	10.79
309.043	11.07
309.255	10.82
309.467	10.78
309.679	10.46
309.892	10.56
310.104	10.7
310.316	11.15
310.528	11.28
310.74	11.55
310.953	11.44
311.165	11.46
311.377	11.36
311.589	11.47
311.801	11.55
312.013	11.93
312.225	12.06
312.437	12.04
312.649	11.67
312.862	11.74
313.074	11.67
313.286	11.7
313.498	11.62
313.71	12.05
313.922	12.4
314.134	11.98
314.346	11.46
314.558	11.32
314.77	11.57
314.982	11.81
315.193	12.13
315.405	11.87
315.617	11.7
315.829	11.47
316.041	11.31
316.253	11.46
316.465	11.72
316.677	12.63
316.888	12.61
317.1	12.51
317.312	12.57
317.524	12.34
317.736	13.17
317.947	13.79
318.159	14.59
318.371	14.96
318.583	14.67
318.794	14.88
319.006	14.76
319.218	15.08
319.43	14.94
319.641	14.86
319.853	15.13
320.064	14.65
320.276	14.29
320.488	13.91
320.699	13.42
320.911	13.22
321.123	13.44
321.334	13.57
321.546	14.07
321.757	14.27
321.969	14.42
322.18	14.07
322.392	14.07
322.603	14.03
322.815	14.27
323.026	14.4
323.238	14.87
323.449	15.2
323.661	14.89
323.872	14.42
324.083	14.63
324.295	14.29
324.506	14.3
324.718	14.48
324.929	14.72
325.14	14.38
325.352	14.34
325.563	13.92
325.774	13.33
325.986	13.39
326.197	13.66
326.408	13.47
326.62	14.03
326.831	13.93
327.042	14.02
327.253	13.53
327.464	14.05
327.676	14.3
327.887	14.56
328.098	14.75
328.309	14.69
328.52	14.68
328.732	15.02
328.943	14.72
329.154	15.25
329.365	15.01
329.576	15.06
329.787	14.91
329.998	14.66
330.209	14.8
330.42	14.98
330.631	15.53
330.842	15.31
331.053	15.16
331.264	14.99
331.475	15.09
331.686	15.21
331.897	15.65
332.108	15.59
332.319	15.74
332.53	15.51
332.741	15.23
332.952	14.83
333.163	15.05
333.374	15.07
333.585	15.3
333.795	15.37
334.006	15.39
334.217	15.49
334.428	15.71
334.639	15.72
334.849	15.58
335.06	15.68
335.271	16.04
335.482	16.07
335.692	16.36
335.903	16.81
336.114	16.66
336.325	17.08
336.535	17.22
336.746	17.16
336.957	17.1
337.167	17.38
337.378	17.61
337.589	17.31
337.799	17.28
338.01	16.95
338.22	16.84
338.431	17.21
338.642	16.78
338.852	16.49
339.063	16.08
339.273	16.25
339.484	16.51
339.694	16.3
339.905	16.35
340.115	15.9
340.326	16.1
340.536	15.81
340.746	15.08
340.957	14.84
341.167	14.86
341.378	14.97
341.588	14.75
341.799	14.49
342.009	14.44
342.219	14.3
342.43	14.47
342.64	14.09
342.85	13.89
343.061	13.93
343.271	14.17
343.481	13.94
343.691	13.97
343.902	14.09
344.112	14.05
344.322	14.3
344.532	14.35
344.743	14.44
344.953	14.44
345.163	14.55
345.373	14.56
345.583	14.49
345.793	14.68
346.004	14.99
346.214	14.94
346.424	15.08
346.634	14.97
346.844	14.95
347.054	14.7
347.264	14.52
347.474	14.49
347.684	14.59
347.894	14.68
348.104	14.62
348.314	14.34
348.524	14.28
348.734	14.27
348.944	14.09
349.154	14.27
349.364	14.46
349.574	14.6
349.784	14.84
349.994	14.7
350.204	14.4
350.413	14.36
350.623	14.43
350.833	14.34
351.043	14.29
351.253	14.37
351.463	14.15
351.672	14.11
351.882	14.04
352.092	13.59
352.302	13.28
352.511	13.37
352.721	13.4
352.931	13.31
353.141	13.3
353.35	13.17
353.56	13.11
353.77	13.09
353.979	13.03
354.189	13.15
354.399	13.27
354.608	13.44
354.818	13.47
355.027	13.56
355.237	13.39
355.447	13.21
355.656	12.97
355.866	12.92
356.075	12.84
356.285	12.79
356.494	12.47
356.704	12.53
356.913	12.54
357.123	12.6
357.332	12.37
357.542	12.46
357.751	12.5
357.96	12.45
358.17	12.26
358.379	12.11
358.589	12.17
358.798	12.02
359.007	11.82
359.217	11.64
359.426	11.54
359.635	11.48
359.845	11.23
360.054	11.16
360.263	11.14
360.472	11.27
360.682	11.09
360.891	10.94
361.1	11.01
361.309	10.85
361.519	10.95
361.728	10.72
361.937	10.64
362.146	10.62
362.355	10.68
362.564	10.69
362.774	10.75
362.983	10.79
363.192	10.85
363.401	11
363.61	11.2
363.819	11.2
364.028	11.4
364.237	11.48
364.446	11.45
364.655	11.24
364.864	11.37
365.073	11.37
365.282	11.38
365.491	11.34
365.7	11.37
365.909	11.55
366.118	11.58
366.327	11.58
366.536	11.35
366.745	11.45
366.954	11.77
367.162	11.62
367.371	11.48
367.58	11.86
367.789	11.63
367.998	11.57
368.207	11.33
368.415	11.38
368.624	11.41
368.833	11.71
369.042	11.58
369.25	11.48
369.459	11.65
369.668	11.73
369.877	11.56
370.085	11.76
370.294	11.86
370.503	11.63
370.711	11.47
370.92	11.27
371.129	11.3
371.337	11.29
371.546	11.14
371.754	11.17
371.963	10.99
372.171	10.85
372.38	10.84
372.589	10.74
372.797	11.1
373.006	11.11
373.214	11.24
373.423	11.01
373.631	11.3
373.84	11.38
374.048	11.11
374.256	11.02
374.465	10.92
374.673	11.02
374.882	11.11
375.09	10.66
375.298	10.48
375.507	10.59
375.715	10.82
375.923	10.44
376.132	10.59
376.34	10.54
376.548	10.53
376.757	10.59
376.965	10.33
377.173	10.16
377.381	10.41
377.59	10.48
377.798	10.46
378.006	10.28
378.214	10.66
378.423	10.41
378.631	10.32
378.839	10.17
379.047	10.28
379.255	10.53
379.463	10.58
379.671	10.35
379.879	10.23
380.088	9.97
380.296	9.83
380.504	9.52
380.712	9.57
380.92	9.73
381.128	9.78
381.336	9.61
381.544	9.29
381.752	9.36
381.96	9.36
382.168	9.41
382.376	9.61
382.584	9.7
382.791	9.64
382.999	9.8
383.207	9.79
383.415	10.1
383.623	9.92
383.831	10.07
384.039	9.77
384.247	9.88
384.454	10.08
384.662	9.92
384.87	9.85
385.078	9.8
385.285	9.33
385.493	9.21
385.701	8.98
385.909	9.05
386.116	8.92
386.324	9.04
386.532	8.88
386.739	8.75
386.947	8.74
387.155	8.68
387.362	8.75
387.57	8.91
387.778	8.96
387.985	8.99
388.193	9.14
388.4	9.17
388.608	9.33
388.816	9.46
389.023	9.36
389.231	9.11
389.438	9.09
389.646	9.02
389.853	9.08
390.061	8.89
390.268	8.84
390.475	8.63
390.683	8.71
390.89	8.34
391.098	8.21
391.305	8.01
391.512	8.27
391.72	8.15
391.927	8.05
392.135	7.96
392.342	7.88
392.549	7.86
392.756	7.77
392.964	7.73
393.171	7.83
393.378	7.9
393.586	8.07
393.793	7.78
394	7.97
394.207	7.85
394.414	7.92
394.622	8.1
394.829	7.92
395.036	7.97
395.243	7.9
395.45	7.76
395.657	7.71
395.864	7.71
396.072	7.94
396.279	7.8
396.486	8.01
396.693	7.89
396.9	7.66
397.107	7.66
397.314	7.63
397.521	7.78
397.728	8
397.935	8.02
398.142	7.95
398.349	7.92
398.556	7.88
398.763	7.72
398.97	7.77
399.177	8.09
399.383	8.17
399.59	8.18
399.797	8
400.004	7.93
400.211	7.84
400.418	7.88
400.625	7.86
400.831	7.84
401.038	7.97
401.245	7.88
401.452	7.74
401.658	7.64
401.865	7.83
402.072	7.85
402.279	7.74
402.485	7.87
402.692	7.65
402.899	7.8
403.105	7.78
403.312	7.78
403.519	7.8
403.725	7.72
403.932	7.74
404.138	7.74
404.345	7.64
404.552	7.6
404.758	7.68
404.965	7.83
405.171	7.48
405.378	7.61
405.584	7.71
405.791	7.74
405.997	7.66
406.204	7.71
406.41	7.67
406.617	7.83
406.823	7.81
407.029	7.76
407.236	7.87
407.442	8.12
407.649	8.26
407.855	8.17
408.061	8.04
408.268	8.17
408.474	8.05
408.68	7.95
408.887	7.74
409.093	7.89
409.299	7.59
409.505	7.35
409.712	7.41
409.918	7.26
410.124	7.28
410.33	7.43
410.537	7.39
410.743	7.5
410.949	7.43
411.155	7.55
411.361	7.56
411.567	7.55
411.773	7.54
411.98	7.37
412.186	7.26
412.392	7.16
412.598	7.17
412.804	7.21
413.01	7.31
413.216	7.32
413.422	7.14
413.628	7.11
413.834	7.18
414.04	7.4
414.246	7.43
414.452	7.43
414.658	7.24
414.864	7.12
415.07	7.2
415.275	6.96
415.481	6.94
415.687	7
415.893	6.89
416.099	6.78
416.305	6.6
416.511	6.45
416.716	6.39
416.922	6.42
417.128	6.37
417.334	6.21
417.539	6.25
417.745	6.18
417.951	6.06
418.157	6.09
418.362	6.12
418.568	6.13
418.774	6.08
418.979	5.98
419.185	5.91
419.391	5.85
419.596	5.8
419.802	5.78
420.008	5.75
420.213	5.84
420.419	5.74
420.624	5.7
420.83	5.61
421.035	5.67
421.241	5.76
421.446	5.78
421.652	5.75
421.857	5.81
422.063	5.74
422.268	5.76
422.474	5.62
422.679	5.6
422.885	5.43
423.09	5.42
423.295	5.29
423.501	5.19
423.706	5.14
423.911	5.17
424.117	5.02
424.322	5.08
424.527	5.04
424.733	5.09
424.938	5.1
425.143	5.2
425.349	5.32
425.554	5.43
425.759	5.58
425.964	5.65
426.169	5.65
426.375	5.79
426.58	5.79
426.785	5.94
426.99	6.01
427.195	6.13
427.4	6.21
427.605	6.16
427.811	6.15
428.016	6.07
428.221	6.11
428.426	6.13
428.631	6.06
428.836	6.18
429.041	6.18
429.246	6.15
429.451	6.13
429.656	6.14
429.861	6.15
430.066	6.22
430.271	6.3
430.476	6.32
430.681	6.36
430.886	6.4
431.09	6.4
431.295	6.24
431.5	6.19
431.705	6.05
431.91	6
432.115	5.99
432.32	5.92
432.524	5.81
432.729	5.76
432.934	5.68
433.139	5.68
433.343	5.59
433.548	5.56
433.753	5.63
433.958	5.73
434.162	5.98
434.367	5.91
434.572	5.96
434.776	6.01
434.981	5.98
435.186	6.06
435.39	6.06
435.595	6.1
435.799	6.14
436.004	6.08
436.209	6
436.413	5.75
436.618	5.68
436.822	5.66
437.027	5.68
437.231	5.69
437.436	5.63
437.64	5.61
437.845	5.61
438.049	5.63
438.253	5.65
438.458	5.65
438.662	5.64
438.867	5.72
439.071	5.63
439.275	5.57
439.48	5.53
439.684	5.49
439.888	5.48
440.093	5.38
440.297	5.35
440.501	5.35
440.706	5.33
440.91	5.35
441.114	5.33
441.318	5.44
441.523	5.44
441.727	5.55
441.931	5.57
442.135	5.56
442.339	5.58
442.543	5.57
442.748	5.56
442.952	5.58
443.156	5.65
443.36	5.62
443.564	5.61
443.768	5.53
443.972	5.42
444.176	5.46
444.38	5.5
444.584	5.52
444.788	5.6
444.992	5.61
445.196	5.62
445.4	5.58
445.604	5.55
445.808	5.48
446.012	5.55
446.216	5.48
446.42	5.48
446.624	5.41
446.828	5.33
447.032	5.25
447.235	5.24
447.439	5.21
447.643	5.17
447.847	5.18
448.051	5.18
448.254	5.15
448.458	5.2
448.662	5.26
448.866	5.28
449.069	5.38
449.273	5.46
449.477	5.46
449.681	5.53
449.884	5.54
450.088	5.6
450.292	5.63
450.495	5.62
450.699	5.72
450.902	5.58
451.106	5.55
451.31	5.63
451.513	5.64
451.717	5.62
451.92	5.55
452.124	5.7
452.327	5.67
452.531	5.77
452.734	5.77
452.938	5.69
453.141	5.71
453.345	5.72
453.548	5.75
453.752	5.8
453.955	5.94
454.158	5.97
454.362	5.95
454.565	6
454.769	5.98
454.972	6.06
455.175	6.22
455.379	6.39
455.582	6.5
455.785	6.38
455.988	6.4
456.192	6.24
456.395	6.19
456.598	6.18
456.801	6.21
457.005	6.09
457.208	6.06
457.411	5.91
457.614	5.66
457.817	5.59
458.021	5.59
458.224	5.64
458.427	5.66
458.63	5.68
458.833	5.68
459.036	5.57
459.239	5.62
459.442	5.64
459.645	5.6
459.848	5.64
460.051	5.67
460.254	5.65
460.457	5.54
