Data from 2938773__Reflection_04.txt Node
Date: Fri Mar 13 14:34:17 EDT 2015
User: robert
Spectrometer: USB4E03002
Autoset integration time: false
Trigger mode: 4
Integration Time (sec): 1.000000E-1
Scans to average: 10
Electric dark correction enabled: false
Nonlinearity correction enabled: false
Boxcar width: 5
Stray light correction enabled: false
XAxis mode: Wavelengths
Stop averaging: false
Number of Pixels in Spectrum: 3648
>>>>>Begin Spectral Data<<<<<
177.575	-202.78
177.794	-464.38
178.014	-1692.59
178.233	932.84
178.452	1808.11
178.672	410.23
178.891	442.68
179.11	2865.22
179.33	-956.72
179.549	-418.25
179.768	-1473.33
179.987	677.61
180.207	1777.78
180.426	713.85
180.645	-1017.14
180.864	-658.06
181.084	-173.62
181.303	-256.07
181.522	-1204.26
181.741	3653.33
181.96	251.11
182.179	236.6
182.398	176.22
182.618	177.26
182.837	249.45
183.056	214.66
183.275	175.51
183.494	117.02
183.713	129.77
183.932	112.69
184.151	104.6
184.37	130.65
184.589	143.26
184.808	310
185.027	163.16
185.246	159.29
185.465	142.3
185.684	124.5
185.903	142.98
186.122	116.39
186.341	133.18
186.56	169.85
186.779	211.44
186.998	166.46
187.216	224.53
187.435	534.75
187.654	223.05
187.873	191.76
188.092	243.84
188.311	484.97
188.53	413.46
188.748	1223.44
188.967	-2454.17
189.186	523.19
189.405	569.06
189.623	266.3
189.842	194.93
190.061	243.99
190.28	264.82
190.498	176.84
190.717	158.11
190.936	156.63
191.154	131.69
191.373	141.23
191.592	158.27
191.81	138.22
192.029	157.21
192.248	182.08
192.466	166.08
192.685	198.95
192.904	232.38
193.122	217.31
193.341	304.3
193.559	503.75
193.778	284.59
193.996	316.42
194.215	2284
194.433	482.24
194.652	299.32
194.87	441.49
195.089	4540
195.307	846.15
195.526	-57.94
195.744	627.66
195.963	175.96
196.181	171.49
196.399	142.67
196.618	158.08
196.836	218.39
197.055	318.18
197.273	516.48
197.491	1676.47
197.71	966.67
197.928	335.75
198.146	377.97
198.365	645.33
198.583	715.15
198.801	-183.84
199.019	-110.34
199.238	-51.18
199.456	-47.07
199.674	-80.79
199.892	-43.09
200.111	-73.63
200.329	-81.02
200.547	-69.76
200.765	-172.99
200.983	-188.48
201.202	-430.84
201.42	-1029.17
201.638	2652.17
201.856	572.16
202.074	1234.15
202.292	310.53
202.51	396.9
202.728	223.83
202.946	450.34
203.165	1026.98
203.383	56000
203.601	418.31
203.819	506.93
204.037	243.85
204.255	288.02
204.473	210.02
204.691	488.95
204.909	210.8
205.127	312.97
205.345	172.19
205.562	128.43
205.78	69.9
205.998	62.2
206.216	77.19
206.434	93.7
206.652	112.67
206.87	90.87
207.088	82.84
207.306	149.89
207.523	120.89
207.741	106.83
207.959	128.31
208.177	140.72
208.395	146.06
208.612	175.16
208.83	136.29
209.048	133.74
209.266	670
209.483	-223.53
209.701	-12
209.919	362.5
210.136	5120
210.354	-658.33
210.572	-136.61
210.79	499.07
211.007	219.62
211.225	889.83
211.442	193.18
211.66	123.63
211.878	115.29
212.095	120
212.313	120.14
212.53	123.23
212.748	91.08
212.966	80.19
213.183	80.66
213.401	81.83
213.618	80.65
213.836	68.73
214.053	54.08
214.271	66.98
214.488	56.67
214.705	50
214.923	52.16
215.14	69.41
215.358	72.1
215.575	79.63
215.793	79.03
216.01	70.69
216.227	91.47
216.445	102.8
216.662	92.55
216.879	101.13
217.097	100.17
217.314	105.53
217.531	100.32
217.749	90.44
217.966	97.51
218.183	91.05
218.4	74.04
218.618	67.63
218.835	56.56
219.052	50.6
219.269	48.27
219.487	30.7
219.704	32.01
219.921	32.84
220.138	28.75
220.355	20.48
220.572	21.36
220.79	27.8
221.007	26.42
221.224	26.12
221.441	32.9
221.658	39.27
221.875	45.95
222.092	53.38
222.309	60.46
222.526	61.59
222.743	62.56
222.96	63.18
223.177	58.13
223.394	50.63
223.611	52.91
223.828	53.61
224.045	49.64
224.262	57.51
224.479	50.42
224.696	43.94
224.913	43.86
225.13	39.93
225.347	38.42
225.564	37.14
225.781	39.84
225.997	36.21
226.214	30.71
226.431	27.43
226.648	16.54
226.865	15.93
227.082	13.74
227.298	13.47
227.515	11.68
227.732	10.85
227.949	10.16
228.165	9.17
228.382	9.23
228.599	9.15
228.816	9.05
229.032	9.31
229.249	8.65
229.466	8.9
229.682	8.4
229.899	8.4
230.116	7.66
230.332	7.96
230.549	8.07
230.765	8.78
230.982	8.96
231.199	9.65
231.415	10.92
231.632	11.2
231.848	13.38
232.065	12.7
232.281	14.59
232.498	16.29
232.714	18.96
232.931	19.94
233.147	18.24
233.364	18.16
233.58	15.71
233.797	15.5
234.013	15.97
234.23	13.93
234.446	15.36
234.662	13.67
234.879	14.16
235.095	12.77
235.312	13
235.528	13.18
235.744	12.23
235.961	15.49
236.177	15.33
236.393	14.76
236.61	13.61
236.826	12.51
237.042	12.69
237.258	10.26
237.475	10.37
237.691	8.54
237.907	7.56
238.123	8.91
238.339	7.91
238.556	8.01
238.772	8.86
238.988	8.26
239.204	8.06
239.42	9.43
239.636	10.44
239.853	10.13
240.069	10.92
240.285	10.83
240.501	10.21
240.717	9.54
240.933	9.14
241.149	8.71
241.365	8.65
241.581	8.38
241.797	7.9
242.013	7.94
242.229	7.64
242.445	7.07
242.661	7.39
242.877	7.27
243.093	7.2
243.309	6.76
243.525	6.62
243.741	7.23
243.957	7.53
244.173	7.57
244.388	7.45
244.604	6.37
244.82	6.59
245.036	5.93
245.252	5.16
245.468	5.45
245.683	5.88
245.899	5.5
246.115	5.24
246.331	4.95
246.547	4.95
246.762	4.89
246.978	5.42
247.194	5.52
247.409	5.87
247.625	6.11
247.841	5.86
248.057	5.78
248.272	5.97
248.488	6.35
248.703	6.61
248.919	6.75
249.135	7.01
249.35	7.43
249.566	7.47
249.782	7.28
249.997	8.13
250.213	8.96
250.428	9.88
250.644	9.42
250.859	8.68
251.075	8.57
251.29	7.91
251.506	8.12
251.721	7.35
251.937	7.13
252.152	7.23
252.368	6.61
252.583	6.08
252.798	5.45
253.014	6.15
253.229	6.37
253.445	6.47
253.66	6.97
253.875	6.61
254.091	6.94
254.306	7.45
254.521	7.23
254.737	7.6
254.952	7.67
255.167	7.35
255.383	6.34
255.598	5.49
255.813	4.92
256.028	4.72
256.244	3.99
256.459	4.6
256.674	3.84
256.889	3.96
257.104	3.75
257.32	4.42
257.535	4.37
257.75	4.83
257.965	4.94
258.18	4.99
258.395	4.74
258.61	5.14
258.826	4.56
259.041	4.78
259.256	4.71
259.471	4.29
259.686	3.79
259.901	3.95
260.116	3.78
260.331	3.85
260.546	3.65
260.761	3.73
260.976	3.33
261.191	3.45
261.406	3.19
261.621	3.04
261.836	3
262.05	2.83
262.265	2.69
262.48	2.63
262.695	2.32
262.91	2.56
263.125	2.46
263.34	2.63
263.555	2.76
263.769	3.34
263.984	3.15
264.199	3.16
264.414	3.58
264.629	3.75
264.843	4.3
265.058	4.33
265.273	4.64
265.488	4.7
265.702	5.61
265.917	5.43
266.132	4.99
266.346	4.92
266.561	5.79
266.776	5.84
266.99	5.8
267.205	5.38
267.42	5.51
267.634	5.55
267.849	5.6
268.063	5.45
268.278	5.34
268.492	5.06
268.707	5.21
268.922	4.44
269.136	4.72
269.351	4.41
269.565	4.52
269.78	4.65
269.994	4.79
270.209	4.76
270.423	4.32
270.637	4.02
270.852	3.88
271.066	3.96
271.281	4.09
271.495	3.87
271.709	3.88
271.924	4.03
272.138	3.76
272.353	3.61
272.567	3.61
272.781	3.52
272.996	3.83
273.21	4.28
273.424	4.58
273.638	4.66
273.853	4.66
274.067	4.61
274.281	4.69
274.495	4.55
274.71	4.3
274.924	4.26
275.138	4.5
275.352	4.4
275.566	4.3
275.781	3.61
275.995	3.96
276.209	4.34
276.423	4.05
276.637	3.5
276.851	3.84
277.065	4.27
277.279	4.37
277.493	4.15
277.707	4.47
277.921	4.15
278.135	4.53
278.349	4.05
278.563	3.94
278.777	4.45
278.991	4.95
279.205	5.12
279.419	4.62
279.633	4.63
279.847	4.48
280.061	4.12
280.275	4.07
280.489	4.14
280.703	4.15
280.917	4.02
281.131	3.7
281.344	3.36
281.558	2.75
281.772	3.24
281.986	2.94
282.2	3.19
282.414	3.25
282.627	3.45
282.841	3.28
283.055	3.51
283.269	3.16
283.482	3.35
283.696	3.38
283.91	3.5
284.123	3.03
284.337	3.39
284.551	3.4
284.764	3.38
284.978	3.19
285.192	3.37
285.405	3.19
285.619	3.12
285.833	2.95
286.046	2.9
286.26	2.9
286.473	3.13
286.687	2.82
286.9	2.77
287.114	2.83
287.327	2.75
287.541	2.49
287.754	2.63
287.968	2.97
288.181	3.15
288.395	3.45
288.608	3.91
288.822	3.89
289.035	3.94
289.248	3.82
289.462	3.69
289.675	3.95
289.889	3.92
290.102	3.66
290.315	3.5
290.529	3.52
290.742	3.64
290.955	3.25
291.169	3.36
291.382	3.4
291.595	3.53
291.808	3.56
292.022	3.51
292.235	3.31
292.448	3.31
292.661	3.5
292.875	3.2
293.088	3.19
293.301	3.32
293.514	3.26
293.727	3.51
293.94	3.39
294.153	3.47
294.367	3.22
294.58	3.32
294.793	3.19
295.006	3.2
295.219	3.36
295.432	3.18
295.645	3.5
295.858	3.22
296.071	3.1
296.284	3.05
296.497	3.17
296.71	3.43
296.923	3.86
297.136	4.21
297.349	4
297.562	4.13
297.775	4.23
297.988	4.23
298.201	4.32
298.414	4.37
298.626	4.7
298.839	4.58
299.052	4.53
299.265	4.12
299.478	4
299.691	3.87
299.903	3.73
300.116	3.69
300.329	3.43
300.542	3.8
300.755	3.55
300.967	3.32
301.18	3.53
301.393	3.73
301.605	4.05
301.818	4.11
302.031	4.46
302.243	4.33
302.456	4.37
302.669	4.59
302.881	4.43
303.094	4.34
303.307	4.7
303.519	4.46
303.732	4.41
303.944	4.19
304.157	4.01
304.37	4.03
304.582	4.17
304.795	4.2
305.007	4.37
305.22	4.45
305.432	4.71
305.645	4.56
305.857	4.86
306.069	4.74
306.282	4.94
306.494	4.96
306.707	4.74
306.919	4.72
307.132	4.48
307.344	4.49
307.556	4.6
307.769	4.68
307.981	4.69
308.193	4.28
308.406	4.36
308.618	4.31
308.83	4.61
309.043	4.79
309.255	4.85
309.467	4.78
309.679	4.26
309.892	4.12
310.104	4.16
310.316	3.95
310.528	4.07
310.74	4.23
310.953	4.38
311.165	4.25
311.377	4.12
311.589	4.64
311.801	4.7
312.013	5.04
312.225	4.88
312.437	5.01
312.649	5.07
312.862	5.25
313.074	4.86
313.286	4.86
313.498	4.75
313.71	5.26
313.922	5.01
314.134	5.43
314.346	5.28
314.558	5.94
314.77	6.01
314.982	6.11
315.193	6.11
315.405	6.43
315.617	6.28
315.829	6.67
316.041	6.51
316.253	6.12
316.465	6.51
316.677	6.66
316.888	6.59
317.1	6.34
317.312	6.81
317.524	6.75
317.736	7.04
317.947	7.27
318.159	7.7
318.371	8.17
318.583	8.01
318.794	7.72
319.006	7.89
319.218	7.89
319.43	7.74
319.641	7.67
319.853	7.79
320.064	7.51
320.276	7.63
320.488	7.03
320.699	6.73
320.911	7.33
321.123	7.14
321.334	6.71
321.546	6.7
321.757	6.82
321.969	6.56
322.18	6.92
322.392	7.41
322.603	7.23
322.815	7.72
323.026	8.2
323.238	7.95
323.449	7.76
323.661	7.98
323.872	7.94
324.083	8.51
324.295	8.84
324.506	8.73
324.718	8.52
324.929	8.63
325.14	8.28
325.352	7.9
325.563	7.88
325.774	7.86
325.986	8.32
326.197	8.56
326.408	8.64
326.62	8.82
326.831	9.09
327.042	9.33
327.253	9.69
327.464	10.04
327.676	10.41
327.887	10.74
328.098	11.26
328.309	11.45
328.52	11.8
328.732	12.03
328.943	12.34
329.154	12.26
329.365	12.57
329.576	12.43
329.787	12.61
329.998	12.1
330.209	12.34
330.42	12.92
330.631	13.13
330.842	13.09
331.053	13.36
331.264	13.04
331.475	12.82
331.686	12.93
331.897	13.46
332.108	13.45
332.319	14.18
332.53	14.4
332.741	14.26
332.952	13.98
333.163	13.71
333.374	13.09
333.585	13.3
333.795	13.68
334.006	13.41
334.217	13.34
334.428	13.24
334.639	13.45
334.849	12.88
335.06	12.64
335.271	12.81
335.482	12.75
335.692	13.1
335.903	13.07
336.114	13.29
336.325	13.38
336.535	13.41
336.746	13.55
336.957	13.24
337.167	13.73
337.378	13.95
337.589	14.08
337.799	14.05
338.01	13.91
338.22	13.95
338.431	13.76
338.642	13.55
338.852	13.3
339.063	13.49
339.273	13.59
339.484	13.88
339.694	13.38
339.905	13.13
340.115	13.59
340.326	13.5
340.536	13.17
340.746	13.18
340.957	13.67
341.167	13.74
341.378	13.58
341.588	13.36
341.799	13.26
342.009	13.25
342.219	13.21
342.43	12.91
342.64	13.27
342.85	13.48
343.061	13.32
343.271	13.02
343.481	13.01
343.691	12.94
343.902	13.25
344.112	13.16
344.322	13.22
344.532	13.24
344.743	13.55
344.953	13.39
345.163	13.37
345.373	13.49
345.583	13.76
345.793	13.75
346.004	13.59
346.214	13.52
346.424	13.51
346.634	13.82
346.844	13.49
347.054	13.11
347.264	13.04
347.474	13.21
347.684	13.13
347.894	12.9
348.104	13.07
348.314	13.38
348.524	13.11
348.734	12.81
348.944	12.72
349.154	13.2
349.364	13.19
349.574	13.08
349.784	12.97
349.994	13.12
350.204	13.21
350.413	13
350.623	12.96
350.833	12.79
351.043	12.85
351.253	13.05
351.463	12.94
351.672	12.96
351.882	13.32
352.092	13.41
352.302	13.16
352.511	12.9
352.721	12.87
352.931	12.85
353.141	12.6
353.35	12.47
353.56	12.24
353.77	12.14
353.979	12.17
354.189	11.88
354.399	11.7
354.608	11.87
354.818	12.03
355.027	12.03
355.237	12.03
355.447	12.52
355.656	12.75
355.866	12.63
356.075	12.5
356.285	12.46
356.494	12.35
356.704	12.31
356.913	12.42
357.123	12.26
357.332	12.25
357.542	12.31
357.751	12.27
357.96	12.2
358.17	12.31
358.379	12.47
358.589	12.41
358.798	12.62
359.007	12.67
359.217	12.54
359.426	12.61
359.635	12.78
359.845	12.56
360.054	12.33
360.263	12.24
360.472	12.13
360.682	12.16
360.891	12.28
361.1	12.23
361.309	12.21
361.519	12.1
361.728	12.12
361.937	11.95
362.146	11.96
362.355	12.04
362.564	12.01
362.774	12.19
362.983	12.08
363.192	12.02
363.401	11.96
363.61	11.91
363.819	12.01
364.028	11.82
364.237	11.72
364.446	11.57
364.655	11.57
364.864	11.62
365.073	11.38
365.282	11.34
365.491	11.19
365.7	11.16
365.909	11.31
366.118	11.44
366.327	11.4
366.536	11.55
366.745	11.58
366.954	11.32
367.162	11.15
367.371	11.19
367.58	11.43
367.789	11.46
367.998	11.28
368.207	11.17
368.415	10.92
368.624	10.84
368.833	10.7
369.042	10.9
369.25	11.24
369.459	11.35
369.668	11.29
369.877	10.99
370.085	11.09
370.294	11.27
370.503	11.36
370.711	11.29
370.92	11.53
371.129	11.32
371.337	11.15
371.546	11.02
371.754	11.27
371.963	11.18
372.171	11.32
372.38	11.25
372.589	11.21
372.797	10.91
373.006	10.77
373.214	10.53
373.423	10.68
373.631	10.58
373.84	10.6
374.048	10.24
374.256	10.01
374.465	9.9
374.673	9.93
374.882	9.87
375.09	9.99
375.298	10.36
375.507	10.31
375.715	10.04
375.923	9.95
376.132	9.71
376.34	9.56
376.548	9.93
376.757	9.7
376.965	9.52
377.173	9.22
377.381	9.15
377.59	8.93
377.798	9
378.006	9.13
378.214	9.2
378.423	9.19
378.631	9.31
378.839	9.02
379.047	9.18
379.255	9.32
379.463	9.34
379.671	9.15
379.879	9.25
380.088	9.09
380.296	9.02
380.504	8.86
380.712	8.81
380.92	8.71
381.128	8.74
381.336	8.4
381.544	8.23
381.752	8.18
381.96	8.25
382.168	8.07
382.376	8.29
382.584	8.46
382.791	8.36
382.999	8.55
383.207	8.46
383.415	8.61
383.623	8.57
383.831	8.6
384.039	8.92
384.247	8.83
384.454	8.8
384.662	8.62
384.87	8.38
385.078	8.35
385.285	8.17
385.493	8.15
385.701	7.9
385.909	8.15
386.116	8.23
386.324	8.07
386.532	8.02
386.739	7.83
386.947	7.75
387.155	7.88
387.362	8.12
387.57	8.11
387.778	8.41
387.985	8.3
388.193	8.26
388.4	8.16
388.608	8.21
388.816	8.15
389.023	8.15
389.231	8.08
389.438	7.89
389.646	7.65
389.853	7.81
390.061	7.52
390.268	7.49
390.475	7.35
390.683	7.13
390.89	6.86
391.098	6.9
391.305	6.81
391.512	6.67
391.72	6.64
391.927	6.73
392.135	6.52
392.342	6.5
392.549	6.57
392.756	6.45
392.964	6.54
393.171	6.61
393.378	6.54
393.586	6.62
393.793	6.86
394	6.86
394.207	6.84
394.414	6.83
394.622	6.76
394.829	6.77
395.036	6.92
395.243	6.72
395.45	6.66
395.657	6.53
395.864	6.49
396.072	6.29
396.279	6.52
396.486	6.17
396.693	6.27
396.9	6.48
397.107	6.29
397.314	6.21
397.521	6.34
397.728	6.29
397.935	6.36
398.142	6.4
398.349	6.5
398.556	6.18
398.763	6.53
398.97	6.34
399.177	6.06
399.383	6.06
399.59	6.12
399.797	6.1
400.004	6.14
400.211	6.25
400.418	6.17
400.625	6.14
400.831	6.16
401.038	6.14
401.245	6.33
401.452	6.53
401.658	6.54
401.865	6.3
402.072	6.22
402.279	6.23
402.485	6.17
402.692	6.28
402.899	6.11
403.105	6.36
403.312	6.25
403.519	6.04
403.725	6.12
403.932	6.22
404.138	6.44
404.345	6.55
404.552	6.44
404.758	6.4
404.965	6.2
405.171	6.36
405.378	6.1
405.584	6.14
405.791	6.3
405.997	6.11
406.204	6.06
406.41	6.13
406.617	6.18
406.823	6.24
407.029	6.29
407.236	6.28
407.442	6.18
407.649	6.31
407.855	6.28
408.061	6.12
408.268	5.96
408.474	6.07
408.68	5.85
408.887	5.79
409.093	5.89
409.299	5.62
409.505	5.69
409.712	5.75
409.918	5.69
410.124	5.68
410.33	5.89
410.537	6.09
410.743	5.91
410.949	5.79
411.155	5.71
411.361	5.7
411.567	5.92
411.773	5.95
411.98	5.92
412.186	5.79
412.392	5.77
412.598	5.64
412.804	5.56
413.01	5.57
413.216	5.72
413.422	5.69
413.628	5.62
413.834	5.66
414.04	5.61
414.246	5.73
414.452	5.81
414.658	5.94
414.864	5.95
415.07	6.03
415.275	5.99
415.481	6
415.687	6.11
415.893	6.16
416.099	6.05
416.305	6.07
416.511	5.92
416.716	5.98
416.922	5.85
417.128	5.8
417.334	5.64
417.539	5.65
417.745	5.68
417.951	5.6
418.157	5.53
418.362	5.56
418.568	5.48
418.774	5.5
418.979	5.5
419.185	5.51
419.391	5.52
419.596	5.61
419.802	5.64
420.008	5.58
420.213	5.6
420.419	5.65
420.624	5.66
420.83	5.75
421.035	5.77
421.241	5.7
421.446	5.66
421.652	5.65
421.857	5.65
422.063	5.67
422.268	5.75
422.474	5.8
422.679	5.82
422.885	5.83
423.09	5.8
423.295	5.75
423.501	5.85
423.706	5.89
423.911	5.86
424.117	5.84
424.322	5.77
424.527	5.68
424.733	5.65
424.938	5.59
425.143	5.59
425.349	5.57
425.554	5.52
425.759	5.42
425.964	5.44
426.169	5.46
426.375	5.48
426.58	5.56
426.785	5.54
426.99	5.47
427.195	5.51
427.4	5.48
427.605	5.56
427.811	5.73
428.016	5.75
428.221	5.73
428.426	5.67
428.631	5.74
428.836	5.73
429.041	5.81
429.246	5.77
429.451	5.75
429.656	5.76
429.861	5.8
430.066	5.81
430.271	5.91
430.476	5.86
430.681	5.98
430.886	5.91
431.09	5.9
431.295	6.12
431.5	6.23
431.705	6.24
431.91	6.24
432.115	6.18
432.32	6.17
432.524	6.16
432.729	6.32
432.934	6.39
433.139	6.37
433.343	6.35
433.548	6.18
433.753	6.24
433.958	6.29
434.162	6.28
434.367	6.32
434.572	6.21
434.776	6.13
434.981	6.02
435.186	5.89
435.39	5.86
435.595	5.89
435.799	5.89
436.004	5.86
436.209	5.85
436.413	6.01
436.618	5.97
436.822	6.03
437.027	6.05
437.231	6.03
437.436	6.07
437.64	6.09
437.845	6.12
438.049	6.18
438.253	6.13
438.458	6.12
438.662	5.95
438.867	6.03
439.071	6.04
439.275	6.06
439.48	6
439.684	6.01
439.888	6.09
440.093	6.09
440.297	6.07
440.501	6.05
440.706	6.05
440.91	6.12
441.114	6.09
441.318	6.1
441.523	6.15
441.727	6.19
441.931	6.2
442.135	6.11
442.339	6.09
442.543	6.06
442.748	6.13
442.952	6.08
443.156	6.07
443.36	6.08
443.564	6.06
443.768	6.04
443.972	6
444.176	6.13
444.38	6.18
444.584	6.21
444.788	6.3
444.992	6.29
445.196	6.25
445.4	6.27
445.604	6.19
445.808	6.23
446.012	6.16
446.216	6.19
446.42	6.05
446.624	5.98
446.828	5.95
447.032	5.86
447.235	5.84
447.439	5.86
447.643	5.82
447.847	5.88
448.051	5.85
448.254	5.92
448.458	5.92
448.662	6.01
448.866	6.05
449.069	6.08
449.273	6.05
449.477	6.08
449.681	6.07
449.884	6.12
450.088	6.15
450.292	6.27
450.495	6.26
450.699	6.3
450.902	6.36
451.106	6.27
451.31	6.34
451.513	6.47
451.717	6.45
451.92	6.45
452.124	6.36
452.327	6.28
452.531	6.18
452.734	6.14
452.938	6.1
453.141	6
453.345	6.06
453.548	5.92
453.752	5.85
453.955	5.86
454.158	5.92
454.362	6
454.565	6.15
454.769	6.08
454.972	6.15
455.175	6.27
455.379	6.35
455.582	6.36
455.785	6.36
455.988	6.34
456.192	6.33
456.395	6.31
456.598	6.35
456.801	6.23
457.005	6.32
457.208	6.22
457.411	6.17
457.614	6.09
457.817	6.04
458.021	6.05
458.224	6.18
458.427	6.23
458.63	6.13
458.833	6.1
459.036	6.03
459.239	6.04
459.442	6.08
459.645	6.09
459.848	6
460.051	6.09
460.254	6.11
460.457	5.97
460.66	5.95
460.863	6
461.066	6
461.269	6.09
461.472	6.05
461.675	6.06
461.878	6.04
462.081	6.16
462.284	6.16
462.486	6.15
462.689	6.27
462.892	6.23
463.095	6.3
463.298	6.35
463.5	6.33
463.703	6.32
463.906	6.33
464.109	6.31
464.311	6.26
464.514	6.19
464.717	6.26
464.92	6.27
465.122	6.24
465.325	6.33
465.528	6.21
465.73	6.2
465.933	6.35
466.135	6.28
466.338	6.4
466.541	6.5
