Data from 2938826__Reflection_05.txt Node
Date: Thu Mar 12 13:43:53 EDT 2015
User: robert
Spectrometer: USB4E03002
Autoset integration time: false
Trigger mode: 4
Integration Time (sec): 1.000000E-1
Scans to average: 10
Electric dark correction enabled: false
Nonlinearity correction enabled: false
Boxcar width: 5
Stray light correction enabled: false
XAxis mode: Wavelengths
Stop averaging: false
Number of Pixels in Spectrum: 3648
>>>>>Begin Spectral Data<<<<<
177.575	-15.68
177.794	5.17
178.014	4.62
178.233	22.38
178.452	28.01
178.672	54.63
178.891	53.45
179.11	84.65
179.33	81.41
179.549	97.42
179.768	161.08
179.987	272.62
180.207	267.11
180.426	210.98
180.645	255.74
180.864	250.54
181.084	131.37
181.303	213.46
181.522	134.89
181.741	214.1
181.96	176.8
182.179	115.15
182.398	82.09
182.618	64.59
182.837	67.48
183.056	56.71
183.275	110.43
183.494	88.95
183.713	72.45
183.932	91.22
184.151	85.34
184.37	95.65
184.589	97.75
184.808	59.51
185.027	122.1
185.246	136.42
185.465	122.67
185.684	91.99
185.903	119.53
186.122	63.97
186.341	49.59
186.56	65.12
186.779	116.09
186.998	82.18
187.216	96.91
187.435	40.14
187.654	-5.78
187.873	12.5
188.092	-91.37
188.311	-1331.58
188.53	1114.29
188.748	1016.13
188.967	6475
189.186	-228.93
189.405	-127.01
189.623	-183.51
189.842	27.45
190.061	29.41
190.28	79.41
190.498	-3000
190.717	13.99
190.936	-5660
191.154	-237.1
191.373	-170.87
191.592	558.33
191.81	-44.22
192.029	-153.33
192.248	-304.51
192.466	-112.94
192.685	-45.42
192.904	-9.13
193.122	-5.33
193.341	67.16
193.559	58.83
193.778	38.89
193.996	43.48
194.215	6.4
194.433	7.6
194.652	17.51
194.87	-14.36
195.089	-27.36
195.307	-24.48
195.526	-62.54
195.744	-53.78
195.963	-155.34
196.181	7860
196.399	-211.59
196.618	-173.2
196.836	-188.64
197.055	-3008.33
197.273	-18.83
197.491	10.99
197.71	19.82
197.928	13.48
198.146	44.29
198.365	22.07
198.583	79.89
198.801	74.59
199.019	144.36
199.238	96.12
199.456	77.31
199.674	47.7
199.892	-5.42
200.111	-23
200.329	3.35
200.547	0.61
200.765	21.56
200.983	12.87
201.202	-4.98
201.42	-5.16
201.638	14.17
201.856	-1.47
202.074	17.97
202.292	16.79
202.51	45.01
202.728	52.97
202.946	38.11
203.165	11.11
203.383	9.91
203.601	37.39
203.819	10.66
204.037	-47.79
204.255	-34.76
204.473	-15.93
204.691	9.13
204.909	-7.24
205.127	-23.25
205.345	-30.86
205.562	-39.16
205.78	-22.57
205.998	-32.89
206.216	-10.37
206.434	12.21
206.652	20.35
206.87	13.5
207.088	15.18
207.306	13.98
207.523	6.17
207.741	29.61
207.959	37.15
208.177	30.02
208.395	35.94
208.612	49.76
208.83	32.46
209.048	43.71
209.266	45
209.483	46.97
209.701	52.4
209.919	73.38
210.136	73.4
210.354	49.65
210.572	66.46
210.79	70.01
211.007	53.5
211.225	56.42
211.442	57.26
211.66	44.29
211.878	49.17
212.095	54.8
212.313	40.87
212.53	6.36
212.748	26.19
212.966	12.26
213.183	-4.01
213.401	-8.96
213.618	-17.14
213.836	-17.06
214.053	-9.8
214.271	-2.33
214.488	-10.96
214.705	2.38
214.923	19.75
215.14	25.84
215.358	24.46
215.575	23.39
215.793	11.2
216.01	10.44
216.227	12.79
216.445	13.71
216.662	16.27
216.879	22.29
217.097	9.8
217.314	14.19
217.531	11.47
217.749	-2.5
217.966	-6.48
218.183	14.65
218.4	14.97
218.618	9.22
218.835	8.6
219.052	3.3
219.269	-3.4
219.487	0.37
219.704	-6.05
219.921	-9.49
220.138	8.22
220.355	2.78
220.572	-2.62
220.79	-1.05
221.007	7.44
221.224	10.94
221.441	14.56
221.658	10.96
221.875	8.1
222.092	13.29
222.309	10.4
222.526	6.26
222.743	9.02
222.96	10.99
223.177	9.81
223.394	7.46
223.611	3.47
223.828	5.74
224.045	9.98
224.262	11.19
224.479	9.22
224.696	8.75
224.913	9.48
225.13	11.32
225.347	10.74
225.564	11.38
225.781	11.17
225.997	7.39
226.214	4.35
226.431	3.58
226.648	6.51
226.865	6.16
227.082	6.45
227.298	6.21
227.515	6.14
227.732	5.1
227.949	5.99
228.165	5.56
228.382	6.41
228.599	6.41
228.816	6.58
229.032	6.46
229.249	6.91
229.466	6.5
229.682	6.59
229.899	7
230.116	8.02
230.332	7.57
230.549	6.85
230.765	7.01
230.982	7.1
231.199	6.23
231.415	6.1
231.632	4.38
231.848	5.37
232.065	5.59
232.281	5.49
232.498	3.22
232.714	2.2
232.931	3.22
233.147	3.5
233.364	3.56
233.58	2.46
233.797	0.55
234.013	2
234.23	0.77
234.446	0.69
234.662	-1.02
234.879	0.81
235.095	2.76
235.312	2.92
235.528	3.69
235.744	3.87
235.961	6.07
236.177	7.41
236.393	7.21
236.61	7.74
236.826	7.53
237.042	7.52
237.258	6.9
237.475	6.82
237.691	5.45
237.907	5.36
238.123	5.3
238.339	4.75
238.556	5.44
238.772	5.56
238.988	7.64
239.204	9.06
239.42	8.75
239.636	8.86
239.853	8.17
240.069	10.07
240.285	9.19
240.501	8.49
240.717	8.61
240.933	7.89
241.149	7.06
241.365	6.92
241.581	7.05
241.797	7.15
242.013	6.61
242.229	7.32
242.445	7.13
242.661	8.15
242.877	8.31
243.093	7.88
243.309	7.91
243.525	8.15
243.741	7.76
243.957	7.41
244.173	7.65
244.388	8.49
244.604	7.79
244.82	8.03
245.036	7.26
245.252	7.1
245.468	7.78
245.683	8.06
245.899	7.89
246.115	7.48
246.331	7.57
246.547	7.72
246.762	7.48
246.978	7.39
247.194	7.13
247.409	6.99
247.625	7.22
247.841	7.41
248.057	7.29
248.272	7.41
248.488	7.59
248.703	7.2
248.919	7.14
249.135	7.04
249.35	6.93
249.566	6.89
249.782	6.79
249.997	6.69
250.213	5.87
250.428	6.27
250.644	5.9
250.859	6.21
251.075	6.09
251.29	6.47
251.506	7.19
251.721	7.4
251.937	6.9
252.152	6.52
252.368	6.43
252.583	6.07
252.798	5.41
253.014	6.03
253.229	5.81
253.445	5.98
253.66	4.67
253.875	3.83
254.091	3.83
254.306	4.41
254.521	5.27
254.737	4.63
254.952	5.03
255.167	4.82
255.383	4.43
255.598	4.21
255.813	4.22
256.028	5.19
256.244	5.02
256.459	4.47
256.674	3.56
256.889	3.82
257.104	3.93
257.32	3.55
257.535	4.22
257.75	4.68
257.965	4.66
258.18	4.59
258.395	4.61
258.61	4.52
258.826	4.8
259.041	4.88
259.256	4.79
259.471	4.96
259.686	5.07
259.901	5.17
260.116	4.96
260.331	5.08
260.546	5.32
260.761	5.2
260.976	5.07
261.191	4.74
261.406	4.96
261.621	4.74
261.836	4.67
262.05	4.88
262.265	4.59
262.48	4.53
262.695	4.16
262.91	4.02
263.125	3.81
263.34	3.71
263.555	4.43
263.769	4.56
263.984	4.76
264.199	4.92
264.414	5.01
264.629	5.43
264.843	5.42
265.058	5.96
265.273	6
265.488	6.32
265.702	6.84
265.917	6.98
266.132	6.65
266.346	6.61
266.561	6.42
266.776	6.24
266.99	5.88
267.205	5.76
267.42	5.7
267.634	5.38
267.849	5.19
268.063	5.03
268.278	4.37
268.492	4.55
268.707	4.42
268.922	4.65
269.136	3.98
269.351	3.71
269.565	3.82
269.78	3.65
269.994	3.43
270.209	3.33
270.423	3.64
270.637	3.69
270.852	3.75
271.066	3.77
271.281	3.56
271.495	4.06
271.709	4.31
271.924	4.47
272.138	4.56
272.353	4.78
272.567	4.93
272.781	4.89
272.996	5.06
273.21	4.75
273.424	4.84
273.638	4.87
273.853	4.77
274.067	4.59
274.281	4.48
274.495	3.91
274.71	4.11
274.924	4.19
275.138	4.15
275.352	4.31
275.566	4.55
275.781	4.71
275.995	4.47
276.209	4.15
276.423	4.37
276.637	4.38
276.851	4.76
277.065	4.76
277.279	4.48
277.493	4.3
277.707	4.08
277.921	3.87
278.135	3.55
278.349	3.7
278.563	4.02
278.777	3.49
278.991	2.95
279.205	3.07
279.419	2.93
279.633	3.98
279.847	3.92
280.061	4.23
280.275	4.47
280.489	4.51
280.703	4.69
280.917	4.77
281.131	5.11
281.344	5.67
281.558	5.49
281.772	5.48
281.986	4.82
282.2	4.94
282.414	4.58
282.627	4.76
282.841	4.85
283.055	4.51
283.269	4.52
283.482	4.69
283.696	4.35
283.91	4.5
284.123	4.42
284.337	4.81
284.551	4.93
284.764	4.83
284.978	4.67
285.192	4.55
285.405	4.62
285.619	5.01
285.833	4.85
286.046	4.97
286.26	4.95
286.473	4.92
286.687	4.95
286.9	4.89
287.114	4.99
287.327	5.28
287.541	5.53
287.754	5.76
287.968	5.23
288.181	5.2
288.395	4.86
288.608	4.91
288.822	5.25
289.035	5.01
289.248	5.17
289.462	5.3
289.675	4.77
289.889	4.53
290.102	4.49
290.315	4.67
290.529	4.88
290.742	5.23
290.955	5.21
291.169	5.16
291.382	4.88
291.595	4.99
291.808	5.02
292.022	5.58
292.235	5.97
292.448	6.4
292.661	6.59
292.875	6.63
293.088	6.75
293.301	6.66
293.514	6.56
293.727	7.08
293.94	6.78
294.153	6.64
294.367	6.27
294.58	5.84
294.793	5.64
295.006	5.59
295.219	5.21
295.432	5.14
295.645	5.51
295.858	5.55
296.071	5.61
296.284	5.65
296.497	5.94
296.71	6.03
296.923	6.42
297.136	6.47
297.349	6.4
297.562	6.6
297.775	6.54
297.988	6.31
298.201	6.26
298.414	6.13
298.626	6.31
298.839	6.03
299.052	6.27
299.265	6.07
299.478	6.2
299.691	6.18
299.903	6.48
300.116	6.75
300.329	6.98
300.542	6.97
300.755	6.9
300.967	6.57
301.18	7.13
301.393	7.12
301.605	7.16
301.818	6.63
302.031	6.49
302.243	6.13
302.456	6.06
302.669	6.32
302.881	6.37
303.094	6.62
303.307	6.74
303.519	6.3
303.732	6.31
303.944	6.42
304.157	7.03
304.37	7.29
304.582	7.63
304.795	7.68
305.007	7.6
305.22	7.87
305.432	8.1
305.645	7.93
305.857	8.14
306.069	8.59
306.282	8.62
306.494	8.48
306.707	8.68
306.919	8.97
307.132	8.79
307.344	8.89
307.556	9
307.769	8.61
307.981	8.87
308.193	8.8
308.406	8.5
308.618	8.41
308.83	8.26
309.043	8.13
309.255	7.77
309.467	7.92
309.679	7.81
309.892	7.53
310.104	7.69
310.316	7.82
310.528	7.45
310.74	7.18
310.953	7.27
311.165	7.22
311.377	7.16
311.589	7.29
311.801	7.26
312.013	7.15
312.225	7.43
312.437	7.34
312.649	6.94
312.862	7.4
313.074	7.52
313.286	7.62
313.498	7.8
313.71	7.85
313.922	8.01
314.134	8.08
314.346	8.04
314.558	7.81
314.77	8
314.982	8.43
315.193	8.42
315.405	8.41
315.617	8.45
315.829	8.46
316.041	8.49
316.253	8.39
316.465	8.65
316.677	8.76
316.888	8.72
317.1	8.95
317.312	8.88
317.524	9.21
317.736	9.02
317.947	8.8
318.159	8.34
318.371	8.55
318.583	8.7
318.794	8.52
319.006	8.6
319.218	8.55
319.43	8.45
319.641	8.62
319.853	8.51
320.064	8.33
320.276	8.36
320.488	8.64
320.699	8.49
320.911	8.28
321.123	8.32
321.334	8.24
321.546	8.07
321.757	8.22
321.969	8.26
322.18	8.01
322.392	8.15
322.603	7.86
322.815	7.95
323.026	8.03
323.238	7.61
323.449	7.41
323.661	7.17
323.872	7.59
324.083	7.28
324.295	7.04
324.506	7.33
324.718	7.9
324.929	7.87
325.14	7.69
325.352	7.77
325.563	7.78
325.774	7.85
325.986	8.14
326.197	8.23
326.408	8.36
326.62	8.54
326.831	8.25
327.042	7.94
327.253	7.96
327.464	8.09
327.676	7.64
327.887	7.95
328.098	8.5
328.309	8.54
328.52	8.04
328.732	7.74
328.943	7.86
329.154	8.1
329.365	8.34
329.576	8.5
329.787	8.74
329.998	9.03
330.209	8.86
330.42	8.12
330.631	8.15
330.842	8.39
331.053	8.47
331.264	8.65
331.475	8.75
331.686	8.73
331.897	8.74
332.108	8.65
332.319	9
332.53	9.05
332.741	9.43
332.952	9.47
333.163	9.74
333.374	9.91
333.585	9.46
333.795	9.48
334.006	9.54
334.217	9.56
334.428	9.6
334.639	9.48
334.849	9.81
335.06	9.56
335.271	9.69
335.482	9.67
335.692	9.26
335.903	9.38
336.114	9.06
336.325	9.06
336.535	9.1
336.746	9.35
336.957	9.3
337.167	9.33
337.378	9.3
337.589	8.95
337.799	8.79
338.01	8.63
338.22	8.56
338.431	9.07
338.642	8.84
338.852	9.04
339.063	8.89
339.273	8.76
339.484	8.73
339.694	9.02
339.905	8.95
340.115	9.07
340.326	9.15
340.536	9.19
340.746	8.85
340.957	9.1
341.167	8.87
341.378	8.78
341.588	8.94
341.799	9.07
342.009	8.82
342.219	8.91
342.43	8.96
342.64	9.43
342.85	9.45
343.061	9.61
343.271	9.44
343.481	9.63
343.691	9.69
343.902	9.62
344.112	9.2
344.322	9.08
344.532	9.06
344.743	8.84
344.953	8.76
345.163	8.89
345.373	8.92
345.583	9.11
345.793	8.54
346.004	8.34
346.214	8.47
346.424	8.72
346.634	8.65
346.844	8.62
347.054	8.68
347.264	8.5
347.474	8.42
347.684	8.04
347.894	7.76
348.104	8.42
348.314	8.62
348.524	8.4
348.734	8.36
348.944	8.47
349.154	8.55
349.364	8.39
349.574	8.47
349.784	8.41
349.994	8.33
350.204	8.35
350.413	8.34
350.623	8.22
350.833	8.35
351.043	8.3
351.253	8.59
351.463	8.56
351.672	8.86
351.882	9.16
352.092	9.14
352.302	9.47
352.511	9.62
352.721	9.3
352.931	9.47
353.141	9.52
353.35	9.49
353.56	9.47
353.77	9.46
353.979	9.36
354.189	9.14
354.399	9.13
354.608	9.04
354.818	9.1
355.027	9.11
355.237	9.2
355.447	8.89
355.656	8.97
355.866	8.67
356.075	8.72
356.285	8.68
356.494	8.44
356.704	8.58
356.913	8.49
357.123	8.24
357.332	8.49
357.542	8.48
357.751	8.84
357.96	8.81
358.17	9.08
358.379	9.22
358.589	9.16
358.798	9.47
359.007	9.46
359.217	9.58
359.426	9.65
359.635	9.51
359.845	9.51
360.054	9.16
360.263	8.88
360.472	8.5
360.682	8.34
360.891	8.27
361.1	8.07
361.309	7.84
361.519	7.67
361.728	7.64
361.937	7.59
362.146	7.42
362.355	7.32
362.564	7.52
362.774	7.56
362.983	7.66
363.192	7.82
363.401	7.85
363.61	8.03
363.819	8.09
364.028	7.8
364.237	7.81
364.446	7.47
364.655	7.66
364.864	7.38
365.073	7.66
365.282	7.4
365.491	7.47
365.7	7.6
365.909	7.42
366.118	7.48
366.327	7.72
366.536	7.66
366.745	8.1
366.954	8.05
367.162	8.11
367.371	7.92
367.58	7.97
367.789	7.83
367.998	7.97
368.207	7.98
368.415	7.88
368.624	7.98
368.833	8.04
369.042	7.86
369.25	8.03
369.459	8.12
369.668	8.1
369.877	8.23
370.085	8.1
370.294	7.69
370.503	7.5
370.711	7.57
370.92	7.51
371.129	7.37
371.337	7.49
371.546	7.25
371.754	7.04
371.963	6.85
372.171	6.77
372.38	6.76
372.589	6.7
372.797	6.75
373.006	6.49
373.214	6.5
373.423	6.37
373.631	5.99
373.84	6.11
374.048	6
374.256	5.98
374.465	5.91
374.673	5.79
374.882	6.04
375.09	6.16
375.298	6.17
375.507	6.06
375.715	6.17
375.923	6.31
376.132	6
376.34	6.26
376.548	6.29
376.757	6.16
376.965	6.35
377.173	6.24
377.381	6.24
377.59	6.35
377.798	6.34
378.006	6.41
378.214	6.3
378.423	6.48
378.631	6.41
378.839	6.47
379.047	6.59
379.255	6.39
379.463	6.5
379.671	6.4
379.879	6.39
380.088	6.29
380.296	6.19
380.504	6.15
380.712	6.21
380.92	6.2
381.128	6.14
381.336	5.97
381.544	6.16
381.752	6.16
381.96	6.2
382.168	6.17
382.376	6.14
382.584	6.13
382.791	6.14
382.999	6.2
383.207	5.98
383.415	5.92
383.623	6.16
383.831	5.85
384.039	5.56
384.247	5.56
384.454	5.51
384.662	5.36
384.87	5.4
385.078	5.49
385.285	5.42
385.493	5.55
385.701	5.7
385.909	5.56
386.116	5.58
386.324	5.59
386.532	5.46
386.739	5.36
386.947	5.36
387.155	5.29
387.362	5.3
387.57	5.26
387.778	5.27
387.985	5.16
388.193	5.04
388.4	4.95
388.608	4.99
388.816	5.15
389.023	5.21
389.231	5.44
389.438	5.51
389.646	5.39
389.853	5.5
390.061	5.41
390.268	5.37
390.475	5.42
390.683	5.5
390.89	5.41
391.098	5.25
391.305	5.35
391.512	5.18
391.72	5.04
391.927	5.15
392.135	4.89
392.342	4.97
392.549	5.09
392.756	5.07
392.964	5.11
393.171	5.15
393.378	5.13
393.586	5.02
393.793	4.95
394	5.16
394.207	5.14
394.414	5.19
394.622	5.15
394.829	5.01
395.036	5.01
395.243	5
395.45	5.05
395.657	5.05
395.864	4.96
396.072	5.07
396.279	4.83
396.486	4.86
396.693	5.05
396.9	5.05
397.107	5.1
397.314	4.98
397.521	5.02
397.728	4.88
397.935	4.77
398.142	4.65
398.349	4.64
398.556	4.71
398.763	4.57
398.97	4.39
399.177	4.32
399.383	4.23
399.59	4.45
399.797	4.22
400.004	4.29
400.211	4.34
400.418	4.41
400.625	4.55
400.831	4.38
401.038	4.24
401.245	4.25
401.452	4.31
401.658	4.35
401.865	4.19
402.072	4.17
402.279	4.01
402.485	3.94
402.692	3.91
402.899	3.68
403.105	3.86
403.312	4.05
403.519	3.9
403.725	3.73
403.932	3.65
404.138	3.55
404.345	3.74
404.552	3.84
404.758	3.92
404.965	4.11
405.171	4.2
405.378	4.08
405.584	3.97
405.791	4.04
405.997	4.18
406.204	4.34
406.41	4.4
406.617	4.25
406.823	4.22
407.029	4.34
407.236	4.24
407.442	4.35
407.649	4.51
407.855	4.54
408.061	4.52
408.268	4.46
408.474	4.51
408.68	4.37
408.887	4.47
409.093	4.76
409.299	4.71
409.505	4.75
409.712	4.74
409.918	4.67
410.124	4.77
410.33	4.85
410.537	4.92
410.743	4.78
410.949	4.91
411.155	4.77
411.361	4.6
411.567	4.51
411.773	4.48
411.98	4.38
412.186	4.21
412.392	3.99
412.598	4.07
412.804	3.88
413.01	3.8
413.216	3.83
413.422	4
413.628	4.01
413.834	4.08
414.04	4.04
414.246	3.89
414.452	3.95
414.658	4.05
414.864	3.95
415.07	3.94
415.275	4.01
415.481	3.92
415.687	4.03
415.893	3.95
416.099	3.76
416.305	3.61
416.511	3.8
416.716	3.78
416.922	3.74
417.128	3.75
417.334	3.8
417.539	3.74
417.745	3.81
417.951	3.6
418.157	3.57
418.362	3.65
418.568	3.75
418.774	3.7
418.979	3.68
419.185	3.67
419.391	3.7
419.596	3.69
419.802	3.74
420.008	3.75
420.213	3.83
420.419	3.78
420.624	3.74
420.83	3.74
421.035	3.7
421.241	3.76
421.446	3.71
421.652	3.64
421.857	3.67
422.063	3.56
422.268	3.53
422.474	3.55
422.679	3.6
422.885	3.64
423.09	3.6
423.295	3.65
423.501	3.6
423.706	3.66
423.911	3.64
424.117	3.56
424.322	3.61
424.527	3.62
424.733	3.55
424.938	3.49
425.143	3.52
425.349	3.49
425.554	3.49
425.759	3.55
425.964	3.53
426.169	3.58
426.375	3.71
426.58	3.73
426.785	3.61
426.99	3.6
427.195	3.73
427.4	3.68
427.605	3.73
427.811	3.55
428.016	3.51
428.221	3.59
428.426	3.58
428.631	3.47
428.836	3.48
429.041	3.65
429.246	3.76
429.451	3.7
429.656	3.7
429.861	3.65
430.066	3.81
430.271	3.84
430.476	3.8
430.681	3.74
430.886	3.82
431.09	3.73
431.295	3.79
431.5	3.68
431.705	3.62
431.91	3.64
432.115	3.65
432.32	3.63
432.524	3.56
432.729	3.58
432.934	3.55
433.139	3.49
433.343	3.64
433.548	3.5
433.753	3.53
433.958	3.45
434.162	3.51
434.367	3.53
434.572	3.49
434.776	3.47
434.981	3.39
435.186	3.42
435.39	3.46
435.595	3.39
435.799	3.53
436.004	3.53
436.209	3.59
436.413	3.43
436.618	3.48
436.822	3.47
437.027	3.5
437.231	3.57
437.436	3.65
437.64	3.6
437.845	3.55
438.049	3.45
438.253	3.47
438.458	3.51
438.662	3.59
438.867	3.55
439.071	3.58
439.275	3.53
439.48	3.46
439.684	3.45
439.888	3.43
440.093	3.44
440.297	3.46
440.501	3.45
440.706	3.43
440.91	3.39
441.114	3.35
441.318	3.35
441.523	3.33
441.727	3.34
441.931	3.24
442.135	3.25
442.339	3.19
442.543	3.09
442.748	3.17
442.952	3.16
443.156	3.13
443.36	3.12
443.564	3.19
443.768	3.34
443.972	3.35
444.176	3.42
444.38	3.49
444.584	3.53
444.788	3.61
444.992	3.5
445.196	3.59
445.4	3.53
445.604	3.5
445.808	3.44
446.012	3.31
446.216	3.24
446.42	3.2
446.624	3.15
446.828	3.12
447.032	3.14
447.235	3.13
447.439	3.02
447.643	3.11
447.847	3.09
448.051	3.15
448.254	3.24
448.458	3.32
448.662	3.3
448.866	3.29
449.069	3.32
449.273	3.26
449.477	3.23
449.681	3.25
449.884	3.21
450.088	3.36
450.292	3.4
450.495	3.32
450.699	3.32
450.902	3.37
451.106	3.34
451.31	3.45
451.513	3.43
451.717	3.47
451.92	3.5
452.124	3.46
452.327	3.34
452.531	3.16
452.734	3.23
452.938	3.17
453.141	3.13
453.345	3.11
453.548	3
453.752	3.01
453.955	2.93
454.158	2.95
454.362	3
454.565	2.98
454.769	3.09
454.972	3.02
455.175	3.01
455.379	3.04
455.582	3.08
455.785	3.05
455.988	3.07
456.192	3.12
456.395	2.99
456.598	3.04
456.801	3.1
457.005	3
457.208	2.98
457.411	3
457.614	3.01
457.817	3.03
458.021	3.02
458.224	3.04
458.427	3.06
458.63	3.08
458.833	2.95
459.036	2.99
459.239	2.96
459.442	3.04
459.645	3
459.848	2.91
460.051	2.91
460.254	2.92
460.457	2.91
460.66	2.91
460.863	2.89
461.066	2.99
461.269	2.94
461.472	3
461.675	2.96
461.878	3.05
462.081	3.11
462.284	3.07
462.486	3
462.689	2.99
462.892	2.84
463.095	2.97
463.298	2.93
463.5	3
463.703	2.99
463.906	3.08
464.109	3.11
464.311	3.15
464.514	3.28
464.717	3.29
464.92	3.38
465.122	3.49
465.325	3.35
465.528	3.3
465.73	3.29
465.933	3.33
466.135	3.16
466.338	3.07
466.541	3.04
466.743	3.05
466.946	3.11
467.148	3.15
467.351	3.09
467.553	3.14
467.756	3.22
467.958	3.15
468.161	3.1
468.363	3.2
468.566	3.28
468.768	3.25
468.971	3.14
469.173	3.13
469.375	2.95
469.578	3.11
469.78	3.18
469.983	3.14
470.185	3.1
470.387	3.15
470.59	3.11
470.792	3.12
470.994	3.17
471.196	3.17
471.399	3.33
471.601	3.48
471.803	3.39
472.005	3.3
472.208	3.28
472.41	3.31
472.612	3.31
472.814	3.23
