Data from 2938771__Reflection_06.txt Node
Date: Fri Mar 13 15:14:00 EDT 2015
User: robert
Spectrometer: USB4E03002
Autoset integration time: false
Trigger mode: 4
Integration Time (sec): 1.000000E-1
Scans to average: 10
Electric dark correction enabled: false
Nonlinearity correction enabled: false
Boxcar width: 5
Stray light correction enabled: false
XAxis mode: Wavelengths
Stop averaging: false
Number of Pixels in Spectrum: 3648
>>>>>Begin Spectral Data<<<<<
177.575	-350
177.794	-824.66
178.014	-2633.33
178.233	1285.07
178.452	2162.16
178.672	547.16
178.891	574.39
179.11	3265.22
179.33	-934.33
179.549	-438.89
179.768	-1680
179.987	773.13
180.207	2177.78
180.426	892.31
180.645	-1531.43
180.864	-1164.52
181.084	-203.15
181.303	-255.14
181.522	-1346.81
181.741	4540
181.96	313.33
182.179	266.58
182.398	185.35
182.618	157.95
182.837	246.86
183.056	217.24
183.275	160.2
183.494	159.38
183.713	196.82
183.932	213.31
184.151	179.03
184.37	175.48
184.589	228.09
184.808	501.11
185.027	173.68
185.246	143.44
185.465	117.49
185.684	121.61
185.903	104.09
186.122	97.63
186.341	98.78
186.56	105.36
186.779	114.89
186.998	126.26
187.216	202.83
187.435	547.46
187.654	224.54
187.873	182.71
188.092	204.93
188.311	408.09
188.53	326.44
188.748	903.12
188.967	-2295.83
189.186	621.01
189.405	735.25
189.623	379.71
189.842	320.53
190.061	337.98
190.28	429.97
190.498	286.63
190.717	227.18
190.936	229.17
191.154	212.96
191.373	243.85
191.592	233.08
191.81	168.85
192.029	153.28
192.248	116.57
192.466	132.74
192.685	135.24
192.904	159.02
193.122	148.06
193.341	225.45
193.559	391.88
193.778	226.88
193.996	260.2
194.215	2480
194.433	598.13
194.652	568.24
194.87	1002.13
195.089	17560
195.307	3392.31
195.526	-794.39
195.744	2089.36
195.963	524.04
196.181	411.16
196.399	292.27
196.618	265.87
196.836	322.74
197.055	610.39
197.273	849.45
197.491	2394.12
197.71	1270.37
197.928	468.16
198.146	678.81
198.365	1130.67
198.583	1274.24
198.801	-355.46
199.019	-313.79
199.238	-247.77
199.456	-188.29
199.674	-243.71
199.892	-266.67
200.111	-253.48
200.329	-163.55
200.547	-124.25
200.765	-247.87
200.983	-248.97
201.202	-422.43
201.42	-922.92
201.638	1543.48
201.856	445.36
202.074	1114.63
202.292	318.42
202.51	349.61
202.728	223.83
202.946	440.27
203.165	934.92
203.383	29600
203.601	426.76
203.819	482.18
204.037	245.45
204.255	249.77
204.473	148.66
204.691	286.74
204.909	154.77
205.127	211.3
205.345	136.98
205.562	116.72
205.78	132.37
205.998	92.82
206.216	101.09
206.434	129.01
206.652	143.4
206.87	187.08
207.088	146.45
207.306	202.51
207.523	190
207.741	178.33
207.959	175.66
208.177	163.64
208.395	190.28
208.612	243.08
208.83	210.22
209.048	234.98
209.266	1216.67
209.483	-808.82
209.701	-1212
209.919	468.75
210.136	6740
210.354	-880.56
210.572	-121.31
210.79	477.57
211.007	186.79
211.225	600
211.442	173.86
211.66	110.16
211.878	99.82
212.095	234.76
212.313	251.95
212.53	222.78
212.748	199.19
212.966	163.55
213.183	165.62
213.401	166.83
213.618	135.03
213.836	127.63
214.053	150.82
214.271	163.05
214.488	52.42
214.705	46.19
214.923	40.87
215.14	45.4
215.358	42.07
215.575	44.24
215.793	47.48
216.01	56.53
216.227	69.94
216.445	82.16
216.662	82.45
216.879	80.73
217.097	90.03
217.314	113.48
217.531	123.81
217.749	112.18
217.966	128.65
218.183	132.41
218.4	104.24
218.618	97.72
218.835	62.88
219.052	56.68
219.269	56.19
219.487	27.09
219.704	13.21
219.921	10.92
220.138	22.93
220.355	19.83
220.572	13.28
220.79	16.68
221.007	4.33
221.224	10.02
221.441	13.49
221.658	24.38
221.875	38.83
222.092	45.18
222.309	44.76
222.526	34.65
222.743	31.34
222.96	34.43
223.177	44.65
223.394	42.35
223.611	42.89
223.828	44.04
224.045	42.16
224.262	43.99
224.479	39.28
224.696	38.16
224.913	37.83
225.13	39.51
225.347	41.46
225.564	37.06
225.781	40.17
225.997	35
226.214	30.82
226.431	26.84
226.648	18.92
226.865	18.14
227.082	15.26
227.298	14.5
227.515	12.82
227.732	10.62
227.949	8.99
228.165	7.16
228.382	7.27
228.599	6.39
228.816	6.25
229.032	6.35
229.249	6.06
229.466	6.88
229.682	6.98
229.899	6.15
230.116	5.97
230.332	6.6
230.549	6.68
230.765	6.68
230.982	6.96
231.199	7.84
231.415	9.43
231.632	10.06
231.848	11.6
232.065	10.62
232.281	11.05
232.498	11.96
232.714	12.77
232.931	12.95
233.147	13.49
233.364	13.89
233.58	13.02
233.797	11.56
234.013	9.56
234.23	7.18
234.446	8.28
234.662	8.08
234.879	7.71
235.095	7.52
235.312	9.62
235.528	9.17
235.744	6.52
235.961	7.92
236.177	8.14
236.393	9.86
236.61	10.18
236.826	9.52
237.042	11.03
237.258	10.69
237.475	11.45
237.691	9.77
237.907	10.16
238.123	13.07
238.339	11.5
238.556	11.04
238.772	10.99
238.988	9.53
239.204	9.56
239.42	9.47
239.636	10.57
239.853	8.67
240.069	9.18
240.285	7.79
240.501	7.02
240.717	8.29
240.933	8.24
241.149	7.66
241.365	8.3
241.581	7.74
241.797	7.32
242.013	6.84
242.229	7.22
242.445	7.04
242.661	7.74
242.877	7.78
243.093	7.21
243.309	6.94
243.525	7.07
243.741	6.82
243.957	8.16
244.173	7.97
244.388	7.91
244.604	7.79
244.82	7.44
245.036	6.81
245.252	6.28
245.468	6.41
245.683	7.15
245.899	6.98
246.115	6.87
246.331	6.41
246.547	6.69
246.762	6.67
246.978	6.84
247.194	7.01
247.409	7.26
247.625	7.56
247.841	7.69
248.057	7.49
248.272	7.58
248.488	7.71
248.703	7.84
248.919	8.06
249.135	8.38
249.35	8.14
249.566	8.32
249.782	8.3
249.997	8.42
250.213	8.51
250.428	8.57
250.644	8.09
250.859	8.4
251.075	8.55
251.29	8.43
251.506	9.12
251.721	9.2
251.937	8.93
252.152	8.98
252.368	9.3
252.583	9.24
252.798	9.22
253.014	9.92
253.229	9.52
253.445	8.72
253.66	8.33
253.875	6.89
254.091	6.55
254.306	6.16
254.521	5.75
254.737	5.34
254.952	4.29
255.167	3.65
255.383	3.6
255.598	3.64
255.813	4.91
256.028	4.98
256.244	5.61
256.459	6.23
256.674	6.2
256.889	6.48
257.104	5.89
257.32	6.66
257.535	6.78
257.75	6.5
257.965	6.12
258.18	5.76
258.395	5.88
258.61	6.33
258.826	6.03
259.041	6.13
259.256	6.13
259.471	5.96
259.686	5.68
259.901	5.83
260.116	5.69
260.331	6.01
260.546	5.83
260.761	5.81
260.976	5.49
261.191	5.58
261.406	5.38
261.621	5.35
261.836	5.6
262.05	5.41
262.265	5.3
262.48	5.21
262.695	4.75
262.91	4.91
263.125	4.41
263.34	4.6
263.555	4.64
263.769	4.81
263.984	4.33
264.199	3.52
264.414	3.86
264.629	4.04
264.843	4.81
265.058	5.07
265.273	5.4
265.488	6.35
265.702	6.9
265.917	6.89
266.132	6.83
266.346	6.76
266.561	7.51
266.776	7.5
266.99	7.13
267.205	6.8
267.42	6.7
267.634	6.47
267.849	6.21
268.063	5.6
268.278	5.3
268.492	5.26
268.707	5.05
268.922	4.72
269.136	5.47
269.351	5.4
269.565	5.37
269.78	5.47
269.994	5.91
270.209	5.37
270.423	5.51
270.637	5.35
270.852	5.21
271.066	5.64
271.281	5.9
271.495	5.34
271.709	5.44
271.924	5.38
272.138	5.39
272.353	4.88
272.567	5.47
272.781	5.25
272.996	5.63
273.21	6.13
273.424	6.05
273.638	5.85
273.853	5.7
274.067	5.71
274.281	5.51
274.495	5.06
274.71	5.53
274.924	5.33
275.138	5.53
275.352	5.11
275.566	4.46
275.781	4.3
275.995	4.52
276.209	4.64
276.423	4.29
276.637	4.66
276.851	5.4
277.065	5.42
277.279	5.32
277.493	5.47
277.707	5.7
277.921	5.7
278.135	5.62
278.349	5.03
278.563	5.09
278.777	5.69
278.991	5.85
279.205	5.36
279.419	4.96
279.633	4.62
279.847	4.31
280.061	3.97
280.275	4.3
280.489	4.65
280.703	4.64
280.917	4.44
281.131	4.05
281.344	3.68
281.558	3.69
281.772	3.88
281.986	3.87
282.2	3.92
282.414	4.34
282.627	4.29
282.841	4.36
283.055	4.8
283.269	4.54
283.482	4.66
283.696	4.73
283.91	4.62
284.123	4.7
284.337	4.97
284.551	5.14
284.764	5.14
284.978	4.82
285.192	4.54
285.405	4.37
285.619	4.3
285.833	4.15
286.046	4.12
286.26	4.22
286.473	4.21
286.687	4.25
286.9	4.12
287.114	4.05
287.327	4.2
287.541	4.37
287.754	4.65
287.968	5.24
288.181	5.65
288.395	5.94
288.608	6.16
288.822	6.02
289.035	5.84
289.248	5.61
289.462	5.74
289.675	5.93
289.889	5.98
290.102	5.9
290.315	5.85
290.529	6.02
290.742	5.74
290.955	5.51
291.169	5.83
291.382	6.02
291.595	6.47
291.808	6.44
292.022	6.34
292.235	6.03
292.448	6
292.661	5.45
292.875	4.89
293.088	5.34
293.301	5.36
293.514	5.37
293.727	5.44
293.94	5.2
294.153	5.23
294.367	5.12
294.58	5.31
294.793	5.24
295.006	5.44
295.219	5.61
295.432	5.28
295.645	5.73
295.858	5.29
296.071	5.28
296.284	5.18
296.497	4.95
296.71	5.15
296.923	5.43
297.136	5.35
297.349	5.51
297.562	5.42
297.775	5.6
297.988	5.58
298.201	5.79
298.414	5.8
298.626	5.88
298.839	5.91
299.052	5.74
299.265	5.46
299.478	5.68
299.691	5.64
299.903	5.71
300.116	5.71
300.329	5.63
300.542	5.73
300.755	5.51
300.967	5.56
301.18	5.94
301.393	6.2
301.605	6.45
301.818	6.56
302.031	6.69
302.243	6.58
302.456	6.53
302.669	6.23
302.881	6.32
303.094	6.25
303.307	6.46
303.519	6.23
303.732	6.3
303.944	6.01
304.157	5.99
304.37	6.35
304.582	6.68
304.795	6.54
305.007	7.01
305.22	6.83
305.432	7.18
305.645	7.04
305.857	7.45
306.069	7.45
306.282	7.6
306.494	7.28
306.707	6.87
306.919	6.44
307.132	6.6
307.344	6.42
307.556	6.79
307.769	6.86
307.981	7.14
308.193	6.75
308.406	6.7
308.618	6.67
308.83	6.92
309.043	7.1
309.255	7.44
309.467	7.52
309.679	7.39
309.892	7.34
310.104	7.46
310.316	7.01
310.528	7.27
310.74	7.54
310.953	7.7
311.165	7.7
311.377	7.47
311.589	7.52
311.801	7.44
312.013	7.35
312.225	7.25
312.437	7.18
312.649	7.53
312.862	7.54
313.074	7.02
313.286	7.25
313.498	6.98
313.71	7.58
313.922	7.64
314.134	8.01
314.346	8.21
314.558	8.7
314.77	8.6
314.982	8.76
315.193	8.83
315.405	9.58
315.617	9.12
315.829	9.51
316.041	9.37
316.253	9.13
316.465	9.48
316.677	9.62
316.888	9.55
317.1	9.55
317.312	9.74
317.524	9.45
317.736	9.45
317.947	9.94
318.159	10.77
318.371	10.54
318.583	10.86
318.794	10.67
319.006	10.84
319.218	10.39
319.43	10.29
319.641	10.41
319.853	11.09
320.064	10.56
320.276	10.72
320.488	9.89
320.699	10.37
320.911	10.89
321.123	10.95
321.334	10.86
321.546	11.3
321.757	11.45
321.969	11.01
322.18	11.16
322.392	11.71
322.603	11.5
322.815	11.58
323.026	11.99
323.238	11.8
323.449	11.97
323.661	12.17
323.872	12.2
324.083	12.69
324.295	13.1
324.506	12.89
324.718	12.81
324.929	12.96
325.14	13.26
325.352	13.08
325.563	13.25
325.774	13.19
325.986	13.52
326.197	13.95
326.408	14.36
326.62	14.72
326.831	15.06
327.042	15.43
327.253	15.73
327.464	16.31
327.676	16.63
327.887	16.91
328.098	17.32
328.309	17.49
328.52	18.14
328.732	18.61
328.943	19.1
329.154	19.62
329.365	20.3
329.576	20.65
329.787	20.86
329.998	21.04
330.209	21.84
330.42	22.56
330.631	23.09
330.842	23.16
331.053	23.65
331.264	23.92
331.475	24.03
331.686	24.19
331.897	24.87
332.108	25.35
332.319	26.23
332.53	26.53
332.741	26.96
332.952	27.38
333.163	27.28
333.374	26.87
333.585	27.05
333.795	27.42
334.006	27.82
334.217	27.85
334.428	28.17
334.639	28.34
334.849	28.25
335.06	28.05
335.271	28.27
335.482	28.82
335.692	29.62
335.903	29.67
336.114	29.94
336.325	29.95
336.535	30.27
336.746	30.28
336.957	30.28
337.167	30.33
337.378	30.66
337.589	30.93
337.799	30.83
338.01	30.69
338.22	31.01
338.431	31.25
338.642	31.28
338.852	31.23
339.063	31.46
339.273	31.44
339.484	31.68
339.694	31.36
339.905	31.33
340.115	31.62
340.326	31.58
340.536	31.87
340.746	31.77
340.957	32.06
341.167	32.02
341.378	31.72
341.588	31.59
341.799	31.66
342.009	31.83
342.219	31.5
342.43	31.47
342.64	31.9
342.85	31.83
343.061	31.64
343.271	31.42
343.481	31.2
343.691	31.23
343.902	31.51
344.112	31.58
344.322	31.57
344.532	31.7
344.743	31.93
344.953	31.56
345.163	31.35
345.373	31.39
345.583	31.58
345.793	31.71
346.004	31.74
346.214	31.71
346.424	31.62
346.634	31.8
346.844	31.96
347.054	31.61
347.264	31.62
347.474	31.7
347.684	31.75
347.894	31.69
348.104	31.93
348.314	31.93
348.524	31.65
348.734	31.54
348.944	31.66
349.154	31.6
349.364	31.7
349.574	31.84
349.784	32.18
349.994	32.29
350.204	32.22
350.413	32.25
350.623	32.34
350.833	32.25
351.043	32.17
351.253	31.9
351.463	31.97
351.672	31.74
351.882	31.79
352.092	31.67
352.302	31.75
352.511	31.74
352.721	31.68
352.931	31.9
353.141	31.96
353.35	31.88
353.56	31.94
353.77	31.54
353.979	31.51
354.189	31.34
354.399	31.12
354.608	31.07
354.818	31.18
355.027	31.43
355.237	31.1
355.447	31.24
355.656	31.51
355.866	31.56
356.075	31.64
356.285	31.72
356.494	31.72
356.704	31.54
356.913	31.52
357.123	31.37
357.332	31.02
357.542	31.06
357.751	31.11
357.96	30.94
358.17	30.85
358.379	30.89
358.589	30.78
358.798	30.85
359.007	30.74
359.217	30.63
359.426	30.56
359.635	30.56
359.845	30.45
360.054	30.06
360.263	30.1
360.472	30.14
360.682	30.1
360.891	30.16
361.1	30.07
361.309	30.21
361.519	30.09
361.728	30.2
361.937	30.08
362.146	30.02
362.355	30.2
362.564	30.12
362.774	29.96
362.983	30.03
363.192	30.13
363.401	30.01
363.61	30
363.819	30.09
364.028	29.78
364.237	29.82
364.446	29.78
364.655	29.76
364.864	29.78
365.073	29.8
365.282	29.6
365.491	29.38
365.7	29.56
365.909	29.76
366.118	29.91
366.327	29.89
366.536	29.91
366.745	30.08
366.954	29.84
367.162	30
367.371	29.92
367.58	29.85
367.789	29.69
367.998	29.62
368.207	29.23
368.415	28.78
368.624	29.07
368.833	29.1
369.042	29.16
369.25	29.39
369.459	29.16
369.668	29.36
369.877	29.44
370.085	29.48
370.294	29.38
370.503	29.62
370.711	29.75
370.92	29.67
371.129	29.66
371.337	29.44
371.546	29.67
371.754	29.87
371.963	29.82
372.171	30.04
372.38	30.07
372.589	30.12
372.797	29.75
373.006	29.57
373.214	29.41
373.423	29.36
373.631	29.48
373.84	29.38
374.048	29.05
374.256	29.11
374.465	29.03
374.673	29.32
374.882	29.34
375.09	29.64
375.298	29.89
375.507	29.89
375.715	29.61
375.923	29.47
376.132	29.18
376.34	29.32
376.548	29.29
376.757	29.17
376.965	28.85
377.173	28.56
377.381	28.44
377.59	28.25
377.798	28.5
378.006	28.62
378.214	28.66
378.423	28.69
378.631	28.49
378.839	28.29
379.047	28.18
379.255	28.45
379.463	28.56
379.671	28.33
379.879	28.63
380.088	28.46
380.296	28.6
380.504	28.41
380.712	28.61
380.92	28.77
381.128	28.81
381.336	28.96
381.544	28.76
381.752	28.66
381.96	28.97
382.168	28.85
382.376	28.76
382.584	28.94
382.791	28.98
382.999	28.79
383.207	28.69
383.415	28.74
383.623	28.53
383.831	28.44
384.039	28.58
384.247	28.31
384.454	28.24
384.662	28.22
384.87	27.72
385.078	27.63
385.285	27.75
385.493	27.7
385.701	27.46
385.909	27.4
386.116	27.64
386.324	27.66
386.532	27.76
386.739	27.68
386.947	27.68
387.155	28.02
387.362	28.02
387.57	27.65
387.778	27.84
387.985	28.04
388.193	28.03
388.4	27.95
388.608	27.9
388.816	27.88
389.023	27.93
389.231	27.8
389.438	27.47
389.646	27.42
389.853	27.72
390.061	27.57
390.268	27.38
390.475	27.31
390.683	27.09
390.89	26.98
391.098	26.95
391.305	26.73
391.512	26.71
391.72	26.77
391.927	26.98
392.135	26.88
392.342	26.76
392.549	26.9
392.756	26.74
392.964	26.69
393.171	26.55
393.378	26.37
393.586	26.45
393.793	26.52
394	26.63
394.207	26.46
394.414	26.34
394.622	26.15
394.829	25.95
395.036	26.15
395.243	26.12
395.45	26.25
395.657	26.27
395.864	26.17
396.072	26.13
396.279	25.9
396.486	25.79
396.693	25.89
396.9	26
397.107	25.98
397.314	25.87
397.521	25.81
397.728	25.72
397.935	25.79
398.142	25.95
398.349	25.97
398.556	25.79
398.763	25.89
398.97	25.81
399.177	25.81
399.383	25.77
399.59	25.84
399.797	26.09
400.004	25.97
400.211	26.02
400.418	25.93
400.625	25.93
400.831	26.17
401.038	26.17
401.245	26.23
401.452	26.27
401.658	26.3
401.865	26.13
402.072	25.88
402.279	25.87
402.485	25.73
402.692	25.59
402.899	25.57
403.105	25.7
403.312	25.52
403.519	25.3
403.725	25.3
403.932	25.27
404.138	25.4
404.345	25.32
404.552	25.38
404.758	25.35
404.965	25.33
405.171	25.25
405.378	25.02
405.584	25.03
405.791	25.02
405.997	24.84
406.204	24.86
406.41	24.97
406.617	25.1
406.823	25.28
407.029	25.25
407.236	25.18
407.442	25.21
407.649	25.36
407.855	25.31
408.061	25.28
408.268	25.29
408.474	25.26
408.68	24.9
408.887	25.01
409.093	24.82
409.299	24.85
409.505	25
409.712	25.02
409.918	24.87
410.124	25.03
410.33	25.35
410.537	25.41
410.743	25.36
410.949	25.31
411.155	25.11
411.361	25.22
411.567	25.23
411.773	25.24
411.98	25.06
412.186	25.01
412.392	24.88
412.598	24.6
412.804	24.62
413.01	24.59
413.216	24.94
413.422	24.97
413.628	24.95
413.834	24.95
414.04	24.8
414.246	24.87
414.452	24.81
414.658	24.78
414.864	24.82
415.07	24.96
415.275	25.04
415.481	24.85
415.687	24.85
415.893	24.73
416.099	24.61
416.305	24.55
416.511	24.56
416.716	24.62
416.922	24.61
417.128	24.6
417.334	24.46
417.539	24.36
417.745	24.38
417.951	24.46
418.157	24.5
418.362	24.48
418.568	24.51
418.774	24.45
418.979	24.46
419.185	24.46
419.391	24.39
419.596	24.46
419.802	24.42
420.008	24.35
420.213	24.16
420.419	24.06
420.624	24.05
420.83	24.07
421.035	24.06
421.241	23.96
421.446	23.95
421.652	23.95
421.857	23.94
422.063	23.93
422.268	23.97
422.474	24.05
422.679	24.12
422.885	24.12
423.09	24.04
423.295	24.08
423.501	24.2
423.706	24.14
423.911	24.13
424.117	24.1
424.322	24.08
424.527	24.09
424.733	24.19
424.938	24.12
425.143	24.12
425.349	24.17
425.554	24.19
425.759	24.16
425.964	24.27
426.169	24.37
426.375	24.34
426.58	24.43
426.785	24.48
426.99	24.37
427.195	24.51
427.4	24.57
427.605	24.64
427.811	24.66
428.016	24.59
428.221	24.55
428.426	24.55
428.631	24.59
428.836	24.59
429.041	24.52
429.246	24.52
429.451	24.53
429.656	24.59
429.861	24.62
430.066	24.65
430.271	24.77
430.476	24.69
430.681	24.58
430.886	24.43
431.09	24.57
431.295	24.64
431.5	24.74
431.705	24.75
431.91	24.77
432.115	24.74
432.32	24.82
432.524	24.81
432.729	24.91
432.934	24.9
433.139	25.08
433.343	25
433.548	24.99
433.753	25.05
433.958	24.96
434.162	25.01
434.367	25.07
434.572	24.96
434.776	24.94
434.981	25.02
435.186	25.18
435.39	25.2
435.595	25.26
435.799	25.26
436.004	25.12
436.209	25.18
436.413	25.32
436.618	25.26
436.822	25.36
437.027	25.39
437.231	25.32
437.436	25.33
437.64	25.37
437.845	25.35
438.049	25.35
438.253	25.39
438.458	25.43
438.662	25.23
438.867	25.38
439.071	25.24
439.275	25.37
439.48	25.38
439.684	25.41
439.888	25.35
440.093	25.41
440.297	25.44
440.501	25.39
440.706	25.41
440.91	25.48
441.114	25.44
441.318	25.47
441.523	25.46
441.727	25.54
441.931	25.51
442.135	25.54
442.339	25.54
442.543	25.54
442.748	25.56
442.952	25.51
443.156	25.56
443.36	25.61
443.564	25.68
443.768	25.6
443.972	25.56
444.176	25.57
444.38	25.52
444.584	25.57
444.788	25.59
444.992	25.62
445.196	25.56
445.4	25.55
445.604	25.43
445.808	25.52
446.012	25.48
446.216	25.51
446.42	25.52
446.624	25.48
446.828	25.46
447.032	25.44
447.235	25.49
447.439	25.54
447.643	25.5
447.847	25.55
448.051	25.47
448.254	25.53
448.458	25.49
448.662	25.51
448.866	25.69
449.069	25.66
449.273	25.63
449.477	25.65
449.681	25.66
449.884	25.66
450.088	25.7
450.292	25.75
450.495	25.73
450.699	25.69
450.902	25.62
451.106	25.4
451.31	25.49
451.513	25.61
451.717	25.54
451.92	25.53
452.124	25.5
452.327	25.46
452.531	25.47
452.734	25.49
452.938	25.52
453.141	25.56
453.345	25.59
453.548	25.46
453.752	25.37
453.955	25.41
454.158	25.36
454.362	25.41
454.565	25.42
454.769	25.33
454.972	25.36
455.175	25.48
455.379	25.49
455.582	25.59
455.785	25.61
455.988	25.63
456.192	25.71
456.395	25.76
456.598	25.8
456.801	25.73
457.005	25.88
457.208	25.89
457.411	25.84
457.614	25.78
457.817	25.71
458.021	25.65
458.224	25.63
458.427	25.51
458.63	25.49
458.833	25.53
459.036	25.49
459.239	25.5
