Data from 2938828__Reflection_02.txt Node
Date: Thu Mar 12 13:18:56 EDT 2015
User: robert
Spectrometer: USB4E03002
Autoset integration time: false
Trigger mode: 4
Integration Time (sec): 1.000000E-1
Scans to average: 10
Electric dark correction enabled: false
Nonlinearity correction enabled: false
Boxcar width: 5
Stray light correction enabled: false
XAxis mode: Wavelengths
Stop averaging: false
Number of Pixels in Spectrum: 3648
>>>>>Begin Spectral Data<<<<<
177.575	-535.29
177.794	-1346.67
178.014	-3032.56
178.233	-1206.09
178.452	-1125.5
178.672	-1214.56
178.891	-1696.72
179.11	-2562.2
179.33	3841.67
179.549	-2200
179.768	-1969.84
179.987	2144.92
180.207	1271.08
180.426	1546.71
180.645	1245.16
180.864	589.87
181.084	410.24
181.303	459.54
181.522	403.09
181.741	461.08
181.96	405.41
182.179	348.96
182.398	343.57
182.618	431.68
182.837	452.92
183.056	452.79
183.275	727.22
183.494	1622.14
183.713	969.51
183.932	2709.64
184.151	-2125.74
184.37	-2955.56
184.589	-1238.82
184.808	-1281.29
185.027	-5400
185.246	2739.76
185.465	1970.69
185.684	1291.81
185.903	1037
186.122	945.06
186.341	581.01
186.56	334.66
186.779	420.1
186.998	406.4
187.216	421.41
187.435	495.27
187.654	505.91
187.873	451.06
188.092	436.19
188.311	433.23
188.53	407.58
188.748	451.06
188.967	586.91
189.186	445.55
189.405	426.98
189.623	492.7
189.842	369.84
190.061	400.51
190.28	387.15
190.498	332.73
190.717	355.18
190.936	458.54
191.154	533.41
191.373	563.04
191.592	494.16
191.81	546.84
192.029	456.22
192.248	791.07
192.466	985
192.685	1924.19
192.904	-5443.59
193.122	-12135.29
193.341	4326.67
193.559	2175.79
193.778	15584.62
193.996	-1610.08
194.215	-849.57
194.433	-457.35
194.652	-536.52
194.87	-912.02
195.089	-775.8
195.307	-641.94
195.526	-495.26
195.744	-510.95
195.963	-537.28
196.181	-670.05
196.399	-760.87
196.618	-1509.6
196.836	-1777.24
197.055	-1286.93
197.273	-727.81
197.491	-1161.61
197.71	-1673.86
197.928	-1412.14
198.146	-2257.69
198.365	-2174.11
198.583	-26866.67
198.801	6788.57
199.019	2610
199.238	1126.15
199.456	869.12
199.674	796.55
199.892	735.37
200.111	1253.19
200.329	545.15
200.547	459.35
200.765	449.19
200.983	483.01
201.202	476.37
201.42	779.08
201.638	1476.69
201.856	1714.48
202.074	1026.88
202.292	1084.32
202.51	678.7
202.728	1468.45
202.946	1546.84
203.165	1301.59
203.383	1271.43
203.601	905.95
203.819	485.23
204.037	444.26
204.255	407.64
204.473	340.37
204.691	340.66
204.909	343.12
205.127	344.82
205.345	612.21
205.562	687.68
205.78	908.88
205.998	777.78
206.216	1734.86
206.434	1444.12
206.652	-1794.12
206.87	-1525.64
207.088	-1108.07
207.306	-1246.5
207.523	-2043
207.741	-4777.27
207.959	3237.5
208.177	1211.24
208.395	1007.14
208.612	809.47
208.83	858.62
209.048	447.58
209.266	482.98
209.483	417.52
209.701	333.37
209.919	309.16
210.136	271.75
210.354	268.12
210.572	299.27
210.79	428.4
211.007	338.97
211.225	332.43
211.442	289.44
211.66	297.71
211.878	291.1
212.095	237.14
212.313	227.16
212.53	237.95
212.748	225.82
212.966	255.08
213.183	211.59
213.401	254.57
213.618	240.8
213.836	298.22
214.053	322.34
214.271	398.51
214.488	664.53
214.705	622.92
214.923	578.74
215.14	767.68
215.358	384.76
215.575	438.83
215.793	342.79
216.01	323.82
216.227	292.11
216.445	251.9
216.662	222.98
216.879	220.24
217.097	205.48
217.314	204.4
217.531	218.92
217.749	270.47
217.966	221.56
218.183	219.14
218.4	202
218.618	192.21
218.835	177.12
219.052	191.55
219.269	189.12
219.487	199.46
219.704	184.12
219.921	177.01
220.138	168.73
220.355	169.88
220.572	173.25
220.79	166.02
221.007	157.33
221.224	177.07
221.441	169.29
221.658	160.1
221.875	145.35
222.092	138.96
222.309	127.64
222.526	127.21
222.743	125.27
222.96	115.89
223.177	120.95
223.394	112.64
223.611	101.41
223.828	93.92
224.045	93.04
224.262	84.85
224.479	76.9
224.696	71.6
224.913	62.95
225.13	60.74
225.347	60.72
225.564	58.6
225.781	55.82
225.997	53.75
226.214	48.64
226.431	44.3
226.648	41.48
226.865	38.3
227.082	36.36
227.298	32.98
227.515	29.57
227.732	24.92
227.949	22.86
228.165	21.19
228.382	19.69
228.599	18.02
228.816	16.56
229.032	16.08
229.249	15.55
229.466	14.54
229.682	13.76
229.899	14.14
230.116	14.8
230.332	14.28
230.549	15.03
230.765	15.49
230.982	16.92
231.199	17.68
231.415	19.21
231.632	20.7
231.848	21.83
232.065	24.62
232.281	25.37
232.498	25.51
232.714	27.62
232.931	26.78
233.147	28.21
233.364	26.84
233.58	27.64
233.797	26.72
234.013	27.3
234.23	27
234.446	26.4
234.662	25
234.879	25.65
235.095	25.45
235.312	26.27
235.528	25.17
235.744	25.99
235.961	24.97
236.177	25.56
236.393	25.12
236.61	28.05
236.826	27.47
237.042	28.45
237.258	29.61
237.475	30.3
237.691	29.41
237.907	27.68
238.123	28.38
238.339	27.97
238.556	28.76
238.772	29.16
238.988	26.82
239.204	27.35
239.42	26.11
239.636	25.28
239.853	23.1
240.069	23.07
240.285	22.42
240.501	20.76
240.717	20.41
240.933	18.64
241.149	17.31
241.365	15.82
241.581	14.36
241.797	13.79
242.013	13
242.229	12.69
242.445	12.03
242.661	11.93
242.877	12.61
243.093	12.27
243.309	12.36
243.525	12.15
243.741	12.69
243.957	13.34
244.173	14.2
244.388	14.17
244.604	14.43
244.82	14.72
245.036	14.32
245.252	13.07
245.468	12.49
245.683	12.08
245.899	11.48
246.115	10.72
246.331	10.41
246.547	9.45
246.762	9.19
246.978	8.94
247.194	8.82
247.409	8.68
247.625	8.75
247.841	8.64
248.057	8.47
248.272	8.69
248.488	9.15
248.703	9.07
248.919	9.53
249.135	9.77
249.35	9.89
249.566	10.19
249.782	10.4
249.997	10.26
250.213	11.19
250.428	11.72
250.644	11.28
250.859	11.1
251.075	11.47
251.29	11.83
251.506	11.98
251.721	12.14
251.937	12.18
252.152	12.6
252.368	12.39
252.583	12.44
252.798	12.32
253.014	13.05
253.229	13.19
253.445	13.19
253.66	13.72
253.875	14.49
254.091	15.54
254.306	15.18
254.521	15.49
254.737	16.11
254.952	15.57
255.167	15.62
255.383	14.96
255.598	14.46
255.813	14.78
256.028	14.63
256.244	14.3
256.459	13.21
256.674	13.29
256.889	12.68
257.104	12.44
257.32	12.03
257.535	11.73
257.75	11.31
257.965	11.12
258.18	10.28
258.395	9.09
258.61	8.13
258.826	7.72
259.041	7.54
259.256	7.48
259.471	6.97
259.686	6.75
259.901	6.41
260.116	6.42
260.331	6.28
260.546	6.1
260.761	6.07
260.976	6.26
261.191	6.31
261.406	6.38
261.621	6.45
261.836	6.91
262.05	7.37
262.265	8.15
262.48	8.48
262.695	9.38
262.91	10.48
263.125	11.1
263.34	11.29
263.555	11.61
263.769	11.6
263.984	11.88
264.199	11.73
264.414	11.38
264.629	11.41
264.843	10.9
265.058	10.36
265.273	10.01
265.488	10.42
265.702	10.19
265.917	10.3
266.132	10.76
266.346	10.87
266.561	11.01
266.776	11.28
266.99	10.88
267.205	11.02
267.42	10.97
267.634	10.72
267.849	10.58
268.063	10.7
268.278	10.5
268.492	10.23
268.707	9.69
268.922	9.34
269.136	8.67
269.351	8.5
269.565	8.18
269.78	7.78
269.994	7.58
270.209	6.91
270.423	6.74
270.637	6.7
270.852	6.7
271.066	6.63
271.281	7.05
271.495	7.09
271.709	7.1
271.924	7.09
272.138	6.95
272.353	7
272.567	7.09
272.781	7.35
272.996	7.28
273.21	7.19
273.424	7.52
273.638	7.6
273.853	7.49
274.067	7.53
274.281	8.14
274.495	8.9
274.71	9.07
274.924	9.18
275.138	8.98
275.352	8.99
275.566	9.25
275.781	9.12
275.995	8.25
276.209	8.88
276.423	9.38
276.637	9.08
276.851	8.29
277.065	7.97
277.279	7.93
277.493	7.79
277.707	8.37
277.921	8.13
278.135	7.94
278.349	8.15
278.563	8.18
278.777	7.6
278.991	7.33
279.205	7.76
279.419	8.06
279.633	8.23
279.847	8.21
280.061	7.93
280.275	7.93
280.489	7.84
280.703	7.85
280.917	7.5
281.131	7.5
281.344	7.93
281.558	7.67
281.772	7.74
281.986	7.24
282.2	7.52
282.414	7.3
282.627	7.22
282.841	7.47
283.055	7.64
283.269	7.75
283.482	7.83
283.696	7.21
283.91	7.17
284.123	6.84
284.337	7.18
284.551	6.91
284.764	6.92
284.978	6.62
285.192	6.38
285.405	6.08
285.619	5.77
285.833	5.73
286.046	5.84
286.26	5.87
286.473	5.88
286.687	5.94
286.9	5.72
287.114	5.79
287.327	5.79
287.541	6.03
287.754	6.22
287.968	6.7
288.181	6.51
288.395	6.73
288.608	7.07
288.822	7.05
289.035	6.9
289.248	7.44
289.462	7.34
289.675	7.42
289.889	7.37
290.102	7.52
290.315	7.31
290.529	7.36
290.742	7.22
290.955	7.05
291.169	7.28
291.382	7.46
291.595	7.74
291.808	8.02
292.022	8.03
292.235	8.1
292.448	8.2
292.661	8.43
292.875	8.78
293.088	8.93
293.301	9.15
293.514	9.1
293.727	9.12
293.94	8.32
294.153	8.08
294.367	7.73
294.58	7.53
294.793	7.4
295.006	7.38
295.219	7.18
295.432	7.07
295.645	6.71
295.858	6.42
296.071	6.38
296.284	6.56
296.497	6.43
296.71	6.9
296.923	6.87
297.136	6.86
297.349	6.9
297.562	6.59
297.775	6.65
297.988	6.75
298.201	7.2
298.414	7.21
298.626	7.3
298.839	7.49
299.052	7.64
299.265	7.86
299.478	8
299.691	8.02
299.903	8.4
300.116	8.68
300.329	8.77
300.542	8.68
300.755	8.74
300.967	8.95
301.18	8.75
301.393	8.67
301.605	8.78
301.818	8.68
302.031	8.62
302.243	8.98
302.456	8.79
302.669	8.86
302.881	8.42
303.094	8.62
303.307	8.58
303.519	9
303.732	8.87
303.944	8.67
304.157	8.7
304.37	8.67
304.582	8.83
304.795	8.82
305.007	8.9
305.22	9.62
305.432	9.64
305.645	9.87
305.857	9.77
306.069	10.27
306.282	10.29
306.494	10.24
306.707	10.05
306.919	9.44
307.132	9.62
307.344	9.77
307.556	9.55
307.769	9.32
307.981	8.99
308.193	9.05
308.406	8.92
308.618	9.09
308.83	9.12
309.043	9.29
309.255	9.07
309.467	8.96
309.679	9.2
309.892	8.89
310.104	8.8
310.316	8.38
310.528	8.33
310.74	8.02
310.953	7.75
311.165	7.9
311.377	8.04
311.589	8.58
311.801	8.58
312.013	8.26
312.225	8.61
312.437	8.81
312.649	9.17
312.862	9.03
313.074	9.56
313.286	9.61
313.498	9.56
313.71	9.66
313.922	9.5
314.134	9.64
314.346	9.5
314.558	9.42
314.77	9.77
314.982	10.17
315.193	10.5
315.405	10.29
315.617	10.78
315.829	11.08
316.041	10.64
316.253	10.96
316.465	10.7
316.677	11.03
316.888	10.87
317.1	10.61
317.312	10.66
317.524	10.44
317.736	10.28
317.947	10.21
318.159	9.91
318.371	10.35
318.583	10.58
318.794	10.95
319.006	10.67
319.218	10.72
319.43	10.89
319.641	11.11
319.853	11.3
320.064	11.82
320.276	11.96
320.488	12.51
320.699	12.55
320.911	12.29
321.123	12.36
321.334	12.98
321.546	13.18
321.757	13.38
321.969	13.4
322.18	13.5
322.392	13.34
322.603	13.25
322.815	12.72
323.026	12.6
323.238	12.44
323.449	12.16
323.661	11.99
323.872	11.98
324.083	12.07
324.295	11.97
324.506	11.98
324.718	12.02
324.929	11.88
325.14	12.19
325.352	12.29
325.563	12.24
325.774	12.46
325.986	12.42
326.197	12.41
326.408	12.05
326.62	11.91
326.831	12.09
327.042	12.06
327.253	12.42
327.464	12.41
327.676	12.15
327.887	12.35
328.098	12.22
328.309	12.6
328.52	12.84
328.732	12.77
328.943	12.71
329.154	12.26
329.365	11.98
329.576	11.8
329.787	12.04
329.998	12.17
330.209	12.1
330.42	12.51
330.631	12.4
330.842	12.34
331.053	12.75
331.264	12.96
331.475	13.43
331.686	13.63
331.897	13.61
332.108	13.49
332.319	13.5
332.53	13.46
332.741	13.26
332.952	13.27
333.163	13.04
333.374	12.93
333.585	12.77
333.795	12.51
334.006	12.49
334.217	12.68
334.428	12.74
334.639	13.28
334.849	13.72
335.06	13.74
335.271	13.82
335.482	14.04
335.692	13.81
335.903	13.92
336.114	13.99
336.325	14.11
336.535	13.92
336.746	13.86
336.957	13.47
337.167	13.48
337.378	13.52
337.589	13.23
337.799	12.95
338.01	13.4
338.22	13.41
338.431	13.46
338.642	13.22
338.852	13.6
339.063	13.57
339.273	13.7
339.484	13.57
339.694	13.58
339.905	13.57
340.115	13.95
340.326	13.75
340.536	13.48
340.746	13.67
340.957	13.85
341.167	13.67
341.378	13.86
341.588	13.69
341.799	13.77
342.009	13.76
342.219	13.59
342.43	13.64
342.64	13.46
342.85	14.01
343.061	13.88
343.271	13.91
343.481	14.03
343.691	13.68
343.902	13.72
344.112	13.39
344.322	13.27
344.532	13.22
344.743	12.91
344.953	12.9
345.163	12.64
345.373	12.76
345.583	12.49
345.793	11.94
346.004	12.29
346.214	12.24
346.424	12.37
346.634	12.38
346.844	12.69
347.054	12.62
347.264	13.03
347.474	12.95
347.684	12.7
347.894	12.79
348.104	13.07
348.314	12.62
348.524	12.33
348.734	12.37
348.944	12.42
349.154	12.1
349.364	12.1
349.574	11.7
349.784	11.52
349.994	11.53
350.204	11.76
350.413	11.78
350.623	12.11
350.833	12.33
351.043	12.14
351.253	11.79
351.463	12.19
351.672	12.53
351.882	12.69
352.092	13.06
352.302	13.25
352.511	12.85
352.721	12.52
352.931	12.17
353.141	12.33
353.35	12.28
353.56	12.39
353.77	12.05
353.979	12.13
354.189	11.89
354.399	11.64
354.608	11.47
354.818	11.84
355.027	12.25
355.237	12.19
355.447	11.85
355.656	12.04
355.866	12.11
356.075	11.82
356.285	11.48
356.494	11.37
356.704	11.09
356.913	11.05
357.123	10.83
357.332	10.65
357.542	10.92
357.751	11.12
357.96	10.82
358.17	10.6
358.379	11.02
358.589	11.04
358.798	11.04
359.007	11.19
359.217	11.19
359.426	11.08
359.635	11.16
359.845	10.47
360.054	10.3
360.263	10.15
360.472	10.02
360.682	9.95
360.891	10
361.1	10.1
361.309	9.92
361.519	9.76
361.728	9.57
361.937	9.51
362.146	9.7
362.355	9.65
362.564	9.8
362.774	9.97
362.983	9.88
363.192	9.82
363.401	9.81
363.61	9.95
363.819	10.09
364.028	10.27
364.237	10.39
364.446	10.44
364.655	10.64
364.864	10.71
365.073	10.61
365.282	10.36
365.491	10.34
365.7	10.23
365.909	10.45
366.118	10.32
366.327	10.63
366.536	10.21
366.745	10.36
366.954	10.31
367.162	10.27
367.371	10.12
367.58	10.44
367.789	10.39
367.998	10.62
368.207	10.61
368.415	10.86
368.624	10.7
368.833	11.02
369.042	10.9
369.25	11.03
369.459	10.95
369.668	11.17
369.877	11.16
370.085	11.3
370.294	11.16
370.503	10.87
370.711	10.69
370.92	10.57
371.129	10.59
371.337	10.53
371.546	10.21
371.754	10.14
371.963	10.25
372.171	10.23
372.38	10.03
372.589	10.02
372.797	10
373.006	10.03
373.214	10.05
373.423	10.03
373.631	9.99
373.84	9.92
374.048	10.04
374.256	9.89
374.465	9.77
374.673	9.84
374.882	9.76
375.09	9.9
375.298	9.76
375.507	9.54
375.715	9.46
375.923	9.57
376.132	9.72
376.34	9.67
376.548	9.56
376.757	9.54
376.965	9.55
377.173	9.5
377.381	9.44
377.59	9.63
377.798	9.88
378.006	9.73
378.214	9.86
378.423	9.83
378.631	9.86
378.839	10.05
379.047	9.96
379.255	9.86
379.463	9.83
379.671	9.54
379.879	9.38
380.088	9.26
380.296	9.72
380.504	9.59
380.712	9.49
380.92	9.5
381.128	9.56
381.336	9.68
381.544	9.85
381.752	9.99
381.96	10.16
382.168	10.05
382.376	10.08
382.584	9.74
382.791	9.65
382.999	9.64
383.207	9.54
383.415	9.13
383.623	9.08
383.831	8.92
384.039	8.77
384.247	8.91
384.454	8.93
384.662	8.79
384.87	8.63
385.078	8.57
385.285	8.54
385.493	8.55
385.701	8.65
385.909	8.48
386.116	8.49
386.324	8.58
386.532	8.5
386.739	8.41
386.947	8.24
387.155	8.34
387.362	8.4
387.57	8.43
387.778	8.46
387.985	8.5
388.193	8.68
388.4	8.65
388.608	8.72
388.816	8.64
389.023	8.75
389.231	8.97
389.438	9.1
389.646	9.18
389.853	8.95
390.061	8.82
390.268	8.75
390.475	8.76
390.683	8.72
390.89	8.51
391.098	8.52
391.305	8.38
391.512	8.21
391.72	8.12
391.927	7.99
392.135	8.1
392.342	8.09
392.549	8.3
392.756	8.06
392.964	7.97
393.171	7.87
393.378	7.79
393.586	7.73
393.793	7.75
394	7.53
394.207	7.53
394.414	7.54
394.622	7.66
394.829	7.8
395.036	7.98
395.243	8.06
395.45	8.24
395.657	8.29
395.864	8.38
396.072	8.48
396.279	8.51
396.486	8.67
396.693	8.7
396.9	8.42
397.107	7.98
397.314	7.96
397.521	7.94
397.728	7.88
397.935	7.79
398.142	7.82
398.349	7.74
398.556	7.95
398.763	7.9
398.97	8.01
399.177	8.04
399.383	8.05
399.59	7.96
399.797	8.15
400.004	8.3
400.211	8.43
400.418	8.28
400.625	8.36
400.831	8.09
401.038	8.01
401.245	7.8
401.452	8.01
401.658	8.11
401.865	8.2
402.072	8.03
402.279	7.78
402.485	7.66
402.692	7.8
402.899	7.85
403.105	7.93
403.312	7.86
403.519	7.94
403.725	7.95
403.932	7.73
404.138	7.59
404.345	7.57
404.552	7.69
404.758	7.81
404.965	7.77
405.171	7.67
405.378	7.78
405.584	7.79
405.791	7.72
405.997	7.67
406.204	7.91
406.41	8.03
406.617	7.93
406.823	7.89
407.029	7.96
407.236	7.9
407.442	7.92
407.649	8.02
407.855	7.84
408.061	7.81
408.268	7.74
408.474	7.74
408.68	7.65
408.887	7.58
409.093	7.7
409.299	7.47
409.505	7.51
409.712	7.59
409.918	7.58
410.124	7.79
410.33	7.85
410.537	7.83
410.743	7.86
410.949	7.85
411.155	8.05
411.361	8.02
411.567	8.2
411.773	8.09
411.98	8.01
412.186	7.86
412.392	7.93
412.598	8.09
412.804	8.26
413.01	8.23
413.216	8.34
413.422	8.21
413.628	8.25
413.834	8.17
414.04	8.36
414.246	8.3
414.452	8.23
414.658	8.06
414.864	7.99
415.07	7.97
415.275	8
415.481	7.94
415.687	8.04
415.893	7.86
416.099	7.81
416.305	7.94
416.511	8.08
416.716	8.11
416.922	7.99
417.128	7.95
417.334	7.76
417.539	7.72
417.745	7.71
417.951	7.58
418.157	7.52
418.362	7.53
418.568	7.42
418.774	7.26
418.979	7.27
419.185	7.26
419.391	7.23
419.596	7.27
419.802	7.11
420.008	7.14
420.213	7.77
420.419	7.86
420.624	7.87
420.83	7.79
421.035	7.86
421.241	7.76
421.446	7.83
421.652	7.89
421.857	7.75
422.063	7.82
422.268	7.79
422.474	7.21
422.679	7.12
422.885	7.14
423.09	7.2
423.295	7.14
423.501	7.19
423.706	7.19
423.911	7.17
424.117	7.27
424.322	7.29
424.527	7.34
424.733	7.37
424.938	7.47
425.143	7.49
425.349	7.48
425.554	7.54
425.759	7.64
425.964	7.75
426.169	7.69
426.375	7.67
426.58	7.67
426.785	7.71
426.99	7.66
427.195	7.59
427.4	7.35
427.605	7.45
427.811	7.43
428.016	7.44
428.221	7.37
428.426	7.5
428.631	7.54
428.836	7.6
429.041	7.48
429.246	7.62
429.451	7.7
429.656	7.98
429.861	7.98
430.066	8.05
430.271	7.93
430.476	7.95
430.681	7.86
430.886	8
431.09	8.05
431.295	8.08
431.5	8.1
431.705	7.97
431.91	7.82
432.115	7.78
432.32	7.79
432.524	7.82
432.729	7.87
432.934	7.89
433.139	7.95
433.343	7.97
433.548	7.98
433.753	8.09
433.958	8.23
434.162	8.31
434.367	8.37
434.572	8.39
434.776	8.35
434.981	8.23
435.186	8.28
435.39	8.21
435.595	8.29
435.799	8.31
436.004	8.16
436.209	8.09
436.413	8.05
436.618	7.98
436.822	7.97
437.027	8.11
437.231	8.17
437.436	8.16
437.64	8.13
437.845	8.04
438.049	8.11
438.253	8.24
438.458	8.25
438.662	8.34
438.867	8.35
439.071	8.29
439.275	8.35
439.48	8.39
439.684	8.47
439.888	8.49
440.093	8.4
440.297	8.36
440.501	8.26
440.706	8.25
440.91	8.16
441.114	8.16
441.318	8.29
441.523	8.26
441.727	8.3
441.931	8.24
442.135	8.2
442.339	8.38
442.543	8.36
442.748	8.39
442.952	8.43
443.156	8.53
443.36	8.67
443.564	8.68
443.768	8.57
443.972	8.54
444.176	8.58
444.38	8.64
444.584	8.53
444.788	8.54
444.992	8.52
445.196	8.53
445.4	8.42
445.604	8.3
445.808	8.16
446.012	8.22
446.216	8.18
446.42	8.17
446.624	8.12
446.828	8.1
447.032	8.03
447.235	8.02
447.439	7.95
447.643	8.06
447.847	8.1
448.051	8.23
448.254	8.21
448.458	8.2
448.662	8.17
448.866	8.21
449.069	8.19
449.273	8.29
449.477	8.42
449.681	8.46
449.884	8.45
450.088	8.52
450.292	8.39
450.495	8.42
450.699	8.51
450.902	8.52
451.106	8.49
451.31	8.59
451.513	8.55
451.717	8.56
451.92	8.62
452.124	8.58
452.327	8.39
452.531	8.58
452.734	8.51
452.938	8.42
453.141	8.45
453.345	8.53
453.548	8.55
453.752	8.62
453.955	8.53
454.158	8.55
454.362	8.71
454.565	8.87
454.769	8.76
454.972	8.88
455.175	8.89
455.379	8.94
455.582	9
455.785	8.95
455.988	8.95
456.192	8.92
456.395	8.86
456.598	8.89
456.801	8.9
457.005	9.01
457.208	9
457.411	9.04
457.614	9.02
457.817	8.93
458.021	8.96
458.224	8.97
458.427	8.88
458.63	9.01
458.833	8.84
459.036	8.67
459.239	8.53
459.442	8.46
459.645	8.45
459.848	8.35
460.051	8.38
460.254	8.4
460.457	8.4
460.66	8.48
460.863	8.31
461.066	8.34
461.269	8.45
461.472	8.61
461.675	8.62
461.878	8.63
462.081	8.74
462.284	8.74
