Data from 2938840__Reflection_03.txt Node
Date: Wed Mar 11 15:44:45 EDT 2015
User: robert
Spectrometer: USB4E03002
Autoset integration time: false
Trigger mode: 4
Integration Time (sec): 1.000000E-1
Scans to average: 10
Electric dark correction enabled: false
Nonlinearity correction enabled: false
Boxcar width: 5
Stray light correction enabled: false
XAxis mode: Wavelengths
Stop averaging: false
Number of Pixels in Spectrum: 3648
>>>>>Begin Spectral Data<<<<<
177.575	1373.33
177.794	422.67
178.014	547.89
178.233	562.5
178.452	1141.94
178.672	1343.75
178.891	1350
179.11	-3500
179.33	-108.11
179.549	-145.16
179.768	-282.78
179.987	-298.9
180.207	-437.18
180.426	-237.9
180.645	-340.78
180.864	-418.84
181.084	-314.63
181.303	-113.48
181.522	-178.8
181.741	-892.5
181.96	448.65
182.179	621.28
182.398	474
182.618	9.52
182.837	-22.77
183.056	-47.62
183.275	-5.56
183.494	44.12
183.713	-67.16
183.932	78.64
184.151	21.8
184.37	425
184.589	30
184.808	-68
185.027	-23.19
185.246	-65
185.465	-100
185.684	34.33
185.903	147.06
186.122	225.26
186.341	159.02
186.56	109.74
186.779	208.46
186.998	231.62
187.216	235.12
187.435	223.27
187.654	327.75
187.873	202.98
188.092	145.59
188.311	136.69
188.53	90.41
188.748	133.67
188.967	279.37
189.186	-121.9
189.405	-34.94
189.623	-2.7
189.842	-29.69
190.061	80.77
190.28	93.71
190.498	75
190.717	57.59
190.936	52.79
191.154	52.16
191.373	77.9
191.592	-224.69
191.81	-208.93
192.029	-61.81
192.248	-51.68
192.466	-168.89
192.685	47.14
192.904	68.3
193.122	60.43
193.341	68.08
193.559	34.83
193.778	61.54
193.996	99.57
194.215	116.95
194.433	98.66
194.652	87.64
194.87	143.9
195.089	167.18
195.307	-600
195.526	71.43
195.744	26.09
195.963	-873.68
196.181	136.6
196.399	35.43
196.618	62.04
196.836	89.37
197.055	95.77
197.273	74.68
197.491	101.53
197.71	173.07
197.928	146.5
198.146	174.66
198.365	150.8
198.583	248.06
198.801	199.55
199.019	130.77
199.238	-186.55
199.456	-158.52
199.674	-756.6
199.892	269.01
200.111	147.45
200.329	151.46
200.547	96.45
200.765	81.46
200.983	57.94
201.202	79.39
201.42	115
201.638	100.79
201.856	116.25
202.074	125.47
202.292	187.2
202.51	263.9
202.728	306.69
202.946	610.49
203.165	722.31
203.383	548
203.601	693.66
203.819	374.39
204.037	313.65
204.255	770.53
204.473	262.31
204.691	245.42
204.909	115.23
205.127	90.11
205.345	74.94
205.562	68.44
205.78	65.86
205.998	75.65
206.216	77.01
206.434	72.36
206.652	58.36
206.87	98.88
207.088	103.05
207.306	153.15
207.523	218.41
207.741	344.81
207.959	-959.32
208.177	-218.78
208.395	-97.25
208.612	-52.3
208.83	-150
209.048	-214.79
209.266	-10.04
209.483	-31.96
209.701	-151.25
209.919	-68
210.136	-6.43
210.354	-151.43
210.572	20.27
210.79	37.07
211.007	148.13
211.225	115.13
211.442	96.32
211.66	120.25
211.878	121.71
212.095	584.04
212.313	488.77
212.53	569.57
212.748	513.36
212.966	370.19
213.183	284.15
213.401	214.84
213.618	264.07
213.836	273.89
214.053	207.79
214.271	188.8
214.488	60.44
214.705	47.04
214.923	64.34
215.14	73.92
215.358	58.61
215.575	35.12
215.793	36.37
216.01	48.5
216.227	30.03
216.445	18.79
216.662	19.22
216.879	5.56
217.097	20.23
217.314	23.77
217.531	31.52
217.749	40.92
217.966	46.43
218.183	49.05
218.4	51.17
218.618	48.18
218.835	48.5
219.052	44.84
219.269	45.2
219.487	33.82
219.704	17.87
219.921	18.36
220.138	23.15
220.355	20
220.572	24.49
220.79	19.75
221.007	24.32
221.224	27.61
221.441	17.08
221.658	26.44
221.875	23.23
222.092	26.23
222.309	17.19
222.526	5.47
222.743	5.25
222.96	2.32
223.177	3.75
223.394	2.86
223.611	-1.4
223.828	8.17
224.045	4.44
224.262	5.65
224.479	7.87
224.696	15.86
224.913	13.38
225.13	10.9
225.347	4.86
225.564	4.21
225.781	-1.09
225.997	3.67
226.214	3.59
226.431	3.3
226.648	3.86
226.865	4.19
227.082	2.1
227.298	4.06
227.515	5.18
227.732	6.38
227.949	5.48
228.165	5.66
228.382	4.25
228.599	4.7
228.816	4.61
229.032	4.09
229.249	3.72
229.466	3.53
229.682	3.21
229.899	3.07
230.116	2.51
230.332	2.16
230.549	1.87
230.765	1.99
230.982	-0.19
231.199	-0.84
231.415	-0.47
231.632	-1.86
231.848	-4.9
232.065	-4.85
232.281	-5.34
232.498	-7.33
232.714	-6.02
232.931	-4.75
233.147	-4.32
233.364	-1.85
233.58	-1.93
233.797	-1.41
234.013	0.49
234.23	3.37
234.446	2.95
234.662	1
234.879	2.33
235.095	2.76
235.312	1.25
235.528	1.93
235.744	2.28
235.961	2.89
236.177	2.63
236.393	3.1
236.61	3.11
236.826	4
237.042	6.42
237.258	7.48
237.475	4.85
237.691	4.92
237.907	2.71
238.123	2.48
238.339	2.58
238.556	2.63
238.772	2.21
238.988	3.63
239.204	3.12
239.42	1.52
239.636	1.29
239.853	2.45
240.069	2.81
240.285	4.08
240.501	3.55
240.717	4.23
240.933	4.18
241.149	3.49
241.365	3.71
241.581	4.33
241.797	5.16
242.013	5.53
242.229	5.44
242.445	5.96
242.661	5.82
242.877	6.41
243.093	5.39
243.309	5.5
243.525	5.81
243.741	5.72
243.957	5.44
244.173	5.47
244.388	5.9
244.604	6.32
244.82	5.8
245.036	5.7
245.252	5.28
245.468	5.74
245.683	5.71
245.899	6.03
246.115	5.8
246.331	5.62
246.547	5.74
246.762	5.37
246.978	5.1
247.194	5.05
247.409	5.02
247.625	5
247.841	5.21
248.057	5.28
248.272	4.95
248.488	4.82
248.703	4.8
248.919	4.65
249.135	4.11
249.35	4.17
249.566	4.72
249.782	4.8
249.997	4.21
250.213	4.17
250.428	4.18
250.644	4.19
250.859	4.32
251.075	3.92
251.29	3.42
251.506	4.13
251.721	3.98
251.937	3.43
252.152	3.48
252.368	3.78
252.583	3.57
252.798	3.12
253.014	3.17
253.229	2.41
253.445	2.63
253.66	2.75
253.875	2.6
254.091	2.95
254.306	2.92
254.521	2.48
254.737	2.08
254.952	1.23
255.167	1.45
255.383	2.27
255.598	2.52
255.813	2.9
256.028	3.42
256.244	2.92
256.459	2.5
256.674	2.49
256.889	3.07
257.104	3
257.32	3.56
257.535	3.36
257.75	2.99
257.965	3.44
258.18	3.48
258.395	3.59
258.61	3.84
258.826	4.21
259.041	4.15
259.256	4.33
259.471	4.61
259.686	4.68
259.901	4.47
260.116	4.33
260.331	4.27
260.546	4.29
260.761	3.97
260.976	4.01
261.191	3.83
261.406	3.91
261.621	3.54
261.836	3.36
262.05	3.32
262.265	3.67
262.48	3.7
262.695	3.39
262.91	2.84
263.125	2.8
263.34	2.51
263.555	2.58
263.769	2.49
263.984	2.76
264.199	2.56
264.414	2.65
264.629	2.47
264.843	2.64
265.058	3.34
265.273	3.6
265.488	3.83
265.702	3.82
265.917	4.1
266.132	4.13
266.346	3.96
266.561	4.34
266.776	4.23
266.99	3.87
267.205	3.79
267.42	3.36
267.634	3.33
267.849	3.32
268.063	3.45
268.278	2.95
268.492	2.55
268.707	2.45
268.922	1.93
269.136	1.58
269.351	2.26
269.565	2.34
269.78	2.38
269.994	2.21
270.209	2.58
270.423	2.18
270.637	2.41
270.852	2.85
271.066	2.8
271.281	2.96
271.495	3.26
271.709	3.24
271.924	3.18
272.138	3.49
272.353	3.58
272.567	3.45
272.781	3.83
272.996	3.62
273.21	3.49
273.424	3.48
273.638	3.19
273.853	3
274.067	2.84
274.281	2.96
274.495	2.73
274.71	2.37
274.924	2.06
275.138	1.85
275.352	1.85
275.566	1.8
275.781	2.13
275.995	2.76
276.209	2.97
276.423	3.31
276.637	3.39
276.851	3.21
277.065	3.96
277.279	3.74
277.493	3.77
277.707	3.82
277.921	3.87
278.135	3.57
278.349	3.59
278.563	3.33
278.777	2.39
278.991	2.61
279.205	2.75
279.419	2.73
279.633	3.14
279.847	3.17
280.061	3.33
280.275	3.25
280.489	3.51
280.703	3.03
280.917	2.93
281.131	3.3
281.344	3.28
281.558	3.22
281.772	3.36
281.986	3.74
282.2	3.69
282.414	3.47
282.627	3.8
282.841	3.67
283.055	3.8
283.269	4.21
283.482	4.07
283.696	3.85
283.91	3.81
284.123	3.54
284.337	3.29
284.551	3.29
284.764	3.64
284.978	3.29
285.192	3.48
285.405	3.54
285.619	3.45
285.833	3.29
286.046	3.24
286.26	3.53
286.473	3.56
286.687	3.56
286.9	3.66
287.114	3.68
287.327	3.83
287.541	3.53
287.754	3.85
287.968	3.79
288.181	3.94
288.395	4.03
288.608	3.72
288.822	3.4
289.035	3.2
289.248	3.28
289.462	2.97
289.675	3.04
289.889	3.61
290.102	3.48
290.315	3.59
290.529	4.24
290.742	4.1
290.955	4.44
291.169	4.59
291.382	4.95
291.595	5.14
291.808	5.45
292.022	5.39
292.235	5.13
292.448	5.19
292.661	5.07
292.875	4.98
293.088	5.08
293.301	5.29
293.514	5.51
293.727	5.31
293.94	5.12
294.153	4.91
294.367	4.74
294.58	4.43
294.793	4.26
295.006	4.05
295.219	3.77
295.432	3.72
295.645	3.33
295.858	3.29
296.071	3.56
296.284	3.59
296.497	3.74
296.71	3.87
296.923	4.07
297.136	4.03
297.349	4.21
297.562	4.22
297.775	4.45
297.988	4.74
298.201	5
298.414	4.94
298.626	4.86
298.839	4.85
299.052	4.9
299.265	4.83
299.478	4.87
299.691	4.95
299.903	5.05
300.116	5.16
300.329	5.11
300.542	4.91
300.755	5.02
300.967	5.03
301.18	4.96
301.393	4.97
301.605	4.98
301.818	4.96
302.031	4.54
302.243	4.66
302.456	4.35
302.669	4.32
302.881	4.65
303.094	4.41
303.307	4.77
303.519	4.78
303.732	5.08
303.944	5.28
304.157	6.1
304.37	6.43
304.582	6.47
304.795	6.64
305.007	6.52
305.22	6.39
305.432	6.39
305.645	6.4
305.857	6.68
306.069	6.56
306.282	6.49
306.494	5.74
306.707	6.01
306.919	6.13
307.132	6.1
307.344	6.34
307.556	6.52
307.769	6.74
307.981	6.44
308.193	6.53
308.406	6.74
308.618	6.91
308.83	7.31
309.043	7.03
309.255	6.59
309.467	6.76
309.679	6.54
309.892	6.24
310.104	6.03
310.316	6.41
310.528	6.26
310.74	6.11
310.953	5.95
311.165	5.71
311.377	6.12
311.589	6.17
311.801	6.25
312.013	6.29
312.225	6.45
312.437	6.56
312.649	6.51
312.862	6.57
313.074	6.57
313.286	6.82
313.498	6.81
313.71	6.68
313.922	6.89
314.134	6.51
314.346	6.73
314.558	6.52
314.77	6.6
314.982	6.98
315.193	7.2
315.405	6.99
315.617	6.71
315.829	6.9
316.041	6.4
316.253	6.35
316.465	6.93
316.677	6.91
316.888	7.05
317.1	7.1
317.312	6.38
317.524	6.13
317.736	6.23
317.947	6.48
318.159	6.5
318.371	6.87
318.583	6.84
318.794	6.59
319.006	6.56
319.218	6.78
319.43	6.9
319.641	7.3
319.853	7.41
320.064	7.4
320.276	7.27
320.488	7.24
320.699	7.28
320.911	7.64
321.123	7.6
321.334	7.62
321.546	7.78
321.757	7.77
321.969	7.56
322.18	8.02
322.392	8.38
322.603	8.75
322.815	9.04
323.026	9.29
323.238	9.46
323.449	9.46
323.661	9.44
323.872	9.18
324.083	9.32
324.295	9.44
324.506	9.14
324.718	8.96
324.929	8.9
325.14	9.09
325.352	8.82
325.563	9.03
325.774	9.25
325.986	9.68
326.197	9.86
326.408	10.05
326.62	10.21
326.831	10.44
327.042	10.95
327.253	10.92
327.464	10.74
327.676	11.18
327.887	10.91
328.098	11.15
328.309	11.01
328.52	11.64
328.732	11.82
328.943	11.95
329.154	12.08
329.365	12.08
329.576	12.49
329.787	12.74
329.998	12.84
330.209	13.2
330.42	13.28
330.631	13.13
330.842	12.52
331.053	12.32
331.264	12.48
331.475	12.61
331.686	12.74
331.897	12.52
332.108	12.56
332.319	12.51
332.53	12.53
332.741	12.51
332.952	12.7
333.163	12.91
333.374	13.18
333.585	13.25
333.795	12.96
334.006	13.08
334.217	12.9
334.428	12.76
334.639	12.71
334.849	12.71
335.06	12.67
335.271	12.78
335.482	12.96
335.692	12.76
335.903	13.11
336.114	13.42
336.325	13.11
336.535	13.49
336.746	13.94
336.957	13.96
337.167	13.86
337.378	14.07
337.589	14.12
337.799	13.91
338.01	14.01
338.22	13.22
338.431	12.85
338.642	12.95
338.852	12.67
339.063	12.07
339.273	12.05
339.484	11.94
339.694	11.8
339.905	11.81
340.115	11.79
340.326	11.97
340.536	12.59
340.746	12.75
340.957	12.89
341.167	13.33
341.378	13.58
341.588	14
341.799	14.31
342.009	14.35
342.219	14.24
342.43	14.34
342.64	14.08
342.85	13.84
343.061	14.01
343.271	13.93
343.481	13.77
343.691	13.66
343.902	13.35
344.112	13.02
344.322	12.96
344.532	12.88
344.743	12.71
344.953	12.75
345.163	12.73
345.373	12.57
345.583	12.53
345.793	12.6
346.004	12.83
346.214	12.71
346.424	12.78
346.634	12.87
346.844	12.94
347.054	13.14
347.264	12.96
347.474	12.92
347.684	12.85
347.894	12.57
348.104	12.66
348.314	12.5
348.524	12.66
348.734	12.65
348.944	12.44
349.154	12.51
349.364	12.61
349.574	12.56
349.784	12.54
349.994	12.37
350.204	12.59
350.413	12.39
350.623	12.45
350.833	12.17
351.043	12.04
351.253	12
351.463	12.08
351.672	12.13
351.882	12.43
352.092	12.54
352.302	12.56
352.511	12.71
352.721	12.71
352.931	12.71
353.141	12.85
353.35	12.85
353.56	13.04
353.77	13.02
353.979	12.73
354.189	12.72
354.399	12.8
354.608	12.98
354.818	13
355.027	13.1
355.237	13
355.447	12.99
355.656	12.95
355.866	12.76
356.075	12.87
356.285	13.22
356.494	13.11
356.704	13.08
356.913	12.86
357.123	12.64
357.332	12.56
357.542	12.38
357.751	12.53
357.96	12.58
358.17	12.41
358.379	12.3
358.589	11.69
358.798	11.84
359.007	11.75
359.217	11.86
359.426	11.93
359.635	11.98
359.845	12.03
360.054	11.89
360.263	11.73
360.472	11.71
360.682	11.67
360.891	11.94
361.1	11.79
361.309	11.74
361.519	11.74
361.728	11.57
361.937	11.51
362.146	11.73
362.355	11.84
362.564	11.93
362.774	12.24
362.983	12.14
363.192	12.27
363.401	12.2
363.61	12.35
363.819	12.37
364.028	12.52
364.237	12.34
364.446	11.98
364.655	11.9
364.864	12.07
365.073	11.64
365.282	11.46
365.491	11.24
365.7	11.13
365.909	11.04
366.118	11.09
366.327	11.1
366.536	11.16
366.745	11.24
366.954	11.11
367.162	10.9
367.371	11.14
367.58	11.37
367.789	11.2
367.998	11.42
368.207	11.52
368.415	11.46
368.624	11.02
368.833	11.06
369.042	11.05
369.25	10.93
369.459	11.01
369.668	10.85
369.877	10.63
370.085	10.8
370.294	10.74
370.503	10.8
370.711	10.63
370.92	10.94
371.129	10.72
371.337	10.57
371.546	10.53
371.754	10.31
371.963	10.17
372.171	10.26
372.38	10.21
372.589	10.1
372.797	9.86
373.006	9.83
373.214	9.82
373.423	9.68
373.631	9.54
373.84	9.47
374.048	9.42
374.256	9.39
374.465	9.36
374.673	9.23
374.882	9.31
375.09	9.1
375.298	9.21
375.507	9.14
375.715	9.35
375.923	9.24
376.132	9.25
376.34	9.3
376.548	9.24
376.757	9.04
376.965	9.03
377.173	8.86
377.381	8.97
377.59	8.83
377.798	8.75
378.006	8.5
378.214	8.85
378.423	8.87
378.631	8.84
378.839	8.94
379.047	9.07
379.255	8.97
379.463	8.83
379.671	8.63
379.879	8.47
380.088	8.66
380.296	8.67
380.504	8.31
380.712	8.2
380.92	8.12
381.128	8.04
381.336	7.95
381.544	7.87
381.752	8.19
381.96	8.2
382.168	8.23
382.376	8.2
382.584	8.21
382.791	8.12
382.999	8.13
383.207	8.12
383.415	8.07
383.623	7.93
383.831	7.89
384.039	7.52
384.247	7.49
384.454	7.65
384.662	7.2
384.87	7.19
385.078	7.19
385.285	7.13
385.493	7.09
385.701	7.02
385.909	6.97
386.116	7.01
386.324	7.08
386.532	6.96
386.739	6.72
386.947	6.78
387.155	6.81
387.362	6.93
387.57	6.79
387.778	6.75
387.985	6.69
388.193	6.77
388.4	6.52
388.608	6.3
388.816	6.21
389.023	6.17
389.231	6.35
389.438	6.23
389.646	6.3
389.853	6.28
390.061	6.17
390.268	6.18
390.475	6.06
390.683	6.15
390.89	6.29
391.098	6.25
391.305	6.39
391.512	6.35
391.72	6.37
391.927	6.15
392.135	6.25
392.342	6.27
392.549	6.25
392.756	6.22
392.964	6.29
393.171	6.21
393.378	6.21
393.586	5.99
393.793	5.79
394	5.69
394.207	5.81
394.414	5.7
394.622	5.62
394.829	5.64
395.036	5.54
395.243	5.39
395.45	5.32
395.657	5.17
395.864	5.18
396.072	5.17
396.279	5.17
396.486	5.06
396.693	5.04
396.9	5.07
397.107	4.97
397.314	5.07
397.521	5
397.728	4.99
397.935	5.07
398.142	4.85
398.349	4.84
398.556	4.87
398.763	4.96
398.97	4.91
399.177	4.84
399.383	4.83
399.59	4.55
399.797	4.62
400.004	4.65
400.211	4.75
400.418	4.97
400.625	4.82
400.831	4.77
401.038	4.63
401.245	4.54
401.452	4.54
401.658	4.47
401.865	4.68
402.072	4.65
402.279	4.63
402.485	4.46
402.692	4.47
402.899	4.59
403.105	4.44
403.312	4.31
403.519	4.4
403.725	4.25
403.932	4.28
404.138	4.25
404.345	4.34
404.552	4.33
404.758	4.34
404.965	4.25
405.171	4.24
405.378	4.47
405.584	4.6
405.791	4.47
405.997	4.58
406.204	4.51
406.41	4.38
406.617	4.28
406.823	4.16
407.029	4.16
407.236	4
407.442	3.88
407.649	3.58
407.855	3.48
408.061	3.39
408.268	3.39
408.474	3.34
408.68	3.29
408.887	3.15
409.093	3.15
409.299	3.14
409.505	3.36
409.712	3.38
409.918	3.57
410.124	3.68
410.33	3.87
410.537	3.85
410.743	3.83
410.949	3.84
411.155	3.89
411.361	3.89
411.567	3.8
411.773	3.74
411.98	4
412.186	3.96
412.392	3.81
412.598	3.67
412.804	3.6
413.01	3.54
413.216	3.72
413.422	3.74
413.628	3.71
413.834	3.85
414.04	3.68
414.246	3.51
414.452	3.57
414.658	3.57
414.864	3.65
415.07	3.64
415.275	3.73
415.481	3.73
415.687	3.84
415.893	3.88
416.099	3.85
416.305	4.01
416.511	3.95
416.716	3.83
416.922	3.92
417.128	3.91
417.334	3.95
417.539	3.91
417.745	3.85
417.951	3.74
418.157	3.76
418.362	3.72
418.568	3.58
418.774	3.63
418.979	3.66
419.185	3.53
419.391	3.52
419.596	3.5
419.802	3.52
420.008	3.55
420.213	3.23
420.419	3.23
420.624	3.29
420.83	3.4
421.035	3.39
421.241	3.42
421.446	3.4
421.652	3.4
421.857	3.4
422.063	3.32
422.268	3.27
422.474	3.61
422.679	3.57
422.885	3.6
423.09	3.49
423.295	3.46
423.501	3.41
423.706	3.5
423.911	3.48
424.117	3.46
424.322	3.56
424.527	3.59
424.733	3.55
424.938	3.65
425.143	3.55
425.349	3.61
425.554	3.61
425.759	3.61
425.964	3.61
426.169	3.65
426.375	3.59
426.58	3.59
426.785	3.57
426.99	3.58
427.195	3.47
427.4	3.51
427.605	3.54
427.811	3.52
428.016	3.53
428.221	3.4
428.426	3.28
428.631	3.38
428.836	3.31
429.041	3.18
429.246	3.08
429.451	3.1
429.656	3.09
429.861	3
430.066	3.08
430.271	3.04
430.476	3.05
430.681	3.13
430.886	3.04
431.09	3.04
431.295	3.08
431.5	3.19
431.705	3.16
431.91	3.11
432.115	3.15
432.32	3.08
432.524	3.02
432.729	3.04
432.934	3.12
433.139	3.18
433.343	3.21
433.548	3.18
433.753	3.19
433.958	3.23
434.162	3.35
434.367	3.35
434.572	3.3
434.776	3.35
434.981	3.34
435.186	3.2
435.39	3.18
435.595	3.18
435.799	3.3
436.004	3.26
436.209	3.24
436.413	3.16
436.618	3.03
436.822	3.04
437.027	3.13
437.231	3.07
437.436	3.03
437.64	3.1
437.845	3.07
438.049	3.13
438.253	3.12
438.458	3.15
438.662	3.06
438.867	3.11
439.071	3.14
439.275	3.11
439.48	3.23
439.684	3.38
439.888	3.37
440.093	3.45
440.297	3.4
440.501	3.43
440.706	3.44
440.91	3.48
441.114	3.54
441.318	3.53
441.523	3.54
441.727	3.45
441.931	3.34
442.135	3.29
442.339	3.21
442.543	3.14
442.748	3.12
442.952	3.08
443.156	3.08
443.36	3.09
443.564	3.12
443.768	3.07
443.972	3.2
444.176	3.29
444.38	3.31
444.584	3.32
444.788	3.36
444.992	3.37
445.196	3.36
445.4	3.36
445.604	3.34
445.808	3.37
446.012	3.46
446.216	3.46
446.42	3.35
446.624	3.31
446.828	3.29
447.032	3.23
447.235	3.18
447.439	3.19
447.643	3.18
447.847	3.11
448.051	3.1
448.254	2.96
448.458	2.88
448.662	2.94
448.866	2.96
449.069	2.94
449.273	2.98
449.477	3.03
449.681	3.02
449.884	3
450.088	2.99
450.292	3.08
450.495	3.03
450.699	3.08
450.902	3.06
451.106	3.09
451.31	3.15
451.513	3.09
451.717	2.95
451.92	2.91
452.124	2.99
452.327	3.03
452.531	2.96
452.734	2.99
452.938	2.9
453.141	2.92
453.345	2.89
453.548	2.9
453.752	2.91
453.955	2.94
454.158	3
454.362	2.95
454.565	2.95
454.769	2.93
454.972	2.95
455.175	2.93
455.379	2.94
455.582	2.87
455.785	2.77
455.988	2.85
456.192	2.98
456.395	2.99
456.598	2.86
456.801	2.86
457.005	2.83
457.208	2.82
457.411	2.99
457.614	2.88
457.817	2.85
458.021	2.93
458.224	2.88
458.427	2.83
458.63	2.86
458.833	2.91
459.036	2.93
459.239	2.93
459.442	2.96
459.645	2.89
459.848	3.01
460.051	3.04
460.254	3.02
460.457	3.03
460.66	3.04
460.863	2.97
461.066	3.02
461.269	3
461.472	2.99
461.675	2.97
461.878	2.98
462.081	2.92
462.284	2.92
462.486	2.96
462.689	3.01
462.892	3.09
463.095	3.1
463.298	3.06
463.5	3.14
463.703	3.14
463.906	3.18
464.109	3.08
464.311	3.16
464.514	3.21
464.717	3.19
464.92	3.09
465.122	3.05
465.325	3.1
465.528	3.16
465.73	3.07
465.933	3.1
466.135	3.03
466.338	3.2
466.541	3.08
466.743	3.03
466.946	3.05
467.148	3.13
467.351	3.06
467.553	3.04
467.756	3
467.958	2.98
468.161	2.99
468.363	3.1
