Data from 2938837__Reflection_01.txt Node
Date: Thu Mar 12 10:47:37 EDT 2015
User: robert
Spectrometer: USB4E03002
Autoset integration time: false
Trigger mode: 4
Integration Time (sec): 1.000000E-1
Scans to average: 10
Electric dark correction enabled: false
Nonlinearity correction enabled: false
Boxcar width: 5
Stray light correction enabled: false
XAxis mode: Wavelengths
Stop averaging: false
Number of Pixels in Spectrum: 3648
>>>>>Begin Spectral Data<<<<<
177.575	245.54
177.794	395.95
178.014	387.14
178.233	413.66
178.452	397.97
178.672	417.72
178.891	488.95
179.11	485.09
179.33	441.82
179.549	386.27
179.768	369.86
179.987	681.58
180.207	614.58
180.426	701.95
180.645	513.42
180.864	361.1
181.084	436.22
181.303	386.71
181.522	382.29
181.741	556.21
181.96	1144.3
182.179	1213.91
182.398	704.38
182.618	468.27
182.837	427.83
183.056	540.73
183.275	2198.72
183.494	1134.39
183.713	1636.11
183.932	-6674.07
184.151	5325.81
184.37	653.7
184.589	1310.45
184.808	1314.79
185.027	1510.45
185.246	3976.09
185.465	-1645.54
185.684	1964.65
185.903	194400
186.122	688.75
186.341	422.37
186.56	325.36
186.779	320.43
186.998	315.77
187.216	294.72
187.435	268.8
187.654	281.88
187.873	217.08
188.092	247.01
188.311	211.93
188.53	224.3
188.748	225.69
188.967	286.87
189.186	415.35
189.405	345.49
189.623	313.03
189.842	316.88
190.061	276.3
190.28	271.78
190.498	292.5
190.717	256.38
190.936	253.05
191.154	303.17
191.373	276.99
191.592	251.01
191.81	264.71
192.029	375.7
192.248	350.81
192.466	368.41
192.685	396.01
192.904	294.27
193.122	301.09
193.341	370.47
193.559	299.4
193.778	284.79
193.996	261.56
194.215	268.86
194.433	227.9
194.652	261.4
194.87	389.16
195.089	439.24
195.307	577.13
195.526	1170.59
195.744	1835
195.963	-23816.67
196.181	-1282.88
196.399	-783.06
196.618	-684.14
196.836	-339.4
197.055	-386.73
197.273	-1955.22
197.491	7521.05
197.71	34475
197.928	1560.42
198.146	1364.1
198.365	2157.35
198.583	1223.64
198.801	626.38
199.019	441.71
199.238	313.29
199.456	341.4
199.674	353.11
199.892	337.97
200.111	319.02
200.329	296.62
200.547	248.53
200.765	250.64
200.983	268.29
201.202	305.16
201.42	283.11
201.638	265.75
201.856	295.36
202.074	305.59
202.292	472.97
202.51	665.46
202.728	561.54
202.946	685.16
203.165	417.8
203.383	416.55
203.601	298.21
203.819	386.74
204.037	406.68
204.255	324.34
204.473	287.98
204.691	228.54
204.909	224.06
205.127	232.61
205.345	208.63
205.562	223.43
205.78	228.78
205.998	274.2
206.216	200.95
206.434	192.09
206.652	191.22
206.87	211.05
207.088	203.65
207.306	183.61
207.523	169.57
207.741	172.11
207.959	169.14
208.177	155.8
208.395	140.76
208.612	153.87
208.83	170.71
209.048	176.18
209.266	180.34
209.483	164.7
209.701	186.53
209.919	193.47
210.136	218.84
210.354	263.16
210.572	309.58
210.79	356.33
211.007	519.38
211.225	668.81
211.442	690.71
211.66	598.27
211.878	1138.46
212.095	431.77
212.313	388.29
212.53	325.73
212.748	235.94
212.966	182.75
213.183	144.36
213.401	114.63
213.618	120.08
213.836	118.57
214.053	98.59
214.271	102.91
214.488	159.92
214.705	175.2
214.923	155.93
215.14	157.05
215.358	161.22
215.575	177.99
215.793	165.93
216.01	161.85
216.227	162.59
216.445	163.41
216.662	182.8
216.879	177.62
217.097	173.41
217.314	171.79
217.531	189.88
217.749	181.61
217.966	164.82
218.183	158.13
218.4	152.57
218.618	149.92
218.835	141.53
219.052	140.69
219.269	151.87
219.487	143.51
219.704	138.74
219.921	116.12
220.138	112.14
220.355	120.7
220.572	118.49
220.79	112.34
221.007	123.9
221.224	120.77
221.441	114.8
221.658	95.72
221.875	88.35
222.092	80.93
222.309	85.24
222.526	92.01
222.743	81.28
222.96	78.17
223.177	78.7
223.394	72.39
223.611	70.95
223.828	71.95
224.045	74.65
224.262	70.36
224.479	76.31
224.696	73.67
224.913	67.47
225.13	67.15
225.347	67.06
225.564	60.54
225.781	58.16
225.997	52.3
226.214	44.82
226.431	40.73
226.648	36.8
226.865	32.03
227.082	29.3
227.298	25.83
227.515	20.91
227.732	18.8
227.949	18.65
228.165	16.16
228.382	16.39
228.599	15.02
228.816	13.97
229.032	13.9
229.249	13.39
229.466	13.18
229.682	13.1
229.899	13.71
230.116	13.72
230.332	13.48
230.549	14.42
230.765	14.5
230.982	15.95
231.199	16.4
231.415	16.82
231.632	17.68
231.848	18.86
232.065	19.51
232.281	20.44
232.498	20.34
232.714	22.21
232.931	21.79
233.147	21.83
233.364	22.14
233.58	22.78
233.797	23.67
234.013	24.13
234.23	22.97
234.446	22.27
234.662	21.22
234.879	22.06
235.095	21.17
235.312	21.07
235.528	20.46
235.744	19.71
235.961	19.85
236.177	19.09
236.393	20
236.61	20.81
236.826	22.15
237.042	22.36
237.258	22.9
237.475	22.87
237.691	22.66
237.907	24.28
238.123	26.29
238.339	26.79
238.556	26.7
238.772	25.72
238.988	24.8
239.204	23.46
239.42	22.63
239.636	20.49
239.853	20.67
240.069	20.28
240.285	18.11
240.501	16.9
240.717	15.06
240.933	14.11
241.149	13.74
241.365	13.52
241.581	13.09
241.797	12.7
242.013	11.87
242.229	11.39
242.445	10.91
242.661	11
242.877	10.92
243.093	11.13
243.309	11.29
243.525	10.94
243.741	10.93
243.957	11.16
244.173	12.32
244.388	13.65
244.604	13.45
244.82	14.27
245.036	13.7
245.252	13.41
245.468	12.59
245.683	12.01
245.899	11.43
246.115	10.99
246.331	10.01
246.547	9.16
246.762	8.63
246.978	8.16
247.194	7.8
247.409	7.89
247.625	7.37
247.841	7.25
248.057	7.44
248.272	7.69
248.488	7.82
248.703	8.03
248.919	8.16
249.135	8.66
249.35	9.31
249.566	9.94
249.782	10.88
249.997	12.07
250.213	12.35
250.428	12.34
250.644	12.3
250.859	12.31
251.075	12.94
251.29	13
251.506	12.94
251.721	12.97
251.937	12.13
252.152	11.17
252.368	11.21
252.583	11.99
252.798	12.59
253.014	12.26
253.229	12.59
253.445	12.74
253.66	12.61
253.875	12.07
254.091	12.29
254.306	13.41
254.521	14.48
254.737	14.4
254.952	13.54
255.167	14.04
255.383	14.02
255.598	13.85
255.813	13.58
256.028	14.39
256.244	13.9
256.459	13.32
256.674	14.09
256.889	13.43
257.104	12.3
257.32	12.56
257.535	11.35
257.75	11.17
257.965	9.91
258.18	10.13
258.395	9.52
258.61	9.07
258.826	8.74
259.041	8.15
259.256	8.03
259.471	7.74
259.686	7.58
259.901	7.41
260.116	7.26
260.331	7.38
260.546	7.22
260.761	7.08
260.976	7.3
261.191	7.55
261.406	7.12
261.621	7.46
261.836	8.26
262.05	8.26
262.265	8.91
262.48	9.38
262.695	9.94
262.91	9.57
263.125	10.37
263.34	10.49
263.555	10.17
263.769	10.43
263.984	10.24
264.199	9.67
264.414	9.75
264.629	9.14
264.843	8.49
265.058	8.46
265.273	9.14
265.488	8.71
265.702	9.06
265.917	8.78
266.132	8.75
266.346	8.44
266.561	8.29
266.776	8.53
266.99	8.36
267.205	8.66
267.42	8.38
267.634	8.22
267.849	8.33
268.063	7.95
268.278	7.97
268.492	8.71
268.707	8.76
268.922	9.19
269.136	9.47
269.351	9.31
269.565	9.54
269.78	9.09
269.994	9.18
270.209	9.16
270.423	9.31
270.637	9.65
270.852	8.6
271.066	8.11
271.281	7.63
271.495	7.04
271.709	7.17
271.924	6.58
272.138	6.56
272.353	6.43
272.567	6.01
272.781	5.64
272.996	5.3
273.21	5.87
273.424	5.8
273.638	6.02
273.853	6.02
274.067	5.89
274.281	6.23
274.495	6.43
274.71	6.37
274.924	6.65
275.138	7.37
275.352	7.8
275.566	8.06
275.781	8.44
275.995	8.24
276.209	8.89
276.423	9.5
276.637	9.98
276.851	10.24
277.065	10.08
277.279	10.02
277.493	10.18
277.707	10.35
277.921	10.27
278.135	10.33
278.349	10.5
278.563	9.55
278.777	9.32
278.991	9.11
279.205	8.63
279.419	9.22
279.633	9.39
279.847	8.97
280.061	8.79
280.275	8.36
280.489	8.28
280.703	8.25
280.917	8.51
281.131	8.81
281.344	8.46
281.558	9
281.772	8.45
281.986	8.28
282.2	8.04
282.414	8.11
282.627	8.16
282.841	8.18
283.055	8.09
283.269	7.91
283.482	7.43
283.696	7.22
283.91	6.88
284.123	6.46
284.337	6.37
284.551	6.57
284.764	6.45
284.978	6.19
285.192	5.88
285.405	5.8
285.619	5.77
285.833	5.91
286.046	5.99
286.26	6.13
286.473	6.75
286.687	7.04
286.9	6.9
287.114	6.9
287.327	7.29
287.541	7.49
287.754	7.67
287.968	8.03
288.181	8.23
288.395	8.18
288.608	7.94
288.822	8.07
289.035	7.95
289.248	8.05
289.462	8.3
289.675	8.28
289.889	8.35
290.102	8.41
290.315	8.4
290.529	8.13
290.742	8.28
290.955	8.56
291.169	8.31
291.382	8.25
291.595	8.45
291.808	8.16
292.022	8.38
292.235	8.51
292.448	8.48
292.661	8.25
292.875	8.39
293.088	8.41
293.301	8.14
293.514	8.15
293.727	8.25
293.94	8.17
294.153	8.29
294.367	8.3
294.58	8.19
294.793	8.16
295.006	8.23
295.219	8.13
295.432	8.3
295.645	8.16
295.858	8.14
296.071	8.17
296.284	8.28
296.497	8.14
296.71	7.94
296.923	8.1
297.136	8.26
297.349	8.23
297.562	8.44
297.775	8.49
297.988	9.01
298.201	9.36
298.414	9.42
298.626	9.46
298.839	9.91
299.052	10.24
299.265	10.34
299.478	10.37
299.691	10.67
299.903	10.77
300.116	10.66
300.329	10.78
300.542	10.83
300.755	11.25
300.967	11.32
301.18	11.13
301.393	10.8
301.605	10.87
301.818	11.31
302.031	11.66
302.243	11.54
302.456	11.93
302.669	11.64
302.881	11.29
303.094	10.78
303.307	10.95
303.519	10.97
303.732	11.3
303.944	11.3
304.157	10.72
304.37	10.3
304.582	10.5
304.795	10.36
305.007	10.74
305.22	11.08
305.432	11.13
305.645	11.13
305.857	11.28
306.069	11.48
306.282	11.5
306.494	12.07
306.707	12.32
306.919	12.29
307.132	12.22
307.344	11.75
307.556	12.03
307.769	12.46
307.981	12.41
308.193	12.1
308.406	11.96
308.618	12.09
308.83	11.85
309.043	11.76
309.255	11.5
309.467	11.94
309.679	12.28
309.892	12.19
310.104	11.84
310.316	11.69
310.528	11.83
310.74	11.67
310.953	11.52
311.165	11.69
311.377	11.72
311.589	11.93
311.801	11.79
312.013	11.55
312.225	11.38
312.437	11.31
312.649	11.61
312.862	11.52
313.074	11.52
313.286	11.69
313.498	11.72
313.71	11.71
313.922	11.97
314.134	12.03
314.346	12.45
314.558	12.71
314.77	13.23
314.982	13.23
315.193	13.49
315.405	13.89
315.617	13.98
315.829	13.67
316.041	13.92
316.253	13.86
316.465	13.87
316.677	13.74
316.888	13.67
317.1	13.43
317.312	13.19
317.524	13.32
317.736	13.4
317.947	13.34
318.159	13.89
318.371	13.78
318.583	13.49
318.794	13.1
319.006	13.04
319.218	12.96
319.43	12.9
319.641	12.85
319.853	12.21
320.064	11.91
320.276	11.84
320.488	11.62
320.699	11.6
320.911	12.06
321.123	12.59
321.334	12.22
321.546	12.32
321.757	12.21
321.969	12.52
322.18	12.56
322.392	12.28
322.603	12.57
322.815	12.4
323.026	12.57
323.238	12.12
323.449	11.84
323.661	11.9
323.872	12.11
324.083	12.17
324.295	12.04
324.506	12.56
324.718	12.59
324.929	12.16
325.14	11.87
325.352	11.98
325.563	11.86
325.774	11.81
325.986	11.74
326.197	11.36
326.408	11.59
326.62	11.38
326.831	11.35
327.042	11.33
327.253	11.78
327.464	12.3
327.676	12.02
327.887	12.4
328.098	12.52
328.309	12.76
328.52	12.94
328.732	12.99
328.943	13.38
329.154	13.36
329.365	13.6
329.576	13.53
329.787	13.3
329.998	13.63
330.209	13.46
330.42	13.71
330.631	13.76
330.842	13.6
331.053	13.87
331.264	13.45
331.475	13.27
331.686	13.12
331.897	13.55
332.108	13.23
332.319	13.2
332.53	13.02
332.741	12.52
332.952	12.66
333.163	12.77
333.374	12.57
333.585	12.92
333.795	13
334.006	13.29
334.217	12.73
334.428	13.32
334.639	13.35
334.849	13.49
335.06	14
335.271	13.91
335.482	13.79
335.692	13.26
335.903	13
336.114	12.83
336.325	12.57
336.535	12.46
336.746	12.21
336.957	11.79
337.167	11.98
337.378	11.94
337.589	11.75
337.799	11.89
338.01	12.39
338.22	12.36
338.431	12.66
338.642	12.71
338.852	13.01
339.063	13.25
339.273	13.52
339.484	13.42
339.694	13.28
339.905	13.22
340.115	12.97
340.326	13.04
340.536	13.11
340.746	12.92
340.957	12.92
341.167	12.66
341.378	11.9
341.588	11.6
341.799	11.44
342.009	11.03
342.219	11.15
342.43	11.25
342.64	10.95
342.85	11.09
343.061	10.95
343.271	10.67
343.481	10.68
343.691	11.11
343.902	11.32
344.112	11.45
344.322	11.54
344.532	11.4
344.743	11.68
344.953	11.73
345.163	11.62
345.373	11.55
345.583	11.73
345.793	11.7
346.004	11.63
346.214	11.5
346.424	11.36
346.634	11.51
346.844	11.65
347.054	11.53
347.264	11.45
347.474	11.32
347.684	11.25
347.894	11.35
348.104	11.56
348.314	11.55
348.524	11.78
348.734	12.21
348.944	11.97
349.154	11.91
349.364	11.55
349.574	11.43
349.784	11.44
349.994	11.84
350.204	11.65
350.413	11.25
350.623	11.64
350.833	11.25
351.043	10.87
351.253	11.29
351.463	11.37
351.672	11.32
351.882	11.58
352.092	11.58
352.302	11.25
352.511	11.21
352.721	11.51
352.931	11.13
353.141	11.36
353.35	11.27
353.56	10.86
353.77	10.4
353.979	10.51
354.189	10.15
354.399	10.21
354.608	10.38
354.818	10.54
355.027	10.22
355.237	10.12
355.447	10
355.656	9.9
355.866	10
356.075	10.37
356.285	10.37
356.494	10.47
356.704	10.34
356.913	10.09
357.123	10.09
357.332	10.38
357.542	10.4
357.751	10.25
357.96	10.25
358.17	10.28
358.379	10.28
358.589	10.25
358.798	10.34
359.007	10.42
359.217	10.49
359.426	10.37
359.635	10.27
359.845	10.12
360.054	10.36
360.263	10.43
360.472	10.42
360.682	10.19
360.891	10.05
361.1	9.91
361.309	9.84
361.519	9.62
361.728	9.7
361.937	9.48
362.146	9.57
362.355	9.32
362.564	9.32
362.774	9.21
362.983	9.31
363.192	9.35
363.401	9.39
363.61	9.38
363.819	9.76
364.028	9.49
364.237	9.6
364.446	9.5
364.655	9.49
364.864	9.38
365.073	9.27
365.282	9.05
365.491	9.27
365.7	9.18
365.909	9.33
366.118	9.12
366.327	9.42
366.536	9.69
366.745	9.68
366.954	9.83
367.162	9.66
367.371	9.85
367.58	9.95
367.789	9.68
367.998	9.34
368.207	9.26
368.415	9.38
368.624	9.1
368.833	8.76
369.042	9.09
369.25	9.24
369.459	9.45
369.668	9.31
369.877	9.35
370.085	9.53
370.294	9.77
370.503	9.59
370.711	9.34
370.92	9.43
371.129	9.41
371.337	8.78
371.546	8.55
371.754	8.48
371.963	8.45
372.171	8.37
372.38	8.36
372.589	8.34
372.797	8.35
373.006	8.32
373.214	8.34
373.423	8.24
373.631	8.55
373.84	8.65
374.048	8.52
374.256	8.36
374.465	8.27
374.673	7.98
374.882	8.09
375.09	8.12
375.298	8.19
375.507	8.06
375.715	8.06
375.923	8.07
376.132	7.83
376.34	7.8
376.548	7.87
376.757	7.85
376.965	7.97
377.173	7.96
377.381	7.68
377.59	7.68
377.798	7.68
378.006	7.62
378.214	7.56
378.423	7.79
378.631	7.81
378.839	7.75
379.047	7.7
379.255	7.68
379.463	7.54
379.671	7.85
379.879	7.82
380.088	7.82
380.296	7.83
380.504	7.92
380.712	8.01
380.92	8
381.128	7.85
381.336	7.95
381.544	7.92
381.752	7.88
381.96	7.75
382.168	7.76
382.376	7.5
382.584	7.69
382.791	7.46
382.999	7.07
383.207	7.26
383.415	7.24
383.623	7.21
383.831	7
384.039	7.05
384.247	6.86
384.454	7.03
384.662	7.29
384.87	7.06
385.078	7.27
385.285	7.24
385.493	7
385.701	7.01
385.909	7
386.116	7.09
386.324	7.06
386.532	7.23
386.739	6.97
386.947	6.88
387.155	6.84
387.362	6.52
387.57	6.54
387.778	6.78
387.985	6.76
388.193	6.58
388.4	6.67
388.608	6.77
388.816	6.74
389.023	6.76
389.231	6.73
389.438	6.53
389.646	6.57
389.853	6.7
390.061	6.17
390.268	6.28
390.475	6.4
390.683	6.29
390.89	5.95
391.098	5.67
391.305	5.6
391.512	5.51
391.72	5.62
391.927	5.64
392.135	5.43
392.342	5.71
392.549	5.7
392.756	5.48
392.964	5.44
393.171	5.55
393.378	5.76
393.586	5.64
393.793	5.69
394	5.66
394.207	5.64
394.414	5.62
394.622	5.66
394.829	5.52
395.036	5.66
395.243	5.66
395.45	5.62
395.657	5.54
395.864	5.63
396.072	5.57
396.279	5.56
396.486	5.53
396.693	5.65
396.9	5.62
397.107	5.8
397.314	5.82
397.521	5.8
397.728	5.79
397.935	5.77
398.142	5.65
398.349	5.61
398.556	5.61
398.763	5.65
398.97	5.66
399.177	5.54
399.383	5.61
399.59	5.3
399.797	5.26
400.004	5.28
400.211	5.18
400.418	5.41
400.625	5.28
400.831	5.44
401.038	5.35
401.245	5.27
401.452	5.39
401.658	5.06
401.865	5.47
402.072	5.64
402.279	5.64
402.485	5.6
402.692	5.48
402.899	5.58
403.105	5.26
403.312	5.29
403.519	5.51
403.725	5.21
403.932	5.33
404.138	5.12
404.345	4.82
404.552	4.78
404.758	4.87
404.965	4.85
405.171	4.72
405.378	5.02
405.584	5.03
405.791	4.71
405.997	4.96
406.204	4.93
406.41	4.94
406.617	5.05
406.823	5.03
407.029	4.9
407.236	4.88
407.442	5.14
407.649	5.01
407.855	4.94
408.061	4.99
408.268	4.99
408.474	5.23
408.68	5.16
408.887	5.17
409.093	5.02
409.299	5.21
409.505	5.16
409.712	5.11
409.918	5.09
410.124	5.19
410.33	5.18
410.537	5.06
410.743	4.78
410.949	4.79
411.155	4.77
411.361	4.97
411.567	5.08
411.773	5.22
411.98	5.15
412.186	5.1
412.392	5.02
412.598	4.9
412.804	4.93
413.01	5.02
413.216	5.03
413.422	5.07
413.628	4.98
413.834	4.8
414.04	4.81
414.246	4.73
414.452	4.61
414.658	4.66
414.864	4.83
415.07	4.78
415.275	4.84
415.481	4.88
415.687	4.84
415.893	4.9
416.099	4.81
416.305	4.71
416.511	4.66
416.716	4.72
416.922	4.51
417.128	4.41
417.334	4.46
417.539	4.3
417.745	4.24
417.951	4.25
418.157	4.2
418.362	4.2
418.568	4.29
418.774	4.3
418.979	4.31
419.185	4.37
419.391	4.39
419.596	4.22
419.802	4.32
420.008	4.35
420.213	4.89
420.419	4.84
420.624	4.76
420.83	4.56
421.035	4.55
421.241	4.61
421.446	4.57
421.652	4.53
421.857	4.58
422.063	4.53
422.268	4.49
422.474	3.96
422.679	3.92
422.885	4.05
423.09	4.08
423.295	4.1
423.501	3.98
423.706	4.01
423.911	3.95
424.117	3.94
424.322	3.92
424.527	3.95
424.733	3.96
424.938	3.97
425.143	3.92
425.349	4
425.554	3.97
425.759	4.01
425.964	3.96
426.169	4.07
426.375	4.09
426.58	3.99
426.785	3.99
426.99	3.89
427.195	3.93
427.4	3.93
427.605	3.9
427.811	3.98
428.016	3.9
428.221	3.86
428.426	3.77
428.631	3.81
428.836	3.92
429.041	3.9
429.246	3.99
429.451	3.87
429.656	3.91
429.861	3.97
430.066	3.98
430.271	4.01
430.476	4.15
430.681	4.21
430.886	4.22
431.09	4.25
431.295	4.35
431.5	4.34
431.705	4.39
431.91	4.33
432.115	4.22
432.32	4.18
432.524	4.21
432.729	4.25
432.934	4.18
433.139	4.18
433.343	4.08
433.548	4.01
433.753	4.03
433.958	4.08
434.162	4.13
434.367	4.1
434.572	4.1
434.776	4.02
434.981	4
435.186	4.01
435.39	4.09
435.595	4.27
435.799	4.15
436.004	4.14
436.209	4.17
436.413	4.11
436.618	4.05
436.822	4.04
437.027	4.09
437.231	4.08
437.436	4.17
437.64	4.13
437.845	4.03
438.049	4.17
438.253	4.17
438.458	4.13
438.662	4.14
438.867	4.19
439.071	4.2
439.275	4.24
439.48	4.16
439.684	4.04
439.888	3.97
440.093	4.01
440.297	3.92
440.501	3.89
440.706	3.89
440.91	3.93
441.114	3.95
441.318	3.96
441.523	3.98
441.727	4.01
441.931	4.09
442.135	4
442.339	3.91
442.543	3.9
442.748	4.01
442.952	4.04
443.156	3.96
443.36	4.05
443.564	4
443.768	3.92
443.972	3.98
444.176	4.02
444.38	4.11
444.584	4.08
444.788	4.06
444.992	3.98
445.196	3.95
445.4	3.91
445.604	3.81
445.808	3.75
446.012	3.72
446.216	3.65
446.42	3.61
446.624	3.53
446.828	3.6
447.032	3.59
447.235	3.61
447.439	3.62
447.643	3.63
447.847	3.68
448.051	3.69
448.254	3.74
448.458	3.73
448.662	3.73
448.866	3.78
449.069	3.73
449.273	3.76
449.477	3.7
449.681	3.65
449.884	3.67
450.088	3.69
450.292	3.73
450.495	3.72
450.699	3.73
450.902	3.79
451.106	3.83
451.31	3.87
451.513	3.93
451.717	3.98
451.92	3.93
452.124	3.92
452.327	3.94
452.531	3.94
452.734	3.89
452.938	3.91
453.141	3.96
453.345	3.97
453.548	3.9
453.752	3.79
453.955	3.77
454.158	3.74
454.362	3.8
454.565	3.78
454.769	3.89
454.972	4.06
455.175	4.1
455.379	4.06
455.582	4.07
455.785	4.14
455.988	4.22
456.192	4.31
456.395	4.38
456.598	4.36
456.801	4.26
457.005	4.07
457.208	3.97
457.411	3.94
457.614	3.85
457.817	3.82
458.021	3.77
458.224	3.76
458.427	3.68
458.63	3.75
458.833	3.7
459.036	3.72
459.239	3.77
459.442	3.71
459.645	3.62
459.848	3.65
460.051	3.55
460.254	3.57
460.457	3.54
460.66	3.55
460.863	3.5
461.066	3.51
461.269	3.49
461.472	3.43
461.675	3.58
461.878	3.74
462.081	3.74
462.284	3.86
462.486	3.91
462.689	3.87
462.892	3.93
463.095	3.99
463.298	4.11
463.5	4.09
