Data from 2938784__Reflection_03.txt Node
Date: Fri Mar 13 12:12:55 EDT 2015
User: robert
Spectrometer: USB4E03002
Autoset integration time: false
Trigger mode: 4
Integration Time (sec): 1.000000E-1
Scans to average: 10
Electric dark correction enabled: false
Nonlinearity correction enabled: false
Boxcar width: 5
Stray light correction enabled: false
XAxis mode: Wavelengths
Stop averaging: false
Number of Pixels in Spectrum: 3648
>>>>>Begin Spectral Data<<<<<
177.575	82.25
177.794	89.77
178.014	89.23
178.233	89.18
178.452	97.61
178.672	88.32
178.891	84.82
179.11	83.54
179.33	88.23
179.549	92.15
179.768	99.87
179.987	104.04
180.207	100.86
180.426	95.84
180.645	98.36
180.864	93.93
181.084	93.86
181.303	95.6
181.522	96.73
181.741	93.37
181.96	95.25
182.179	92.79
182.398	89.79
182.618	90.85
182.837	92
183.056	87.34
183.275	85.09
183.494	86.77
183.713	86.04
183.932	86.83
184.151	86.52
184.37	83.54
184.589	83.22
184.808	80.32
185.027	77.31
185.246	83.24
185.465	86.15
185.684	87.97
185.903	88.76
186.122	88.49
186.341	83.54
186.56	77.52
186.779	73.7
186.998	72.45
187.216	77.02
187.435	79.45
187.654	75.83
187.873	72.59
188.092	74.28
188.311	73.86
188.53	71.79
188.748	75.15
188.967	78.56
189.186	85.21
189.405	89.22
189.623	89.92
189.842	86.78
190.061	88.93
190.28	93.52
190.498	93.17
190.717	96.5
190.936	97.72
191.154	97.55
191.373	97.99
191.592	93.57
191.81	90.91
192.029	86.48
192.248	88.71
192.466	84.82
192.685	78.58
192.904	78.23
193.122	75.56
193.341	77.59
193.559	77.07
193.778	72.01
193.996	74.78
194.215	73.48
194.433	75.36
194.652	78.31
194.87	79.76
195.089	83.24
195.307	81.56
195.526	83.95
195.744	84.74
195.963	83.95
196.181	87.73
196.399	84.18
196.618	85.73
196.836	78.9
197.055	72.84
197.273	74.34
197.491	71.42
197.71	74.86
197.928	74.31
198.146	68
198.365	65.61
198.583	64.83
198.801	68.51
199.019	70.93
199.238	78.78
199.456	86.07
199.674	81.11
199.892	81.98
200.111	77.49
200.329	81.49
200.547	85.28
200.765	85.9
200.983	89.05
201.202	88.78
201.42	90.65
201.638	92.19
201.856	86.42
202.074	90.61
202.292	87.3
202.51	88.41
202.728	83.96
202.946	81.67
203.165	83.46
203.383	80.8
203.601	79.62
203.819	77.29
204.037	73.75
204.255	71.37
204.473	72.71
204.691	78.66
204.909	79.18
205.127	79.14
205.345	79.68
205.562	79.41
205.78	80.61
205.998	82.22
206.216	80.14
206.434	84.55
206.652	88.99
206.87	87.57
207.088	83.54
207.306	79.21
207.523	76.89
207.741	77.75
207.959	79.04
208.177	77.1
208.395	77.47
208.612	79.32
208.83	75.64
209.048	74.65
209.266	74.66
209.483	80.92
209.701	84.97
209.919	86.23
210.136	86.8
210.354	87.06
210.572	89.83
210.79	88.06
211.007	89.04
211.225	93.7
211.442	92.16
211.66	90.61
211.878	91.92
212.095	74.46
212.313	76.09
212.53	75.1
212.748	70.86
212.966	69.76
213.183	68.89
213.401	68.41
213.618	65.85
213.836	69.4
214.053	69.03
214.271	63.71
214.488	78.08
214.705	77.02
214.923	75.15
215.14	71.84
215.358	69.16
215.575	68.3
215.793	68.92
216.01	70.16
216.227	65.74
216.445	61.79
216.662	61.83
216.879	63.85
217.097	63.2
217.314	62.43
217.531	66.08
217.749	66.51
217.966	69.41
218.183	67.46
218.4	63.99
218.618	66.95
218.835	69.18
219.052	66.72
219.269	61.78
219.487	62.82
219.704	66.09
219.921	65.42
220.138	65.78
220.355	61.26
220.572	59.25
220.79	61.07
221.007	58.51
221.224	56.25
221.441	59.49
221.658	60.13
221.875	59.67
222.092	58.03
222.309	57.15
222.526	53.48
222.743	54.65
222.96	54.53
223.177	53.95
223.394	50.64
223.611	52.14
223.828	49.85
224.045	49.16
224.262	46.05
224.479	44.38
224.696	45.99
224.913	46.44
225.13	44.45
225.347	43.82
225.564	42.86
225.781	44.78
225.997	42.78
226.214	38.21
226.431	34.74
226.648	33.08
226.865	30.77
227.082	28.12
227.298	25.52
227.515	23.16
227.732	20.66
227.949	18.56
228.165	16.61
228.382	15.66
228.599	16.93
228.816	17.02
229.032	16.19
229.249	16
229.466	15.17
229.682	15.63
229.899	16.27
230.116	16.65
230.332	17.57
230.549	18.01
230.765	19.23
230.982	18.88
231.199	19.45
231.415	21.33
231.632	22.8
231.848	24.53
232.065	24.7
232.281	25.08
232.498	24.98
232.714	24.71
232.931	25.3
233.147	25.91
233.364	26.17
233.58	25.74
233.797	25.59
234.013	24.89
234.23	23.91
234.446	23.79
234.662	23.37
234.879	23.63
235.095	23.8
235.312	24.22
235.528	23.94
235.744	23.16
235.961	23.1
236.177	22.91
236.393	23.45
236.61	24.33
236.826	23.75
237.042	23.73
237.258	24.18
237.475	23.98
237.691	23.14
237.907	23.94
238.123	24.42
238.339	25.29
238.556	24.9
238.772	24.05
238.988	23
239.204	23.27
239.42	22.9
239.636	22.96
239.853	21.71
240.069	21.2
240.285	19.32
240.501	17.86
240.717	16.45
240.933	14.97
241.149	13.91
241.365	13.49
241.581	13.01
241.797	12.56
242.013	11.49
242.229	11.7
242.445	11.63
242.661	11.66
242.877	11.85
243.093	11.81
243.309	12.12
243.525	12.51
243.741	12.65
243.957	12.67
244.173	13.45
244.388	14.38
244.604	14.31
244.82	14.4
245.036	13.76
245.252	12.9
245.468	12.83
245.683	12.46
245.899	11.66
246.115	10.92
246.331	10.37
246.547	9.83
246.762	9.03
246.978	8.67
247.194	8.27
247.409	8.02
247.625	8.12
247.841	7.86
248.057	7.56
248.272	7.82
248.488	7.88
248.703	7.92
248.919	7.99
249.135	8.65
249.35	9.32
249.566	9.98
249.782	10.7
249.997	11.13
250.213	11.07
250.428	12.17
250.644	12.41
250.859	12.82
251.075	13.37
251.29	13.75
251.506	13.08
251.721	12.79
251.937	12.2
252.152	12.12
252.368	12.35
252.583	12.87
252.798	12.45
253.014	12.64
253.229	13.18
253.445	13.41
253.66	13.2
253.875	14.44
254.091	15.35
254.306	16
254.521	16.99
254.737	17.78
254.952	17.03
255.167	17.57
255.383	17.6
255.598	16.55
255.813	15.82
256.028	15.46
256.244	13.73
256.459	13.38
256.674	13.04
256.889	11.79
257.104	11.02
257.32	10.97
257.535	9.91
257.75	9.01
257.965	9.07
258.18	8.92
258.395	8.28
258.61	8.09
258.826	7.17
259.041	7.1
259.256	6.65
259.471	6.39
259.686	6.44
259.901	6.59
260.116	6.43
260.331	6.2
260.546	6.35
260.761	6.49
260.976	6.5
261.191	6.55
261.406	6.35
261.621	7.06
261.836	7.07
262.05	7.33
262.265	7.65
262.48	8.3
262.695	9.18
262.91	9.43
263.125	9.97
263.34	10.59
263.555	11.46
263.769	12.21
263.984	11.59
264.199	11.93
264.414	11.55
264.629	11.31
264.843	11.46
265.058	10.91
265.273	10.24
265.488	9.88
265.702	9.2
265.917	8.73
266.132	8.46
266.346	8.71
266.561	8.93
266.776	9.13
266.99	9.19
267.205	8.74
267.42	8.67
267.634	8.58
267.849	8.65
268.063	9.19
268.278	9.1
268.492	8.93
268.707	9.15
268.922	8.67
269.136	8.81
269.351	8.27
269.565	8.1
269.78	7.68
269.994	7.13
270.209	6.81
270.423	6.25
270.637	6.04
270.852	6.16
271.066	5.92
271.281	6.03
271.495	5.71
271.709	5.88
271.924	5.94
272.138	6.15
272.353	6.48
272.567	6.64
272.781	7.26
272.996	7.27
273.21	7.39
273.424	7.24
273.638	6.81
273.853	6.84
274.067	7.01
274.281	7.2
274.495	7.39
274.71	7.77
274.924	7.94
275.138	7.64
275.352	7.87
275.566	7.97
275.781	7.93
275.995	8.77
276.209	8.83
276.423	8.93
276.637	8.85
276.851	9.31
277.065	8.99
277.279	8.78
277.493	8.57
277.707	8.73
277.921	8.69
278.135	8.85
278.349	7.91
278.563	8.15
278.777	8.07
278.991	7.87
279.205	7.43
279.419	7.88
279.633	7.51
279.847	7.88
280.061	8.04
280.275	7.28
280.489	7.54
280.703	8.1
280.917	7.98
281.131	7.68
281.344	7.56
281.558	7.14
281.772	7.36
281.986	7.71
282.2	7.36
282.414	7.1
282.627	7.44
282.841	7.41
283.055	7.38
283.269	7.27
283.482	7.01
283.696	7
283.91	7.17
284.123	6.12
284.337	6
284.551	5.86
284.764	5.8
284.978	5.31
285.192	5.04
285.405	4.97
285.619	4.84
285.833	5.37
286.046	5.46
286.26	5.49
286.473	6.07
286.687	5.81
286.9	5.93
287.114	5.83
287.327	6.25
287.541	6.39
287.754	6.38
287.968	6.71
288.181	6.39
288.395	6.54
288.608	6.78
288.822	6.43
289.035	6.27
289.248	6.14
289.462	6.17
289.675	6.18
289.889	5.98
290.102	5.78
290.315	5.42
290.529	5.56
290.742	5.62
290.955	5.18
291.169	5.34
291.382	5.83
291.595	5.83
291.808	5.95
292.022	5.91
292.235	6.09
292.448	6.26
292.661	6.56
292.875	6.43
293.088	6.45
293.301	6.53
293.514	6.51
293.727	6.46
293.94	6.54
294.153	6.52
294.367	6.34
294.58	5.96
294.793	6.16
295.006	5.8
295.219	5.66
295.432	5.52
295.645	5.46
295.858	5.3
296.071	5.11
296.284	4.98
296.497	4.65
296.71	4.69
296.923	4.94
297.136	4.98
297.349	4.99
297.562	5.14
297.775	5.08
297.988	5.15
298.201	5.55
298.414	5.54
298.626	5.67
298.839	5.64
299.052	5.73
299.265	6.11
299.478	5.94
299.691	6.4
299.903	6.57
300.116	6.73
300.329	6.73
300.542	6.41
300.755	6.48
300.967	6.59
301.18	7.17
301.393	7.32
301.605	6.97
301.818	6.8
302.031	6.65
302.243	6.37
302.456	6.3
302.669	6.43
302.881	6.24
303.094	6.52
303.307	6.67
303.519	6.79
303.732	6.78
303.944	6.66
304.157	6.9
304.37	6.56
304.582	6.7
304.795	6.91
305.007	7.09
305.22	7.53
305.432	7.47
305.645	7.25
305.857	7.08
306.069	7.09
306.282	7.07
306.494	7.25
306.707	7.63
306.919	7.56
307.132	7.37
307.344	7.17
307.556	7.16
307.769	7.06
307.981	7.03
308.193	7.16
308.406	6.93
308.618	6.97
308.83	6.92
309.043	6.66
309.255	6.55
309.467	6.69
309.679	6.64
309.892	6.7
310.104	6.72
310.316	6.86
310.528	6.58
310.74	6.74
310.953	6.72
311.165	6.49
311.377	6.63
311.589	7
311.801	6.61
312.013	6.55
312.225	6.45
312.437	6.44
312.649	6.34
312.862	6.35
313.074	6.34
313.286	6.49
313.498	6.99
313.71	7.11
313.922	6.84
314.134	7.15
314.346	7.24
314.558	7.27
314.77	7.64
314.982	7.86
315.193	8.23
315.405	8.38
315.617	8.48
315.829	8.31
316.041	8.8
316.253	8.75
316.465	9.03
316.677	9.21
316.888	9.39
317.1	9.54
317.312	9.37
317.524	9.61
317.736	9.64
317.947	10.18
318.159	9.95
318.371	9.7
318.583	10.01
318.794	10.35
319.006	10.5
319.218	10.42
319.43	10.13
319.641	10.01
319.853	9.49
320.064	9.75
320.276	9.48
320.488	9.95
320.699	9.75
320.911	9.99
321.123	9.72
321.334	9.26
321.546	9.29
321.757	9.69
321.969	9.91
322.18	10.22
322.392	9.9
322.603	9.91
322.815	9.52
323.026	9.77
323.238	9.78
323.449	9.67
323.661	9.86
323.872	9.77
324.083	9.42
324.295	9.55
324.506	9.36
324.718	9.02
324.929	9.23
325.14	9.4
325.352	9.27
325.563	9.41
325.774	9.38
325.986	9.59
326.197	9.6
326.408	9.82
326.62	9.8
326.831	10
327.042	10.62
327.253	10.61
327.464	10.81
327.676	10.76
327.887	10.56
328.098	10.81
328.309	10.94
328.52	11.12
328.732	10.9
328.943	11.34
329.154	11.65
329.365	11.48
329.576	11.48
329.787	11.49
329.998	11.99
330.209	12.01
330.42	11.94
330.631	11.88
330.842	11.91
331.053	12.39
331.264	11.77
331.475	11.94
331.686	11.94
331.897	11.85
332.108	11.73
332.319	11.56
332.53	11.61
332.741	11.44
332.952	11.51
333.163	11.48
333.374	11.44
333.585	11.9
333.795	11.58
334.006	11.7
334.217	11.67
334.428	11.65
334.639	11.94
334.849	11.76
335.06	11.95
335.271	12.02
335.482	12.48
335.692	12.46
335.903	12.69
336.114	12.35
336.325	12.45
336.535	12.39
336.746	12.4
336.957	12.54
337.167	12.64
337.378	13
337.589	12.86
337.799	12.19
338.01	12.33
338.22	12.01
338.431	12.49
338.642	12.46
338.852	12.48
339.063	12.68
339.273	12.33
339.484	12.4
339.694	11.94
339.905	12.25
340.115	12.55
340.326	12.24
340.536	12.34
340.746	12.12
340.957	12.13
341.167	12.14
341.378	12.1
341.588	12.02
341.799	12.05
342.009	11.93
342.219	11.54
342.43	11.59
342.64	11.91
342.85	11.71
343.061	11.56
343.271	11.61
343.481	11.59
343.691	11.29
343.902	11.4
344.112	11.53
344.322	11.48
344.532	11.65
344.743	11.41
344.953	11.04
345.163	10.91
345.373	10.79
345.583	10.64
345.793	10.58
346.004	10.73
346.214	10.65
346.424	10.61
346.634	11.03
346.844	11.03
347.054	11.39
347.264	11.47
347.474	11.67
347.684	11.7
347.894	11.76
348.104	11.81
348.314	11.7
348.524	11.55
348.734	11.59
348.944	11.51
349.154	11.24
349.364	10.93
349.574	10.88
349.784	10.82
349.994	11.11
350.204	11.14
350.413	11.1
350.623	10.86
350.833	10.77
351.043	10.44
351.253	10.43
351.463	10.52
351.672	10.49
351.882	10.42
352.092	10.37
352.302	10.4
352.511	10.38
352.721	10.5
352.931	10.53
353.141	10.71
353.35	10.45
353.56	10.03
353.77	10.22
353.979	10.3
354.189	10.35
354.399	10.25
354.608	10.27
354.818	10.03
355.027	9.88
355.237	10.05
355.447	10.07
355.656	10.24
355.866	10.54
356.075	10.44
356.285	10.36
356.494	10.26
356.704	10.35
356.913	10.23
357.123	10.38
357.332	10.45
357.542	10.48
357.751	10.27
357.96	10.46
358.17	10.3
358.379	10.16
358.589	10.12
358.798	10.22
359.007	10.22
359.217	10.27
359.426	9.97
359.635	9.77
359.845	9.57
360.054	9.43
360.263	9.17
360.472	9.06
360.682	8.92
360.891	8.76
361.1	8.56
361.309	8.25
361.519	8.27
361.728	8.33
361.937	8.42
362.146	8.63
362.355	8.69
362.564	8.89
362.774	9.06
362.983	9.04
363.192	9.22
363.401	9.12
363.61	9.46
363.819	9.6
364.028	9.81
364.237	9.92
364.446	9.71
364.655	9.66
364.864	9.3
365.073	9.32
365.282	9.48
365.491	9.45
365.7	9.64
365.909	9.35
366.118	9.22
366.327	9.16
366.536	9.08
366.745	9.29
366.954	9.6
367.162	9.74
367.371	9.69
367.58	9.9
367.789	9.7
367.998	9.79
368.207	9.96
368.415	9.84
368.624	9.76
368.833	9.58
369.042	9.5
369.25	9.36
369.459	9.55
369.668	9.5
369.877	9.36
370.085	9.42
370.294	9.38
370.503	9.38
370.711	9.22
370.92	9.2
371.129	9.37
371.337	9.13
371.546	9.06
371.754	9.04
371.963	8.68
372.171	8.66
372.38	9.04
372.589	9.05
372.797	9.06
373.006	9.17
373.214	9.15
373.423	8.93
373.631	8.85
373.84	8.76
374.048	8.77
374.256	9.05
374.465	8.98
374.673	8.78
374.882	8.98
375.09	9.15
375.298	9.09
375.507	9.21
375.715	9.24
375.923	9.46
376.132	9.36
376.34	9.13
376.548	8.96
376.757	8.83
376.965	8.83
377.173	8.51
377.381	8.28
377.59	8.4
377.798	8.26
378.006	8.24
378.214	8.09
378.423	8.24
378.631	8.1
378.839	8.28
379.047	8.29
379.255	8.16
379.463	8.39
379.671	8.33
379.879	8.25
380.088	8.2
380.296	8.19
380.504	8.33
380.712	8.21
380.92	8.34
381.128	8.43
381.336	8.34
381.544	8.28
381.752	8.18
381.96	8.17
382.168	8.09
382.376	8.07
382.584	8.17
382.791	8.16
382.999	8.06
383.207	7.99
383.415	7.91
383.623	7.96
383.831	7.78
384.039	7.59
384.247	7.66
384.454	7.7
384.662	7.79
384.87	7.62
385.078	7.47
385.285	7.56
385.493	7.61
385.701	7.5
385.909	7.56
386.116	7.75
386.324	7.8
386.532	7.75
386.739	7.55
386.947	7.54
387.155	7.78
387.362	7.78
387.57	7.62
387.778	7.35
387.985	7.53
388.193	7.44
388.4	7.45
388.608	7.53
388.816	7.51
389.023	7.58
389.231	7.44
389.438	7.17
389.646	7.27
389.853	7.43
390.061	7.62
390.268	7.51
390.475	7.35
390.683	7.26
390.89	7.05
391.098	7.03
391.305	7.12
391.512	7.07
391.72	7.18
391.927	7.09
392.135	7.08
392.342	7.21
392.549	7.19
392.756	7.28
392.964	7.21
393.171	7.34
393.378	7.32
393.586	7.21
393.793	7.21
394	7.13
394.207	7.22
394.414	7.15
394.622	7.04
394.829	6.96
395.036	7.06
395.243	7.17
395.45	7.1
395.657	7.08
395.864	7.06
396.072	7.01
396.279	7.16
396.486	6.98
396.693	7.02
396.9	7.02
397.107	7.08
397.314	7.18
397.521	7.06
397.728	7.08
397.935	7
398.142	7.06
398.349	7.28
398.556	7.11
398.763	7.15
398.97	7.09
399.177	7.03
399.383	7.01
399.59	7.04
399.797	7.13
400.004	7.09
400.211	7.27
400.418	7.26
400.625	7.23
400.831	7.2
401.038	7.31
401.245	7.27
401.452	7.34
401.658	7.33
401.865	7.2
402.072	7.23
402.279	7.31
402.485	7.34
402.692	7.26
402.899	7.24
403.105	7.25
403.312	7.26
403.519	7.11
403.725	7.07
403.932	6.88
404.138	6.78
404.345	6.69
404.552	6.55
404.758	6.47
404.965	6.32
405.171	6.2
405.378	6.17
405.584	6.16
405.791	6.37
405.997	6.36
406.204	6.53
406.41	6.46
406.617	6.56
406.823	6.54
407.029	6.5
407.236	6.59
407.442	6.63
407.649	6.77
407.855	6.69
408.061	6.75
408.268	6.84
408.474	6.89
408.68	6.82
408.887	6.75
409.093	6.85
409.299	6.81
409.505	6.95
409.712	6.92
409.918	6.78
410.124	6.79
410.33	6.72
410.537	6.48
410.743	6.4
410.949	6.59
411.155	6.66
411.361	6.47
411.567	6.59
411.773	6.55
411.98	6.54
412.186	6.51
412.392	6.55
412.598	6.59
412.804	6.74
413.01	6.81
413.216	6.84
413.422	6.78
413.628	7.02
413.834	6.88
414.04	6.83
414.246	6.91
414.452	6.81
414.658	6.62
414.864	6.39
415.07	6.4
415.275	6.28
415.481	6.15
415.687	5.95
415.893	5.88
416.099	5.93
416.305	5.88
416.511	5.85
416.716	5.81
416.922	5.82
417.128	5.81
417.334	5.72
417.539	5.67
417.745	5.47
417.951	5.44
418.157	5.41
418.362	5.26
418.568	5.14
418.774	4.93
418.979	4.97
419.185	4.9
419.391	4.91
419.596	4.77
419.802	4.7
420.008	4.75
420.213	5.4
420.419	5.3
420.624	5.24
420.83	5.31
421.035	5.34
421.241	5.25
421.446	5.21
421.652	5.12
421.857	5.14
422.063	5.15
422.268	5.15
422.474	4.53
422.679	4.52
422.885	4.54
423.09	4.48
423.295	4.46
423.501	4.45
423.706	4.51
423.911	4.52
424.117	4.57
424.322	4.48
424.527	4.46
424.733	4.42
424.938	4.44
425.143	4.47
425.349	4.51
425.554	4.5
425.759	4.57
425.964	4.57
426.169	4.62
426.375	4.6
426.58	4.75
426.785	4.81
426.99	4.92
427.195	5.02
427.4	5.05
427.605	4.99
427.811	5.06
428.016	5.01
428.221	5.06
428.426	5.06
428.631	5.11
428.836	5.09
429.041	5.14
429.246	5.12
429.451	5.04
429.656	5.05
429.861	5.15
430.066	4.98
430.271	4.99
430.476	4.88
430.681	4.94
430.886	5.02
431.09	5.01
431.295	4.9
431.5	5.05
431.705	5.05
431.91	5.11
432.115	4.96
432.32	5.18
432.524	5.12
432.729	5.21
432.934	5.15
433.139	5.01
433.343	5.05
433.548	5.08
433.753	5.09
433.958	5.11
434.162	5.1
434.367	5.23
434.572	5.26
434.776	5.36
434.981	5.29
435.186	5.32
435.39	5.42
435.595	5.31
435.799	5.29
436.004	5.15
436.209	5.14
436.413	5.13
436.618	5.09
436.822	4.93
437.027	4.91
437.231	4.91
437.436	5.03
437.64	5.03
437.845	5.11
438.049	5.18
438.253	5.12
438.458	5.13
438.662	4.98
438.867	4.95
439.071	4.97
439.275	4.92
439.48	4.88
439.684	4.7
439.888	4.72
440.093	4.62
440.297	4.5
440.501	4.52
440.706	4.54
440.91	4.56
441.114	4.53
441.318	4.55
441.523	4.57
441.727	4.58
441.931	4.68
442.135	4.69
442.339	4.74
442.543	4.96
442.748	4.93
442.952	4.93
443.156	5.02
443.36	5.04
443.564	5.05
443.768	5.08
443.972	5.02
444.176	4.94
444.38	4.88
444.584	4.87
444.788	4.63
444.992	4.67
445.196	4.63
445.4	4.58
445.604	4.61
445.808	4.58
446.012	4.56
446.216	4.61
446.42	4.63
446.624	4.6
446.828	4.52
447.032	4.5
447.235	4.54
447.439	4.48
447.643	4.56
447.847	4.54
448.051	4.6
448.254	4.58
448.458	4.66
448.662	4.69
448.866	4.67
449.069	4.87
449.273	5.05
449.477	4.99
449.681	5.07
449.884	5.09
450.088	5.21
450.292	5.14
450.495	5.15
450.699	5.04
450.902	4.95
451.106	5.05
451.31	4.95
451.513	4.91
451.717	4.91
451.92	4.77
452.124	4.78
452.327	4.64
452.531	4.59
452.734	4.59
452.938	4.68
453.141	4.83
453.345	4.88
453.548	4.79
453.752	4.84
453.955	4.97
454.158	5.03
454.362	4.98
454.565	5.06
454.769	5.09
454.972	5.19
455.175	5.12
455.379	5.05
455.582	5.02
455.785	5.08
455.988	5.04
456.192	5.02
456.395	5.06
456.598	5.11
456.801	5.09
457.005	5.03
457.208	5.01
457.411	5.04
457.614	4.98
457.817	4.88
458.021	4.81
458.224	4.78
458.427	4.55
458.63	4.53
458.833	4.41
459.036	4.38
459.239	4.38
459.442	4.27
459.645	4.2
459.848	4.24
460.051	4.29
460.254	4.37
460.457	4.37
460.66	4.45
460.863	4.45
461.066	4.55
461.269	4.53
461.472	4.61
461.675	4.61
461.878	4.7
462.081	4.74
462.284	4.8
462.486	4.75
462.689	4.77
462.892	4.86
463.095	4.82
463.298	4.77
463.5	4.89
463.703	4.87
463.906	5.01
464.109	4.99
464.311	4.94
464.514	4.83
464.717	4.9
464.92	4.94
465.122	4.98
465.325	5.11
465.528	5.11
465.73	5.13
465.933	5.1
466.135	5.04
466.338	5.02
466.541	4.99
466.743	5.03
466.946	4.94
467.148	4.89
467.351	4.91
467.553	4.98
467.756	5
467.958	4.89
468.161	5.08
468.363	5.13
