Data from 2938754__Reflection_01.txt Node
Date: Sat Mar 14 14:21:44 EDT 2015
User: robert
Spectrometer: USB4E03002
Autoset integration time: false
Trigger mode: 4
Integration Time (sec): 1.000000E-1
Scans to average: 10
Electric dark correction enabled: false
Nonlinearity correction enabled: false
Boxcar width: 5
Stray light correction enabled: false
XAxis mode: Wavelengths
Stop averaging: false
Number of Pixels in Spectrum: 3648
>>>>>Begin Spectral Data<<<<<
177.575	137.26
177.794	189.6
178.014	157.46
178.233	190.94
178.452	238.83
178.672	249.65
178.891	518.13
179.11	656.56
179.33	1100
179.549	311.24
179.768	325.33
179.987	243.51
180.207	389.56
180.426	3073.08
180.645	1522.45
180.864	1280
181.084	468.45
181.303	300
181.522	811.54
181.741	982.54
181.96	-381.56
182.179	-341.88
182.398	-198.65
182.618	-209.15
182.837	580.95
183.056	252.88
183.275	475.47
183.494	820
183.713	214.75
183.932	113.79
184.151	159.8
184.37	76.69
184.589	69.53
184.808	81.2
185.027	60.36
185.246	45.56
185.465	6.51
185.684	37.88
185.903	26.51
186.122	130
186.341	-133.33
186.56	-6.61
186.779	-73.79
186.998	-47.24
187.216	-1843.75
187.435	-289.69
187.654	-1512.5
187.873	484.62
188.092	-125.12
188.311	351.3
188.53	190.54
188.748	313.92
188.967	300
189.186	268.93
189.405	188.76
189.623	158.87
189.842	181.29
190.061	1830.43
190.28	-3323.53
190.498	285.07
190.717	729.21
190.936	-20466.67
191.154	281.72
191.373	236.13
191.592	265.98
191.81	257.07
192.029	210.08
192.248	164.8
192.466	149.9
192.685	113.55
192.904	78.44
193.122	72.94
193.341	74.72
193.559	75.66
193.778	64.95
193.996	60.09
194.215	56.47
194.433	72.11
194.652	96.13
194.87	130.2
195.089	127.64
195.307	148.11
195.526	134.42
195.744	121.02
195.963	97.67
196.181	96.05
196.399	87.88
196.618	118.49
196.836	93.73
197.055	84.28
197.273	94.44
197.491	117.01
197.71	106.49
197.928	126.27
198.146	121.35
198.365	186.54
198.583	268.69
198.801	387.68
199.019	209.88
199.238	1500
199.456	485.26
199.674	488.73
199.892	200
200.111	478.45
200.329	-396.58
200.547	-806.45
200.765	-157.39
200.983	-421.51
201.202	-360.38
201.42	-500.93
201.638	-7975
201.856	2610.71
202.074	434.43
202.292	580.17
202.51	654.84
202.728	415.27
202.946	221.83
203.165	224.89
203.383	231.2
203.601	199.74
203.819	163.01
204.037	155.04
204.255	171.27
204.473	136.61
204.691	132.42
204.909	182.77
205.127	177.16
205.345	281.68
205.562	169.23
205.78	144.99
205.998	229.55
206.216	268.91
206.434	361.54
206.652	389.04
206.87	1660
207.088	351.96
207.306	105.44
207.523	109.86
207.741	136.48
207.959	116.25
208.177	178.48
208.395	166.55
208.612	170.35
208.83	167.44
209.048	151.64
209.266	181.1
209.483	149.74
209.701	140.51
209.919	173.56
210.136	120.04
210.354	113.88
210.572	90.26
210.79	57.05
211.007	56.76
211.225	61.89
211.442	60.34
211.66	31.72
211.878	41.43
212.095	132.84
212.313	95.59
212.53	162.41
212.748	204.98
212.966	329.94
213.183	436.42
213.401	797.89
213.618	247.71
213.836	171.81
214.053	205.23
214.271	215.38
214.488	44.23
214.705	73.3
214.923	59.28
215.14	61.47
215.358	61.03
215.575	55.59
215.793	48.24
216.01	48.64
216.227	61.04
216.445	44.67
216.662	38.36
216.879	54.72
217.097	49.86
217.314	43.44
217.531	48.54
217.749	50.13
217.966	54.56
218.183	47.27
218.4	57.64
218.618	50.84
218.835	46.95
219.052	52.83
219.269	41.11
219.487	56.49
219.704	47.57
219.921	58.13
220.138	60.27
220.355	45.2
220.572	37.75
220.79	25.48
221.007	14.38
221.224	23.96
221.441	27.05
221.658	20.7
221.875	2.39
222.092	7.13
222.309	-3.92
222.526	-11.81
222.743	2.47
222.96	14.42
223.177	21.45
223.394	25.64
223.611	23.94
223.828	21.36
224.045	27.78
224.262	32.45
224.479	28.05
224.696	25.51
224.913	23.66
225.13	23.61
225.347	21.08
225.564	19.01
225.781	20.09
225.997	17.99
226.214	18.87
226.431	13.12
226.648	11.41
226.865	11.6
227.082	14.17
227.298	10.17
227.515	9.22
227.732	7
227.949	7.72
228.165	6.41
228.382	7.47
228.599	6.58
228.816	6.15
229.032	5.62
229.249	4.05
229.466	3
229.682	3.7
229.899	3.18
230.116	3.78
230.332	3.25
230.549	4.25
230.765	0.99
230.982	0.17
231.199	1.72
231.415	3.18
231.632	6.04
231.848	5.68
232.065	5.77
232.281	6.54
232.498	6.56
232.714	7.39
232.931	5.55
233.147	8.19
233.364	8.98
233.58	6.41
233.797	5.31
234.013	3.54
234.23	3.31
234.446	4.82
234.662	4.88
234.879	3.17
235.095	3.02
235.312	5.09
235.528	5.31
235.744	4.41
235.961	6.17
236.177	5.92
236.393	7.32
236.61	6.84
236.826	5.53
237.042	4.53
237.258	8.1
237.475	9.01
237.691	7.79
237.907	6.04
238.123	6.3
238.339	4.33
238.556	2.74
238.772	1.73
238.988	2.62
239.204	2.86
239.42	2.89
239.636	1.25
239.853	0.24
240.069	-0.14
240.285	0.47
240.501	0.75
240.717	1.18
240.933	1.36
241.149	2.1
241.365	2.35
241.581	2.66
241.797	2.68
242.013	2.34
242.229	1.64
242.445	2.23
242.661	2.33
242.877	2.62
243.093	3.15
243.309	3.96
243.525	3.68
243.741	3.74
243.957	3.25
244.173	2.93
244.388	3.05
244.604	4.27
244.82	3.84
245.036	4.84
245.252	4.1
245.468	3.92
245.683	3.21
245.899	3.24
246.115	2.85
246.331	3.23
246.547	3.76
246.762	3.97
246.978	3.92
247.194	4.36
247.409	4.09
247.625	4.28
247.841	4.44
248.057	4.57
248.272	4.47
248.488	5.31
248.703	5.07
248.919	4.8
249.135	4.49
249.35	4.28
249.566	2.71
249.782	2.07
249.997	1.93
250.213	1.8
250.428	2.52
250.644	3.03
250.859	1.62
251.075	2.14
251.29	1.36
251.506	1.6
251.721	2.11
251.937	3.82
252.152	4.26
252.368	4.17
252.583	4.03
252.798	2.98
253.014	1.79
253.229	1.85
253.445	1.28
253.66	2.45
253.875	2.65
254.091	2.05
254.306	1.51
254.521	1.88
254.737	2.08
254.952	2.51
255.167	3.33
255.383	4.77
255.598	4.75
255.813	5.17
256.028	4.63
256.244	5.58
256.459	6.22
256.674	5.77
256.889	4.71
257.104	4.06
257.32	3.12
257.535	3.42
257.75	2.73
257.965	3.05
258.18	2.68
258.395	3
258.61	2.79
258.826	2.84
259.041	2.91
259.256	3.05
259.471	3.11
259.686	3.45
259.901	3.17
260.116	3.46
260.331	3.38
260.546	3.59
260.761	3.63
260.976	3.36
261.191	2.86
261.406	3.19
261.621	3.02
261.836	2.86
262.05	2.52
262.265	2.42
262.48	2.05
262.695	1.83
262.91	1.98
263.125	1.74
263.34	1.79
263.555	2.47
263.769	1.68
263.984	2.01
264.199	2.11
264.414	2
264.629	2.88
264.843	3.59
265.058	4.12
265.273	3.24
265.488	3.61
265.702	3.64
265.917	3.14
266.132	2.92
266.346	2.66
266.561	3.07
266.776	2.8
266.99	2.16
267.205	2.09
267.42	1.93
267.634	2.15
267.849	1.72
268.063	2.3
268.278	2.53
268.492	2.76
268.707	2.95
268.922	2.7
269.136	3.02
269.351	3.2
269.565	2.89
269.78	2.24
269.994	2.3
270.209	2.08
270.423	1.47
270.637	1.56
270.852	1.37
271.066	1.56
271.281	1.74
271.495	1.87
271.709	1.75
271.924	1.5
272.138	1.5
272.353	1.53
272.567	1.55
272.781	1.42
272.996	1.43
273.21	1.63
273.424	1.44
273.638	1.83
273.853	1.38
274.067	1.73
274.281	1.89
274.495	2.09
274.71	1.84
274.924	1.9
275.138	1.85
275.352	2
275.566	2.06
275.781	2.28
275.995	1.78
276.209	2.74
276.423	2.72
276.637	2.34
276.851	2.3
277.065	3
277.279	3.09
277.493	3.61
277.707	3.99
277.921	3.96
278.135	3.56
278.349	2.94
278.563	2.75
278.777	2.91
278.991	3.21
279.205	3.45
279.419	2.82
279.633	2.56
279.847	2.56
280.061	1.71
280.275	1.75
280.489	1.93
280.703	2.83
280.917	2.35
281.131	2.18
281.344	2.48
281.558	2.14
281.772	2.4
281.986	2.66
282.2	2.31
282.414	2.56
282.627	2.5
282.841	2.74
283.055	2.3
283.269	2.47
283.482	2.38
283.696	2.37
283.91	2.43
284.123	2.29
284.337	2.29
284.551	2.3
284.764	2.35
284.978	2.19
285.192	2.31
285.405	2.32
285.619	2.13
285.833	2.09
286.046	1.62
286.26	1.99
286.473	2.02
286.687	1.7
286.9	1.73
287.114	1.58
287.327	1.51
287.541	1.09
287.754	1.13
287.968	0.99
288.181	0.82
288.395	1.25
288.608	0.91
288.822	0.74
289.035	0.85
289.248	0.94
289.462	1.12
289.675	0.94
289.889	1.11
290.102	1.04
290.315	1.02
290.529	1.09
290.742	1.02
290.955	1.05
291.169	1.25
291.382	1.59
291.595	1.59
291.808	1.51
292.022	2.14
292.235	2.13
292.448	2.4
292.661	2.68
292.875	2.79
293.088	2.58
293.301	2.63
293.514	2.75
293.727	2.55
293.94	2.72
294.153	3.02
294.367	2.95
294.58	2.59
294.793	2.32
295.006	2.2
295.219	2.17
295.432	2.39
295.645	2.25
295.858	2.23
296.071	2.04
296.284	2.12
296.497	1.87
296.71	1.55
296.923	1.91
297.136	1.83
297.349	1.88
297.562	1.99
297.775	1.99
297.988	2.1
298.201	1.99
298.414	2.06
298.626	1.72
298.839	1.77
299.052	1.97
299.265	1.84
299.478	2.17
299.691	2.01
299.903	2.13
300.116	1.8
300.329	1.88
300.542	2.07
300.755	2.06
300.967	2.32
301.18	2.09
301.393	2.16
301.605	2.09
301.818	1.82
302.031	2.11
302.243	1.95
302.456	2.18
302.669	2.12
302.881	2.4
303.094	2.53
303.307	2.43
303.519	2.42
303.732	2.36
303.944	2.26
304.157	2.7
304.37	2.59
304.582	2.22
304.795	2.12
305.007	2.41
305.22	2.18
305.432	2.03
305.645	2.51
305.857	2.83
306.069	2.89
306.282	3.28
306.494	2.86
306.707	3.21
306.919	3.4
307.132	3.75
307.344	3.5
307.556	3.19
307.769	3.48
307.981	3.42
308.193	3.17
308.406	3.27
308.618	3.26
308.83	3.42
309.043	3.3
309.255	3.27
309.467	3.05
309.679	3.23
309.892	3.3
310.104	2.93
310.316	2.98
310.528	3.23
310.74	3.13
310.953	2.67
311.165	2.88
311.377	2.73
311.589	2.63
311.801	2.63
312.013	2.62
312.225	2.56
312.437	2.94
312.649	2.84
312.862	2.85
313.074	2.77
313.286	3.74
313.498	3.84
313.71	3.99
313.922	4.49
314.134	4.51
314.346	4.65
314.558	4.74
314.77	4.9
314.982	4.84
315.193	4.62
315.405	5.24
315.617	4.25
315.829	3.78
316.041	3.67
316.253	3.81
316.465	4.26
316.677	3.49
316.888	3.61
317.1	3.21
317.312	2.97
317.524	3.09
317.736	2.94
317.947	3.31
318.159	3.48
318.371	3.66
318.583	3.27
318.794	3.36
319.006	3.68
319.218	3.54
319.43	3.77
319.641	4
319.853	4.16
320.064	4.63
320.276	4.63
320.488	4.55
320.699	5.14
320.911	5.18
321.123	4.97
321.334	5.45
321.546	5.72
321.757	5.92
321.969	6.15
322.18	5.69
322.392	5.44
322.603	5.62
322.815	6.06
323.026	5.65
323.238	6.34
323.449	6.56
323.661	6.86
323.872	7.15
324.083	7.06
324.295	7.16
324.506	7.62
324.718	7.29
324.929	7.61
325.14	7.43
325.352	7.67
325.563	7.62
325.774	7.61
325.986	7.38
326.197	7.52
326.408	7.76
326.62	8.02
326.831	8.37
327.042	8.5
327.253	8.83
327.464	9.31
327.676	9.2
327.887	9.26
328.098	9.48
328.309	9.91
328.52	9.98
328.732	10.24
328.943	9.97
329.154	10.24
329.365	11.08
329.576	11.01
329.787	11.26
329.998	12.05
330.209	12.05
330.42	12.37
330.631	12.57
330.842	12.92
331.053	13.24
331.264	13.69
331.475	13.37
331.686	13.03
331.897	13.05
332.108	12.92
332.319	12.49
332.53	12.79
332.741	12.83
332.952	13.11
333.163	12.87
333.374	13.09
333.585	13.29
333.795	13.89
334.006	13.65
334.217	13.8
334.428	13.9
334.639	14.39
334.849	14.04
335.06	14
335.271	13.94
335.482	14.06
335.692	14.15
335.903	14.51
336.114	14.19
336.325	14.59
336.535	14.82
336.746	15.31
336.957	15.34
337.167	16.07
337.378	16.17
337.589	16.35
337.799	16.4
338.01	16.57
338.22	16.24
338.431	16.34
338.642	16.61
338.852	16.44
339.063	16.11
339.273	16.18
339.484	16.29
339.694	16.46
339.905	16.26
340.115	16.43
340.326	15.97
340.536	16.15
340.746	16.33
340.957	15.85
341.167	15.7
341.378	15.64
341.588	15.75
341.799	15.38
342.009	14.96
342.219	14.7
342.43	14.73
342.64	15.09
342.85	14.91
343.061	14.9
343.271	15.12
343.481	15.56
343.691	15.23
343.902	15
344.112	14.82
344.322	15.18
344.532	15.31
344.743	15.45
344.953	15.51
345.163	15.73
345.373	15.45
345.583	15.34
345.793	15.33
346.004	15.63
346.214	15.48
346.424	15.91
346.634	15.72
346.844	15.73
347.054	15.46
347.264	14.94
347.474	14.76
347.684	14.99
347.894	15.1
348.104	14.76
348.314	14.64
348.524	14.68
348.734	14.19
348.944	14.34
349.154	14.44
349.364	14.49
349.574	14.45
349.784	14.3
349.994	14.34
350.204	14.3
350.413	14.25
350.623	14.16
350.833	14.21
351.043	14.58
351.253	14.14
351.463	14.06
351.672	13.85
351.882	13.85
352.092	13.71
352.302	13.63
352.511	13.82
352.721	13.76
352.931	13.85
353.141	13.65
353.35	13.36
353.56	13.67
353.77	13.56
353.979	13.66
354.189	13.68
354.399	13.59
354.608	13.48
354.818	13.23
355.027	13.45
355.237	13.56
355.447	14
355.656	14.14
355.866	13.85
356.075	13.86
356.285	13.77
356.494	13.74
356.704	14.07
356.913	13.82
357.123	13.82
357.332	13.54
357.542	13.39
357.751	13.19
357.96	13.03
358.17	13.21
358.379	13.29
358.589	13.09
358.798	13.3
359.007	13.45
359.217	13.88
359.426	14.03
359.635	14.21
359.845	14.27
360.054	13.96
360.263	13.82
360.472	13.95
360.682	14
360.891	14.34
361.1	14.56
361.309	14.27
361.519	14.01
361.728	13.67
361.937	13.67
362.146	13.68
362.355	13.8
362.564	13.77
362.774	13.65
362.983	13.63
363.192	13.55
363.401	13.21
363.61	13.26
363.819	13.26
364.028	13.47
364.237	13.2
364.446	13.35
364.655	13.45
364.864	13.6
365.073	13.73
365.282	13.51
365.491	13.35
365.7	13.32
365.909	13.3
366.118	13.6
366.327	13.25
366.536	13.41
366.745	13.24
366.954	13.15
367.162	13.15
367.371	13.19
367.58	13.32
367.789	13.34
367.998	13.46
368.207	13.49
368.415	13.32
368.624	13.63
368.833	13.71
369.042	13.44
369.25	13.36
369.459	13.35
369.668	13.13
369.877	13.31
370.085	13.46
370.294	13.42
370.503	12.93
370.711	12.73
370.92	12.95
371.129	13.02
371.337	13.22
371.546	13.1
371.754	13.07
371.963	12.94
372.171	12.77
372.38	12.73
372.589	12.55
372.797	12.55
373.006	12.8
373.214	12.39
373.423	12.4
373.631	12.39
373.84	12.52
374.048	12.36
374.256	12.55
374.465	12.58
374.673	12.34
374.882	12.36
375.09	12.55
375.298	12.3
375.507	12.72
375.715	12.64
375.923	12.29
376.132	12.38
376.34	12.47
376.548	12.49
376.757	12.42
376.965	12.57
377.173	12.65
377.381	12.55
377.59	12.73
377.798	12.65
378.006	12.44
378.214	12.65
378.423	12.33
378.631	12.3
378.839	12.12
379.047	12.09
379.255	12.03
379.463	12.09
379.671	12.6
379.879	12.6
380.088	12.47
380.296	12.66
380.504	12.66
380.712	13.16
380.92	13.27
381.128	13.48
381.336	13.5
381.544	13.57
381.752	13.68
381.96	13.39
382.168	13.26
382.376	13.67
382.584	13.43
382.791	13.68
382.999	13.73
383.207	13.74
383.415	13.46
383.623	13.43
383.831	13.21
384.039	12.9
384.247	12.8
384.454	12.73
384.662	12.18
384.87	12.36
385.078	12.1
385.285	11.89
385.493	11.99
385.701	12.19
385.909	12.15
386.116	12.16
386.324	12.22
386.532	12.37
386.739	12.69
386.947	12.98
387.155	13.07
387.362	13.07
387.57	12.93
387.778	12.87
387.985	12.71
388.193	12.82
388.4	13.03
388.608	13.05
388.816	12.94
389.023	13.09
389.231	13.14
389.438	13
389.646	13.12
389.853	13.44
390.061	13.37
390.268	13.46
390.475	13.64
390.683	13.52
390.89	13.47
391.098	13.39
391.305	13.05
391.512	12.9
391.72	13.06
391.927	13.09
392.135	12.93
392.342	12.97
392.549	13.04
392.756	12.89
392.964	13.21
393.171	13.35
393.378	13.59
393.586	13.7
393.793	13.72
394	13.73
394.207	13.64
394.414	13.7
394.622	13.71
394.829	13.61
395.036	13.41
395.243	13.07
395.45	12.98
395.657	12.76
395.864	12.53
396.072	12.49
396.279	12.43
396.486	12.72
396.693	12.47
396.9	12.3
397.107	12.57
397.314	12.55
397.521	12.71
397.728	12.79
397.935	12.91
398.142	12.97
398.349	12.99
398.556	12.87
398.763	12.74
398.97	12.88
399.177	13.06
399.383	12.98
399.59	13.08
399.797	12.89
400.004	12.98
400.211	13.04
400.418	13.17
400.625	13.11
400.831	13.25
401.038	13.12
401.245	13.25
401.452	13.25
401.658	13.19
401.865	13.29
402.072	13.45
402.279	13.43
402.485	13.4
402.692	13.3
402.899	13.38
403.105	13.26
403.312	13.53
403.519	13.49
403.725	13.52
403.932	13.47
404.138	13.53
404.345	13.33
404.552	13.32
404.758	13.38
404.965	13.41
405.171	13.33
405.378	13.29
405.584	13.09
405.791	12.94
405.997	13.04
406.204	12.98
406.41	12.77
406.617	13.05
406.823	12.9
407.029	12.83
407.236	12.83
407.442	12.78
407.649	12.95
407.855	12.97
408.061	13.06
408.268	12.89
408.474	13
408.68	13.16
408.887	13.08
409.093	13.34
409.299	13.15
409.505	13.08
409.712	13.35
409.918	13.3
410.124	13.27
410.33	13.4
410.537	13.38
410.743	13.37
410.949	13.4
411.155	13.42
411.361	13.21
411.567	13.3
411.773	13.44
411.98	13.3
412.186	13.24
412.392	13.36
412.598	13.39
412.804	13.6
413.01	13.67
413.216	13.54
413.422	13.49
413.628	13.6
413.834	13.61
414.04	13.57
414.246	13.49
414.452	13.53
414.658	13.41
414.864	13.28
415.07	13.21
415.275	13.26
415.481	13.37
415.687	13.46
415.893	13.47
416.099	13.57
416.305	13.65
416.511	13.71
416.716	13.72
416.922	13.74
417.128	13.7
417.334	13.67
417.539	13.64
417.745	13.56
417.951	13.53
418.157	13.43
418.362	13.42
418.568	13.4
418.774	13.36
418.979	13.34
419.185	13.36
419.391	13.37
419.596	13.4
419.802	13.41
420.008	13.51
420.213	13.56
420.419	13.62
420.624	13.63
420.83	13.61
421.035	13.71
421.241	13.72
421.446	13.78
421.652	13.86
421.857	13.84
422.063	13.78
422.268	13.76
422.474	13.65
422.679	13.63
422.885	13.64
423.09	13.69
423.295	13.68
423.501	13.65
423.706	13.66
423.911	13.48
424.117	13.44
424.322	13.45
424.527	13.44
424.733	13.61
424.938	13.61
425.143	13.65
425.349	13.53
425.554	13.53
425.759	13.61
425.964	13.58
426.169	13.71
426.375	13.74
426.58	13.76
426.785	13.66
426.99	13.58
427.195	13.62
427.4	13.56
427.605	13.74
427.811	13.67
428.016	13.63
428.221	13.57
428.426	13.6
428.631	13.61
428.836	13.6
429.041	13.77
429.246	13.78
429.451	13.84
429.656	13.82
429.861	13.78
430.066	13.74
430.271	13.87
430.476	13.87
430.681	13.91
430.886	13.97
431.09	13.96
431.295	13.92
431.5	13.94
431.705	13.82
431.91	13.8
432.115	13.85
432.32	13.8
432.524	13.75
432.729	13.74
432.934	13.64
433.139	13.67
433.343	13.72
433.548	13.75
433.753	13.65
433.958	13.7
434.162	13.82
434.367	13.74
434.572	13.88
434.776	14.01
434.981	14.09
435.186	14.12
435.39	14.13
435.595	14.17
435.799	14.16
436.004	14.26
436.209	14.35
436.413	14.3
436.618	14.38
436.822	14.3
437.027	14.13
437.231	14.08
437.436	14.12
437.64	14.08
437.845	14.11
438.049	14.08
438.253	14.08
438.458	14
438.662	13.93
438.867	13.86
439.071	13.91
439.275	14
439.48	14.05
439.684	14.01
439.888	13.96
440.093	14.01
440.297	14.08
440.501	14.09
440.706	14.15
440.91	14.14
441.114	14.22
441.318	14.18
441.523	14.13
441.727	14.07
441.931	14.07
442.135	14.07
442.339	14.01
442.543	13.95
442.748	13.86
442.952	13.82
443.156	13.88
443.36	13.86
443.564	13.92
443.768	13.98
443.972	14.07
444.176	14.07
444.38	14.18
444.584	14.12
444.788	14.2
444.992	14.22
445.196	14.32
445.4	14.38
445.604	14.37
445.808	14.43
446.012	14.45
446.216	14.38
446.42	14.41
446.624	14.39
446.828	14.4
447.032	14.39
447.235	14.41
447.439	14.34
447.643	14.2
447.847	14.24
448.051	14.22
448.254	14.19
448.458	14.25
448.662	14.28
448.866	14.29
449.069	14.27
449.273	14.14
449.477	14.25
449.681	14.24
449.884	14.36
450.088	14.31
450.292	14.33
450.495	14.28
450.699	14.29
450.902	14.21
451.106	14.27
451.31	14.35
451.513	14.47
451.717	14.33
451.92	14.32
452.124	14.36
452.327	14.42
452.531	14.45
452.734	14.55
452.938	14.5
453.141	14.46
453.345	14.45
453.548	14.55
453.752	14.51
453.955	14.59
454.158	14.59
454.362	14.49
454.565	14.38
454.769	14.21
454.972	14.12
455.175	14.17
455.379	14.31
455.582	14.35
455.785	14.2
455.988	14.26
456.192	14.14
456.395	14.12
456.598	14.11
456.801	14.12
457.005	14.08
457.208	14.03
457.411	13.9
457.614	13.8
457.817	13.69
458.021	13.74
458.224	13.82
458.427	13.95
458.63	14.06
458.833	14.11
459.036	14.17
459.239	14.29
459.442	14.31
459.645	14.35
459.848	14.38
460.051	14.44
460.254	14.36
460.457	14.29
460.66	14.26
460.863	14.25
461.066	14.25
461.269	14.12
461.472	14.14
