Data from 2938740__Reflection_01.txt Node
Date: Sun Mar 15 12:23:48 EDT 2015
User: robert
Spectrometer: USB4E03002
Autoset integration time: false
Trigger mode: 4
Integration Time (sec): 1.000000E-1
Scans to average: 10
Electric dark correction enabled: false
Nonlinearity correction enabled: false
Boxcar width: 5
Stray light correction enabled: false
XAxis mode: Wavelengths
Stop averaging: false
Number of Pixels in Spectrum: 3648
>>>>>Begin Spectral Data<<<<<
177.575	-149.16
177.794	-442.45
178.014	-712.5
178.233	-1404.17
178.452	1200
178.672	527.13
178.891	290.09
179.11	165
179.33	150.56
179.549	127.07
179.768	114.11
179.987	106.26
180.207	100.38
180.426	114.65
180.645	108.19
180.864	102.57
181.084	91.46
181.303	87.22
181.522	85.93
181.741	43.66
181.96	36.95
182.179	39.23
182.398	39.14
182.618	48.81
182.837	53.01
183.056	63.58
183.275	57.57
183.494	76.34
183.713	81.11
183.932	83.25
184.151	109.03
184.37	112.16
184.589	109.88
184.808	120.85
185.027	103.84
185.246	100.39
185.465	89.43
185.684	85.34
185.903	84.69
186.122	85.96
186.341	83.75
186.56	66.63
186.779	62.34
186.998	71.56
187.216	76.8
187.435	82.87
187.654	79.57
187.873	93.26
188.092	110.79
188.311	103.34
188.53	93.15
188.748	90.64
188.967	91.8
189.186	98.3
189.405	88.76
189.623	72.28
189.842	72.5
190.061	72.63
190.28	79.03
190.498	80.8
190.717	75.88
190.936	74.94
191.154	72.66
191.373	76.61
191.592	65.04
191.81	62.28
192.029	75.97
192.248	74.86
192.466	85.35
192.685	66.49
192.904	56.55
193.122	58.32
193.341	55.54
193.559	67.19
193.778	69.95
193.996	82.43
194.215	95.23
194.433	81.47
194.652	92.35
194.87	77.7
195.089	78.81
195.307	80.83
195.526	79.29
195.744	83.22
195.963	74.12
196.181	77.03
196.399	73.81
196.618	78.03
196.836	82.31
197.055	71.17
197.273	71.49
197.491	71.54
197.71	76.47
197.928	85.33
198.146	82.44
198.365	76.88
198.583	73.08
198.801	61.33
199.019	58.2
199.238	59.83
199.456	75.05
199.674	74.06
199.892	71.46
200.111	67.49
200.329	67.39
200.547	71.48
200.765	76.99
200.983	83.16
201.202	101.75
201.42	95.76
201.638	85.56
201.856	83.4
202.074	92.29
202.292	92.42
202.51	89.93
202.728	92.8
202.946	86.04
203.165	88.62
203.383	74.73
203.601	68.55
203.819	66.97
204.037	72.85
204.255	72.73
204.473	81.55
204.691	84.8
204.909	88.08
205.127	85.49
205.345	91.51
205.562	91.98
205.78	93.03
205.998	88.86
206.216	87.97
206.434	88.87
206.652	92.45
206.87	81.54
207.088	84.76
207.306	90.68
207.523	83.65
207.741	73.9
207.959	70.75
208.177	72.92
208.395	84.54
208.612	87.17
208.83	81.25
209.048	84.33
209.266	81.59
209.483	82.5
209.701	81.23
209.919	89.98
210.136	98.29
210.354	90.43
210.572	79.08
210.79	71.84
211.007	69.37
211.225	75.61
211.442	68.65
211.66	67.64
211.878	67.55
212.095	60.72
212.313	54.02
212.53	46.78
212.748	53.04
212.966	58.29
213.183	50
213.401	47.77
213.618	46.48
213.836	48.92
214.053	48.07
214.271	52.42
214.488	52.92
214.705	57.25
214.923	66.08
215.14	55.06
215.358	52.82
215.575	63.43
215.793	73.74
216.01	68.77
216.227	72.15
216.445	73.69
216.662	62.4
216.879	65.08
217.097	66.09
217.314	65.44
217.531	74.96
217.749	76.31
217.966	74.53
218.183	60.38
218.4	64.44
218.618	59.12
218.835	52.52
219.052	64.31
219.269	60.59
219.487	59.57
219.704	59.1
219.921	57.18
220.138	57.87
220.355	52.78
220.572	53.17
220.79	50.86
221.007	48.05
221.224	54.53
221.441	47.6
221.658	44.25
221.875	42.97
222.092	37.55
222.309	32.53
222.526	30.18
222.743	27.24
222.96	21.97
223.177	20.48
223.394	27.2
223.611	23.01
223.828	22.03
224.045	21.61
224.262	17.93
224.479	14.74
224.696	14.23
224.913	11.22
225.13	12.08
225.347	16
225.564	16.76
225.781	11.23
225.997	9.21
226.214	8.52
226.431	6.08
226.648	6.46
226.865	9.35
227.082	12.05
227.298	11.07
227.515	11.46
227.732	9.53
227.949	7.21
228.165	7.07
228.382	7.72
228.599	7.18
228.816	7.76
229.032	7.84
229.249	7.19
229.466	6.03
229.682	6.79
229.899	6.11
230.116	7.29
230.332	8.14
230.549	8.68
230.765	8.85
230.982	9.08
231.199	8.82
231.415	8.61
231.632	7.82
231.848	8.2
232.065	8.59
232.281	9.1
232.498	6.78
232.714	6.49
232.931	5.66
233.147	5.2
233.364	5.09
233.58	6.58
233.797	6.77
234.013	7.52
234.23	7.96
234.446	6.46
234.662	5.35
234.879	4.58
235.095	4.68
235.312	6.21
235.528	6.23
235.744	6.78
235.961	7.17
236.177	8.34
236.393	8.61
236.61	7.62
236.826	8.55
237.042	10.19
237.258	12.66
237.475	12.78
237.691	11.14
237.907	10.89
238.123	10.09
238.339	9.86
238.556	9.25
238.772	9.1
238.988	8.36
239.204	8.17
239.42	8.37
239.636	6.5
239.853	5.84
240.069	6.72
240.285	6.1
240.501	5.88
240.717	5.06
240.933	4.93
241.149	5.45
241.365	6.07
241.581	5.42
241.797	4.43
242.013	4.58
242.229	4.9
242.445	4.44
242.661	4.33
242.877	5.1
243.093	4.84
243.309	4.23
243.525	3.95
243.741	4.39
243.957	4.57
244.173	4.64
244.388	4.54
244.604	4.73
244.82	5.92
245.036	6
245.252	4.59
245.468	4.97
245.683	5.5
245.899	4.91
246.115	4.27
246.331	4.44
246.547	4.7
246.762	4.55
246.978	4.21
247.194	3.73
247.409	3.51
247.625	3.8
247.841	3.78
248.057	3.77
248.272	3.87
248.488	3.46
248.703	3.29
248.919	3.17
249.135	3.57
249.35	3.82
249.566	4.18
249.782	5.03
249.997	5.03
250.213	5.23
250.428	4.8
250.644	4.92
250.859	6.16
251.075	5.98
251.29	5.93
251.506	5.66
251.721	5.67
251.937	5.77
252.152	5.19
252.368	5.66
252.583	5.26
252.798	5.44
253.014	5.22
253.229	4.92
253.445	5.16
253.66	5.2
253.875	5.21
254.091	4.98
254.306	4.13
254.521	4.6
254.737	3.74
254.952	4.9
255.167	5.42
255.383	5.27
255.598	4.95
255.813	5.3
256.028	5.56
256.244	5.36
256.459	6.16
256.674	6.75
256.889	5.75
257.104	5.58
257.32	4.58
257.535	3.99
257.75	3.76
257.965	4.29
258.18	4.32
258.395	4.08
258.61	4.18
258.826	3.73
259.041	3.12
259.256	3.24
259.471	3.2
259.686	3.1
259.901	3.08
260.116	3.42
260.331	3.2
260.546	2.96
260.761	3
260.976	2.77
261.191	2.62
261.406	2.96
261.621	3
261.836	2.64
262.05	2.9
262.265	3.47
262.48	3.28
262.695	3.27
262.91	3
263.125	3.33
263.34	3.41
263.555	4.14
263.769	4.34
263.984	4.4
264.199	5.15
264.414	5.28
264.629	5.24
264.843	4.87
265.058	5.48
265.273	6.4
265.488	5.52
265.702	5.88
265.917	4.71
266.132	4.32
266.346	4.23
266.561	3.89
266.776	3.29
266.99	2.98
267.205	3.51
267.42	2.75
267.634	2.62
267.849	2.34
268.063	2.22
268.278	2.92
268.492	2.94
268.707	2.89
268.922	3.23
269.136	3.68
269.351	3.63
269.565	3.04
269.78	2.93
269.994	2.6
270.209	2.78
270.423	2.61
270.637	2.59
270.852	2.65
271.066	2.62
271.281	2.59
271.495	2.43
271.709	2.39
271.924	2.45
272.138	2.28
272.353	1.99
272.567	2.38
272.781	2.63
272.996	2.61
273.21	2.73
273.424	2.56
273.638	2.26
273.853	2.35
274.067	2.23
274.281	2.21
274.495	2.86
274.71	3.03
274.924	2.72
275.138	2.52
275.352	2.29
275.566	1.87
275.781	2.24
275.995	2.9
276.209	2.91
276.423	2.71
276.637	2.76
276.851	2.72
277.065	2.73
277.279	3.33
277.493	3.52
277.707	3.61
277.921	3.72
278.135	4.17
278.349	3.29
278.563	3.25
278.777	3.48
278.991	3.72
279.205	3.99
279.419	4.23
279.633	3.76
279.847	3.51
280.061	3.32
280.275	3.54
280.489	3.2
280.703	3.98
280.917	3.97
281.131	3.86
281.344	3.83
281.558	3.57
281.772	3.69
281.986	3.91
282.2	3.71
282.414	3.55
282.627	3.57
282.841	2.97
283.055	2.77
283.269	2.91
283.482	2.83
283.696	2.87
283.91	2.64
284.123	1.95
284.337	1.54
284.551	1.7
284.764	2.25
284.978	2.34
285.192	2.42
285.405	2.36
285.619	2.19
285.833	2.42
286.046	2.15
286.26	2.14
286.473	2.61
286.687	2.72
286.9	2.74
287.114	2.01
287.327	1.76
287.541	1.92
287.754	2.24
287.968	2.3
288.181	2
288.395	2.09
288.608	2.3
288.822	2.34
289.035	2.4
289.248	2.4
289.462	2.98
289.675	2.8
289.889	3.2
290.102	2.89
290.315	3.08
290.529	3.33
290.742	3.54
290.955	3.61
291.169	3.5
291.382	3.66
291.595	3.59
291.808	3.66
292.022	4.01
292.235	3.73
292.448	3.53
292.661	3.33
292.875	3.11
293.088	3.06
293.301	2.48
293.514	2.58
293.727	2.75
293.94	2.75
294.153	3.01
294.367	2.96
294.58	3.13
294.793	3.25
295.006	3.32
295.219	3.16
295.432	2.97
295.645	3.4
295.858	3.48
296.071	3.15
296.284	3.14
296.497	2.69
296.71	2.56
296.923	2.56
297.136	2.97
297.349	2.86
297.562	3.36
297.775	3.6
297.988	3.8
298.201	3.72
298.414	3.89
298.626	4.12
298.839	4.21
299.052	4.29
299.265	4.39
299.478	4.02
299.691	3.88
299.903	3.67
300.116	3.55
300.329	3
300.542	2.89
300.755	2.86
300.967	2.58
301.18	2.76
301.393	3.13
301.605	2.95
301.818	2.99
302.031	3.18
302.243	3
302.456	3.13
302.669	3.36
302.881	3.48
303.094	3.51
303.307	3.67
303.519	3.99
303.732	3.55
303.944	3.77
304.157	4.29
304.37	4.33
304.582	4.44
304.795	4.46
305.007	4.75
305.22	5.11
305.432	5.55
305.645	5.67
305.857	5.49
306.069	6.04
306.282	5.97
306.494	5.97
306.707	5.66
306.919	5.79
307.132	5.58
307.344	5.65
307.556	5.28
307.769	4.85
307.981	4.78
308.193	4.73
308.406	4.51
308.618	4.65
308.83	4.53
309.043	5.09
309.255	4.93
309.467	5.06
309.679	4.73
309.892	5.1
310.104	5.22
310.316	5.59
310.528	5.64
310.74	5.61
310.953	5.46
311.165	5.02
311.377	5.11
311.589	5.43
311.801	5.56
312.013	5.82
312.225	5.52
312.437	5.55
312.649	5.29
312.862	5.36
313.074	5.45
313.286	5.79
313.498	6.14
313.71	6.17
313.922	5.93
314.134	5.88
314.346	6.39
314.558	6.64
314.77	6.21
314.982	6.3
315.193	5.83
315.405	5.96
315.617	5.87
315.829	6.14
316.041	5.87
316.253	5.98
316.465	6.02
316.677	5.66
316.888	5.71
317.1	5.96
317.312	5.98
317.524	6.74
317.736	6.86
317.947	7.03
318.159	6.59
318.371	7.03
318.583	7.24
318.794	7.5
319.006	6.89
319.218	7.04
319.43	7.04
319.641	6.99
319.853	7.16
320.064	7.56
320.276	7.45
320.488	8.46
320.699	8.54
320.911	8.5
321.123	7.59
321.334	8.48
321.546	8.46
321.757	8.97
321.969	8.96
322.18	8.62
322.392	8.16
322.603	8.43
322.815	8.04
323.026	7.8
323.238	7.91
323.449	8.76
323.661	8.71
323.872	8.97
324.083	8.99
324.295	9.26
324.506	9.24
324.718	9.33
324.929	8.93
325.14	8.89
325.352	9.18
325.563	8.55
325.774	8.44
325.986	7.97
326.197	7.51
326.408	7.4
326.62	7.14
326.831	7.41
327.042	7.43
327.253	7.72
327.464	8.15
327.676	8.16
327.887	8.54
328.098	8.76
328.309	9.52
328.52	9.39
328.732	9.48
328.943	9.83
329.154	9.89
329.365	10.06
329.576	10.22
329.787	9.75
329.998	9.87
330.209	9.88
330.42	9.95
330.631	9.71
330.842	9.92
331.053	9.85
331.264	9.69
331.475	9.47
331.686	9.15
331.897	8.93
332.108	9.3
332.319	9.2
332.53	9.68
332.741	9.17
332.952	8.87
333.163	9.38
333.374	9.47
333.585	9.48
333.795	9.63
334.006	10.02
334.217	10.17
334.428	9.75
334.639	9.12
334.849	8.9
335.06	9.61
335.271	9.95
335.482	10
335.692	10.47
335.903	10.73
336.114	10.64
336.325	10.4
336.535	10.65
336.746	10.66
336.957	11.11
337.167	11.4
337.378	10.96
337.589	10.94
337.799	10.73
338.01	10.29
338.22	10.15
338.431	10.13
338.642	10.31
338.852	9.96
339.063	10.15
339.273	10.21
339.484	10.07
339.694	10
339.905	10
340.115	9.73
340.326	9.9
340.536	10.42
340.746	10.58
340.957	10.14
341.167	9.99
341.378	10.06
341.588	10.35
341.799	10.34
342.009	10.39
342.219	10.18
342.43	10.38
342.64	10.23
342.85	9.69
343.061	9.72
343.271	10.14
343.481	10.52
343.691	10.4
343.902	10.23
344.112	9.99
344.322	9.95
344.532	9.79
344.743	9.41
344.953	9.59
345.163	9.34
345.373	8.91
345.583	8.47
345.793	8.06
346.004	8.09
346.214	7.93
346.424	8.13
346.634	8.17
346.844	8.41
347.054	8.48
347.264	8.31
347.474	8.65
347.684	9.03
347.894	9.38
348.104	10.03
348.314	9.88
348.524	10.15
348.734	9.78
348.944	9.89
349.154	9.66
349.364	9.77
349.574	9.89
349.784	9.72
349.994	9.67
350.204	9.47
350.413	9.06
350.623	9.42
350.833	9.2
351.043	9.37
351.253	9.43
351.463	9.39
351.672	9.61
351.882	9.2
352.092	9.03
352.302	8.64
352.511	9.08
352.721	8.74
352.931	8.41
353.141	8.15
353.35	8.24
353.56	7.94
353.77	8.51
353.979	8.32
354.189	8.6
354.399	8.76
354.608	9.02
354.818	8.88
355.027	9.2
355.237	9.13
355.447	9.28
355.656	9.13
355.866	9.17
356.075	8.76
356.285	8.7
356.494	8.87
356.704	9.1
356.913	9.17
357.123	8.93
357.332	8.73
357.542	8.78
357.751	8.73
357.96	8.98
358.17	8.86
358.379	8.91
358.589	8.75
358.798	8.4
359.007	8.35
359.217	8.33
359.426	8.33
359.635	8.56
359.845	8.33
360.054	8.54
360.263	8.16
360.472	8.21
360.682	8.41
360.891	8.41
361.1	8.5
361.309	8.33
361.519	8.19
361.728	8
361.937	7.92
362.146	8.06
362.355	7.9
362.564	8.08
362.774	8.33
362.983	8.19
363.192	8.44
363.401	8.57
363.61	8.53
363.819	8.71
364.028	8.91
364.237	9.07
364.446	9.07
364.655	9.08
364.864	9.07
365.073	8.8
365.282	8.83
365.491	8.97
365.7	8.84
365.909	8.98
366.118	9.01
366.327	9.01
366.536	8.67
366.745	8.73
366.954	8.75
367.162	8.74
367.371	8.91
367.58	8.88
367.789	8.57
367.998	8.63
368.207	8.57
368.415	8.55
368.624	8.52
368.833	8.94
369.042	9.04
369.25	8.97
369.459	9.28
369.668	9.12
369.877	9.1
370.085	9.07
370.294	9.05
370.503	8.88
370.711	8.65
370.92	8.83
371.129	8.71
371.337	8.59
371.546	8.51
371.754	8.32
371.963	8.4
372.171	8.54
372.38	8.6
372.589	8.66
372.797	8.67
373.006	8.54
373.214	8.28
373.423	8.15
373.631	8.24
373.84	8.3
374.048	8.41
374.256	8.31
374.465	8.41
374.673	8.38
374.882	8.18
375.09	8.3
375.298	8.37
375.507	8.43
375.715	8.29
375.923	8.24
376.132	8.31
376.34	8.13
376.548	8.24
376.757	8.01
376.965	7.9
377.173	7.99
377.381	8.07
377.59	8.17
377.798	8.34
378.006	8.56
378.214	8.5
378.423	8.51
378.631	8.61
378.839	8.49
379.047	8.3
379.255	8.4
379.463	8.23
379.671	8.19
379.879	8.37
380.088	8.34
380.296	8.2
380.504	8.34
380.712	8.25
380.92	8.05
381.128	8.07
381.336	8.13
381.544	8.12
381.752	8.43
381.96	8.2
382.168	7.99
382.376	7.76
382.584	7.89
382.791	7.81
382.999	7.81
383.207	7.97
383.415	7.83
383.623	7.94
383.831	8.03
384.039	7.8
384.247	7.98
384.454	8.19
384.662	8.29
384.87	8.22
385.078	8.11
385.285	8.13
385.493	8.05
385.701	8.24
385.909	8.26
386.116	8.11
386.324	8.21
386.532	8.22
386.739	7.71
386.947	7.63
387.155	7.62
387.362	7.72
387.57	7.58
387.778	7.5
387.985	7.49
388.193	7.36
388.4	7.54
388.608	7.56
388.816	7.35
389.023	7.98
389.231	8.07
389.438	7.88
389.646	7.97
389.853	8.14
390.061	8.31
390.268	8.32
390.475	8.34
390.683	8.29
390.89	8.27
391.098	8.21
391.305	7.72
391.512	7.65
391.72	7.65
391.927	7.69
392.135	7.71
392.342	7.6
392.549	7.65
392.756	7.66
392.964	7.46
393.171	7.46
393.378	7.54
393.586	7.73
393.793	7.8
394	7.86
394.207	7.66
394.414	7.6
394.622	7.42
394.829	7.29
395.036	7.26
395.243	7.4
395.45	7.46
395.657	7.53
395.864	7.69
396.072	7.5
396.279	7.53
396.486	7.61
396.693	7.64
396.9	7.77
397.107	7.76
397.314	7.72
397.521	7.63
397.728	7.45
397.935	7.41
398.142	6.99
398.349	7.18
398.556	7.2
398.763	7.05
398.97	7.03
399.177	7.03
399.383	7.08
399.59	7.23
399.797	7.45
400.004	7.45
400.211	7.53
400.418	7.92
400.625	7.87
400.831	7.81
401.038	7.92
401.245	7.78
401.452	7.92
401.658	7.77
401.865	7.68
402.072	7.77
402.279	7.79
402.485	7.75
402.692	7.51
402.899	7.73
403.105	7.79
403.312	7.86
403.519	8.03
403.725	7.87
403.932	8.12
404.138	8.27
404.345	8.01
404.552	8.08
404.758	7.98
404.965	8.11
405.171	8.05
405.378	7.89
405.584	7.68
405.791	7.6
405.997	7.85
406.204	7.73
406.41	7.6
406.617	7.45
406.823	7.54
407.029	7.7
407.236	7.8
407.442	7.62
407.649	7.82
407.855	7.93
408.061	7.77
408.268	7.71
408.474	7.61
408.68	7.59
408.887	7.71
409.093	7.57
409.299	7.38
409.505	7.35
409.712	7.43
409.918	7.22
410.124	7.38
410.33	7.75
410.537	7.68
410.743	7.86
410.949	7.94
411.155	8.14
411.361	8.01
411.567	8.19
411.773	8
411.98	7.88
412.186	8.13
412.392	8.08
412.598	8.11
412.804	8.21
413.01	8.06
413.216	7.93
413.422	7.91
413.628	8.24
413.834	8.26
414.04	8.52
414.246	8.63
414.452	8.59
414.658	8.67
414.864	8.56
415.07	8.28
415.275	8.38
415.481	8.35
415.687	8.25
415.893	8.01
416.099	8.09
416.305	7.97
416.511	8.11
416.716	8.08
416.922	7.97
417.128	7.87
417.334	7.92
417.539	7.73
417.745	7.92
417.951	7.89
418.157	7.95
418.362	7.74
418.568	7.76
418.774	7.65
418.979	7.57
419.185	7.54
419.391	7.56
419.596	7.63
419.802	7.67
420.008	7.58
420.213	7.7
420.419	7.64
420.624	7.74
420.83	7.66
421.035	7.57
421.241	7.72
421.446	7.68
421.652	7.59
421.857	7.55
422.063	7.58
422.268	7.6
422.474	7.51
422.679	7.59
422.885	7.5
423.09	7.57
423.295	7.66
423.501	7.52
423.706	7.54
423.911	7.65
424.117	7.67
424.322	7.62
424.527	7.64
424.733	7.71
424.938	7.68
425.143	7.8
425.349	7.76
425.554	7.76
425.759	7.79
425.964	7.85
426.169	7.82
426.375	7.8
426.58	7.86
426.785	7.88
426.99	7.69
427.195	7.63
427.4	7.55
427.605	7.59
427.811	7.61
428.016	7.62
428.221	7.6
428.426	7.66
428.631	7.66
428.836	7.7
429.041	7.64
429.246	7.82
429.451	7.94
429.656	8.02
429.861	8.12
430.066	8.23
430.271	8.35
430.476	8.38
430.681	8.32
430.886	8.34
431.09	8.37
431.295	8.42
431.5	8.35
431.705	8.35
431.91	8.33
432.115	8.29
432.32	8.28
432.524	8.19
432.729	8.26
432.934	8.3
433.139	8.33
433.343	8.3
433.548	8.4
433.753	8.49
433.958	8.49
434.162	8.57
434.367	8.6
434.572	8.72
434.776	8.86
434.981	8.95
435.186	9.04
435.39	9.14
435.595	9.23
435.799	9.25
436.004	9.19
436.209	9.2
436.413	9.14
436.618	9.17
436.822	9.04
437.027	8.83
437.231	8.66
437.436	8.61
437.64	8.61
437.845	8.6
438.049	8.4
438.253	8.43
438.458	8.34
438.662	8.34
438.867	8.26
439.071	8.21
439.275	8.32
439.48	8.36
439.684	8.35
439.888	8.29
440.093	8.19
440.297	8.28
440.501	8.28
440.706	8.31
440.91	8.35
441.114	8.35
441.318	8.4
441.523	8.35
441.727	8.36
441.931	8.42
442.135	8.44
442.339	8.57
442.543	8.46
442.748	8.49
442.952	8.45
443.156	8.37
443.36	8.37
443.564	8.39
443.768	8.39
443.972	8.47
444.176	8.41
444.38	8.38
444.584	8.31
444.788	8.46
444.992	8.48
445.196	8.46
445.4	8.44
445.604	8.37
445.808	8.32
446.012	8.35
446.216	8.31
446.42	8.3
446.624	8.27
446.828	8.32
447.032	8.26
447.235	8.24
447.439	8.32
447.643	8.34
447.847	8.44
448.051	8.39
448.254	8.35
448.458	8.32
448.662	8.29
448.866	8.32
449.069	8.22
449.273	8.25
449.477	8.24
449.681	8.14
449.884	8.11
450.088	8.09
450.292	8.33
450.495	8.3
450.699	8.24
450.902	8.34
451.106	8.36
451.31	8.37
451.513	8.32
451.717	8.29
451.92	8.48
452.124	8.52
452.327	8.59
452.531	8.49
452.734	8.58
452.938	8.59
453.141	8.53
453.345	8.55
453.548	8.54
453.752	8.63
453.955	8.71
454.158	8.72
454.362	8.68
454.565	8.63
454.769	8.64
454.972	8.73
455.175	8.75
455.379	8.77
455.582	8.73
455.785	8.68
455.988	8.53
456.192	8.47
456.395	8.3
456.598	8.33
456.801	8.39
457.005	8.3
457.208	8.1
457.411	8.14
457.614	8.16
457.817	8.13
458.021	8.22
458.224	8.26
458.427	8.23
458.63	8.34
458.833	8.29
459.036	8.17
459.239	8.17
459.442	8.24
459.645	8.18
459.848	8.19
460.051	8.17
460.254	8.15
460.457	8.18
460.66	8.23
460.863	8.16
461.066	8.2
461.269	8.25
461.472	8.26
461.675	8.28
461.878	8.29
462.081	8.28
462.284	8.38
462.486	8.5
462.689	8.48
462.892	8.52
463.095	8.64
463.298	8.68
463.5	8.61
463.703	8.67
463.906	8.6
464.109	8.63
464.311	8.68
464.514	8.56
464.717	8.53
464.92	8.48
465.122	8.42
465.325	8.39
465.528	8.46
465.73	8.63
465.933	8.58
466.135	8.62
466.338	8.63
466.541	8.53
466.743	8.62
466.946	8.66
467.148	8.69
467.351	8.8
467.553	8.78
467.756	8.71
467.958	8.61
468.161	8.64
468.363	8.69
468.566	8.75
468.768	8.81
468.971	8.8
469.173	8.65
469.375	8.61
469.578	8.52
469.78	8.38
469.983	8.49
470.185	8.6
470.387	8.55
470.59	8.41
470.792	8.36
470.994	8.38
471.196	8.48
471.399	8.64
471.601	8.7
471.803	8.78
472.005	8.82
