Data from 2938848__Reflection_01.txt Node
Date: Wed Mar 11 13:35:12 EDT 2015
User: robert
Spectrometer: USB4E03002
Autoset integration time: false
Trigger mode: 4
Integration Time (sec): 1.000000E-1
Scans to average: 10
Electric dark correction enabled: false
Nonlinearity correction enabled: false
Boxcar width: 5
Stray light correction enabled: false
XAxis mode: Wavelengths
Stop averaging: false
Number of Pixels in Spectrum: 3648
>>>>>Begin Spectral Data<<<<<
177.575	637.04
177.794	-385.42
178.014	-163.7
178.233	-325
178.452	-166.42
178.672	-8.54
178.891	-3.19
179.11	33.99
179.33	32.96
179.549	25.31
179.768	31.25
179.987	-48.4
180.207	-29.92
180.426	-58.3
180.645	-99.15
180.864	-90.82
181.084	-332.98
181.303	-1545.24
181.522	-622.12
181.741	-380.47
181.96	-469.5
182.179	-1232.76
182.398	-817.65
182.618	926.37
182.837	1190.77
183.056	1755.32
183.275	298.93
183.494	236.99
183.713	303.64
183.932	164.96
184.151	188.39
184.37	209.18
184.589	401.32
184.808	443.07
185.027	-821.43
185.246	-324.44
185.465	-14.76
185.684	12.88
185.903	-14.07
186.122	-12.08
186.341	-19.67
186.56	-11.88
186.779	-23.48
186.998	0.48
187.216	19.75
187.435	-0
187.654	10.98
187.873	0.49
188.092	-10.15
188.311	3.02
188.53	8.92
188.748	5.17
188.967	13.25
189.186	24.63
189.405	4.09
189.623	2.56
189.842	6.85
190.061	7.98
190.28	2.56
190.498	5.72
190.717	-2.07
190.936	-23.15
191.154	-7.57
191.373	-6.18
191.592	-14.65
191.81	-2.09
192.029	-16.05
192.248	-42.48
192.466	-98.07
192.685	-108.33
192.904	-113.19
193.122	-107.74
193.341	-289.51
193.559	-339.33
193.778	-730.86
193.996	-418.66
194.215	-330.49
194.433	-168.61
194.652	-124.44
194.87	-115.98
195.089	-108.28
195.307	-110.99
195.526	-161.42
195.744	-62.06
195.963	-71.38
196.181	-72.5
196.399	-71.91
196.618	-52.65
196.836	-50.46
197.055	-27.94
197.273	-12.38
197.491	-38.2
197.71	-48.86
197.928	-15.24
198.146	-28
198.365	-27.74
198.583	-4.26
198.801	9.12
199.019	11.91
199.238	10.18
199.456	7.21
199.674	-10.13
199.892	34.99
200.111	36.48
200.329	24.74
200.547	33.78
200.765	18.49
200.983	-24.45
201.202	-41.84
201.42	-46.94
201.638	-49.88
201.856	-53.48
202.074	-70.17
202.292	-106.15
202.51	-155.42
202.728	-214.32
202.946	-155.44
203.165	-171.32
203.383	-105
203.601	-126.97
203.819	-162.02
204.037	-182.01
204.255	-109.23
204.473	-120.72
204.691	-107.66
204.909	-116.87
205.127	-86.73
205.345	-145.09
205.562	-87.17
205.78	-122.41
205.998	-204.96
206.216	-202.2
206.434	-75.24
206.652	-59.64
206.87	-35.89
207.088	-25.03
207.306	-16.47
207.523	-7.11
207.741	-4.96
207.959	-17.14
208.177	-4.77
208.395	-5.37
208.612	-12.09
208.83	-52.4
209.048	-58.41
209.266	-48.87
209.483	-75.43
209.701	-85.96
209.919	-66.1
210.136	-87.85
210.354	-37.17
210.572	-38.52
210.79	-52.64
211.007	-56.24
211.225	-44.1
211.442	-52.87
211.66	-102.66
211.878	-75.08
212.095	-174.39
212.313	-200
212.53	-151.03
212.748	-127.19
212.966	-125.03
213.183	-100.52
213.401	-65.32
213.618	-72.7
213.836	-58.59
214.053	-45.86
214.271	-54.43
214.488	0.43
214.705	-6.92
214.923	-14.58
215.14	-27.28
215.358	-29.61
215.575	-23.84
215.793	-32.83
216.01	-46.41
216.227	-36.52
216.445	-22.66
216.662	-14.36
216.879	-17.78
217.097	-12.97
217.314	-6.29
217.531	-4.18
217.749	2.28
217.966	-1.84
218.183	12.66
218.4	21.43
218.618	12.12
218.835	15.2
219.052	11.24
219.269	23.84
219.487	29.96
219.704	21.2
219.921	17.46
220.138	19.49
220.355	20.81
220.572	11.54
220.79	10.43
221.007	16.11
221.224	5.73
221.441	2.97
221.658	1.55
221.875	-4.46
222.092	-0.99
222.309	-1.51
222.526	-6.34
222.743	-7.61
222.96	-9.22
223.177	-10.28
223.394	-9.56
223.611	-6.77
223.828	-0.19
224.045	-0.13
224.262	2.32
224.479	6.37
224.696	8.05
224.913	12.06
225.13	13.85
225.347	12.38
225.564	10.29
225.781	5.96
225.997	7.2
226.214	5.67
226.431	5.64
226.648	5.15
226.865	2.16
227.082	3.27
227.298	2.12
227.515	2.29
227.732	2.55
227.949	2.7
228.165	2.81
228.382	2.35
228.599	1.89
228.816	2.06
229.032	2.3
229.249	2.19
229.466	1.11
229.682	0.25
229.899	0.01
230.116	-0.14
230.332	0.14
230.549	-0.01
230.765	-0.05
230.982	-0.34
231.199	-1.66
231.415	-2.21
231.632	-2.43
231.848	-3.29
232.065	-1.24
232.281	-1.42
232.498	-0.59
232.714	-2.94
232.931	-2.61
233.147	-3.33
233.364	-2.47
233.58	-1.26
233.797	0.29
234.013	0.82
234.23	1.68
234.446	1.68
234.662	0.85
234.879	-1.02
235.095	1.44
235.312	2.16
235.528	2.73
235.744	2.38
235.961	1.02
236.177	0.37
236.393	0.82
236.61	0.03
236.826	0.31
237.042	0.94
237.258	0.64
237.475	-0.36
237.691	-0.55
237.907	0.35
238.123	0.15
238.339	2.32
238.556	0.61
238.772	0.24
238.988	2.27
239.204	1.44
239.42	1.96
239.636	2.65
239.853	2.72
240.069	2.53
240.285	2.99
240.501	3.44
240.717	3.27
240.933	3.99
241.149	3.75
241.365	2.96
241.581	2.71
241.797	1.96
242.013	2.48
242.229	2.39
242.445	2.49
242.661	1.9
242.877	1.59
243.093	1.06
243.309	0.69
243.525	0.91
243.741	1.43
243.957	1.48
244.173	1.48
244.388	1.08
244.604	1.55
244.82	0.91
245.036	1.21
245.252	1.6
245.468	2.46
245.683	3.02
245.899	2.88
246.115	3.11
246.331	3.18
246.547	3.28
246.762	3.07
246.978	2.92
247.194	3.35
247.409	3.41
247.625	3.59
247.841	3.28
248.057	3.22
248.272	3.05
248.488	2.56
248.703	2.53
248.919	2.48
249.135	2.71
249.35	2.48
249.566	1.73
249.782	1.46
249.997	0.72
250.213	1.19
250.428	0.48
250.644	1.03
250.859	0.88
251.075	0.73
251.29	1.01
251.506	1.01
251.721	1.31
251.937	1.82
252.152	2.1
252.368	2.33
252.583	1.6
252.798	1.58
253.014	1.67
253.229	1.74
253.445	1.9
253.66	1.47
253.875	1.89
254.091	0.82
254.306	1.39
254.521	0.42
254.737	1.34
254.952	1.11
255.167	1.43
255.383	0.93
255.598	0.48
255.813	0.43
256.028	0.65
256.244	0.92
256.459	2.8
256.674	1.82
256.889	1.92
257.104	0.85
257.32	1.2
257.535	1.2
257.75	1.26
257.965	2.05
258.18	2.2
258.395	2.5
258.61	2.39
258.826	1.88
259.041	1.83
259.256	1.99
259.471	1.97
259.686	2.1
259.901	2.28
260.116	2.43
260.331	2.39
260.546	2.51
260.761	2.2
260.976	1.98
261.191	2.07
261.406	2.29
261.621	2.26
261.836	2.21
262.05	1.86
262.265	1.42
262.48	0.92
262.695	0.38
262.91	-0.14
263.125	0.04
263.34	0.13
263.555	0.21
263.769	0.02
263.984	-0.01
264.199	0.34
264.414	1.11
264.629	1.57
264.843	1.59
265.058	2
265.273	2.11
265.488	1.61
265.702	1.31
265.917	2.16
266.132	1.76
266.346	2.32
266.561	2.36
266.776	2.22
266.99	1.94
267.205	1.59
267.42	1.74
267.634	1.82
267.849	2.51
268.063	2.87
268.278	2.18
268.492	2.61
268.707	2.25
268.922	2.07
269.136	1.87
269.351	1.61
269.565	1.92
269.78	1.61
269.994	1.45
270.209	1.45
270.423	1.33
270.637	1.37
270.852	1.08
271.066	0.91
271.281	1.05
271.495	1.23
271.709	1.22
271.924	1.85
272.138	1.73
272.353	1.5
272.567	1.21
272.781	1.3
272.996	1.06
273.21	1.18
273.424	1.45
273.638	1.19
273.853	1.19
274.067	1.93
274.281	1.74
274.495	1.95
274.71	2.05
274.924	2.12
275.138	2.16
275.352	2.52
275.566	2.67
275.781	1.95
275.995	2.1
276.209	1.89
276.423	1.52
276.637	0.92
276.851	0.92
277.065	1.04
277.279	0.8
277.493	0.47
277.707	0.2
277.921	-0.05
278.135	0.35
278.349	0.46
278.563	0.13
278.777	0.38
278.991	0.86
279.205	0.57
279.419	0.64
279.633	0.71
279.847	1.2
280.061	1.34
280.275	1.78
280.489	1.86
280.703	1.91
280.917	2.35
281.131	2.08
281.344	1.98
281.558	2.12
281.772	2.05
281.986	2.31
282.2	1.94
282.414	1.79
282.627	1.61
282.841	1.79
283.055	1.85
283.269	1.87
283.482	1.81
283.696	1.85
283.91	1.82
284.123	1.89
284.337	1.97
284.551	2.1
284.764	2.11
284.978	2.13
285.192	2.28
285.405	2.22
285.619	2.2
285.833	2.31
286.046	2.18
286.26	2.29
286.473	2.32
286.687	2.23
286.9	2.38
287.114	2.82
287.327	2.97
287.541	2.89
287.754	3.15
287.968	2.92
288.181	3.21
288.395	3.1
288.608	3.11
288.822	3.05
289.035	2.97
289.248	2.92
289.462	2.73
289.675	2.67
289.889	2.53
290.102	2.31
290.315	2.29
290.529	2.05
290.742	2.1
290.955	1.87
291.169	2
291.382	2.33
291.595	2.45
291.808	2.27
292.022	2.23
292.235	2.07
292.448	2.14
292.661	2.32
292.875	2.25
293.088	2.74
293.301	3.05
293.514	2.95
293.727	2.76
293.94	2.61
294.153	2.61
294.367	2.75
294.58	3.12
294.793	2.99
295.006	2.97
295.219	3.02
295.432	2.71
295.645	2.96
295.858	3.18
296.071	2.99
296.284	3.1
296.497	3.17
296.71	3.21
296.923	3.2
297.136	3.35
297.349	3.49
297.562	3.62
297.775	3.63
297.988	3.55
298.201	3.47
298.414	3.63
298.626	3.66
298.839	3.84
299.052	3.79
299.265	3.81
299.478	3.93
299.691	4.05
299.903	3.96
300.116	4.32
300.329	4.57
300.542	4.66
300.755	5.05
300.967	5.03
301.18	5.08
301.393	5.18
301.605	5.36
301.818	5.47
302.031	5.76
302.243	6.02
302.456	5.87
302.669	5.53
302.881	5.74
303.094	5.51
303.307	5.72
303.519	5.68
303.732	5.61
303.944	5.66
304.157	5.55
304.37	5.59
304.582	5.6
304.795	5.46
305.007	5.82
305.22	5.99
305.432	6.38
305.645	6.21
305.857	5.8
306.069	5.65
306.282	5.56
306.494	5.54
306.707	5.11
306.919	5.15
307.132	5.5
307.344	5.65
307.556	5.28
307.769	5.27
307.981	5.45
308.193	5.97
308.406	6.4
308.618	6.63
308.83	6.83
309.043	7.06
309.255	6.97
309.467	6.95
309.679	7.03
309.892	7.12
310.104	7.5
310.316	7.61
310.528	7.67
310.74	7.78
310.953	7.67
311.165	7.49
311.377	7.66
311.589	7.68
311.801	7.85
312.013	7.65
312.225	7.79
312.437	7.49
312.649	7.63
312.862	7.65
313.074	7.57
313.286	7.45
313.498	8.05
313.71	7.94
313.922	7.89
314.134	7.81
314.346	7.62
314.558	7.94
314.77	7.79
314.982	7.56
315.193	7.75
315.405	7.67
315.617	7.74
315.829	7.2
316.041	7.35
316.253	7.39
316.465	7.5
316.677	7.9
316.888	7.62
317.1	7.7
317.312	7.6
317.524	7.6
317.736	7.33
317.947	7.77
318.159	8.27
318.371	8.07
318.583	8.72
318.794	9.01
319.006	9.25
319.218	9.36
319.43	9.25
319.641	9.34
319.853	9.21
320.064	9.59
320.276	9.55
320.488	9.58
320.699	9.55
320.911	9.77
321.123	9.71
321.334	9.38
321.546	9.6
321.757	10
321.969	10.3
322.18	10.33
322.392	10.93
322.603	10.74
322.815	10.6
323.026	10.76
323.238	10.36
323.449	10.12
323.661	10.38
323.872	10.38
324.083	10.18
324.295	10.28
324.506	10.11
324.718	9.84
324.929	10.05
325.14	9.76
325.352	10.05
325.563	10.38
325.774	10.52
325.986	10.49
326.197	10.24
326.408	10.41
326.62	10.16
326.831	10.66
327.042	10.58
327.253	10.49
327.464	10.67
327.676	10.49
327.887	10.46
328.098	10.76
328.309	10.74
328.52	10.93
328.732	10.82
328.943	11.25
329.154	11.44
329.365	11.74
329.576	12.13
329.787	12.28
329.998	12.59
330.209	12.72
330.42	12.71
330.631	13.02
330.842	13.21
331.053	13.58
331.264	13.58
331.475	13.7
331.686	13.69
331.897	13.88
332.108	13.8
332.319	13.92
332.53	13.79
332.741	13.71
332.952	13.61
333.163	13.76
333.374	14.03
333.585	13.84
333.795	13.81
334.006	13.88
334.217	13.77
334.428	14.26
334.639	14.04
334.849	14.4
335.06	14.46
335.271	14.59
335.482	14.9
335.692	14.71
335.903	14.82
336.114	14.76
336.325	14.78
336.535	14.62
336.746	14.37
336.957	14.15
337.167	13.71
337.378	13.72
337.589	13.79
337.799	13.43
338.01	13.52
338.22	13.58
338.431	13.47
338.642	13.43
338.852	13.52
339.063	13.46
339.273	13.72
339.484	13.86
339.694	13.98
339.905	14.13
340.115	14.22
340.326	14.24
340.536	13.92
340.746	13.93
340.957	13.79
341.167	13.84
341.378	14.21
341.588	14.31
341.799	14.5
342.009	14.31
342.219	14.14
342.43	14.13
342.64	14.04
342.85	14.07
343.061	14.24
343.271	14.48
343.481	14.25
343.691	13.82
343.902	14.17
344.112	13.79
344.322	13.68
344.532	13.59
344.743	13.47
344.953	13.32
345.163	13.66
345.373	13.43
345.583	13.21
345.793	13.42
346.004	13.72
346.214	13.18
346.424	13.6
346.634	13.65
346.844	13.82
347.054	13.7
347.264	13.83
347.474	13.63
347.684	13.87
347.894	13.81
348.104	13.64
348.314	13.57
348.524	13.87
348.734	13.59
348.944	13.65
349.154	13.53
349.364	13.75
349.574	13.62
349.784	13.57
349.994	13.38
350.204	13.5
350.413	13.54
350.623	13.29
350.833	13.18
351.043	12.82
351.253	12.76
351.463	12.79
351.672	12.65
351.882	12.78
352.092	12.87
352.302	12.68
352.511	12.73
352.721	12.62
352.931	12.89
353.141	12.89
353.35	13.2
353.56	13.23
353.77	13.2
353.979	13.18
354.189	13.02
354.399	12.86
354.608	13.08
354.818	13.17
355.027	13.45
355.237	13.28
355.447	13.11
355.656	13.13
355.866	12.93
356.075	13.1
356.285	13.25
356.494	13.31
356.704	13.52
356.913	13.58
357.123	13.32
357.332	13.14
357.542	13.24
357.751	13.4
357.96	13.44
358.17	13.71
358.379	13.52
358.589	13.33
358.798	13.32
359.007	13.06
359.217	13.05
359.426	13.33
359.635	13.31
359.845	13.02
360.054	12.98
360.263	13.12
360.472	13.03
360.682	12.69
360.891	12.8
361.1	12.8
361.309	12.9
361.519	12.75
361.728	12.64
361.937	12.79
362.146	12.84
362.355	12.69
362.564	12.53
362.774	12.55
362.983	12.78
363.192	12.75
363.401	12.74
363.61	12.75
363.819	12.53
364.028	12.49
364.237	12.34
364.446	12.53
364.655	12.75
364.864	12.76
365.073	12.72
365.282	12.7
365.491	12.76
365.7	12.9
365.909	12.75
366.118	12.92
366.327	12.86
366.536	12.78
366.745	12.37
366.954	12.31
367.162	12.59
367.371	12.42
367.58	12.42
367.789	12.37
367.998	12.17
368.207	12.2
368.415	12.2
368.624	12.21
368.833	12.09
369.042	12.54
369.25	12.41
369.459	11.97
369.668	12.16
369.877	12.08
370.085	11.78
370.294	11.84
370.503	11.81
370.711	11.75
370.92	11.66
371.129	11.84
371.337	11.61
371.546	11.59
371.754	11.67
371.963	11.52
372.171	11.6
372.38	11.76
372.589	11.6
372.797	11.75
373.006	11.82
373.214	11.88
373.423	11.66
373.631	11.64
373.84	11.59
374.048	11.44
374.256	11.48
374.465	11.27
374.673	11.12
374.882	11.44
375.09	11.43
375.298	11.33
375.507	11.28
375.715	11.35
375.923	11.27
376.132	11.32
376.34	11.42
376.548	11.28
376.757	11.54
376.965	11.77
377.173	11.59
377.381	11.6
377.59	11.73
377.798	11.87
378.006	11.99
378.214	12.01
378.423	12
378.631	11.81
378.839	11.98
379.047	11.85
379.255	11.71
379.463	11.66
379.671	11.5
379.879	11.36
380.088	11.33
380.296	11.07
380.504	11.24
380.712	11.33
380.92	11.31
381.128	11.07
381.336	11.15
381.544	11.32
381.752	11.26
381.96	11.37
382.168	11.54
382.376	11.33
382.584	11.4
382.791	11.23
382.999	11.09
383.207	11.21
383.415	11.27
383.623	11.06
383.831	10.89
384.039	11.04
384.247	10.81
384.454	10.92
384.662	11.03
384.87	11.24
385.078	11.36
385.285	11.27
385.493	11.3
385.701	11.34
385.909	11.67
386.116	11.74
386.324	11.71
386.532	11.96
386.739	11.69
386.947	11.54
387.155	11.53
387.362	11.52
387.57	11.61
387.778	11.64
387.985	11.56
388.193	11.37
388.4	11.08
388.608	10.89
388.816	10.86
389.023	10.8
389.231	10.93
389.438	10.79
389.646	10.63
389.853	10.69
390.061	10.62
390.268	10.76
390.475	10.72
390.683	10.94
390.89	11.01
391.098	10.91
391.305	10.89
391.512	10.85
391.72	10.85
391.927	10.82
392.135	10.7
392.342	10.7
392.549	10.74
392.756	10.65
392.964	10.64
393.171	10.75
393.378	10.73
393.586	10.78
393.793	10.69
394	10.59
394.207	10.69
394.414	10.81
394.622	10.88
394.829	10.77
395.036	10.76
395.243	10.78
395.45	10.5
395.657	10.63
395.864	10.75
396.072	10.91
396.279	11.07
396.486	11.16
396.693	10.96
396.9	10.94
397.107	10.89
397.314	11.06
397.521	10.93
397.728	11.06
397.935	11.03
398.142	10.94
398.349	10.9
398.556	10.74
398.763	10.53
398.97	10.57
399.177	10.56
399.383	10.64
399.59	10.75
399.797	11.02
400.004	11.03
400.211	11.06
400.418	11
400.625	11.07
400.831	11.24
401.038	11.3
401.245	11.4
401.452	11.3
401.658	11.32
401.865	11.1
402.072	10.91
402.279	10.94
402.485	10.91
402.692	11
402.899	10.8
403.105	10.8
403.312	10.81
403.519	10.76
403.725	10.73
403.932	10.7
404.138	10.67
404.345	10.73
404.552	10.67
404.758	10.59
404.965	10.61
405.171	10.65
405.378	10.72
405.584	10.76
405.791	10.84
405.997	11.03
406.204	11.08
406.41	11.05
406.617	10.87
406.823	10.83
407.029	10.92
407.236	10.94
407.442	10.96
407.649	10.77
407.855	10.78
408.061	10.68
408.268	10.61
408.474	10.64
408.68	10.82
408.887	10.86
409.093	10.98
409.299	11.02
409.505	10.81
409.712	10.76
409.918	10.83
410.124	10.86
410.33	10.88
410.537	10.91
410.743	10.79
410.949	10.81
411.155	10.74
411.361	10.71
411.567	10.73
411.773	10.96
411.98	11.02
412.186	11
412.392	10.99
412.598	11.23
412.804	11.27
413.01	11.36
413.216	11.4
413.422	11.53
413.628	11.55
413.834	11.39
414.04	11.34
414.246	11.36
414.452	11.36
414.658	11.37
414.864	11.09
415.07	11.03
415.275	11.04
415.481	11.02
415.687	10.99
415.893	11.02
416.099	11.04
416.305	10.94
416.511	10.9
416.716	10.95
416.922	10.99
417.128	11.01
417.334	11.02
417.539	11.01
417.745	10.99
417.951	11.09
418.157	11.06
418.362	11.1
418.568	11.07
418.774	11.1
418.979	11.04
419.185	11.01
419.391	11.04
419.596	11.05
419.802	11.04
420.008	10.99
420.213	11.01
420.419	10.99
420.624	10.94
420.83	11.01
421.035	11
421.241	11.07
421.446	11.11
421.652	11.13
421.857	11.13
422.063	11.18
422.268	11.18
422.474	11.14
422.679	11.21
422.885	11.27
423.09	11.29
423.295	11.31
423.501	11.22
423.706	11.18
423.911	11.29
424.117	11.25
424.322	11.24
424.527	11.34
424.733	11.44
424.938	11.42
425.143	11.4
425.349	11.35
425.554	11.41
425.759	11.49
425.964	11.47
426.169	11.4
426.375	11.38
426.58	11.37
426.785	11.31
426.99	11.27
427.195	11.32
427.4	11.31
427.605	11.37
427.811	11.29
428.016	11.29
428.221	11.35
428.426	11.38
428.631	11.56
428.836	11.56
429.041	11.54
429.246	11.5
429.451	11.49
429.656	11.61
429.861	11.67
430.066	11.7
430.271	11.75
430.476	11.82
430.681	11.72
430.886	11.63
431.09	11.56
431.295	11.64
431.5	11.65
431.705	11.73
431.91	11.67
432.115	11.66
432.32	11.69
432.524	11.7
432.729	11.66
432.934	11.77
433.139	11.78
433.343	11.93
433.548	11.88
433.753	11.91
433.958	11.88
434.162	11.99
434.367	11.93
434.572	11.95
434.776	12.07
434.981	12.11
435.186	12.05
435.39	12.07
435.595	12
435.799	12.01
436.004	12
436.209	11.91
436.413	11.77
436.618	11.85
436.822	11.92
437.027	11.8
437.231	11.86
437.436	11.89
437.64	11.94
437.845	11.92
438.049	11.95
438.253	12
438.458	12.03
438.662	12.12
438.867	12.12
439.071	12.08
439.275	12.23
439.48	12.22
439.684	12.21
439.888	12.25
440.093	12.25
440.297	12.24
440.501	12.21
440.706	12.2
440.91	12.2
441.114	12.19
441.318	12.2
441.523	12.08
441.727	12.12
441.931	12.18
442.135	12.1
442.339	12.1
442.543	12.13
442.748	12.11
442.952	12.19
443.156	12.1
443.36	12.07
443.564	12.12
443.768	12.06
443.972	11.99
444.176	12.07
444.38	12.06
444.584	12.08
444.788	12.09
444.992	12.15
445.196	12.12
445.4	12.13
445.604	12.2
445.808	12.15
446.012	12.17
446.216	12.11
446.42	11.98
446.624	11.99
446.828	11.95
447.032	11.97
447.235	11.87
447.439	11.88
447.643	11.94
447.847	11.93
448.051	11.91
448.254	11.94
448.458	11.93
448.662	12
448.866	12.09
449.069	12.12
449.273	12.08
449.477	12.07
449.681	12.06
449.884	12
450.088	11.98
450.292	11.98
450.495	11.99
450.699	12.08
450.902	12.09
451.106	12.04
451.31	12.02
451.513	12.13
451.717	12.15
451.92	12.14
452.124	12.17
452.327	12.14
452.531	12.16
452.734	12.19
452.938	12.14
453.141	12.09
453.345	12.12
453.548	12.14
453.752	12.07
453.955	12.07
454.158	12.08
454.362	12.11
454.565	12.17
454.769	12.25
454.972	12.24
455.175	12.35
455.379	12.34
455.582	12.36
455.785	12.27
455.988	12.33
456.192	12.48
456.395	12.47
456.598	12.46
456.801	12.45
457.005	12.42
457.208	12.46
457.411	12.38
457.614	12.46
457.817	12.42
458.021	12.52
458.224	12.41
458.427	12.32
458.63	12.26
458.833	12.21
459.036	12.18
459.239	12.09
459.442	12.03
459.645	11.98
459.848	12
460.051	12.01
460.254	11.98
460.457	12.03
