Data from 2938798__Reflection_01.txt Node
Date: Thu Mar 12 23:03:14 EDT 2015
User: robert
Spectrometer: USB4E03002
Autoset integration time: false
Trigger mode: 4
Integration Time (sec): 1.000000E-1
Scans to average: 10
Electric dark correction enabled: false
Nonlinearity correction enabled: false
Boxcar width: 5
Stray light correction enabled: false
XAxis mode: Wavelengths
Stop averaging: false
Number of Pixels in Spectrum: 3648
>>>>>Begin Spectral Data<<<<<
177.575	973.83
177.794	2930.56
178.014	859.62
178.233	947.33
178.452	459.84
178.672	455.69
178.891	546.07
179.11	492.15
179.33	451.56
179.549	457.58
179.768	343.42
179.987	279.25
180.207	258.92
180.426	293.96
180.645	319.34
180.864	316.28
181.084	371.13
181.303	228.56
181.522	198.98
181.741	166.29
181.96	164.93
182.179	179.49
182.398	192.39
182.618	182.65
182.837	167.32
183.056	174.6
183.275	172.52
183.494	152.41
183.713	157.11
183.932	163.44
184.151	193.35
184.37	178
184.589	173.54
184.808	176.05
185.027	171.76
185.246	175.59
185.465	155.07
185.684	182.63
185.903	181.19
186.122	192
186.341	211.64
186.56	194
186.779	196.29
186.998	196.17
187.216	190.44
187.435	199.93
187.654	202.84
187.873	220.71
188.092	205.07
188.311	226.32
188.53	222.95
188.748	218.43
188.967	220.89
189.186	231.77
189.405	238.36
189.623	232.71
189.842	208.49
190.061	190.26
190.28	183.89
190.498	169.34
190.717	160.62
190.936	163.47
191.154	145.32
191.373	150.87
191.592	138.1
191.81	137.94
192.029	137.85
192.248	142.98
192.466	137.41
192.685	133.43
192.904	152.79
193.122	152.94
193.341	167.4
193.559	186.32
193.778	186.82
193.996	206.58
194.215	203.66
194.433	233.92
194.652	268.35
194.87	309.12
195.089	338.11
195.307	285.65
195.526	254.47
195.744	259.24
195.963	239.95
196.181	265.16
196.399	267.64
196.618	239.15
196.836	222.63
197.055	198.35
197.273	195.67
197.491	185.03
197.71	190.38
197.928	207.23
198.146	192.47
198.365	175.35
198.583	169.53
198.801	160.56
199.019	203.3
199.238	189.59
199.456	200.16
199.674	208.41
199.892	199.61
200.111	201.91
200.329	208.09
200.547	238.09
200.765	272.11
200.983	229.6
201.202	217.57
201.42	181.03
201.638	193.85
201.856	197
202.074	190.49
202.292	187.88
202.51	166.39
202.728	167.32
202.946	148.82
203.165	152.26
203.383	174.11
203.601	192.38
203.819	198.91
204.037	205.26
204.255	216.78
204.473	204
204.691	216.28
204.909	220.19
205.127	208.25
205.345	214.31
205.562	182.21
205.78	170.6
205.998	180.71
206.216	172.86
206.434	181.92
206.652	165.55
206.87	157.77
207.088	150.51
207.306	157.72
207.523	155.58
207.741	155.19
207.959	172.35
208.177	170.18
208.395	156
208.612	162.76
208.83	143.1
209.048	149.14
209.266	161.16
209.483	168.36
209.701	158.08
209.919	151.76
210.136	147.42
210.354	148.47
210.572	151.09
210.79	153.69
211.007	153.44
211.225	159.21
211.442	148.47
211.66	142.45
211.878	129.35
212.095	126.62
212.313	127.65
212.53	131.57
212.748	127.86
212.966	131.33
213.183	129.93
213.401	131.78
213.618	133.47
213.836	129.97
214.053	132.24
214.271	138.79
214.488	147.41
214.705	145.42
214.923	148.93
215.14	147.36
215.358	150.48
215.575	166.26
215.793	151.97
216.01	153.25
216.227	158.82
216.445	163.05
216.662	187.16
216.879	167.02
217.097	184
217.314	151.04
217.531	147.45
217.749	146.31
217.966	142.05
218.183	150.82
218.4	131.91
218.618	133.77
218.835	127.01
219.052	117.38
219.269	116.17
219.487	112.68
219.704	118.24
219.921	117.49
220.138	114.34
220.355	108.71
220.572	111.4
220.79	108.02
221.007	98.93
221.224	95.39
221.441	92.58
221.658	89.98
221.875	83.9
222.092	80.78
222.309	77.94
222.526	77.2
222.743	74.79
222.96	68.07
223.177	67.57
223.394	68.57
223.611	70.09
223.828	66.58
224.045	66.18
224.262	66.13
224.479	67.51
224.696	66.04
224.913	62.66
225.13	62.07
225.347	59.22
225.564	58.69
225.781	57.99
225.997	53.72
226.214	50.48
226.431	46.34
226.648	39.67
226.865	35.4
227.082	31.17
227.298	27.24
227.515	23.3
227.732	21.31
227.949	19.17
228.165	17.01
228.382	16.03
228.599	15.82
228.816	15.49
229.032	15.73
229.249	15.05
229.466	14.44
229.682	13.64
229.899	13.75
230.116	13.54
230.332	13.51
230.549	13.81
230.765	13.95
230.982	13.79
231.199	14.32
231.415	14.98
231.632	16.49
231.848	17.94
232.065	20.52
232.281	21.18
232.498	21.61
232.714	22.99
232.931	24.53
233.147	23.76
233.364	24.23
233.58	23.77
233.797	23.9
234.013	22.61
234.23	22.17
234.446	22.18
234.662	21.42
234.879	22.31
235.095	21.9
235.312	20.1
235.528	22.65
235.744	23.65
235.961	23
236.177	22.32
236.393	22.9
236.61	23.92
236.826	22.78
237.042	24.36
237.258	24.58
237.475	25.4
237.691	27.55
237.907	26.58
238.123	25.74
238.339	25.95
238.556	25.7
238.772	25.59
238.988	25.23
239.204	26.62
239.42	26.76
239.636	25.06
239.853	23.19
240.069	21.32
240.285	20.03
240.501	18.52
240.717	17.65
240.933	16.05
241.149	14.86
241.365	13.7
241.581	12.66
241.797	12.03
242.013	12.09
242.229	12.29
242.445	12.26
242.661	11.96
242.877	12.18
243.093	12.28
243.309	13.02
243.525	13.08
243.741	13.34
243.957	13.46
244.173	12.78
244.388	13.22
244.604	12.83
244.82	12.74
245.036	12.4
245.252	12
245.468	11.58
245.683	11.03
245.899	11.22
246.115	10.7
246.331	10.26
246.547	10.42
246.762	9.77
246.978	9.49
247.194	9.09
247.409	9.12
247.625	9.07
247.841	8.99
248.057	9.09
248.272	8.74
248.488	8.73
248.703	9.14
248.919	8.8
249.135	9.51
249.35	10.23
249.566	11.41
249.782	11.77
249.997	12.47
250.213	13.06
250.428	13.44
250.644	14.05
250.859	14.54
251.075	14.12
251.29	14.72
251.506	13.84
251.721	13.73
251.937	12.6
252.152	12.73
252.368	12.22
252.583	12.37
252.798	12.55
253.014	12.3
253.229	12.7
253.445	12.79
253.66	12.43
253.875	11.95
254.091	11.45
254.306	12.18
254.521	11.72
254.737	12.55
254.952	12.24
255.167	11.67
255.383	11.34
255.598	10.25
255.813	10.55
256.028	11.23
256.244	12.33
256.459	12.52
256.674	12.52
256.889	12.21
257.104	11.78
257.32	11.49
257.535	11.13
257.75	11.55
257.965	11.65
258.18	10.84
258.395	10.37
258.61	9.79
258.826	9.25
259.041	8.64
259.256	8.33
259.471	7.97
259.686	7.68
259.901	7.72
260.116	7.33
260.331	7.2
260.546	7.37
260.761	7.28
260.976	7.33
261.191	7.44
261.406	7.69
261.621	8.19
261.836	8.62
262.05	9.14
262.265	9.19
262.48	9.44
262.695	9.18
262.91	9.27
263.125	9.78
263.34	10.15
263.555	10.37
263.769	10.26
263.984	9.93
264.199	10.07
264.414	10.34
264.629	10.34
264.843	11.01
265.058	11.45
265.273	10.9
265.488	10.74
265.702	10.4
265.917	10.45
266.132	10.86
266.346	10.88
266.561	10.39
266.776	10.43
266.99	9.99
267.205	9.47
267.42	9.51
267.634	9.89
267.849	9.54
268.063	9.52
268.278	9.2
268.492	9.04
268.707	9.17
268.922	9.57
269.136	9.06
269.351	9.62
269.565	9.63
269.78	9.35
269.994	9.26
270.209	9.49
270.423	9.33
270.637	9.06
270.852	8.89
271.066	8.58
271.281	8.03
271.495	7.97
271.709	7.61
271.924	7.37
272.138	7.34
272.353	6.98
272.567	6.96
272.781	6.95
272.996	7.17
273.21	7.23
273.424	7.28
273.638	7.59
273.853	7.88
274.067	8.15
274.281	8.84
274.495	8.75
274.71	9.14
274.924	9.27
275.138	9.07
275.352	9.12
275.566	9.02
275.781	9.28
275.995	9.23
276.209	9.15
276.423	9.14
276.637	9.22
276.851	9.48
277.065	9.65
277.279	10.12
277.493	10.73
277.707	10.58
277.921	10.88
278.135	11.01
278.349	10.79
278.563	10.66
278.777	10.68
278.991	9.97
279.205	10.05
279.419	9.35
279.633	8.92
279.847	8.8
280.061	8.6
280.275	8.45
280.489	8.04
280.703	7.96
280.917	8.05
281.131	7.89
281.344	7.85
281.558	7.66
281.772	7.81
281.986	7.11
282.2	6.82
282.414	6.89
282.627	6.78
282.841	6.76
283.055	6.79
283.269	6.83
283.482	7.14
283.696	7.19
283.91	7.29
284.123	7.51
284.337	7.86
284.551	7.69
284.764	8
284.978	7.79
285.192	7.65
285.405	7.84
285.619	7.62
285.833	7.36
286.046	7.43
286.26	7.37
286.473	7.2
286.687	7.19
286.9	7.44
287.114	7.12
287.327	7.46
287.541	7.75
287.754	7.86
287.968	8.03
288.181	8.03
288.395	7.99
288.608	8.06
288.822	8.17
289.035	8.27
289.248	8.08
289.462	7.97
289.675	7.82
289.889	7.48
290.102	7.21
290.315	7.31
290.529	7.53
290.742	7.71
290.955	7.69
291.169	7.69
291.382	7.92
291.595	8.34
291.808	9.03
292.022	9.28
292.235	9.63
292.448	9.81
292.661	9.37
292.875	9.28
293.088	9.45
293.301	9.8
293.514	9.66
293.727	9.4
293.94	9.43
294.153	8.86
294.367	8.68
294.58	8.64
294.793	8.87
295.006	9.58
295.219	9.53
295.432	9.23
295.645	8.76
295.858	8.98
296.071	8.96
296.284	8.85
296.497	8.94
296.71	8.95
296.923	8.9
297.136	8.69
297.349	8.19
297.562	8.17
297.775	8.35
297.988	8.7
298.201	8.79
298.414	8.83
298.626	8.7
298.839	8.8
299.052	8.9
299.265	9.42
299.478	9.62
299.691	10.01
299.903	10
300.116	10.17
300.329	10.14
300.542	10.12
300.755	10.09
300.967	10.85
301.18	11.1
301.393	11.71
301.605	11.27
301.818	11.58
302.031	11.68
302.243	12.08
302.456	12.31
302.669	12.39
302.881	12.51
303.094	12.63
303.307	12.01
303.519	11.98
303.732	11.27
303.944	11.48
304.157	11.68
304.37	11.59
304.582	11.56
304.795	11.31
305.007	11.49
305.22	11.39
305.432	11.43
305.645	11.76
305.857	11.9
306.069	12.22
306.282	12.26
306.494	11.67
306.707	11.93
306.919	12
307.132	12.07
307.344	11.72
307.556	11.84
307.769	12.05
307.981	11.84
308.193	11.73
308.406	11.32
308.618	11.3
308.83	11.35
309.043	11.42
309.255	11.44
309.467	11.29
309.679	11.54
309.892	11.52
310.104	11.29
310.316	11.07
310.528	11.04
310.74	11.04
310.953	10.85
311.165	11.1
311.377	11.14
311.589	10.93
311.801	11.13
312.013	11.2
312.225	11.27
312.437	11.78
312.649	12.3
312.862	12.35
313.074	12.86
313.286	13.43
313.498	13.17
313.71	13.07
313.922	13.2
314.134	13.33
314.346	13.3
314.558	13.4
314.77	13.1
314.982	12.84
315.193	12.88
315.405	12.87
315.617	12.61
315.829	12.72
316.041	13.15
316.253	12.67
316.465	13.13
316.677	13.57
316.888	13.5
317.1	13.27
317.312	13.46
317.524	13.38
317.736	13.03
317.947	13.16
318.159	13.68
318.371	13.21
318.583	14.34
318.794	13.77
319.006	13.51
319.218	13.83
319.43	14.11
319.641	14.55
319.853	14.77
320.064	15.2
320.276	15.31
320.488	15.46
320.699	16.47
320.911	16.04
321.123	16.07
321.334	16.41
321.546	16.64
321.757	17.07
321.969	17.09
322.18	17.16
322.392	17.51
322.603	17.8
322.815	17.81
323.026	17.07
323.238	17.21
323.449	17.54
323.661	17.09
323.872	17.21
324.083	17.31
324.295	17.36
324.506	17.69
324.718	17.53
324.929	17.74
325.14	17.73
325.352	18.26
325.563	19
325.774	19.81
325.986	20.26
326.197	20.42
326.408	20.8
326.62	21.13
326.831	21.74
327.042	22.32
327.253	22.84
327.464	23.34
327.676	23.62
327.887	23.6
328.098	23.81
328.309	24.42
328.52	24.8
328.732	25.21
328.943	25.59
329.154	25.93
329.365	26.66
329.576	27.19
329.787	27.62
329.998	28.61
330.209	29.35
330.42	29.51
330.631	30.09
330.842	30.7
331.053	31.21
331.264	31.5
331.475	31.82
331.686	31.75
331.897	31.71
332.108	32.22
332.319	31.78
332.53	32.17
332.741	32.49
332.952	32.41
333.163	32.66
333.374	32.82
333.585	33.01
333.795	33.51
334.006	33.97
334.217	34.28
334.428	34.17
334.639	34.32
334.849	34.2
335.06	34.01
335.271	34.39
335.482	34.49
335.692	34.74
335.903	34.99
336.114	34.68
336.325	34.91
336.535	35
336.746	35.13
336.957	35.53
337.167	35.72
337.378	35.98
337.589	36.22
337.799	36.2
338.01	35.96
338.22	35.99
338.431	36.1
338.642	35.78
338.852	35.77
339.063	35.88
339.273	35.9
339.484	36.04
339.694	35.99
339.905	35.79
340.115	35.61
340.326	35.71
340.536	35.53
340.746	35.48
340.957	35.43
341.167	35.41
341.378	35.29
341.588	35.1
341.799	34.66
342.009	34.39
342.219	34.34
342.43	34.71
342.64	34.54
342.85	34.48
343.061	34.55
343.271	34.72
343.481	34.38
343.691	34.37
343.902	34.57
344.112	34.76
344.322	34.93
344.532	34.38
344.743	34.32
344.953	34.21
345.163	34.4
345.373	34.27
345.583	33.93
345.793	33.99
346.004	33.79
346.214	33.5
346.424	33.69
346.634	33.64
346.844	33.99
347.054	33.79
347.264	34
347.474	33.78
347.684	33.55
347.894	33.82
348.104	33.81
348.314	34.14
348.524	34.1
348.734	33.89
348.944	34.19
349.154	34.02
349.364	33.83
349.574	33.64
349.784	33.54
349.994	33.84
350.204	33.72
350.413	33.85
350.623	33.5
350.833	33.65
351.043	33.56
351.253	33.05
351.463	33.18
351.672	32.88
351.882	32.78
352.092	32.45
352.302	32.09
352.511	32.3
352.721	32.13
352.931	32.28
353.141	32.27
353.35	32.11
353.56	32.33
353.77	32.32
353.979	32.61
354.189	32.61
354.399	33.08
354.608	33.17
354.818	32.85
355.027	32.85
355.237	32.77
355.447	32.65
355.656	32.77
355.866	32.65
356.075	32.39
356.285	32.18
356.494	32.11
356.704	31.95
356.913	31.72
357.123	31.89
357.332	31.9
357.542	31.66
357.751	31.63
357.96	31.51
358.17	31.37
358.379	31.39
358.589	31.24
358.798	31.35
359.007	31.24
359.217	31.26
359.426	30.92
359.635	30.86
359.845	30.86
360.054	30.5
360.263	30.32
360.472	30.46
360.682	30.4
360.891	30.63
361.1	30.51
361.309	30.56
361.519	30.61
361.728	30.72
361.937	30.67
362.146	30.83
362.355	31.08
362.564	31.19
362.774	31.13
362.983	31.01
363.192	30.88
363.401	30.73
363.61	30.56
363.819	30.57
364.028	30.31
364.237	30.32
364.446	29.99
364.655	29.87
364.864	29.93
365.073	29.8
365.282	29.91
365.491	29.98
365.7	29.99
365.909	30.1
366.118	29.96
366.327	30.14
366.536	30.06
366.745	30.1
366.954	30.02
367.162	29.89
367.371	29.87
367.58	30.12
367.789	30.12
367.998	30.13
368.207	30.32
368.415	30.59
368.624	30.66
368.833	30.5
369.042	30.36
369.25	30.43
369.459	30.61
369.668	30.52
369.877	30.04
370.085	29.78
370.294	29.62
370.503	29.47
370.711	29.19
370.92	28.89
371.129	29.12
371.337	29.11
371.546	28.97
371.754	28.64
371.963	28.72
372.171	28.79
372.38	29.02
372.589	29.36
372.797	29.36
373.006	29.2
373.214	29.37
373.423	29.24
373.631	29.54
373.84	29.69
374.048	29.91
374.256	29.99
374.465	30.22
374.673	30.09
374.882	29.91
375.09	29.71
375.298	29.87
375.507	29.85
375.715	29.8
375.923	29.83
376.132	29.74
376.34	29.5
376.548	29.33
376.757	29.23
376.965	29.24
377.173	29.22
377.381	29.23
377.59	29
377.798	28.87
378.006	28.91
378.214	28.82
378.423	28.74
378.631	28.73
378.839	28.73
379.047	28.62
379.255	28.71
379.463	28.68
379.671	28.72
379.879	28.89
380.088	29.1
380.296	29.22
380.504	29.05
380.712	29.14
380.92	29.05
381.128	29.05
381.336	29.18
381.544	28.97
381.752	29.04
381.96	28.89
382.168	28.69
382.376	28.24
382.584	28.07
382.791	28.25
382.999	28.22
383.207	28.22
383.415	28.2
383.623	28.2
383.831	28.3
384.039	28.4
384.247	28.58
384.454	28.7
384.662	28.93
384.87	28.91
385.078	28.77
385.285	28.88
385.493	29.03
385.701	29.16
385.909	29.06
386.116	29.06
386.324	29.07
386.532	29.16
386.739	29.13
386.947	29.08
387.155	29.03
387.362	29.17
387.57	29.15
387.778	29.22
387.985	29.12
388.193	29.28
388.4	29.2
388.608	29.17
388.816	28.95
389.023	28.98
389.231	29.12
389.438	29.34
389.646	28.98
389.853	28.84
390.061	28.85
390.268	28.86
390.475	28.64
390.683	28.7
390.89	28.44
391.098	28.55
391.305	28.59
391.512	28.46
391.72	28.32
391.927	28.44
392.135	28.66
392.342	28.53
392.549	28.5
392.756	28.33
392.964	28.34
393.171	28.62
393.378	28.51
393.586	28.62
393.793	28.5
394	28.4
394.207	28.45
394.414	28.34
394.622	28.37
394.829	28.54
395.036	28.86
395.243	29
395.45	29.04
395.657	29.18
395.864	29.05
396.072	29.22
396.279	29.39
396.486	29.48
396.693	29.59
396.9	29.45
397.107	29.29
397.314	29.22
397.521	28.98
397.728	28.71
397.935	28.76
398.142	28.73
398.349	28.73
398.556	28.84
398.763	28.76
398.97	28.65
399.177	28.8
399.383	28.83
399.59	28.77
399.797	29.11
400.004	29.28
400.211	29.15
400.418	29.28
400.625	29.4
400.831	29.19
401.038	29.33
401.245	29.17
401.452	29.26
401.658	29.29
401.865	29.48
402.072	29.23
402.279	29.21
402.485	29.2
402.692	29.16
402.899	29.13
403.105	29.29
403.312	29.29
403.519	29.31
403.725	29.21
403.932	29.19
404.138	29.06
404.345	29.08
404.552	28.9
404.758	28.89
404.965	28.91
405.171	28.9
405.378	28.79
405.584	28.74
405.791	28.75
405.997	28.84
406.204	28.86
406.41	29.06
406.617	29.19
406.823	29.27
407.029	29.52
407.236	29.59
407.442	29.71
407.649	29.81
407.855	29.9
408.061	30.13
408.268	30.11
408.474	30.28
408.68	30.07
408.887	29.86
409.093	29.97
409.299	29.93
409.505	29.84
409.712	29.72
409.918	29.66
410.124	29.63
410.33	29.5
410.537	29.36
410.743	29.19
410.949	29.17
411.155	29.37
411.361	29.18
411.567	29.16
411.773	29.15
411.98	29.25
412.186	29.39
412.392	29.46
412.598	29.38
412.804	29.48
413.01	29.48
413.216	29.53
413.422	29.34
413.628	29.6
413.834	29.55
414.04	29.71
414.246	29.58
414.452	29.54
414.658	29.58
414.864	29.62
415.07	29.67
415.275	29.71
415.481	29.66
415.687	29.69
415.893	29.64
416.099	29.65
416.305	29.52
416.511	29.52
416.716	29.35
416.922	29.27
417.128	29.3
417.334	29.2
417.539	29.22
417.745	29.27
417.951	29.31
418.157	29.27
418.362	29.14
418.568	29.11
418.774	29.03
418.979	29.06
419.185	29.06
419.391	29
419.596	29.04
419.802	28.94
420.008	28.89
420.213	28.22
420.419	28.15
420.624	28.21
420.83	28.24
421.035	28.28
421.241	28.29
421.446	28.23
421.652	28.25
421.857	28.22
422.063	28.2
422.268	28.26
422.474	28.87
422.679	28.88
422.885	28.89
423.09	28.82
423.295	28.81
423.501	28.86
423.706	28.9
423.911	28.96
424.117	29.03
424.322	29.1
424.527	28.98
424.733	29.02
424.938	29.02
425.143	28.97
425.349	29.02
425.554	29.07
425.759	29.05
425.964	29.11
426.169	29.07
426.375	29.01
426.58	29.04
426.785	29.1
426.99	29.09
427.195	29.23
427.4	29.31
427.605	29.32
427.811	29.32
428.016	29.31
428.221	29.23
428.426	29.18
428.631	29.2
428.836	29.11
429.041	29.38
429.246	29.46
429.451	29.39
429.656	29.38
429.861	29.42
430.066	29.6
430.271	29.57
430.476	29.5
430.681	29.56
430.886	29.47
431.09	29.56
431.295	29.31
431.5	29.28
431.705	29.17
431.91	29.24
432.115	29.2
432.32	29.12
432.524	29.15
432.729	29.32
432.934	29.26
433.139	29.34
433.343	29.26
433.548	29.41
433.753	29.33
433.958	29.41
434.162	29.44
434.367	29.46
434.572	29.34
434.776	29.35
434.981	29.25
435.186	29.36
435.39	29.43
435.595	29.47
435.799	29.36
436.004	29.33
436.209	29.33
436.413	29.24
436.618	29.28
436.822	29.33
437.027	29.25
437.231	29.34
437.436	29.37
437.64	29.38
437.845	29.39
438.049	29.42
438.253	29.57
438.458	29.56
438.662	29.72
438.867	29.8
439.071	29.81
439.275	29.79
439.48	29.69
439.684	29.56
439.888	29.6
440.093	29.55
440.297	29.52
440.501	29.44
440.706	29.46
440.91	29.37
441.114	29.24
441.318	29.25
441.523	29.28
441.727	29.38
441.931	29.51
442.135	29.44
442.339	29.54
442.543	29.64
442.748	29.65
442.952	29.7
443.156	29.75
443.36	29.75
443.564	29.81
443.768	29.85
443.972	29.81
444.176	29.72
444.38	29.73
444.584	29.75
444.788	29.63
444.992	29.58
445.196	29.6
445.4	29.53
445.604	29.58
445.808	29.55
446.012	29.54
446.216	29.48
446.42	29.47
446.624	29.47
446.828	29.48
447.032	29.49
447.235	29.58
447.439	29.59
447.643	29.69
447.847	29.77
448.051	29.77
448.254	29.83
448.458	29.91
448.662	29.9
448.866	29.85
449.069	29.86
449.273	29.99
449.477	30.02
449.681	29.99
449.884	30
450.088	30.01
450.292	29.97
450.495	29.97
450.699	30.05
450.902	30.23
451.106	30.3
451.31	30.29
451.513	30.26
451.717	30.17
451.92	30.13
452.124	30.07
452.327	30.07
452.531	30.1
452.734	30.18
452.938	30.18
453.141	30.1
453.345	30.16
453.548	30.11
453.752	30.09
453.955	30.3
454.158	30.27
454.362	30.32
454.565	30.24
454.769	30.24
454.972	30.24
455.175	30.16
455.379	30.21
455.582	30.2
455.785	30.25
455.988	30.3
456.192	30.15
456.395	30.3
456.598	30.28
456.801	30.31
457.005	30.31
