Data from 2938728__Reflection_02.txt Node
Date: Sun Mar 15 19:17:57 EDT 2015
User: robert
Spectrometer: USB4E03002
Autoset integration time: false
Trigger mode: 4
Integration Time (sec): 1.000000E-1
Scans to average: 10
Electric dark correction enabled: false
Nonlinearity correction enabled: false
Boxcar width: 5
Stray light correction enabled: false
XAxis mode: Wavelengths
Stop averaging: false
Number of Pixels in Spectrum: 3648
>>>>>Begin Spectral Data<<<<<
177.575	76.35
177.794	93.58
178.014	106.11
178.233	137.58
178.452	87.47
178.672	66.9
178.891	51.2
179.11	16.08
179.33	154.69
179.549	121.05
179.768	115.62
179.987	197.32
180.207	283.54
180.426	-1141.94
180.645	-237.67
180.864	-356.1
181.084	-169.57
181.303	-60.34
181.522	-80.44
181.741	-137
181.96	-356.1
182.179	-303.23
182.398	260.16
182.618	204.17
182.837	99.31
183.056	97.17
183.275	50.29
183.494	16.77
183.713	25.45
183.932	13.18
184.151	21.49
184.37	12.58
184.589	3.67
184.808	-16
185.027	-14.48
185.246	-24.57
185.465	-158.99
185.684	-50.45
185.903	212.36
186.122	87.04
186.341	51.61
186.56	62.97
186.779	47.24
186.998	44.98
187.216	88.97
187.435	67.09
187.654	114.58
187.873	142.99
188.092	404.26
188.311	-5033.33
188.53	-14.89
188.748	-20.53
188.967	29.11
189.186	9.76
189.405	13.36
189.623	59.37
189.842	58.44
190.061	127.72
190.28	33.71
190.498	51.43
190.717	40.6
190.936	34.16
191.154	41.18
191.373	68.27
191.592	69.57
191.81	44.03
192.029	39.94
192.248	25.45
192.466	23.59
192.685	46.36
192.904	32.02
193.122	52.73
193.341	42.08
193.559	29.83
193.778	-23.94
193.996	-29.43
194.215	5.34
194.433	14.64
194.652	16.54
194.87	-90.13
195.089	-72.05
195.307	-76.34
195.526	-56.13
195.744	-112.98
195.963	-11.23
196.181	-120.62
196.399	-80.67
196.618	-13.75
196.836	-62.45
197.055	-85.02
197.273	-6.6
197.491	-37.78
197.71	2542.86
197.928	5420
198.146	-1222.73
198.365	-643.37
198.583	-70.18
198.801	-104.69
199.019	-188.89
199.238	-106.69
199.456	-130.04
199.674	-72.83
199.892	-26.36
200.111	-21.04
200.329	-17.66
200.547	-64.06
200.765	-15.64
200.983	-39.22
201.202	-96.62
201.42	-80
201.638	-51.79
201.856	-26.71
202.074	-70.39
202.292	-131.97
202.51	-29.61
202.728	37.59
202.946	72.66
203.165	173.91
203.383	-469.7
203.601	-326.87
203.819	-160.77
204.037	-139.86
204.255	-373.33
204.473	-1323.81
204.691	-2288.24
204.909	195.24
205.127	82
205.345	148.23
205.562	92.31
205.78	76.49
205.998	50
206.216	14.32
206.434	-17.17
206.652	-39.82
206.87	-47.24
207.088	-84.09
207.306	-25.8
207.523	-17.28
207.741	-22.1
207.959	-35.5
208.177	-100.72
208.395	-86.94
208.612	-33.86
208.83	-13.33
209.048	32.77
209.266	9.37
209.483	26.62
209.701	24.5
209.919	26.56
210.136	-3.53
210.354	11.36
210.572	8.8
210.79	-12.03
211.007	-33.62
211.225	-29.9
211.442	-52.45
211.66	-44.59
211.878	-74.19
212.095	-125.35
212.313	-119.72
212.53	-135.94
212.748	-126.47
212.966	-75.17
213.183	-26.77
213.401	-12.54
213.618	-17.82
213.836	-19.96
214.053	-30.73
214.271	-12.67
214.488	-15.27
214.705	-0.08
214.923	-0.7
215.14	-4.49
215.358	-4.14
215.575	-4.83
215.793	-5.59
216.01	0.32
216.227	2.42
216.445	6.65
216.662	13.74
216.879	23.18
217.097	14.55
217.314	8.76
217.531	12.07
217.749	6.3
217.966	-2.32
218.183	-3.89
218.4	-32.72
218.618	-11.34
218.835	3.71
219.052	-13.45
219.269	-27.97
219.487	-35.19
219.704	-44.32
219.921	-42.7
220.138	-33.02
220.355	-38.1
220.572	-47.47
220.79	-22.48
221.007	-32.35
221.224	-55.02
221.441	-40.35
221.658	-23.66
221.875	-25.48
222.092	-8.29
222.309	-5.65
222.526	-11.2
222.743	-5.9
222.96	-8
223.177	-12.71
223.394	-10.75
223.611	-6.46
223.828	-9.22
224.045	-19.54
224.262	-13.2
224.479	-13.2
224.696	-22.9
224.913	-20.7
225.13	-16.16
225.347	-13.22
225.564	-7.96
225.781	-10.35
225.997	-10.13
226.214	-8.95
226.431	-4.78
226.648	-8.17
226.865	-8.14
227.082	-4.57
227.298	-4.22
227.515	-4.85
227.732	-3.19
227.949	-3.26
228.165	-2.57
228.382	-2.07
228.599	-2.63
228.816	-2.31
229.032	-1.83
229.249	-1.61
229.466	-1.33
229.682	-0.93
229.899	-0.12
230.116	0.44
230.332	-0.66
230.549	-1.54
230.765	-1.19
230.982	0.65
231.199	0.09
231.415	1.31
231.632	0.65
231.848	-0.32
232.065	0.24
232.281	-2.14
232.498	-3.3
232.714	-1.87
232.931	0.01
233.147	-2.95
233.364	-1.82
233.58	0
233.797	-1.25
234.013	-2.61
234.23	-0.93
234.446	0.15
234.662	1.64
234.879	0.26
235.095	1.4
235.312	0.19
235.528	2.97
235.744	0.15
235.961	-0.45
236.177	-0.6
236.393	1.95
236.61	2.11
236.826	1.4
237.042	0.9
237.258	0.99
237.475	0.63
237.691	0.53
237.907	-1.57
238.123	-0.03
238.339	-1.67
238.556	-0.11
238.772	0.36
238.988	-0.79
239.204	-1.85
239.42	-0.21
239.636	-0.26
239.853	-0.62
240.069	0.28
240.285	1.04
240.501	0.34
240.717	1.8
240.933	1.06
241.149	0.11
241.365	0.84
241.581	0.67
241.797	0.09
242.013	0.33
242.229	-0.06
242.445	-0.21
242.661	0.21
242.877	-0.02
243.093	-0.52
243.309	-1.15
243.525	-1.45
243.741	-2.23
243.957	-1.42
244.173	-1.49
244.388	-1.99
244.604	-1.97
244.82	-2.22
245.036	-2.37
245.252	-2.22
245.468	-2.25
245.683	-1.25
245.899	-0.64
246.115	-0.13
246.331	-0.51
246.547	-0.21
246.762	0.39
246.978	0.75
247.194	1.09
247.409	0.87
247.625	1.11
247.841	1.16
248.057	1.3
248.272	1.34
248.488	1.32
248.703	1.55
248.919	1.79
249.135	1.6
249.35	1.92
249.566	1.91
249.782	1.92
249.997	2.19
250.213	1.97
250.428	1.83
250.644	1.46
250.859	1.29
251.075	0.96
251.29	0.51
251.506	0.29
251.721	-0.18
251.937	-0.53
252.152	0.08
252.368	-0.14
252.583	0.35
252.798	0.23
253.014	0.7
253.229	0.51
253.445	0.58
253.66	0.4
253.875	0.1
254.091	-0.61
254.306	-1.29
254.521	-2.07
254.737	-2.99
254.952	-3.42
255.167	-3.18
255.383	-3.31
255.598	-2.44
255.813	-2.57
256.028	-2.23
256.244	-0.74
256.459	-0.92
256.674	0.01
256.889	-0.45
257.104	-0.44
257.32	0.54
257.535	-0.68
257.75	-1.03
257.965	-0.78
258.18	-0.59
258.395	-0.4
258.61	-0.66
258.826	-0.35
259.041	-0.22
259.256	0.25
259.471	0.61
259.686	0.22
259.901	0.51
260.116	0.67
260.331	0.17
260.546	0.12
260.761	0.29
260.976	0.26
261.191	0.09
261.406	-0.13
261.621	-0.51
261.836	-0.62
262.05	-0.54
262.265	-0.59
262.48	-0.87
262.695	0.14
262.91	0.29
263.125	-0.55
263.34	-1.16
263.555	-0.97
263.769	-1.1
263.984	-1.71
264.199	-1.86
264.414	-2.11
264.629	-2.23
264.843	-2.28
265.058	-2.46
265.273	-2.46
265.488	-2.55
265.702	-1.75
265.917	-1.86
266.132	-1.24
266.346	-0.66
266.561	-0.84
266.776	-0.32
266.99	-0.37
267.205	-0.06
267.42	-0.65
267.634	-0.73
267.849	-0.76
268.063	-1.15
268.278	-1.42
268.492	-1.85
268.707	-1.43
268.922	-0.78
269.136	-1.11
269.351	-0.85
269.565	-1.27
269.78	-0.91
269.994	-0.61
270.209	-0.22
270.423	-0.47
270.637	-0.13
270.852	-0.25
271.066	-0.59
271.281	-0.96
271.495	-1.02
271.709	-0.78
271.924	-0.99
272.138	-0.89
272.353	-1.12
272.567	-1.05
272.781	-0.8
272.996	-0.7
273.21	-0.41
273.424	-0.31
273.638	-0.05
273.853	0.02
274.067	-0.11
274.281	0.25
274.495	0.04
274.71	0.09
274.924	-0.02
275.138	0.19
275.352	-0.13
275.566	-0.01
275.781	0.24
275.995	-0.24
276.209	0.07
276.423	0.01
276.637	0.16
276.851	-0.23
277.065	0.19
277.279	0.21
277.493	0.01
277.707	0.3
277.921	0.39
278.135	-0.39
278.349	-0.87
278.563	-1.5
278.777	-1.19
278.991	-1.17
279.205	-1.24
279.419	-1.57
279.633	-1.4
279.847	-1.38
280.061	-1.3
280.275	-1.93
280.489	-1.56
280.703	-0.74
280.917	-0.56
281.131	-0.61
281.344	-0.99
281.558	-0.53
281.772	-0.31
281.986	-0.25
282.2	0.04
282.414	0.25
282.627	0.62
282.841	1.01
283.055	0.57
283.269	0.8
283.482	0.81
283.696	1.28
283.91	1.45
284.123	1.21
284.337	0.92
284.551	0.56
284.764	0.36
284.978	0.2
285.192	-0.24
285.405	0.17
285.619	-0.02
285.833	-0.12
286.046	-0.6
286.26	-0.73
286.473	-0.79
286.687	-0.64
286.9	-0.16
287.114	-0.06
287.327	0.06
287.541	0.74
287.754	0.86
287.968	0.74
288.181	0.63
288.395	1.19
288.608	1.43
288.822	1.47
289.035	1.52
289.248	1.59
289.462	1.76
289.675	1.86
289.889	1.28
290.102	1.12
290.315	1.35
290.529	1.45
290.742	1.24
290.955	1.02
291.169	1.14
291.382	1.11
291.595	0.48
291.808	0.35
292.022	-0.05
292.235	0.03
292.448	-0.16
292.661	-0.25
292.875	-0.41
293.088	-0.24
293.301	-0.11
293.514	-0.21
293.727	-0.32
293.94	-0.15
294.153	-0.57
294.367	-0.09
294.58	-0.02
294.793	0.15
295.006	0.29
295.219	0.63
295.432	0.99
295.645	1.04
295.858	1.06
296.071	1.39
296.284	1.23
296.497	1.57
296.71	1.39
296.923	1.48
297.136	1.35
297.349	1.33
297.562	1.22
297.775	0.75
297.988	0.54
298.201	0.36
298.414	0.06
298.626	0.62
298.839	0.36
299.052	0.38
299.265	0.03
299.478	0.05
299.691	0.24
299.903	0.26
300.116	0.14
300.329	0.21
300.542	0.44
300.755	0.47
300.967	0.18
301.18	0.24
301.393	0.08
301.605	0.6
301.818	0.69
302.031	0.34
302.243	0.46
302.456	0.84
302.669	0.74
302.881	0.63
303.094	0.51
303.307	0.12
303.519	0.18
303.732	0.71
303.944	0.71
304.157	0.68
304.37	1.19
304.582	0.92
304.795	1.27
305.007	1.73
305.22	2.12
305.432	2.18
305.645	2.19
305.857	2.54
306.069	1.84
306.282	1.4
306.494	1.45
306.707	1.02
306.919	1.09
307.132	0.63
307.344	0.13
307.556	-0.12
307.769	-0.39
307.981	0.28
308.193	0.11
308.406	0.44
308.618	0.46
308.83	0.61
309.043	0.4
309.255	0.78
309.467	0.59
309.679	0.89
309.892	0.76
310.104	1.14
310.316	0.85
310.528	1.19
310.74	1.22
310.953	1.76
311.165	1.89
311.377	2.36
311.589	2.2
311.801	2.4
312.013	2.19
312.225	2.62
312.437	2.63
312.649	2.97
312.862	2.55
313.074	2.37
313.286	2.53
313.498	2.31
313.71	2.05
313.922	2.08
314.134	2.49
314.346	2.8
314.558	2.59
314.77	2.39
314.982	2.25
315.193	1.98
315.405	2.01
315.617	1.37
315.829	1.17
316.041	1.1
316.253	0.61
316.465	0.63
316.677	0.53
316.888	0.81
317.1	0.99
317.312	0.78
317.524	1.14
317.736	1.23
317.947	1.01
318.159	1.01
318.371	1.45
318.583	2.26
318.794	1.97
319.006	1.88
319.218	1.6
319.43	1.68
319.641	1.82
319.853	2.2
320.064	2.67
320.276	2.94
320.488	2.97
320.699	2.77
320.911	2.59
321.123	3.08
321.334	3.5
321.546	3.74
321.757	3.67
321.969	3.96
322.18	3.53
322.392	3.21
322.603	3.47
322.815	4
323.026	4.2
323.238	4.08
323.449	3.95
323.661	3.62
323.872	4.04
324.083	4.03
324.295	3.9
324.506	4.38
324.718	4.97
324.929	4.8
325.14	4.87
325.352	4.92
325.563	5.07
325.774	5.24
325.986	5.49
326.197	5.31
326.408	5.71
326.62	6.44
326.831	6.69
327.042	6.93
327.253	7.93
327.464	8.02
327.676	8.24
327.887	8.56
328.098	8.62
328.309	8.85
328.52	9.07
328.732	9.12
328.943	8.73
329.154	8.8
329.365	8.51
329.576	8.02
329.787	8.17
329.998	8.43
330.209	8.73
330.42	8.96
330.631	9.23
330.842	9.19
331.053	9.26
331.264	9.34
331.475	9.5
331.686	9.99
331.897	10.38
332.108	10.51
332.319	10.71
332.53	10.66
332.741	10.48
332.952	10.74
333.163	10.99
333.374	10.97
333.585	11.6
333.795	11.61
334.006	11.64
334.217	11.39
334.428	11.42
334.639	11.53
334.849	11.46
335.06	11.85
335.271	11.87
335.482	12.38
335.692	12.88
335.903	12.28
336.114	12.25
336.325	12.34
336.535	12.48
336.746	12.73
336.957	12.38
337.167	12.85
337.378	12.82
337.589	12.91
337.799	12.32
338.01	12.33
338.22	12.53
338.431	12.56
338.642	12.26
338.852	12.5
339.063	12.18
339.273	12.27
339.484	12.15
339.694	12.71
339.905	12.69
340.115	12.74
340.326	12.6
340.536	13.02
340.746	13.28
340.957	13.57
341.167	13.4
341.378	13.67
341.588	13.79
341.799	13.6
342.009	13.07
342.219	13.07
342.43	13.43
342.64	13.18
342.85	12.94
343.061	12.66
343.271	12.42
343.481	12.15
343.691	12
343.902	11.98
344.112	11.68
344.322	11.79
344.532	11.8
344.743	11.93
344.953	12.19
345.163	12.14
345.373	12.29
345.583	12.39
345.793	12.31
346.004	12.49
346.214	12.81
346.424	12.86
346.634	12.84
346.844	12.55
347.054	11.99
347.264	12.09
347.474	12.3
347.684	12.01
347.894	12.09
348.104	12.29
348.314	11.89
348.524	11.35
348.734	11.37
348.944	11.21
349.154	11.59
349.364	12.09
349.574	12.17
349.784	12.19
349.994	12.31
350.204	12.38
350.413	12.51
350.623	12.97
350.833	13.01
351.043	12.96
351.253	13.05
351.463	13.13
351.672	12.88
351.882	12.99
352.092	13.04
352.302	13.01
352.511	12.87
352.721	12.77
352.931	12.65
353.141	12.93
353.35	13.36
353.56	13.18
353.77	12.71
353.979	12.63
354.189	12.51
354.399	12.37
354.608	12.32
354.818	12.67
355.027	12.6
355.237	12.5
355.447	12.68
355.656	12.54
355.866	12.7
356.075	12.85
356.285	12.9
356.494	12.91
356.704	12.93
356.913	13.1
357.123	12.87
357.332	12.85
357.542	12.71
357.751	12.36
357.96	12.37
358.17	12.37
358.379	12.61
358.589	12.63
358.798	12.53
359.007	12.46
359.217	12.23
359.426	12.24
359.635	12.28
359.845	12.46
360.054	12.37
360.263	12.13
360.472	12.34
360.682	12.27
360.891	12.49
361.1	12.42
361.309	12.49
361.519	12.52
361.728	12.55
361.937	12.69
362.146	12.86
362.355	13.01
362.564	13.05
362.774	12.88
362.983	12.64
363.192	12.38
363.401	12.37
363.61	12.46
363.819	12.45
364.028	12.24
364.237	12.14
364.446	11.92
364.655	11.91
364.864	12.3
365.073	12.2
365.282	12.35
365.491	12.52
365.7	12.6
365.909	12.25
366.118	12.46
366.327	12.68
366.536	12.59
366.745	12.44
366.954	12.61
367.162	12.39
367.371	12.45
367.58	12.48
367.789	12.29
367.998	12.31
368.207	12.48
368.415	12.46
368.624	12.31
368.833	12.4
369.042	12.44
369.25	12.09
369.459	11.82
369.668	11.97
369.877	11.83
370.085	12.01
370.294	11.85
370.503	11.73
370.711	11.59
370.92	11.47
371.129	11.46
371.337	11.42
371.546	11.55
371.754	12.13
371.963	12.23
372.171	12.57
372.38	12.35
372.589	12.39
372.797	12.38
373.006	12.37
373.214	12.55
373.423	12.57
373.631	12.88
373.84	12.9
374.048	12.41
374.256	11.95
374.465	11.61
374.673	11.77
374.882	11.92
375.09	12.18
375.298	12.29
375.507	12.32
375.715	12.38
375.923	11.96
376.132	12.04
376.34	12.08
376.548	12.23
376.757	12.18
376.965	12.02
377.173	11.89
377.381	11.8
377.59	11.75
377.798	11.72
378.006	11.63
378.214	11.78
378.423	11.72
378.631	11.65
378.839	11.63
379.047	11.79
379.255	12.02
379.463	12.07
379.671	11.79
379.879	11.8
380.088	11.67
380.296	11.79
380.504	11.91
380.712	12.01
380.92	12.12
381.128	12.07
381.336	11.9
381.544	11.81
381.752	11.84
381.96	11.99
382.168	11.97
382.376	12.27
382.584	12.44
382.791	12.44
382.999	12.09
383.207	12.03
383.415	12.02
383.623	12.16
383.831	12.11
384.039	12.2
384.247	12.2
384.454	12.19
384.662	12.24
384.87	11.92
385.078	11.79
385.285	11.92
385.493	12.05
385.701	12.2
385.909	12.14
386.116	11.98
386.324	12.18
386.532	12.17
386.739	12.01
386.947	11.76
387.155	11.69
387.362	11.7
387.57	11.61
387.778	11.58
387.985	11.58
388.193	11.46
388.4	11.74
388.608	11.59
388.816	11.65
389.023	11.9
389.231	11.97
389.438	12.11
389.646	12.26
389.853	12.55
390.061	12.33
390.268	12.29
390.475	12.29
390.683	12.2
390.89	11.93
391.098	11.9
391.305	11.9
391.512	11.91
391.72	12.02
391.927	11.81
392.135	11.66
392.342	12.05
392.549	11.95
392.756	12.31
392.964	12.31
393.171	12.43
393.378	12.31
393.586	12.29
393.793	12.37
394	12.33
394.207	12.55
394.414	12.66
394.622	12.48
394.829	12.51
395.036	12.19
395.243	12.12
395.45	12.21
395.657	12.21
395.864	12.36
396.072	12.29
396.279	12.33
396.486	12.39
396.693	12.22
396.9	12.18
397.107	12.18
397.314	12.39
397.521	12.54
397.728	12.48
397.935	12.56
398.142	12.43
398.349	12.26
398.556	12.14
398.763	11.86
398.97	12.05
399.177	12.18
399.383	12.41
399.59	12.31
399.797	12.31
400.004	12.51
400.211	12.59
400.418	12.67
400.625	12.94
400.831	12.89
401.038	13.04
401.245	12.96
401.452	12.9
401.658	12.79
401.865	12.87
402.072	12.76
402.279	12.72
402.485	12.85
402.692	12.98
402.899	12.83
403.105	12.98
403.312	12.94
403.519	13.04
403.725	13.14
403.932	13.15
404.138	12.98
404.345	13.02
404.552	12.88
404.758	12.76
404.965	12.5
405.171	12.6
405.378	12.55
405.584	12.68
405.791	12.59
405.997	12.45
406.204	12.51
406.41	12.62
406.617	12.66
406.823	12.58
407.029	12.49
407.236	12.49
407.442	12.32
407.649	12.23
407.855	12.23
408.061	12.16
408.268	12.17
408.474	12.02
408.68	12.22
408.887	12.3
409.093	12.19
409.299	12.36
409.505	12.41
409.712	12.5
409.918	12.63
410.124	12.64
410.33	12.94
410.537	12.84
410.743	12.96
410.949	12.8
411.155	12.86
411.361	13.05
411.567	12.94
411.773	12.91
411.98	12.94
412.186	12.85
412.392	12.91
412.598	12.64
412.804	12.87
413.01	13.05
413.216	13.11
413.422	13.17
413.628	13.39
413.834	13.6
414.04	13.66
414.246	13.73
414.452	13.96
414.658	13.83
414.864	13.91
415.07	13.87
415.275	13.76
415.481	13.69
415.687	13.56
415.893	13.63
416.099	13.6
416.305	13.66
416.511	13.62
416.716	13.47
416.922	13.64
417.128	13.66
417.334	13.65
417.539	13.69
417.745	13.69
417.951	13.79
418.157	13.81
418.362	13.94
418.568	14.05
418.774	14.15
418.979	14.21
419.185	14.17
419.391	14.28
419.596	14.36
419.802	14.39
420.008	14.49
420.213	14.57
420.419	14.49
420.624	14.47
420.83	14.37
421.035	14.39
421.241	14.36
421.446	14.39
421.652	14.39
421.857	14.38
422.063	14.43
422.268	14.46
422.474	14.41
422.679	14.46
422.885	14.49
423.09	14.64
423.295	14.72
423.501	14.82
423.706	14.93
423.911	14.9
424.117	14.99
424.322	14.98
424.527	15.01
424.733	15.12
424.938	15.21
425.143	15.18
425.349	15.15
425.554	15.06
425.759	15.13
425.964	15.06
426.169	15.07
426.375	14.98
426.58	14.99
426.785	14.92
426.99	14.78
427.195	14.71
427.4	14.71
427.605	14.67
427.811	14.72
428.016	14.67
428.221	14.71
428.426	14.71
428.631	14.9
428.836	14.94
429.041	14.95
429.246	15.06
429.451	15.2
429.656	15.22
429.861	15.27
430.066	15.35
430.271	15.41
430.476	15.36
430.681	15.52
430.886	15.46
431.09	15.53
431.295	15.59
431.5	15.59
431.705	15.58
431.91	15.63
432.115	15.65
432.32	15.6
432.524	15.67
432.729	15.75
432.934	15.7
433.139	15.64
433.343	15.55
433.548	15.57
433.753	15.52
433.958	15.48
434.162	15.55
434.367	15.54
434.572	15.57
434.776	15.57
434.981	15.48
435.186	15.55
435.39	15.64
435.595	15.75
435.799	15.88
436.004	15.93
436.209	15.89
436.413	15.83
436.618	15.95
436.822	16.01
437.027	16.04
437.231	16.12
437.436	16.13
437.64	16.05
437.845	16.06
438.049	16.04
438.253	16.17
438.458	16.25
438.662	16.35
438.867	16.42
439.071	16.45
439.275	16.49
439.48	16.56
439.684	16.63
439.888	16.64
440.093	16.66
440.297	16.61
440.501	16.57
440.706	16.57
440.91	16.58
441.114	16.47
441.318	16.49
441.523	16.39
441.727	16.41
441.931	16.27
442.135	16.28
442.339	16.28
442.543	16.31
442.748	16.3
442.952	16.29
443.156	16.28
443.36	16.35
443.564	16.33
443.768	16.43
443.972	16.31
444.176	16.33
444.38	16.49
444.584	16.4
444.788	16.42
444.992	16.42
445.196	16.43
445.4	16.47
445.604	16.51
445.808	16.58
446.012	16.63
446.216	16.71
446.42	16.73
446.624	16.66
446.828	16.75
447.032	16.8
447.235	16.78
447.439	16.91
447.643	16.94
447.847	16.87
448.051	16.89
448.254	16.85
448.458	16.72
448.662	16.79
448.866	16.85
449.069	16.8
449.273	16.67
449.477	16.79
449.681	16.63
449.884	16.56
450.088	16.56
450.292	16.53
450.495	16.56
450.699	16.65
450.902	16.55
451.106	16.42
451.31	16.41
451.513	16.45
451.717	16.39
451.92	16.51
452.124	16.42
452.327	16.5
452.531	16.53
452.734	16.34
452.938	16.36
453.141	16.43
453.345	16.34
453.548	16.32
453.752	16.48
453.955	16.47
454.158	16.38
454.362	16.45
454.565	16.45
454.769	16.35
454.972	16.58
455.175	16.58
455.379	16.57
455.582	16.76
455.785	16.82
455.988	16.67
456.192	16.83
456.395	16.84
456.598	16.87
456.801	16.86
457.005	16.87
457.208	16.87
457.411	16.97
457.614	17.13
457.817	17.23
458.021	17.3
458.224	17.25
458.427	17.13
458.63	17.18
