Data from 2938750__Reflection_02.txt Node
Date: Sat Mar 14 14:42:42 EDT 2015
User: robert
Spectrometer: USB4E03002
Autoset integration time: false
Trigger mode: 4
Integration Time (sec): 1.000000E-1
Scans to average: 10
Electric dark correction enabled: false
Nonlinearity correction enabled: false
Boxcar width: 5
Stray light correction enabled: false
XAxis mode: Wavelengths
Stop averaging: false
Number of Pixels in Spectrum: 3648
>>>>>Begin Spectral Data<<<<<
177.575	-81.68
177.794	-17.82
178.014	-33.88
178.233	-73.76
178.452	-101.31
178.672	-4325
178.891	134.29
179.11	73.33
179.33	52.82
179.549	79.3
179.768	95.8
179.987	98.9
180.207	152.78
180.426	121.76
180.645	105.99
180.864	130.34
181.084	218.07
181.303	266.67
181.522	259.19
181.741	255.22
181.96	173.02
182.179	132.65
182.398	67.16
182.618	49.3
182.837	58.82
183.056	75.7
183.275	53.06
183.494	64.36
183.713	8.99
183.932	-36.7
184.151	-96.3
184.37	8.86
184.589	61.77
184.808	65.36
185.027	28.05
185.246	29.96
185.465	43.73
185.684	42.33
185.903	7.38
186.122	18.12
186.341	4.58
186.56	11.26
186.779	54.28
186.998	4.46
187.216	763.64
187.435	412.24
187.654	1180
187.873	747.62
188.092	625.93
188.311	233.13
188.53	916.28
188.748	-1218.75
188.967	-1908.7
189.186	-330.63
189.405	1180.56
189.623	193.13
189.842	119.02
190.061	151.54
190.28	154.55
190.498	179.6
190.717	404
190.936	164.86
191.154	228.85
191.373	176.77
191.592	134.19
191.81	144.94
192.029	140.69
192.248	150.84
192.466	135.26
192.685	118.69
192.904	161.22
193.122	130.53
193.341	-2075
193.559	-76.14
193.778	13.38
193.996	31.97
194.215	-11.06
194.433	2.05
194.652	14.84
194.87	3.36
195.089	-30.73
195.307	-22.47
195.526	15.79
195.744	-22.73
195.963	181.18
196.181	81.55
196.399	107.14
196.618	79.66
196.836	57.72
197.055	61.67
197.273	52.64
197.491	21.47
197.71	50.07
197.928	79.68
198.146	74.92
198.365	58.24
198.583	47.91
198.801	21.74
199.019	42.59
199.238	81.49
199.456	87.01
199.674	82.8
199.892	118.58
200.111	96.6
200.329	94.6
200.547	79.95
200.765	75.86
200.983	95.96
201.202	119.57
201.42	107.39
201.638	76.99
201.856	96.09
202.074	101.51
202.292	77.88
202.51	80.71
202.728	1.51
202.946	35.5
203.165	-67.65
203.383	-96.95
203.601	-148.31
203.819	-55.81
204.037	-28.53
204.255	-40.42
204.473	-5.74
204.691	-28.94
204.909	2.85
205.127	16.65
205.345	15.99
205.562	13.7
205.78	1.67
205.998	33.77
206.216	13.22
206.434	19.59
206.652	49.93
206.87	31.14
207.088	57.36
207.306	69.48
207.523	74.94
207.741	133.1
207.959	286.72
208.177	203.64
208.395	113.09
208.612	169.8
208.83	154.59
209.048	114.39
209.266	121.95
209.483	76.24
209.701	48.5
209.919	50.64
210.136	60.99
210.354	55.74
210.572	22.32
210.79	44.86
211.007	-25.31
211.225	-44.63
211.442	-29.73
211.66	55.2
211.878	58.13
212.095	55.53
212.313	34.46
212.53	23.13
212.748	40.87
212.966	25.5
213.183	13
213.401	8.05
213.618	10.76
213.836	1.84
214.053	-40.92
214.271	-63.3
214.488	9.42
214.705	42.11
214.923	43.37
215.14	7.48
215.358	36.48
215.575	38.41
215.793	35.34
216.01	53.29
216.227	86.99
216.445	81.74
216.662	51.22
216.879	30.23
217.097	18.91
217.314	7.38
217.531	18.17
217.749	46.46
217.966	48.07
218.183	42.74
218.4	38.2
218.618	37.52
218.835	43.66
219.052	34.83
219.269	36.22
219.487	41.23
219.704	47.73
219.921	39.74
220.138	33.39
220.355	30.24
220.572	31.88
220.79	27.9
221.007	28.8
221.224	27.41
221.441	33.82
221.658	32.33
221.875	34.23
222.092	33.43
222.309	24.13
222.526	8.37
222.743	6.58
222.96	3.7
223.177	7
223.394	12.79
223.611	1.71
223.828	2.1
224.045	-0.23
224.262	2.99
224.479	2.47
224.696	3.61
224.913	-0.51
225.13	1.5
225.347	4.93
225.564	3.55
225.781	-4.22
225.997	-1
226.214	-3.37
226.431	-3.82
226.648	-6.69
226.865	-6.3
227.082	-2.65
227.298	2.32
227.515	3.48
227.732	3.38
227.949	2.27
228.165	2.97
228.382	3.13
228.599	2.92
228.816	2.85
229.032	3.55
229.249	3.37
229.466	3.95
229.682	2.83
229.899	2.76
230.116	1.26
230.332	2.03
230.549	0.73
230.765	-0.12
230.982	-0.74
231.199	-0.81
231.415	-0.72
231.632	-0.87
231.848	-3.74
232.065	-2.24
232.281	-2.24
232.498	-0.02
232.714	-0.37
232.931	1.77
233.147	2.3
233.364	2.42
233.58	2.56
233.797	2.29
234.013	2.13
234.23	1.62
234.446	1.37
234.662	1.57
234.879	3.3
235.095	3.97
235.312	4.2
235.528	4.56
235.744	6.06
235.961	6.76
236.177	6.77
236.393	8.54
236.61	11.68
236.826	10.37
237.042	10.15
237.258	9.6
237.475	8.64
237.691	10.32
237.907	9.28
238.123	7.51
238.339	9.26
238.556	10.78
238.772	9.21
238.988	7.84
239.204	7.96
239.42	6.53
239.636	5.99
239.853	6.44
240.069	5.93
240.285	5.81
240.501	6.53
240.717	5.09
240.933	3.02
241.149	2.72
241.365	2.52
241.581	3.44
241.797	3.21
242.013	3.68
242.229	3.4
242.445	2.41
242.661	2.16
242.877	1.67
243.093	1.54
243.309	1.83
243.525	1.62
243.741	1.28
243.957	0.38
244.173	-0.1
244.388	-1.09
244.604	-0.76
244.82	-1.02
245.036	-0.1
245.252	0.1
245.468	0.69
245.683	0.86
245.899	1.97
246.115	1.96
246.331	2.26
246.547	2.9
246.762	2.87
246.978	2.94
247.194	3.14
247.409	2.99
247.625	3.27
247.841	2.87
248.057	2.61
248.272	2.43
248.488	2.61
248.703	3.11
248.919	2.77
249.135	2.89
249.35	2.76
249.566	3.59
249.782	3.83
249.997	3.05
250.213	3.96
250.428	4.88
250.644	4.73
250.859	4.3
251.075	3.34
251.29	3.09
251.506	3.61
251.721	3.15
251.937	1.31
252.152	0.88
252.368	1.28
252.583	0.14
252.798	-0.26
253.014	-0.32
253.229	0.11
253.445	-0.38
253.66	0.05
253.875	-0.97
254.091	-1.39
254.306	-0.46
254.521	0.09
254.737	1.03
254.952	2.42
255.167	2.27
255.383	2.41
255.598	2.05
255.813	1.75
256.028	1.74
256.244	2.31
256.459	2.4
256.674	3.52
256.889	4.25
257.104	4.09
257.32	4.06
257.535	3.4
257.75	2.41
257.965	3.17
258.18	2.77
258.395	2.7
258.61	2.19
258.826	2.63
259.041	2.52
259.256	2.28
259.471	2.21
259.686	2.15
259.901	2.62
260.116	2.78
260.331	2.77
260.546	2.89
260.761	2.89
260.976	3.06
261.191	2.76
261.406	2.52
261.621	2.34
261.836	1.92
262.05	2.03
262.265	1.58
262.48	1.76
262.695	1.49
262.91	2.24
263.125	2.15
263.34	2.49
263.555	2.79
263.769	2.62
263.984	2.77
264.199	2.91
264.414	2.78
264.629	3.18
264.843	3.16
265.058	2.73
265.273	2.29
265.488	1.66
265.702	1.4
265.917	1.12
266.132	1.73
266.346	1.64
266.561	2.43
266.776	2.87
266.99	2.93
267.205	2.7
267.42	2.49
267.634	2.59
267.849	2.68
268.063	3.02
268.278	2.99
268.492	2.7
268.707	2.77
268.922	2.65
269.136	2.47
269.351	2.21
269.565	1.38
269.78	1.42
269.994	0.99
270.209	1.21
270.423	1.2
270.637	1.35
270.852	0.81
271.066	0.6
271.281	0.07
271.495	-0.12
271.709	-0.27
271.924	0.55
272.138	0.63
272.353	0.91
272.567	1.49
272.781	1.26
272.996	1.49
273.21	1.64
273.424	1.73
273.638	2.21
273.853	1.83
274.067	1.94
274.281	1.75
274.495	2.01
274.71	1.82
274.924	1.28
275.138	0.83
275.352	0.86
275.566	1
275.781	0.92
275.995	1
276.209	1.25
276.423	1.34
276.637	1.43
276.851	1.21
277.065	1.1
277.279	0.85
277.493	1.73
277.707	1.7
277.921	2.17
278.135	2.44
278.349	2.44
278.563	2.8
278.777	2.64
278.991	2.5
279.205	2.7
279.419	2.96
279.633	2.64
279.847	2.25
280.061	2.09
280.275	1.27
280.489	0.96
280.703	0.76
280.917	0.48
281.131	0.68
281.344	1.15
281.558	0.86
281.772	0.98
281.986	0.98
282.2	1
282.414	0.85
282.627	1.12
282.841	1.05
283.055	1.01
283.269	1.39
283.482	1.59
283.696	1.09
283.91	1.09
284.123	0.88
284.337	1.44
284.551	1.37
284.764	1.37
284.978	1.34
285.192	1.54
285.405	1.61
285.619	1.46
285.833	1.54
286.046	1.73
286.26	1.82
286.473	1.95
286.687	1.85
286.9	1.95
287.114	1.87
287.327	2.18
287.541	2.09
287.754	2.05
287.968	1.73
288.181	1.39
288.395	1.15
288.608	1.28
288.822	1.56
289.035	1.62
289.248	1.64
289.462	1.84
289.675	1.89
289.889	1.98
290.102	1.9
290.315	2.27
290.529	2.4
290.742	2.55
290.955	2.31
291.169	1.98
291.382	2.12
291.595	1.85
291.808	2.02
292.022	1.98
292.235	2.36
292.448	2.42
292.661	2.09
292.875	2.21
293.088	2.34
293.301	2.61
293.514	2.73
293.727	2.45
293.94	2.78
294.153	2.6
294.367	2.34
294.58	1.87
294.793	1.87
295.006	2.34
295.219	1.99
295.432	1.74
295.645	1.74
295.858	1.28
296.071	1.22
296.284	1.06
296.497	1.12
296.71	1.17
296.923	1.28
297.136	1.41
297.349	1.27
297.562	1.42
297.775	1.58
297.988	1.26
298.201	1.45
298.414	1.51
298.626	1.53
298.839	1.4
299.052	1.56
299.265	1.76
299.478	1.73
299.691	1.32
299.903	1.37
300.116	1.27
300.329	1.58
300.542	1.95
300.755	2.22
300.967	2.28
301.18	2.78
301.393	2.79
301.605	2.81
301.818	2.72
302.031	2.88
302.243	2.91
302.456	2.84
302.669	2.94
302.881	2.49
303.094	2.21
303.307	2.33
303.519	1.8
303.732	1.84
303.944	1.51
304.157	1.59
304.37	1.83
304.582	1.7
304.795	1.97
305.007	1.94
305.22	2.1
305.432	2.01
305.645	2.03
305.857	1.95
306.069	1.81
306.282	2.24
306.494	2.42
306.707	2.27
306.919	2.18
307.132	2.17
307.344	2.54
307.556	2.78
307.769	2.78
307.981	2.65
308.193	2.88
308.406	2.55
308.618	1.95
308.83	1.78
309.043	1.89
309.255	2.36
309.467	2.15
309.679	1.88
309.892	2.06
310.104	2.12
310.316	2.15
310.528	2.34
310.74	2.43
310.953	2.8
311.165	2.68
311.377	2.71
311.589	2.66
311.801	2.68
312.013	2.3
312.225	2.07
312.437	2.02
312.649	2.21
312.862	1.76
313.074	1.96
313.286	1.85
313.498	1.95
313.71	1.83
313.922	1.66
314.134	1.83
314.346	2.16
314.558	2.27
314.77	2.54
314.982	2.46
315.193	2.43
315.405	2.49
315.617	2.4
315.829	2.43
316.041	2.97
316.253	3.26
316.465	3.04
316.677	3.18
316.888	2.93
317.1	2.98
317.312	3.14
317.524	3.34
317.736	3.72
317.947	4.16
318.159	4.56
318.371	4.52
318.583	4.56
318.794	4.74
319.006	4.4
319.218	4.64
319.43	4.35
319.641	4.37
319.853	3.92
320.064	3.62
320.276	3.68
320.488	3.78
320.699	3.8
320.911	3.67
321.123	4.11
321.334	4.81
321.546	5.01
321.757	6.05
321.969	5.63
322.18	6.46
322.392	6.52
322.603	6.3
322.815	5.93
323.026	5.7
323.238	5.59
323.449	5.67
323.661	5.84
323.872	5.42
324.083	4.96
324.295	5.37
324.506	5.43
324.718	5.69
324.929	5.8
325.14	5.8
325.352	5.87
325.563	5.97
325.774	5.85
325.986	5.42
326.197	5.7
326.408	5.52
326.62	5.3
326.831	5.3
327.042	4.96
327.253	4.98
327.464	5.23
327.676	5.7
327.887	5.78
328.098	5.75
328.309	6.13
328.52	6.82
328.732	7.36
328.943	7.44
329.154	7.59
329.365	8.09
329.576	8.39
329.787	8.42
329.998	8.03
330.209	8.75
330.42	8.65
330.631	8.63
330.842	8.63
331.053	8.59
331.264	9.32
331.475	9.35
331.686	9.38
331.897	9.29
332.108	9.29
332.319	9.61
332.53	9.39
332.741	9.38
332.952	9.41
333.163	9.17
333.374	9.24
333.585	8.77
333.795	9.2
334.006	9.22
334.217	9.29
334.428	9.44
334.639	9.3
334.849	8.81
335.06	9.11
335.271	9.36
335.482	9.39
335.692	9.41
335.903	9.67
336.114	9.58
336.325	9.43
336.535	9.55
336.746	9.81
336.957	9.87
337.167	10.36
337.378	10.59
337.589	10.49
337.799	10.11
338.01	9.83
338.22	9.77
338.431	9.63
338.642	9.7
338.852	9.81
339.063	9.53
339.273	9.59
339.484	9.18
339.694	9.05
339.905	9.24
340.115	9.61
340.326	9.84
340.536	10.01
340.746	10.19
340.957	10
341.167	9.67
341.378	10.01
341.588	9.95
341.799	10.23
342.009	10.01
342.219	10.05
342.43	9.69
342.64	9.57
342.85	9.55
343.061	9.66
343.271	9.91
343.481	10.29
343.691	9.94
343.902	9.76
344.112	9.7
344.322	9.87
344.532	9.84
344.743	10.19
344.953	10.16
345.163	9.8
345.373	9.24
345.583	8.91
345.793	8.59
346.004	8.47
346.214	8.8
346.424	8.85
346.634	8.8
346.844	8.99
347.054	8.97
347.264	9.1
347.474	8.97
347.684	9.3
347.894	9.65
348.104	9.73
348.314	10.09
348.524	9.95
348.734	9.86
348.944	9.67
349.154	9.11
349.364	8.99
349.574	9.12
349.784	9.36
349.994	9.14
350.204	9.06
350.413	9.14
350.623	8.76
350.833	8.68
351.043	8.37
351.253	8.65
351.463	8.83
351.672	9.14
351.882	8.77
352.092	8.8
352.302	9.17
352.511	9.09
352.721	8.69
352.931	8.89
353.141	8.79
353.35	9.09
353.56	8.98
353.77	8.79
353.979	8.42
354.189	8.52
354.399	8.72
354.608	8.54
354.818	8.5
355.027	8.81
355.237	8.73
355.447	8.87
355.656	8.86
355.866	8.68
356.075	8.69
356.285	8.64
356.494	8.77
356.704	8.42
356.913	8.47
357.123	8.39
357.332	8.46
357.542	8.48
357.751	8.25
357.96	7.93
358.17	7.83
358.379	8.04
358.589	8.24
358.798	8.19
359.007	8.17
359.217	8.07
359.426	8.21
359.635	8.34
359.845	8.08
360.054	8.18
360.263	8.37
360.472	8.62
360.682	8.4
360.891	8.39
361.1	8.5
361.309	8.67
361.519	8.74
361.728	8.72
361.937	8.62
362.146	8.74
362.355	8.89
362.564	8.96
362.774	8.87
362.983	9.02
363.192	8.84
363.401	8.68
363.61	8.52
363.819	8.47
364.028	8.42
364.237	7.99
364.446	8.16
364.655	7.83
364.864	7.84
365.073	7.79
365.282	7.6
365.491	7.82
365.7	7.87
365.909	8.01
366.118	8.03
366.327	7.99
366.536	8.11
366.745	7.97
366.954	8.22
367.162	7.83
367.371	7.9
367.58	7.97
367.789	7.83
367.998	7.79
368.207	7.88
368.415	8.06
368.624	8.24
368.833	8.61
369.042	8.64
369.25	8.59
369.459	8.9
369.668	8.98
369.877	8.97
370.085	9.06
370.294	9.29
370.503	8.94
370.711	8.67
370.92	8.42
371.129	8.17
371.337	8.2
371.546	7.98
371.754	7.8
371.963	7.53
372.171	7.51
372.38	7.52
372.589	7.33
372.797	7.68
373.006	7.74
373.214	7.71
373.423	7.87
373.631	7.79
373.84	7.81
374.048	7.96
374.256	8.22
374.465	8.21
374.673	8.09
374.882	8.33
375.09	7.96
375.298	7.97
375.507	8.15
375.715	8.1
375.923	8.25
376.132	8.5
376.34	8.4
376.548	8.39
376.757	8.55
376.965	8.66
377.173	8.43
377.381	8.61
377.59	8.6
377.798	8.52
378.006	8.44
378.214	8.4
378.423	8.29
378.631	8.35
378.839	8.32
379.047	8.28
379.255	7.94
379.463	7.85
379.671	7.65
379.879	7.49
380.088	7.46
380.296	7.65
380.504	7.75
380.712	7.88
380.92	7.67
381.128	7.7
381.336	7.61
381.544	7.79
381.752	7.92
381.96	8.01
382.168	7.99
382.376	8.14
382.584	7.83
382.791	7.7
382.999	7.36
383.207	7.65
383.415	7.77
383.623	7.84
383.831	8.04
384.039	7.88
384.247	8.11
384.454	8.16
384.662	8.15
384.87	8.38
385.078	8.31
385.285	8.53
385.493	8.41
385.701	8.12
385.909	8.11
386.116	7.91
386.324	8.06
386.532	7.81
386.739	7.76
386.947	7.75
387.155	7.6
387.362	7.64
387.57	7.57
387.778	7.41
387.985	7.37
388.193	7.48
388.4	7.5
388.608	7.33
388.816	7.46
389.023	7.59
389.231	7.53
389.438	7.65
389.646	7.84
389.853	7.67
390.061	8.03
390.268	8.18
390.475	8.03
390.683	8.07
390.89	8.17
391.098	8.29
391.305	8.17
391.512	8.22
391.72	8.1
391.927	7.92
392.135	8.01
392.342	7.85
392.549	7.83
392.756	7.9
392.964	7.81
393.171	7.8
393.378	7.7
393.586	7.93
393.793	7.83
394	7.76
394.207	7.73
394.414	7.87
394.622	7.8
394.829	7.76
395.036	7.67
395.243	7.71
395.45	7.65
395.657	7.67
395.864	7.47
396.072	7.32
396.279	7.34
396.486	7.26
396.693	7.32
396.9	7.43
397.107	7.46
397.314	7.57
397.521	7.49
397.728	7.47
397.935	7.49
398.142	7.4
398.349	7.55
398.556	7.76
398.763	7.92
398.97	7.7
399.177	7.56
399.383	7.57
399.59	7.32
399.797	7.58
400.004	7.6
400.211	7.47
400.418	7.58
400.625	7.63
400.831	7.52
401.038	7.34
401.245	7.42
401.452	7.38
401.658	7.38
401.865	7.44
402.072	7.37
402.279	7.46
402.485	7.58
402.692	7.7
402.899	7.66
403.105	7.73
403.312	7.87
403.519	7.97
403.725	8.13
403.932	8.1
404.138	8.1
404.345	7.88
404.552	8.03
404.758	8.05
404.965	8.01
405.171	8.09
405.378	7.93
405.584	7.91
405.791	7.74
405.997	7.86
406.204	7.97
406.41	8.11
406.617	8.2
406.823	8.15
407.029	8.03
407.236	7.87
407.442	7.88
407.649	7.87
407.855	7.89
408.061	8.02
408.268	7.93
408.474	7.99
408.68	8.01
408.887	8.07
409.093	8.04
409.299	8.03
409.505	8.24
409.712	8.21
409.918	8.4
410.124	8.5
410.33	8.56
410.537	8.56
410.743	8.34
410.949	8.26
411.155	8.33
411.361	8.24
411.567	8.33
411.773	8.27
411.98	8.3
412.186	8.1
412.392	8.01
412.598	7.96
412.804	7.92
413.01	8.06
413.216	8.33
413.422	8.31
413.628	8.33
413.834	8.37
414.04	8.39
414.246	8.22
414.452	8.49
414.658	8.47
414.864	8.47
415.07	8.39
415.275	8.44
415.481	8.16
415.687	8.14
415.893	8.01
416.099	7.83
416.305	7.79
416.511	7.91
416.716	7.76
416.922	7.74
417.128	7.82
417.334	7.85
417.539	7.86
417.745	7.91
417.951	7.94
418.157	7.97
418.362	8.04
418.568	7.99
418.774	7.97
418.979	8.03
419.185	8.08
419.391	8.04
419.596	8.05
419.802	8.04
420.008	8.01
420.213	8.59
420.419	8.6
420.624	8.56
420.83	8.62
421.035	8.6
421.241	8.54
421.446	8.45
421.652	8.39
421.857	8.47
422.063	8.37
422.268	8.46
422.474	7.83
422.679	7.81
422.885	7.84
423.09	7.77
423.295	7.77
423.501	7.77
423.706	7.84
423.911	7.75
424.117	7.66
424.322	7.79
424.527	7.7
424.733	7.7
424.938	7.78
425.143	7.78
425.349	7.75
425.554	7.78
425.759	7.78
425.964	7.77
426.169	7.88
426.375	7.91
426.58	7.84
426.785	7.85
426.99	7.92
427.195	7.87
427.4	7.87
427.605	7.92
427.811	7.9
428.016	7.88
428.221	7.86
428.426	7.84
428.631	7.76
428.836	7.71
429.041	7.82
429.246	7.87
429.451	7.89
429.656	7.94
429.861	8.04
430.066	8.06
430.271	8.13
430.476	8.12
430.681	8
430.886	8.1
431.09	8.15
431.295	8.04
431.5	8.07
431.705	8.06
431.91	8.07
432.115	8.01
432.32	8.12
432.524	8.05
432.729	8.06
432.934	8.24
433.139	8.17
433.343	8.19
433.548	8.32
433.753	8.26
433.958	8.31
434.162	8.27
434.367	8.45
434.572	8.33
434.776	8.53
434.981	8.58
435.186	8.58
435.39	8.75
435.595	8.88
435.799	8.75
436.004	8.85
436.209	8.79
436.413	8.85
436.618	8.68
436.822	8.73
437.027	8.63
437.231	8.48
437.436	8.47
437.64	8.33
437.845	8.12
438.049	8.17
438.253	8.14
438.458	8.09
438.662	7.96
438.867	7.96
439.071	7.9
439.275	7.84
439.48	7.97
439.684	7.95
439.888	7.97
440.093	8.09
440.297	8.06
440.501	8.07
440.706	8.05
440.91	8.03
441.114	8.04
441.318	8.02
441.523	8.13
441.727	8.14
441.931	8.1
442.135	8.19
442.339	8.16
442.543	8.11
442.748	8.15
442.952	8.26
443.156	8.36
443.36	8.36
443.564	8.35
443.768	8.25
443.972	8.18
444.176	8.23
444.38	8.15
444.584	8.16
444.788	8.15
444.992	8.11
445.196	8.08
445.4	7.99
445.604	7.93
445.808	7.93
446.012	7.97
446.216	7.96
446.42	7.96
446.624	7.95
446.828	7.89
447.032	7.89
447.235	7.88
447.439	7.93
447.643	7.96
447.847	8.01
448.051	8.08
448.254	8.05
448.458	8.11
448.662	8.12
448.866	8.11
449.069	8.09
449.273	8.2
449.477	8.16
449.681	8.15
449.884	8.14
450.088	8.07
450.292	8.04
450.495	8.08
450.699	8.01
450.902	7.96
451.106	7.98
451.31	8.02
451.513	7.91
451.717	7.96
451.92	7.83
452.124	7.76
452.327	7.85
452.531	7.81
452.734	7.8
452.938	7.89
453.141	7.95
453.345	8
453.548	8.01
453.752	8.07
453.955	8.1
454.158	8.2
454.362	8.41
454.565	8.45
454.769	8.52
454.972	8.44
455.175	8.45
455.379	8.5
455.582	8.49
455.785	8.47
455.988	8.57
456.192	8.61
456.395	8.6
456.598	8.53
456.801	8.43
457.005	8.32
457.208	8.37
457.411	8.28
457.614	8.2
457.817	8.17
458.021	8.17
458.224	8.11
458.427	8.01
458.63	8
458.833	7.99
459.036	8.06
459.239	8.18
459.442	8.12
459.645	8.17
459.848	8.19
460.051	8.21
460.254	8.26
460.457	8.29
460.66	8.39
460.863	8.43
461.066	8.45
461.269	8.48
461.472	8.42
461.675	8.53
461.878	8.57
462.081	8.6
462.284	8.58
462.486	8.61
462.689	8.57
462.892	8.52
463.095	8.45
463.298	8.49
463.5	8.46
463.703	8.48
463.906	8.41
464.109	8.44
464.311	8.43
464.514	8.44
464.717	8.42
464.92	8.39
465.122	8.39
465.325	8.37
465.528	8.4
465.73	8.43
465.933	8.48
466.135	8.55
466.338	8.43
466.541	8.49
466.743	8.46
466.946	8.45
467.148	8.5
467.351	8.55
467.553	8.64
467.756	8.61
467.958	8.71
468.161	8.63
468.363	8.61
468.566	8.62
468.768	8.59
468.971	8.65
469.173	8.59
469.375	8.6
469.578	8.53
469.78	8.49
469.983	8.46
470.185	8.36
470.387	8.48
470.59	8.52
470.792	8.61
470.994	8.59
471.196	8.59
471.399	8.59
471.601	8.46
