Data from 2938849__Reflection_01.txt Node
Date: Wed Mar 11 13:25:03 EDT 2015
User: robert
Spectrometer: USB4E03002
Autoset integration time: false
Trigger mode: 4
Integration Time (sec): 1.000000E-1
Scans to average: 10
Electric dark correction enabled: false
Nonlinearity correction enabled: false
Boxcar width: 5
Stray light correction enabled: false
XAxis mode: Wavelengths
Stop averaging: false
Number of Pixels in Spectrum: 3648
>>>>>Begin Spectral Data<<<<<
177.575	833.33
177.794	-822.92
178.014	-294.52
178.233	-880.88
178.452	-455.47
178.672	-175.61
178.891	-118.18
179.11	-75.38
179.33	-125.14
179.549	-169.69
179.768	-297.12
179.987	-284.93
180.207	-207.48
180.426	-204.48
180.645	-136.86
180.864	-101.58
181.084	-289.36
181.303	-1411.9
181.522	-627.43
181.741	-378.11
181.96	-482.27
182.179	-1213.79
182.398	-851.76
182.618	802.2
182.837	1278.46
183.056	2080.85
183.275	358.57
183.494	297.97
183.713	499.39
183.932	255.27
184.151	239.94
184.37	219.39
184.589	402.65
184.808	472.26
185.027	-1083.33
185.246	-314.44
185.465	0
185.684	38.24
185.903	8.18
186.122	19.7
186.341	29.08
186.56	15.96
186.779	-22.03
186.998	-9.82
187.216	10.71
187.435	4.34
187.654	-3.46
187.873	-19.3
188.092	-40.46
188.311	-18.34
188.53	-7.63
188.748	-3.25
188.967	2.2
189.186	14.06
189.405	10.41
189.623	11.3
189.842	13.35
190.061	25.78
190.28	24.22
190.498	17.44
190.717	4.77
190.936	-19.4
191.154	-3.31
191.373	-3.58
191.592	-2.42
191.81	-12.52
192.029	-34.35
192.248	-123.3
192.466	-152.09
192.685	-170.33
192.904	-114.93
193.122	-63.61
193.341	-174.13
193.559	-211.33
193.778	-470.37
193.996	-352.24
194.215	-162.8
194.433	-68.28
194.652	-16.37
194.87	-48.17
195.089	-40.76
195.307	-94.73
195.526	-163.58
195.744	-46.88
195.963	-74.2
196.181	-71.58
196.399	-67.04
196.618	-102.39
196.836	-90.89
197.055	-63.26
197.273	-46.96
197.491	-84.43
197.71	-85.24
197.928	-30.37
198.146	-38.07
198.365	-33.05
198.583	-26.44
198.801	-9.41
199.019	-6.52
199.238	-10.41
199.456	-24.41
199.674	-21.52
199.892	15.37
200.111	20.74
200.329	-1.15
200.547	-17.22
200.765	-25.56
200.983	-52.68
201.202	-68.62
201.42	-28.89
201.638	-27.02
201.856	-42.41
202.074	-58.56
202.292	-95.75
202.51	-126.43
202.728	-145.39
202.946	-90.41
203.165	-118.87
203.383	-65.68
203.601	-123.41
203.819	-193.03
204.037	-230.22
204.255	-129.4
204.473	-146.09
204.691	-133.67
204.909	-130.08
205.127	-115.58
205.345	-203.79
205.562	-119.86
205.78	-127.41
205.998	-168.15
206.216	-171.46
206.434	-89.37
206.652	-56.75
206.87	-41.62
207.088	-12.69
207.306	-23.39
207.523	-15.73
207.741	-8.93
207.959	-28.18
208.177	-39.55
208.395	-36.42
208.612	-43.65
208.83	-64.7
209.048	-113.15
209.266	-71.52
209.483	-111.75
209.701	-114.47
209.919	-111.74
210.136	-112.38
210.354	-87.88
210.572	-77.56
210.79	-62.56
211.007	-56.98
211.225	-63.17
211.442	-41.26
211.66	-81.59
211.878	-88.87
212.095	-60.43
212.313	-59.88
212.53	-46.06
212.748	-25.71
212.966	-22.33
213.183	-26.42
213.401	-16.08
213.618	-17.49
213.836	-6.84
214.053	-0.25
214.271	0.6
214.488	-7.8
214.705	-13.61
214.923	-18.85
215.14	-43.85
215.358	-50.97
215.575	-30.5
215.793	-37.82
216.01	-48.26
216.227	-50.99
216.445	-44.57
216.662	-43.31
216.879	-36.49
217.097	-33.54
217.314	-31.64
217.531	-18.44
217.749	-13.29
217.966	-23.36
218.183	-15.74
218.4	-12.56
218.618	-20.22
218.835	-13.63
219.052	-12.26
219.269	-14
219.487	-11.54
219.704	-12.62
219.921	-8.59
220.138	-5.49
220.355	-3.84
220.572	-4.44
220.79	0.45
221.007	0.1
221.224	-12.3
221.441	-10.96
221.658	-3.57
221.875	-5.72
222.092	-3.68
222.309	-8.69
222.526	-7.91
222.743	-11.57
222.96	-14.06
223.177	-20.84
223.394	-22.66
223.611	-21.71
223.828	-14.3
224.045	-15.55
224.262	-11.38
224.479	-8.82
224.696	-7.88
224.913	-5.85
225.13	-2.97
225.347	-3.91
225.564	1.09
225.781	1.97
225.997	5.07
226.214	1.84
226.431	1.71
226.648	0.1
226.865	0.24
227.082	1.25
227.298	1.58
227.515	2.02
227.732	2.83
227.949	2.57
228.165	2.26
228.382	1.49
228.599	2.33
228.816	2.86
229.032	3.17
229.249	2.88
229.466	2.68
229.682	2.16
229.899	2.93
230.116	2.1
230.332	2.15
230.549	2.42
230.765	2.23
230.982	1.46
231.199	0.38
231.415	-0.35
231.632	-0.64
231.848	-0.58
232.065	0.25
232.281	-1.75
232.498	-0.13
232.714	-1.74
232.931	-1.68
233.147	-0.61
233.364	-0.33
233.58	1.89
233.797	2.27
234.013	3.03
234.23	2
234.446	1.87
234.662	2.43
234.879	1.25
235.095	2.99
235.312	4
235.528	3.25
235.744	4.31
235.961	2.3
236.177	2.36
236.393	1.9
236.61	2.86
236.826	3.47
237.042	3.54
237.258	3.43
237.475	2.39
237.691	1.49
237.907	2.8
238.123	1.89
238.339	3.04
238.556	3.18
238.772	3.1
238.988	3.73
239.204	3.25
239.42	3.6
239.636	4.19
239.853	4.67
240.069	3.91
240.285	4.03
240.501	5.07
240.717	5.02
240.933	5.02
241.149	4.85
241.365	4.56
241.581	4.64
241.797	4.37
242.013	4.78
242.229	4.89
242.445	5.02
242.661	4.59
242.877	4.02
243.093	3.92
243.309	3.86
243.525	4.23
243.741	4.08
243.957	3.83
244.173	3.8
244.388	3.29
244.604	2.71
244.82	2.5
245.036	2.75
245.252	3.06
245.468	3.45
245.683	3.85
245.899	3.74
246.115	4.33
246.331	4.69
246.547	4.82
246.762	4.96
246.978	4.78
247.194	5.21
247.409	5.42
247.625	5.62
247.841	5.39
248.057	5.38
248.272	5.46
248.488	5.09
248.703	5.07
248.919	5.13
249.135	5.05
249.35	5.42
249.566	5.23
249.782	5.17
249.997	4.4
250.213	3.98
250.428	4.24
250.644	4.06
250.859	4.04
251.075	3.6
251.29	3.96
251.506	4.11
251.721	4.12
251.937	4.15
252.152	4.56
252.368	5.4
252.583	6.13
252.798	5.52
253.014	5.49
253.229	5.81
253.445	6.16
253.66	5.11
253.875	5.3
254.091	4.53
254.306	4.45
254.521	3.11
254.737	2.8
254.952	2.33
255.167	2.6
255.383	2.82
255.598	1.69
255.813	1.53
256.028	2.39
256.244	2.56
256.459	3.76
256.674	3.59
256.889	4.46
257.104	4.11
257.32	3.79
257.535	3.31
257.75	3.28
257.965	3.73
258.18	4.2
258.395	4.24
258.61	3.89
258.826	3.75
259.041	3.73
259.256	3.62
259.471	3.43
259.686	3.55
259.901	3.71
260.116	3.78
260.331	3.94
260.546	3.86
260.761	3.61
260.976	3.74
261.191	3.72
261.406	3.7
261.621	3.53
261.836	3.66
262.05	3.47
262.265	3.3
262.48	3.05
262.695	2.55
262.91	1.86
263.125	1.92
263.34	1.75
263.555	1.53
263.769	1.35
263.984	0.37
264.199	0.06
264.414	0.51
264.629	0.72
264.843	1.14
265.058	1.62
265.273	1.31
265.488	1.4
265.702	1.21
265.917	1.93
266.132	1.92
266.346	3.27
266.561	3.48
266.776	3.39
266.99	3.17
267.205	2.54
267.42	2.45
267.634	2.8
267.849	3.17
268.063	3.2
268.278	2.86
268.492	3.27
268.707	2.55
268.922	2.61
269.136	2.63
269.351	2.76
269.565	3.28
269.78	3.12
269.994	2.92
270.209	3.11
270.423	3.1
270.637	3.25
270.852	3.45
271.066	3.83
271.281	3.99
271.495	3.82
271.709	3.49
271.924	3.62
272.138	3.79
272.353	3.95
272.567	3.58
272.781	3.83
272.996	3.48
273.21	3.07
273.424	3.22
273.638	2.68
273.853	2.84
274.067	3.56
274.281	3.74
274.495	4.03
274.71	4.23
274.924	4.39
275.138	4.33
275.352	5.2
275.566	5.52
275.781	5.35
275.995	5.57
276.209	5.48
276.423	5.04
276.637	4.06
276.851	3.79
277.065	3.68
277.279	3.54
277.493	3.33
277.707	2.68
277.921	2.63
278.135	2.35
278.349	2.69
278.563	2.17
278.777	2.53
278.991	3.08
279.205	2.71
279.419	2.72
279.633	3.12
279.847	3.9
280.061	4.14
280.275	4.43
280.489	4.42
280.703	4.47
280.917	5.26
281.131	4.82
281.344	4.77
281.558	5.04
281.772	4.95
281.986	4.81
282.2	4.14
282.414	4.04
282.627	3.75
282.841	4.11
283.055	3.86
283.269	3.58
283.482	3.76
283.696	3.84
283.91	3.61
284.123	3.34
284.337	3.39
284.551	3.47
284.764	3.43
284.978	3.5
285.192	3.59
285.405	3.6
285.619	3.32
285.833	3.31
286.046	3.4
286.26	3.69
286.473	4.01
286.687	3.83
286.9	4.04
287.114	4.06
287.327	4.13
287.541	3.91
287.754	3.91
287.968	4.16
288.181	4.22
288.395	3.84
288.608	3.65
288.822	3.47
289.035	3.42
289.248	3.29
289.462	3.52
289.675	3.73
289.889	3.82
290.102	4.02
290.315	3.88
290.529	4.08
290.742	4.38
290.955	4.21
291.169	4.26
291.382	4.57
291.595	4.62
291.808	4.47
292.022	3.94
292.235	3.65
292.448	3.52
292.661	3.67
292.875	3.51
293.088	3.55
293.301	3.75
293.514	3.84
293.727	3.72
293.94	3.83
294.153	3.68
294.367	4.11
294.58	4.32
294.793	4.52
295.006	4.36
295.219	4.48
295.432	4.6
295.645	4.69
295.858	4.87
296.071	4.91
296.284	4.95
296.497	5.05
296.71	5.11
296.923	5.27
297.136	5.36
297.349	5.76
297.562	5.69
297.775	5.82
297.988	5.96
298.201	5.94
298.414	6.1
298.626	6.1
298.839	6.17
299.052	6.21
299.265	6.08
299.478	5.92
299.691	5.86
299.903	6
300.116	5.75
300.329	5.75
300.542	5.62
300.755	5.56
300.967	5.5
301.18	5.87
301.393	5.71
301.605	6.14
301.818	6.13
302.031	6.19
302.243	6.32
302.456	6.59
302.669	6.52
302.881	6.88
303.094	6.98
303.307	7.19
303.519	6.86
303.732	6.71
303.944	6.25
304.157	6.33
304.37	6.45
304.582	6.21
304.795	6.15
305.007	6.18
305.22	6.32
305.432	6.3
305.645	6.33
305.857	6.13
306.069	6.42
306.282	6.81
306.494	6.85
306.707	6.45
306.919	6.79
307.132	6.88
307.344	7.31
307.556	6.81
307.769	6.79
307.981	6.82
308.193	7.37
308.406	7.51
308.618	7.37
308.83	7.6
309.043	7.86
309.255	7.85
309.467	7.71
309.679	7.57
309.892	7.78
310.104	8.11
310.316	8.23
310.528	8.25
310.74	8.32
310.953	8.28
311.165	8.02
311.377	7.91
311.589	7.81
311.801	7.9
312.013	7.82
312.225	7.86
312.437	7.71
312.649	7.59
312.862	7.37
313.074	7.39
313.286	7.36
313.498	7.76
313.71	8.04
313.922	8.34
314.134	8.38
314.346	8.32
314.558	8.24
314.77	7.86
314.982	7.91
315.193	7.62
315.405	7.24
315.617	7.1
315.829	6.53
316.041	6.54
316.253	6.19
316.465	6.18
316.677	6.54
316.888	6.68
317.1	6.84
317.312	6.7
317.524	7.36
317.736	7.51
317.947	7.81
318.159	8.14
318.371	8.04
318.583	8.19
318.794	8.37
319.006	8.03
319.218	8.06
319.43	8.13
319.641	8.03
319.853	7.47
320.064	7.45
320.276	7.59
320.488	7.79
320.699	7.86
320.911	7.92
321.123	8.06
321.334	8.12
321.546	8.24
321.757	8.47
321.969	8.61
322.18	9.01
322.392	9.42
322.603	9.44
322.815	9.39
323.026	9.18
323.238	9.03
323.449	8.85
323.661	8.96
323.872	8.95
324.083	9.03
324.295	9.43
324.506	9.31
324.718	9.02
324.929	9.07
325.14	8.86
325.352	9.11
325.563	9.39
325.774	9.29
325.986	9.27
326.197	9.03
326.408	8.92
326.62	8.57
326.831	8.94
327.042	9.12
327.253	9.07
327.464	9.17
327.676	9.09
327.887	9.09
328.098	9.12
328.309	9.29
328.52	9.56
328.732	9.43
328.943	9.69
329.154	9.86
329.365	9.69
329.576	9.7
329.787	9.79
329.998	9.9
330.209	10.21
330.42	10.59
330.631	10.82
330.842	10.98
331.053	11.13
331.264	11.21
331.475	11.31
331.686	11.6
331.897	11.85
332.108	11.79
332.319	11.8
332.53	11.81
332.741	11.53
332.952	11.35
333.163	11.1
333.374	11.45
333.585	11
333.795	10.77
334.006	10.69
334.217	10.51
334.428	10.92
334.639	11.14
334.849	10.84
335.06	10.94
335.271	10.99
335.482	11.14
335.692	10.64
335.903	10.91
336.114	10.95
336.325	10.94
336.535	10.98
336.746	11.02
336.957	10.89
337.167	11
337.378	11.25
337.589	11.06
337.799	11.11
338.01	11.47
338.22	11.59
338.431	11.74
338.642	11.47
338.852	11.4
339.063	11.25
339.273	10.98
339.484	10.85
339.694	10.63
339.905	10.56
340.115	10.63
340.326	10.69
340.536	10.51
340.746	10.35
340.957	10.33
341.167	10.48
341.378	10.54
341.588	10.73
341.799	11.1
342.009	10.97
342.219	11.18
342.43	11.04
342.64	10.76
342.85	10.51
343.061	10.58
343.271	10.69
343.481	10.64
343.691	10.38
343.902	10.71
344.112	10.53
344.322	10.63
344.532	10.61
344.743	10.7
344.953	10.71
345.163	11.04
345.373	10.94
345.583	11.04
345.793	10.97
346.004	11.29
346.214	10.63
346.424	10.59
346.634	10.6
346.844	10.56
347.054	10.43
347.264	10.45
347.474	10.32
347.684	10.41
347.894	10.37
348.104	10.37
348.314	9.99
348.524	10.22
348.734	10.11
348.944	10.22
349.154	10.25
349.364	10.22
349.574	10.3
349.784	10.5
349.994	10.1
350.204	10.26
350.413	10.14
350.623	10.21
350.833	10.31
351.043	10.08
351.253	9.86
351.463	10.04
351.672	10.02
351.882	10.14
352.092	10.04
352.302	10.28
352.511	10.37
352.721	10.48
352.931	10.58
353.141	10.57
353.35	10.83
353.56	10.9
353.77	10.65
353.979	10.79
354.189	10.65
354.399	10.49
354.608	10.57
354.818	10.37
355.027	10.48
355.237	10.36
355.447	10.16
355.656	10.21
355.866	9.94
356.075	10
356.285	10.11
356.494	10.14
356.704	10.39
356.913	10.46
357.123	10.41
357.332	10.32
357.542	10.32
357.751	10.39
357.96	10.35
358.17	10.56
358.379	10.6
358.589	10.38
358.798	10.36
359.007	10.04
359.217	9.77
359.426	9.7
359.635	9.67
359.845	9.71
360.054	9.86
360.263	9.92
360.472	10.05
360.682	9.83
360.891	9.84
361.1	9.75
361.309	9.77
361.519	9.88
361.728	9.9
361.937	9.95
362.146	9.95
362.355	9.93
362.564	9.96
362.774	9.95
362.983	10.05
363.192	10.07
363.401	10.24
363.61	10.35
363.819	10.18
364.028	10.25
364.237	10.2
364.446	10.3
364.655	10.33
364.864	10.1
365.073	10.03
365.282	10
365.491	9.95
365.7	9.78
365.909	9.64
366.118	9.67
366.327	9.72
366.536	9.61
366.745	9.3
366.954	9.36
367.162	9.45
367.371	9.3
367.58	9.44
367.789	9.38
367.998	9.39
368.207	9.36
368.415	9.35
368.624	9.17
368.833	9.09
369.042	9.24
369.25	9.11
369.459	9.02
369.668	9.2
369.877	9.07
370.085	9.05
370.294	9.18
370.503	9.34
370.711	9.2
370.92	9.23
371.129	9.32
371.337	9.13
371.546	8.9
371.754	8.84
371.963	8.64
372.171	8.62
372.38	8.54
372.589	8.17
372.797	7.95
373.006	7.98
373.214	8.07
373.423	7.88
373.631	8.03
373.84	8.07
374.048	8.08
374.256	8.06
374.465	7.82
374.673	7.87
374.882	8.11
375.09	8.25
375.298	8.15
375.507	7.67
375.715	7.69
375.923	7.42
376.132	7.41
376.34	7.4
376.548	7.24
376.757	7.35
376.965	7.4
377.173	7.35
377.381	7.32
377.59	7.35
377.798	7.67
378.006	7.66
378.214	8.04
378.423	7.93
378.631	7.88
378.839	7.89
379.047	7.73
379.255	7.64
379.463	7.42
379.671	7.45
379.879	7.47
380.088	7.35
380.296	7.3
380.504	7.21
380.712	7.31
380.92	7.08
381.128	7.01
381.336	7.06
381.544	7.13
381.752	7.1
381.96	6.98
382.168	6.94
382.376	6.72
382.584	6.88
382.791	6.72
382.999	6.57
383.207	6.7
383.415	6.47
383.623	6.42
383.831	6.39
384.039	6.51
384.247	6.29
384.454	6.53
384.662	6.61
384.87	6.52
385.078	6.55
385.285	6.49
385.493	6.38
385.701	6.48
385.909	6.56
386.116	6.56
386.324	6.51
386.532	6.65
386.739	6.33
386.947	6.32
387.155	6.33
387.362	6.07
387.57	5.97
387.778	6.05
387.985	6.13
388.193	6.15
388.4	5.76
388.608	5.76
388.816	5.68
389.023	5.58
389.231	5.33
389.438	5.27
389.646	5.35
389.853	5.4
390.061	5.41
390.268	5.41
390.475	5.33
390.683	5.66
390.89	5.45
391.098	5.45
391.305	5.46
391.512	5.61
391.72	5.7
391.927	5.58
392.135	5.52
392.342	5.44
392.549	5.39
392.756	5.29
392.964	5.23
393.171	5.45
393.378	5.42
393.586	5.44
393.793	5.44
394	5.27
394.207	5.47
394.414	5.58
394.622	5.42
394.829	5.42
395.036	5.31
395.243	5.31
395.45	5.18
395.657	5.25
395.864	5.38
396.072	5.4
396.279	5.45
396.486	5.18
396.693	5
396.9	5.03
397.107	4.99
397.314	5.05
397.521	4.87
397.728	4.7
397.935	4.59
398.142	4.37
398.349	4.37
398.556	4.35
398.763	4.46
398.97	4.57
399.177	4.61
399.383	4.7
399.59	4.81
399.797	4.97
400.004	5.1
400.211	5.1
400.418	5.34
400.625	5.4
400.831	5.5
401.038	5.3
401.245	5.27
401.452	5.26
401.658	5.33
401.865	5.16
402.072	5.12
402.279	5.07
402.485	5
402.692	4.88
402.899	4.81
403.105	4.71
403.312	4.76
403.519	4.79
403.725	4.77
403.932	4.51
404.138	4.47
404.345	4.32
404.552	4.25
404.758	4.24
404.965	4.28
405.171	4.33
405.378	4.25
405.584	4.4
405.791	4.37
405.997	4.48
406.204	4.49
406.41	4.54
406.617	4.6
406.823	4.67
407.029	4.75
407.236	4.68
407.442	4.63
407.649	4.59
407.855	4.51
408.061	4.51
408.268	4.37
408.474	4.36
408.68	4.39
408.887	4.3
409.093	4.3
409.299	4.24
409.505	4.17
409.712	4.04
409.918	4.11
410.124	4.23
410.33	4.26
410.537	4.37
410.743	4.48
410.949	4.51
411.155	4.45
411.361	4.41
411.567	4.52
411.773	4.65
411.98	4.66
412.186	4.62
412.392	4.52
412.598	4.68
412.804	4.55
413.01	4.61
413.216	4.69
413.422	4.81
413.628	4.78
413.834	4.58
414.04	4.5
414.246	4.55
414.452	4.71
414.658	4.66
414.864	4.39
415.07	4.45
415.275	4.44
415.481	4.42
415.687	4.42
415.893	4.57
416.099	4.54
416.305	4.48
416.511	4.39
416.716	4.23
416.922	4.17
417.128	4.23
417.334	4.24
417.539	4.24
417.745	4.24
417.951	4.36
418.157	4.25
418.362	4.38
418.568	4.44
418.774	4.46
418.979	4.46
419.185	4.53
419.391	4.55
419.596	4.56
419.802	4.57
420.008	4.55
420.213	3.81
420.419	3.78
420.624	3.7
420.83	3.6
421.035	3.64
421.241	3.68
421.446	3.69
421.652	3.7
421.857	3.68
422.063	3.65
422.268	3.56
422.474	4.18
422.679	4.29
422.885	4.29
423.09	4.36
423.295	4.37
423.501	4.3
423.706	4.24
423.911	4.18
424.117	4.17
424.322	4.18
424.527	4.3
424.733	4.38
424.938	4.33
425.143	4.32
425.349	4.29
425.554	4.35
425.759	4.36
425.964	4.39
426.169	4.38
426.375	4.3
426.58	4.28
426.785	4.22
426.99	4.14
427.195	4.15
427.4	4.19
427.605	4.11
427.811	4.01
428.016	4.09
428.221	4.05
428.426	4.17
428.631	4.31
428.836	4.31
429.041	4.3
429.246	4.25
429.451	4.2
429.656	4.26
429.861	4.3
430.066	4.23
430.271	4.11
430.476	4.15
430.681	4.08
430.886	4.05
431.09	3.99
431.295	3.93
431.5	3.89
431.705	3.92
431.91	3.84
432.115	3.99
432.32	4.09
432.524	4.13
432.729	4.1
432.934	4.06
433.139	4.05
433.343	4.15
433.548	4.08
433.753	4.15
433.958	4.14
434.162	4.15
434.367	4.1
434.572	4.05
434.776	4.1
434.981	4.13
435.186	4.19
435.39	4.25
435.595	4.23
435.799	4.37
436.004	4.37
436.209	4.35
436.413	4.32
436.618	4.27
436.822	4.31
437.027	4.28
437.231	4.28
437.436	4.28
437.64	4.22
437.845	4.22
438.049	4.17
438.253	4.2
438.458	4.21
438.662	4.27
438.867	4.31
439.071	4.31
439.275	4.34
439.48	4.37
439.684	4.34
439.888	4.35
440.093	4.3
440.297	4.34
440.501	4.3
440.706	4.3
440.91	4.25
441.114	4.26
441.318	4.21
441.523	4.13
441.727	4.12
441.931	4.14
442.135	4.12
442.339	4.16
442.543	4.06
442.748	4.01
442.952	3.97
443.156	3.96
443.36	3.91
443.564	3.9
443.768	3.99
443.972	4.01
444.176	3.98
444.38	3.95
444.584	3.96
444.788	4.06
444.992	4.13
445.196	4.18
445.4	4.16
445.604	4.23
445.808	4.28
446.012	4.28
446.216	4.24
446.42	4.26
446.624	4.27
446.828	4.17
447.032	4.14
447.235	4.11
447.439	4.12
447.643	4.16
447.847	4.14
448.051	4.05
448.254	4.01
448.458	3.99
448.662	3.97
448.866	4
449.069	4.12
449.273	4.11
449.477	4.09
449.681	4.08
449.884	4.03
450.088	4
450.292	4.12
450.495	4.1
450.699	4.14
450.902	4.19
451.106	4.3
451.31	4.28
451.513	4.33
451.717	4.3
451.92	4.28
452.124	4.43
452.327	4.38
452.531	4.41
452.734	4.38
452.938	4.32
453.141	4.2
453.345	4.13
453.548	4.18
453.752	4.14
453.955	4.06
454.158	4.06
454.362	3.88
454.565	3.92
454.769	3.91
454.972	3.95
455.175	3.98
455.379	4.06
455.582	4.03
455.785	3.83
455.988	3.92
456.192	4.09
456.395	4.07
456.598	4.15
456.801	4.16
457.005	4.13
457.208	4.13
457.411	4.12
457.614	4.09
457.817	4.1
458.021	4.14
458.224	4.06
458.427	3.96
458.63	3.99
458.833	3.94
459.036	3.9
459.239	3.89
459.442	3.94
459.645	3.93
459.848	3.98
460.051	3.96
460.254	3.99
460.457	3.98
460.66	3.98
460.863	3.97
461.066	4.06
461.269	4.05
461.472	4.04
461.675	3.98
461.878	3.97
462.081	3.87
462.284	3.85
462.486	3.84
462.689	3.86
462.892	3.93
463.095	3.92
463.298	3.86
463.5	3.95
463.703	3.97
463.906	3.99
464.109	4.03
464.311	4.03
464.514	4.07
464.717	4
464.92	4.03
465.122	4.06
465.325	4.06
465.528	4.02
465.73	4.03
465.933	3.95
466.135	3.91
466.338	3.86
466.541	3.99
466.743	3.98
466.946	4.01
467.148	4.02
467.351	4.04
467.553	4.02
