Data from 2938816__Reflection_02.txt Node
Date: Thu Mar 12 15:25:44 EDT 2015
User: robert
Spectrometer: USB4E03002
Autoset integration time: false
Trigger mode: 4
Integration Time (sec): 1.000000E-1
Scans to average: 10
Electric dark correction enabled: false
Nonlinearity correction enabled: false
Boxcar width: 5
Stray light correction enabled: false
XAxis mode: Wavelengths
Stop averaging: false
Number of Pixels in Spectrum: 3648
>>>>>Begin Spectral Data<<<<<
177.575	-1000
177.794	-746.15
178.014	-480.65
178.233	-2100
178.452	1198.72
178.672	-3593.55
178.891	-592.67
179.11	-637.31
179.33	-765.06
179.549	-943.92
179.768	-7418.18
179.987	-5471.43
180.207	-963.64
180.426	2639.06
180.645	-1682.47
180.864	-1235.59
181.084	2326.56
181.303	904
181.522	4509.37
181.741	0
181.96	39225
182.179	-5759.26
182.398	-3166
182.618	1636.84
182.837	-2020.27
183.056	-2479.66
183.275	-2393.44
183.494	-4515.15
183.713	2357.38
183.932	981.38
184.151	808.05
184.37	341.62
184.589	303.86
184.808	227.16
185.027	177.4
185.246	168.66
185.465	160.47
185.684	180.64
185.903	198.92
186.122	260
186.341	287.85
186.56	301.6
186.779	326.79
186.998	440.75
187.216	437.2
187.435	751.98
187.654	685.67
187.873	948.99
188.092	786.5
188.311	548.8
188.53	443.98
188.748	369.67
188.967	409.85
189.186	754.22
189.405	437.24
189.623	444.87
189.842	446.47
190.061	392.57
190.28	430.7
190.498	459.37
190.717	888.55
190.936	1124.17
191.154	826.82
191.373	662
191.592	1104.27
191.81	-36433.33
192.029	-721.32
192.248	-385.06
192.466	-264.6
192.685	-358.37
192.904	-308.46
193.122	-251.57
193.341	-276.04
193.559	-250
193.778	-231.56
193.996	-1693.85
194.215	3055.26
194.433	475.79
194.652	321.39
194.87	283.97
195.089	369.73
195.307	398.14
195.526	316.22
195.744	287.36
195.963	260.98
196.181	281.14
196.399	302.55
196.618	311.62
196.836	441.22
197.055	712.93
197.273	540.95
197.491	445.16
197.71	285.06
197.928	276.43
198.146	316.54
198.365	525.19
198.583	530.71
198.801	583.43
199.019	734.04
199.238	500.51
199.456	348.78
199.674	426.01
199.892	465.61
200.111	583.73
200.329	481.16
200.547	358.7
200.765	323.21
200.983	341.22
201.202	323.95
201.42	273.94
201.638	329.55
201.856	389.22
202.074	325.2
202.292	294.56
202.51	562.18
202.728	608.25
202.946	845.58
203.165	532.66
203.383	535.95
203.601	527.97
203.819	770.23
204.037	637.68
204.255	465.82
204.473	577.44
204.691	1975.76
204.909	411.28
205.127	467.84
205.345	313.11
205.562	206.92
205.78	210.85
205.998	181.81
206.216	172.81
206.434	150.4
206.652	139.71
206.87	137.7
207.088	151.35
207.306	134.01
207.523	126.3
207.741	136.39
207.959	220.2
208.177	193.91
208.395	205.8
208.612	203.87
208.83	244.52
209.048	334.18
209.266	361.38
209.483	246.57
209.701	261.48
209.919	307.52
210.136	361.73
210.354	274.01
210.572	262.24
210.79	243.66
211.007	268.09
211.225	229.8
211.442	180.4
211.66	156.68
211.878	149.17
212.095	149.67
212.313	134.79
212.53	149.41
212.748	133.79
212.966	128.34
213.183	119.52
213.401	118.99
213.618	123.13
213.836	131.87
214.053	131.02
214.271	148.98
214.488	160.13
214.705	169.36
214.923	149.26
215.14	163.2
215.358	154.54
215.575	174.65
215.793	140.86
216.01	126.81
216.227	108.53
216.445	115.7
216.662	113.03
216.879	105.83
217.097	102.19
217.314	98.27
217.531	98.3
217.749	99.82
217.966	83.28
218.183	98.27
218.4	108.42
218.618	126.38
218.835	118.98
219.052	111.67
219.269	109.21
219.487	101.22
219.704	98.18
219.921	93.66
220.138	87.56
220.355	93.67
220.572	83.49
220.79	81.65
221.007	75.54
221.224	74.92
221.441	69.34
221.658	62.8
221.875	58.37
222.092	54.08
222.309	53.06
222.526	57.84
222.743	54.3
222.96	51.8
223.177	48.6
223.394	46.49
223.611	38.95
223.828	42.68
224.045	47.49
224.262	46.73
224.479	43.57
224.696	43.72
224.913	46.17
225.13	48.11
225.347	46.43
225.564	41.08
225.781	40.16
225.997	42.18
226.214	36.27
226.431	34.1
226.648	31.09
226.865	30.3
227.082	28.08
227.298	23.14
227.515	20.47
227.732	19.01
227.949	19.44
228.165	17.7
228.382	16.61
228.599	15.87
228.816	14.66
229.032	13.95
229.249	13.03
229.466	12.62
229.682	13.16
229.899	13.01
230.116	13.35
230.332	13.22
230.549	13.62
230.765	13.26
230.982	14.52
231.199	14.53
231.415	15.71
231.632	14.83
231.848	15.83
232.065	14.34
232.281	16.51
232.498	16.01
232.714	15.47
232.931	15.51
233.147	17.39
233.364	16.09
233.58	17.54
233.797	17.67
234.013	20.29
234.23	19.84
234.446	20.02
234.662	17.5
234.879	17.94
235.095	17.66
235.312	17.86
235.528	17.65
235.744	18.01
235.961	17.64
236.177	17.46
236.393	16.25
236.61	15.48
236.826	16.52
237.042	18.51
237.258	18.43
237.475	19.21
237.691	20.24
237.907	19.19
238.123	20.66
238.339	20.47
238.556	20.42
238.772	21.13
238.988	23.09
239.204	23.4
239.42	22.88
239.636	22.99
239.853	20.58
240.069	17.82
240.285	16.78
240.501	15.23
240.717	14.64
240.933	14.23
241.149	12.63
241.365	11.26
241.581	10.85
241.797	10.45
242.013	9.19
242.229	9.03
242.445	9.23
242.661	9.34
242.877	9.75
243.093	9.64
243.309	9.11
243.525	9.71
243.741	10.05
243.957	9.58
244.173	9.21
244.388	10.35
244.604	10.88
244.82	10.93
245.036	10.68
245.252	10.23
245.468	9.75
245.683	9.65
245.899	9.4
246.115	8.98
246.331	8.58
246.547	8.49
246.762	8.13
246.978	7.94
247.194	7.71
247.409	7.91
247.625	7.72
247.841	7.72
248.057	7.64
248.272	7.25
248.488	7.06
248.703	7.12
248.919	7.57
249.135	7.63
249.35	7.64
249.566	8.4
249.782	8.09
249.997	8.84
250.213	9.09
250.428	9.49
250.644	9.82
250.859	9.88
251.075	10.78
251.29	10.17
251.506	9.96
251.721	10.37
251.937	10.7
252.152	10.68
252.368	10.04
252.583	9.91
252.798	9.92
253.014	10.6
253.229	10.86
253.445	11.19
253.66	11.76
253.875	12.34
254.091	12.44
254.306	12.45
254.521	13.56
254.737	14.39
254.952	14.87
255.167	14.88
255.383	14.18
255.598	13.81
255.813	13.14
256.028	12.9
256.244	13.37
256.459	13.11
256.674	11.89
256.889	10.77
257.104	9.89
257.32	9.37
257.535	9.22
257.75	9.45
257.965	9.65
258.18	9.22
258.395	8.29
258.61	7.32
258.826	6.71
259.041	6.45
259.256	6.47
259.471	6.45
259.686	6.52
259.901	6.5
260.116	6.27
260.331	5.65
260.546	5.59
260.761	5.99
260.976	6.34
261.191	6.75
261.406	6.77
261.621	6.71
261.836	6.65
262.05	6.4
262.265	6.86
262.48	6.99
262.695	7.71
262.91	8.22
263.125	8.01
263.34	7.5
263.555	7.56
263.769	8.21
263.984	8.45
264.199	8.66
264.414	9.52
264.629	9.12
264.843	9.04
265.058	9.46
265.273	9.19
265.488	9.38
265.702	9.64
265.917	9.31
266.132	8.78
266.346	8.64
266.561	8.68
266.776	7.96
266.99	7.39
267.205	7.78
267.42	7.82
267.634	7.95
267.849	7.56
268.063	7.24
268.278	6.8
268.492	7.08
268.707	7.05
268.922	6.63
269.136	6.43
269.351	7.12
269.565	6.65
269.78	6.23
269.994	5.79
270.209	5.78
270.423	6
270.637	6.42
270.852	5.75
271.066	5.25
271.281	5.45
271.495	5.87
271.709	5.4
271.924	5.43
272.138	5.23
272.353	5.22
272.567	5.18
272.781	5.51
272.996	5.67
273.21	5.56
273.424	6.07
273.638	6.16
273.853	6.45
274.067	6.81
274.281	6.98
274.495	7.64
274.71	7.01
274.924	7.26
275.138	6.6
275.352	6.84
275.566	7.7
275.781	7.54
275.995	7.56
276.209	7.32
276.423	6.79
276.637	6.47
276.851	5.8
277.065	6.73
277.279	6.66
277.493	7.24
277.707	6.61
277.921	6.55
278.135	6.51
278.349	6.37
278.563	6.67
278.777	7.45
278.991	7.8
279.205	8.3
279.419	8.16
279.633	8.27
279.847	8.16
280.061	8.28
280.275	8.07
280.489	7.61
280.703	7.98
280.917	7.55
281.131	7.05
281.344	6.99
281.558	6.83
281.772	6.79
281.986	6.74
282.2	6.57
282.414	6.45
282.627	6.42
282.841	6.67
283.055	6.41
283.269	6.61
283.482	6.59
283.696	6.59
283.91	6.5
284.123	6.19
284.337	6.25
284.551	6.22
284.764	6.27
284.978	6.15
285.192	6.25
285.405	5.97
285.619	5.52
285.833	5.67
286.046	5.47
286.26	5.4
286.473	5.52
286.687	5.45
286.9	5.81
287.114	5.91
287.327	6.34
287.541	6.37
287.754	6.64
287.968	7.17
288.181	6.51
288.395	6.63
288.608	6.58
288.822	6.69
289.035	6.47
289.248	6.01
289.462	5.74
289.675	5.57
289.889	5.65
290.102	5.78
290.315	5.56
290.529	6.12
290.742	5.96
290.955	6.03
291.169	5.96
291.382	6.51
291.595	6.55
291.808	6.73
292.022	6.52
292.235	6.4
292.448	6.52
292.661	6.75
292.875	6.92
293.088	7.39
293.301	7.71
293.514	7.67
293.727	7.09
293.94	7.36
294.153	7.53
294.367	7.63
294.58	7.67
294.793	7.35
295.006	7.21
295.219	7.1
295.432	6.92
295.645	6.96
295.858	6.81
296.071	6.88
296.284	6.85
296.497	6.89
296.71	6.95
296.923	6.9
297.136	6.88
297.349	7.09
297.562	7.06
297.775	7.19
297.988	7.12
298.201	7.44
298.414	7.57
298.626	7.54
298.839	7.4
299.052	7.46
299.265	8.12
299.478	8.49
299.691	8.34
299.903	8.35
300.116	8.41
300.329	8.7
300.542	8.83
300.755	9.01
300.967	9.07
301.18	9.49
301.393	9.46
301.605	9.08
301.818	9.11
302.031	9.12
302.243	9.38
302.456	9.68
302.669	9.61
302.881	9.57
303.094	9.81
303.307	9.94
303.519	9.95
303.732	10.09
303.944	10.07
304.157	9.86
304.37	10.01
304.582	10.12
304.795	10.05
305.007	10.27
305.22	10.22
305.432	10.18
305.645	10
305.857	9.9
306.069	9.81
306.282	10.14
306.494	10.37
306.707	10.62
306.919	10.59
307.132	10.77
307.344	10.55
307.556	10.86
307.769	10.78
307.981	10.75
308.193	10.95
308.406	11.13
308.618	10.7
308.83	10.98
309.043	10.96
309.255	11.03
309.467	10.88
309.679	10.9
309.892	10.64
310.104	10.29
310.316	10.54
310.528	10.36
310.74	10.28
310.953	10.58
311.165	10.41
311.377	10.18
311.589	9.92
311.801	9.81
312.013	9.72
312.225	9.9
312.437	10.44
312.649	10.28
312.862	10.65
313.074	10.67
313.286	10.39
313.498	10.3
313.71	10.38
313.922	10.8
314.134	11.09
314.346	11.15
314.558	11.28
314.77	11.14
314.982	11.28
315.193	10.64
315.405	10.86
315.617	11.11
315.829	10.82
316.041	10.74
316.253	10.7
316.465	10.27
316.677	10.58
316.888	10.26
317.1	10.12
317.312	10.24
317.524	10.76
317.736	10.76
317.947	10.93
318.159	11.38
318.371	12.29
318.583	12.9
318.794	13.65
319.006	13.65
319.218	14.15
319.43	14.49
319.641	14.62
319.853	14.28
320.064	14.27
320.276	14.07
320.488	14.24
320.699	13.93
320.911	13.55
321.123	13.57
321.334	13.76
321.546	13.52
321.757	13.4
321.969	13.14
322.18	13.81
322.392	13.87
322.603	14.14
322.815	14.05
323.026	13.8
323.238	13.76
323.449	13.5
323.661	13.22
323.872	13.35
324.083	13.59
324.295	13.7
324.506	13.16
324.718	12.83
324.929	13.1
325.14	13.54
325.352	13.48
325.563	13.43
325.774	13.4
325.986	13.65
326.197	13.65
326.408	13.67
326.62	13.94
326.831	14.31
327.042	14.89
327.253	14.55
327.464	14.01
327.676	14.43
327.887	14.75
328.098	14.89
328.309	15.17
328.52	15.44
328.732	15.56
328.943	15.46
329.154	15.61
329.365	15.63
329.576	15.76
329.787	16.61
329.998	16.54
330.209	16.73
330.42	17.41
330.631	16.98
330.842	17.44
331.053	17.53
331.264	17.59
331.475	17.84
331.686	17.77
331.897	17.76
332.108	17.54
332.319	17.47
332.53	17.74
332.741	17.11
332.952	17.5
333.163	16.78
333.374	16.81
333.585	16.96
333.795	16.84
334.006	16.95
334.217	17.32
334.428	17.56
334.639	17.69
334.849	17.11
335.06	16.89
335.271	17.03
335.482	17.61
335.692	17.74
335.903	18.04
336.114	17.93
336.325	17.94
336.535	18.2
336.746	18.16
336.957	18.36
337.167	18.77
337.378	19.39
337.589	19.3
337.799	19.38
338.01	19.18
338.22	18.9
338.431	18.99
338.642	18.9
338.852	18.07
339.063	17.78
339.273	17.4
339.484	17.33
339.694	17.08
339.905	17.17
340.115	16.8
340.326	16.95
340.536	17.04
340.746	16.95
340.957	16.99
341.167	17.76
341.378	17.92
341.588	18.03
341.799	17.72
342.009	17.82
342.219	17.74
342.43	17.98
342.64	17.84
342.85	17.69
343.061	17.47
343.271	17.55
343.481	17.31
343.691	17.46
343.902	17.32
344.112	17.58
344.322	17.7
344.532	17.67
344.743	17.3
344.953	17.39
345.163	17.67
345.373	17.98
345.583	17.98
345.793	17.78
346.004	17.89
346.214	18.04
346.424	18.19
346.634	17.91
346.844	17.92
347.054	18.04
347.264	17.86
347.474	17.48
347.684	17.56
347.894	17.39
348.104	17.36
348.314	17.02
348.524	16.96
348.734	16.87
348.944	16.93
349.154	16.49
349.364	16.89
349.574	17.31
349.784	17.71
349.994	17.56
350.204	17.75
350.413	17.9
350.623	18
350.833	18.16
351.043	17.65
351.253	17.69
351.463	18.1
351.672	17.91
351.882	17.93
352.092	17.47
352.302	17.54
352.511	17.53
352.721	17.44
352.931	17.22
353.141	17.01
353.35	17.26
353.56	17.22
353.77	16.86
353.979	16.89
354.189	16.51
354.399	16.88
354.608	16.79
354.818	16.7
355.027	16.68
355.237	16.73
355.447	16.94
355.656	16.95
355.866	16.66
356.075	17.08
356.285	16.68
356.494	16.69
356.704	16.1
356.913	15.91
357.123	15.72
357.332	15.55
357.542	15.65
357.751	15.49
357.96	15.57
358.17	15.84
358.379	15.55
358.589	15.87
358.798	15.98
359.007	16.23
359.217	16.26
359.426	16.47
359.635	16.79
359.845	16.66
360.054	16.49
360.263	16.43
360.472	16.48
360.682	16.32
360.891	16.25
361.1	16.12
361.309	16.04
361.519	15.99
361.728	15.86
361.937	15.63
362.146	15.63
362.355	15.76
362.564	15.67
362.774	15.4
362.983	15.39
363.192	15.02
363.401	14.96
363.61	15.02
363.819	15.34
364.028	15.46
364.237	15.57
364.446	15.63
364.655	15.49
364.864	15.26
365.073	15.4
365.282	15.8
365.491	15.81
365.7	15.92
365.909	16.03
366.118	15.77
366.327	15.83
366.536	15.76
366.745	15.73
366.954	15.6
367.162	15.64
367.371	15.67
367.58	15.43
367.789	15.62
367.998	15.29
368.207	15.26
368.415	15.07
368.624	15.27
368.833	15.38
369.042	15.23
369.25	15.49
369.459	15.57
369.668	15.6
369.877	15.59
370.085	15.58
370.294	15.65
370.503	15.49
370.711	15.33
370.92	14.73
371.129	14.68
371.337	14.47
371.546	14.35
371.754	14.43
371.963	14.23
372.171	14.1
372.38	13.91
372.589	13.76
372.797	13.95
373.006	14.26
373.214	14.29
373.423	14.29
373.631	14.69
373.84	14.66
374.048	14.49
374.256	14.32
374.465	14.1
374.673	14.33
374.882	14.4
375.09	14.24
375.298	14.07
375.507	14.23
375.715	14.12
375.923	13.6
376.132	13.66
376.34	13.62
376.548	13.48
376.757	13.67
376.965	13.67
377.173	13.52
377.381	13.31
377.59	13.38
377.798	13.23
378.006	12.96
378.214	13.05
378.423	12.96
378.631	13.11
378.839	13.16
379.047	12.91
379.255	12.73
379.463	12.9
379.671	12.95
379.879	12.91
380.088	12.91
380.296	12.9
380.504	12.93
380.712	12.51
380.92	12.2
381.128	12.21
381.336	12.4
381.544	12.59
381.752	12.47
381.96	12.29
382.168	12.17
382.376	11.91
382.584	11.89
382.791	11.64
382.999	11.59
383.207	11.89
383.415	12.05
383.623	11.76
383.831	11.53
384.039	11.73
384.247	11.82
384.454	11.88
384.662	11.81
384.87	11.81
385.078	11.74
385.285	12.04
385.493	11.54
385.701	11.57
385.909	11.78
386.116	11.92
386.324	11.76
386.532	11.79
386.739	11.69
386.947	11.64
387.155	11.85
387.362	12.1
387.57	12.02
387.778	12.08
387.985	11.82
388.193	11.83
388.4	11.53
388.608	11.42
388.816	11.18
389.023	11.17
389.231	11.15
389.438	10.87
389.646	10.76
389.853	10.74
390.061	10.86
390.268	10.81
390.475	10.55
390.683	10.51
390.89	10.32
391.098	10.46
391.305	10.38
391.512	10.42
391.72	10.31
391.927	10.13
392.135	9.91
392.342	9.8
392.549	9.67
392.756	9.67
392.964	9.49
393.171	9.7
393.378	9.4
393.586	9.36
393.793	9.43
394	9.54
394.207	9.68
394.414	9.82
394.622	9.79
394.829	9.99
395.036	10.07
395.243	10.21
395.45	10.04
395.657	10.02
395.864	9.99
396.072	9.74
396.279	9.72
396.486	9.62
396.693	9.54
396.9	9.32
397.107	9.05
397.314	9.23
397.521	9.3
397.728	9.11
397.935	9.21
398.142	9.21
398.349	9.24
398.556	9.16
398.763	9.29
398.97	9.27
399.177	9.36
399.383	9.56
399.59	9.37
399.797	9.24
400.004	9.37
400.211	9.28
400.418	9.27
400.625	9.38
400.831	9.47
401.038	9.31
401.245	9.28
401.452	9.35
401.658	9.27
401.865	9.03
402.072	9
402.279	9.11
402.485	9.34
402.692	9.28
402.899	9.2
403.105	9.06
403.312	9
403.519	9.04
403.725	9.16
403.932	9.13
404.138	9.15
404.345	9
404.552	8.81
404.758	8.59
404.965	8.58
405.171	8.68
405.378	8.77
405.584	8.89
405.791	8.86
405.997	8.65
406.204	8.61
406.41	8.62
406.617	8.83
406.823	8.8
407.029	8.86
407.236	8.92
407.442	8.74
407.649	8.48
407.855	8.26
408.061	8.19
408.268	8.27
408.474	8.3
408.68	8.34
408.887	8.3
409.093	8.41
409.299	8.39
409.505	8.39
409.712	8.38
409.918	8.56
410.124	8.68
410.33	8.56
410.537	8.57
410.743	8.52
410.949	8.49
411.155	8.47
411.361	8.47
411.567	8.44
411.773	8.29
411.98	8.41
412.186	8.45
412.392	8.32
412.598	8.54
412.804	8.51
413.01	8.56
413.216	8.59
413.422	8.64
413.628	8.64
413.834	8.55
414.04	8.67
414.246	8.44
414.452	8.44
414.658	8.46
414.864	8.31
415.07	8.37
415.275	8.36
415.481	8.37
415.687	8.36
415.893	8.34
416.099	8.32
416.305	8.19
416.511	8.22
416.716	8.22
416.922	8.2
417.128	8.09
417.334	8.01
417.539	7.84
417.745	7.78
417.951	7.59
418.157	7.48
418.362	7.36
418.568	7.33
418.774	7.3
418.979	7.28
419.185	7.27
419.391	7.28
419.596	7.26
419.802	7.31
420.008	7.29
420.213	7.34
420.419	7.31
420.624	7.34
420.83	7.42
421.035	7.42
421.241	7.3
421.446	7.3
421.652	7.28
421.857	7.22
422.063	7.28
422.268	7.22
422.474	7.16
422.679	7.16
422.885	7.22
423.09	7.16
423.295	7.16
423.501	7.19
423.706	7.15
423.911	7.21
424.117	7.25
424.322	7.2
424.527	7.23
424.733	7.18
424.938	7.22
425.143	7.2
425.349	7.17
425.554	7.08
425.759	7.16
425.964	7.16
426.169	7.13
426.375	7.15
426.58	7.07
426.785	7.14
426.99	7.32
427.195	7.23
427.4	7.3
427.605	7.39
427.811	7.55
428.016	7.46
428.221	7.52
428.426	7.47
428.631	7.46
428.836	7.49
429.041	7.43
429.246	7.51
429.451	7.61
429.656	7.47
429.861	7.37
430.066	7.38
430.271	7.39
430.476	7.22
430.681	7.33
430.886	7.3
431.09	7.28
431.295	7.25
431.5	7.06
431.705	7.11
431.91	7.06
432.115	7.11
432.32	7.08
432.524	7.06
432.729	7.2
432.934	7.18
433.139	7.12
433.343	7.13
433.548	7.12
433.753	7.15
433.958	7.15
434.162	7.15
434.367	7.12
434.572	7.13
434.776	7.01
434.981	6.91
435.186	6.86
435.39	6.92
435.595	7
435.799	6.99
436.004	7.05
436.209	7.04
436.413	7.25
436.618	7.38
436.822	7.42
437.027	7.51
437.231	7.54
437.436	7.57
437.64	7.58
437.845	7.56
438.049	7.57
438.253	7.54
438.458	7.48
438.662	7.41
438.867	7.31
439.071	7.21
439.275	7.21
439.48	7.23
439.684	7.22
439.888	7.15
440.093	7.18
440.297	7.21
440.501	7.24
440.706	7.27
440.91	7.23
441.114	7.13
441.318	7.13
441.523	7.18
441.727	7.21
441.931	7.15
442.135	7.16
442.339	7.02
442.543	7.01
442.748	6.97
442.952	6.91
443.156	6.86
443.36	7.01
443.564	7.13
443.768	7.08
443.972	7.09
444.176	7.13
444.38	7.16
444.584	7.26
444.788	7.29
444.992	7.32
445.196	7.3
445.4	7.31
445.604	7.26
445.808	7.11
446.012	7.1
446.216	7.03
446.42	7
446.624	6.97
446.828	6.92
447.032	6.82
447.235	6.73
447.439	6.73
447.643	6.64
447.847	6.67
448.051	6.77
448.254	6.65
448.458	6.72
448.662	6.76
448.866	6.71
449.069	6.74
449.273	6.79
449.477	6.85
449.681	6.87
449.884	6.98
450.088	6.94
450.292	6.92
450.495	7.13
450.699	7.17
450.902	7.12
451.106	7.26
451.31	7.31
451.513	7.28
451.717	7.25
451.92	7.26
452.124	7.38
452.327	7.33
452.531	7.36
452.734	7.29
452.938	7.11
453.141	7.14
453.345	7.09
453.548	7.04
453.752	6.98
453.955	7
454.158	6.98
454.362	6.84
454.565	6.86
454.769	6.82
454.972	6.74
455.175	6.87
455.379	6.78
455.582	6.84
455.785	6.76
455.988	6.76
456.192	6.7
456.395	6.65
456.598	6.71
456.801	6.77
457.005	6.8
457.208	7
457.411	6.89
457.614	6.93
457.817	6.91
458.021	6.91
458.224	7
458.427	7.07
458.63	7.09
458.833	7.1
459.036	7.04
459.239	6.91
459.442	6.71
459.645	6.73
459.848	6.74
460.051	6.74
460.254	6.82
460.457	6.8
460.66	6.7
460.863	6.7
461.066	6.65
461.269	6.61
461.472	6.74
461.675	6.81
461.878	6.88
462.081	6.93
