Data from 2938837__Reflection_03.txt Node
Date: Thu Mar 12 10:48:21 EDT 2015
User: robert
Spectrometer: USB4E03002
Autoset integration time: false
Trigger mode: 4
Integration Time (sec): 1.000000E-1
Scans to average: 10
Electric dark correction enabled: false
Nonlinearity correction enabled: false
Boxcar width: 5
Stray light correction enabled: false
XAxis mode: Wavelengths
Stop averaging: false
Number of Pixels in Spectrum: 3648
>>>>>Begin Spectral Data<<<<<
177.575	291.07
177.794	451.82
178.014	448.55
178.233	500.31
178.452	486.8
178.672	517.48
178.891	616.15
179.11	585.6
179.33	532.05
179.549	446.75
179.768	440.59
179.987	867.29
180.207	810.17
180.426	888.72
180.645	606.05
180.864	429.72
181.084	520.96
181.303	447.42
181.522	466.95
181.741	682.3
181.96	1377.85
182.179	1415.89
182.398	842.7
182.618	607.11
182.837	570.28
183.056	708.51
183.275	2711.54
183.494	1375.8
183.713	2123.15
183.932	-8700
184.151	7148.39
184.37	882.88
184.589	1679.1
184.808	1573.24
185.027	1568.66
185.246	4180.43
185.465	-1716.96
185.684	2189.9
185.903	210100
186.122	665.31
186.341	402.72
186.56	312.39
186.779	310.87
186.998	321.75
187.216	280.94
187.435	266.08
187.654	263.17
187.873	223.22
188.092	260.7
188.311	232.39
188.53	267.14
188.748	283.12
188.967	362.56
189.186	506.36
189.405	431.33
189.623	403.3
189.842	420.66
190.061	390.31
190.28	371.06
190.498	391.25
190.717	357.4
190.936	370.91
191.154	420.28
191.373	374.08
191.592	348.85
191.81	331.08
192.029	459.22
192.248	393.93
192.466	432.46
192.685	473
192.904	329.26
193.122	293.95
193.341	358.86
193.559	301.96
193.778	293.35
193.996	270.19
194.215	285.29
194.433	246.28
194.652	288.16
194.87	400.44
195.089	460.22
195.307	665.89
195.526	1560.5
195.744	2466.25
195.963	-32083.33
196.181	-1721.62
196.399	-1033.33
196.618	-989.43
196.836	-556.61
197.055	-693.81
197.273	-3619.4
197.491	13557.89
197.71	60325
197.928	2451.04
198.146	2091.45
198.365	3405.88
198.583	2090.91
198.801	1021.7
199.019	644.48
199.238	422.38
199.456	449.6
199.674	468.54
199.892	414.1
200.111	370
200.329	380.06
200.547	306.15
200.765	297.68
200.983	293.35
201.202	345.85
201.42	348.9
201.638	321.73
201.856	346.52
202.074	383.42
202.292	560.27
202.51	846.18
202.728	674.68
202.946	820.31
203.165	543.09
203.383	561.74
203.601	408.6
203.819	476.63
204.037	538.66
204.255	414.81
204.473	353.61
204.691	319.11
204.909	310.45
205.127	322.42
205.345	289.95
205.562	283.09
205.78	269.53
205.998	313.51
206.216	255.25
206.434	233.8
206.652	269.85
206.87	298.97
207.088	302.63
207.306	258.61
207.523	234.04
207.741	245.62
207.959	237.15
208.177	209.92
208.395	193.04
208.612	203.78
208.83	216.79
209.048	196.7
209.266	190.53
209.483	160.96
209.701	176.29
209.919	185.22
210.136	194.38
210.354	235.01
210.572	295.63
210.79	325.46
211.007	459.47
211.225	579.42
211.442	645.35
211.66	521.1
211.878	1029.59
212.095	648.83
212.313	553.71
212.53	522.28
212.748	425.79
212.966	345.39
213.183	294.29
213.401	236.37
213.618	226.17
213.836	231.48
214.053	250.05
214.271	214.9
214.488	219.84
214.705	256.2
214.923	235.47
215.14	214.19
215.358	218.82
215.575	234.62
215.793	221.31
216.01	242.03
216.227	237.51
216.445	224.46
216.662	267.54
216.879	249.03
217.097	241.43
217.314	216.9
217.531	263.05
217.749	248.82
217.966	238.26
218.183	236.19
218.4	202.45
218.618	202.4
218.835	194.14
219.052	183.02
219.269	192.17
219.487	173.96
219.704	178.69
219.921	146.11
220.138	141.9
220.355	143.23
220.572	142.75
220.79	142.39
221.007	137.66
221.224	139.56
221.441	132.9
221.658	115.34
221.875	107.02
222.092	100.73
222.309	103.7
222.526	111.98
222.743	107.68
222.96	96.66
223.177	93.81
223.394	92.68
223.611	89.38
223.828	89.09
224.045	92.36
224.262	95.1
224.479	95.08
224.696	95.23
224.913	86.27
225.13	81.46
225.347	79.49
225.564	74.64
225.781	69.8
225.997	63.86
226.214	60.52
226.431	51.7
226.648	44.32
226.865	39.5
227.082	33.59
227.298	29.79
227.515	25.17
227.732	22.38
227.949	21.93
228.165	19.79
228.382	19.08
228.599	16.87
228.816	15.27
229.032	15.18
229.249	14.66
229.466	14.55
229.682	14.54
229.899	15.46
230.116	16.71
230.332	16.56
230.549	18.09
230.765	18.36
230.982	19.12
231.199	21.35
231.415	21.93
231.632	23.13
231.848	24.8
232.065	25.66
232.281	25.99
232.498	24.43
232.714	25.51
232.931	24.45
233.147	24.64
233.364	26.59
233.58	26.67
233.797	26.92
234.013	26.8
234.23	26.86
234.446	25.4
234.662	24.29
234.879	26.61
235.095	26.83
235.312	25.66
235.528	27
235.744	26.29
235.961	26.42
236.177	25.79
236.393	25.49
236.61	24.99
236.826	26.44
237.042	26.97
237.258	26.1
237.475	26.32
237.691	27.11
237.907	25.01
238.123	26.66
238.339	27.44
238.556	28.61
238.772	28.22
238.988	27.62
239.204	27.47
239.42	25.81
239.636	24.54
239.853	22.96
240.069	22.92
240.285	22.43
240.501	20.71
240.717	18.25
240.933	16.72
241.149	16.36
241.365	15.72
241.581	14.87
241.797	14.44
242.013	13.21
242.229	12.84
242.445	12.56
242.661	12.37
242.877	12.41
243.093	12.79
243.309	13.15
243.525	13.23
243.741	14.26
243.957	14.64
244.173	15.44
244.388	16.68
244.604	17.15
244.82	17.9
245.036	16.99
245.252	16.53
245.468	15.41
245.683	14.06
245.899	13.39
246.115	12.2
246.331	10.9
246.547	10.23
246.762	9.69
246.978	9.35
247.194	8.64
247.409	8.7
247.625	8.3
247.841	8.16
248.057	8.66
248.272	8.72
248.488	8.8
248.703	9.28
248.919	9.68
249.135	10.26
249.35	10.73
249.566	11.29
249.782	12.29
249.997	13.38
250.213	14.22
250.428	15.01
250.644	14.91
250.859	15.26
251.075	15.91
251.29	15.25
251.506	14.91
251.721	13.86
251.937	13.26
252.152	13.34
252.368	12.76
252.583	12.8
252.798	12.29
253.014	12.75
253.229	13.07
253.445	13.07
253.66	14.28
253.875	14.1
254.091	15.69
254.306	16.52
254.521	16.05
254.737	17.62
254.952	17.66
255.167	18.41
255.383	17.6
255.598	17.21
255.813	17.88
256.028	17.47
256.244	17.92
256.459	17.05
256.674	16.95
256.889	16.19
257.104	14.73
257.32	14.57
257.535	13.08
257.75	12.86
257.965	11.58
258.18	10.69
258.395	10.09
258.61	9.1
258.826	8.64
259.041	8.41
259.256	8.36
259.471	8.01
259.686	7.71
259.901	7.8
260.116	7.46
260.331	7.85
260.546	7.76
260.761	7.57
260.976	7.93
261.191	8.27
261.406	8.31
261.621	8.52
261.836	8.89
262.05	9.48
262.265	9.47
262.48	10.11
262.695	10.01
262.91	10.23
263.125	11.38
263.34	12.02
263.555	12.19
263.769	12.28
263.984	12.17
264.199	12.41
264.414	11.85
264.629	12.86
264.843	13.49
265.058	13.24
265.273	13.09
265.488	12.02
265.702	11.35
265.917	10.59
266.132	10.35
266.346	10.17
266.561	10.07
266.776	10.03
266.99	9.23
267.205	8.36
267.42	8.41
267.634	8.79
267.849	8.98
268.063	9.08
268.278	9.41
268.492	10.11
268.707	10.19
268.922	10.23
269.136	10.37
269.351	10.04
269.565	10.77
269.78	10.37
269.994	9.96
270.209	10.13
270.423	10.32
270.637	10.14
270.852	9.27
271.066	8.88
271.281	8.62
271.495	8.57
271.709	8.58
271.924	7.9
272.138	8.01
272.353	8.27
272.567	7.7
272.781	7.48
272.996	7.27
273.21	7.84
273.424	8.11
273.638	8.12
273.853	8.02
274.067	8.39
274.281	8.95
274.495	9.28
274.71	8.98
274.924	9.36
275.138	9.48
275.352	10.15
275.566	10.05
275.781	10.18
275.995	10.17
276.209	10.59
276.423	10.66
276.637	10.76
276.851	10.61
277.065	10.37
277.279	10.1
277.493	10.17
277.707	10.06
277.921	10.1
278.135	10.14
278.349	10.32
278.563	9.51
278.777	9.48
278.991	9.07
279.205	8.79
279.419	9.03
279.633	9.5
279.847	9.31
280.061	8.99
280.275	8.72
280.489	8.27
280.703	8.03
280.917	8.26
281.131	8.56
281.344	8.68
281.558	8.95
281.772	8.87
281.986	8.91
282.2	8.49
282.414	8.88
282.627	8.98
282.841	9.08
283.055	9.32
283.269	9.39
283.482	9.06
283.696	8.41
283.91	8.31
284.123	7.87
284.337	7.69
284.551	7.96
284.764	7.69
284.978	7.66
285.192	7.53
285.405	7.19
285.619	6.97
285.833	6.67
286.046	6.8
286.26	6.75
286.473	6.97
286.687	7.05
286.9	6.95
287.114	6.72
287.327	6.67
287.541	7.09
287.754	7.46
287.968	7.72
288.181	8.07
288.395	8.26
288.608	8.25
288.822	8.5
289.035	8.52
289.248	8.52
289.462	8.81
289.675	8.49
289.889	8.46
290.102	8.17
290.315	8.13
290.529	8.1
290.742	8.03
290.955	8.31
291.169	8.03
291.382	7.88
291.595	8.03
291.808	8.08
292.022	8.59
292.235	8.42
292.448	8.6
292.661	8.56
292.875	8.49
293.088	8.97
293.301	8.41
293.514	8.65
293.727	8.69
293.94	8.68
294.153	8.72
294.367	8.71
294.58	8.58
294.793	8.66
295.006	8.66
295.219	8.88
295.432	8.89
295.645	9.02
295.858	8.95
296.071	9.01
296.284	8.83
296.497	8.51
296.71	8.43
296.923	8.52
297.136	8.56
297.349	8.48
297.562	8.29
297.775	8.17
297.988	8.4
298.201	8.7
298.414	8.58
298.626	8.78
298.839	9.18
299.052	9.36
299.265	9.51
299.478	9.65
299.691	10.1
299.903	10.44
300.116	10.6
300.329	10.73
300.542	10.76
300.755	11.3
300.967	11.74
301.18	11.93
301.393	11.9
301.605	11.65
301.818	11.68
302.031	11.82
302.243	11.47
302.456	11.35
302.669	11.39
302.881	11.3
303.094	11.25
303.307	10.97
303.519	10.93
303.732	10.87
303.944	11.2
304.157	10.95
304.37	10.76
304.582	11.31
304.795	11.45
305.007	11.71
305.22	11.53
305.432	11.39
305.645	11.41
305.857	11.29
306.069	11.23
306.282	11.21
306.494	11.64
306.707	11.79
306.919	11.98
307.132	12.24
307.344	11.88
307.556	12.12
307.769	12.2
307.981	12.39
308.193	12.45
308.406	12.83
308.618	12.71
308.83	12.59
309.043	12.5
309.255	11.98
309.467	11.8
309.679	11.78
309.892	11.74
310.104	11.51
310.316	11.32
310.528	11.25
310.74	10.94
310.953	11.05
311.165	11.02
311.377	11.13
311.589	11.47
311.801	11.45
312.013	11.17
312.225	11.06
312.437	11.08
312.649	11.45
312.862	11.48
313.074	11.76
313.286	11.76
313.498	11.74
313.71	11.48
313.922	11.58
314.134	11.87
314.346	12.44
314.558	12.76
314.77	13.24
314.982	12.78
315.193	12.95
315.405	12.9
315.617	13.1
315.829	12.83
316.041	13.19
316.253	12.92
316.465	12.89
316.677	12.62
316.888	12.76
317.1	12.64
317.312	12.83
317.524	12.6
317.736	12.93
317.947	12.9
318.159	13.66
318.371	13.44
318.583	13.48
318.794	13.45
319.006	14.08
319.218	13.85
319.43	13.73
319.641	13.96
319.853	13.96
320.064	13.9
320.276	13.87
320.488	13.74
320.699	13.75
320.911	14.13
321.123	14.38
321.334	14.01
321.546	14.59
321.757	14.66
321.969	14.69
322.18	14.58
322.392	14.4
322.603	14.39
322.815	14.51
323.026	14.82
323.238	14.27
323.449	13.76
323.661	13.69
323.872	13.26
324.083	13.23
324.295	13
324.506	13.09
324.718	13.03
324.929	13
325.14	12.44
325.352	12.62
325.563	12.9
325.774	13.18
325.986	13.27
326.197	12.81
326.408	12.96
326.62	13.01
326.831	13.02
327.042	13.3
327.253	13.42
327.464	13.73
327.676	13.29
327.887	13.19
328.098	13.07
328.309	12.9
328.52	13.46
328.732	13.34
328.943	13.62
329.154	13.69
329.365	13.29
329.576	13.19
329.787	13.36
329.998	13.43
330.209	13.73
330.42	13.95
330.631	13.94
330.842	14.06
331.053	14.26
331.264	13.6
331.475	13.83
331.686	14.2
331.897	14.49
332.108	14.27
332.319	14.32
332.53	13.99
332.741	14.08
332.952	14.39
333.163	14.27
333.374	13.94
333.585	14.34
333.795	14.21
334.006	14.02
334.217	13.72
334.428	14.19
334.639	14.45
334.849	14.14
335.06	14
335.271	13.94
335.482	13.78
335.692	13.95
335.903	14.03
336.114	13.91
336.325	13.97
336.535	14.13
336.746	13.73
336.957	13.24
337.167	13.85
337.378	14.09
337.589	13.87
337.799	13.97
338.01	13.95
338.22	13.97
338.431	14.07
338.642	14.39
338.852	14.38
339.063	14.28
339.273	14.59
339.484	14.2
339.694	13.83
339.905	13.93
340.115	13.76
340.326	14.28
340.536	14.01
340.746	13.94
340.957	13.46
341.167	13.12
341.378	13.13
341.588	12.87
341.799	13.1
342.009	12.9
342.219	13.16
342.43	13.07
342.64	12.65
342.85	12.67
343.061	12.87
343.271	12.61
343.481	12.54
343.691	12.43
343.902	12.51
344.112	12.36
344.322	12.16
344.532	11.7
344.743	11.79
344.953	11.93
345.163	12.06
345.373	11.81
345.583	12.01
345.793	11.98
346.004	11.93
346.214	11.97
346.424	12.22
346.634	12.64
346.844	12.69
347.054	12.8
347.264	12.42
347.474	12.44
347.684	12.2
347.894	12.34
348.104	12.59
348.314	12.63
348.524	12.61
348.734	12.62
348.944	12.28
349.154	12.2
349.364	12.16
349.574	12.17
349.784	12.26
349.994	12.58
350.204	12.5
350.413	12.75
350.623	13.12
350.833	12.88
351.043	12.78
351.253	13.1
351.463	13.6
351.672	13.48
351.882	13.66
352.092	13.47
352.302	13.43
352.511	13.27
352.721	12.82
352.931	12.71
353.141	12.77
353.35	12.68
353.56	12.41
353.77	11.72
353.979	11.8
354.189	11.6
354.399	11.49
354.608	11.65
354.818	11.72
355.027	11.77
355.237	11.45
355.447	11.46
355.656	11.22
355.866	11.28
356.075	11.47
356.285	11.46
356.494	11.37
356.704	11.36
356.913	11.11
357.123	11.03
357.332	11.05
357.542	10.98
357.751	10.85
357.96	10.92
358.17	10.9
358.379	10.98
358.589	10.79
358.798	11.14
359.007	11.19
359.217	11.25
359.426	11.21
359.635	11.19
359.845	11.14
360.054	11.22
360.263	11.08
360.472	11.04
360.682	10.89
360.891	10.86
361.1	10.52
361.309	10.3
361.519	10.01
361.728	9.95
361.937	10
362.146	10.09
362.355	10
362.564	10.18
362.774	9.88
362.983	9.94
363.192	9.95
363.401	10.25
363.61	10.21
363.819	10.54
364.028	10.57
364.237	10.45
364.446	10.37
364.655	10.42
364.864	10.31
365.073	10.52
365.282	10.27
365.491	10.34
365.7	9.9
365.909	9.86
366.118	9.51
366.327	9.67
366.536	9.85
366.745	9.88
366.954	9.65
367.162	9.3
367.371	9.4
367.58	9.67
367.789	9.71
367.998	9.53
368.207	9.99
368.415	10.3
368.624	10.11
368.833	9.86
369.042	10.04
369.25	10.4
369.459	10.73
369.668	10.57
369.877	10.5
370.085	10.23
370.294	10.51
370.503	9.9
370.711	9.88
370.92	9.62
371.129	9.77
371.337	9.53
371.546	9.31
371.754	9.3
371.963	9.13
372.171	9.07
372.38	9.22
372.589	9.09
372.797	9.56
373.006	9.29
373.214	9.53
373.423	9.29
373.631	9.33
373.84	9.49
374.048	9.56
374.256	9.71
374.465	9.6
374.673	9.41
374.882	9.33
375.09	9.21
375.298	8.99
375.507	8.8
375.715	8.65
375.923	8.64
376.132	8.37
376.34	7.96
376.548	7.83
376.757	7.65
376.965	7.67
377.173	7.67
377.381	7.38
377.59	7.62
377.798	7.68
378.006	7.72
378.214	7.67
378.423	7.76
378.631	7.76
378.839	7.72
379.047	7.81
379.255	7.91
379.463	8
379.671	8.37
379.879	8.49
380.088	8.33
380.296	8.31
380.504	8.51
380.712	8.74
380.92	8.9
381.128	9.23
381.336	9.32
381.544	9.09
381.752	9.06
381.96	8.79
382.168	8.52
382.376	8.48
382.584	8.5
382.791	7.97
382.999	7.67
383.207	7.6
383.415	7.17
383.623	7.04
383.831	7.11
384.039	7.14
384.247	6.97
384.454	7.04
384.662	7.28
384.87	7.36
385.078	7.61
385.285	7.58
385.493	7.49
385.701	7.59
385.909	7.51
386.116	7.38
386.324	7.3
386.532	7.34
386.739	7.21
386.947	7.04
387.155	6.93
387.362	6.53
387.57	6.43
387.778	6.65
387.985	6.54
388.193	6.56
388.4	6.58
388.608	6.54
388.816	6.47
389.023	6.39
389.231	6.5
389.438	6.45
389.646	6.54
389.853	6.63
390.061	6.24
390.268	6.53
390.475	6.56
390.683	6.39
390.89	6.2
391.098	6.17
391.305	6.22
391.512	6.1
391.72	5.9
391.927	5.9
392.135	5.77
392.342	5.9
392.549	5.62
392.756	5.47
392.964	5.56
393.171	5.64
393.378	5.75
393.586	5.55
393.793	5.45
394	5.5
394.207	5.6
394.414	5.56
394.622	5.48
394.829	5.58
395.036	5.78
395.243	5.7
395.45	5.87
395.657	5.84
395.864	6.01
396.072	6.03
396.279	6.11
396.486	6.19
396.693	6.08
396.9	5.98
397.107	6
397.314	5.83
397.521	6.03
397.728	5.99
397.935	5.89
398.142	5.81
398.349	5.71
398.556	5.72
398.763	5.65
398.97	5.75
399.177	5.73
399.383	5.61
399.59	5.45
399.797	5.33
400.004	5.16
400.211	5.07
400.418	5.02
400.625	5.09
400.831	5.13
401.038	4.94
401.245	4.97
401.452	5.06
401.658	4.93
401.865	5.26
402.072	5.26
402.279	5.22
402.485	5.21
402.692	5.28
402.899	5.22
403.105	5.14
403.312	5.2
403.519	5.26
403.725	5.11
403.932	5.15
404.138	4.91
404.345	4.86
404.552	4.91
404.758	4.95
404.965	4.91
405.171	4.86
405.378	4.99
405.584	4.94
405.791	4.7
405.997	4.82
406.204	4.88
406.41	4.87
406.617	4.71
406.823	4.62
407.029	4.55
407.236	4.47
407.442	4.47
407.649	4.39
407.855	4.43
408.061	4.51
408.268	4.49
408.474	4.54
408.68	4.54
408.887	4.76
409.093	4.77
409.299	4.9
409.505	4.87
409.712	4.87
409.918	4.72
410.124	4.68
410.33	4.71
410.537	4.61
410.743	4.55
410.949	4.49
411.155	4.34
411.361	4.33
411.567	4.53
411.773	4.64
411.98	4.73
412.186	4.76
412.392	4.77
412.598	4.62
412.804	4.65
413.01	4.78
413.216	4.83
413.422	4.94
413.628	4.81
413.834	4.43
414.04	4.43
414.246	4.4
414.452	4.29
414.658	4.25
414.864	4.45
415.07	4.73
415.275	4.66
415.481	4.52
415.687	4.38
415.893	4.41
416.099	4.36
416.305	4.17
416.511	4.04
416.716	3.94
416.922	3.82
417.128	3.75
417.334	3.62
417.539	3.44
417.745	3.55
417.951	3.54
418.157	3.46
418.362	3.47
418.568	3.55
418.774	3.44
418.979	3.53
419.185	3.54
419.391	3.46
419.596	3.25
419.802	3.26
420.008	3.18
420.213	3.71
420.419	3.77
420.624	3.74
420.83	3.64
421.035	3.69
421.241	3.69
421.446	3.65
421.652	3.55
421.857	3.64
422.063	3.64
422.268	3.63
422.474	3.14
422.679	3.09
422.885	3.09
423.09	3.13
423.295	3.11
423.501	3.02
423.706	2.97
423.911	3.06
424.117	3.06
424.322	3.06
424.527	3.05
424.733	3.07
424.938	3.05
425.143	2.99
425.349	3.1
425.554	3.08
425.759	3.19
425.964	3.32
426.169	3.3
426.375	3.31
426.58	3.21
426.785	3.28
426.99	3.21
427.195	3.23
427.4	3.32
427.605	3.21
427.811	3.27
428.016	3.23
428.221	3.16
428.426	3.17
428.631	3.13
428.836	3.2
429.041	3.18
429.246	3.28
429.451	3.2
429.656	3.2
429.861	3.3
430.066	3.33
430.271	3.25
430.476	3.35
430.681	3.44
430.886	3.54
431.09	3.65
431.295	3.64
431.5	3.53
431.705	3.52
431.91	3.51
432.115	3.37
432.32	3.34
432.524	3.29
432.729	3.3
432.934	3.22
433.139	3.16
433.343	3.08
433.548	3.1
433.753	3.2
433.958	3.31
434.162	3.27
434.367	3.31
434.572	3.25
434.776	3.29
434.981	3.26
435.186	3.28
435.39	3.35
435.595	3.46
435.799	3.31
436.004	3.32
436.209	3.26
436.413	3.43
436.618	3.37
436.822	3.48
437.027	3.51
437.231	3.51
437.436	3.56
437.64	3.54
437.845	3.48
438.049	3.57
438.253	3.48
438.458	3.48
438.662	3.34
438.867	3.25
439.071	3.27
439.275	3.22
439.48	3.16
439.684	3
439.888	2.93
440.093	2.85
440.297	2.81
440.501	2.82
440.706	2.84
440.91	2.83
441.114	2.9
441.318	2.82
441.523	2.86
441.727	2.88
441.931	2.89
442.135	2.9
442.339	2.98
442.543	3.05
442.748	2.97
442.952	3.05
443.156	3.07
443.36	3.09
443.564	3.14
443.768	3.11
443.972	3.1
444.176	3.08
444.38	3.09
444.584	3
444.788	2.91
444.992	2.95
445.196	2.8
445.4	2.73
445.604	2.62
445.808	2.58
446.012	2.57
446.216	2.6
446.42	2.69
446.624	2.69
446.828	2.69
447.032	2.72
447.235	2.76
447.439	2.76
447.643	2.82
447.847	2.98
448.051	3.03
448.254	3.01
448.458	2.95
448.662	2.89
448.866	2.9
449.069	2.97
449.273	2.97
449.477	2.92
449.681	2.9
449.884	2.91
450.088	2.86
450.292	2.91
450.495	2.94
450.699	3
450.902	3.09
451.106	3.12
451.31	3.16
451.513	3.26
451.717	3.3
451.92	3.28
452.124	3.25
452.327	3.27
452.531	3.22
452.734	3.21
452.938	3.21
453.141	3.18
453.345	3.19
453.548	3.12
453.752	2.92
453.955	2.97
454.158	3.01
454.362	3.12
454.565	3.06
454.769	3.04
454.972	3.08
455.175	3.07
455.379	3.09
455.582	3.08
455.785	3.06
455.988	3.2
456.192	3.15
456.395	3.2
456.598	3.14
456.801	3.17
457.005	3.21
457.208	3.21
457.411	3.21
457.614	3.22
457.817	3.2
458.021	3.1
458.224	3.05
458.427	3
458.63	3.01
458.833	2.96
459.036	2.94
459.239	2.91
459.442	2.82
459.645	2.71
459.848	2.66
460.051	2.53
460.254	2.6
460.457	2.58
460.66	2.58
460.863	2.59
461.066	2.62
461.269	2.58
461.472	2.54
461.675	2.69
461.878	2.85
462.081	2.89
462.284	3.03
462.486	3
