Data from 2937896_Reflection_2.txt Node
Date: Wed Jul 15 13:51:22 EDT 2015
User: robert
Spectrometer: USB4E03001
Autoset integration time: false
Trigger mode: 4
Integration Time (sec): 1.000000E-1
Scans to average: 10
Electric dark correction enabled: true
Nonlinearity correction enabled: false
Boxcar width: 5
Stray light correction enabled: false
XAxis mode: Wavelengths
Stop averaging: false
Number of Pixels in Spectrum: 3648
>>>>>Begin Spectral Data<<<<<
177.566	122.99
177.785	101.73
178.005	138.21
178.225	303.33
178.445	44.35
178.665	11.45
178.885	472.73
179.105	692.39
179.324	318.77
179.544	89.89
179.764	129.91
179.984	85.51
180.204	66.24
180.423	112.53
180.643	94.43
180.863	55.37
181.083	53.35
181.302	-111.96
181.522	77.09
181.742	70.55
181.961	51.2
182.181	24.3
182.401	302.52
182.621	289.42
182.84	35.14
183.06	84.82
183.279	-56.33
183.499	1579.57
183.719	127.8
183.938	-26.18
184.158	72.46
184.377	-1.67
184.597	51.63
184.816	69.33
185.036	-116.68
185.256	-14.68
185.475	10.52
185.695	-13.14
185.914	-25.45
186.134	27.47
186.353	53.38
186.572	16.75
186.792	40.94
187.011	-55.53
187.231	-28.47
187.45	230.17
187.67	-303.57
187.889	-142.35
188.108	469.44
188.328	-802.83
188.547	21.29
188.766	31.2
188.986	114.87
189.205	264.84
189.424	186.79
189.644	129.77
189.863	154.37
190.082	125.39
190.302	215.09
190.521	274.37
190.74	120.16
190.959	212.48
191.178	116.98
191.398	226.47
191.617	208.8
191.836	98.36
192.055	59.71
192.274	50.49
192.494	89.17
192.713	60.3
192.932	111.03
193.151	669.84
193.37	-27.15
193.589	-57.16
193.808	-44.46
194.027	3.78
194.246	31.32
194.465	-4.71
194.685	-83.78
194.904	-64.04
195.123	-85.01
195.342	-117.39
195.561	-271.89
195.78	-1995.54
195.999	561.47
196.218	201.44
196.436	143.05
196.655	138.53
196.874	100.75
197.093	84.32
197.312	39.44
197.531	39.7
197.75	39.79
197.969	36.2
198.188	3.51
198.407	16.7
198.625	7.36
198.844	-3.19
199.063	10.06
199.282	-49.33
199.501	-31.58
199.719	1114.29
199.938	179.38
200.157	84.23
200.376	62.27
200.594	94.42
200.813	61.34
201.032	60.58
201.251	66.1
201.469	71.47
201.688	11.68
201.907	-2.84
202.125	-54.94
202.344	18.27
202.563	-670.31
202.781	151.28
203	165.56
203.218	-321.45
203.437	-14.85
203.656	190.73
203.874	129.65
204.093	321.58
204.311	117.74
204.53	2.47
204.748	-40.6
204.967	-54.29
205.185	-18.79
205.404	-18.38
205.622	-69.09
205.841	-102.18
206.059	-58.44
206.278	-77.78
206.496	-444.5
206.715	-14.9
206.933	-405.1
207.151	-286.4
207.37	206.25
207.588	265.05
207.806	619.92
208.025	400.7
208.243	254.86
208.461	267.75
208.68	110.52
208.898	154.1
209.116	229.05
209.335	201.01
209.553	723.24
209.771	243.23
209.989	145.9
210.208	-968.87
210.426	180.56
210.644	306.53
210.862	202.66
211.081	174.05
211.299	193.03
211.517	207.5
211.735	146.69
211.953	210.19
212.171	238.8
212.39	199.85
212.608	387.17
212.826	172.38
213.044	388.98
213.262	61.26
213.48	208.66
213.698	107.52
213.916	42.38
214.134	24.64
214.352	67.61
214.57	73.01
214.788	64.92
215.006	58.51
215.224	35.61
215.442	84.79
215.66	53.22
215.878	30.04
216.096	10.9
216.314	48.63
216.532	43.66
216.75	32.34
216.968	52.26
217.185	22.87
217.403	79.23
217.621	112.44
217.839	111.97
218.057	90.34
218.275	104.95
218.492	52
218.71	-247.11
218.928	-27.88
219.146	-61.95
219.363	-362.79
219.581	28.27
219.799	9.46
220.017	8.9
220.234	19.06
220.452	49.76
220.67	-44.61
220.887	-27.86
221.105	198.12
221.323	-13.83
221.54	144.26
221.758	-319.72
221.976	39.29
222.193	57.55
222.411	312.09
222.629	355
222.846	1807.17
223.064	-706.96
223.281	-113.17
223.499	-54.99
223.716	-130.71
223.934	-93.84
224.151	-95.88
224.369	-89.08
224.586	-129.61
224.804	-116.81
225.021	-78.89
225.239	-83.98
225.456	-96.87
225.674	-108.27
225.891	-89.81
226.108	-50.25
226.326	-63.68
226.543	-49.48
226.76	-1.84
226.978	17.86
227.195	14.15
227.413	26.6
227.63	19.18
227.847	25.42
228.064	25.06
228.282	22.35
228.499	21.35
228.716	19.49
228.934	21.84
229.151	18.57
229.368	17.29
229.585	21.52
229.802	19.44
230.02	20.26
230.237	19.28
230.454	18.61
230.671	21
230.888	17.13
231.105	19.18
231.323	24.38
231.54	24.13
231.757	28.51
231.974	27.25
232.191	25.66
232.408	22.93
232.625	18
232.842	23.23
233.059	22.91
233.276	31.03
233.493	28.8
233.71	20.62
233.927	20.26
234.144	19.47
234.361	15.31
234.578	16.54
234.795	19.9
235.012	20.46
235.229	13.55
235.446	5.78
235.663	-0.36
235.879	2.26
236.096	-1.4
236.313	1.17
236.53	1.75
236.747	3.39
236.964	4.52
237.181	5.54
237.397	12.24
237.614	14.52
237.831	22.77
238.048	24.3
238.264	18.5
238.481	25.29
238.698	20.77
238.915	18.12
239.131	20.85
239.348	17.62
239.565	12.69
239.781	7.77
239.998	6.7
240.215	5.41
240.431	3.91
240.648	9.78
240.865	10.72
241.081	12.01
241.298	13.59
241.514	13.67
241.731	15.4
241.947	16.99
242.164	17.59
242.38	18.16
242.597	20.27
242.814	18.37
243.03	16.4
243.246	15.33
243.463	14.72
243.679	13.1
243.896	11.56
244.112	10.17
244.329	12.53
244.545	12.65
244.762	10.97
244.978	6.52
245.194	9.88
245.411	11.32
245.627	8.86
245.843	10.66
246.06	12.24
246.276	13.32
246.492	13.51
246.709	11.95
246.925	11.82
247.141	14
247.357	15.29
247.574	14.78
247.79	14.65
248.006	15.83
248.222	16.3
248.439	15.89
248.655	16.06
248.871	16.07
249.087	16.22
249.303	16.87
249.519	14.53
249.736	12.91
249.952	11
250.168	10.96
250.384	10.57
250.6	9.76
250.816	9.95
251.032	10.88
251.248	8.64
251.464	10.07
251.68	9.15
251.896	8.87
252.112	8.74
252.328	12.09
252.544	13.02
252.76	9.49
252.976	9.22
253.192	10
253.408	8.85
253.624	9.57
253.84	9.39
254.056	10.09
254.272	9.64
254.487	11.34
254.703	9.72
254.919	8.88
255.135	15.06
255.351	14.42
255.567	14.25
255.782	12.79
255.998	15.2
256.214	16.28
256.43	15.3
256.646	19.01
256.861	18.05
257.077	20.7
257.293	16.8
257.508	14.8
257.724	12.82
257.94	12.77
258.155	12.66
258.371	12.26
258.587	11.32
258.802	11.61
259.018	11.99
259.234	12.03
259.449	10.81
259.665	12.24
259.88	11.79
260.096	12.19
260.312	10.91
260.527	11.46
260.743	11.53
260.958	11.38
261.174	11.93
261.389	11.17
261.605	10.63
261.82	10.64
262.036	9.77
262.251	9.98
262.466	10.28
262.682	9.82
262.897	9.49
263.113	8.32
263.328	7.61
263.543	6.99
263.759	6.04
263.974	7.85
264.189	9.22
264.405	8.87
264.62	10.97
264.835	10.48
265.051	12.63
265.266	11.37
265.481	11.38
265.696	11.14
265.912	12.84
266.127	13.3
266.342	11.16
266.557	9.34
266.773	8.61
266.988	8.34
267.203	8.14
267.418	8.25
267.633	7.79
267.848	7.19
268.064	8.28
268.279	7.32
268.494	5.42
268.709	5.98
268.924	7.74
269.139	10.89
269.354	11.6
269.569	11.62
269.784	11.47
269.999	10.39
270.214	11.14
270.429	10.36
270.644	10.98
270.859	11.74
271.074	10.69
271.289	9.11
271.504	7.83
271.719	6.27
271.934	6.48
272.149	6.94
272.363	8.85
272.578	9.71
272.793	10.22
273.008	8.75
273.223	8.13
273.438	10.22
273.653	9.61
273.867	9.08
274.082	8.16
274.297	8.03
274.512	8.34
274.726	6.98
274.941	5.65
275.156	7.72
275.371	8.51
275.585	10.49
275.8	8.74
276.015	9.19
276.229	11.62
276.444	14.02
276.659	14.04
276.873	12.72
277.088	14.67
277.302	14.29
277.517	13.29
277.732	12.63
277.946	13.4
278.161	14.96
278.375	13.6
278.59	11.09
278.804	8.8
279.019	7.55
279.233	10.22
279.448	7.52
279.662	8.28
279.877	5.96
280.091	6.57
280.306	7.87
280.52	6.96
280.735	10.66
280.949	10.23
281.163	11.53
281.378	12.28
281.592	10.67
281.806	12.65
282.021	12.45
282.235	13.07
282.449	13.35
282.664	10.9
282.878	10.76
283.092	9.24
283.307	9.02
283.521	9.03
283.735	7.7
283.949	6.9
284.164	6.18
284.378	6.24
284.592	6.68
284.806	8.28
285.02	8.37
285.234	8.57
285.449	8.79
285.663	9.92
285.877	10.08
286.091	12
286.305	12.26
286.519	12.68
286.733	13.09
286.947	11.07
287.161	8.81
287.375	8.72
287.589	9.35
287.803	11.53
288.017	11.56
288.231	11.69
288.445	12.65
288.659	11.24
288.873	11.34
289.087	12.18
289.301	15.4
289.515	16.51
289.729	17.11
289.943	17.05
290.157	14.99
290.371	14.62
290.584	13.48
290.798	10.39
291.012	11.01
291.226	9.57
291.44	8.59
291.654	8.67
291.867	8.33
292.081	7.74
292.295	4.82
292.509	3.75
292.722	4.1
292.936	4.78
293.15	7.88
293.364	8.44
293.577	7.97
293.791	9.01
294.005	9.09
294.218	9.34
294.432	9.32
294.645	12.89
294.859	14.33
295.073	13.45
295.286	14.2
295.5	13.19
295.713	14
295.927	13.26
296.14	13.56
296.354	13.12
296.568	12.38
296.781	12.22
296.994	11.23
297.208	11.12
297.421	11.86
297.635	12.1
297.848	12.48
298.062	11.4
298.275	12.29
298.489	12.07
298.702	12.57
298.915	13.42
299.129	13.53
299.342	12.6
299.555	12
299.769	10.69
299.982	10.8
300.195	10.78
300.409	12.09
300.622	12.49
300.835	11.77
301.048	11.77
301.262	10.47
301.475	9.3
301.688	9.58
301.901	8.35
302.115	9.91
302.328	9.74
302.541	8.96
302.754	10.21
302.967	10.62
303.18	10.12
303.393	10.11
303.607	11.35
303.82	12.61
304.033	12.48
304.246	15.96
304.459	17.01
304.672	16.32
304.885	16.86
305.098	16.85
305.311	17.31
305.524	16.96
305.737	16.6
305.95	16.85
306.163	15.39
306.376	16.79
306.589	13.75
306.802	12.08
307.015	12.49
307.228	13.45
307.44	11.85
307.653	11.39
307.866	12.97
308.079	12.2
308.292	13.44
308.505	15.99
308.718	15.08
308.93	15.95
309.143	16.23
309.356	15.73
309.569	14.35
309.781	15.63
309.994	15.8
310.207	16.58
310.42	17.16
310.632	15.66
310.845	14.35
311.058	14.62
311.27	13.36
311.483	13.5
311.696	13.94
311.908	13.93
312.121	13.54
312.333	14.89
312.546	13.39
312.759	14.06
312.971	13.24
313.184	13.24
313.396	13.65
313.609	14.45
313.821	13.52
314.034	13.76
314.246	15.91
314.459	15.29
314.671	12.78
314.884	14.63
315.096	13.15
315.309	15.72
315.521	15.94
315.733	16.22
315.946	16.39
316.158	16.97
316.371	16.58
316.583	14.06
316.795	14.5
317.008	14.86
317.22	12.98
317.432	13.45
317.644	12.8
317.857	12.97
318.069	13.2
318.281	12.81
318.494	14.21
318.706	13.92
318.918	15.75
319.13	14.99
319.342	15.46
319.555	17.36
319.767	17.06
319.979	17.62
320.191	18.5
320.403	17.62
320.615	18.11
320.827	17.53
321.039	18.74
321.252	20.42
321.464	22.38
321.676	21.42
321.888	19.73
322.1	19.76
322.312	18
322.524	17.67
322.736	19.51
322.948	19.69
323.16	17.31
323.372	17.8
323.584	15.92
323.796	14.7
324.007	16.33
324.219	17.49
324.431	17.63
324.643	18.79
324.855	18.35
325.067	17.56
325.279	16.57
325.491	18.5
325.702	17.97
325.914	16.84
326.126	16.31
326.338	15.81
326.55	14.76
326.761	15.39
326.973	13.31
327.185	14.28
327.396	13.65
327.608	14.57
327.82	15.02
328.032	15.21
328.243	15.11
328.455	16.27
328.666	14.7
328.878	15
329.09	13.7
329.301	13.63
329.513	11.87
329.725	11.89
329.936	10.26
330.148	7.34
330.359	5.26
330.571	6.44
330.782	6.22
330.994	8.03
331.205	7.35
331.417	7.37
331.628	7.91
331.84	6.72
332.051	7.21
332.262	7.36
332.474	10.32
332.685	11.08
332.897	10.9
333.108	9.77
333.319	10.19
333.531	12.12
333.742	12.99
333.953	13.83
334.165	15.69
334.376	14.91
334.587	15.81
334.799	14.8
335.01	16.63
335.221	17.35
335.432	19.39
335.644	18.49
335.855	17.52
336.066	16.62
336.277	15.94
336.488	14.34
336.7	15.45
336.911	15.3
337.122	14.99
337.333	14.13
337.544	13
337.755	11.8
337.966	12.83
338.177	12.61
338.388	11.97
338.599	12.97
338.811	15.03
339.022	14.81
339.233	15.15
339.444	14.38
339.655	12.61
339.866	13.13
340.076	12.58
340.287	10.76
340.498	10.5
340.709	12.35
340.92	12.02
341.131	11.77
341.342	11.42
341.553	11.71
341.764	13.53
341.975	14.16
342.185	15.25
342.396	14.68
342.607	16.66
342.818	17.44
343.029	16.34
343.239	16.36
343.45	15.72
343.661	15.45
343.872	15.25
344.082	14.46
344.293	13.32
344.504	12.12
344.714	12.72
344.925	11.45
345.136	11.02
345.346	11.05
345.557	11.88
345.768	11.54
345.978	12.05
346.189	11.23
346.399	12.21
346.61	14.91
346.821	13.85
347.031	14.22
347.242	15.26
347.452	15.17
347.663	15.88
347.873	14.29
348.084	13.89
348.294	13.14
348.504	14.65
348.715	15.34
348.925	12.91
349.136	14.07
349.346	12.16
349.557	12.48
349.767	12.99
349.977	12.01
350.188	12.91
350.398	14.41
350.608	13.8
350.819	12.73
351.029	11.37
351.239	11.56
351.449	12.58
351.66	13.91
351.87	12.42
352.08	11.86
352.29	13.12
352.501	12.71
352.711	12.34
352.921	14.03
353.131	14.59
353.341	14.61
353.552	14.96
353.762	14.58
353.972	14.84
354.182	14.86
354.392	14.67
354.602	13.4
354.812	13.56
355.022	13.42
355.232	13.09
355.442	13.77
355.652	13.56
355.862	13.74
356.072	13.1
356.282	12.78
356.492	12.86
356.702	12.4
356.912	12.62
357.122	12.7
357.332	11.72
357.542	10.62
357.752	10.41
357.962	10.28
358.171	10.5
358.381	10.76
358.591	11.03
358.801	10.52
359.011	10.64
359.221	10.67
359.43	10.82
359.64	11.23
359.85	12.33
360.06	11.44
360.269	11.26
360.479	11.14
360.689	10.92
360.899	10.26
361.108	11.01
361.318	11.3
361.528	12
361.737	11.65
361.947	11.84
362.156	11.84
362.366	12.25
362.576	12.29
362.785	12.05
362.995	12.48
363.204	13.45
363.414	13.51
363.623	14.32
363.833	13.59
364.042	12.72
364.252	12.55
364.461	12.1
364.671	12.03
364.88	13.02
365.09	12.55
365.299	11.92
365.509	10.52
365.718	9.59
365.927	8.54
366.137	7.98
366.346	8.58
366.555	7.67
366.765	7.96
366.974	7.49
367.183	6.94
367.393	7.84
367.602	7.72
367.811	8.81
368.021	9.11
368.23	8.65
368.439	9.25
368.648	9.54
368.857	9.47
369.067	9.4
369.276	9.82
369.485	9.28
369.694	8.94
369.903	7.88
370.112	7.35
370.321	7.56
370.531	8.58
370.74	8.5
370.949	7.85
371.158	8.45
371.367	8.13
371.576	8.66
371.785	8.43
371.994	9.15
372.203	10.28
372.412	10.01
372.621	10.55
372.83	10.74
373.039	10.52
373.248	11.1
373.457	11.55
373.666	11.56
373.874	10.87
374.083	11.23
374.292	10.27
374.501	10.28
374.71	10.89
374.919	10.13
375.128	9.68
375.336	9.9
375.545	9.52
375.754	8.87
375.963	8.29
376.171	7.81
376.38	7.67
376.589	8
376.798	7.87
377.006	7.84
377.215	7.8
377.424	7.26
377.632	7.24
377.841	7.97
378.05	7.95
378.258	8.16
378.467	8.72
378.675	8.52
378.884	7.96
379.093	7.79
379.301	7.67
379.51	7.78
379.718	7.24
379.927	7.41
380.135	7.24
380.344	7.17
380.552	7.64
380.761	7.88
380.969	7.32
381.177	6.94
381.386	6.89
381.594	6.56
381.803	6.34
382.011	7.49
382.219	6.94
382.428	6.43
382.636	6.98
382.845	6.36
383.053	5.45
383.261	6.07
383.469	6.79
383.678	7.21
383.886	7.79
384.094	7.79
384.302	7.04
384.511	7.44
384.719	7.31
384.927	6.86
385.135	6.76
385.343	6.84
385.552	6.91
385.76	6.44
385.968	6.5
386.176	5.83
386.384	5.96
386.592	6.21
386.8	6.22
387.008	6.65
387.216	6.65
387.424	6.51
387.633	6.67
387.841	6.27
388.049	6.71
388.257	6.29
388.465	6.38
388.672	6.14
388.88	6.03
389.088	5.61
389.296	5.54
389.504	5.46
389.712	5.62
389.92	5.22
390.128	5.71
390.336	5.42
390.544	5.44
390.751	5.34
390.959	5.53
391.167	5.57
391.375	5.73
391.583	5.32
391.79	5.62
391.998	5.72
392.206	6.08
392.414	5.4
392.621	5.13
392.829	5.02
393.037	4.97
393.244	4.74
393.452	4.67
393.66	4.52
393.867	4.55
394.075	4.7
394.283	4.39
394.49	4.28
394.698	4.76
394.905	5.2
395.113	5.43
395.32	5.25
395.528	5.22
395.735	5.18
395.943	5.2
396.15	5.17
396.358	4.35
396.565	4.29
396.773	4.36
396.98	3.93
397.188	3.76
397.395	3.53
397.602	3.7
397.81	3.87
398.017	3.77
398.225	3.78
398.432	3.84
398.639	4.43
398.847	4.63
399.054	4.57
399.261	4.54
399.468	4.54
399.676	4.29
399.883	4.21
400.09	3.97
400.297	4.16
400.505	4.31
400.712	4.45
400.919	3.97
401.126	3.47
401.333	3.29
401.54	3.36
401.748	3.17
401.955	3.3
402.162	3.35
402.369	3.19
402.576	2.98
402.783	2.89
402.99	2.52
403.197	2.81
403.404	3.7
403.611	3.86
403.818	3.86
404.025	3.99
404.232	4.01
404.439	3.95
404.646	4.18
404.853	4.1
405.06	4.32
405.267	4.62
405.474	4.76
405.681	4.76
405.887	4.62
406.094	4.87
406.301	4.78
406.508	4.71
406.715	4.75
406.922	4.92
407.128	5.29
407.335	5.18
407.542	4.85
407.749	5.06
407.955	4.3
408.162	4.4
408.369	4.09
408.575	3.98
408.782	4.14
408.989	4.15
409.195	4.04
409.402	3.76
409.609	3.68
409.815	3.79
410.022	3.27
410.228	3.7
410.435	3.55
410.642	3.63
410.848	3.76
411.055	3.8
411.261	4.04
411.468	4.07
411.674	4.03
411.881	3.85
412.087	3.94
412.294	4.1
412.5	4.14
412.706	4.53
412.913	4.79
413.119	4.52
413.326	4.6
413.532	4.68
413.738	4.62
413.945	4.86
414.151	4.84
414.357	5.23
414.564	5.07
414.77	4.4
414.976	4.22
415.182	4.27
415.389	4.53
415.595	4.34
415.801	4.03
416.007	3.85
416.214	3.66
416.42	3.58
416.626	3.24
416.832	3.46
417.038	3.8
417.244	3.53
417.45	3.39
417.657	3.49
417.863	3.66
418.069	3.81
418.275	3.87
418.481	3.87
418.687	3.98
418.893	3.91
419.099	3.95
419.305	4.01
419.511	4.16
419.717	4.03
419.923	3.72
420.129	3.48
420.335	3.23
420.541	3.15
420.746	3.31
420.952	3.31
421.158	3.47
421.364	3.33
421.57	3.3
421.776	3.3
421.982	3.24
422.187	3.36
422.393	3.46
422.599	3.65
422.805	3.77
423.01	3.66
423.216	3.59
423.422	3.4
423.628	3.48
423.833	3.68
424.039	3.75
424.245	3.89
424.45	3.89
424.656	3.86
424.862	3.73
425.067	3.79
425.273	3.73
425.478	3.81
425.684	3.84
425.889	3.84
426.095	3.79
426.301	3.61
426.506	3.58
426.712	3.73
426.917	3.76
427.123	3.79
427.328	3.59
427.533	3.83
427.739	3.85
427.944	3.77
428.15	3.71
428.355	3.44
428.561	3.51
428.766	3.46
428.971	3.09
429.177	3.21
429.382	3.32
429.587	3.48
429.793	3.33
429.998	3.29
430.203	3.28
430.408	3.3
430.614	3.32
430.819	3.53
431.024	3.55
431.229	3.83
431.434	3.73
431.64	3.65
431.845	3.36
432.05	3.24
432.255	3.08
432.46	3.4
432.665	3.5
432.87	3.82
433.076	3.55
433.281	3.46
433.486	3.36
433.691	3.26
433.896	3.36
434.101	3.56
434.306	3.65
434.511	3.87
434.716	3.81
434.921	3.76
435.126	3.47
435.331	3.52
435.535	3.55
435.74	3.49
435.945	3.57
436.15	3.36
436.355	3.18
436.56	3.07
436.765	2.85
436.97	2.72
437.174	2.89
437.379	2.93
437.584	3.05
437.789	3.22
437.993	3.29
438.198	3.36
438.403	3.43
438.608	3.49
438.812	3.53
439.017	3.57
439.222	3.65
439.426	3.3
439.631	3.14
439.836	3.06
440.04	2.94
440.245	2.77
440.45	2.79
440.654	2.91
440.859	2.82
441.063	2.82
441.268	2.97
441.472	2.87
441.677	3.01
441.881	3.24
442.086	3.26
442.29	3.33
442.495	3.62
442.699	3.5
442.904	3.23
443.108	3.46
443.312	3.44
443.517	3.39
443.721	3.45
443.925	3.44
444.13	3.52
444.334	3.47
444.538	3.56
444.743	3.4
444.947	3.37
445.151	3.71
445.356	3.71
445.56	3.83
445.764	3.8
445.968	3.83
446.173	3.77
446.377	3.78
446.581	3.95
446.785	3.79
446.989	3.89
447.193	3.89
447.398	3.83
447.602	3.55
447.806	3.47
448.01	3.45
448.214	3.35
448.418	3.34
448.622	3.21
448.826	3.04
449.03	3.16
449.234	3.05
449.438	3.04
449.642	2.98
449.846	3.22
450.05	3.25
450.254	3.24
450.458	3.23
450.662	3.15
450.866	3.16
451.069	3.26
451.273	3.2
451.477	3.29
451.681	3.2
451.885	3.13
452.089	3.24
452.292	3.29
452.496	3.31
452.7	3.37
452.904	3.66
453.107	3.55
453.311	3.49
453.515	3.53
453.719	3.47
453.922	3.52
454.126	3.46
454.33	3.54
454.533	3.5
454.737	3.25
454.94	3.29
455.144	3.18
455.348	3.19
455.551	3.14
455.755	3.23
455.958	3.34
456.162	3.51
456.365	3.59
456.569	3.38
456.772	3.17
456.976	3.33
457.179	3.2
457.383	3.1
457.586	3.06
457.79	3.24
457.993	3.17
458.196	3.08
458.4	3.06
458.603	3.13
458.807	3.18
459.01	3.24
459.213	3.33
459.417	3.42
459.62	3.48
459.823	3.58
460.026	3.58
460.23	3.51
460.433	3.47
460.636	3.45
460.839	3.5
461.042	3.44
461.246	3.35
461.449	3.4
461.652	3.41
461.855	3.34
462.058	3.23
462.261	2.88
462.464	2.9
462.668	2.98
462.871	3.06
463.074	2.83
463.277	2.97
463.48	3.04
