Data from 2937896_Reflection_1.txt Node
Date: Wed Jul 15 13:51:12 EDT 2015
User: robert
Spectrometer: USB4E03001
Autoset integration time: false
Trigger mode: 4
Integration Time (sec): 1.000000E-1
Scans to average: 10
Electric dark correction enabled: true
Nonlinearity correction enabled: false
Boxcar width: 5
Stray light correction enabled: false
XAxis mode: Wavelengths
Stop averaging: false
Number of Pixels in Spectrum: 3648
>>>>>Begin Spectral Data<<<<<
177.566	27.85
177.785	36.91
178.005	63.06
178.225	3.89
178.445	19.14
178.665	-39.32
178.885	-262.55
179.105	-350
179.324	-138.08
179.544	-5.99
179.764	38.96
179.984	44.74
180.204	31.78
180.423	12.03
180.643	47.47
180.863	49.01
181.083	19.06
181.302	-88.76
181.522	23.03
181.742	45
181.961	94.39
182.181	143.41
182.401	474.97
182.621	883.58
182.84	422.97
183.06	255.39
183.279	-227.51
183.499	6827.96
183.719	490.43
183.938	-676.71
184.158	-518.36
184.377	-373.36
184.597	-480.62
184.816	-205.46
185.036	-595.41
185.256	-189.67
185.475	-78.35
185.695	-263.06
185.914	-258.11
186.134	-107.41
186.353	-54.81
186.572	-117.84
186.792	-9.07
187.011	-96.31
187.231	119.71
187.45	-79.3
187.67	177.18
187.889	71.93
188.108	-25
188.328	-119.83
188.547	165.14
188.766	146.94
188.986	-607.99
189.205	-324.09
189.424	-91.82
189.644	-71.59
189.863	-50.78
190.082	-61.04
190.302	-199.17
190.521	-221.22
190.74	-118.65
190.959	17.52
191.178	-14.57
191.398	51.01
191.617	-33.94
191.836	35.79
192.055	30.19
192.274	30.74
192.494	48.92
192.713	12.03
192.932	52.05
193.151	190.31
193.37	66.5
193.589	48.7
193.808	70.12
194.027	78.01
194.246	121.87
194.465	93.86
194.685	132.08
194.904	77.25
195.123	11.19
195.342	-39.55
195.561	-178.78
195.78	-1219.43
195.999	461.92
196.218	174.6
196.436	126.88
196.655	159.34
196.874	132.03
197.093	147.72
197.312	94.61
197.531	97.88
197.75	96.11
197.969	57.15
198.188	45.21
198.407	54.15
198.625	60.26
198.844	69.52
199.063	14.96
199.282	-68.52
199.501	-106.75
199.719	-23.67
199.938	-41.29
200.157	9.59
200.376	37.44
200.594	67.55
200.813	27.64
201.032	1.82
201.251	2.75
201.469	16.15
201.688	71.45
201.907	46.25
202.125	7.13
202.344	-25.91
202.563	269.53
202.781	16.26
203	243.56
203.218	252.73
203.437	98.53
203.656	-176.83
203.874	-170.21
204.093	-719.47
204.311	-302.34
204.53	-115.01
204.748	-85.96
204.967	-166.16
205.185	-165.05
205.404	-92.73
205.622	-144.72
205.841	-203.45
206.059	-123.33
206.278	-217.03
206.496	-1191.8
206.715	-211.87
206.933	749.29
207.151	265.13
207.37	37.98
207.588	96.38
207.806	-144.47
208.025	-141.68
208.243	-28.69
208.461	40.1
208.68	9.18
208.898	-9.81
209.116	-175.91
209.335	-147.82
209.553	-2373.24
209.771	-2325.16
209.989	-476.3
210.208	4285.85
210.426	-1288.89
210.644	649.01
210.862	286.86
211.081	173.89
211.299	176.96
211.517	185.25
211.735	157.03
211.953	104.38
212.171	91.05
212.39	96.71
212.608	287.75
212.826	214.39
213.044	553.35
213.262	-9.31
213.48	-109.08
213.698	-16.85
213.916	8.19
214.134	-54.75
214.352	17.85
214.57	13.4
214.788	-0.91
215.006	18.05
215.224	47.45
215.442	58.18
215.66	17.93
215.878	35.66
216.096	43.7
216.314	60.28
216.532	65.6
216.75	19.2
216.968	-3.55
217.185	9.61
217.403	47.6
217.621	66.29
217.839	53.02
218.057	-95.22
218.275	-64.58
218.492	-194.96
218.71	-568.46
218.928	-224.54
219.146	-194.6
219.363	-521.32
219.581	11.36
219.799	-9.96
220.017	-137.6
220.234	-53.44
220.452	-46.77
220.67	-265.07
220.887	-962.86
221.105	-1331.11
221.323	-1027.66
221.54	-456.07
221.758	1759.86
221.976	250.03
222.193	338.71
222.411	609.8
222.629	553.14
222.846	2107.17
223.064	-597.94
223.281	-69.25
223.499	-25.5
223.716	-104.48
223.934	0.72
224.151	-26.25
224.369	-36.83
224.586	-70.55
224.804	-111.96
225.021	-64.82
225.239	-104.85
225.456	-101.68
225.674	-102.68
225.891	-81.19
226.108	-39.36
226.326	-79.42
226.543	-66.7
226.76	-41.92
226.978	-18.81
227.195	-8.6
227.413	1.08
227.63	5.35
227.847	13.71
228.064	16.85
228.282	14.02
228.499	16.29
228.716	17.15
228.934	22.2
229.151	22.44
229.368	22.68
229.585	27.57
229.802	25.61
230.02	27.05
230.237	24.77
230.454	24.62
230.671	24.36
230.888	19.83
231.105	23.03
231.323	23.18
231.54	23.74
231.757	19.32
231.974	17.65
232.191	13.58
232.408	9.53
232.625	5.21
232.842	4.51
233.059	4.1
233.276	7.79
233.493	3.46
233.71	-3.45
233.927	-7.13
234.144	2.38
234.361	-6.06
234.578	-4.38
234.795	-0.83
235.012	-2.79
235.229	-5.4
235.446	-1.61
235.663	1.56
235.879	3.14
236.096	2.53
236.313	3.44
236.53	-1.22
236.747	3.98
236.964	9.01
237.181	8.19
237.397	9.99
237.614	9.06
237.831	5.28
238.048	6.59
238.264	7.61
238.481	13.96
238.698	15.24
238.915	14.01
239.131	17.47
239.348	12.48
239.565	9.43
239.781	12.41
239.998	14.33
240.215	20.75
240.431	22.09
240.648	20.07
240.865	19.14
241.081	17.01
241.298	17.49
241.514	15.1
241.731	15.59
241.947	16.14
242.164	16.83
242.38	19.02
242.597	17.3
242.814	15.19
243.03	15.91
243.246	15.56
243.463	16.3
243.679	18.56
243.896	18.14
244.112	18.89
244.329	21.03
244.545	18.8
244.762	17.23
244.978	16.4
245.194	16.48
245.411	16.44
245.627	15.75
245.843	16.76
246.06	14.49
246.276	15.82
246.492	16.08
246.709	16.28
246.925	15.56
247.141	15.94
247.357	16.62
247.574	15.49
247.79	15.23
248.006	14.56
248.222	14.93
248.439	14.73
248.655	14.41
248.871	13.37
249.087	11.9
249.303	11.66
249.519	10.24
249.736	7.58
249.952	7.87
250.168	6.28
250.384	7.08
250.6	4.07
250.816	5.53
251.032	7.05
251.248	7.07
251.464	7.31
251.68	10.31
251.896	11.17
252.112	12.41
252.328	14.03
252.544	16.23
252.76	14.62
252.976	15.56
253.192	13.86
253.408	15.37
253.624	13.77
253.84	14.51
254.056	16.15
254.272	13.65
254.487	14.45
254.703	13.72
254.919	13.86
255.135	18.34
255.351	17.51
255.567	16.71
255.782	9.57
255.998	14.6
256.214	13.29
256.43	10.32
256.646	13.58
256.861	10.96
257.077	9.91
257.293	3.26
257.508	2.36
257.724	0.59
257.94	2.81
258.155	2.68
258.371	4.39
258.587	5.92
258.802	7.12
259.018	7.15
259.234	8.82
259.449	9.59
259.665	12.67
259.88	12.68
260.096	13.43
260.312	12.84
260.527	14.06
260.743	13.54
260.958	14.23
261.174	14.14
261.389	14.54
261.605	14.68
261.82	15.46
262.036	13.87
262.251	13.82
262.466	13.74
262.682	13.93
262.897	12.74
263.113	12.58
263.328	13.58
263.543	12.48
263.759	11.97
263.974	13.05
264.189	11.24
264.405	8.25
264.62	10.38
264.835	10.28
265.051	12.64
265.266	12.23
265.481	10.92
265.696	6.98
265.912	7.84
266.127	9.53
266.342	3.09
266.557	3.19
266.773	5.05
266.988	4.56
267.203	3.68
267.418	1.56
267.633	1.82
267.848	2.29
268.064	4
268.279	4.2
268.494	2.68
268.709	7.58
268.924	6.7
269.139	8.14
269.354	7.78
269.569	7.33
269.784	8.83
269.999	7.95
270.214	8.15
270.429	8.38
270.644	10.19
270.859	8.91
271.074	7.57
271.289	9.11
271.504	8.34
271.719	7.22
271.934	9.32
272.149	9.24
272.363	11.12
272.578	10.81
272.793	10.18
273.008	8.74
273.223	9.39
273.438	10.19
273.653	9.07
273.867	9.46
274.082	11.55
274.297	9.71
274.512	9.79
274.726	8.76
274.941	9.56
275.156	12.55
275.371	10.65
275.585	13.44
275.8	12.77
276.015	13.39
276.229	12.81
276.444	11.32
276.659	13.45
276.873	12.83
277.088	13.63
277.302	14.59
277.517	13.28
277.732	14.7
277.946	11.48
278.161	12.44
278.375	11.51
278.59	11.16
278.804	11.59
279.019	9.45
279.233	10.48
279.448	8.87
279.662	7.7
279.877	5.78
280.091	7.48
280.306	8.97
280.52	7.91
280.735	9.94
280.949	10.31
281.163	11.25
281.378	10.49
281.592	9.98
281.806	11.3
282.021	10.32
282.235	10.08
282.449	7.95
282.664	8.02
282.878	8.36
283.092	6.67
283.307	4.76
283.521	2.56
283.735	2.1
283.949	2.2
284.164	2.31
284.378	4.91
284.592	5.26
284.806	7.18
285.02	6.59
285.234	6.75
285.449	7.94
285.663	9.07
285.877	9.69
286.091	10.56
286.305	10.3
286.519	9.77
286.733	8.63
286.947	8.45
287.161	7.19
287.375	7.88
287.589	7.94
287.803	9.05
288.017	10.86
288.231	11.48
288.445	13.59
288.659	13.27
288.873	12.51
289.087	14.12
289.301	14.99
289.515	15.04
289.729	13.64
289.943	13.68
290.157	13.46
290.371	12.38
290.584	11.56
290.798	9.44
291.012	9.69
291.226	11.34
291.44	9.99
291.654	9.81
291.867	10.45
292.081	10.99
292.295	9.82
292.509	8.47
292.722	9.6
292.936	10.82
293.15	12.62
293.364	13.52
293.577	11.94
293.791	11.77
294.005	11.8
294.218	11.04
294.432	10.84
294.645	10.82
294.859	11.61
295.073	11.28
295.286	10.8
295.5	10.82
295.713	10.47
295.927	9.94
296.14	10.81
296.354	10.64
296.568	11.43
296.781	11.63
296.994	11.83
297.208	11.92
297.421	11.32
297.635	11.72
297.848	11.44
298.062	11.51
298.275	12.63
298.489	13.45
298.702	14.4
298.915	14.18
299.129	14.26
299.342	15.07
299.555	14.25
299.769	14.2
299.982	14.86
300.195	14.23
300.409	13.79
300.622	12.69
300.835	11.21
301.048	9.87
301.262	11.87
301.475	11.02
301.688	12.52
301.901	11.32
302.115	12.02
302.328	10.74
302.541	10.18
302.754	11.48
302.967	12.27
303.18	13.21
303.393	12.31
303.607	10.51
303.82	11.11
304.033	10.17
304.246	13.61
304.459	14.24
304.672	14.63
304.885	17.4
305.098	16.64
305.311	17.27
305.524	15.45
305.737	16.51
305.95	17.42
306.163	18.28
306.376	18.17
306.589	16.14
306.802	16.03
307.015	14.75
307.228	14.02
307.44	13.63
307.653	12.78
307.866	14.07
308.079	13.77
308.292	13.31
308.505	13.34
308.718	13.64
308.93	13.39
309.143	12.26
309.356	13.19
309.569	14.37
309.781	16.1
309.994	17.42
310.207	17.5
310.42	17.84
310.632	17.49
310.845	16.58
311.058	15.54
311.27	16.09
311.483	15.89
311.696	15.93
311.908	14.35
312.121	13.99
312.333	14.46
312.546	13.43
312.759	13.6
312.971	12.97
313.184	13.55
313.396	14.14
313.609	13.84
313.821	13.64
314.034	14.82
314.246	15.02
314.459	14.11
314.671	12.85
314.884	13.18
315.096	14.11
315.309	16.68
315.521	17.86
315.733	17.12
315.946	16.58
316.158	18.99
316.371	17.72
316.583	18.16
316.795	20.58
317.008	21.82
317.22	21.77
317.432	22.82
317.644	21.67
317.857	20.42
318.069	20.59
318.281	21.74
318.494	20.86
318.706	19.35
318.918	19.54
319.13	16.15
319.342	14.91
319.555	17.46
319.767	15.83
319.979	16.51
320.191	16.45
320.403	17.1
320.615	15.89
320.827	16.91
321.039	18.93
321.252	20
321.464	22.77
321.676	21.28
321.888	19.65
322.1	18.91
322.312	18.09
322.524	18.63
322.736	18.51
322.948	19.42
323.16	17.88
323.372	17.94
323.584	17.01
323.796	17.37
324.007	18.26
324.219	20.18
324.431	21.14
324.643	21.7
324.855	20.7
325.067	20.75
325.279	20.67
325.491	21.24
325.702	21.54
325.914	20.32
326.126	19.92
326.338	19.89
326.55	17.94
326.761	17.84
326.973	16.59
327.185	17.36
327.396	16.87
327.608	17.59
327.82	18.09
328.032	18.31
328.243	18.65
328.455	16.44
328.666	15.2
328.878	15.32
329.09	15.37
329.301	14.29
329.513	14.53
329.725	14
329.936	11.92
330.148	10.71
330.359	8.68
330.571	10.4
330.782	12.62
330.994	12.18
331.205	10.93
331.417	9.91
331.628	10.31
331.84	7.86
332.051	9.24
332.262	9.85
332.474	10.3
332.685	9.52
332.897	7.78
333.108	5.72
333.319	6.57
333.531	6.29
333.742	7.39
333.953	8.92
334.165	11.49
334.376	13.05
334.587	13.89
334.799	14.23
335.01	15.77
335.221	17.77
335.432	18.45
335.644	19.71
335.855	20.82
336.066	19.64
336.277	19.18
336.488	18.76
336.7	17.66
336.911	17.69
337.122	16.68
337.333	17.04
337.544	13.63
337.755	14.51
337.966	14.85
338.177	15.3
338.388	15.05
338.599	15.52
338.811	16.02
339.022	15.2
339.233	16.05
339.444	15.1
339.655	13.91
339.866	16.41
340.076	14.76
340.287	14.42
340.498	13.98
340.709	13.99
340.92	13.34
341.131	12.6
341.342	13.21
341.553	12.17
341.764	13.23
341.975	13.73
342.185	14.13
342.396	14.52
342.607	14.2
342.818	14.61
343.029	14.99
343.239	16.81
343.45	15.75
343.661	14.14
343.872	13.77
344.082	14.13
344.293	13.74
344.504	13.21
344.714	13.2
344.925	13.36
345.136	13.1
345.346	13.71
345.557	12.91
345.768	13.24
345.978	14.27
346.189	12.79
346.399	13.22
346.61	13.33
346.821	12.39
347.031	11.73
347.242	11.19
347.452	11.33
347.663	10.64
347.873	9.5
348.084	10.5
348.294	10.01
348.504	11.71
348.715	13.09
348.925	13.09
349.136	13.24
349.346	13.65
349.557	15.17
349.767	15.36
349.977	14.45
350.188	14.31
350.398	14.56
350.608	14.1
350.819	14.72
351.029	13.81
351.239	13.04
351.449	14.59
351.66	14.58
351.87	14.59
352.08	14.08
352.29	16.71
352.501	17.37
352.711	16.44
352.921	17.93
353.131	16.94
353.341	16.48
353.552	16.49
353.762	15.51
353.972	15.98
354.182	14.62
354.392	13.53
354.602	11.96
354.812	11.56
355.022	11.83
355.232	11.39
355.442	11.77
355.652	11.04
355.862	12.73
356.072	12.43
356.282	12.32
356.492	12.18
356.702	12.79
356.912	12.79
357.122	12.66
357.332	12.47
357.542	12.38
357.752	12.25
357.962	12.26
358.171	11.83
358.381	11.79
358.591	11.65
358.801	12.11
359.011	11.38
359.221	11.15
359.43	11.7
359.64	11.91
359.85	12.27
360.06	11.2
360.269	12.19
360.479	12.16
360.689	12.25
360.899	11.52
361.108	11.2
361.318	11.6
361.528	11.69
361.737	11.82
361.947	11.48
362.156	10.97
362.366	11.8
362.576	11.21
362.785	11.45
362.995	11.41
363.204	12.12
363.414	12.02
363.623	12.84
363.833	12.63
364.042	12
364.252	11.74
364.461	11.25
364.671	11.09
364.88	11.42
365.09	10.08
365.299	9.98
365.509	10.26
365.718	10.28
365.927	9.95
366.137	11.15
366.346	11.3
366.555	10.76
366.765	11.54
366.974	11.63
367.183	11.48
367.393	12.35
367.602	12.34
367.811	11.75
368.021	12.1
368.23	11.42
368.439	9.99
368.648	9.94
368.857	10.93
369.067	10.74
369.276	10.38
369.485	9.68
369.694	9.27
369.903	9.55
370.112	10.12
370.321	10.02
370.531	10.55
370.74	11.05
370.949	10.45
371.158	9.92
371.367	9.82
371.576	10.05
371.785	9.92
371.994	10.62
372.203	10.26
372.412	9.85
372.621	9.58
372.83	9.44
373.039	9.43
373.248	9.75
373.457	10.48
373.666	10.06
373.874	10.08
374.083	10.72
374.292	9.5
374.501	9.96
374.71	10.3
374.919	10.33
375.128	9.87
375.336	9.57
375.545	9.42
375.754	8.48
375.963	8.76
376.171	8.1
376.38	7.78
376.589	8.36
376.798	7.39
377.006	7.16
377.215	6.91
377.424	7.16
377.632	7.62
377.841	8.44
378.05	8.67
378.258	8.03
378.467	8.24
378.675	8.09
378.884	7.83
379.093	8.31
379.301	8.39
379.51	8.37
379.718	7.5
379.927	7.06
380.135	6.46
380.344	6.44
380.552	7.1
380.761	7.28
380.969	6.79
381.177	6.22
381.386	5.7
381.594	5.55
381.803	5.8
382.011	6.35
382.219	6.5
382.428	6.09
382.636	6.69
382.845	6.4
383.053	6.38
383.261	6.6
383.469	7.03
383.678	7.39
383.886	7.32
384.094	7.35
384.302	7.47
384.511	7.3
384.719	7.39
384.927	7.12
385.135	6.94
385.343	6.64
385.552	6.35
385.76	6.15
385.968	6.41
386.176	6.28
386.384	6.05
386.592	5.83
386.8	5.72
387.008	6.04
387.216	5.63
387.424	5.81
387.633	6.23
387.841	6.47
388.049	6.49
388.257	5.86
388.465	6.05
388.672	6.24
388.88	6.42
389.088	6.41
389.296	6.26
389.504	6.51
389.712	6.19
389.92	5.79
390.128	5.5
390.336	5.73
390.544	5.89
390.751	5.53
390.959	5.54
391.167	5.29
391.375	5.38
391.583	5.01
391.79	4.94
391.998	4.86
392.206	5.44
392.414	6.02
392.621	5.73
392.829	5.94
393.037	5.98
393.244	5.92
393.452	6.23
393.66	6.41
393.867	6.02
394.075	6.11
394.283	6.04
394.49	5.6
394.698	5.37
394.905	5.7
395.113	5.76
395.32	5.65
395.528	5.51
395.735	4.98
395.943	4.77
396.15	5.14
396.358	4.8
396.565	5.1
396.773	5.03
396.98	4.77
397.188	4.66
397.395	4.22
397.602	4.28
397.81	3.96
398.017	4.13
398.225	4.17
398.432	4.48
398.639	4.8
398.847	5
399.054	5.07
399.261	4.82
399.468	4.69
399.676	4.5
399.883	4.75
400.09	4.74
400.297	4.94
400.505	5.18
400.712	5.06
400.919	4.57
401.126	3.7
401.333	3.66
401.54	3.92
401.748	3.87
401.955	4.12
402.162	4.04
402.369	4.17
402.576	3.98
402.783	3.76
402.99	3.66
403.197	4.04
403.404	4.75
403.611	4.86
403.818	4.94
404.025	5.07
404.232	5.2
404.439	4.94
404.646	4.89
404.853	4.61
405.06	4.62
405.267	4.74
405.474	4.88
405.681	4.99
405.887	4.63
406.094	4.72
406.301	4.67
406.508	4.42
406.715	4.31
406.922	4.63
407.128	5.13
407.335	4.89
407.542	4.88
407.749	4.78
407.955	4.23
408.162	4.39
408.369	3.96
408.575	3.69
408.782	3.91
408.989	4.12
409.195	4.08
409.402	3.81
409.609	3.82
409.815	3.39
410.022	3.08
410.228	3.5
410.435	3.36
410.642	3.72
410.848	3.73
411.055	3.52
411.261	3.66
411.468	3.55
411.674	3.69
411.881	3.98
412.087	4.22
412.294	4.28
412.5	4.04
412.706	4.5
412.913	4.34
413.119	4.35
413.326	4.68
413.532	4.68
413.738	4.56
413.945	4.47
414.151	4.01
414.357	4.3
414.564	4.35
414.77	4.11
414.976	3.96
415.182	4.01
415.389	4.16
415.595	3.89
415.801	3.91
416.007	3.85
416.214	3.83
416.42	3.99
416.626	3.86
416.832	3.93
417.038	4.11
417.244	3.95
417.45	4.32
417.657	4.38
417.863	4.63
418.069	4.66
418.275	4.73
418.481	4.5
418.687	4.34
418.893	4.22
419.099	4.34
419.305	4.38
419.511	4.36
419.717	4.02
419.923	3.89
420.129	3.68
420.335	3.56
420.541	3.5
420.746	3.76
420.952	3.75
421.158	3.89
421.364	3.75
421.57	3.77
421.776	3.81
421.982	3.86
422.187	4.03
422.393	4.02
422.599	4.09
422.805	4.09
423.01	4.07
423.216	4.22
423.422	4.07
423.628	4.04
423.833	4.12
424.039	4.2
424.245	4.25
424.45	4.21
424.656	4.41
424.862	4.32
425.067	4.32
425.273	4.09
425.478	4.09
425.684	4.2
425.889	4.26
426.095	4.08
426.301	3.85
426.506	3.84
426.712	3.67
426.917	3.38
427.123	3.33
427.328	3.42
427.533	3.77
427.739	3.85
427.944	3.87
428.15	3.54
428.355	3.7
428.561	3.83
428.766	3.75
428.971	3.67
429.177	3.7
429.382	3.79
429.587	3.89
429.793	3.64
429.998	3.49
430.203	3.39
430.408	3.62
430.614	3.57
430.819	3.84
431.024	4.01
431.229	4.19
431.434	4.33
431.64	4.45
431.845	4.19
432.05	4.16
432.255	4.06
432.46	4.23
432.665	4.39
432.87	4.48
433.076	4.33
433.281	4.05
433.486	4.08
433.691	3.97
433.896	3.88
434.101	4.02
434.306	4.08
434.511	4.23
434.716	4.04
434.921	3.89
435.126	3.79
435.331	3.6
435.535	3.74
435.74	3.66
435.945	3.75
436.15	3.66
436.355	3.35
436.56	3.34
436.765	3.18
436.97	3.07
437.174	3.3
437.379	3.27
437.584	3.23
437.789	3.43
437.993	3.53
438.198	3.61
438.403	3.64
438.608	3.67
438.812	3.83
439.017	3.88
439.222	4.1
439.426	3.85
439.631	3.71
439.836	3.86
440.04	3.71
440.245	3.67
440.45	3.67
440.654	3.8
440.859	3.77
441.063	3.66
441.268	3.72
441.472	3.61
441.677	3.73
441.881	3.87
442.086	3.76
442.29	3.76
442.495	3.75
442.699	3.67
442.904	3.42
443.108	3.55
443.312	3.52
443.517	3.5
443.721	3.56
443.925	3.61
444.13	3.72
444.334	3.72
444.538	3.89
444.743	3.9
444.947	3.86
445.151	4.03
445.356	4.04
445.56	3.99
445.764	3.98
445.968	3.99
446.173	3.87
446.377	3.84
446.581	4.01
446.785	3.81
446.989	3.73
447.193	3.72
447.398	3.72
447.602	3.6
447.806	3.7
448.01	3.73
448.214	3.7
448.418	3.75
448.622	3.75
448.826	3.63
449.03	3.61
449.234	3.77
449.438	3.83
449.642	3.77
449.846	3.86
450.05	3.75
450.254	3.64
450.458	3.53
450.662	3.38
450.866	3.5
451.069	3.48
451.273	3.58
451.477	3.45
451.681	3.5
451.885	3.57
452.089	3.6
452.292	3.75
452.496	3.77
452.7	3.9
452.904	4.1
453.107	3.84
453.311	3.81
453.515	3.8
453.719	3.7
453.922	3.44
454.126	3.34
454.33	3.45
454.533	3.36
454.737	3.18
454.94	2.96
455.144	2.82
455.348	2.83
455.551	2.86
455.755	2.84
455.958	2.87
456.162	2.97
456.365	2.98
456.569	2.98
456.772	2.8
456.976	2.86
457.179	3.06
457.383	3.13
457.586	3.24
457.79	3.38
457.993	3.5
458.196	3.63
458.4	3.76
458.603	3.83
458.807	3.71
459.01	3.81
459.213	3.84
459.417	3.84
459.62	3.9
459.823	3.84
460.026	3.73
460.23	3.65
460.433	3.53
460.636	3.57
460.839	3.7
461.042	3.77
461.246	3.81
461.449	3.98
461.652	3.97
461.855	3.86
462.058	3.81
462.261	3.84
462.464	3.84
