Data from 2937896_Reflection_3.txt Node
Date: Wed Jul 15 13:52:05 EDT 2015
User: robert
Spectrometer: USB4E03001
Autoset integration time: false
Trigger mode: 4
Integration Time (sec): 1.000000E-1
Scans to average: 10
Electric dark correction enabled: true
Nonlinearity correction enabled: false
Boxcar width: 5
Stray light correction enabled: false
XAxis mode: Wavelengths
Stop averaging: false
Number of Pixels in Spectrum: 3648
>>>>>Begin Spectral Data<<<<<
177.566	-8.47
177.785	-6.21
178.005	-13.06
178.225	-546.11
178.445	-119.01
178.665	-258.59
178.885	291.27
179.105	-815.22
179.324	-445.89
179.544	-9.75
179.764	32.89
179.984	29.05
180.204	9.65
180.423	-5.17
180.643	-134.71
180.863	-38.86
181.083	-97.04
181.302	-1229.67
181.522	-107.84
181.742	-101.19
181.961	-173
182.181	-312.1
182.401	-659.62
182.621	-883.39
182.84	-186.2
183.06	-32.29
183.279	112.1
183.499	-1095.7
183.719	-54.49
183.938	215.59
184.158	195.41
184.377	67.07
184.597	122.24
184.816	166.28
185.036	306.15
185.256	174.07
185.475	160.93
185.695	236.74
185.914	256.37
186.134	127.34
186.353	114.88
186.572	59.61
186.792	67.49
187.011	32.3
187.231	165.15
187.45	-416.96
187.67	161.32
187.889	101.94
188.108	12.81
188.328	400
188.547	167.95
188.766	137.76
188.986	-343.9
189.205	-202.21
189.424	13.07
189.644	1.82
189.863	74.08
190.082	47.85
190.302	-38.29
190.521	-30.28
190.74	-19.08
190.959	97.8
191.178	46.22
191.398	76.56
191.617	43.18
191.836	73.73
192.055	112.12
192.274	100.45
192.494	150.48
192.713	101.98
192.932	153.04
193.151	1051.17
193.37	-73.52
193.589	-62.33
193.808	-121.45
194.027	-120.7
194.246	-79.36
194.465	-59.59
194.685	-118.82
194.904	-91.43
195.123	-161.61
195.342	-162.69
195.561	-277.74
195.78	-2531.21
195.999	663.26
196.218	174.88
196.436	123.5
196.655	118.68
196.874	97.31
197.093	103.61
197.312	58.39
197.531	77.94
197.75	88.6
197.969	59.8
198.188	24.45
198.407	43.55
198.625	52.87
198.844	56.98
199.063	53.2
199.282	41.44
199.501	17.33
199.719	1413.47
199.938	133.28
200.157	98.04
200.376	129.27
200.594	193.23
200.813	172.42
201.032	164.9
201.251	211.94
201.469	258.28
201.688	205.6
201.907	225.47
202.125	269.51
202.344	364.92
202.563	5122.66
202.781	-262.31
203	-644.14
203.218	-1869.09
203.437	-929.69
203.656	1062.55
203.874	683.51
204.093	744.39
204.311	281.45
204.53	126.53
204.748	102.09
204.967	93.54
205.185	60.6
205.404	34.93
205.622	-5.1
205.841	9.33
206.059	8.26
206.278	61.99
206.496	311.71
206.715	251.04
206.933	-789.52
207.151	-643.49
207.37	376.49
207.588	546.41
207.806	1228.79
208.025	842.82
208.243	353.51
208.461	423.58
208.68	169.92
208.898	159.31
209.116	231.13
209.335	197.43
209.553	844.01
209.771	471.29
209.989	18.93
210.208	522.64
210.426	1028.33
210.644	-198.3
210.862	52.8
211.081	14.13
211.299	-16.01
211.517	-108.72
211.735	-205.89
211.953	-228.5
212.171	-148.88
212.39	-108.97
212.608	-179.35
212.826	8.76
213.044	-232.09
213.262	251.32
213.48	478.25
213.698	281.61
213.916	183.29
214.134	200.64
214.352	219.13
214.57	223.4
214.788	225.86
215.006	320.57
215.224	256.86
215.442	343.36
215.66	315.56
215.878	224.47
216.096	189.47
216.314	179.41
216.532	176.2
216.75	152.15
216.968	125.22
217.185	161.07
217.403	182.72
217.621	146.45
217.839	181.61
218.057	642.78
218.275	256.84
218.492	238.22
218.71	213.77
218.928	25.18
219.146	101.59
219.363	470.54
219.581	127.73
219.799	131.62
220.017	202.05
220.234	126.07
220.452	123.21
220.67	179.23
220.887	520.71
221.105	524.84
221.323	263.43
221.54	85.18
221.758	16.94
221.976	129.17
222.193	187.61
222.411	436.72
222.629	379.83
222.846	2201.35
223.064	-735.82
223.281	-100.56
223.499	-12.69
223.716	-28.62
223.934	0.11
224.151	7.14
224.369	21.23
224.586	2.75
224.804	3.09
225.021	4.08
225.239	11.52
225.456	18.81
225.674	24.25
225.891	40.62
226.108	61.25
226.326	79.54
226.543	58.64
226.76	52.96
226.978	53.78
227.195	45.45
227.413	40.68
227.63	41.78
227.847	32.42
228.064	30.94
228.282	27.17
228.499	25.69
228.716	20.66
228.934	28.04
229.151	27.62
229.368	27.08
229.585	28.62
229.802	28.22
230.02	28.11
230.237	29.95
230.454	24.5
230.671	21.84
230.888	20.74
231.105	24.96
231.323	21.71
231.54	13.93
231.757	17.75
231.974	17.32
232.191	16.45
232.408	14.94
232.625	13.17
232.842	25.64
233.059	29.97
233.276	33.39
233.493	29.31
233.71	30.38
233.927	33.94
234.144	33.38
234.361	29.28
234.578	27.78
234.795	19.39
235.012	17.38
235.229	10.88
235.446	-1.87
235.663	-6.57
235.879	-3.3
236.096	-4.04
236.313	4.56
236.53	-2.38
236.747	3.18
236.964	8.63
237.181	16.94
237.397	18.19
237.614	22.86
237.831	31.56
238.048	31.85
238.264	31.69
238.481	31.94
238.698	28.6
238.915	31.19
239.131	32.72
239.348	32.76
239.565	27.24
239.781	23.14
239.998	19.09
240.215	18.93
240.431	17.8
240.648	17.67
240.865	16.57
241.081	18.32
241.298	17.91
241.514	16.35
241.731	13.49
241.947	12.95
242.164	11.71
242.38	11.51
242.597	9.9
242.814	8.54
243.03	6.71
243.246	7.32
243.463	6.31
243.679	3.99
243.896	5.56
244.112	8.1
244.329	10.75
244.545	12.8
244.762	12.54
244.978	15.48
245.194	17.25
245.411	16.66
245.627	13.4
245.843	15.45
246.06	17.36
246.276	13.63
246.492	12.04
246.709	10.61
246.925	10.17
247.141	11.57
247.357	11
247.574	10.14
247.79	11.26
248.006	11.74
248.222	9.71
248.439	8.61
248.655	8.72
248.871	9.32
249.087	8.92
249.303	10.32
249.519	8.4
249.736	7.16
249.952	6.44
250.168	4.75
250.384	6.15
250.6	6.49
250.816	7.99
251.032	10.63
251.248	9.49
251.464	10.58
251.68	9.35
251.896	8.35
252.112	9.22
252.328	11.7
252.544	13.48
252.76	11.06
252.976	13.07
253.192	12.05
253.408	13.75
253.624	12.24
253.84	13.02
254.056	15.1
254.272	16.29
254.487	17.96
254.703	18.09
254.919	18.63
255.135	21.78
255.351	20.11
255.567	18.81
255.782	15.24
255.998	19.22
256.214	20.17
256.43	16.43
256.646	14.6
256.861	10.66
257.077	8.18
257.293	2.04
257.508	2.49
257.724	2.6
257.94	5.49
258.155	4.84
258.371	3.4
258.587	2.17
258.802	2.82
259.018	3.74
259.234	4.89
259.449	5.82
259.665	7.82
259.88	7.36
260.096	6.61
260.312	6.28
260.527	7.19
260.743	7.22
260.958	7.32
261.174	8.11
261.389	8.4
261.605	8.73
261.82	8.62
262.036	8.29
262.251	9.09
262.466	11.3
262.682	11.12
262.897	8.81
263.113	8.47
263.328	9.38
263.543	8.46
263.759	9.99
263.974	12.33
264.189	11.51
264.405	9.09
264.62	8.68
264.835	7.88
265.051	6.74
265.266	9.94
265.481	10.89
265.696	8.47
265.912	9.14
266.127	7.01
266.342	2.84
266.557	3.78
266.773	2.62
266.988	3.52
267.203	3.82
267.418	4.93
267.633	4.58
267.848	4.86
268.064	6.54
268.279	6.68
268.494	7.17
268.709	9.24
268.924	9.48
269.139	11.67
269.354	12.86
269.569	12.03
269.784	12.97
269.999	11.59
270.214	10.79
270.429	10.43
270.644	9.78
270.859	8.52
271.074	7.51
271.289	7.39
271.504	8.27
271.719	5.72
271.934	6.83
272.149	6.65
272.363	7.7
272.578	8.52
272.793	8.21
273.008	8.29
273.223	8.21
273.438	8.77
273.653	8.7
273.867	7.4
274.082	8.91
274.297	8.35
274.512	8.51
274.726	5.97
274.941	5.85
275.156	7.89
275.371	7.93
275.585	10.78
275.8	11.17
276.015	12.24
276.229	13.39
276.444	14.27
276.659	14.83
276.873	13.84
277.088	17.06
277.302	18.76
277.517	17.8
277.732	17.13
277.946	15.3
278.161	17.9
278.375	16.37
278.59	14.16
278.804	13.94
279.019	12.42
279.233	14.05
279.448	13.16
279.662	10.41
279.877	10.88
280.091	11.99
280.306	13.57
280.52	8.47
280.735	9.72
280.949	12.53
281.163	12.71
281.378	13.9
281.592	14.11
281.806	15.14
282.021	14.45
282.235	12.95
282.449	11.47
282.664	11.05
282.878	12.71
283.092	11.69
283.307	8.32
283.521	7.06
283.735	5.67
283.949	4.84
284.164	4.08
284.378	5.03
284.592	5.89
284.806	8.1
285.02	8.18
285.234	8.87
285.449	9.17
285.663	11.76
285.877	11.42
286.091	11.9
286.305	12.08
286.519	12.02
286.733	12.36
286.947	10.27
287.161	9.49
287.375	8.61
287.589	9.17
287.803	11.17
288.017	10
288.231	9.11
288.445	9.46
288.659	8.27
288.873	6.65
289.087	6.8
289.301	10.04
289.515	10.77
289.729	11.35
289.943	9.56
290.157	7.29
290.371	6.88
290.584	7.44
290.798	8.49
291.012	8.76
291.226	9.34
291.44	7.98
291.654	6.96
291.867	5.55
292.081	5.28
292.295	3.26
292.509	2.7
292.722	2.53
292.936	3.01
293.15	2.65
293.364	1.43
293.577	2.03
293.791	3.89
294.005	4.15
294.218	4.82
294.432	5.92
294.645	9.42
294.859	11.9
295.073	11.99
295.286	13.11
295.5	12.18
295.713	14.05
295.927	12.88
296.14	12.69
296.354	12.65
296.568	12.74
296.781	11.48
296.994	9.71
297.208	8.93
297.421	9.32
297.635	8.83
297.848	9.63
298.062	8.62
298.275	9.15
298.489	8.65
298.702	9.3
298.915	8.75
299.129	8.55
299.342	9.28
299.555	8.38
299.769	8.68
299.982	9.27
300.195	8.16
300.409	8.29
300.622	7.57
300.835	7.42
301.048	7.14
301.262	7.4
301.475	7.4
301.688	8.24
301.901	7
302.115	8.59
302.328	8.08
302.541	7.97
302.754	9.87
302.967	9.8
303.18	10.78
303.393	11.15
303.607	12.17
303.82	12.42
304.033	11.95
304.246	15.63
304.459	15.91
304.672	14.95
304.885	13.53
305.098	12.37
305.311	13.78
305.524	12.24
305.737	12.82
305.95	12.43
306.163	12.01
306.376	14.2
306.589	13.83
306.802	13.18
307.015	14.85
307.228	16.54
307.44	15.44
307.653	14.51
307.866	16.06
308.079	15.44
308.292	14.4
308.505	15.5
308.718	14.86
308.93	14.79
309.143	12.93
309.356	12.04
309.569	12.39
309.781	14.36
309.994	15.22
310.207	16.13
310.42	16.39
310.632	16.73
310.845	16.76
311.058	15.17
311.27	14.55
311.483	15.49
311.696	16.21
311.908	16.33
312.121	15.75
312.333	16.21
312.546	15.23
312.759	15.56
312.971	14.87
313.184	14.33
313.396	14.69
313.609	14.47
313.821	13.78
314.034	14.33
314.246	13.55
314.459	14.07
314.671	13.09
314.884	12.78
315.096	13.47
315.309	13.92
315.521	15.08
315.733	15.76
315.946	16.49
316.158	17.95
316.371	17.19
316.583	18.63
316.795	18.84
317.008	19.51
317.22	19.8
317.432	18.28
317.644	19.77
317.857	19.7
318.069	20.67
318.281	19.51
318.494	19.67
318.706	18.33
318.918	18.36
319.13	17.69
319.342	17.3
319.555	18.45
319.767	19.69
319.979	18.39
320.191	17.62
320.403	17.03
320.615	18.06
320.827	17.54
321.039	20.12
321.252	19.86
321.464	21.36
321.676	20.75
321.888	20.46
322.1	18.54
322.312	19.18
322.524	18.83
322.736	18.94
322.948	18.79
323.16	17.71
323.372	18.35
323.584	19.78
323.796	18.54
324.007	19.7
324.219	21.26
324.431	20.6
324.643	21.63
324.855	21.79
325.067	22.87
325.279	22.99
325.491	23.62
325.702	22.76
325.914	20.02
326.126	22.02
326.338	20.85
326.55	18.06
326.761	19.28
326.973	19
327.185	19.83
327.396	19.28
327.608	19.02
327.82	20.23
328.032	20.24
328.243	21.76
328.455	20.07
328.666	21.25
328.878	23.07
329.09	23.63
329.301	23.39
329.513	24.04
329.725	23.42
329.936	23.92
330.148	22.83
330.359	22.7
330.571	23.26
330.782	24.39
330.994	24.06
331.205	23.12
331.417	24.85
331.628	25.64
331.84	25.66
332.051	27.29
332.262	27.3
332.474	28.22
332.685	28.33
332.897	28.42
333.108	27.41
333.319	28.15
333.531	29.05
333.742	29.9
333.953	30.92
334.165	30.51
334.376	30.13
334.587	31.05
334.799	32.28
335.01	33.92
335.221	35.06
335.432	35.97
335.644	36.12
335.855	36.89
336.066	36.14
336.277	35.12
336.488	36.18
336.7	37.22
336.911	37.07
337.122	36.6
337.333	37.28
337.544	36.12
337.755	36.58
337.966	37.26
338.177	38.27
338.388	36.53
338.599	37.97
338.811	37.59
339.022	36.81
339.233	37.66
339.444	36.33
339.655	34.05
339.866	34.96
340.076	33.6
340.287	32.71
340.498	30.57
340.709	32.83
340.92	32.98
341.131	33.98
341.342	33.73
341.553	34.48
341.764	36.77
341.975	38.57
342.185	38.92
342.396	39.41
342.607	40.48
342.818	41.76
343.029	41.29
343.239	41.19
343.45	40.38
343.661	40.32
343.872	40.76
344.082	39.82
344.293	37.85
344.504	38.65
344.714	39.55
344.925	40.1
345.136	39.87
345.346	39.97
345.557	39.58
345.768	40.12
345.978	41.36
346.189	39.63
346.399	39.98
346.61	41.19
346.821	41.18
347.031	41.26
347.242	40.56
347.452	40.41
347.663	40.2
347.873	39.56
348.084	38.74
348.294	38.73
348.504	39.49
348.715	39.36
348.925	38.76
349.136	37.44
349.346	36.63
349.557	37.87
349.767	38.73
349.977	38.13
350.188	39.07
350.398	40.11
350.608	39.24
350.819	39.7
351.029	41.16
351.239	41.92
351.449	43.22
351.66	43.3
351.87	42.2
352.08	42.57
352.29	44.44
352.501	43.66
352.711	43.49
352.921	44.5
353.131	44.28
353.341	41.85
353.552	41.76
353.762	40.98
353.972	41.33
354.182	42.13
354.392	41.25
354.602	41.29
354.812	41.84
355.022	43.08
355.232	43.19
355.442	43.09
355.652	44.48
355.862	44.57
356.072	44.99
356.282	45.87
356.492	45.85
356.702	46.16
356.912	45.04
357.122	46.06
357.332	45.21
357.542	43.95
357.752	43.57
357.962	43.2
358.171	43.2
358.381	42.6
358.591	42.16
358.801	41.74
359.011	40.9
359.221	40.25
359.43	39.72
359.64	40.03
359.85	40.89
360.06	40.21
360.269	40.36
360.479	40.37
360.689	40.37
360.899	39.68
361.108	38.95
361.318	38.71
361.528	39.74
361.737	38.5
361.947	38.32
362.156	38.63
362.366	38.86
362.576	38.63
362.785	38.69
362.995	38.33
363.204	38.77
363.414	39.2
363.623	40.49
363.833	39.86
364.042	39.61
364.252	39.07
364.461	38.86
364.671	39.85
364.88	39.5
365.09	39.13
365.299	39.46
365.509	39.09
365.718	38.49
365.927	37.44
366.137	37.82
366.346	38.27
366.555	38.25
366.765	37.63
366.974	36.5
367.183	36.42
367.393	36.08
367.602	36.14
367.811	35.51
368.021	35.6
368.23	35.36
368.439	34.81
368.648	35.49
368.857	35.19
369.067	35.44
369.276	35.77
369.485	36.33
369.694	36.4
369.903	35.93
370.112	37.08
370.321	36.89
370.531	37.92
370.74	37.95
370.949	37.51
371.158	36.65
371.367	36.22
371.576	35.48
371.785	35.13
371.994	35.38
372.203	35.59
372.412	34.1
372.621	34.55
372.83	34.37
373.039	35.13
373.248	35.64
373.457	36.86
373.666	36.17
373.874	36.56
374.083	36.29
374.292	35.64
374.501	35.88
374.71	36.93
374.919	36.8
375.128	36.31
375.336	35.26
375.545	34.79
375.754	33.7
375.963	33.96
376.171	33.94
376.38	33.99
376.589	34.49
376.798	34.06
377.006	34.33
377.215	34.07
377.424	33.88
377.632	34.3
377.841	34.72
378.05	35.14
378.258	35.21
378.467	35.32
378.675	35.59
378.884	35.11
379.093	35.57
379.301	34.7
379.51	34.37
379.718	34.22
379.927	34.25
380.135	33.79
380.344	34.23
380.552	35.02
380.761	35.23
380.969	34.19
381.177	34.06
381.386	33.62
381.594	33.94
381.803	34.08
382.011	34.2
382.219	33.78
382.428	33.73
382.636	33.18
382.845	32.14
383.053	31.94
383.261	32.11
383.469	32.23
383.678	31.62
383.886	31.68
384.094	31.33
384.302	31.22
384.511	31.25
384.719	31.04
384.927	30.78
385.135	30.69
385.343	29.88
385.552	29.71
385.76	29.4
385.968	30
386.176	29.49
386.384	29.69
386.592	29.57
386.8	29.24
387.008	29.43
387.216	29.05
387.424	29.23
387.633	29.69
387.841	30.14
388.049	30.63
388.257	30.23
388.465	30.41
388.672	30.23
388.88	29.93
389.088	29.7
389.296	29.35
389.504	29.93
389.712	29.6
389.92	29.21
390.128	29.2
390.336	29.09
390.544	29.16
390.751	28.92
390.959	28.92
391.167	29.15
391.375	29.39
391.583	29.41
391.79	29.56
391.998	29.49
392.206	29.83
392.414	29.47
392.621	28.9
392.829	28.75
393.037	28.72
393.244	28.79
393.452	28.69
393.66	28.55
393.867	28.41
394.075	28.11
394.283	27.85
394.49	27.6
394.698	27.75
394.905	28.32
395.113	28.48
395.32	28.58
395.528	28.56
395.735	28.38
395.943	28.62
396.15	28.71
396.358	28.58
396.565	28.66
396.773	28.67
396.98	28.62
397.188	28.48
397.395	28.4
397.602	28.15
397.81	27.89
398.017	28.07
398.225	28.28
398.432	28.17
398.639	28.17
398.847	28.5
399.054	28.68
399.261	28.6
399.468	28.39
399.676	28.28
399.883	28.65
400.09	28.94
400.297	29.36
400.505	29.16
400.712	29.21
400.919	29.39
401.126	29.36
401.333	29.19
401.54	29.13
401.748	29.12
401.955	29.24
402.162	29.08
402.369	29.05
402.576	28.86
402.783	28.52
402.99	28.38
403.197	28.55
403.404	28.68
403.611	29
403.818	29.17
404.025	29.54
404.232	29.74
404.439	29.86
404.646	29.95
404.853	29.88
405.06	30.07
405.267	30.51
405.474	30.04
405.681	30.26
405.887	30.3
406.094	30.43
406.301	30.36
406.508	29.86
406.715	29.53
406.922	29.45
407.128	29.59
407.335	29.79
407.542	29.33
407.749	29.7
407.955	29.47
408.162	29.02
408.369	28.76
408.575	28.82
408.782	29.24
408.989	29.58
409.195	29.77
409.402	29.5
409.609	29.44
409.815	29.56
410.022	29.49
410.228	29.49
410.435	29.72
410.642	29.82
410.848	29.84
411.055	29.54
411.261	29.22
411.468	29.1
411.674	29.24
411.881	29.24
412.087	29.39
412.294	29.24
412.5	29.18
412.706	29.44
412.913	29.36
413.119	29.11
413.326	29.27
413.532	29.46
413.738	29.27
413.945	29.29
414.151	29.13
414.357	29.18
414.564	29.4
414.77	29.37
414.976	29
415.182	29.11
415.389	28.92
415.595	29.01
415.801	28.99
416.007	28.94
416.214	28.88
416.42	28.71
416.626	28.37
416.832	28.2
417.038	28.1
417.244	28.09
417.45	28.03
417.657	28.21
417.863	28.29
418.069	28.16
418.275	28.18
418.481	27.96
418.687	27.9
418.893	27.92
419.099	28.05
419.305	27.9
419.511	27.91
419.717	27.73
419.923	27.7
420.129	27.54
420.335	27.45
420.541	27.49
420.746	27.57
420.952	27.64
421.158	27.61
421.364	27.35
421.57	27.45
421.776	27.32
421.982	27.29
422.187	27.22
422.393	27.16
422.599	27.32
422.805	27.24
423.01	27.09
423.216	27.11
423.422	27.09
423.628	27.17
423.833	27.29
424.039	27.28
424.245	27.37
424.45	27.34
424.656	27.39
424.862	27.32
425.067	27.32
425.273	27.47
425.478	27.39
425.684	27.38
425.889	27.5
426.095	27.37
426.301	27.4
426.506	27.45
426.712	27.34
426.917	27.34
427.123	27.29
427.328	27.14
427.533	27.04
427.739	26.94
427.944	26.87
428.15	26.53
428.355	26.42
428.561	26.38
428.766	26.24
428.971	26.25
429.177	26.35
429.382	26.37
429.587	26.53
429.793	26.35
429.998	26.29
430.203	26.25
430.408	26.51
430.614	26.52
430.819	26.78
431.024	27.07
431.229	27.21
431.434	27.05
431.64	27.17
431.845	27.03
432.05	26.97
432.255	27.19
432.46	27.58
432.665	27.51
432.87	27.73
433.076	27.45
433.281	27.15
433.486	27.04
433.691	26.91
433.896	26.86
434.101	26.93
434.306	26.96
434.511	27.09
434.716	26.98
434.921	27.05
435.126	26.8
435.331	26.96
435.535	27.01
435.74	27.21
435.945	27.2
436.15	27.13
436.355	27.05
436.56	27.01
436.765	26.88
436.97	26.69
437.174	26.78
437.379	26.77
437.584	26.81
437.789	26.92
437.993	26.77
438.198	26.86
438.403	26.85
438.608	27.02
438.812	27.28
439.017	27.22
439.222	27.19
439.426	27.05
439.631	26.98
439.836	26.96
440.04	26.92
440.245	26.76
440.45	26.88
440.654	26.96
440.859	26.87
441.063	26.71
441.268	26.76
441.472	26.72
441.677	26.73
441.881	26.94
442.086	26.72
442.29	26.65
442.495	26.85
442.699	26.77
442.904	26.55
443.108	26.64
443.312	26.9
443.517	26.82
443.721	26.9
443.925	27.01
444.13	26.93
444.334	27.02
444.538	27.24
444.743	27.22
444.947	27.09
445.151	27.28
445.356	27.26
445.56	27.11
445.764	27.15
445.968	27.15
446.173	27
446.377	27
446.581	27.09
446.785	26.91
446.989	26.86
447.193	26.84
447.398	26.7
447.602	26.52
447.806	26.33
448.01	26.17
448.214	26.08
448.418	26.1
448.622	26.02
448.826	25.84
449.03	25.73
449.234	25.66
449.438	25.7
449.642	25.75
449.846	25.73
450.05	25.8
450.254	25.76
450.458	25.81
450.662	25.65
450.866	25.62
451.069	25.76
451.273	25.73
451.477	25.69
451.681	25.59
451.885	25.56
452.089	25.63
452.292	25.81
452.496	25.94
452.7	25.79
452.904	25.88
453.107	25.95
453.311	25.89
453.515	25.88
453.719	25.96
453.922	25.85
454.126	25.7
454.33	25.68
454.533	25.62
454.737	25.52
454.94	25.58
455.144	25.56
455.348	25.31
455.551	25.28
455.755	25.42
455.958	25.42
456.162	25.55
456.365	25.82
456.569	25.75
456.772	25.58
456.976	25.51
