Data from 2938074_Reflection_3.txt Node
Date: Sat Jul 11 20:29:35 EDT 2015
User: robert
Spectrometer: USB4E03001
Autoset integration time: false
Trigger mode: 4
Integration Time (sec): 1.000000E-1
Scans to average: 10
Electric dark correction enabled: true
Nonlinearity correction enabled: false
Boxcar width: 5
Stray light correction enabled: false
XAxis mode: Wavelengths
Stop averaging: false
Number of Pixels in Spectrum: 3648
>>>>>Begin Spectral Data<<<<<
177.566	-147.8
177.785	-164.32
178.005	-18.07
178.225	-10.63
178.445	24.3
178.665	13.43
178.885	56.3
179.105	116.33
179.324	193.69
179.544	-456.68
179.764	-14.34
179.984	-25.53
180.204	-26.18
180.423	-14.08
180.643	9.05
180.863	30.08
181.083	27.15
181.302	-19.22
181.522	-26.62
181.742	-23.21
181.961	-20.88
182.181	461.38
182.401	-5.55
182.621	31.89
182.84	22.38
183.06	70.73
183.279	662.91
183.499	134.69
183.719	192.34
183.938	176.95
184.158	240.57
184.377	267.75
184.597	213.78
184.816	297.33
185.036	504.86
185.256	338.28
185.475	95.38
185.695	67.16
185.914	93.4
186.134	49.38
186.353	57.23
186.572	75.22
186.792	75.9
187.011	57.54
187.231	70.96
187.45	109.63
187.67	74.02
187.889	119.48
188.108	127.34
188.328	142.59
188.547	181.81
188.766	99.39
188.986	96.18
189.205	69.25
189.424	68.64
189.644	74.65
189.863	38.34
190.082	78.78
190.302	39.17
190.521	50.32
190.74	47.06
190.959	72.34
191.178	79.45
191.398	72.57
191.617	80.38
191.836	72.71
192.055	72.34
192.274	89.02
192.494	57.35
192.713	41.58
192.932	42.43
193.151	23.72
193.37	-15.21
193.589	3.28
193.808	-9.4
194.027	-57.49
194.246	-31.01
194.465	-10.42
194.685	-40.37
194.904	-16.28
195.123	-10.97
195.342	-6.49
195.561	-5.1
195.78	10.61
195.999	43.9
196.218	71.5
196.436	79.55
196.655	71.94
196.874	78.64
197.093	77.91
197.312	63.98
197.531	104.46
197.75	103.05
197.969	87.18
198.188	88.37
198.407	40.24
198.625	-32.77
198.844	47.08
199.063	83.44
199.282	97.96
199.501	238.56
199.719	-85.68
199.938	-10.58
200.157	65.45
200.376	-59.63
200.594	230.7
200.813	4562.22
201.032	-354.87
201.251	-52.09
201.469	3.47
201.688	-19.66
201.907	-34.05
202.125	151.32
202.344	763.33
202.563	327.14
202.781	152.55
203	-443.04
203.218	4.4
203.437	30.02
203.656	15.69
203.874	39.78
204.093	41.39
204.311	56.62
204.53	47.1
204.748	53.99
204.967	56.44
205.185	40.25
205.404	29.77
205.622	31.85
205.841	31.24
206.059	30.4
206.278	26.96
206.496	26.92
206.715	18.58
206.933	22.35
207.151	11.89
207.37	12.73
207.588	19.28
207.806	20.65
208.025	40.02
208.243	72.16
208.461	50.55
208.68	71.74
208.898	43.21
209.116	29.96
209.335	49.42
209.553	37.87
209.771	23.95
209.989	50.92
210.208	52.59
210.426	151.93
210.644	69.73
210.862	-6.1
211.081	30.5
211.299	2.75
211.517	-139.53
211.735	-280.66
211.953	-185.22
212.171	645.77
212.39	-161.04
212.608	-245.05
212.826	-3092.39
213.044	132.24
213.262	197.06
213.48	71.73
213.698	77.16
213.916	80.38
214.134	-0.97
214.352	72.37
214.57	330.87
214.788	-11.41
215.006	-53.14
215.224	-34.52
215.442	-15.39
215.66	9.98
215.878	0.6
216.096	-6.8
216.314	-55.17
216.532	-47.68
216.75	26.2
216.968	-7.03
217.185	145.07
217.403	378.57
217.621	396.7
217.839	152.11
218.057	100.19
218.275	99.98
218.492	89.59
218.71	84.95
218.928	69.77
219.146	50.35
219.363	47.28
219.581	23.74
219.799	4.31
220.017	25.39
220.234	6.17
220.452	-19.7
220.67	-3.57
220.887	9.11
221.105	-52.64
221.323	-41.69
221.54	-26.42
221.758	-42.61
221.976	-10.26
222.193	5.21
222.411	3.31
222.629	-13.01
222.846	8.98
223.064	19.8
223.281	23.51
223.499	44.81
223.716	32.89
223.934	11.34
224.151	15.24
224.369	14.63
224.586	15.75
224.804	17.76
225.021	20.19
225.239	12.63
225.456	3.87
225.674	1.23
225.891	3.94
226.108	11.8
226.326	18.77
226.543	25.3
226.76	29.27
226.978	18.1
227.195	20.73
227.413	19.75
227.63	20.59
227.847	20.87
228.064	14.86
228.282	13.75
228.499	9.09
228.716	6.94
228.934	5.69
229.151	1.74
229.368	4.33
229.585	3.8
229.802	5.87
230.02	4.6
230.237	5.51
230.454	4.62
230.671	5.06
230.888	6.56
231.105	7.21
231.323	4.85
231.54	11.48
231.757	9.62
231.974	9.97
232.191	9.56
232.408	8.38
232.625	6.56
232.842	7.14
233.059	9.07
233.276	7.29
233.493	7.9
233.71	7.73
233.927	6.56
234.144	7.14
234.361	9.64
234.578	1.66
234.795	5.05
235.012	6
235.229	11.9
235.446	10.76
235.663	11.53
235.879	9.01
236.096	8.45
236.313	2.15
236.53	-0.78
236.747	-6.66
236.964	-2.55
237.181	-2.01
237.397	1.17
237.614	-0.57
237.831	-5.26
238.048	-4.33
238.264	-2.63
238.481	1.54
238.698	7
238.915	11.13
239.131	15.31
239.348	15.42
239.565	11.47
239.781	7.95
239.998	8.54
240.215	12.33
240.431	12.46
240.648	11.4
240.865	10.52
241.081	12.2
241.298	11.89
241.514	8.92
241.731	8.97
241.947	8.35
242.164	7.97
242.38	7.56
242.597	6.59
242.814	5.71
243.03	5.55
243.246	5.63
243.463	3.58
243.679	4.42
243.896	6.01
244.112	6.09
244.329	7.42
244.545	8.48
244.762	8.47
244.978	6.97
245.194	7.42
245.411	9.26
245.627	8.46
245.843	9.23
246.06	6.94
246.276	6.16
246.492	6.29
246.709	5.49
246.925	5.33
247.141	5.2
247.357	6.13
247.574	6.59
247.79	6.11
248.006	6.2
248.222	5.93
248.439	5.79
248.655	5.6
248.871	5.42
249.087	4.97
249.303	5.56
249.519	6.64
249.736	6.06
249.952	5.23
250.168	5.55
250.384	6.34
250.6	6.06
250.816	6.24
251.032	5.75
251.248	5.69
251.464	6.96
251.68	6.33
251.896	5.84
252.112	4.84
252.328	4.54
252.544	3.99
252.76	3.1
252.976	3.27
253.192	3.56
253.408	3.57
253.624	3.76
253.84	4.61
254.056	4.35
254.272	2.81
254.487	5.06
254.703	7.72
254.919	7.92
255.135	9.18
255.351	8.12
255.567	8.89
255.782	9.41
255.998	10.99
256.214	13.19
256.43	10.98
256.646	12.49
256.861	12.91
257.077	12.63
257.293	13.15
257.508	11.75
257.724	12.2
257.94	13.23
258.155	12
258.371	10.84
258.587	8.46
258.802	8.96
259.018	7.61
259.234	6.82
259.449	5.34
259.665	4.87
259.88	4.9
260.096	4.92
260.312	3.87
260.527	4.47
260.743	4.48
260.958	5.01
261.174	4.63
261.389	4.98
261.605	4.87
261.82	5.72
262.036	5.39
262.251	5.9
262.466	5.93
262.682	6.88
262.897	6.79
263.113	7
263.328	6.55
263.543	6.24
263.759	5.02
263.974	6
264.189	6.18
264.405	6.43
264.62	5.09
264.835	6.26
265.051	5.8
265.266	5.5
265.481	4.81
265.696	4.69
265.912	5.5
266.127	5.02
266.342	4.68
266.557	4.29
266.773	5.34
266.988	4.5
267.203	3.05
267.418	3.85
267.633	2.32
267.848	1.19
268.064	0.91
268.279	0.47
268.494	2.7
268.709	1.91
268.924	0.93
269.139	-0.46
269.354	0.71
269.569	0.57
269.784	-0.06
269.999	0.69
270.214	1.69
270.429	1.48
270.644	2
270.859	1
271.074	1.23
271.289	1.94
271.504	2.48
271.719	2.17
271.934	2.42
272.149	3.64
272.363	4.65
272.578	5.37
272.793	5.41
273.008	4.95
273.223	6.38
273.438	7.05
273.653	6.01
273.867	5.52
274.082	5.87
274.297	5.98
274.512	6.09
274.726	5.41
274.941	4.43
275.156	4.93
275.371	4.91
275.585	3.73
275.8	2.13
276.015	3.36
276.229	4.28
276.444	3.81
276.659	4.53
276.873	4.24
277.088	3.56
277.302	4.08
277.517	3.99
277.732	4.74
277.946	4.34
278.161	5.62
278.375	5.59
278.59	6.04
278.804	7.3
279.019	7.61
279.233	5.88
279.448	7.43
279.662	6.83
279.877	6.3
280.091	6.58
280.306	8.11
280.52	7.57
280.735	7.79
280.949	9.03
281.163	7.79
281.378	7.34
281.592	7.73
281.806	6.58
282.021	6.14
282.235	6.51
282.449	6.26
282.664	5.38
282.878	6.26
283.092	6.45
283.307	4.23
283.521	4.04
283.735	2.95
283.949	2.1
284.164	2.36
284.378	3.58
284.592	3.48
284.806	4.14
285.02	3.59
285.234	3.62
285.449	3.56
285.663	4.19
285.877	4.78
286.091	5.11
286.305	5.78
286.519	5.62
286.733	6.05
286.947	6.96
287.161	6.66
287.375	6.6
287.589	6.47
287.803	6.01
288.017	6.76
288.231	7.38
288.445	7.95
288.659	8.45
288.873	9.56
289.087	8.8
289.301	8.12
289.515	9.09
289.729	9.39
289.943	9.58
290.157	9.77
290.371	9.6
290.584	9
290.798	8.84
291.012	7.9
291.226	8.13
291.44	7.54
291.654	7.62
291.867	6.74
292.081	6.46
292.295	7.56
292.509	7.82
292.722	6.11
292.936	6.63
293.15	7.71
293.364	8.1
293.577	7.08
293.791	7.45
294.005	7.17
294.218	6.66
294.432	6.72
294.645	5.18
294.859	5.2
295.073	5.63
295.286	5.6
295.5	4.95
295.713	5.28
295.927	5.08
296.14	6.42
296.354	6.59
296.568	7
296.781	6.97
296.994	6.97
297.208	7.8
297.421	8.71
297.635	8.5
297.848	8.86
298.062	9.34
298.275	10.08
298.489	9.64
298.702	10.04
298.915	9.4
299.129	10.13
299.342	9.71
299.555	9.66
299.769	8.84
299.982	9.4
300.195	8.76
300.409	9.06
300.622	9.71
300.835	10.45
301.048	10.68
301.262	12.04
301.475	12.38
301.688	13.27
301.901	12.08
302.115	12.15
302.328	11.35
302.541	11.69
302.754	10.63
302.967	9.56
303.18	9.43
303.393	10.27
303.607	9.28
303.82	7.94
304.033	7.26
304.246	8.88
304.459	11.15
304.672	10.74
304.885	9.81
305.098	9.89
305.311	9.13
305.524	7.97
305.737	5.44
305.95	6.75
306.163	6.72
306.376	6.68
306.589	4.67
306.802	3.06
307.015	5.34
307.228	6.79
307.44	7.18
307.653	8.55
307.866	8.64
308.079	7.83
308.292	6.32
308.505	8.6
308.718	9.99
308.93	11.19
309.143	11.56
309.356	11.33
309.569	10.99
309.781	9.93
309.994	9.73
310.207	10.03
310.42	11.99
310.632	13.25
310.845	12.18
311.058	11.4
311.27	10.31
311.483	9.66
311.696	9.39
311.908	9.84
312.121	11.04
312.333	10.32
312.546	10.89
312.759	10.25
312.971	9.2
313.184	10.14
313.396	9.95
313.609	11.51
313.821	11.98
314.034	11
314.246	10.64
314.459	9.46
314.671	10.52
314.884	8.49
315.096	8.13
315.309	8.73
315.521	7.69
315.733	9.46
315.946	7.83
316.158	8.11
316.371	8.79
316.583	9.37
316.795	10.15
317.008	9.63
317.22	11.98
317.432	12.22
317.644	10.97
317.857	11.89
318.069	10.49
318.281	11.41
318.494	9.23
318.706	8.57
318.918	7.71
319.13	9.25
319.342	10.36
319.555	9.72
319.767	9.52
319.979	12.02
320.191	11
320.403	11.13
320.615	11.92
320.827	14.39
321.039	15.42
321.252	15.36
321.464	16.09
321.676	15.05
321.888	15.49
322.1	15.81
322.312	14.67
322.524	14.53
322.736	14.87
322.948	14.57
323.16	13.38
323.372	13.96
323.584	14.51
323.796	12.63
324.007	13.22
324.219	12.82
324.431	13.07
324.643	11.94
324.855	11.93
325.067	11.8
325.279	11.14
325.491	11.2
325.702	11.34
325.914	12.42
326.126	11.82
326.338	12.24
326.55	12.51
326.761	11.77
326.973	11.8
327.185	11.89
327.396	12.44
327.608	13.8
327.82	15.33
328.032	14.7
328.243	13.48
328.455	14.65
328.666	14.37
328.878	15.05
329.09	15.74
329.301	16.59
329.513	17.8
329.725	17.17
329.936	15.95
330.148	15.52
330.359	16.6
330.571	18.81
330.782	19.24
330.994	18.98
331.205	18.15
331.417	18.13
331.628	19.03
331.84	19.72
332.051	20.16
332.262	21.05
332.474	21.68
332.685	22.05
332.897	21.39
333.108	22.62
333.319	23.74
333.531	24.57
333.742	25.03
333.953	25.63
334.165	24.97
334.376	26.3
334.587	26.95
334.799	26.92
335.01	27.01
335.221	25.95
335.432	25.34
335.644	25.28
335.855	25.67
336.066	27.05
336.277	26.69
336.488	25.97
336.7	24.85
336.911	24.38
337.122	24.75
337.333	24.74
337.544	25.66
337.755	26.02
337.966	26.75
338.177	26.06
338.388	25.63
338.599	25.51
338.811	26.13
339.022	26.09
339.233	25.87
339.444	25.6
339.655	26.07
339.866	27.1
340.076	26.97
340.287	27.42
340.498	27.36
340.709	26.97
340.92	27.08
341.131	27.25
341.342	27.38
341.553	27.93
341.764	28.41
341.975	27.45
342.185	27.47
342.396	28.44
342.607	27.76
342.818	27.93
343.029	28.06
343.239	27.79
343.45	28.69
343.661	30.38
343.872	30.1
344.082	29.44
344.293	30.27
344.504	30.3
344.714	29.21
344.925	29.26
345.136	28.6
345.346	29.03
345.557	30.73
345.768	30.13
345.978	29.44
346.189	29.88
346.399	30.28
346.61	30.06
346.821	29.85
347.031	29.77
347.242	28.86
347.452	29.94
347.663	29.88
347.873	29.21
348.084	30.49
348.294	30.81
348.504	30.25
348.715	30.5
348.925	30.65
349.136	30.71
349.346	30.39
349.557	31.12
349.767	30.86
349.977	30.49
350.188	29.99
350.398	30.02
350.608	30.02
350.819	30.11
351.029	29.55
351.239	30.04
351.449	30.25
351.66	31.11
351.87	31.17
352.08	31.4
352.29	31.54
352.501	31.87
352.711	30.88
352.921	31.36
353.131	32.6
353.341	32.9
353.552	32.68
353.762	32.25
353.972	32.33
354.182	32.66
354.392	33.12
354.602	33.29
354.812	33.07
355.022	32.82
355.232	31.88
355.442	31.79
355.652	32.01
355.862	29.91
356.072	29.8
356.282	29.61
356.492	30.23
356.702	29.52
356.912	29.86
357.122	29.96
357.332	30.43
357.542	30.74
357.752	30.05
357.962	30.18
358.171	31.63
358.381	31.47
358.591	31.38
358.801	30.03
359.011	30.42
359.221	30.42
359.43	29.96
359.64	29.98
359.85	29.5
360.06	28.95
360.269	28.14
360.479	27.86
360.689	27.74
360.899	27.86
361.108	28.67
361.318	28.53
361.528	27.46
361.737	28.79
361.947	28.08
362.156	28.23
362.366	29.22
362.576	29.63
362.785	29.5
362.995	29.52
363.204	29.29
363.414	29.09
363.623	29.4
363.833	30.09
364.042	28.89
364.252	29.7
364.461	30.37
364.671	30.17
364.88	29.96
365.09	31.15
365.299	30.96
365.509	30.89
365.718	30.03
365.927	29.47
366.137	29.26
366.346	28.97
366.555	29.71
366.765	29.63
366.974	29.07
367.183	28.99
367.393	28.75
367.602	29.34
367.811	30.13
368.021	31.32
368.23	31.98
368.439	32.89
368.648	33.52
368.857	32.85
369.067	33.16
369.276	33.29
369.485	33.52
369.694	33.21
369.903	32.73
370.112	32.33
370.321	31.87
370.531	31.43
370.74	31.44
370.949	30.5
371.158	30.33
371.367	30.05
371.576	30.08
371.785	30.02
371.994	30.11
372.203	30.13
372.412	30.55
372.621	31.04
372.83	31.32
373.039	30.57
373.248	31.39
373.457	31.39
373.666	31.43
373.874	31.53
374.083	32.29
374.292	31.82
374.501	31.49
374.71	30.84
374.919	30.09
375.128	30.01
375.336	30.04
375.545	29.51
375.754	29.51
375.963	29.14
376.171	29.02
376.38	28.76
376.589	29.2
376.798	29.82
377.006	29.58
377.215	29.15
377.424	29.16
377.632	28.9
377.841	29.35
378.05	29.14
378.258	28.78
378.467	28.8
378.675	28.69
378.884	28.69
379.093	28.25
379.301	28.37
379.51	28.86
379.718	28.69
379.927	29.08
380.135	28.34
380.344	28.56
380.552	29.2
380.761	29.28
380.969	29.29
381.177	28.97
381.386	29.4
381.594	29.37
381.803	29.06
382.011	29.23
382.219	29.37
382.428	29.55
382.636	29.66
382.845	29.26
383.053	29.24
383.261	28.68
383.469	28.62
383.678	28.33
383.886	28.2
384.094	28.11
384.302	27.86
384.511	27.78
384.719	27.99
384.927	27.59
385.135	27.43
385.343	27.12
385.552	27.46
385.76	27.2
385.968	27.09
386.176	27.6
386.384	27.8
386.592	27.77
386.8	27.77
387.008	27.74
387.216	28.09
387.424	28.31
387.633	28.13
387.841	27.81
388.049	27.61
388.257	27.33
388.465	26.52
388.672	26.52
388.88	26.54
389.088	26.43
389.296	25.99
389.504	26.04
389.712	25.5
389.92	25.8
390.128	25.84
390.336	26.25
390.544	26.38
390.751	26.76
390.959	26.78
391.167	27.27
391.375	27.25
391.583	27.42
391.79	27.25
391.998	27.84
392.206	28.01
392.414	28.13
392.621	27.96
392.829	27.93
393.037	28.08
393.244	28.23
393.452	27.64
393.66	27.23
393.867	27.41
394.075	27.61
394.283	27.69
394.49	27.45
394.698	27.55
394.905	27.92
395.113	27.98
395.32	27.81
395.528	27.68
395.735	28.06
395.943	28.39
396.15	28.6
396.358	28.65
396.565	28.29
396.773	28.65
396.98	28.84
397.188	28.68
397.395	29.07
397.602	29.33
397.81	29.44
398.017	29.41
398.225	29.54
398.432	29.32
398.639	29.32
398.847	29.28
399.054	29.28
399.261	29.41
399.468	29.43
399.676	29.21
399.883	29.03
400.09	29.08
400.297	29.34
400.505	29.44
400.712	29.68
400.919	29.66
401.126	29.72
401.333	29.45
401.54	28.82
401.748	28.58
401.955	28.55
402.162	28.63
402.369	28.7
402.576	28.59
402.783	28.68
402.99	28.74
403.197	28.67
403.404	28.83
403.611	29.02
403.818	29.25
404.025	29.54
404.232	29.41
404.439	29.34
404.646	29.47
404.853	29.23
405.06	29.23
405.267	29.18
405.474	29.24
405.681	29.4
405.887	29.24
406.094	29.45
406.301	29.55
406.508	29.95
406.715	30.33
406.922	30.07
407.128	30.18
407.335	30.21
407.542	30.24
407.749	30.13
407.955	30.12
408.162	30.5
408.369	30.43
408.575	30.42
408.782	30.33
408.989	29.99
409.195	29.97
409.402	30.01
409.609	29.83
409.815	30.13
410.022	30.45
410.228	30.09
410.435	29.9
410.642	30.03
410.848	29.99
411.055	30.18
411.261	30.35
411.468	30.23
411.674	29.92
411.881	29.83
412.087	29.49
412.294	29.18
412.5	29.54
412.706	29.23
412.913	29.23
413.119	29
413.326	28.75
413.532	28.62
413.738	28.85
413.945	29.18
414.151	29.05
414.357	29.06
414.564	29.07
414.77	28.95
414.976	29.16
415.182	28.91
415.389	29.05
415.595	28.98
415.801	28.96
416.007	28.71
416.214	28.74
416.42	28.98
416.626	28.96
416.832	28.66
417.038	28.41
417.244	28.47
417.45	28.34
417.657	28.28
417.863	28.27
418.069	28.17
418.275	28.35
418.481	28.43
418.687	28.52
418.893	28.59
419.099	28.67
419.305	28.86
419.511	28.79
419.717	28.82
419.923	28.75
420.129	28.86
420.335	28.99
420.541	28.93
420.746	28.77
420.952	28.61
421.158	28.52
421.364	28.58
421.57	28.61
421.776	28.56
421.982	28.4
422.187	28.55
422.393	28.52
422.599	28.36
422.805	28.36
423.01	28.3
423.216	28.33
423.422	28.37
423.628	28.34
423.833	28.14
424.039	28.08
424.245	28.24
424.45	28.18
424.656	28.14
424.862	28.22
425.067	28.22
425.273	28.2
425.478	28.19
425.684	28.16
425.889	28.22
426.095	28.32
426.301	28.37
426.506	28.43
426.712	28.22
426.917	28.35
427.123	28.33
427.328	28.36
427.533	28.51
427.739	28.45
427.944	28.15
428.15	28.06
428.355	27.8
428.561	27.82
428.766	27.68
428.971	27.97
429.177	27.77
429.382	27.68
429.587	27.64
429.793	27.48
429.998	27.82
430.203	28.17
430.408	28.31
430.614	28.5
430.819	28.58
431.024	28.6
431.229	28.61
431.434	28.63
431.64	28.58
431.845	28.63
432.05	28.84
432.255	28.65
432.46	28.48
432.665	28.24
432.87	28.36
433.076	28.1
433.281	28.06
433.486	27.99
433.691	28.1
433.896	28.29
434.101	28.47
434.306	28.34
434.511	28.34
434.716	28.51
434.921	28.79
435.126	28.84
435.331	29.04
435.535	29.24
435.74	29.19
435.945	28.98
436.15	28.8
436.355	28.44
436.56	28.49
436.765	28.26
436.97	27.95
437.174	27.63
437.379	27.41
437.584	27.5
437.789	27.36
437.993	27.44
438.198	27.58
438.403	27.48
438.608	27.56
438.812	27.53
439.017	27.56
439.222	27.85
439.426	27.97
439.631	28
439.836	28.15
440.04	28.22
440.245	28.14
440.45	27.89
440.654	27.99
440.859	27.95
441.063	28.06
441.268	28.31
441.472	28.21
441.677	28.14
441.881	28.37
442.086	28.19
442.29	28.09
442.495	28.19
442.699	28.45
442.904	28.5
443.108	28.44
443.312	28.36
443.517	28.21
443.721	28.32
443.925	28.34
444.13	28.04
444.334	28.09
444.538	28.17
444.743	28.11
444.947	28.11
445.151	28.17
445.356	28.35
445.56	28.24
445.764	28.14
445.968	28.05
446.173	28.06
446.377	28.07
446.581	28.09
446.785	28.07
446.989	27.91
447.193	27.8
447.398	27.68
447.602	27.63
447.806	27.62
448.01	27.69
448.214	27.57
448.418	27.46
448.622	27.47
448.826	27.48
449.03	27.4
449.234	27.5
449.438	27.47
449.642	27.41
449.846	27.35
450.05	27.43
450.254	27.41
450.458	27.43
450.662	27.43
450.866	27.56
451.069	27.38
451.273	27.39
451.477	27.44
451.681	27.47
451.885	27.65
452.089	27.61
452.292	27.71
452.496	27.67
452.7	27.93
452.904	28
453.107	27.88
453.311	27.9
453.515	27.9
453.719	27.94
453.922	28.03
454.126	27.83
454.33	27.98
454.533	27.73
454.737	27.68
454.94	27.52
455.144	27.56
455.348	27.51
455.551	27.42
455.755	27.4
455.958	27.27
456.162	27.29
456.365	27.51
456.569	27.34
456.772	27.39
456.976	27.36
457.179	27.13
457.383	27.32
457.586	27.44
457.79	27.3
457.993	27.56
458.196	27.5
458.4	27.4
458.603	27.47
458.807	27.6
459.01	27.67
459.213	27.54
459.417	27.68
459.62	27.59
459.823	27.67
460.026	27.74
460.23	27.65
460.433	27.82
460.636	27.94
460.839	27.85
461.042	27.82
461.246	27.81
