Data from 2938072_Reflection_1.txt Node
Date: Sat Jul 11 20:34:14 EDT 2015
User: robert
Spectrometer: USB4E03001
Autoset integration time: false
Trigger mode: 4
Integration Time (sec): 1.000000E-1
Scans to average: 10
Electric dark correction enabled: true
Nonlinearity correction enabled: false
Boxcar width: 5
Stray light correction enabled: false
XAxis mode: Wavelengths
Stop averaging: false
Number of Pixels in Spectrum: 3648
>>>>>Begin Spectral Data<<<<<
177.566	46.15
177.785	86.04
178.005	77
178.225	60.19
178.445	63.31
178.665	106.61
178.885	-68.9
179.105	121.25
179.324	161.23
179.544	279.81
179.764	246.63
179.984	-220.51
180.204	-114.81
180.423	-58.7
180.643	82.94
180.863	42.2
181.083	-45.2
181.302	-18.64
181.522	8.6
181.742	43.19
181.961	70.16
182.181	64.9
182.401	88.05
182.621	17.62
182.84	26.94
183.06	-5.25
183.279	-4.72
183.499	38.35
183.719	34.89
183.938	46.95
184.158	48.53
184.377	37.63
184.597	46.63
184.816	45.99
185.036	66.28
185.256	54.95
185.475	69.61
185.695	100.99
185.914	75.56
186.134	91.96
186.353	86.53
186.572	57.78
186.792	91.23
187.011	58.66
187.231	36.73
187.45	-9.99
187.67	36.39
187.889	-16.61
188.108	1127.15
188.328	153.9
188.547	157.31
188.766	391.74
188.986	286.84
189.205	-53.54
189.424	-26.5
189.644	9.82
189.863	20.51
190.082	-43.32
190.302	5.63
190.521	-43.98
190.74	-5.81
190.959	-92.19
191.178	-147.94
191.398	-78.52
191.617	-46.14
191.836	-25.35
192.055	-13.5
192.274	-5.76
192.494	-32
192.713	-4.34
192.932	42.82
193.151	39.8
193.37	35.75
193.589	14.62
193.808	-0.65
194.027	-0.13
194.246	4.9
194.465	7.96
194.685	6.38
194.904	4.27
195.123	21.71
195.342	33.76
195.561	12.97
195.78	-23.49
195.999	-88.23
196.218	-10.26
196.436	148.12
196.655	83.54
196.874	55.73
197.093	7.51
197.312	79.32
197.531	189.45
197.75	1299.24
197.969	-150.36
198.188	18.77
198.407	75.65
198.625	51.22
198.844	45.65
199.063	25.57
199.282	10.12
199.501	28.04
199.719	40.48
199.938	8.31
200.157	38.39
200.376	12.92
200.594	6.81
200.813	19.08
201.032	-62.88
201.251	96.87
201.469	172.03
201.688	116.01
201.907	83.16
202.125	39.63
202.344	88.62
202.563	112.76
202.781	73.2
203	80.67
203.218	52.61
203.437	45.76
203.656	33.83
203.874	11.38
204.093	-5.66
204.311	1059.24
204.53	-529.55
204.748	298.9
204.967	441.46
205.185	185.26
205.404	253.14
205.622	119.34
205.841	111.61
206.059	37.52
206.278	-240.59
206.496	607.78
206.715	187.72
206.933	168.98
207.151	143.28
207.37	114.66
207.588	143.67
207.806	100.78
208.025	82.78
208.243	113
208.461	103.07
208.68	74.47
208.898	61.24
209.116	60.05
209.335	37.66
209.553	25.13
209.771	-1.31
209.989	41.25
210.208	55.51
210.426	83.22
210.644	65.5
210.862	44.89
211.081	25.61
211.299	27.33
211.517	37.46
211.735	15.92
211.953	40.65
212.171	50.62
212.39	44.19
212.608	42.38
212.826	22.58
213.044	14.17
213.262	19.77
213.48	13.2
213.698	14.45
213.916	-49.77
214.134	-186.81
214.352	-138.12
214.57	-107.24
214.788	-45.7
215.006	-19.97
215.224	21.75
215.442	67.03
215.66	28.87
215.878	30.54
216.096	-3.99
216.314	-6.6
216.532	47.09
216.75	44.86
216.968	12.76
217.185	-37.03
217.403	-67.4
217.621	-67.1
217.839	-99.32
218.057	-80.35
218.275	-65.54
218.492	-21.25
218.71	-17.33
218.928	-7.34
219.146	-4.05
219.363	15.44
219.581	14.52
219.799	22.74
220.017	-7.39
220.234	1.09
220.452	13.37
220.67	43.23
220.887	32.94
221.105	13.98
221.323	-14.52
221.54	-16.23
221.758	-29.97
221.976	-26.7
222.193	-23.62
222.411	-39.58
222.629	-68.92
222.846	-42.1
223.064	-88.88
223.281	-114.02
223.499	-94.6
223.716	-59.07
223.934	-76
224.151	-106.98
224.369	-123.35
224.586	-61.29
224.804	2.65
225.021	4.53
225.239	-7.83
225.456	8.67
225.674	15.75
225.891	16.19
226.108	17.22
226.326	19.94
226.543	32.48
226.76	35.48
226.978	29.22
227.195	20.46
227.413	16.06
227.63	10.44
227.847	12.56
228.064	9.25
228.282	11.2
228.499	12.07
228.716	10.19
228.934	7.78
229.151	8.32
229.368	7.79
229.585	9.93
229.802	12.65
230.02	14.42
230.237	11.46
230.454	12.02
230.671	9.32
230.888	8.39
231.105	8.37
231.323	8.68
231.54	8.45
231.757	4.36
231.974	2.09
232.191	2.8
232.408	3.17
232.625	9.59
232.842	8.38
233.059	7.84
233.276	7.61
233.493	9.25
233.71	7.19
233.927	8.76
234.144	14.04
234.361	15.42
234.578	10.78
234.795	6.35
235.012	1.32
235.229	7.47
235.446	11.48
235.663	10.26
235.879	12.44
236.096	13.3
236.313	10.95
236.53	9.27
236.747	13.45
236.964	18.72
237.181	24.35
237.397	26.03
237.614	18.55
237.831	20.31
238.048	17.13
238.264	13.5
238.481	12.98
238.698	11.91
238.915	14.68
239.131	5.52
239.348	-1.79
239.565	-0.34
239.781	6.37
239.998	6.28
240.215	5.73
240.431	10.5
240.648	15.68
240.865	15.41
241.081	17.58
241.298	17.9
241.514	18.43
241.731	18.05
241.947	15.68
242.164	13.59
242.38	14.1
242.597	14.08
242.814	12.49
243.03	11.64
243.246	11.25
243.463	10.44
243.679	9.82
243.896	11.26
244.112	11.99
244.329	11.67
244.545	11.1
244.762	12.21
244.978	10.8
245.194	11.49
245.411	9.45
245.627	9.33
245.843	8.66
246.06	9.35
246.276	5.4
246.492	5.31
246.709	5.68
246.925	6.51
247.141	6.03
247.357	6.24
247.574	6.3
247.79	5.81
248.006	5.7
248.222	6.31
248.439	5.63
248.655	6.29
248.871	5.99
249.087	5.7
249.303	4.9
249.519	4.95
249.736	5.66
249.952	5.11
250.168	7.68
250.384	5.35
250.6	3.68
250.816	4.64
251.032	6.49
251.248	7.2
251.464	8.04
251.68	7.82
251.896	6.23
252.112	3.41
252.328	2.16
252.544	-0.25
252.76	0.43
252.976	2.04
253.192	1.47
253.408	0.1
253.624	-0.89
253.84	-4.69
254.056	-7.13
254.272	-7.37
254.487	-8
254.703	-7.14
254.919	-8.71
255.135	-4.96
255.351	-8.01
255.567	-7.85
255.782	-9.08
255.998	-6.62
256.214	-0.82
256.43	3.28
256.646	4.24
256.861	7.17
257.077	6.28
257.293	8.37
257.508	8.38
257.724	7.43
257.94	8.08
258.155	9.74
258.371	9.11
258.587	9.23
258.802	7.52
259.018	7.76
259.234	8.39
259.449	8.29
259.665	8.01
259.88	8.24
260.096	8.43
260.312	7.83
260.527	8.12
260.743	8.37
260.958	8.17
261.174	8.93
261.389	8.97
261.605	8.92
261.82	8.72
262.036	8.74
262.251	7.28
262.466	6.49
262.682	6.93
262.897	4.83
263.113	3.94
263.328	4.56
263.543	1.29
263.759	0.49
263.974	-3.02
264.189	-1.95
264.405	-2.37
264.62	-1.68
264.835	0.82
265.051	-0.74
265.266	0.53
265.481	0.33
265.696	-2.04
265.912	1.46
266.127	1.81
266.342	2.98
266.557	3.59
266.773	3.56
266.988	3.18
267.203	2.35
267.418	2.87
267.633	3.45
267.848	2.93
268.064	3.75
268.279	2.92
268.494	1
268.709	1.18
268.924	0.61
269.139	0.46
269.354	3.13
269.569	2.65
269.784	3.43
269.999	2.25
270.214	2.69
270.429	1.3
270.644	0.95
270.859	4.45
271.074	3.76
271.289	4.32
271.504	6.32
271.719	5.32
271.934	5.81
272.149	5.38
272.363	6.18
272.578	6.35
272.793	7.52
273.008	7.77
273.223	7.62
273.438	7.58
273.653	6.73
273.867	5.17
274.082	4.93
274.297	4.89
274.512	3.84
274.726	4.61
274.941	5.36
275.156	5.54
275.371	6.94
275.585	6.2
275.8	7.65
276.015	8.9
276.229	9.78
276.444	9.69
276.659	8.75
276.873	10.42
277.088	8.66
277.302	7.05
277.517	5.85
277.732	5.05
277.946	5.65
278.161	4.89
278.375	5.22
278.59	5.7
278.804	6.56
279.019	8.39
279.233	8.69
279.448	9.87
279.662	10.56
279.877	10.18
280.091	9.06
280.306	8.56
280.52	10.99
280.735	9.55
280.949	7.72
281.163	6.85
281.378	8.55
281.592	8.17
281.806	8.71
282.021	8.85
282.235	10.24
282.449	9.89
282.664	9.53
282.878	7.81
283.092	7.87
283.307	9.13
283.521	8.51
283.735	5.75
283.949	5.27
284.164	5.51
284.378	6.58
284.592	6.1
284.806	6.72
285.02	7.95
285.234	6.75
285.449	7.37
285.663	6.14
285.877	7.64
286.091	8.05
286.305	8.41
286.519	7.87
286.733	6.72
286.947	6.63
287.161	6.53
287.375	4.31
287.589	5.68
287.803	5.36
288.017	6.47
288.231	4.44
288.445	4.09
288.659	2.3
288.873	3.65
289.087	4.45
289.301	5.6
289.515	5.84
289.729	7.22
289.943	6.25
290.157	5.81
290.371	6.3
290.584	7.39
290.798	8.14
291.012	9.79
291.226	9.23
291.44	10.26
291.654	9.09
291.867	9.9
292.081	9.88
292.295	9.59
292.509	10.08
292.722	9.88
292.936	9.76
293.15	9.36
293.364	10.15
293.577	8.94
293.791	7.28
294.005	7.58
294.218	6.87
294.432	6.63
294.645	7.28
294.859	7.65
295.073	6.65
295.286	8.11
295.5	7.25
295.713	5.89
295.927	7.68
296.14	7.7
296.354	7.7
296.568	7.49
296.781	8.69
296.994	9.31
297.208	8.6
297.421	9.54
297.635	8.4
297.848	9.16
298.062	10.29
298.275	9.78
298.489	10.7
298.702	10.3
298.915	9.96
299.129	7.98
299.342	7.46
299.555	7.71
299.769	6.67
299.982	6.43
300.195	6.07
300.409	5.34
300.622	4.67
300.835	4.85
301.048	5.67
301.262	8.1
301.475	9.74
301.688	9.84
301.901	10.47
302.115	10.43
302.328	10.44
302.541	10.16
302.754	10.21
302.967	10.1
303.18	9.45
303.393	10.43
303.607	9.96
303.82	7.62
304.033	8.22
304.246	6.94
304.459	8.96
304.672	8.81
304.885	9.63
305.098	9.32
305.311	9.26
305.524	10.76
305.737	9.34
305.95	8.31
306.163	9.54
306.376	9.43
306.589	11.79
306.802	11.04
307.015	12.28
307.228	12.68
307.44	13.21
307.653	13.45
307.866	11.07
308.079	12.25
308.292	12.66
308.505	14.04
308.718	12.69
308.93	11.88
309.143	10.74
309.356	9.91
309.569	9.75
309.781	9.52
309.994	8.73
310.207	9.92
310.42	9.32
310.632	9.43
310.845	8.97
311.058	10.1
311.27	9.28
311.483	10.25
311.696	11.12
311.908	11.35
312.121	10.74
312.333	11.92
312.546	11.47
312.759	10.89
312.971	9.82
313.184	9.95
313.396	10.8
313.609	11.46
313.821	9.79
314.034	6.71
314.246	5.63
314.459	6.08
314.671	5.67
314.884	6.16
315.096	5.78
315.309	5.76
315.521	5.59
315.733	4.47
315.946	3.5
316.158	5.8
316.371	8.4
316.583	8.94
316.795	7.39
317.008	7.81
317.22	8.31
317.432	9.23
317.644	11.31
317.857	12.21
318.069	9.65
318.281	10.69
318.494	10.03
318.706	10.51
318.918	9.97
319.13	13.22
319.342	13.21
319.555	13.32
319.767	13.37
319.979	11.19
320.191	9.85
320.403	12.65
320.615	13.09
320.827	13.19
321.039	13.8
321.252	14.5
321.464	12.56
321.676	12.26
321.888	11.93
322.1	11.66
322.312	13.09
322.524	13.28
322.736	13.38
322.948	11.82
323.16	10.57
323.372	9.44
323.584	9
323.796	9.55
324.007	8.97
324.219	8.48
324.431	8.46
324.643	8.23
324.855	8.88
325.067	8.43
325.279	7.95
325.491	9.26
325.702	9.94
325.914	10.75
326.126	11.01
326.338	11.38
326.55	11.26
326.761	12.09
326.973	11.29
327.185	11.06
327.396	10.61
327.608	11.92
327.82	12.3
328.032	11.94
328.243	12.45
328.455	12.01
328.666	10.99
328.878	11.21
329.09	9.37
329.301	11.39
329.513	10.09
329.725	10.98
329.936	11.3
330.148	9.43
330.359	8.41
330.571	8.82
330.782	9.25
330.994	10.82
331.205	10.22
331.417	12.04
331.628	10.47
331.84	11.42
332.051	10.29
332.262	8.02
332.474	8.15
332.685	9.47
332.897	8.51
333.108	8.59
333.319	8.25
333.531	8.05
333.742	7.55
333.953	7.26
334.165	7.46
334.376	7.9
334.587	10.28
334.799	10.29
335.01	10.28
335.221	9.41
335.432	8.46
335.644	8.49
335.855	7.68
336.066	8.16
336.277	8.1
336.488	7.8
336.7	8.37
336.911	8.14
337.122	9.36
337.333	7.64
337.544	8.52
337.755	9.46
337.966	10.96
338.177	12
338.388	11.03
338.599	12.09
338.811	10.35
339.022	9.7
339.233	9.2
339.444	8.92
339.655	9.94
339.866	8.82
340.076	8.26
340.287	7.37
340.498	8.68
340.709	8.53
340.92	8.5
341.131	9.62
341.342	9.08
341.553	9.76
341.764	9
341.975	8.57
342.185	8.35
342.396	7.97
342.607	7.71
342.818	5.98
343.029	7.04
343.239	5.86
343.45	6.82
343.661	6.92
343.872	5.86
344.082	6.82
344.293	8.25
344.504	8.22
344.714	8.06
344.925	8.08
345.136	9.98
345.346	9.83
345.557	10.45
345.768	11.23
345.978	11.4
346.189	12.59
346.399	13
346.61	11.75
346.821	12.48
347.031	13.98
347.242	14.55
347.452	13.28
347.663	13.65
347.873	13.38
348.084	12.59
348.294	12.94
348.504	11.87
348.715	10.76
348.925	10.36
349.136	10.88
349.346	9.29
349.557	7.91
349.767	7.89
349.977	6.88
350.188	7.07
350.398	7.66
350.608	8.27
350.819	9.03
351.029	8.82
351.239	9.22
351.449	9.9
351.66	9.3
351.87	10.19
352.08	10.21
352.29	9.75
352.501	10.6
352.711	11.23
352.921	10.36
353.131	9.64
353.341	9.53
353.552	9.61
353.762	7.83
353.972	9
354.182	8.04
354.392	7.91
354.602	7.89
354.812	7.49
355.022	6.54
355.232	8.22
355.442	8.51
355.652	8.83
355.862	9.29
356.072	9.53
356.282	8.44
356.492	9.23
356.702	9.71
356.912	10.98
357.122	10.01
357.332	9.89
357.542	8.88
357.752	8.07
357.962	8.81
358.171	8.21
358.381	8.92
358.591	10.27
358.801	10.22
359.011	9.93
359.221	9.68
359.43	9.94
359.64	9.52
359.85	9.24
360.06	9.12
360.269	8.33
360.479	8.93
360.689	8.08
360.899	6.78
361.108	6.66
361.318	7.7
361.528	7.97
361.737	8.23
361.947	8.88
362.156	8.83
362.366	10.03
362.576	9.92
362.785	9.57
362.995	10.05
363.204	10.84
363.414	10.96
363.623	10.22
363.833	9.17
364.042	9.8
364.252	9.65
364.461	9.95
364.671	9.53
364.88	9.45
365.09	9.72
365.299	9.91
365.509	9.58
365.718	9.46
365.927	9.08
366.137	9.15
366.346	8.02
366.555	8.17
366.765	8.15
366.974	7.4
367.183	7.1
367.393	7.07
367.602	6.28
367.811	5.94
368.021	5.86
368.23	6.6
368.439	7
368.648	6.97
368.857	6.45
369.067	5.53
369.276	5.86
369.485	6.55
369.694	6.62
369.903	7.36
370.112	6.87
370.321	6.86
370.531	6.21
370.74	5.89
370.949	6.04
371.158	6.21
371.367	6.69
371.576	7.08
371.785	7.49
371.994	7.45
372.203	7.11
372.412	8.07
372.621	7.96
372.83	7.9
373.039	7.87
373.248	7.94
373.457	6.61
373.666	6.15
373.874	5.45
374.083	5.11
374.292	5.2
374.501	4.67
374.71	4.07
374.919	3.69
375.128	3.42
375.336	3.18
375.545	3.39
375.754	4.12
375.963	4.65
376.171	4.17
376.38	3.34
376.589	2.88
376.798	3.39
377.006	3.4
377.215	3.51
377.424	3.85
377.632	3.89
377.841	3.81
378.05	4.31
378.258	3.82
378.467	4.53
378.675	4.8
378.884	4.8
379.093	4.76
379.301	4.63
379.51	4.42
379.718	4.34
379.927	4.69
380.135	5.02
380.344	4.43
380.552	4.85
380.761	5.14
380.969	5.76
381.177	5.92
381.386	5.42
381.594	5.85
381.803	6.14
382.011	6.5
382.219	7.19
382.428	6.85
382.636	7.24
382.845	7.48
383.053	6.34
383.261	5.51
383.469	5.41
383.678	5.55
383.886	5.72
384.094	6.07
384.302	5.73
384.511	5.6
384.719	5.81
384.927	5.69
385.135	5.38
385.343	5.99
385.552	6.28
385.76	6.53
385.968	6.66
386.176	6.47
386.384	5.77
386.592	5.4
386.8	4.83
387.008	4.28
387.216	3.97
387.424	4.05
387.633	4.04
387.841	4.04
388.049	3.48
388.257	3.5
388.465	3.53
388.672	3.74
388.88	3.67
389.088	3.73
389.296	3.9
389.504	4.03
389.712	3.85
389.92	3.62
390.128	3.66
390.336	4.12
390.544	4.16
390.751	4.15
390.959	4.21
391.167	4.43
391.375	4.45
391.583	4.68
391.79	4.87
391.998	5.02
392.206	5.2
392.414	4.98
392.621	5.09
392.829	5.19
393.037	4.76
393.244	4.82
393.452	4.85
393.66	4.9
393.867	4.51
394.075	4.29
394.283	3.92
394.49	3.97
394.698	4.17
394.905	3.99
395.113	3.62
395.32	3.75
395.528	3.39
395.735	3.36
395.943	3.47
396.15	3.9
396.358	3.84
396.565	3.89
396.773	3.57
396.98	3.77
397.188	3.62
397.395	3.79
397.602	4.03
397.81	4.03
398.017	3.89
398.225	3.62
398.432	3.47
398.639	3.54
398.847	3.69
399.054	3.89
399.261	3.8
399.468	3.4
399.676	3.24
399.883	3.29
400.09	3.55
400.297	3.27
400.505	3.16
400.712	3.28
400.919	2.91
401.126	2.79
401.333	2.87
401.54	2.39
401.748	2.85
401.955	2.75
402.162	2.79
402.369	2.82
402.576	3.01
402.783	2.87
402.99	2.65
403.197	3.14
403.404	3.06
403.611	2.87
403.818	2.95
404.025	2.93
404.232	2.93
404.439	2.66
404.646	2.5
404.853	2.58
405.06	2.45
405.267	2.3
405.474	2.19
405.681	2.23
405.887	2.27
406.094	2.53
406.301	2.49
406.508	2.6
406.715	2.62
406.922	2.64
407.128	2.63
407.335	2.9
407.542	2.96
407.749	2.82
407.955	3.02
408.162	3.05
408.369	2.74
408.575	2.8
408.782	2.96
408.989	2.74
409.195	2.63
409.402	2.66
409.609	2.77
409.815	2.66
410.022	2.98
410.228	3.18
410.435	3.25
410.642	3.39
410.848	3.39
411.055	3.33
411.261	4.02
411.468	4.23
411.674	4.5
411.881	4.64
412.087	4.9
412.294	4.77
412.5	4.46
412.706	4.46
412.913	4.45
413.119	4.54
413.326	4.41
413.532	4.13
413.738	4.13
413.945	3.74
414.151	3.69
414.357	3.3
414.564	3.09
414.77	3.09
414.976	3.11
415.182	2.93
415.389	2.78
415.595	2.99
415.801	2.96
416.007	2.83
416.214	3.15
416.42	3.21
416.626	3.29
416.832	3.31
417.038	3.28
417.244	3.05
417.45	3.18
417.657	3.1
417.863	3.02
418.069	3.09
418.275	3.14
418.481	2.93
418.687	2.66
418.893	2.72
419.099	2.83
419.305	2.74
419.511	2.84
419.717	2.69
419.923	2.88
420.129	2.74
420.335	2.53
420.541	2.43
420.746	2.38
420.952	2.38
421.158	2.29
421.364	2.06
421.57	2.2
421.776	2.18
421.982	2.22
422.187	1.94
422.393	1.96
422.599	2.1
422.805	2.1
423.01	2.13
423.216	2.17
423.422	2.33
423.628	2.52
423.833	2.48
424.039	2.44
424.245	2.41
424.45	2.55
424.656	2.61
424.862	2.57
425.067	2.58
425.273	2.6
425.478	2.64
425.684	2.64
425.889	2.54
426.095	2.48
426.301	2.32
426.506	2.36
426.712	2.36
426.917	2.27
427.123	2.18
427.328	2.17
427.533	2.18
427.739	2.36
427.944	2.51
428.15	2.64
428.355	2.49
428.561	2.81
428.766	2.85
428.971	2.74
429.177	2.87
429.382	2.88
429.587	2.83
429.793	2.79
429.998	2.65
430.203	2.17
430.408	2.06
430.614	2.29
430.819	2.38
431.024	2.39
431.229	2.43
431.434	2.28
431.64	2.37
431.845	2.55
432.05	2.68
432.255	2.58
432.46	2.58
432.665	2.66
432.87	2.74
433.076	2.8
433.281	2.65
433.486	2.64
433.691	2.71
433.896	2.66
434.101	2.72
434.306	2.73
434.511	2.84
434.716	3.1
434.921	2.98
435.126	2.96
435.331	2.73
435.535	2.8
435.74	2.75
435.945	2.65
436.15	2.74
436.355	2.57
436.56	2.32
436.765	2.14
436.97	2.14
437.174	2.23
437.379	2.05
437.584	1.89
437.789	1.87
437.993	2.06
438.198	2.11
438.403	1.97
438.608	2.06
438.812	2.27
439.017	2.35
439.222	2.22
439.426	2.09
439.631	2.34
439.836	2.51
440.04	2.67
440.245	2.7
440.45	2.72
440.654	2.89
440.859	2.76
441.063	2.59
441.268	2.47
441.472	2.45
441.677	2.47
441.881	2.35
442.086	2.51
442.29	2.41
442.495	2.35
442.699	2.3
442.904	2.2
443.108	2.4
443.312	2.57
443.517	2.54
443.721	2.47
443.925	2.62
444.13	2.59
444.334	2.39
444.538	2.3
444.743	2.44
444.947	2.57
445.151	2.52
445.356	2.34
445.56	2.27
445.764	2.49
445.968	2.57
446.173	2.53
446.377	2.47
446.581	2.58
446.785	2.63
446.989	2.45
447.193	2.33
447.398	2.31
447.602	2.34
447.806	2.33
448.01	2.28
448.214	2.23
448.418	2.25
448.622	2.15
448.826	1.78
449.03	1.76
449.234	1.76
449.438	1.98
449.642	1.81
449.846	1.81
450.05	1.85
450.254	1.67
450.458	1.72
450.662	1.81
450.866	2.09
451.069	2.44
451.273	2.55
451.477	2.48
451.681	2.21
451.885	2.42
452.089	2.38
452.292	2.3
452.496	2.27
452.7	2.17
452.904	2
453.107	1.96
453.311	2.02
453.515	1.84
453.719	1.93
453.922	2.07
454.126	2.12
454.33	2.17
454.533	2.23
454.737	2.33
454.94	2.46
455.144	2.44
455.348	2.27
455.551	2.1
455.755	2.07
455.958	2.14
456.162	1.93
456.365	1.85
456.569	1.81
456.772	1.73
456.976	1.87
457.179	1.8
457.383	1.81
457.586	2.05
457.79	1.99
457.993	2.09
458.196	2.06
458.4	2.22
458.603	2.28
458.807	2.25
459.01	2.27
459.213	2.31
459.417	2.34
459.62	2.42
459.823	2.22
460.026	2.33
460.23	2.29
460.433	2.19
460.636	1.99
460.839	2.02
461.042	2.05
461.246	2.03
461.449	2.01
461.652	1.9
461.855	1.97
462.058	1.94
462.261	1.92
462.464	1.9
462.668	2.18
462.871	2.52
463.074	2.43
463.277	2.26
463.48	2.46
463.683	2.22
463.886	2.29
464.089	2.18
464.292	2.28
464.495	2.09
464.698	2.2
464.901	1.94
465.104	1.94
465.306	1.92
465.509	2.2
465.712	2.11
465.915	2.1
466.118	2.19
466.321	2.24
466.524	2.63
466.726	2.51
466.929	2.58
467.132	2.6
467.335	2.45
467.538	2.3
467.74	2.22
467.943	2.23
468.146	2.38
468.348	2.46
468.551	2.44
468.754	2.08
468.956	2.38
469.159	2.34
469.362	2.14
