Data from 2938078_Reflection_2.txt Node
Date: Sat Jul 11 20:17:57 EDT 2015
User: robert
Spectrometer: USB4E03001
Autoset integration time: false
Trigger mode: 4
Integration Time (sec): 1.000000E-1
Scans to average: 10
Electric dark correction enabled: true
Nonlinearity correction enabled: false
Boxcar width: 5
Stray light correction enabled: false
XAxis mode: Wavelengths
Stop averaging: false
Number of Pixels in Spectrum: 3648
>>>>>Begin Spectral Data<<<<<
177.566	-149.57
177.785	-48.87
178.005	34.8
178.225	-34.24
178.445	-67.08
178.665	-156.93
178.885	64.68
179.105	-112.84
179.324	-1081.87
179.544	-777.96
179.764	186.05
179.984	-944.83
180.204	269.09
180.423	109
180.643	263.09
180.863	383.66
181.083	1820.06
181.302	3758.33
181.522	346.81
181.742	807.46
181.961	828.9
182.181	-278.8
182.401	-348.48
182.621	-162.5
182.84	-149.36
183.06	-133.4
183.279	-425.94
183.499	215.16
183.719	180.12
183.938	172.59
184.158	138.05
184.377	92.13
184.597	91.81
184.816	92.8
185.036	95.02
185.256	74.32
185.475	89.76
185.695	131.45
185.914	177.73
186.134	227.58
186.353	184.1
186.572	221.1
186.792	379.66
187.011	-564.66
187.231	-582.83
187.45	-1108.31
187.67	-393.21
187.889	-78.91
188.108	-141.25
188.328	-147.73
188.547	4803.75
188.766	-900
188.986	-333.49
189.205	-199.95
189.424	-251.06
189.644	-343.37
189.863	-586.21
190.082	509.76
190.302	1255.94
190.521	-841.28
190.74	-594.7
190.959	-313.11
191.178	-330.52
191.398	-727.79
191.617	-898.3
191.836	206.34
192.055	216.64
192.274	-644.15
192.494	-191.06
192.713	-153.85
192.932	-416.96
193.151	-608.16
193.37	-269.28
193.589	-164.34
193.808	-181.72
194.027	-128.07
194.246	-35.62
194.465	-85.51
194.685	-64.29
194.904	-195.09
195.123	-171.96
195.342	-286.81
195.561	-695.07
195.78	-1887.25
195.999	-930.16
196.218	544.29
196.436	286.16
196.655	167.12
196.874	244.45
197.093	174.41
197.312	175.22
197.531	161.94
197.75	138.92
197.969	183.27
198.188	228.56
198.407	174.21
198.625	2196.53
198.844	-539.63
199.063	-493.7
199.282	1350.99
199.501	-276.16
199.719	-462.65
199.938	-5255.84
200.157	777.34
200.376	317.51
200.594	274.39
200.813	273.88
201.032	233.67
201.251	190.99
201.469	143.81
201.688	183.87
201.907	176.6
202.125	166.23
202.344	171.11
202.563	216.89
202.781	229.34
203	269.64
203.218	224.93
203.437	194.88
203.656	262.82
203.874	-732.2
204.093	-210.13
204.311	-277.54
204.53	-317.64
204.748	-284.72
204.967	-159.94
205.185	-114.62
205.404	-130.98
205.622	-115.01
205.841	-110.7
206.059	-2364.08
206.278	1452.67
206.496	-4293.51
206.715	-126.29
206.933	9.44
207.151	-79.73
207.37	619.65
207.588	249.62
207.806	415.73
208.025	-174.33
208.243	-350.19
208.461	-73.17
208.68	-227.51
208.898	1991.48
209.116	198.71
209.335	211.92
209.553	196.8
209.771	304.55
209.989	297.37
210.208	553.5
210.426	267.29
210.644	285.73
210.862	235.81
211.081	182.73
211.299	183.48
211.517	385.29
211.735	173.07
211.953	215.53
212.171	196.42
212.39	2264.15
212.608	65.59
212.826	34.76
213.044	258.4
213.262	647.95
213.48	-1078.54
213.698	822.78
213.916	536.03
214.134	1650.23
214.352	-568.11
214.57	1000.15
214.788	361.73
215.006	2104.92
215.224	1016.74
215.442	519.54
215.66	2455.81
215.878	251.51
216.096	236.6
216.314	156.57
216.532	208.54
216.75	242.48
216.968	495.89
217.185	-17861.9
217.403	1081.67
217.621	629.76
217.839	642.56
218.057	450.9
218.275	2204.94
218.492	-2275.24
218.71	-1178.57
218.928	-2417.12
219.146	-599.58
219.363	-1860.87
219.581	558.25
219.799	-363.51
220.017	330.63
220.234	488.41
220.452	711.85
220.67	1694.78
220.887	-231.47
221.105	-182.62
221.323	-361.81
221.54	-367.55
221.758	-327.89
221.976	-383.94
222.193	-803.16
222.411	-276.45
222.629	-263.32
222.846	-261.19
223.064	-261.57
223.281	-258.27
223.499	-216.2
223.716	-129.9
223.934	-220.68
224.151	-208.99
224.369	-220.47
224.586	-170.73
224.804	-243.19
225.021	-215.1
225.239	-156.03
225.456	-148.29
225.674	-178.34
225.891	-115.48
226.108	-91.91
226.326	-59.61
226.543	-69.4
226.76	-65.96
226.978	-52.02
227.195	-36.37
227.413	-32.19
227.63	-19.06
227.847	-10.31
228.064	-0.94
228.282	-0.15
228.499	-2.62
228.716	-2.76
228.934	2.33
229.151	4.61
229.368	9.54
229.585	10.26
229.802	10.66
230.02	6.81
230.237	6.22
230.454	4.39
230.671	1.02
230.888	-0.15
231.105	2.39
231.323	4.55
231.54	0.17
231.757	-8.43
231.974	-9.49
232.191	-13.19
232.408	-15.91
232.625	-21.35
232.842	-22.19
233.059	-19.21
233.276	-12.83
233.493	-21.78
233.71	-21.63
233.927	-16.22
234.144	-14.05
234.361	-15.62
234.578	-12.38
234.795	-10.08
235.012	-10.02
235.229	-10.07
235.446	-15.73
235.663	-18.46
235.879	-12.51
236.096	-12.24
236.313	-12.25
236.53	-13.19
236.747	-16.32
236.964	-35.39
237.181	-40.59
237.397	-33.25
237.614	-39.12
237.831	-28.46
238.048	-24.12
238.264	-25.29
238.481	-19.9
238.698	-20.09
238.915	-13.77
239.131	-7.18
239.348	-1.07
239.565	3
239.781	1.63
239.998	-1.16
240.215	-2.48
240.431	-1.94
240.648	1.51
240.865	-5.08
241.081	-0.12
241.298	1.24
241.514	3.03
241.731	5.07
241.947	4.71
242.164	5.72
242.38	8.78
242.597	8.49
242.814	7.19
243.03	6.95
243.246	9.14
243.463	7.47
243.679	5.88
243.896	4.54
244.112	2.48
244.329	-0.09
244.545	-2.09
244.762	-3.14
244.978	0.98
245.194	2.85
245.411	-0.42
245.627	0.72
245.843	2.39
246.06	2.65
246.276	1.34
246.492	3.49
246.709	5.98
246.925	6.88
247.141	6.99
247.357	6.38
247.574	6.83
247.79	7.26
248.006	7.69
248.222	7.87
248.439	8.61
248.655	9.19
248.871	9.24
249.087	9.16
249.303	9.4
249.519	7.95
249.736	6.89
249.952	3.93
250.168	5.47
250.384	2.23
250.6	-1.07
250.816	-1.98
251.032	-2.48
251.248	-2.3
251.464	-1.81
251.68	-2.53
251.896	-1.65
252.112	-1.9
252.328	2.01
252.544	-1.17
252.76	-0.39
252.976	-0.5
253.192	-0.68
253.408	1.33
253.624	0.74
253.84	-2.94
254.056	-3.61
254.272	-5.87
254.487	-6.65
254.703	-14.8
254.919	-11.75
255.135	-9.92
255.351	-6.04
255.567	-4.02
255.782	-4.91
255.998	-5.46
256.214	-2.16
256.43	1.41
256.646	4.51
256.861	5.25
257.077	6.71
257.293	5.38
257.508	2.07
257.724	0.5
257.94	0.76
258.155	-1.04
258.371	0.03
258.587	0.83
258.802	1.15
259.018	0.99
259.234	2.22
259.449	3.2
259.665	3.54
259.88	4.66
260.096	5.91
260.312	5.75
260.527	5.78
260.743	4.88
260.958	4.85
261.174	4.74
261.389	4.72
261.605	4.29
261.82	3.17
262.036	2.71
262.251	2.72
262.466	2.6
262.682	1.89
262.897	2.74
263.113	4.25
263.328	4.56
263.543	2.02
263.759	1.93
263.974	3.6
264.189	6.82
264.405	5.64
264.62	3.16
264.835	0.93
265.051	-2.03
265.266	-2.18
265.481	-1.73
265.696	-2.99
265.912	-0.12
266.127	2.23
266.342	1.16
266.557	-0.57
266.773	1.2
266.988	3.99
267.203	3.51
267.418	5.7
267.633	6.47
267.848	6.02
268.064	6.84
268.279	6.33
268.494	4.57
268.709	3.7
268.924	5.35
269.139	4.69
269.354	4.98
269.569	5.68
269.784	5.41
269.999	4.23
270.214	4.67
270.429	5.54
270.644	5.43
270.859	5.03
271.074	5.87
271.289	4.42
271.504	5.02
271.719	3.26
271.934	2.25
272.149	3.72
272.363	5.02
272.578	4.82
272.793	3.09
273.008	3.38
273.223	4.14
273.438	3.54
273.653	5
273.867	3.84
274.082	4.41
274.297	5.99
274.512	3.95
274.726	2.47
274.941	1.4
275.156	0.79
275.371	0.02
275.585	-0.21
275.8	-0.66
276.015	-3.03
276.229	-2.65
276.444	-2.47
276.659	-5.27
276.873	-5.57
277.088	-5.36
277.302	-3.46
277.517	-0.72
277.732	-0.41
277.946	0.29
278.161	-0.01
278.375	1.5
278.59	2.09
278.804	2.14
279.019	1.24
279.233	2.89
279.448	1.48
279.662	1.03
279.877	2.02
280.091	2.3
280.306	2.89
280.52	3.43
280.735	3.11
280.949	4.2
281.163	2.8
281.378	4.7
281.592	5.25
281.806	5.83
282.021	5.44
282.235	2.96
282.449	1.2
282.664	-0.77
282.878	1.01
283.092	1.97
283.307	0.76
283.521	1.82
283.735	0.24
283.949	-1.41
284.164	-0.9
284.378	-1.19
284.592	1.13
284.806	2.35
285.02	4.04
285.234	2.98
285.449	2.16
285.663	2.63
285.877	4.04
286.091	5.27
286.305	6.66
286.519	7.52
286.733	7.85
286.947	7.66
287.161	7.89
287.375	7.01
287.589	7.68
287.803	8.64
288.017	9.52
288.231	7.25
288.445	7.47
288.659	7.41
288.873	6.74
289.087	7.15
289.301	6.69
289.515	4.66
289.729	4.72
289.943	4.97
290.157	5.31
290.371	4.98
290.584	6.89
290.798	6.36
291.012	5.36
291.226	7.13
291.44	6.02
291.654	6.22
291.867	9.06
292.081	9.48
292.295	8.28
292.509	6.59
292.722	4.59
292.936	3.23
293.15	5.11
293.364	5.79
293.577	4.4
293.791	4.03
294.005	4.03
294.218	1.51
294.432	2.98
294.645	1.91
294.859	3.11
295.073	4.65
295.286	5.95
295.5	4.37
295.713	5.2
295.927	4.98
296.14	6.41
296.354	5.68
296.568	6.92
296.781	5.7
296.994	7.65
297.208	6.48
297.421	6.75
297.635	5.72
297.848	5.85
298.062	4.81
298.275	5.16
298.489	5.22
298.702	5.35
298.915	4.76
299.129	4.58
299.342	4.56
299.555	4.34
299.769	4.36
299.982	6.29
300.195	6.08
300.409	6.34
300.622	5.42
300.835	3.22
301.048	2.7
301.262	3.01
301.475	3.3
301.688	1.95
301.901	2.47
302.115	0.58
302.328	-2.26
302.541	-2.07
302.754	-1.92
302.967	-1.79
303.18	0.51
303.393	1.38
303.607	0.98
303.82	1.1
304.033	0.34
304.246	0.49
304.459	1.42
304.672	-0.66
304.885	0.63
305.098	1.45
305.311	1.39
305.524	0.91
305.737	-1.15
305.95	-0.11
306.163	-0.64
306.376	-0.5
306.589	0.18
306.802	0.84
307.015	5.48
307.228	4.98
307.44	2.92
307.653	3.41
307.866	3.55
308.079	5.2
308.292	3.51
308.505	4.95
308.718	5.51
308.93	5.34
309.143	5.19
309.356	4.1
309.569	4.42
309.781	4.74
309.994	3.89
310.207	3.57
310.42	3.8
310.632	5.24
310.845	5.27
311.058	6.13
311.27	6.52
311.483	7.26
311.696	6.59
311.908	6.46
312.121	6.61
312.333	7.47
312.546	7.41
312.759	6.65
312.971	6.43
313.184	6.58
313.396	4.54
313.609	3.66
313.821	2.27
314.034	2.22
314.246	2.64
314.459	3.16
314.671	4.52
314.884	3.18
315.096	2.78
315.309	2.68
315.521	2.06
315.733	3.75
315.946	3.91
316.158	5.41
316.371	6.15
316.583	4.81
316.795	3.41
317.008	2.03
317.22	2.26
317.432	2.51
317.644	4.51
317.857	4.24
318.069	3.26
318.281	3.16
318.494	2.49
318.706	4.35
318.918	2.78
319.13	1.73
319.342	0.69
319.555	2.83
319.767	4.12
319.979	2.91
320.191	0.52
320.403	-1.69
320.615	-2.6
320.827	-2.65
321.039	-5.1
321.252	-4.83
321.464	-2.93
321.676	-2.88
321.888	-3.17
322.1	-2.7
322.312	-1.43
322.524	1.29
322.736	3.62
322.948	3.22
323.16	3.63
323.372	4.44
323.584	5.38
323.796	5.06
324.007	5.41
324.219	5.61
324.431	3.98
324.643	1.63
324.855	2.34
325.067	2.41
325.279	4.12
325.491	3.89
325.702	3
325.914	4.24
326.126	4.32
326.338	3.28
326.55	2.12
326.761	2.89
326.973	5.13
327.185	5.47
327.396	6.56
327.608	6.47
327.82	6.67
328.032	5.5
328.243	4.21
328.455	4.1
328.666	6.53
328.878	8.15
329.09	8.12
329.301	6.35
329.513	4.89
329.725	1.98
329.936	2.93
330.148	3.12
330.359	3.84
330.571	4.35
330.782	4.69
330.994	2.87
331.205	0.77
331.417	1.66
331.628	2.32
331.84	0.72
332.051	2.64
332.262	1.12
332.474	0.24
332.685	3.43
332.897	3.99
333.108	3.2
333.319	4.31
333.531	4.99
333.742	2.69
333.953	2.75
334.165	3.6
334.376	3.75
334.587	3.13
334.799	4.37
335.01	3.76
335.221	2.37
335.432	3.37
335.644	3.92
335.855	2.67
336.066	5.38
336.277	5.26
336.488	6.05
336.7	5.81
336.911	6.06
337.122	5.52
337.333	4.46
337.544	4.95
337.755	4.58
337.966	3.85
338.177	5.14
338.388	3.42
338.599	1.91
338.811	1.6
339.022	3.47
339.233	4.21
339.444	3.46
339.655	3.9
339.866	3.63
340.076	2.88
340.287	2.11
340.498	2.23
340.709	3.48
340.92	4.54
341.131	4.5
341.342	2.67
341.553	4.01
341.764	4.11
341.975	4.92
342.185	5.73
342.396	6.46
342.607	6.79
342.818	7.34
343.029	6.5
343.239	6.41
343.45	6.17
343.661	5.06
343.872	2.77
344.082	3
344.293	1.97
344.504	2.28
344.714	2.06
344.925	1.43
345.136	0.32
345.346	0.75
345.557	0.42
345.768	1.26
345.978	2.41
346.189	2.43
346.399	1.81
346.61	1.19
346.821	-0.28
347.031	-1.08
347.242	-0.77
347.452	1.17
347.663	2.07
347.873	3.33
348.084	2.16
348.294	2.6
348.504	3.93
348.715	3.99
348.925	5.23
349.136	6.19
349.346	7.02
349.557	7.45
349.767	6.64
349.977	4.79
350.188	3.48
350.398	3.57
350.608	2.32
350.819	3.02
351.029	2.52
351.239	1.65
351.449	1.41
351.66	2.1
351.87	2.03
352.08	1.22
352.29	1.99
352.501	2.88
352.711	2.96
352.921	4.04
353.131	2.81
353.341	4.17
353.552	4.65
353.762	3.37
353.972	2.56
354.182	2.17
354.392	1.62
354.602	4.38
354.812	3.93
355.022	4.22
355.232	2.89
355.442	2.8
355.652	2.31
355.862	2.29
356.072	2.53
356.282	2.55
356.492	2.21
356.702	2.27
356.912	0.54
357.122	0.9
357.332	0.61
357.542	1.79
357.752	2.53
357.962	2.56
358.171	2.47
358.381	3.22
358.591	3.47
358.801	3.78
359.011	3.82
359.221	3.2
359.43	2.94
359.64	3.57
359.85	3.67
360.06	3.11
360.269	3.39
360.479	3
360.689	3.47
360.899	3.96
361.108	4.46
361.318	4.99
361.528	5.08
361.737	5.11
361.947	4.77
362.156	3.94
362.366	3.48
362.576	3.53
362.785	4.88
362.995	4.87
363.204	4.6
363.414	4.65
363.623	4.17
363.833	4.32
364.042	4.1
364.252	4.05
364.461	4.62
364.671	5.34
364.88	5.9
365.09	4.86
365.299	4.45
365.509	4.45
365.718	4.04
365.927	4.62
366.137	4.58
366.346	5.55
366.555	5.49
366.765	5.3
366.974	4.92
367.183	4.53
367.393	4.05
367.602	4.14
367.811	4.32
368.021	4.56
368.23	4.4
368.439	4.27
368.648	3.69
368.857	3.72
369.067	4.25
369.276	4.87
369.485	4.95
369.694	4.66
369.903	4.12
370.112	3.75
370.321	3.83
370.531	3.92
370.74	3.44
370.949	2.71
371.158	3.04
371.367	3.05
371.576	2.65
371.785	1.98
371.994	2.12
372.203	2.33
372.412	2.21
372.621	1.22
372.83	1.04
373.039	0.96
373.248	1.17
373.457	0.66
373.666	0.35
373.874	0.37
374.083	0.71
374.292	0.69
374.501	1.06
374.71	1.32
374.919	1.94
375.128	2.13
375.336	2.99
375.545	3.67
375.754	3.56
375.963	3.42
376.171	3.02
376.38	3.12
376.589	3.18
376.798	3.5
377.006	3.3
377.215	3.12
377.424	2.98
377.632	2.66
377.841	2.21
378.05	2.65
378.258	2.68
378.467	2.88
378.675	2.24
378.884	2.65
379.093	2.31
379.301	2.44
379.51	2.37
379.718	1.97
379.927	2.18
380.135	2.6
380.344	2.29
380.552	2.63
380.761	2.8
380.969	3.33
381.177	2.78
381.386	2.31
381.594	2.12
381.803	3.31
382.011	3.58
382.219	3.18
382.428	3.45
382.636	3.67
382.845	3.3
383.053	2.95
383.261	2.47
383.469	2.61
383.678	2.88
383.886	2.81
384.094	1.62
384.302	1.75
384.511	1.89
384.719	1.25
384.927	0.86
385.135	0.74
385.343	0.54
385.552	0.98
385.76	0.74
385.968	0.7
386.176	0.98
386.384	0.99
386.592	1.07
386.8	1.26
387.008	1.25
387.216	1.74
387.424	1.83
387.633	2.22
387.841	1.91
388.049	2.07
388.257	1.82
388.465	1.72
388.672	1.5
388.88	1.25
389.088	0.74
389.296	0.35
389.504	-0.09
389.712	0.14
389.92	0.15
390.128	0.07
390.336	0.25
390.544	0.29
390.751	0.23
390.959	0.46
391.167	0.74
391.375	0.79
391.583	1.15
391.79	1.43
391.998	1.07
392.206	0.78
392.414	1.15
392.621	1.26
392.829	1.25
393.037	1.44
393.244	1.85
393.452	1.56
393.66	1.67
393.867	1.56
394.075	1.33
394.283	1.35
394.49	1.62
394.698	1.59
394.905	1.63
395.113	1.65
395.32	1.3
395.528	1.41
395.735	1.48
395.943	1.78
396.15	2.17
396.358	2.42
396.565	2.5
396.773	2.44
396.98	2.28
397.188	2.06
397.395	2.3
397.602	2.49
397.81	2.02
398.017	2.12
398.225	1.95
398.432	2.3
398.639	2.31
398.847	2.57
399.054	2.31
399.261	2.61
399.468	2.74
399.676	2.42
399.883	2
400.09	2.01
400.297	1.66
400.505	1.7
400.712	0.92
400.919	0.54
401.126	0.32
401.333	0.49
401.54	0.47
401.748	0.33
401.955	0.42
402.162	0.85
402.369	1.13
402.576	1.58
402.783	1.51
402.99	1.55
403.197	1.54
403.404	1.67
403.611	1.61
403.818	1.29
404.025	1.21
404.232	1.24
404.439	1.35
404.646	1.31
404.853	1.28
405.06	1.69
405.267	1.66
405.474	2.1
405.681	1.95
405.887	2.14
406.094	2.07
406.301	2.38
406.508	2.45
406.715	2.42
406.922	2.25
407.128	2.05
407.335	1.66
407.542	1.83
407.749	1.41
407.955	1.49
408.162	1.44
408.369	1.48
408.575	1.42
408.782	1.24
408.989	1.18
409.195	1.26
409.402	1.4
409.609	1.18
409.815	1.14
410.022	1.51
410.228	1.49
410.435	1.62
410.642	1.79
410.848	1.72
411.055	1.84
411.261	1.8
411.468	1.78
411.674	1.83
411.881	2.18
412.087	2.19
412.294	2.14
412.5	2.2
412.706	1.8
412.913	1.78
413.119	1.93
413.326	2.17
413.532	2.28
413.738	2.45
413.945	2.11
414.151	2.15
414.357	2.12
414.564	1.84
414.77	1.84
414.976	2.16
415.182	2.26
415.389	2.1
415.595	1.69
415.801	1.45
416.007	1.27
416.214	1.37
416.42	1.42
416.626	1.47
416.832	1.68
417.038	1.54
417.244	1.64
417.45	1.6
417.657	1.52
417.863	1.74
418.069	1.76
418.275	1.88
418.481	1.92
418.687	1.76
418.893	1.82
419.099	1.78
419.305	1.69
419.511	1.7
419.717	1.81
419.923	1.91
420.129	2.01
420.335	2.09
420.541	2.15
420.746	2.12
420.952	2.14
421.158	2.07
421.364	2.04
421.57	2.19
421.776	2.11
421.982	2.04
422.187	2.14
422.393	2.03
422.599	2.1
422.805	2.06
423.01	2.11
423.216	2.11
423.422	2.13
423.628	2.13
423.833	2.06
424.039	2.24
424.245	2.24
424.45	2.21
424.656	2.3
424.862	2.27
425.067	2.11
425.273	2.1
425.478	2.2
425.684	2.18
425.889	2
426.095	2.05
426.301	1.91
426.506	1.78
426.712	1.5
426.917	1.38
427.123	1.23
427.328	1.25
427.533	1.12
427.739	0.87
427.944	0.98
428.15	1.19
428.355	1.3
428.561	1.2
428.766	1.21
428.971	1.52
429.177	1.35
429.382	1.47
429.587	1.36
429.793	1.24
429.998	1.04
430.203	0.8
430.408	0.88
430.614	0.82
430.819	1.04
431.024	1.19
431.229	0.97
431.434	1.4
431.64	1.35
431.845	1.44
432.05	1.67
432.255	1.89
432.46	2.13
432.665	2.2
432.87	2.17
433.076	2.06
433.281	2.06
433.486	2.21
433.691	1.91
433.896	1.85
434.101	2.07
434.306	1.94
434.511	1.95
434.716	1.88
434.921	1.62
435.126	1.39
435.331	1.17
435.535	1.14
435.74	1.33
435.945	1.44
436.15	1.61
436.355	1.3
436.56	1.38
436.765	1.54
436.97	1.52
437.174	1.54
437.379	1.75
437.584	1.9
437.789	1.8
437.993	1.58
438.198	1.72
438.403	1.93
438.608	2.1
438.812	2.12
439.017	2.08
439.222	2.06
439.426	2.04
439.631	1.99
439.836	2.01
440.04	2.14
440.245	2.06
440.45	1.68
440.654	1.46
440.859	1.49
441.063	1.49
441.268	1.55
441.472	1.5
441.677	1.6
441.881	1.53
442.086	1.56
442.29	1.44
442.495	1.52
442.699	1.6
442.904	1.72
443.108	1.51
443.312	1.44
443.517	1.31
443.721	1.34
443.925	1.2
444.13	1.49
444.334	1.45
444.538	1.42
444.743	1.37
444.947	1.44
445.151	1.27
445.356	1.36
445.56	1.35
445.764	1.38
445.968	1.35
446.173	1.5
446.377	1.48
446.581	1.49
446.785	1.61
446.989	1.5
447.193	1.55
447.398	1.47
447.602	1.51
447.806	1.67
448.01	1.67
448.214	1.69
448.418	1.78
448.622	1.6
448.826	1.58
449.03	1.47
449.234	1.54
449.438	1.54
449.642	1.93
449.846	1.98
450.05	1.92
450.254	1.7
450.458	1.73
450.662	1.46
450.866	1.42
451.069	1.52
451.273	1.55
451.477	1.49
451.681	1.41
451.885	1.31
452.089	1.44
452.292	1.31
452.496	1.42
452.7	1.34
452.904	1.39
453.107	1.59
453.311	1.26
453.515	1.21
453.719	1.23
453.922	1.41
454.126	1.19
454.33	1.03
454.533	1.25
454.737	1.27
454.94	1.47
455.144	1.56
455.348	1.52
455.551	1.82
455.755	1.75
455.958	1.83
456.162	1.75
456.365	1.76
456.569	1.72
456.772	1.48
456.976	1.28
457.179	1.01
457.383	1.03
457.586	1.01
457.79	1.09
457.993	1.41
458.196	1.44
458.4	1.42
458.603	1.49
458.807	1.44
459.01	1.7
459.213	1.68
459.417	1.87
459.62	1.75
459.823	1.63
460.026	1.47
460.23	1.4
460.433	1.45
460.636	1.46
460.839	1.27
461.042	1.4
461.246	1.36
461.449	1.54
461.652	1.41
461.855	1.57
462.058	1.7
462.261	1.8
462.464	1.84
462.668	1.62
462.871	1.53
463.074	1.78
463.277	1.57
463.48	1.45
463.683	1.5
463.886	1.7
464.089	1.64
464.292	1.56
464.495	1.5
464.698	1.19
464.901	1.41
465.104	1.4
465.306	1.36
465.509	1.45
465.712	1.33
465.915	1.26
466.118	1.13
