Data from 2938022_Reflection_1.txt Node
Date: Sun Jul 12 15:24:39 EDT 2015
User: robert
Spectrometer: USB4E03001
Autoset integration time: false
Trigger mode: 4
Integration Time (sec): 1.000000E-1
Scans to average: 10
Electric dark correction enabled: true
Nonlinearity correction enabled: false
Boxcar width: 5
Stray light correction enabled: false
XAxis mode: Wavelengths
Stop averaging: false
Number of Pixels in Spectrum: 3648
>>>>>Begin Spectral Data<<<<<
177.566	-44.31
177.785	-34.87
178.005	-118.66
178.225	449.3
178.445	10.59
178.665	88.95
178.885	4.42
179.105	-28.77
179.324	-91.25
179.544	-185.95
179.764	-91.37
179.984	-3.45
180.204	-83.12
180.423	-11.67
180.643	177.77
180.863	93.87
181.083	1222.03
181.302	6.89
181.522	-43.97
181.742	683.62
181.961	81.71
182.181	173.04
182.401	-70.11
182.621	-374.74
182.84	503.57
183.06	61.61
183.279	-14.35
183.499	-1.92
183.719	17.84
183.938	-23.25
184.158	5.16
184.377	-1721.9
184.597	-60.54
184.816	-65.76
185.036	-206.36
185.256	4221.13
185.475	386.81
185.695	-1264.42
185.914	-590.69
186.134	-480.83
186.353	-107.36
186.572	-10597.5
186.792	-45.94
187.011	-239.46
187.231	-514.49
187.45	125.76
187.67	149.06
187.889	197.73
188.108	243.21
188.328	298.07
188.547	509
188.766	-457.91
188.986	-290.03
189.205	-194.07
189.424	-399.25
189.644	-480.45
189.863	-131.85
190.082	272.38
190.302	-2479.25
190.521	1270.54
190.74	-2092.39
190.959	-32.13
191.178	-0.8
191.398	-41.24
191.617	-148.11
191.836	-611.95
192.055	-1046.54
192.274	1675.43
192.494	1068.15
192.713	392.88
192.932	380.42
193.151	290.83
193.37	198.64
193.589	203.81
193.808	194.06
194.027	255.15
194.246	192.75
194.465	244.81
194.685	244.02
194.904	181.61
195.123	146.49
195.342	129.72
195.561	158.7
195.78	129.32
195.999	96.73
196.218	62.5
196.436	68.26
196.655	57.24
196.874	63.15
197.093	-14.22
197.312	-30.49
197.531	-285.93
197.75	-163.93
197.969	-151.83
198.188	330.9
198.407	216.73
198.625	129.47
198.844	138.37
199.063	75.7
199.282	152.46
199.501	142.8
199.719	143.47
199.938	63.66
200.157	83.85
200.376	196.83
200.594	104.21
200.813	9.84
201.032	-65.1
201.251	-98.15
201.469	-393.99
201.688	3059.72
201.907	-240.82
202.125	-350.78
202.344	-2932.14
202.563	-629.54
202.781	-191.99
203	1750.31
203.218	-1357.72
203.437	-96.99
203.656	-83.15
203.874	21.45
204.093	113.16
204.311	288.35
204.53	221.27
204.748	304.01
204.967	257.66
205.185	329.02
205.404	233.78
205.622	382.54
205.841	-1054.53
206.059	2454.02
206.278	393.06
206.496	769.82
206.715	338.79
206.933	-379.98
207.151	164.13
207.37	18.73
207.588	58.43
207.806	82.09
208.025	1258.89
208.243	-111.3
208.461	574.19
208.68	360.26
208.898	-1415.66
209.116	-1159.59
209.335	-137.67
209.553	-257.83
209.771	-27.98
209.989	-2.18
210.208	-12.21
210.426	17.43
210.644	93.07
210.862	402.15
211.081	50.18
211.299	-52.96
211.517	17.07
211.735	-139.55
211.953	-427.61
212.171	-16792
212.39	422.43
212.608	-125.86
212.826	-101.53
213.044	-53.43
213.262	15.69
213.48	44.38
213.698	81.36
213.916	100.7
214.134	155.16
214.352	130.38
214.57	140.08
214.788	158.94
215.006	161.58
215.224	182.66
215.442	172.41
215.66	161.46
215.878	122.89
216.096	111.21
216.314	134.12
216.532	121.91
216.75	239.16
216.968	145.11
217.185	84.56
217.403	80.81
217.621	59.35
217.839	95.52
218.057	63.96
218.275	48.47
218.492	85.08
218.71	129.31
218.928	-282.41
219.146	-68.62
219.363	2.11
219.581	-51.97
219.799	-53.38
220.017	-79.62
220.234	-300.14
220.452	-271.28
220.67	-12.92
220.887	-32.46
221.105	-25.37
221.323	-24.1
221.54	-45.61
221.758	-2.51
221.976	-24.91
222.193	4.86
222.411	40.61
222.629	39.26
222.846	25.73
223.064	-12.58
223.281	-45.9
223.499	-40.81
223.716	-54.18
223.934	-16.41
224.151	-48.77
224.369	-51.05
224.586	-37.07
224.804	-43.33
225.021	-33.73
225.239	-14.9
225.456	22.07
225.674	54.68
225.891	64.14
226.108	70.93
226.326	53.1
226.543	41.72
226.76	36.89
226.978	43.96
227.195	44.84
227.413	40.56
227.63	32.67
227.847	24.98
228.064	20.95
228.282	17.05
228.499	17.42
228.716	19.63
228.934	20.52
229.151	21.24
229.368	19.34
229.585	15.18
229.802	15.9
230.02	16.46
230.237	15.5
230.454	12.69
230.671	12.44
230.888	8.71
231.105	8.46
231.323	5.21
231.54	2.21
231.757	-3.63
231.974	3.26
232.191	1.06
232.408	6.45
232.625	8.56
232.842	11.66
233.059	12.33
233.276	9.69
233.493	9.54
233.71	12.52
233.927	18.66
234.144	23.94
234.361	19.69
234.578	15.78
234.795	15.72
235.012	18.67
235.229	18.66
235.446	22.07
235.663	19.83
235.879	22.22
236.096	22.05
236.313	22.77
236.53	22.05
236.747	25.75
236.964	31.88
237.181	26.48
237.397	25.81
237.614	24.35
237.831	24.69
238.048	33.48
238.264	30.21
238.481	28.62
238.698	22.98
238.915	19.24
239.131	16.13
239.348	16.36
239.565	15.03
239.781	12.81
239.998	11.86
240.215	9.35
240.431	6.37
240.648	4.43
240.865	4.15
241.081	2.48
241.298	3.1
241.514	2.71
241.731	3.52
241.947	5.21
242.164	6.09
242.38	4.38
242.597	5.15
242.814	6.88
243.03	6.21
243.246	5.41
243.463	6.67
243.679	6.15
243.896	5.7
244.112	4.61
244.329	5.92
244.545	3.56
244.762	6.95
244.978	6.88
245.194	7
245.411	8.12
245.627	9.69
245.843	9.1
246.06	10.84
246.276	11.9
246.492	11.5
246.709	11.67
246.925	12.45
247.141	12.08
247.357	12.46
247.574	11.84
247.79	11.84
248.006	12.41
248.222	14.02
248.439	13.25
248.655	12.1
248.871	11.93
249.087	11.41
249.303	10.47
249.519	9.15
249.736	7.15
249.952	5.85
250.168	7.11
250.384	5.61
250.6	3.69
250.816	7.33
251.032	11.03
251.248	9.38
251.464	10.37
251.68	11.08
251.896	11.14
252.112	13.01
252.328	13.08
252.544	11.32
252.76	11.23
252.976	11.82
253.192	7.42
253.408	6.84
253.624	8.52
253.84	5.21
254.056	4
254.272	5.04
254.487	4.53
254.703	5.6
254.919	4.64
255.135	2.49
255.351	-0.57
255.567	3.83
255.782	1.72
255.998	3.95
256.214	6.2
256.43	7.98
256.646	12.98
256.861	12.67
257.077	11.97
257.293	12.95
257.508	14.96
257.724	15.87
257.94	14.96
258.155	15.71
258.371	13.98
258.587	13.9
258.802	12.02
259.018	9.52
259.234	9.36
259.449	9.17
259.665	9.3
259.88	9.55
260.096	8.77
260.312	8.95
260.527	8.84
260.743	8.4
260.958	8.01
261.174	7.9
261.389	7.75
261.605	7.68
261.82	8.02
262.036	8.76
262.251	7.33
262.466	8.08
262.682	8.06
262.897	7.66
263.113	7.35
263.328	7.09
263.543	9.5
263.759	9.54
263.974	9.51
264.189	9.17
264.405	8.16
264.62	11.34
264.835	10.8
265.051	9.04
265.266	9.32
265.481	11.31
265.696	12.43
265.912	10.55
266.127	12.03
266.342	11.72
266.557	12.22
266.773	10.66
266.988	8.95
267.203	8.7
267.418	10.13
267.633	10
267.848	10.07
268.064	10.84
268.279	10.87
268.494	10.43
268.709	10.19
268.924	8.8
269.139	9.58
269.354	8.97
269.569	10.4
269.784	9.19
269.999	8.7
270.214	8.02
270.429	7.16
270.644	7.33
270.859	5.59
271.074	5.73
271.289	5.94
271.504	6.78
271.719	7.49
271.934	6.9
272.149	6.3
272.363	6.4
272.578	6.76
272.793	6.49
273.008	6.65
273.223	7.64
273.438	8.04
273.653	9.48
273.867	9.15
274.082	10.23
274.297	9.49
274.512	10.87
274.726	9.94
274.941	9.52
275.156	7.9
275.371	7.5
275.585	7.16
275.8	6.73
276.015	5.74
276.229	6.26
276.444	5.09
276.659	6.54
276.873	4.91
277.088	5.97
277.302	6.27
277.517	8.78
277.732	9.26
277.946	9.43
278.161	10.22
278.375	11.13
278.59	11.17
278.804	10.39
279.019	9.19
279.233	8.89
279.448	9.47
279.662	9.13
279.877	8.16
280.091	8.68
280.306	9.24
280.52	9.2
280.735	7.98
280.949	7.06
281.163	8.25
281.378	9.75
281.592	9.79
281.806	8.71
282.021	9.01
282.235	8.48
282.449	7.88
282.664	7.35
282.878	6.69
283.092	6.63
283.307	6.8
283.521	6.17
283.735	6.12
283.949	7.5
284.164	8.69
284.378	8.43
284.592	9.7
284.806	10.33
285.02	10.64
285.234	10.79
285.449	10.7
285.663	10.38
285.877	10.26
286.091	10
286.305	10.16
286.519	10.99
286.733	12.31
286.947	12.01
287.161	11.59
287.375	11.2
287.589	10.52
287.803	11.8
288.017	12.69
288.231	14.08
288.445	14.54
288.659	14.77
288.873	12.81
289.087	10.03
289.301	9.27
289.515	9.88
289.729	9.71
289.943	8.95
290.157	8.1
290.371	7.24
290.584	4.84
290.798	4.4
291.012	3.71
291.226	2.94
291.44	5.46
291.654	5.62
291.867	4.9
292.081	5.8
292.295	7.19
292.509	7.72
292.722	8.63
292.936	9.45
293.15	7.69
293.364	7.89
293.577	8.9
293.791	7.79
294.005	8.56
294.218	8.69
294.432	8.47
294.645	9.19
294.859	8.29
295.073	8.61
295.286	9.55
295.5	10.14
295.713	10.25
295.927	9.1
296.14	8.38
296.354	7.39
296.568	7.41
296.781	6.48
296.994	6.13
297.208	6.89
297.421	5.97
297.635	5.67
297.848	6.1
298.062	5.83
298.275	6.16
298.489	6.23
298.702	7.02
298.915	6.88
299.129	7.33
299.342	8.15
299.555	7.1
299.769	8.22
299.982	7.5
300.195	7.81
300.409	8.74
300.622	8.41
300.835	9.08
301.048	9.2
301.262	10.55
301.475	10.31
301.688	8.61
301.901	10.61
302.115	10.18
302.328	11.15
302.541	10.44
302.754	9.48
302.967	10.43
303.18	9.48
303.393	9.29
303.607	8.18
303.82	9.7
304.033	8.98
304.246	7.45
304.459	7.17
304.672	7.87
304.885	9.24
305.098	9.64
305.311	10.74
305.524	12.32
305.737	13.46
305.95	13.39
306.163	12.08
306.376	14.27
306.589	12.56
306.802	13.38
307.015	12.59
307.228	11.55
307.44	10.6
307.653	10.36
307.866	8.65
308.079	8.18
308.292	8.8
308.505	8.25
308.718	7.64
308.93	9.78
309.143	9.07
309.356	9.2
309.569	8.96
309.781	10.25
309.994	9.84
310.207	10.04
310.42	8.79
310.632	9.15
310.845	10.51
311.058	10.35
311.27	9.96
311.483	9.64
311.696	9.83
311.908	10.52
312.121	10.04
312.333	10.11
312.546	11.14
312.759	11.51
312.971	9.25
313.184	8.64
313.396	8.56
313.609	8.4
313.821	8.52
314.034	7.74
314.246	8.22
314.459	7.79
314.671	7.73
314.884	6.5
315.096	5.54
315.309	8
315.521	7.83
315.733	8.3
315.946	8.67
316.158	7.9
316.371	9.02
316.583	8.06
316.795	6.6
317.008	7.77
317.22	7.42
317.432	8.8
317.644	9.03
317.857	8.92
318.069	7.82
318.281	8.68
318.494	10.12
318.706	9.96
318.918	9.22
319.13	12.21
319.342	11
319.555	11.44
319.767	10.72
319.979	8.7
320.191	9.7
320.403	11.39
320.615	9.88
320.827	9.88
321.039	9.31
321.252	8.87
321.464	7.47
321.676	6.73
321.888	6.39
322.1	7.72
322.312	9.16
322.524	8.49
322.736	7.39
322.948	8.31
323.16	8.01
323.372	7.61
323.584	8.93
323.796	8.9
324.007	7.89
324.219	9.1
324.431	8.74
324.643	7.79
324.855	7.23
325.067	7.39
325.279	5.89
325.491	7.39
325.702	8.89
325.914	7.25
326.126	6.22
326.338	7.68
326.55	6.81
326.761	6.34
326.973	6.63
327.185	7.16
327.396	6.71
327.608	8.41
327.82	7.02
328.032	4.88
328.243	5.22
328.455	6.99
328.666	6.49
328.878	6.22
329.09	5.75
329.301	4.57
329.513	3.18
329.725	3.94
329.936	4.56
330.148	4.33
330.359	5.59
330.571	5.57
330.782	5.75
330.994	5.56
331.205	6.58
331.417	7.81
331.628	9.39
331.84	11.46
332.051	11.68
332.262	10.72
332.474	9.94
332.685	10.66
332.897	11.23
333.108	9.68
333.319	10.04
333.531	9.16
333.742	8.38
333.953	8.97
334.165	9.03
334.376	7.73
334.587	7.65
334.799	8.46
335.01	7.07
335.221	6.99
335.432	8.12
335.644	7.26
335.855	8.1
336.066	8.69
336.277	9.09
336.488	8.63
336.7	9.55
336.911	9.23
337.122	9.67
337.333	9.62
337.544	9.16
337.755	9.7
337.966	10.72
338.177	9.66
338.388	9.04
338.599	8.62
338.811	7.75
339.022	6.94
339.233	7.01
339.444	6.78
339.655	6.59
339.866	8.35
340.076	6.81
340.287	7.29
340.498	9.5
340.709	9.64
340.92	9.91
341.131	11.61
341.342	12.44
341.553	12.63
341.764	12.53
341.975	13.1
342.185	12.53
342.396	13.18
342.607	13.55
342.818	13.29
343.029	13.79
343.239	13.19
343.45	12.4
343.661	11.88
343.872	11.76
344.082	11.62
344.293	11.31
344.504	11.8
344.714	11.72
344.925	12.4
345.136	10.45
345.346	9.39
345.557	9.22
345.768	9.11
345.978	9.13
346.189	9.06
346.399	8.59
346.61	9.81
346.821	9.1
347.031	8.55
347.242	7.1
347.452	7.55
347.663	8.27
347.873	9.04
348.084	8.92
348.294	9.06
348.504	9.86
348.715	10.4
348.925	9.11
349.136	7.89
349.346	8.48
349.557	8.32
349.767	9.43
349.977	9.16
350.188	8.7
350.398	9.29
350.608	9.05
350.819	8.4
351.029	8.16
351.239	9.11
351.449	10.56
351.66	9.49
351.87	10.24
352.08	9.83
352.29	11.28
352.501	10.86
352.711	11.4
352.921	12.34
353.131	12.33
353.341	12.88
353.552	12.02
353.762	11.55
353.972	12.8
354.182	12.72
354.392	13.1
354.602	11.29
354.812	11.5
355.022	10.06
355.232	9.6
355.442	9.54
355.652	9.06
355.862	9.13
356.072	8.9
356.282	8.11
356.492	7.18
356.702	7.37
356.912	7.75
357.122	7.43
357.332	8
357.542	7.81
357.752	7.99
357.962	7.81
358.171	8.02
358.381	9.26
358.591	9.44
358.801	9.89
359.011	9.33
359.221	9.36
359.43	9.1
359.64	9.43
359.85	9.66
360.06	10.12
360.269	9.69
360.479	9.49
360.689	8.72
360.899	9.14
361.108	9.18
361.318	9.61
361.528	9.9
361.737	10.42
361.947	9.62
362.156	9.49
362.366	8.9
362.576	9.38
362.785	9.5
362.995	9.62
363.204	9.74
363.414	9.15
363.623	8.85
363.833	8.17
364.042	8.28
364.252	8.91
364.461	8.48
364.671	8.55
364.88	8.15
365.09	7.4
365.299	7.18
365.509	6.27
365.718	7.49
365.927	7.35
366.137	7.51
366.346	6.81
366.555	6.03
366.765	7.26
366.974	7.51
367.183	8.55
367.393	9.47
367.602	8.91
367.811	9.91
368.021	8.38
368.23	7.83
368.439	7.68
368.648	7.59
368.857	7.91
369.067	7
369.276	7.03
369.485	6.96
369.694	7.27
369.903	7.96
370.112	7.73
370.321	9.1
370.531	8.93
370.74	8.78
370.949	9.42
371.158	9.38
371.367	10.18
371.576	9.89
371.785	9.1
371.994	8.15
372.203	7.93
372.412	7.85
372.621	7.85
372.83	8.39
373.039	8.94
373.248	8.46
373.457	8.29
373.666	7.16
373.874	7.28
374.083	7.31
374.292	8.18
374.501	8.35
374.71	8.14
374.919	8.26
375.128	8.84
375.336	8.66
375.545	8.9
375.754	8.91
375.963	9.1
376.171	9.08
376.38	9.15
376.589	8.45
376.798	8.84
377.006	8.67
377.215	8.27
377.424	7.54
377.632	7.48
377.841	7.07
378.05	7.53
378.258	7.82
378.467	7.05
378.675	7.65
378.884	8.23
379.093	7.52
379.301	7.97
379.51	7.65
379.718	7.89
379.927	7.87
380.135	8
380.344	7.9
380.552	7.44
380.761	7.39
380.969	6.5
381.177	5.76
381.386	6.13
381.594	5.87
381.803	5.65
382.011	5.77
382.219	5.9
382.428	5.93
382.636	5.98
382.845	6.19
383.053	6.62
383.261	6.66
383.469	7.2
383.678	6.51
383.886	5.75
384.094	6.34
384.302	5.9
384.511	5.7
384.719	5.88
384.927	5.65
385.135	5.16
385.343	5.22
385.552	5.05
385.76	4.86
385.968	4.68
386.176	5.37
386.384	5.35
386.592	5.69
386.8	5.89
387.008	5.54
387.216	5.09
387.424	5.58
387.633	5.65
387.841	5.58
388.049	5.83
388.257	6.44
388.465	6.14
388.672	6.19
388.88	5.93
389.088	5.24
389.296	5.63
389.504	5.82
389.712	5.93
389.92	5.64
390.128	5.94
390.336	5.35
390.544	5.09
390.751	5.31
390.959	5.35
391.167	5.19
391.375	5.89
391.583	5.61
391.79	5.61
391.998	5.41
392.206	5.77
392.414	5.59
392.621	5.69
392.829	5.82
393.037	5.67
393.244	5.26
393.452	5.59
393.66	5.6
393.867	5.61
394.075	5.99
394.283	6.2
394.49	6.29
394.698	6.25
394.905	6.48
395.113	6.53
395.32	6.56
395.528	6.41
395.735	6.29
395.943	6.35
396.15	6.27
396.358	5.54
396.565	5.35
396.773	4.77
396.98	4.7
397.188	4.79
397.395	4.43
397.602	4.22
397.81	4.35
398.017	4.33
398.225	4.17
398.432	4.21
398.639	4.53
398.847	4.29
399.054	4.33
399.261	4.7
399.468	4.38
399.676	4.56
399.883	4.92
400.09	5.04
400.297	4.88
400.505	4.58
400.712	5.15
400.919	5.61
401.126	5.49
401.333	5.74
401.54	5.61
401.748	5.4
401.955	5.55
402.162	5.39
402.369	5.37
402.576	5.53
402.783	5.75
402.99	5.12
403.197	4.43
403.404	4.98
403.611	4.86
403.818	4.81
404.025	5.05
404.232	4.98
404.439	4.85
404.646	4.83
404.853	4.82
405.06	4.66
405.267	4.55
405.474	4.65
405.681	4.5
405.887	4.34
406.094	4.25
406.301	4.07
406.508	4.15
406.715	4.15
406.922	4.22
407.128	4.43
407.335	4.13
407.542	4.44
407.749	4.43
407.955	4.35
408.162	4.45
408.369	4.53
408.575	4.5
408.782	4.3
408.989	4.23
409.195	4.34
409.402	4.06
409.609	4.55
409.815	4.69
410.022	4.88
410.228	5.01
410.435	5.07
410.642	4.91
410.848	4.84
411.055	4.83
411.261	4.82
411.468	4.62
411.674	4.66
411.881	4.38
412.087	4.25
412.294	4.27
412.5	3.95
412.706	3.93
412.913	4.13
413.119	4.11
413.326	4.39
413.532	4.6
413.738	4.89
413.945	5.03
414.151	4.99
414.357	4.99
414.564	4.98
414.77	5.13
414.976	5.13
415.182	5.04
415.389	5.24
415.595	5.13
415.801	5
416.007	4.78
416.214	4.67
416.42	4.75
416.626	4.49
416.832	4.55
417.038	4.21
417.244	4.3
417.45	4.24
417.657	4.15
417.863	4.16
418.069	4.24
418.275	4.02
418.481	4.09
418.687	4.03
418.893	4.12
419.099	4.16
419.305	4.34
419.511	4.39
419.717	4.47
419.923	4.49
420.129	4.44
420.335	4.34
420.541	4.42
420.746	4.38
420.952	4.41
421.158	4.46
421.364	4.41
421.57	4.42
421.776	4.18
421.982	4.15
422.187	4.2
422.393	4.2
422.599	4.25
422.805	4.31
423.01	4.13
423.216	4.04
423.422	3.84
423.628	3.61
423.833	3.72
424.039	3.82
424.245	3.76
424.45	3.79
424.656	3.71
424.862	3.71
425.067	3.7
425.273	3.74
425.478	3.86
425.684	4.11
425.889	4.24
426.095	4.16
426.301	4.19
426.506	4.28
426.712	4.24
426.917	4.29
427.123	4.24
427.328	4.18
427.533	4.43
427.739	4.36
427.944	4.22
428.15	4.39
428.355	4.26
428.561	4.28
428.766	4.48
428.971	4.39
429.177	4.46
429.382	4.5
429.587	4.31
429.793	3.98
429.998	4.14
430.203	4.15
430.408	4.08
430.614	4.35
430.819	4.4
431.024	4.18
431.229	4.05
431.434	3.95
431.64	3.97
431.845	4.11
432.05	3.91
432.255	3.81
432.46	3.68
432.665	3.82
432.87	3.77
433.076	3.63
433.281	3.62
433.486	3.65
433.691	3.6
433.896	3.6
434.101	3.59
434.306	3.65
434.511	3.66
434.716	3.95
434.921	3.73
435.126	3.4
435.331	3.31
435.535	3.16
435.74	3.32
435.945	3.35
436.15	3.3
436.355	3.41
436.56	3.64
436.765	3.65
436.97	3.51
437.174	3.7
437.379	4.09
437.584	4.15
437.789	4.23
437.993	4.16
438.198	4.13
438.403	4.1
438.608	4.12
438.812	3.89
439.017	3.96
439.222	4.02
439.426	3.83
439.631	3.61
439.836	3.88
440.04	4.02
440.245	4.12
440.45	4.1
440.654	4.16
440.859	4.14
441.063	4.32
441.268	4.14
441.472	3.89
441.677	3.97
441.881	4.04
442.086	3.91
442.29	3.84
442.495	3.82
442.699	4.07
442.904	4.12
443.108	4.01
443.312	4.01
443.517	4.12
443.721	4.35
443.925	4.37
444.13	4.38
444.334	4.43
444.538	4.31
444.743	4.25
444.947	4.07
445.151	4.02
445.356	4.07
445.56	4.02
445.764	3.97
445.968	3.84
446.173	3.73
446.377	3.79
446.581	3.66
446.785	3.75
446.989	3.75
447.193	3.81
447.398	3.8
447.602	3.92
447.806	3.86
448.01	3.88
448.214	4.06
448.418	4.36
448.622	4.35
448.826	4.5
449.03	4.65
449.234	4.54
449.438	4.43
449.642	4.43
449.846	4.41
450.05	4.32
450.254	4.49
450.458	4.37
450.662	4.08
450.866	3.94
451.069	3.84
451.273	3.73
451.477	3.84
451.681	3.84
451.885	3.76
452.089	3.77
452.292	4.06
452.496	3.82
452.7	3.75
452.904	3.79
453.107	3.94
453.311	4
453.515	3.79
453.719	3.59
453.922	3.52
454.126	3.7
454.33	3.44
454.533	3.37
454.737	3.5
454.94	3.45
455.144	3.51
455.348	3.4
455.551	3.25
455.755	3.36
455.958	3.61
456.162	3.51
456.365	3.34
456.569	3.45
456.772	3.41
456.976	3.37
457.179	3.51
457.383	3.35
457.586	3.45
457.79	3.37
457.993	3.31
458.196	3.1
458.4	3.35
458.603	3.44
458.807	3.55
459.01	3.61
459.213	3.64
459.417	3.63
459.62	3.63
459.823	3.56
460.026	3.44
460.23	3.55
460.433	3.72
460.636	3.78
460.839	3.79
461.042	3.73
461.246	3.78
461.449	3.82
461.652	3.94
461.855	4.04
462.058	4.05
462.261	4.25
462.464	4.16
462.668	4.29
462.871	3.98
463.074	3.98
463.277	4.01
463.48	3.93
463.683	3.82
463.886	3.7
464.089	3.7
464.292	3.96
464.495	4.24
464.698	4.23
464.901	4.17
465.104	4.4
465.306	4.26
465.509	4.3
465.712	4.41
465.915	4.33
466.118	4.32
466.321	4.35
466.524	4.16
466.726	3.87
466.929	4.04
467.132	3.77
