Data from 2938023_Reflection_2.txt Node
Date: Sun Jul 12 15:22:13 EDT 2015
User: robert
Spectrometer: USB4E03001
Autoset integration time: false
Trigger mode: 4
Integration Time (sec): 1.000000E-1
Scans to average: 10
Electric dark correction enabled: true
Nonlinearity correction enabled: false
Boxcar width: 5
Stray light correction enabled: false
XAxis mode: Wavelengths
Stop averaging: false
Number of Pixels in Spectrum: 3648
>>>>>Begin Spectral Data<<<<<
177.566	-256.93
177.785	978.41
178.005	1919.15
178.225	27.34
178.445	39.69
178.665	-111.64
178.885	334.56
179.105	-1081.29
179.324	-1046.13
179.544	-170.16
179.764	-44.35
179.984	10.1
180.204	161.84
180.423	270.95
180.643	548.78
180.863	332.89
181.083	121.83
181.302	-38.79
181.522	267.56
181.742	79.2
181.961	-52.8
182.181	28.16
182.401	-22.43
182.621	-170.88
182.84	-165.23
183.06	-76.13
183.279	-40.46
183.499	-120.34
183.719	-21.01
183.938	-81.5
184.158	-44
184.377	-27.2
184.597	-2.43
184.816	16.22
185.036	18.94
185.256	-0.88
185.475	-50.23
185.695	-98.89
185.914	-85.58
186.134	-100.51
186.353	-81.43
186.572	-136.21
186.792	-175.86
187.011	-286.28
187.231	-6470.92
187.45	-1099.28
187.67	-210.02
187.889	-69
188.108	-67.57
188.328	-55.19
188.547	-33.68
188.766	-53.27
188.986	-295.94
189.205	328.35
189.424	1601.91
189.644	4770.15
189.863	1884.95
190.082	89.49
190.302	117.34
190.521	14.51
190.74	29.77
190.959	12.1
191.178	84.25
191.398	62.16
191.617	35.65
191.836	46.18
192.055	45.6
192.274	41.62
192.494	54.28
192.713	47.94
192.932	41.07
193.151	36.99
193.37	36.71
193.589	0.61
193.808	5.55
194.027	-42.99
194.246	-146.95
194.465	-420.2
194.685	284.34
194.904	151.9
195.123	197.09
195.342	127.82
195.561	144.76
195.78	119.55
195.999	115.48
196.218	64.04
196.436	76.07
196.655	273.88
196.874	888.27
197.093	6400
197.312	-527.76
197.531	3179.55
197.75	-102.59
197.969	-110.79
198.188	-156.36
198.407	-142.81
198.625	-63.92
198.844	19.61
199.063	-41.64
199.282	27.09
199.501	17.68
199.719	34.17
199.938	39.71
200.157	15.84
200.376	21.12
200.594	29.02
200.813	35.9
201.032	36.14
201.251	-33.95
201.469	16.19
201.688	-50.11
201.907	-204.54
202.125	-1041.72
202.344	1592.17
202.563	-1732.98
202.781	3679.94
203	1049.06
203.218	332.34
203.437	624
203.656	1271
203.874	-738.94
204.093	-160.44
204.311	-53.49
204.53	-36.48
204.748	-15.28
204.967	7.8
205.185	33.01
205.404	22.74
205.622	33.93
205.841	16.47
206.059	24.94
206.278	10.11
206.496	-4.2
206.715	34.76
206.933	47.04
207.151	58.72
207.37	62.54
207.588	57.83
207.806	43.03
208.025	-18.67
208.243	14.5
208.461	51.29
208.68	109.79
208.898	51.4
209.116	22.04
209.335	31.33
209.553	16.35
209.771	40.18
209.989	39.9
210.208	33.67
210.426	83.44
210.644	77.39
210.862	64.82
211.081	26.98
211.299	45.35
211.517	43.44
211.735	6.5
211.953	-25.44
212.171	-39.45
212.39	-1.39
212.608	29.38
212.826	3.27
213.044	-39.03
213.262	-122.1
213.48	1226.4
213.698	-419.75
213.916	-35.13
214.134	-59.61
214.352	-138.04
214.57	-84.26
214.788	-128.75
215.006	-77.59
215.224	-171.54
215.442	-77.85
215.66	5.28
215.878	3.09
216.096	48.32
216.314	49.26
216.532	100.6
216.75	120.15
216.968	64.72
217.185	44.3
217.403	-6.71
217.621	-26.92
217.839	-14.83
218.057	-9.48
218.275	-3.87
218.492	12.64
218.71	15.72
218.928	-13.34
219.146	-18.48
219.363	-14.03
219.581	0.96
219.799	21.41
220.017	34.39
220.234	41.98
220.452	42.64
220.67	55.96
220.887	17.39
221.105	-13.87
221.323	-3.51
221.54	3.75
221.758	17.99
221.976	19.26
222.193	0.12
222.411	-22.07
222.629	-15.53
222.846	-25.18
223.064	-17.24
223.281	11.44
223.499	37.44
223.716	29.39
223.934	34.25
224.151	32.61
224.369	26.46
224.586	27.9
224.804	31.72
225.021	11.35
225.239	2.97
225.456	3.95
225.674	-12.23
225.891	-34.06
226.108	-43.91
226.326	-44.45
226.543	-53.71
226.76	-40.51
226.978	-19
227.195	-22.71
227.413	-12.37
227.63	-9.16
227.847	-8.75
228.064	-6.09
228.282	5.09
228.499	15.52
228.716	17.67
228.934	19.73
229.151	15.65
229.368	13.6
229.585	12.17
229.802	16.92
230.02	18.19
230.237	14.87
230.454	15.69
230.671	16.29
230.888	8.72
231.105	11.53
231.323	10
231.54	12.88
231.757	11.96
231.974	14.01
232.191	3.59
232.408	3.04
232.625	4.16
232.842	0.14
233.059	-5.92
233.276	3.84
233.493	3.75
233.71	6.9
233.927	3.44
234.144	7.34
234.361	11.78
234.578	10.33
234.795	11.82
235.012	12.43
235.229	19.25
235.446	25.13
235.663	19.26
235.879	12.04
236.096	8.53
236.313	12.82
236.53	11.81
236.747	7.05
236.964	6
237.181	4.93
237.397	4.24
237.614	-0.76
237.831	-8.92
238.048	-0.81
238.264	4.04
238.481	8.34
238.698	2.82
238.915	3.86
239.131	-2.12
239.348	3.52
239.565	1.64
239.781	8.14
239.998	9.71
240.215	13.95
240.431	10.96
240.648	12.55
240.865	11.77
241.081	13.61
241.298	13.74
241.514	16.57
241.731	14.97
241.947	15.02
242.164	13.67
242.38	14.44
242.597	14.79
242.814	15.47
243.03	14.4
243.246	13.87
243.463	11.46
243.679	11.47
243.896	12.97
244.112	11.73
244.329	11.89
244.545	10.81
244.762	10.07
244.978	8.23
245.194	7.71
245.411	8.31
245.627	7.98
245.843	10.16
246.06	10.33
246.276	9.54
246.492	11.75
246.709	8.91
246.925	9.41
247.141	10.41
247.357	10.41
247.574	10.17
247.79	9.94
248.006	10.13
248.222	10.42
248.439	9.67
248.655	9.55
248.871	9.75
249.087	12.52
249.303	12.56
249.519	12.83
249.736	13.85
249.952	13.62
250.168	16.21
250.384	17.05
250.6	15.11
250.816	14.43
251.032	12.36
251.248	7.01
251.464	8.05
251.68	9.28
251.896	5.46
252.112	3.6
252.328	4.34
252.544	1.53
252.76	0.47
252.976	2.3
253.192	-0.39
253.408	2.56
253.624	7.94
253.84	7.76
254.056	6.05
254.272	8.06
254.487	9.04
254.703	7.23
254.919	6.41
255.135	8.96
255.351	8.76
255.567	15.11
255.782	8.44
255.998	5.34
256.214	6.06
256.43	8.45
256.646	7.06
256.861	7.17
257.077	8.14
257.293	9.77
257.508	8.52
257.724	5.77
257.94	7.06
258.155	10.27
258.371	10.02
258.587	10.32
258.802	9.82
259.018	10.1
259.234	9.78
259.449	9.47
259.665	10.38
259.88	11.18
260.096	11.43
260.312	11.57
260.527	10.63
260.743	10.01
260.958	9.61
261.174	10.25
261.389	9.8
261.605	10.08
261.82	9.65
262.036	8.31
262.251	9.06
262.466	9.07
262.682	5.37
262.897	4.42
263.113	8.22
263.328	7.85
263.543	4.92
263.759	5.14
263.974	3.82
264.189	4.6
264.405	3.67
264.62	0.55
264.835	1.32
265.051	3.65
265.266	6.91
265.481	2.19
265.696	4.8
265.912	6.95
266.127	9.05
266.342	11.6
266.557	11.74
266.773	11.78
266.988	11.85
267.203	11.85
267.418	11.9
267.633	11.72
267.848	13.29
268.064	12.73
268.279	12.84
268.494	11.75
268.709	10.61
268.924	10.77
269.139	12.1
269.354	11.9
269.569	11.48
269.784	9.96
269.999	9.5
270.214	10.41
270.429	8.08
270.644	7.28
270.859	7.11
271.074	7.4
271.289	7.62
271.504	5.86
271.719	7.67
271.934	7.56
272.149	9.53
272.363	9.52
272.578	7.91
272.793	7.82
273.008	6.74
273.223	7.44
273.438	8.1
273.653	7.45
273.867	8.23
274.082	7.73
274.297	7.36
274.512	7.27
274.726	5.91
274.941	6.02
275.156	6.24
275.371	7.89
275.585	6.56
275.8	4.46
276.015	3.82
276.229	3.4
276.444	0.14
276.659	1.39
276.873	0.83
277.088	3.17
277.302	3.49
277.517	3.81
277.732	4.07
277.946	4.27
278.161	4.76
278.375	6.5
278.59	8.36
278.804	10.38
279.019	11.79
279.233	12.96
279.448	10.54
279.662	10.61
279.877	12.39
280.091	11.46
280.306	10.03
280.52	11.8
280.735	10.25
280.949	9.73
281.163	7.86
281.378	5.36
281.592	2.61
281.806	4.48
282.021	3.97
282.235	2.94
282.449	1.8
282.664	3.82
282.878	2.43
283.092	4.15
283.307	4.35
283.521	6.28
283.735	5.74
283.949	8.83
284.164	6.75
284.378	6.26
284.592	5.35
284.806	5.68
285.02	5.38
285.234	5.03
285.449	4.7
285.663	4.52
285.877	5.79
286.091	6.51
286.305	4.95
286.519	5.48
286.733	6.52
286.947	8.48
287.161	11.4
287.375	11.3
287.589	11.75
287.803	11.52
288.017	11.62
288.231	9.41
288.445	11.8
288.659	12.72
288.873	14.68
289.087	14.94
289.301	13.06
289.515	10.99
289.729	11.75
289.943	12.13
290.157	12.02
290.371	11.5
290.584	13.08
290.798	11.25
291.012	11.36
291.226	8.42
291.44	9.7
291.654	10.17
291.867	10.17
292.081	9.49
292.295	9.48
292.509	10.26
292.722	10.36
292.936	10.79
293.15	11.51
293.364	10.25
293.577	13.47
293.791	10.85
294.005	10.1
294.218	7.92
294.432	9.13
294.645	9.62
294.859	9.82
295.073	9.55
295.286	8.43
295.5	7.52
295.713	9.04
295.927	7.27
296.14	9.03
296.354	8.74
296.568	10.64
296.781	9.58
296.994	9.42
297.208	9.44
297.421	10.17
297.635	10.03
297.848	10.01
298.062	9.13
298.275	9.79
298.489	9.45
298.702	12.47
298.915	12.05
299.129	11.53
299.342	10.59
299.555	10.54
299.769	10.17
299.982	11.19
300.195	12.92
300.409	12.58
300.622	10.87
300.835	8.75
301.048	4.87
301.262	4.54
301.475	6.77
301.688	8.12
301.901	7.15
302.115	5.58
302.328	3.88
302.541	4.91
302.754	4.87
302.967	6.12
303.18	8.18
303.393	9.96
303.607	10.75
303.82	10.72
304.033	11.24
304.246	11.23
304.459	12.42
304.672	12.54
304.885	11.14
305.098	11.69
305.311	13.49
305.524	13.36
305.737	13.52
305.95	12.23
306.163	11.36
306.376	11.29
306.589	10.05
306.802	8.6
307.015	8.53
307.228	8.58
307.44	6.6
307.653	4.94
307.866	4.51
308.079	2.55
308.292	4.67
308.505	6.42
308.718	6.56
308.93	7.89
309.143	9.58
309.356	10.93
309.569	9.38
309.781	11.85
309.994	12.41
310.207	11.82
310.42	13.12
310.632	13.36
310.845	12.52
311.058	12.99
311.27	14.58
311.483	14.09
311.696	13.06
311.908	13.94
312.121	13.16
312.333	12.26
312.546	13.38
312.759	13.16
312.971	10.39
313.184	9.37
313.396	7.16
313.609	6.04
313.821	7.22
314.034	8.2
314.246	8.93
314.459	9.54
314.671	11.08
314.884	8.92
315.096	9.09
315.309	11.75
315.521	13.79
315.733	14.51
315.946	12.28
316.158	11.15
316.371	10.25
316.583	9.36
316.795	9.84
317.008	8.99
317.22	8.84
317.432	5.7
317.644	4.45
317.857	5.4
318.069	4.72
318.281	6.88
318.494	5.68
318.706	6.65
318.918	5.89
319.13	6.73
319.342	4.25
319.555	7.98
319.767	9.69
319.979	9.92
320.191	9.65
320.403	10.69
320.615	9.53
320.827	10.82
321.039	10.04
321.252	8.5
321.464	5.31
321.676	9.64
321.888	6.2
322.1	7.6
322.312	6.66
322.524	4.98
322.736	3.1
322.948	4.96
323.16	6.15
323.372	7.99
323.584	9.5
323.796	11.11
324.007	8.62
324.219	9.69
324.431	9.56
324.643	10.28
324.855	10.6
325.067	11.52
325.279	10.66
325.491	9.06
325.702	8.63
325.914	8.89
326.126	8.54
326.338	8.52
326.55	8.07
326.761	6.48
326.973	7.43
327.185	6.63
327.396	5.52
327.608	4.82
327.82	4.62
328.032	3.49
328.243	2.29
328.455	2.16
328.666	3.86
328.878	5.71
329.09	8.3
329.301	8.1
329.513	8.54
329.725	8.4
329.936	10.57
330.148	12.38
330.359	12.3
330.571	13.47
330.782	12.08
330.994	10.64
331.205	7.55
331.417	5.97
331.628	3.36
331.84	2.93
332.051	5.43
332.262	3.98
332.474	3.27
332.685	3.75
332.897	2.13
333.108	3.42
333.319	3.85
333.531	4.95
333.742	5.75
333.953	8.18
334.165	9.18
334.376	9.5
334.587	9.08
334.799	8.7
335.01	9.5
335.221	10.22
335.432	10.73
335.644	11.59
335.855	12.43
336.066	13.41
336.277	12.03
336.488	12.45
336.7	13.68
336.911	15.12
337.122	16.5
337.333	14.91
337.544	16.18
337.755	16.01
337.966	14.23
338.177	14.17
338.388	12.54
338.599	15.05
338.811	14.53
339.022	11.6
339.233	11.04
339.444	9.88
339.655	10.72
339.866	8.28
340.076	8.91
340.287	10.26
340.498	10.34
340.709	10.58
340.92	9.69
341.131	8.95
341.342	8.94
341.553	9.17
341.764	9.72
341.975	9.4
342.185	11.91
342.396	10.78
342.607	11.04
342.818	10.51
343.029	11.42
343.239	11.62
343.45	11.56
343.661	12.49
343.872	11.54
344.082	11.78
344.293	11.97
344.504	11.17
344.714	10.98
344.925	9.14
345.136	8.46
345.346	7.07
345.557	6.22
345.768	5.84
345.978	5.06
346.189	4.15
346.399	3.62
346.61	3.47
346.821	2.67
347.031	3.49
347.242	3.87
347.452	4.26
347.663	5.24
347.873	5.88
348.084	6.59
348.294	8.06
348.504	9.62
348.715	9.48
348.925	9.75
349.136	10.36
349.346	10.09
349.557	11.47
349.767	11.31
349.977	10.19
350.188	10.1
350.398	9.37
350.608	8.94
350.819	8.96
351.029	7.68
351.239	7.83
351.449	7.29
351.66	8.41
351.87	6.81
352.08	7.2
352.29	8.32
352.501	8.49
352.711	9.36
352.921	9.57
353.131	9.44
353.341	10.25
353.552	10.11
353.762	10.14
353.972	9.16
354.182	9.57
354.392	8.44
354.602	8.6
354.812	7.72
355.022	7.46
355.232	7.68
355.442	6.88
355.652	7.02
355.862	6.55
356.072	7.31
356.282	6.1
356.492	7.17
356.702	8.39
356.912	7.84
357.122	8.34
357.332	7.43
357.542	5.57
357.752	5.32
357.962	5.82
358.171	4.25
358.381	5.06
358.591	6.16
358.801	5.91
359.011	6.17
359.221	6.18
359.43	5.87
359.64	7.14
359.85	7.75
360.06	8.49
360.269	8.46
360.479	9.82
360.689	9.08
360.899	8.74
361.108	8.9
361.318	8.9
361.528	8.31
361.737	7.86
361.947	7.93
362.156	8.37
362.366	8.73
362.576	8.38
362.785	8.73
362.995	9.18
363.204	8.5
363.414	8.73
363.623	8.09
363.833	9.3
364.042	8.44
364.252	7.53
364.461	7.35
364.671	6.37
364.88	6.03
365.09	6.61
365.299	6.45
365.509	7.68
365.718	5.75
365.927	5.89
366.137	5.19
366.346	6.8
366.555	7.22
366.765	6.97
366.974	7.26
367.183	7.9
367.393	6.3
367.602	5.12
367.811	5.08
368.021	6.03
368.23	6.12
368.439	5.24
368.648	6.26
368.857	6.6
369.067	6.04
369.276	4.84
369.485	3.83
369.694	3.83
369.903	4.56
370.112	5.32
370.321	5.14
370.531	4.95
370.74	5.72
370.949	5.16
371.158	5.05
371.367	6.09
371.576	6.63
371.785	7.03
371.994	7.53
372.203	7.37
372.412	6.25
372.621	7.44
372.83	7.39
373.039	7.7
373.248	7.31
373.457	6.52
373.666	6.71
373.874	6.71
374.083	6.06
374.292	6.44
374.501	6.35
374.71	6.77
374.919	5.23
375.128	5.76
375.336	4.88
375.545	4.64
375.754	5.68
375.963	5.67
376.171	6.02
376.38	6.6
376.589	5.62
376.798	6.26
377.006	6.16
377.215	6.58
377.424	5.69
377.632	6.05
377.841	5.92
378.05	5.87
378.258	5.37
378.467	5.29
378.675	5.92
378.884	6.4
379.093	6.19
379.301	6.34
379.51	6.29
379.718	6.35
379.927	6.06
380.135	6.82
380.344	6.67
380.552	6.19
380.761	6.13
380.969	5.67
381.177	6.2
381.386	5.75
381.594	4.98
381.803	5.17
382.011	5.83
382.219	5.69
382.428	5.62
382.636	5.03
382.845	5.66
383.053	5.95
383.261	5.58
383.469	5
383.678	4.65
383.886	5.14
384.094	5.54
384.302	4.6
384.511	4.54
384.719	4.01
384.927	4.03
385.135	4.33
385.343	4.16
385.552	4.74
385.76	5.28
385.968	5.68
386.176	5.66
386.384	4.94
386.592	5.7
386.8	6.35
387.008	6.79
387.216	7.47
387.424	7.08
387.633	6.98
387.841	6.58
388.049	6.4
388.257	6.89
388.465	6.39
388.672	6.32
388.88	6.49
389.088	6.11
389.296	5.93
389.504	5.85
389.712	5.69
389.92	5.95
390.128	5.75
390.336	5.56
390.544	4.66
390.751	5.06
390.959	4.89
391.167	4.89
391.375	5.08
391.583	5.01
391.79	4.3
391.998	4.48
392.206	4.24
392.414	4.48
392.621	4.39
392.829	4.38
393.037	4.34
393.244	4.76
393.452	4.39
393.66	3.58
393.867	3.28
394.075	3.88
394.283	3.97
394.49	4.22
394.698	3.89
394.905	3.93
395.113	3.63
395.32	3.66
395.528	3.49
395.735	3.39
395.943	3.93
396.15	4.11
396.358	4.15
396.565	3.57
396.773	3.4
396.98	3.35
397.188	3.32
397.395	3.51
397.602	3.15
397.81	2.93
398.017	2.95
398.225	3.13
398.432	2.47
398.639	1.99
398.847	2.58
399.054	2.61
399.261	2.62
399.468	2.78
399.676	3.34
399.883	3.49
400.09	4.17
400.297	4.52
400.505	4.49
400.712	4.9
400.919	5.17
401.126	4.97
401.333	4.81
401.54	4.82
401.748	4.41
401.955	4.22
402.162	4.4
402.369	3.97
402.576	3.91
402.783	3.31
402.99	3.5
403.197	3.68
403.404	4.07
403.611	3.95
403.818	4
404.025	4.18
404.232	4.22
404.439	3.99
404.646	3.64
404.853	3.61
405.06	4.06
405.267	4.07
405.474	3.61
405.681	3.16
405.887	3.47
406.094	3.4
406.301	3.15
406.508	3.11
406.715	3.28
406.922	3.48
407.128	3.34
407.335	3.28
407.542	3.04
407.749	3.08
407.955	3.19
408.162	2.93
408.369	2.81
408.575	2.83
408.782	2.48
408.989	2.41
409.195	3.15
409.402	3.39
409.609	2.96
409.815	3.25
410.022	3.02
410.228	3.21
410.435	3.13
410.642	3.43
410.848	3.86
411.055	4.04
411.261	4.14
411.468	3.47
411.674	3.25
411.881	3.32
412.087	3.03
412.294	3.32
412.5	3.26
412.706	3.04
412.913	2.94
413.119	2.69
413.326	2.8
413.532	2.3
413.738	2.46
413.945	2.4
414.151	2.68
414.357	2.99
414.564	3.06
414.77	2.73
414.976	2.72
415.182	3.04
415.389	3.08
415.595	3.21
415.801	3.32
416.007	3.02
416.214	2.8
416.42	2.97
416.626	2.9
416.832	2.96
417.038	3.08
417.244	3.31
417.45	3.15
417.657	2.97
417.863	2.92
418.069	3.31
418.275	3.41
418.481	3.55
418.687	3.5
418.893	3.66
419.099	3.68
419.305	3.67
419.511	3.46
419.717	3.45
419.923	3.41
420.129	3.29
420.335	2.99
420.541	3.19
420.746	3.24
420.952	3.29
421.158	3.14
421.364	3.13
421.57	2.91
421.776	3.16
421.982	3.18
422.187	3.28
422.393	3.49
422.599	3.66
422.805	3.51
423.01	3.55
423.216	3.63
423.422	3.63
423.628	3.59
423.833	3.83
424.039	3.64
424.245	3.6
424.45	3.54
424.656	3.32
424.862	3.25
425.067	3.25
425.273	3.26
425.478	3.05
425.684	3.09
425.889	2.96
426.095	2.88
426.301	2.91
426.506	2.89
426.712	2.79
426.917	2.78
427.123	2.89
427.328	2.78
427.533	2.7
427.739	2.57
427.944	2.38
428.15	2.66
428.355	2.77
428.561	2.77
428.766	2.75
428.971	2.63
429.177	2.86
429.382	2.88
429.587	2.97
429.793	2.66
429.998	2.6
430.203	2.82
430.408	2.59
430.614	2.21
430.819	2.41
431.024	2.38
431.229	2.68
431.434	2.45
431.64	2.43
431.845	2.67
432.05	2.83
432.255	2.91
432.46	2.72
432.665	2.67
432.87	2.93
433.076	2.71
433.281	2.52
433.486	2.6
433.691	2.67
433.896	2.54
434.101	2.38
434.306	2.57
434.511	2.7
434.716	2.74
434.921	2.78
435.126	2.85
435.331	3.07
435.535	3.31
435.74	3.3
435.945	3.34
436.15	3.35
436.355	3.33
436.56	3.2
436.765	3.23
436.97	3.33
437.174	3.2
437.379	3.24
437.584	3.24
437.789	3.22
437.993	3.08
438.198	3.07
438.403	3.05
438.608	2.97
438.812	3.06
439.017	3.14
439.222	3.16
439.426	3.45
439.631	3.38
439.836	3.25
440.04	3.18
440.245	3.26
440.45	3.17
440.654	3.2
440.859	3.25
441.063	3.21
441.268	3.16
441.472	3.09
441.677	3.02
441.881	2.97
442.086	3.13
442.29	3.19
442.495	3.3
442.699	3.31
442.904	3.42
443.108	3.31
443.312	3.26
443.517	3.27
443.721	3.51
443.925	3.37
444.13	3.31
444.334	3.11
444.538	3.09
444.743	2.95
444.947	3.03
445.151	3.03
445.356	3.18
445.56	3.06
445.764	3.06
445.968	2.68
446.173	2.76
446.377	2.73
446.581	2.9
446.785	2.82
446.989	2.85
447.193	2.75
447.398	2.7
447.602	2.53
447.806	2.48
448.01	2.41
448.214	2.52
448.418	2.39
448.622	2.49
448.826	2.39
449.03	2.4
449.234	2.27
449.438	2.35
449.642	2.09
449.846	2.27
450.05	2.31
450.254	2.24
450.458	2.42
450.662	2.5
450.866	2.32
451.069	2.12
451.273	2.14
451.477	2.12
451.681	2.16
451.885	2.33
452.089	2.36
452.292	2.43
452.496	2.37
452.7	2.26
452.904	2.33
453.107	2.36
453.311	2.5
453.515	2.47
453.719	2.56
453.922	2.51
454.126	2.37
454.33	2.31
454.533	2.3
454.737	2.23
454.94	2.3
455.144	2.36
455.348	2.6
455.551	2.6
455.755	2.79
455.958	2.78
456.162	2.88
456.365	3.06
456.569	2.93
456.772	2.87
456.976	3.21
457.179	3.06
457.383	2.93
457.586	2.64
457.79	2.73
457.993	2.74
458.196	2.57
458.4	2.73
458.603	2.77
458.807	2.67
459.01	2.7
459.213	2.38
459.417	2.46
459.62	2.42
459.823	2.65
460.026	2.5
460.23	2.39
460.433	2.43
460.636	2.28
460.839	2.16
461.042	2.28
461.246	2.34
461.449	2.61
461.652	2.46
461.855	2.65
462.058	2.43
462.261	2.47
462.464	2.67
462.668	2.6
462.871	2.49
463.074	2.74
463.277	3.01
463.48	3.08
463.683	3.01
463.886	3.32
464.089	3.03
464.292	3.04
464.495	3.24
464.698	3.2
464.901	3.27
465.104	3.27
465.306	3.12
465.509	2.82
465.712	2.87
465.915	2.91
466.118	2.78
466.321	2.83
466.524	2.83
466.726	2.74
466.929	2.62
467.132	2.81
467.335	2.88
