Data from 2938059_Reflection_2.txt Node
Date: Sun Jul 12 13:54:44 EDT 2015
User: robert
Spectrometer: USB4E03001
Autoset integration time: false
Trigger mode: 4
Integration Time (sec): 1.000000E-1
Scans to average: 10
Electric dark correction enabled: true
Nonlinearity correction enabled: false
Boxcar width: 5
Stray light correction enabled: false
XAxis mode: Wavelengths
Stop averaging: false
Number of Pixels in Spectrum: 3648
>>>>>Begin Spectral Data<<<<<
177.566	77.87
177.785	90.92
178.005	188.97
178.225	78.16
178.445	100.5
178.665	112.47
178.885	-610.74
179.105	47.5
179.324	25.64
179.544	97.53
179.764	748.15
179.984	874.73
180.204	336.44
180.423	487.76
180.643	249.17
180.863	481.38
181.083	-2186.27
181.302	-190.88
181.522	-173.83
181.742	-212.47
181.961	-56.04
182.181	-92.17
182.401	-91.78
182.621	-201.01
182.84	-187.58
183.06	-63.78
183.279	-41.54
183.499	-74.14
183.719	-36.11
183.938	14.85
184.158	7.03
184.377	-27.53
184.597	-51.63
184.816	-22.55
185.036	19.71
185.256	40.83
185.475	-12.86
185.695	1.64
185.914	3.09
186.134	-28.37
186.353	-32.82
186.572	18.38
186.792	38.53
187.011	24.6
187.231	18.63
187.45	-20.53
187.67	-10.83
187.889	26.23
188.108	-18.46
188.328	-30.92
188.547	-41.58
188.766	-106.52
188.986	-150.61
189.205	-155.87
189.424	-80.58
189.644	-121.48
189.863	-78.13
190.082	-91.81
190.302	-145.52
190.521	-110.84
190.74	-79.76
190.959	-142.15
191.178	-102.79
191.398	-58.09
191.617	-112.32
191.836	-329.17
192.055	-39166.67
192.274	1201.75
192.494	201.6
192.713	51.58
192.932	119.86
193.151	132.79
193.37	-79.83
193.589	-573.06
193.808	454.72
194.027	314.98
194.246	410.77
194.465	-2049.77
194.685	-237.79
194.904	-173.96
195.123	-74.76
195.342	-61.72
195.561	-50.66
195.78	-57.4
195.999	-48.27
196.218	-25.56
196.436	54.86
196.655	48.79
196.874	6.73
197.093	-16.82
197.312	-44.94
197.531	-63.25
197.75	-35.76
197.969	881.01
198.188	-179.06
198.407	-31.79
198.625	10.9
198.844	0.42
199.063	8.28
199.282	-2.07
199.501	-22.69
199.719	-10.37
199.938	-25.58
200.157	-50.98
200.376	-60.51
200.594	-80.2
200.813	-53.72
201.032	-54.45
201.251	-150.57
201.469	-154.2
201.688	-93.02
201.907	-72.46
202.125	-182.44
202.344	-209.21
202.563	-94.01
202.781	-160.62
203	-190.04
203.218	-617.18
203.437	-5002.73
203.656	-471.74
203.874	-317.25
204.093	-264.16
204.311	-329.95
204.53	-251.18
204.748	-259.09
204.967	-935.96
205.185	-313.4
205.404	-296.23
205.622	-190.47
205.841	-185.68
206.059	-491.39
206.278	-834.67
206.496	-6156.86
206.715	1750.47
206.933	1745.06
207.151	-872.75
207.37	-787.57
207.588	-1309.23
207.806	-537.03
208.025	-564.75
208.243	-1261.73
208.461	-482.35
208.68	2039.59
208.898	-414.29
209.116	-157.79
209.335	-180.38
209.553	-30618.18
209.771	-1524.35
209.989	-189.73
210.208	-311.65
210.426	-100.12
210.644	-120.36
210.862	-140.29
211.081	-50.42
211.299	-57.15
211.517	-86.53
211.735	-135.02
211.953	-95.2
212.171	-115.09
212.39	-157.77
212.608	-191.21
212.826	-691.52
213.044	-176.03
213.262	-48.95
213.48	-94.43
213.698	-145.31
213.916	-240.83
214.134	-96.97
214.352	-58.49
214.57	-38.71
214.788	-24.6
215.006	34.41
215.224	62.63
215.442	7.62
215.66	293.02
215.878	67.29
216.096	162.02
216.314	-418.89
216.532	35.9
216.75	-16.37
216.968	-409.42
217.185	-42.48
217.403	-606.74
217.621	-125.48
217.839	-98.39
218.057	-166.67
218.275	-268.74
218.492	-211.2
218.71	-260.98
218.928	-690.74
219.146	-842.47
219.363	-414.86
219.581	-294.91
219.799	-167.59
220.017	-194.93
220.234	-181.05
220.452	-205.89
220.67	-210.86
220.887	-216.96
221.105	-213.6
221.323	-91.5
221.54	-34.29
221.758	-23.28
221.976	-80.05
222.193	-131.95
222.411	-120.95
222.629	-76.99
222.846	-72.64
223.064	-126.88
223.281	-118.62
223.499	-109.08
223.716	-155.55
223.934	-113.56
224.151	-153.08
224.369	-106.85
224.586	-88.05
224.804	-88.73
225.021	-118.01
225.239	-68.92
225.456	-31.05
225.674	-35.73
225.891	-19.63
226.108	-17.98
226.326	-23.1
226.543	-24.77
226.76	-20.2
226.978	-22.19
227.195	-16.44
227.413	-11.08
227.63	-13.41
227.847	-8.49
228.064	-5.48
228.282	-11.83
228.499	-8.2
228.716	-7.28
228.934	-2.78
229.151	0.62
229.368	0.88
229.585	4.74
229.802	5.88
230.02	3.31
230.237	1.8
230.454	-0.17
230.671	-0.89
230.888	-1.22
231.105	-2.19
231.323	-4.55
231.54	-7.95
231.757	-8.67
231.974	-13.37
232.191	-19.35
232.408	-25.36
232.625	-29.79
232.842	-25.3
233.059	-23.89
233.276	-24.87
233.493	-20.12
233.71	-29.49
233.927	-24.93
234.144	-30.94
234.361	-35.59
234.578	-36
234.795	-22.61
235.012	-18.58
235.229	-21.42
235.446	-17.6
235.663	-19.53
235.879	-24
236.096	-18.21
236.313	-19.15
236.53	-17.1
236.747	-16.53
236.964	-16.53
237.181	-15.83
237.397	-13.1
237.614	-8.64
237.831	-14.31
238.048	-12.44
238.264	-12.09
238.481	-13.44
238.698	-17.11
238.915	-12.71
239.131	-13.19
239.348	-6.33
239.565	-7.17
239.781	-4.78
239.998	-9.84
240.215	-8.59
240.431	-6.34
240.648	-5.16
240.865	-0.45
241.081	0.64
241.298	-1.97
241.514	0.78
241.731	-2.54
241.947	-0.93
242.164	-1.99
242.38	0.85
242.597	1.95
242.814	4.02
243.03	3.05
243.246	1.81
243.463	1.71
243.679	3.12
243.896	2.74
244.112	5.68
244.329	5.81
244.545	6.54
244.762	4.57
244.978	4.44
245.194	1.94
245.411	3.82
245.627	4.52
245.843	5.4
246.06	4.99
246.276	5.73
246.492	6.64
246.709	7.39
246.925	7.89
247.141	8.34
247.357	8.89
247.574	8.42
247.79	9.32
248.006	8.74
248.222	9.18
248.439	8.35
248.655	7.75
248.871	6.11
249.087	5.34
249.303	4.74
249.519	3.92
249.736	4.03
249.952	5.29
250.168	3.01
250.384	3.89
250.6	1.97
250.816	2.42
251.032	0.94
251.248	2.83
251.464	2.59
251.68	2.7
251.896	3.26
252.112	3.6
252.328	2.36
252.544	1.47
252.76	-2.45
252.976	-3.67
253.192	-1.16
253.408	1.01
253.624	-0.53
253.84	-2.52
254.056	-3.93
254.272	-6.39
254.487	-9.44
254.703	-9.07
254.919	-7.32
255.135	-1.55
255.351	-0.71
255.567	-4.45
255.782	-5.44
255.998	-5.48
256.214	-4.36
256.43	-1.59
256.646	0.75
256.861	-0.26
257.077	-1.12
257.293	-1.1
257.508	-1.92
257.724	-0.31
257.94	1.34
258.155	2.74
258.371	3.11
258.587	4.84
258.802	5.5
259.018	5.77
259.234	6.7
259.449	7.04
259.665	7.43
259.88	8.09
260.096	8.14
260.312	8.14
260.527	7.51
260.743	7.75
260.958	7.44
261.174	6.47
261.389	6.12
261.605	5.88
261.82	5.36
262.036	5.05
262.251	3.26
262.466	1.93
262.682	2.33
262.897	2.37
263.113	2.43
263.328	1.01
263.543	1.31
263.759	-0
263.974	-1.65
264.189	-1.54
264.405	-2.78
264.62	-1.6
264.835	0.56
265.051	-0.52
265.266	-1.86
265.481	-2.2
265.696	0.89
265.912	1.62
266.127	3.17
266.342	3.08
266.557	2.43
266.773	3.3
266.988	2.98
267.203	1.45
267.418	1.33
267.633	1.76
267.848	1.86
268.064	0.5
268.279	0.29
268.494	0.81
268.709	1.04
268.924	2.44
269.139	2.93
269.354	3.2
269.569	3.47
269.784	4.66
269.999	4.62
270.214	5.15
270.429	5.59
270.644	4.79
270.859	5.16
271.074	5.31
271.289	5.81
271.504	5.61
271.719	6.52
271.934	6.98
272.149	6.04
272.363	5.86
272.578	5.54
272.793	5.24
273.008	6.05
273.223	5.52
273.438	5.66
273.653	4.5
273.867	3.41
274.082	2.44
274.297	2.15
274.512	2.9
274.726	2.71
274.941	2.63
275.156	1.48
275.371	0.07
275.585	0.32
275.8	-0.07
276.015	0.74
276.229	1.88
276.444	2.5
276.659	2.04
276.873	1.55
277.088	2.62
277.302	2.09
277.517	3.77
277.732	4.31
277.946	4.71
278.161	4.13
278.375	3.67
278.59	2.96
278.804	2.19
279.019	2.15
279.233	2.64
279.448	1.56
279.662	1.45
279.877	-0.07
280.091	1.24
280.306	1.58
280.52	3.11
280.735	3.45
280.949	3.4
281.163	3.13
281.378	3.78
281.592	3.63
281.806	4.12
282.021	3.9
282.235	4.78
282.449	4.1
282.664	3.13
282.878	2.23
283.092	2.85
283.307	3.73
283.521	3.42
283.735	4.26
283.949	4.14
284.164	4.7
284.378	4.33
284.592	4.4
284.806	4.87
285.02	5.51
285.234	5.46
285.449	4.66
285.663	4.73
285.877	5.26
286.091	4.72
286.305	4.27
286.519	4.66
286.733	6.01
286.947	6.38
287.161	5.54
287.375	5.2
287.589	5.33
287.803	5.36
288.017	4.98
288.231	4.63
288.445	4.47
288.659	5.17
288.873	3.51
289.087	2.52
289.301	2.22
289.515	2.27
289.729	2.53
289.943	1.68
290.157	2.02
290.371	1.68
290.584	2.48
290.798	2.01
291.012	1.1
291.226	1.36
291.44	1.5
291.654	0.71
291.867	1.25
292.081	0.46
292.295	0.8
292.509	0.27
292.722	0.82
292.936	1.25
293.15	2.26
293.364	2.87
293.577	4.49
293.791	5.2
294.005	5.69
294.218	5.1
294.432	5.92
294.645	6.26
294.859	6.49
295.073	5.15
295.286	3.38
295.5	3.81
295.713	3.88
295.927	3.38
296.14	3.24
296.354	2.49
296.568	3.27
296.781	4.19
296.994	4.69
297.208	5.64
297.421	6.81
297.635	7.58
297.848	6.85
298.062	7.46
298.275	7.71
298.489	7.83
298.702	9.41
298.915	9.3
299.129	8.11
299.342	8.21
299.555	6.64
299.769	5.6
299.982	6.39
300.195	6.29
300.409	5.63
300.622	4.71
300.835	4.86
301.048	4.24
301.262	5
301.475	5.44
301.688	4.84
301.901	4.31
302.115	5.17
302.328	5.22
302.541	5.77
302.754	6.6
302.967	7.27
303.18	7.01
303.393	5.89
303.607	5.6
303.82	4.91
304.033	6.01
304.246	6.66
304.459	6.55
304.672	5.29
304.885	4.78
305.098	3.79
305.311	2.03
305.524	3.45
305.737	3.32
305.95	1.84
306.163	2.37
306.376	2.65
306.589	2.23
306.802	1.89
307.015	2.09
307.228	2.31
307.44	1.91
307.653	3.08
307.866	0.71
308.079	1.08
308.292	1.52
308.505	2.2
308.718	3.06
308.93	3.19
309.143	3.38
309.356	4.67
309.569	5.13
309.781	6.45
309.994	7.17
310.207	7.29
310.42	8.05
310.632	9.1
310.845	8.19
311.058	7.49
311.27	8.9
311.483	9.2
311.696	8.21
311.908	8.04
312.121	6.53
312.333	5.95
312.546	6.12
312.759	5.5
312.971	3.26
313.184	3.6
313.396	2.2
313.609	1.48
313.821	1.65
314.034	3.04
314.246	3.8
314.459	5.33
314.671	4.97
314.884	4.93
315.096	6.3
315.309	7.7
315.521	7.46
315.733	7.6
315.946	7.04
316.158	5.28
316.371	4.48
316.583	2.76
316.795	1.7
317.008	1.31
317.22	1.94
317.432	-0.08
317.644	0.77
317.857	0.78
318.069	0.96
318.281	1.11
318.494	2.94
318.706	1.61
318.918	2.18
319.13	3.38
319.342	6.19
319.555	4.79
319.767	6.18
319.979	5.6
320.191	5.73
320.403	6
320.615	5.91
320.827	5.5
321.039	5.93
321.252	4.26
321.464	3.08
321.676	1.46
321.888	2.99
322.1	3.35
322.312	3.47
322.524	3.25
322.736	3.54
322.948	3.2
323.16	3.91
323.372	4.78
323.584	6.65
323.796	7.88
324.007	7.62
324.219	7.85
324.431	7.34
324.643	6.83
324.855	6.46
325.067	6.9
325.279	6.63
325.491	5.01
325.702	4.94
325.914	4.51
326.126	3.64
326.338	4.19
326.55	3.9
326.761	3.81
326.973	5.35
327.185	6.15
327.396	4.24
327.608	5.77
327.82	7.33
328.032	6.73
328.243	6.15
328.455	6.29
328.666	5.07
328.878	6.02
329.09	6.64
329.301	5.78
329.513	5.47
329.725	5.7
329.936	4.97
330.148	4.35
330.359	4.21
330.571	3.14
330.782	2.5
330.994	4
331.205	3.34
331.417	2.44
331.628	1.55
331.84	2.35
332.051	3.44
332.262	2.65
332.474	3.86
332.685	6.39
332.897	8.88
333.108	8.3
333.319	7.14
333.531	8.19
333.742	8.29
333.953	8.59
334.165	8.85
334.376	10.22
334.587	11.01
334.799	9.91
335.01	8.3
335.221	7.23
335.432	7.85
335.644	7.09
335.855	6.19
336.066	7.61
336.277	7.73
336.488	7.04
336.7	5.55
336.911	5.25
337.122	6.01
337.333	5.82
337.544	7.49
337.755	7.69
337.966	9.83
338.177	9.81
338.388	8.18
338.599	8.83
338.811	8.23
339.022	8.31
339.233	8.76
339.444	8.53
339.655	8.38
339.866	7.06
340.076	7.53
340.287	6.54
340.498	5.45
340.709	6.04
340.92	6.03
341.131	6.28
341.342	6.71
341.553	6.9
341.764	6.02
341.975	6.14
342.185	5.85
342.396	6.44
342.607	5.76
342.818	7.19
343.029	7.14
343.239	5.53
343.45	6.03
343.661	5.97
343.872	4.14
344.082	4.41
344.293	4.19
344.504	5.27
344.714	3.55
344.925	3.83
345.136	2.85
345.346	3.7
345.557	4.22
345.768	3.82
345.978	2.43
346.189	3.17
346.399	2.94
346.61	3.47
346.821	2.35
347.031	2.89
347.242	2.13
347.452	2.55
347.663	1.13
347.873	1.13
348.084	0.98
348.294	2.16
348.504	2.96
348.715	3.14
348.925	3.45
349.136	4.62
349.346	4.34
349.557	5.03
349.767	4.36
349.977	4.11
350.188	4.02
350.398	5.13
350.608	4.85
350.819	3.99
351.029	4.34
351.239	3.77
351.449	2.95
351.66	4.27
351.87	4.15
352.08	5.52
352.29	6.25
352.501	6.76
352.711	5.63
352.921	5.88
353.131	6.26
353.341	6.52
353.552	6.72
353.762	7.21
353.972	7.29
354.182	8
354.392	7.14
354.602	6.67
354.812	6.25
355.022	6.21
355.232	6.22
355.442	6.2
355.652	5.17
355.862	5.21
356.072	4.21
356.282	3.65
356.492	3.14
356.702	3.99
356.912	3.55
357.122	3.28
357.332	2.93
357.542	3.24
357.752	2.95
357.962	3.1
358.171	3.65
358.381	5.13
358.591	4.46
358.801	4
359.011	3.95
359.221	4.58
359.43	5.24
359.64	6.28
359.85	6.01
360.06	5.88
360.269	5.54
360.479	4.92
360.689	4.16
360.899	4.75
361.108	5.49
361.318	4.87
361.528	5.35
361.737	5.77
361.947	5.39
362.156	5.85
362.366	6.51
362.576	7.04
362.785	6.88
362.995	6.61
363.204	6.35
363.414	6.51
363.623	6.81
363.833	7.02
364.042	6.24
364.252	5.68
364.461	4.88
364.671	4.58
364.88	4.41
365.09	4.14
365.299	4.46
365.509	4.82
365.718	4.49
365.927	4.73
366.137	3.68
366.346	3.97
366.555	5
366.765	5.71
366.974	5.49
367.183	5.25
367.393	5.39
367.602	5.27
367.811	4.78
368.021	4.35
368.23	3.43
368.439	3.52
368.648	3.59
368.857	3.18
369.067	2.5
369.276	2.25
369.485	2.64
369.694	2.84
369.903	2.68
370.112	3.43
370.321	2.87
370.531	2.99
370.74	2.91
370.949	2.12
371.158	2.31
371.367	3.01
371.576	3.36
371.785	3.48
371.994	3.75
372.203	3.85
372.412	3.23
372.621	3.76
372.83	4.01
373.039	4.64
373.248	5.33
373.457	4.48
373.666	4.43
373.874	4.58
374.083	4.4
374.292	4.42
374.501	4.7
374.71	4.92
374.919	4.54
375.128	4.65
375.336	3.94
375.545	3.71
375.754	4.08
375.963	3.57
376.171	3.55
376.38	3.69
376.589	3.46
376.798	3.25
377.006	3.36
377.215	4.13
377.424	4.07
377.632	4.25
377.841	3.99
378.05	4.2
378.258	4.22
378.467	4.12
378.675	3.95
378.884	4.14
379.093	4.43
379.301	4.4
379.51	3.72
379.718	3.83
379.927	3.79
380.135	4.16
380.344	3.75
380.552	4.02
380.761	4.63
380.969	4.52
381.177	4.14
381.386	3.99
381.594	3.89
381.803	4.48
382.011	4.27
382.219	4.64
382.428	4.66
382.636	5.11
382.845	5.45
383.053	4.4
383.261	3.79
383.469	3.64
383.678	3.5
383.886	3.85
384.094	3.72
384.302	3.85
384.511	3.7
384.719	3.73
384.927	3.78
385.135	3.5
385.343	3.82
385.552	4.82
385.76	4.98
385.968	5.09
386.176	4.93
386.384	5.07
386.592	4.99
386.8	4.64
387.008	4.63
387.216	4.45
387.424	4.09
387.633	4.08
387.841	3.54
388.049	3.95
388.257	3.59
388.465	3.72
388.672	3.59
388.88	3.53
389.088	3.76
389.296	3.52
389.504	3.31
389.712	3.61
389.92	3.67
390.128	3.73
390.336	3.4
390.544	3.65
390.751	3.31
390.959	3.43
391.167	3.64
391.375	3.74
391.583	3.72
391.79	3.91
391.998	3.92
392.206	3.92
392.414	4.36
392.621	4.46
392.829	4.48
393.037	4.68
393.244	4.49
393.452	3.91
393.66	3.75
393.867	3.96
394.075	3.76
394.283	3.54
394.49	3.68
394.698	3.08
394.905	2.7
395.113	2.46
395.32	2.49
395.528	2.27
395.735	2.57
395.943	2.82
396.15	2.57
396.358	2.88
396.565	2.88
396.773	2.78
396.98	3.24
397.188	3.38
397.395	3.29
397.602	2.93
397.81	3.1
398.017	3.32
398.225	3.58
398.432	3.88
398.639	3.85
398.847	4.21
399.054	3.89
399.261	3.99
399.468	4.04
399.676	3.91
399.883	3.9
400.09	3.57
400.297	3.52
400.505	3.58
400.712	3.03
400.919	2.71
401.126	2.51
401.333	2.99
401.54	2.79
401.748	3.04
401.955	3.26
402.162	2.98
402.369	3.25
402.576	3.17
402.783	2.52
402.99	2.74
403.197	2.66
403.404	2.62
403.611	2.41
403.818	2.37
404.025	2.27
404.232	2.31
404.439	2.93
404.646	2.9
404.853	3.05
405.06	3.33
405.267	3.48
405.474	3.79
405.681	4.01
405.887	4.04
406.094	3.96
406.301	3.9
406.508	3.74
406.715	3.54
406.922	3.37
407.128	3.16
407.335	3
407.542	3.17
407.749	3
407.955	2.39
408.162	2.18
408.369	2.11
408.575	1.91
408.782	2.33
408.989	2.11
409.195	2.45
409.402	2.2
409.609	2.14
409.815	1.86
410.022	2.1
410.228	2.48
410.435	2.52
410.642	2.92
410.848	3.16
411.055	2.95
411.261	2.97
411.468	2.77
411.674	3.07
411.881	3.21
412.087	3.82
412.294	3.68
412.5	3.56
412.706	3.83
412.913	3.4
413.119	3.1
413.326	3.08
413.532	2.94
413.738	3.05
413.945	3.42
414.151	3.22
414.357	2.74
414.564	2.72
414.77	2.85
414.976	2.53
415.182	2.59
415.389	2.55
415.595	2.64
415.801	3.01
416.007	2.98
416.214	2.8
416.42	2.84
416.626	2.88
416.832	2.91
417.038	2.77
417.244	2.95
417.45	2.99
417.657	3.21
417.863	3.09
418.069	3.09
418.275	2.94
418.481	2.8
418.687	2.87
418.893	2.79
419.099	2.87
419.305	2.86
419.511	2.8
419.717	2.79
419.923	2.68
420.129	2.89
420.335	2.75
420.541	2.98
420.746	2.86
420.952	2.98
421.158	2.93
421.364	2.79
421.57	2.93
421.776	2.92
421.982	2.93
422.187	3
422.393	2.92
422.599	2.9
422.805	2.82
423.01	3.06
423.216	3.02
423.422	3.13
423.628	3.3
423.833	3.31
424.039	3.33
424.245	3.42
424.45	3.35
424.656	3.31
424.862	3.42
425.067	3.46
425.273	3.43
425.478	3.42
425.684	3.4
425.889	3.45
426.095	3.46
426.301	3.58
426.506	3.35
426.712	3.55
426.917	3.49
427.123	3.62
427.328	3.38
427.533	3.24
427.739	3.28
427.944	3.27
428.15	3.13
428.355	3.04
428.561	2.88
428.766	2.98
428.971	2.79
429.177	2.93
429.382	2.78
429.587	2.85
429.793	2.97
429.998	2.89
430.203	2.79
430.408	2.47
430.614	2.5
430.819	2.44
431.024	2.5
431.229	2.65
431.434	2.39
431.64	2.15
431.845	2.11
432.05	2.08
432.255	1.92
432.46	2.03
432.665	2.27
432.87	1.97
433.076	2.1
433.281	2.17
433.486	2.16
433.691	2.27
433.896	2.67
434.101	2.84
434.306	2.87
434.511	2.95
434.716	3.04
434.921	2.81
435.126	3.13
435.331	3.19
435.535	3.15
435.74	3.25
435.945	3.3
436.15	3.07
436.355	2.93
436.56	2.87
436.765	2.78
436.97	2.56
437.174	2.76
437.379	2.65
437.584	2.7
437.789	2.59
437.993	2.35
438.198	2.38
438.403	2.28
438.608	2.4
438.812	2.44
439.017	2.64
439.222	2.79
439.426	2.83
439.631	2.86
439.836	2.68
440.04	2.91
440.245	3.13
440.45	3.08
440.654	3.11
440.859	3.11
441.063	3.14
441.268	3.04
441.472	3.06
441.677	2.97
441.881	2.89
442.086	2.77
442.29	2.61
442.495	2.27
442.699	2.37
442.904	2.4
443.108	2.45
443.312	2.41
443.517	2.28
443.721	2.25
443.925	2.37
444.13	2.61
444.334	2.83
444.538	2.8
444.743	2.81
444.947	2.71
445.151	2.73
445.356	2.8
445.56	2.7
445.764	2.84
445.968	2.83
446.173	2.83
446.377	2.66
446.581	2.59
446.785	2.63
446.989	2.85
447.193	2.88
447.398	2.99
447.602	2.78
447.806	2.81
448.01	2.73
448.214	2.65
448.418	2.44
448.622	2.49
448.826	2.54
449.03	2.38
449.234	2.16
449.438	2.19
449.642	1.91
449.846	1.9
450.05	1.92
450.254	1.94
450.458	1.98
450.662	2.1
450.866	2.23
451.069	2.18
451.273	2.37
451.477	2.38
451.681	2.23
451.885	2.23
452.089	2.34
452.292	2.35
452.496	2.26
452.7	2.45
452.904	2.47
453.107	2.49
453.311	2.54
453.515	2.55
453.719	2.57
453.922	2.68
454.126	2.76
454.33	2.7
454.533	2.73
454.737	2.73
454.94	2.72
455.144	2.67
455.348	2.18
455.551	2.11
455.755	2.1
455.958	2.17
456.162	2.13
456.365	2.31
456.569	2.28
456.772	2.16
456.976	2.07
457.179	1.85
457.383	1.83
457.586	2.04
457.79	2.17
457.993	2.12
458.196	2.14
458.4	2.09
458.603	2.13
458.807	2.1
459.01	2.09
459.213	2.23
459.417	2.29
459.62	2.35
459.823	2.44
460.026	2.36
460.23	2.59
460.433	2.58
460.636	2.62
460.839	2.47
461.042	2.52
461.246	2.5
461.449	2.58
461.652	2.57
461.855	2.49
462.058	2.38
462.261	2.43
462.464	2.08
462.668	1.94
462.871	2.1
463.074	2.1
463.277	2.26
463.48	2.36
463.683	2.28
463.886	2.13
464.089	2.14
464.292	2.34
464.495	2.53
464.698	2.43
464.901	2.44
465.104	2.22
465.306	2.25
465.509	1.96
465.712	2.08
465.915	1.91
466.118	2.11
466.321	2.28
466.524	2.24
466.726	2.01
466.929	1.98
467.132	2.08
