Data from 2938025_Reflection_3.txt Node
Date: Sun Jul 12 15:17:35 EDT 2015
User: robert
Spectrometer: USB4E03001
Autoset integration time: false
Trigger mode: 4
Integration Time (sec): 1.000000E-1
Scans to average: 10
Electric dark correction enabled: true
Nonlinearity correction enabled: false
Boxcar width: 5
Stray light correction enabled: false
XAxis mode: Wavelengths
Stop averaging: false
Number of Pixels in Spectrum: 3648
>>>>>Begin Spectral Data<<<<<
177.566	-180.09
177.785	-107.29
178.005	-122.76
178.225	-27.75
178.445	9.78
178.665	3.54
178.885	601.22
179.105	-102.17
179.324	-168.87
179.544	-23.16
179.764	-574.24
179.984	-92.65
180.204	-65.65
180.423	-41.61
180.643	-14.66
180.863	15.05
181.083	6.85
181.302	5.99
181.522	2.68
181.742	4.41
181.961	-16.4
182.181	4.6
182.401	27.44
182.621	9.35
182.84	-5.98
183.06	18.2
183.279	-5.67
183.499	-5.62
183.719	27.24
183.938	15.75
184.158	-2.25
184.377	6.86
184.597	-18.44
184.816	1796.51
185.036	-267.82
185.256	-904.88
185.475	-12.92
185.695	-69.35
185.914	63.86
186.134	57.88
186.353	78.68
186.572	110.33
186.792	60.62
187.011	17.96
187.231	-8.71
187.45	31.45
187.67	16.9
187.889	17.94
188.108	21.31
188.328	-246.71
188.547	4344.44
188.766	206.09
188.986	173.71
189.205	91.59
189.424	104.77
189.644	116.73
189.863	100.95
190.082	79.68
190.302	65.8
190.521	68.47
190.74	17.52
190.959	22.91
191.178	43.08
191.398	53.67
191.617	46.05
191.836	21.21
192.055	-1.28
192.274	24.29
192.494	19.73
192.713	22.2
192.932	24.79
193.151	46.98
193.37	94.74
193.589	-8.41
193.808	-97.93
194.027	21.47
194.246	1.7
194.465	-0.8
194.685	-34.04
194.904	-25.85
195.123	-43.04
195.342	-45.13
195.561	-137.85
195.78	-48.64
195.999	4.96
196.218	49.47
196.436	887.67
196.655	-2095.71
196.874	-135.54
197.093	63.09
197.312	68.55
197.531	26.93
197.75	16.69
197.969	45.92
198.188	-4.15
198.407	26.17
198.625	21.73
198.844	9.2
199.063	35.19
199.282	-105.67
199.501	-381.37
199.719	558.32
199.938	288.42
200.157	421.77
200.376	156.57
200.594	100.61
200.813	134.82
201.032	115.25
201.251	139.14
201.469	144.36
201.688	227.16
201.907	227.36
202.125	196.46
202.344	160.28
202.563	252.51
202.781	258.18
203	256.84
203.218	686.82
203.437	217.04
203.656	462.5
203.874	-58.04
204.093	-426.85
204.311	77.35
204.53	79.63
204.748	47.72
204.967	-1325
205.185	-1626.79
205.404	-4.44
205.622	31.46
205.841	141.69
206.059	484.54
206.278	-65.48
206.496	-73.3
206.715	459.33
206.933	28.2
207.151	113.14
207.37	147.66
207.588	81.28
207.806	57.57
208.025	89.31
208.243	71.87
208.461	75.68
208.68	79.5
208.898	85.95
209.116	134.79
209.335	185.31
209.553	84.9
209.771	-230.61
209.989	-106.79
210.208	-32.56
210.426	-232.04
210.644	-295.37
210.862	-175.98
211.081	1210.95
211.299	531.57
211.517	386.78
211.735	-22.54
211.953	-22.8
212.171	35.99
212.39	53.05
212.608	57.61
212.826	102.11
213.044	87.99
213.262	93.3
213.48	103
213.698	70.73
213.916	50.18
214.134	76.53
214.352	293.03
214.57	142.51
214.788	172.42
215.006	311.79
215.224	53.31
215.442	-212.93
215.66	55.64
215.878	30.5
216.096	1352.65
216.314	128.87
216.532	150.54
216.75	120.3
216.968	84.53
217.185	-21.32
217.403	-7.6
217.621	-67.07
217.839	2.41
218.057	15.76
218.275	16.1
218.492	-57.95
218.71	-28.58
218.928	-89.62
219.146	-181.15
219.363	-115.89
219.581	-5.67
219.799	-170.64
220.017	-198.92
220.234	-177.51
220.452	-601.19
220.67	-1990.48
220.887	3735.71
221.105	579.44
221.323	1215.06
221.54	-207.21
221.758	-71.26
221.976	-66.2
222.193	-20.11
222.411	-41.48
222.629	-25.62
222.846	8.71
223.064	4.95
223.281	6.86
223.499	12.61
223.716	31.61
223.934	27.76
224.151	21.51
224.369	15.58
224.586	9.78
224.804	12.42
225.021	20.81
225.239	15.24
225.456	27.01
225.674	18.98
225.891	22
226.108	14.21
226.326	23.38
226.543	24.71
226.76	31.49
226.978	32.89
227.195	29.31
227.413	27.24
227.63	19.28
227.847	13.8
228.064	18.24
228.282	13.49
228.499	11.47
228.716	5.98
228.934	6.39
229.151	6.8
229.368	8.3
229.585	8.32
229.802	7.66
230.02	9.5
230.237	5.93
230.454	2.72
230.671	6.63
230.888	8.16
231.105	9.93
231.323	10.06
231.54	4.13
231.757	2.2
231.974	8.9
232.191	5.31
232.408	0.82
232.625	10.78
232.842	15.85
233.059	7.93
233.276	6.81
233.493	8.33
233.71	6.73
233.927	15.25
234.144	16.45
234.361	9.67
234.578	10.82
234.795	15.86
235.012	15.93
235.229	12.49
235.446	17.3
235.663	17.06
235.879	17.75
236.096	20.82
236.313	16.87
236.53	18.26
236.747	22.63
236.964	27.92
237.181	34.66
237.397	29.73
237.614	25.28
237.831	25.76
238.048	24.96
238.264	21.8
238.481	19.3
238.698	14.71
238.915	9.34
239.131	6.32
239.348	4.1
239.565	-0.13
239.781	-0.79
239.998	2.43
240.215	7.24
240.431	7.66
240.648	9.52
240.865	11.44
241.081	14.82
241.298	14.96
241.514	12.86
241.731	12
241.947	10.04
242.164	11.84
242.38	12.69
242.597	10.82
242.814	11.76
243.03	11.29
243.246	11.95
243.463	11.41
243.679	12.4
243.896	13.72
244.112	15.49
244.329	17.68
244.545	18.13
244.762	18.29
244.978	20.53
245.194	20.37
245.411	20.7
245.627	18.87
245.843	18.29
246.06	17.35
246.276	16.21
246.492	15.45
246.709	14.76
246.925	14.89
247.141	13.75
247.357	13.18
247.574	12.47
247.79	11.8
248.006	11.42
248.222	11.11
248.439	10.92
248.655	10.48
248.871	10.13
249.087	8.93
249.303	7.45
249.519	7.61
249.736	6.22
249.952	6.92
250.168	5.72
250.384	5.89
250.6	5.53
250.816	5.67
251.032	8.94
251.248	9.13
251.464	10.56
251.68	10.18
251.896	9.32
252.112	10.05
252.328	9.06
252.544	9.63
252.76	7.37
252.976	5.68
253.192	5.89
253.408	2.97
253.624	-0.4
253.84	-0.87
254.056	-1.67
254.272	-0.06
254.487	1.06
254.703	-1.28
254.919	-2.28
255.135	4.5
255.351	8.23
255.567	7.54
255.782	8.31
255.998	12.71
256.214	12.83
256.43	12.93
256.646	12.7
256.861	12.86
257.077	14.04
257.293	17.17
257.508	15.19
257.724	12.56
257.94	12.09
258.155	11.21
258.371	7.92
258.587	8.21
258.802	9.28
259.018	8.33
259.234	8.31
259.449	7.74
259.665	7.14
259.88	7.43
260.096	7.63
260.312	7.43
260.527	7.33
260.743	8.17
260.958	7.87
261.174	7.18
261.389	7.2
261.605	6.48
261.82	7.54
262.036	6.69
262.251	5.79
262.466	4.81
262.682	3.86
262.897	4.92
263.113	4.52
263.328	3.83
263.543	3.26
263.759	3.65
263.974	2.77
264.189	0.99
264.405	2.82
264.62	1.24
264.835	2.77
265.051	3.57
265.266	3.18
265.481	3.03
265.696	4.27
265.912	5.11
266.127	4.63
266.342	5.42
266.557	5.64
266.773	5.12
266.988	5.28
267.203	4.7
267.418	4.66
267.633	3.55
267.848	4.4
268.064	4.85
268.279	6.38
268.494	6.66
268.709	7.54
268.924	7.69
269.139	6.7
269.354	7.73
269.569	8.32
269.784	9.74
269.999	11.37
270.214	10.06
270.429	9.84
270.644	8.27
270.859	7.68
271.074	7.91
271.289	8.17
271.504	9.41
271.719	8.73
271.934	9.07
272.149	7.93
272.363	8.34
272.578	8.88
272.793	8.37
273.008	8.36
273.223	8.89
273.438	7.82
273.653	6.45
273.867	5.2
274.082	5
274.297	4.08
274.512	4.38
274.726	4.07
274.941	4.05
275.156	4.74
275.371	6.24
275.585	5.76
275.8	5.26
276.015	6.91
276.229	8.3
276.444	8.83
276.659	8.39
276.873	8.7
277.088	9.14
277.302	10.4
277.517	10.02
277.732	8.7
277.946	8.85
278.161	8.66
278.375	8.14
278.59	7.83
278.804	6.01
279.019	7.42
279.233	6.45
279.448	4.21
279.662	1.07
279.877	1.5
280.091	2.34
280.306	3.42
280.52	5.58
280.735	5.42
280.949	4.47
281.163	5.92
281.378	5.98
281.592	6.46
281.806	6.68
282.021	8.82
282.235	8.59
282.449	9.41
282.664	9.04
282.878	8.52
283.092	8.28
283.307	8.85
283.521	8.6
283.735	6.87
283.949	6.52
284.164	6.36
284.378	3.76
284.592	2.67
284.806	1.63
285.02	1.28
285.234	0.89
285.449	1.45
285.663	1.54
285.877	1.91
286.091	2.92
286.305	3.69
286.519	4.16
286.733	6.02
286.947	6.59
287.161	6.38
287.375	6.76
287.589	7.1
287.803	7.6
288.017	7.25
288.231	7.2
288.445	6.92
288.659	6.87
288.873	6.22
289.087	5
289.301	4.49
289.515	6.03
289.729	5.67
289.943	6.54
290.157	7.33
290.371	8.45
290.584	9.01
290.798	9.44
291.012	9.21
291.226	9.21
291.44	10.06
291.654	10.6
291.867	10.73
292.081	11.03
292.295	10.64
292.509	9.52
292.722	9.13
292.936	8.2
293.15	7.88
293.364	7.88
293.577	10.26
293.791	10.93
294.005	11.68
294.218	9.56
294.432	9.41
294.645	8.29
294.859	7.71
295.073	8.29
295.286	9.38
295.5	9.63
295.713	9.36
295.927	8.99
296.14	7.98
296.354	6.91
296.568	7.72
296.781	8.81
296.994	8.78
297.208	8.67
297.421	8.63
297.635	8.92
297.848	9.11
298.062	9.82
298.275	9.4
298.489	9.14
298.702	9.43
298.915	8.79
299.129	8.2
299.342	9
299.555	10.24
299.769	10.38
299.982	10.49
300.195	11.38
300.409	11.24
300.622	10.62
300.835	11.17
301.048	12.3
301.262	12.89
301.475	13.05
301.688	13.97
301.901	13.49
302.115	13.32
302.328	13.05
302.541	11.98
302.754	12.03
302.967	13.02
303.18	13.13
303.393	12.5
303.607	12.71
303.82	12.67
304.033	11.48
304.246	12.1
304.459	11.88
304.672	10.76
304.885	11.53
305.098	11.84
305.311	11.18
305.524	12.37
305.737	12.39
305.95	12.5
306.163	13.67
306.376	13.47
306.589	13.11
306.802	12.88
307.015	14.31
307.228	14.17
307.44	12.96
307.653	14.3
307.866	13.83
308.079	14.75
308.292	14.43
308.505	12.43
308.718	13.28
308.93	12.57
309.143	13.5
309.356	12.89
309.569	13.32
309.781	14.41
309.994	12.18
310.207	11.44
310.42	10.64
310.632	10.17
310.845	11.24
311.058	10.92
311.27	10.95
311.483	11.02
311.696	10.98
311.908	10.44
312.121	9.8
312.333	10.74
312.546	10.88
312.759	12.26
312.971	12.63
313.184	13.67
313.396	14.97
313.609	15.3
313.821	14.47
314.034	15.33
314.246	14.99
314.459	15.6
314.671	14.85
314.884	15.95
315.096	15.27
315.309	15.92
315.521	13.21
315.733	11.78
315.946	12.7
316.158	13.51
316.371	12.41
316.583	13.36
316.795	11.88
317.008	12.27
317.22	10.75
317.432	9.37
317.644	10.38
317.857	11.78
318.069	12.78
318.281	13.56
318.494	12.85
318.706	13.78
318.918	14.7
319.13	15.42
319.342	16.74
319.555	18.6
319.767	18.84
319.979	17.69
320.191	17.21
320.403	17.96
320.615	17.36
320.827	17.77
321.039	16.64
321.252	14.5
321.464	15.62
321.676	15.64
321.888	14.74
322.1	16.28
322.312	17.43
322.524	18.4
322.736	17.51
322.948	17.39
323.16	18.51
323.372	19.85
323.584	20.77
323.796	20.4
324.007	21.49
324.219	22.52
324.431	22.52
324.643	21.82
324.855	22.09
325.067	22.09
325.279	22.51
325.491	21.88
325.702	21.72
325.914	21.93
326.126	23.22
326.338	22.5
326.55	21.57
326.761	21.39
326.973	21.68
327.185	21.41
327.396	21.6
327.608	22.63
327.82	24.02
328.032	25.77
328.243	26.32
328.455	25.24
328.666	25.71
328.878	27.29
329.09	28.32
329.301	31.43
329.513	32.22
329.725	33.5
329.936	33.98
330.148	34.91
330.359	34.29
330.571	34.87
330.782	36.19
330.994	36.16
331.205	36.71
331.417	36.87
331.628	34.66
331.84	35.54
332.051	35.67
332.262	37.22
332.474	37.25
332.685	38.24
332.897	39.49
333.108	40.16
333.319	40.75
333.531	40.17
333.742	40.83
333.953	42.28
334.165	42.08
334.376	42.69
334.587	41.98
334.799	41.87
335.01	42.6
335.221	42.18
335.432	42.99
335.644	44.41
335.855	45.34
336.066	47.09
336.277	47.63
336.488	48.14
336.7	47.81
336.911	47.98
337.122	48.03
337.333	48.36
337.544	48.34
337.755	48.8
337.966	48.77
338.177	49.8
338.388	48.25
338.599	48.59
338.811	48.48
339.022	49.59
339.233	49.59
339.444	50.54
339.655	50.34
339.866	50.55
340.076	49.85
340.287	49.15
340.498	49.4
340.709	50.64
340.92	50.06
341.131	50.5
341.342	50.38
341.553	51.43
341.764	51.47
341.975	50.75
342.185	51.81
342.396	52.53
342.607	52.86
342.818	52.52
343.029	52.06
343.239	51.76
343.45	52.46
343.661	51.93
343.872	50.89
344.082	51.04
344.293	52.24
344.504	50.94
344.714	50.95
344.925	51.1
345.136	51.55
345.346	51.09
345.557	51.04
345.768	50.96
345.978	51.14
346.189	51.88
346.399	51.04
346.61	51.1
346.821	52.83
347.031	52.94
347.242	53.34
347.452	52.85
347.663	53.12
347.873	53.74
348.084	53.1
348.294	53.95
348.504	53.36
348.715	53.53
348.925	52.92
349.136	52.42
349.346	51.64
349.557	51.93
349.767	52.2
349.977	52.51
350.188	52.58
350.398	52.78
350.608	52.11
350.819	51.41
351.029	52.34
351.239	53.75
351.449	53.5
351.66	53.82
351.87	53.22
352.08	52.7
352.29	52.8
352.501	53.48
352.711	53.91
352.921	54.26
353.131	55.17
353.341	55.05
353.552	53.77
353.762	54.01
353.972	53.74
354.182	53.66
354.392	53.65
354.602	53.87
354.812	52.7
355.022	52.75
355.232	52.17
355.442	51.25
355.652	50.16
355.862	50.68
356.072	50.58
356.282	50.46
356.492	50.19
356.702	50.53
356.912	49.9
357.122	50.56
357.332	51.1
357.542	50.86
357.752	51.76
357.962	52.44
358.171	51.8
358.381	51.67
358.591	52.27
358.801	52.7
359.011	52.31
359.221	52.97
359.43	52.25
359.64	51.37
359.85	51.9
360.06	51.31
360.269	51.22
360.479	50.74
360.689	50.84
360.899	50.13
361.108	50.21
361.318	49.8
361.528	49.69
361.737	49.52
361.947	49.91
362.156	49.63
362.366	49.69
362.576	49.28
362.785	49.68
362.995	49.34
363.204	49.49
363.414	48.86
363.623	48.72
363.833	48.21
364.042	48.75
364.252	48.09
364.461	48.57
364.671	48.49
364.88	48.98
365.09	49.07
365.299	49.1
365.509	49.1
365.718	49
365.927	50.47
366.137	50.67
366.346	50.6
366.555	50.79
366.765	51
366.974	51.05
367.183	50.5
367.393	49.21
367.602	49.01
367.811	48.71
368.021	48.88
368.23	47.95
368.439	48.17
368.648	48.03
368.857	48.05
369.067	47.18
369.276	47.62
369.485	47.82
369.694	48.72
369.903	48.52
370.112	48.56
370.321	48.39
370.531	48.07
370.74	47.53
370.949	46.44
371.158	45.98
371.367	45.87
371.576	45.05
371.785	44.84
371.994	44.49
372.203	44.36
372.412	44.3
372.621	44.48
372.83	44.34
373.039	43.36
373.248	43.63
373.457	43.58
373.666	43.31
373.874	43.28
374.083	43.35
374.292	42.82
374.501	42.78
374.71	43.04
374.919	42.93
375.128	42.95
375.336	43.74
375.545	44.54
375.754	44.63
375.963	44.69
376.171	44.43
376.38	44.29
376.589	44.59
376.798	44.4
377.006	43.86
377.215	43.38
377.424	43.28
377.632	42.75
377.841	41.94
378.05	41.82
378.258	41.3
378.467	40.89
378.675	40.91
378.884	40.77
379.093	40.57
379.301	40.08
379.51	40.08
379.718	39.98
379.927	39.48
380.135	39.43
380.344	39.31
380.552	39.63
380.761	40.24
380.969	39.44
381.177	39.08
381.386	38.75
381.594	39.02
381.803	39.06
382.011	38.65
382.219	38.72
382.428	38.21
382.636	38.29
382.845	38.15
383.053	37.26
383.261	37.36
383.469	37.24
383.678	37.69
383.886	37.97
384.094	38.04
384.302	37.36
384.511	37.87
384.719	38.09
384.927	37.3
385.135	37.06
385.343	37.49
385.552	37.31
385.76	37.6
385.968	37.17
386.176	36.74
386.384	36.3
386.592	37.04
386.8	36.68
387.008	36.54
387.216	36.75
387.424	37.04
387.633	36.69
387.841	36.41
388.049	35.89
388.257	35.76
388.465	35.85
388.672	35.89
388.88	35.46
389.088	35.34
389.296	35.27
389.504	35.07
389.712	34.78
389.92	34.83
390.128	34.89
390.336	34.8
390.544	34.64
390.751	34.34
390.959	33.9
391.167	34.23
391.375	33.73
391.583	33.54
391.79	33.37
391.998	32.93
392.206	32.57
392.414	32.49
392.621	32.27
392.829	32.2
393.037	32.03
393.244	31.83
393.452	31.34
393.66	31.76
393.867	32.06
394.075	32.11
394.283	32.06
394.49	32.09
394.698	32.17
394.905	32.25
395.113	32.32
395.32	32.1
395.528	32.32
395.735	32.31
395.943	32.19
396.15	31.44
396.358	30.96
396.565	31.51
396.773	31.58
396.98	31.61
397.188	31.69
397.395	31.58
397.602	31.75
397.81	31.7
398.017	31.74
398.225	31.63
398.432	31.93
398.639	32.21
398.847	31.65
399.054	31.66
399.261	31.54
399.468	31.41
399.676	31.54
399.883	31.56
400.09	31.72
400.297	31.73
400.505	31.55
400.712	31.73
400.919	31.93
401.126	32.01
401.333	31.95
401.54	31.75
401.748	31.93
401.955	31.66
402.162	31.61
402.369	31.83
402.576	31.65
402.783	31.76
402.99	31.39
403.197	31.28
403.404	31.41
403.611	31.16
403.818	30.99
404.025	30.81
404.232	30.85
404.439	30.52
404.646	30.16
404.853	30.19
405.06	29.88
405.267	30.1
405.474	30.16
405.681	29.94
405.887	30.15
406.094	30.55
406.301	30.46
406.508	30.28
406.715	30.52
406.922	30.21
407.128	29.63
407.335	29.75
407.542	29.65
407.749	29.57
407.955	29.41
408.162	28.99
408.369	28.51
408.575	28.74
408.782	28.71
408.989	28.74
409.195	28.76
409.402	29.48
409.609	29.48
409.815	29.63
410.022	29.39
410.228	29.43
410.435	29.94
410.642	29.88
410.848	29.57
411.055	29.68
411.261	29.45
411.468	29.72
411.674	29.42
411.881	29.52
412.087	29.36
412.294	29.31
412.5	29.51
412.706	29.48
412.913	29.68
413.119	29.43
413.326	29.45
413.532	29.93
413.738	29.48
413.945	29.74
414.151	29.8
414.357	29.59
414.564	29.73
414.77	29.59
414.976	29.34
415.182	28.99
415.389	29
415.595	28.71
415.801	28.14
416.007	28.35
416.214	28.27
416.42	28.22
416.626	28.2
416.832	28
417.038	27.92
417.244	27.89
417.45	28.1
417.657	28.13
417.863	28.23
418.069	28.12
418.275	28.21
418.481	28.01
418.687	27.87
418.893	27.76
419.099	27.81
419.305	27.91
419.511	27.8
419.717	27.65
419.923	27.58
420.129	27.46
420.335	27.56
420.541	27.41
420.746	27.43
420.952	27.49
421.158	27.38
421.364	27.38
421.57	27.26
421.776	27.22
421.982	27.32
422.187	27.41
422.393	27.48
422.599	27.4
422.805	27.48
423.01	27.38
423.216	27.24
423.422	27.37
423.628	27.25
423.833	27.12
424.039	27.08
424.245	27.01
424.45	26.87
424.656	26.8
424.862	26.75
425.067	26.45
425.273	26.52
425.478	26.43
425.684	26.32
425.889	26.31
426.095	26.25
426.301	26.28
426.506	26.2
426.712	26.31
426.917	26.34
427.123	26.39
427.328	26.62
427.533	26.52
427.739	26.66
427.944	26.72
428.15	26.61
428.355	26.83
428.561	26.79
428.766	26.79
428.971	26.88
429.177	26.86
429.382	26.91
429.587	26.83
429.793	26.67
429.998	26.74
430.203	26.95
430.408	26.92
430.614	26.87
430.819	26.93
431.024	27.19
431.229	26.96
431.434	27.01
431.64	27.01
431.845	26.95
432.05	26.87
432.255	26.86
432.46	26.67
432.665	26.9
432.87	26.8
433.076	26.85
433.281	26.71
433.486	26.62
433.691	26.54
433.896	26.49
434.101	26.51
434.306	26.7
434.511	26.57
434.716	26.46
434.921	26.35
435.126	26.38
435.331	26.3
435.535	26.1
435.74	26.11
435.945	26.13
436.15	26.06
436.355	26.17
436.56	26.09
436.765	26.06
436.97	26.06
437.174	26.08
437.379	26.12
437.584	26.02
437.789	26.23
437.993	26.32
438.198	26.38
438.403	26.31
438.608	26.26
438.812	26.43
439.017	26.48
439.222	26.72
439.426	26.78
439.631	26.74
439.836	26.74
440.04	26.63
440.245	26.72
440.45	26.63
440.654	26.77
440.859	26.74
441.063	26.66
441.268	26.62
441.472	26.53
441.677	26.39
441.881	26.3
442.086	26.37
442.29	26.4
442.495	26.36
442.699	26.34
442.904	26.24
443.108	26.11
443.312	26.12
443.517	26
443.721	26.06
443.925	26.01
444.13	26.11
444.334	26.12
444.538	26.16
444.743	26.06
444.947	26.05
445.151	25.99
445.356	26
445.56	25.91
445.764	26.01
445.968	25.95
446.173	25.89
446.377	25.86
446.581	25.74
446.785	25.71
446.989	25.63
447.193	25.68
447.398	25.85
447.602	26
447.806	26.11
448.01	25.96
448.214	25.95
448.418	26.05
448.622	25.98
448.826	26.08
449.03	26.12
449.234	26.26
449.438	26.39
449.642	26.35
449.846	26.22
450.05	25.95
450.254	26.2
450.458	26.17
450.662	26.17
450.866	26.18
451.069	26.2
451.273	26.06
451.477	26.02
451.681	25.7
451.885	25.5
452.089	25.56
452.292	25.82
452.496	25.66
452.7	25.52
452.904	25.56
453.107	25.64
453.311	25.53
453.515	25.61
453.719	25.45
453.922	25.48
454.126	25.54
454.33	25.61
454.533	25.4
454.737	25.46
454.94	25.73
455.144	25.81
455.348	25.94
455.551	25.98
455.755	25.92
455.958	26.08
456.162	25.98
456.365	26.04
456.569	25.94
456.772	25.95
456.976	25.97
457.179	25.99
457.383	25.85
457.586	25.65
457.79	25.64
457.993	25.52
458.196	25.48
458.4	25.65
458.603	25.61
458.807	25.53
459.01	25.53
