Data from 2938041_Reflection_3.txt Node
Date: Sun Jul 12 14:38:13 EDT 2015
User: robert
Spectrometer: USB4E03001
Autoset integration time: false
Trigger mode: 4
Integration Time (sec): 1.000000E-1
Scans to average: 10
Electric dark correction enabled: true
Nonlinearity correction enabled: false
Boxcar width: 5
Stray light correction enabled: false
XAxis mode: Wavelengths
Stop averaging: false
Number of Pixels in Spectrum: 3648
>>>>>Begin Spectral Data<<<<<
177.566	126.03
177.785	134.79
178.005	-912.5
178.225	71.54
178.445	34.35
178.665	16
178.885	-5.96
179.105	149.49
179.324	286.79
179.544	-474.37
179.764	709.97
179.984	-165.31
180.204	-23.67
180.423	11.69
180.643	-27.07
180.863	33.09
181.083	52.01
181.302	55.18
181.522	31.08
181.742	47.57
181.961	49.24
182.181	29.63
182.401	38.1
182.621	66.51
182.84	82.11
183.06	81.23
183.279	40.54
183.499	34.59
183.719	30.08
183.938	64.35
184.158	73.62
184.377	71.73
184.597	95.6
184.816	72.67
185.036	53.87
185.256	73.78
185.475	71.98
185.695	65.29
185.914	67.25
186.134	62.69
186.353	66.83
186.572	70.65
186.792	73.89
187.011	64.57
187.231	96.96
187.45	50.41
187.67	21.53
187.889	48.29
188.108	64.21
188.328	82.84
188.547	82.17
188.766	94.18
188.986	95.9
189.205	92.13
189.424	103.32
189.644	66.12
189.863	161.73
190.082	118.55
190.302	168.19
190.521	255.24
190.74	209.17
190.959	207.84
191.178	243.32
191.398	249.79
191.617	848.79
191.836	258.77
192.055	405.41
192.274	859.6
192.494	688.18
192.713	1656.18
192.932	-2893.31
193.151	435.94
193.37	-59755.56
193.589	170.36
193.808	96.94
194.027	12.13
194.246	-32.4
194.465	-135.62
194.685	-53.38
194.904	-289.94
195.123	-198.94
195.342	-453.83
195.561	2526.44
195.78	505.86
195.999	268.51
196.218	345.38
196.436	-298.47
196.655	50.86
196.874	111.7
197.093	78.28
197.312	85.86
197.531	69.36
197.75	76.3
197.969	93.3
198.188	81.66
198.407	72.43
198.625	85.8
198.844	76.49
199.063	78.34
199.282	66.57
199.501	47.12
199.719	56.68
199.938	65.2
200.157	55.2
200.376	59.85
200.594	55.54
200.813	59.14
201.032	36.81
201.251	58.42
201.469	57.16
201.688	67.32
201.907	80.66
202.125	86.15
202.344	64.51
202.563	63.91
202.781	47.2
203	87.85
203.218	80.79
203.437	84.91
203.656	95.44
203.874	79.11
204.093	72.84
204.311	67.45
204.53	44.99
204.748	49.6
204.967	38.69
205.185	22.46
205.404	-243.95
205.622	236
205.841	214.26
206.059	1022.25
206.278	270.07
206.496	109.8
206.715	-651.68
206.933	-24.98
207.151	-389.5
207.37	72.97
207.588	50.54
207.806	57.09
208.025	39.45
208.243	57.93
208.461	65.1
208.68	39.9
208.898	53.86
209.116	74.2
209.335	51.72
209.553	53.39
209.771	58.98
209.989	82.82
210.208	72.81
210.426	102.79
210.644	91.01
210.862	185.63
211.081	246.4
211.299	128.17
211.517	385.95
211.735	1184.19
211.953	718.33
212.171	148.44
212.39	23.86
212.608	16.75
212.826	131.8
213.044	58.29
213.262	36.13
213.48	63.33
213.698	120.97
213.916	106.21
214.134	98.35
214.352	81.07
214.57	83.73
214.788	57.56
215.006	85.06
215.224	74.69
215.442	58.04
215.66	56.86
215.878	57.18
216.096	11.91
216.314	-25.98
216.532	-26.33
216.75	53.5
216.968	59.2
217.185	60.9
217.403	37.36
217.621	50.8
217.839	67.48
218.057	34.85
218.275	43.64
218.492	65.54
218.71	63.38
218.928	60.37
219.146	53.57
219.363	58.82
219.581	66.68
219.799	73.2
220.017	67.46
220.234	67.56
220.452	67.25
220.67	67.27
220.887	74.89
221.105	97.66
221.323	97.31
221.54	80.57
221.758	76.89
221.976	63.26
222.193	49.01
222.411	55.88
222.629	68.54
222.846	82.98
223.064	51.71
223.281	57.35
223.499	53.72
223.716	42.95
223.934	48.02
224.151	18.35
224.369	24.07
224.586	44.04
224.804	43.29
225.021	43.47
225.239	42.59
225.456	46.15
225.674	31.62
225.891	18.35
226.108	22.91
226.326	18.86
226.543	32.83
226.76	28.11
226.978	9.62
227.195	13.68
227.413	15.5
227.63	23.44
227.847	18.34
228.064	15.29
228.282	18.66
228.499	15.09
228.716	11.23
228.934	13.7
229.151	15.09
229.368	16.27
229.585	17.32
229.802	15.23
230.02	8.64
230.237	9.52
230.454	12.18
230.671	14.33
230.888	14.6
231.105	17.35
231.323	12.84
231.54	11.73
231.757	10.26
231.974	6.32
232.191	8.71
232.408	16.47
232.625	20.58
232.842	22.62
233.059	18.67
233.276	19.1
233.493	16.63
233.71	21.19
233.927	23.45
234.144	26.86
234.361	32.68
234.578	29.46
234.795	28.08
235.012	21.58
235.229	18.77
235.446	14.92
235.663	17.33
235.879	18.72
236.096	15.84
236.313	15.02
236.53	11.85
236.747	12.13
236.964	11.54
237.181	17.72
237.397	18.63
237.614	20.15
237.831	25.16
238.048	21.31
238.264	22.4
238.481	24.06
238.698	21.41
238.915	22.53
239.131	17.99
239.348	18.23
239.565	12.58
239.781	17.26
239.998	18.8
240.215	19.57
240.431	19.03
240.648	19.69
240.865	18.42
241.081	18.24
241.298	15.38
241.514	17.66
241.731	16.55
241.947	17.27
242.164	16.28
242.38	16.11
242.597	14.28
242.814	15.37
243.03	15.01
243.246	14.12
243.463	12.4
243.679	14.51
243.896	11.59
244.112	11.31
244.329	8.86
244.545	7.42
244.762	5.91
244.978	7.49
245.194	5.32
245.411	6.67
245.627	8.77
245.843	11.73
246.06	8.06
246.276	10.88
246.492	11.81
246.709	12.25
246.925	11.66
247.141	11.08
247.357	10.05
247.574	10.85
247.79	10.09
248.006	9.61
248.222	8.6
248.439	8.98
248.655	8.47
248.871	8.37
249.087	8.8
249.303	9.65
249.519	9.12
249.736	10
249.952	8.79
250.168	9.95
250.384	10.83
250.6	10.37
250.816	11.94
251.032	12.51
251.248	10.76
251.464	10.34
251.68	10.65
251.896	12
252.112	11.88
252.328	12.14
252.544	10.32
252.76	7.56
252.976	8.68
253.192	7.3
253.408	5.04
253.624	3.61
253.84	2.55
254.056	2.51
254.272	-0.19
254.487	-2.45
254.703	-1.88
254.919	-0.32
255.135	5.32
255.351	3.96
255.567	7.06
255.782	8.19
255.998	11.6
256.214	13.97
256.43	8.66
256.646	12.96
256.861	16.35
257.077	14.46
257.293	11.46
257.508	7.98
257.724	11
257.94	10.84
258.155	10.04
258.371	9.29
258.587	7.89
258.802	10.8
259.018	9.38
259.234	8.83
259.449	8.95
259.665	9.44
259.88	10.04
260.096	9.85
260.312	9.3
260.527	9.41
260.743	9.68
260.958	9.83
261.174	8.87
261.389	10.23
261.605	10.21
261.82	9.91
262.036	10.4
262.251	10.31
262.466	11.1
262.682	11.88
262.897	12.34
263.113	11.98
263.328	11.21
263.543	12.05
263.759	8.6
263.974	8.23
264.189	10.87
264.405	10.65
264.62	9.96
264.835	7.55
265.051	8.53
265.266	9.55
265.481	9.55
265.696	10.5
265.912	9.77
266.127	11.88
266.342	12.68
266.557	10.45
266.773	9.29
266.988	9.93
267.203	8.17
267.418	8.66
267.633	6.86
267.848	6.8
268.064	5.57
268.279	6.26
268.494	4.95
268.709	2.99
268.924	2.91
269.139	3.29
269.354	4.41
269.569	6.01
269.784	4.58
269.999	5.52
270.214	5.77
270.429	7.38
270.644	6.37
270.859	6.47
271.074	6.7
271.289	8.09
271.504	8.41
271.719	7.21
271.934	6.97
272.149	7.16
272.363	6.9
272.578	7.62
272.793	7.11
273.008	8.11
273.223	9.28
273.438	9.4
273.653	9.04
273.867	9.27
274.082	9.89
274.297	9.96
274.512	9.66
274.726	8.94
274.941	8.57
275.156	9.75
275.371	9.05
275.585	7.5
275.8	6.25
276.015	4.69
276.229	5.26
276.444	4.57
276.659	3.73
276.873	4.06
277.088	4.98
277.302	4.36
277.517	2.6
277.732	3.04
277.946	3.25
278.161	5.9
278.375	6.41
278.59	4.55
278.804	4.74
279.019	4.97
279.233	3.83
279.448	3.57
279.662	3.67
279.877	3.46
280.091	2.35
280.306	2.13
280.52	0.13
280.735	0.74
280.949	0.37
281.163	1.54
281.378	2.54
281.592	3.6
281.806	3.89
282.021	3.96
282.235	3.9
282.449	4.86
282.664	3.94
282.878	4.42
283.092	5.03
283.307	5.37
283.521	4.59
283.735	4.87
283.949	5.46
284.164	6.29
284.378	8.03
284.592	8.8
284.806	7.89
285.02	8.22
285.234	8.71
285.449	6.97
285.663	7.78
285.877	7.93
286.091	8.16
286.305	6.79
286.519	6.42
286.733	4.5
286.947	4.13
287.161	3.54
287.375	4.45
287.589	4.21
287.803	5.57
288.017	5.68
288.231	4.81
288.445	3.86
288.659	4.95
288.873	4.49
289.087	5.77
289.301	5.1
289.515	6.53
289.729	5.39
289.943	5.89
290.157	5.25
290.371	5.71
290.584	5.52
290.798	5.89
291.012	5.77
291.226	6.36
291.44	6.41
291.654	7.17
291.867	6.54
292.081	7.46
292.295	6.12
292.509	7.81
292.722	6.25
292.936	7.51
293.15	7.41
293.364	8.29
293.577	8.85
293.791	9.44
294.005	10.51
294.218	11.22
294.432	11.3
294.645	12.22
294.859	10.67
295.073	11.07
295.286	12.13
295.5	12.43
295.713	12.06
295.927	11.8
296.14	10.42
296.354	10
296.568	10.48
296.781	10.9
296.994	10.52
297.208	10.76
297.421	11.58
297.635	10.19
297.848	8.67
298.062	8.7
298.275	8.54
298.489	9.23
298.702	9.46
298.915	8.42
299.129	8.16
299.342	8.78
299.555	9.72
299.769	8.35
299.982	10.13
300.195	12.38
300.409	11.56
300.622	11.58
300.835	11.53
301.048	10.1
301.262	9.99
301.475	8.24
301.688	7.47
301.901	6.41
302.115	6.81
302.328	4.26
302.541	4.36
302.754	3.76
302.967	3.32
303.18	3.71
303.393	5
303.607	5.69
303.82	5.92
304.033	7.17
304.246	7.68
304.459	9.07
304.672	9.83
304.885	8.61
305.098	10.38
305.311	11.53
305.524	10.89
305.737	10.33
305.95	10.31
306.163	12.13
306.376	11.61
306.589	11.58
306.802	9.93
307.015	9.44
307.228	13.09
307.44	13.29
307.653	13
307.866	14.14
308.079	15.7
308.292	15.26
308.505	13.69
308.718	12.8
308.93	12.54
309.143	12.11
309.356	13.7
309.569	12.23
309.781	11.95
309.994	11.73
310.207	12.41
310.42	12.39
310.632	12.63
310.845	14.5
311.058	15.14
311.27	15.82
311.483	15.94
311.696	16.38
311.908	17.7
312.121	17.91
312.333	18.1
312.546	17.19
312.759	16.66
312.971	16.48
313.184	16.01
313.396	16.15
313.609	16.06
313.821	18.36
314.034	17.07
314.246	15.19
314.459	15.68
314.671	15
314.884	14.81
315.096	14.94
315.309	17.16
315.521	16.1
315.733	16.1
315.946	14.62
316.158	14.8
316.371	14.98
316.583	15.02
316.795	14.19
317.008	14.72
317.22	15.02
317.432	14.87
317.644	13.89
317.857	14.83
318.069	14.04
318.281	15.81
318.494	15.4
318.706	15.94
318.918	16.42
319.13	15.16
319.342	15.32
319.555	15.21
319.767	15.76
319.979	15.38
320.191	15.06
320.403	17.1
320.615	17.22
320.827	16.3
321.039	16.63
321.252	16.37
321.464	17.77
321.676	17.15
321.888	16.77
322.1	15.9
322.312	16.59
322.524	16.94
322.736	16.75
322.948	17.61
323.16	17.73
323.372	18.64
323.584	18.42
323.796	18.2
324.007	19.12
324.219	20.08
324.431	20.17
324.643	19.81
324.855	19.63
325.067	19.83
325.279	19.95
325.491	20.13
325.702	19.75
325.914	20.9
326.126	22.13
326.338	22.84
326.55	23.77
326.761	24.05
326.973	24.67
327.185	25.32
327.396	25.51
327.608	24.81
327.82	25.63
328.032	25.69
328.243	24.35
328.455	23.71
328.666	23.24
328.878	23.05
329.09	24.05
329.301	25.14
329.513	27.26
329.725	27.93
329.936	29.93
330.148	29.91
330.359	28.93
330.571	29.88
330.782	29.3
330.994	31.34
331.205	30.91
331.417	32.25
331.628	31.69
331.84	30.8
332.051	32.49
332.262	31.07
332.474	32.76
332.685	33.38
332.897	33.93
333.108	35.47
333.319	35.09
333.531	34.96
333.742	34.23
333.953	33.69
334.165	33.05
334.376	32.01
334.587	33.24
334.799	33.12
335.01	34.42
335.221	34.52
335.432	35.02
335.644	33.69
335.855	33.94
336.066	34.41
336.277	34.79
336.488	35.18
336.7	35.49
336.911	34.91
337.122	35.13
337.333	35.07
337.544	34.44
337.755	35.11
337.966	36.23
338.177	36.55
338.388	36.2
338.599	37.2
338.811	37.25
339.022	36.63
339.233	37.46
339.444	37.63
339.655	36.44
339.866	37.81
340.076	36.84
340.287	36.77
340.498	37.06
340.709	38.06
340.92	38.24
341.131	37.88
341.342	38.3
341.553	38.21
341.764	36.51
341.975	37.23
342.185	37.15
342.396	36.66
342.607	37.64
342.818	37.71
343.029	38.27
343.239	37.76
343.45	38.89
343.661	38.73
343.872	38.77
344.082	39.38
344.293	39.22
344.504	39.15
344.714	40.04
344.925	40.07
345.136	39.58
345.346	38.21
345.557	37.85
345.768	37.42
345.978	37.66
346.189	38.23
346.399	38.49
346.61	39.89
346.821	40.37
347.031	41.11
347.242	40.79
347.452	41.12
347.663	42.17
347.873	43.04
348.084	44.05
348.294	43.46
348.504	43.02
348.715	43.08
348.925	42.39
349.136	41.76
349.346	41.24
349.557	40.95
349.767	41.2
349.977	40.3
350.188	41.17
350.398	41.26
350.608	41.89
350.819	41.33
351.029	41.46
351.239	42.24
351.449	43.08
351.66	43.4
351.87	43.52
352.08	43.09
352.29	44.22
352.501	44.14
352.711	43.74
352.921	43.85
353.131	43.83
353.341	44.65
353.552	43.2
353.762	42.42
353.972	41.88
354.182	41.79
354.392	42.16
354.602	41.16
354.812	40.21
355.022	39.91
355.232	39.79
355.442	39.99
355.652	38.86
355.862	39.59
356.072	40.2
356.282	40.23
356.492	39.65
356.702	40
356.912	39.68
357.122	40.66
357.332	41.26
357.542	41.73
357.752	41.61
357.962	41.44
358.171	41.46
358.381	40.44
358.591	40.42
358.801	41.43
359.011	40.75
359.221	41.75
359.43	41.02
359.64	39.89
359.85	39.87
360.06	40.09
360.269	40.49
360.479	40.12
360.689	40.78
360.899	40.53
361.108	39.96
361.318	40.56
361.528	39.85
361.737	40.29
361.947	40.23
362.156	40.44
362.366	40.63
362.576	40.78
362.785	41.04
362.995	41.26
363.204	41.56
363.414	41.8
363.623	41.71
363.833	41.82
364.042	41.36
364.252	42.02
364.461	41.52
364.671	41.25
364.88	40.93
365.09	40.57
365.299	39.72
365.509	39.85
365.718	39.73
365.927	39.9
366.137	40.87
366.346	41.6
366.555	41.53
366.765	41.6
366.974	41.49
367.183	41.53
367.393	41.98
367.602	42.31
367.811	41.57
368.021	41.21
368.23	40.76
368.439	39.74
368.648	38.53
368.857	37.72
369.067	37.49
369.276	37.54
369.485	37.65
369.694	37.51
369.903	36.79
370.112	36.76
370.321	36.84
370.531	36.44
370.74	35.99
370.949	36.46
371.158	37.2
371.367	37.89
371.576	37.97
371.785	37.17
371.994	37.02
372.203	37.58
372.412	37.94
372.621	37.6
372.83	37.65
373.039	38.21
373.248	37.47
373.457	37.41
373.666	36.42
373.874	35.48
374.083	36.29
374.292	36.14
374.501	36.18
374.71	35.73
374.919	35.99
375.128	36.47
375.336	35.35
375.545	35.98
375.754	35.56
375.963	35.31
376.171	36.35
376.38	35.9
376.589	35.3
376.798	35.02
377.006	35.12
377.215	34.62
377.424	33.8
377.632	33.99
377.841	33.64
378.05	33.84
378.258	34.26
378.467	33.35
378.675	33.65
378.884	34
379.093	33.91
379.301	33.56
379.51	34.07
379.718	34.23
379.927	34.46
380.135	34.41
380.344	34.27
380.552	34.08
380.761	34.59
380.969	34.24
381.177	33.63
381.386	33.5
381.594	33.38
381.803	32.71
382.011	32.73
382.219	32.93
382.428	32.72
382.636	32.24
382.845	32.08
383.053	31.71
383.261	32.36
383.469	32.57
383.678	32.43
383.886	32.58
384.094	33
384.302	33.08
384.511	32.92
384.719	32.97
384.927	32.62
385.135	32.62
385.343	32.78
385.552	32.05
385.76	32.59
385.968	32.2
386.176	32.03
386.384	31.54
386.592	31.32
386.8	31.31
387.008	30.87
387.216	30.93
387.424	30.83
387.633	30.37
387.841	30.59
388.049	30.06
388.257	30.43
388.465	30.39
388.672	30.53
388.88	30.53
389.088	30.36
389.296	30.27
389.504	30.29
389.712	30.25
389.92	30.18
390.128	30.47
390.336	30.25
390.544	29.86
390.751	29.71
390.959	29.74
391.167	29.82
391.375	29.62
391.583	29.65
391.79	29.68
391.998	29.24
392.206	29.42
392.414	28.6
392.621	28.5
392.829	28.65
393.037	28.94
393.244	28.77
393.452	28.32
393.66	28.53
393.867	28.63
394.075	28.44
394.283	28.67
394.49	28.76
394.698	28.93
394.905	29.13
395.113	28.99
395.32	28.25
395.528	28.28
395.735	28.41
395.943	28.19
396.15	28.16
396.358	28.19
396.565	28
396.773	27.87
396.98	27.96
397.188	27.8
397.395	28.16
397.602	28.7
397.81	28.82
398.017	28.84
398.225	28.89
398.432	28.92
398.639	29.17
398.847	29.38
399.054	29.1
399.261	28.88
399.468	29.27
399.676	29.1
399.883	29.2
400.09	29.33
400.297	29.59
400.505	29.58
400.712	29.59
400.919	29.51
401.126	29.36
401.333	29.19
401.54	29.55
401.748	29.34
401.955	28.93
402.162	28.86
402.369	28.5
402.576	28.41
402.783	28.34
402.99	28.43
403.197	28.18
403.404	28.51
403.611	29.26
403.818	29.2
404.025	29.19
404.232	29.33
404.439	29.2
404.646	29.29
404.853	29.4
405.06	29.48
405.267	29.16
405.474	29.53
405.681	29.38
405.887	28.9
406.094	29.02
406.301	28.78
406.508	28.76
406.715	28.73
406.922	28.9
407.128	28.95
407.335	28.84
407.542	29.22
407.749	28.76
407.955	28.66
408.162	28.9
408.369	28.74
408.575	29.02
408.782	29.18
408.989	29.37
409.195	29.17
409.402	28.71
409.609	28.9
409.815	28.79
410.022	29.3
410.228	29.46
410.435	29.22
410.642	28.76
410.848	28.77
411.055	28.6
411.261	28.27
411.468	28.66
411.674	28.71
411.881	28.53
412.087	28.6
412.294	28.23
412.5	28.07
412.706	28.43
412.913	28.74
413.119	28.6
413.326	28.67
413.532	28.95
413.738	28.59
413.945	28.64
414.151	28.83
414.357	28.75
414.564	28.84
414.77	28.89
414.976	28.48
415.182	28.67
415.389	28.77
415.595	28.71
415.801	28.48
416.007	28.47
416.214	28.38
416.42	28.18
416.626	27.94
416.832	28.04
417.038	27.97
417.244	27.89
417.45	27.72
417.657	27.52
417.863	27.58
418.069	27.51
418.275	27.31
418.481	27.31
418.687	27.4
418.893	27.5
419.099	27.54
419.305	27.43
419.511	27.58
419.717	27.34
419.923	27.19
420.129	27.07
420.335	27.19
420.541	27.11
420.746	27.1
420.952	27.01
421.158	26.96
421.364	26.69
421.57	26.71
421.776	26.65
421.982	26.79
422.187	26.92
422.393	27
422.599	26.84
422.805	27.05
423.01	27
423.216	27.16
423.422	27.2
423.628	27.38
423.833	27.33
424.039	27.31
424.245	27.13
424.45	27.11
424.656	27.05
424.862	27.09
425.067	26.97
425.273	26.89
425.478	26.72
425.684	26.62
425.889	26.49
426.095	26.62
426.301	26.5
426.506	26.48
426.712	26.36
426.917	26.39
427.123	26.46
427.328	26.39
427.533	26.61
427.739	26.54
427.944	26.62
428.15	26.68
428.355	26.45
428.561	26.43
428.766	26.64
428.971	26.71
429.177	26.45
429.382	26.4
429.587	26.4
429.793	26.41
429.998	26.6
430.203	26.38
430.408	26.39
430.614	26.34
430.819	26.3
431.024	26.23
431.229	26.32
431.434	26.34
431.64	26.25
431.845	26.47
432.05	26.39
432.255	26.17
432.46	26.3
432.665	26.15
432.87	26.18
433.076	26.42
433.281	26.48
433.486	26.42
433.691	26.54
433.896	26.6
434.101	26.41
434.306	26.45
434.511	26.37
434.716	26.3
434.921	26.33
435.126	26.33
435.331	26.25
435.535	26.18
435.74	26.17
435.945	26.23
436.15	26.13
436.355	26.19
436.56	26.06
436.765	26.22
436.97	26.22
437.174	26.19
437.379	26.37
437.584	26.24
437.789	26.27
437.993	26.3
438.198	26.17
438.403	26.24
438.608	26.16
438.812	26.03
439.017	25.98
439.222	25.94
439.426	26.04
439.631	26
439.836	25.97
440.04	25.92
440.245	26
440.45	26.08
440.654	26.02
440.859	25.92
441.063	25.93
441.268	25.92
441.472	25.92
441.677	25.75
441.881	25.55
442.086	25.53
442.29	25.61
442.495	25.41
442.699	25.27
442.904	25.32
443.108	25.38
443.312	25.58
443.517	25.52
443.721	25.6
443.925	25.59
444.13	25.65
444.334	25.76
444.538	25.71
444.743	25.62
444.947	25.71
445.151	25.65
445.356	25.52
445.56	25.46
445.764	25.46
445.968	25.3
446.173	25.41
446.377	25.44
446.581	25.35
446.785	25.29
446.989	25.5
447.193	25.44
447.398	25.46
447.602	25.66
447.806	25.62
448.01	25.66
448.214	25.69
448.418	25.5
448.622	25.4
448.826	25.45
449.03	25.34
449.234	25.19
449.438	25.27
449.642	25.15
449.846	25.03
450.05	24.89
450.254	24.89
450.458	25
450.662	25.23
450.866	25.24
451.069	25.06
451.273	25.31
451.477	25.33
451.681	25.17
451.885	25.5
452.089	25.55
452.292	25.8
452.496	25.83
452.7	25.83
452.904	25.72
453.107	25.8
453.311	25.85
453.515	25.7
453.719	25.58
453.922	25.79
454.126	25.36
454.33	25.28
454.533	25.17
454.737	24.99
454.94	25.07
455.144	25.12
455.348	25.02
455.551	25.16
455.755	25.25
455.958	25.44
456.162	25.14
456.365	25.37
456.569	25.49
456.772	25.47
456.976	25.46
457.179	25.27
457.383	25.26
457.586	25.15
457.79	25.22
457.993	25.09
458.196	25.11
458.4	25.26
458.603	25.21
458.807	25.19
459.01	25.19
459.213	25.37
459.417	25.48
459.62	25.47
459.823	25.56
