Data from 2938079_Reflection_3.txt Node
Date: Sat Jul 11 20:14:56 EDT 2015
User: robert
Spectrometer: USB4E03001
Autoset integration time: false
Trigger mode: 4
Integration Time (sec): 1.000000E-1
Scans to average: 10
Electric dark correction enabled: true
Nonlinearity correction enabled: false
Boxcar width: 5
Stray light correction enabled: false
XAxis mode: Wavelengths
Stop averaging: false
Number of Pixels in Spectrum: 3648
>>>>>Begin Spectral Data<<<<<
177.566	-218.1
177.785	-131.55
178.005	-166.4
178.225	-90.73
178.445	-38.56
178.665	1.26
178.885	106.35
179.105	-54.68
179.324	-867.88
179.544	-948.98
179.764	205.64
179.984	-1103.02
180.204	168.3
180.423	71.09
180.643	134.96
180.863	37.08
181.083	-228.34
181.302	-789.39
181.522	34.93
181.742	-34.86
181.961	-114.96
182.181	124.89
182.401	142.11
182.621	52.16
182.84	24.4
183.06	21.35
183.279	-148.87
183.499	163.66
183.719	135.31
183.938	126.69
184.158	161.23
184.377	110.42
184.597	108.98
184.816	124.63
185.036	128.06
185.256	119.62
185.475	121.93
185.695	153.79
185.914	177.56
186.134	260.09
186.353	243.29
186.572	249.03
186.792	306.81
187.011	-287.27
187.231	-216.85
187.45	-373.89
187.67	-177.17
187.889	-9.71
188.108	66.83
188.328	84.86
188.547	-473.75
188.766	633.95
188.986	110.28
189.205	-74.81
189.424	-222.12
189.644	-266.9
189.863	-295.13
190.082	252.66
190.302	484.03
190.521	-491.5
190.74	-231.31
190.959	-134.26
191.178	-138.61
191.398	-374.63
191.617	-314.12
191.836	95.13
192.055	76.66
192.274	-347.21
192.494	-83.32
192.713	-218.18
192.932	-832.67
193.151	-2121.63
193.37	-599.64
193.589	-344.55
193.808	-268.6
194.027	-193.95
194.246	-27.76
194.465	-81.02
194.685	-107.92
194.904	-210.64
195.123	-147.69
195.342	-167.59
195.561	-383.15
195.78	-1224.96
195.999	-451.12
196.218	264.89
196.436	165.26
196.655	171.88
196.874	282.47
197.093	147.26
197.312	134.03
197.531	118.12
197.75	87.89
197.969	141.43
198.188	127.4
198.407	132.34
198.625	1439.24
198.844	-289.99
199.063	-119.03
199.282	577.7
199.501	-89.33
199.719	-316.79
199.938	-4861.04
200.157	1064.89
200.376	434.05
200.594	358.87
200.813	344.68
201.032	310.84
201.251	215.85
201.469	187.58
201.688	217.25
201.907	148.25
202.125	137.72
202.344	119.16
202.563	100.62
202.781	87.32
203	107.49
203.218	138.78
203.437	89.24
203.656	126.66
203.874	36.94
204.093	63.2
204.311	-74.13
204.53	-81.06
204.748	-60.43
204.967	0.92
205.185	19.42
205.404	-13.53
205.622	30.95
205.841	-73.43
206.059	-1444.17
206.278	997.91
206.496	-2851.95
206.715	-212.54
206.933	-102.78
207.151	-161.59
207.37	988.02
207.588	338.49
207.806	314.11
208.025	5.75
208.243	99.13
208.461	49.89
208.68	60.32
208.898	-991.93
209.116	-63.49
209.335	-97.38
209.553	-78.23
209.771	-227.82
209.989	-33.12
210.208	-92.66
210.426	15.17
210.644	-36.52
210.862	53.48
211.081	72.36
211.299	77.51
211.517	212.81
211.735	124.11
211.953	199.03
212.171	281.12
212.39	3849.06
212.608	200.96
212.826	1292.86
213.044	309.96
213.262	-9.63
213.48	201.29
213.698	211.94
213.916	73.05
214.134	-53.15
214.352	199.33
214.57	-50.15
214.788	89.42
215.006	-21.86
215.224	249.19
215.442	157.17
215.66	1299.34
215.878	229.75
216.096	217.8
216.314	192.66
216.532	294.4
216.75	286.38
216.968	473.63
217.185	-17103.17
217.403	940.21
217.621	573.98
217.839	519.09
218.057	246.48
218.275	834.58
218.492	-655.95
218.71	-151.32
218.928	-43.01
219.146	-61.41
219.363	85.27
219.581	-119.12
219.799	407.32
220.017	-151.33
220.234	-1.76
220.452	159.27
220.67	865.86
220.887	-143.93
221.105	-69.81
221.323	-246.02
221.54	-122.69
221.758	-133.04
221.976	-180.87
222.193	-556.31
222.411	-190.07
222.629	-143.22
222.846	-153
223.064	-126.44
223.281	-98.88
223.499	-82.04
223.716	-31.99
223.934	-98.75
224.151	-101.2
224.369	-90.36
224.586	-64.19
224.804	-62.11
225.021	-57.71
225.239	-31.04
225.456	-23.41
225.674	-67.1
225.891	-40.25
226.108	-4.86
226.326	6.92
226.543	-0.38
226.76	5.43
226.978	8.65
227.195	-1.36
227.413	-9.96
227.63	-7.84
227.847	-3.34
228.064	1.62
228.282	-0.06
228.499	-8.53
228.716	-9.84
228.934	-6.24
229.151	-4.55
229.368	-4.07
229.585	-2.17
229.802	1.32
230.02	1.23
230.237	0.65
230.454	-1.77
230.671	-2.88
230.888	-2.61
231.105	-0.36
231.323	-1.15
231.54	-6.77
231.757	-11.95
231.974	-9.12
232.191	-13.03
232.408	-13.32
232.625	-15.81
232.842	-15.18
233.059	-12.39
233.276	-12.62
233.493	-13.04
233.71	-6.59
233.927	-6.33
234.144	-3.58
234.361	-10.33
234.578	-6.21
234.795	-7.6
235.012	-8.93
235.229	-2.63
235.446	-9.43
235.663	-10.92
235.879	-9.14
236.096	-11.17
236.313	-3.85
236.53	1.13
236.747	2.44
236.964	-9.03
237.181	-10.36
237.397	-6.91
237.614	-15.72
237.831	-10.38
238.048	-12.06
238.264	-13.17
238.481	-6.87
238.698	-4.66
238.915	-4.57
239.131	2.17
239.348	3.08
239.565	2.05
239.781	-0.21
239.998	-5.55
240.215	-4.37
240.431	0.06
240.648	-0.72
240.865	-3.25
241.081	-2.98
241.298	-0.99
241.514	-0.82
241.731	1.93
241.947	3.24
242.164	3.16
242.38	4.27
242.597	3.18
242.814	3.33
243.03	3.41
243.246	3.75
243.463	2.66
243.679	2
243.896	-0.97
244.112	-3.53
244.329	-4.98
244.545	-5.52
244.762	-5.16
244.978	-4.46
245.194	-8.31
245.411	-9.96
245.627	-10.07
245.843	-8.68
246.06	-7.88
246.276	-6.62
246.492	-3.31
246.709	-2.62
246.925	-2.01
247.141	-1.68
247.357	-1.39
247.574	0.52
247.79	1.19
248.006	2.1
248.222	2.08
248.439	1.57
248.655	2.67
248.871	1.17
249.087	3.02
249.303	4.52
249.519	4.82
249.736	4.11
249.952	2.61
250.168	4.16
250.384	3.46
250.6	3.13
250.816	1.21
251.032	-0.93
251.248	1.49
251.464	-1.08
251.68	-3.5
251.896	-3.45
252.112	-3.84
252.328	-0.61
252.544	-2.84
252.76	-3.4
252.976	-5.99
253.192	-2.13
253.408	-2.06
253.624	-3.03
253.84	-5.38
254.056	-5.96
254.272	-8.52
254.487	-8.87
254.703	-17.33
254.919	-14.35
255.135	-13.16
255.351	-15.13
255.567	-17.1
255.782	-15.61
255.998	-17.12
256.214	-14.42
256.43	-11.27
256.646	-6.39
256.861	-5.75
257.077	-3.19
257.293	-6.6
257.508	-7.48
257.724	-0.2
257.94	0.98
258.155	0.61
258.371	0.54
258.587	0.2
258.802	0.95
259.018	0.28
259.234	0.33
259.449	0.34
259.665	1.13
259.88	1.91
260.096	1.92
260.312	0.81
260.527	0.28
260.743	-0.01
260.958	0.15
261.174	-0.56
261.389	0.12
261.605	1.21
261.82	0.43
262.036	0.57
262.251	-0.83
262.466	-1.48
262.682	0.18
262.897	2.1
263.113	2
263.328	2.72
263.543	1.97
263.759	-0.02
263.974	1.44
264.189	3.48
264.405	0.82
264.62	0.9
264.835	-0.15
265.051	-2.17
265.266	-2.96
265.481	-3.43
265.696	-5.28
265.912	-3.54
266.127	-3.17
266.342	-5.11
266.557	-6.3
266.773	-4.63
266.988	-3.59
267.203	-4.95
267.418	-4.46
267.633	-5.27
267.848	-5.12
268.064	-3.31
268.279	-3.54
268.494	-2.4
268.709	-2.95
268.924	-2.17
269.139	-0.61
269.354	-0.22
269.569	1.26
269.784	1.14
269.999	0.39
270.214	1.21
270.429	1.82
270.644	1.75
270.859	-0.01
271.074	0.72
271.289	0.9
271.504	-0.27
271.719	-0.8
271.934	-1.17
272.149	-0.2
272.363	1.1
272.578	1.04
272.793	-0.33
273.008	1.16
273.223	2.7
273.438	2.31
273.653	2.04
273.867	1.64
274.082	1.9
274.297	2.47
274.512	1.3
274.726	-0.1
274.941	0.02
275.156	-1.28
275.371	-3.59
275.585	-6.16
275.8	-6.04
276.015	-6.07
276.229	-4.99
276.444	-5.07
276.659	-5.73
276.873	-4.94
277.088	-3.58
277.302	-2.96
277.517	-0.23
277.732	1.12
277.946	2.96
278.161	3.56
278.375	4.38
278.59	3.13
278.804	1.93
279.019	0.28
279.233	-0.47
279.448	-2.69
279.662	-2.62
279.877	-2.58
280.091	-2.9
280.306	-4.32
280.52	-4.33
280.735	-5.04
280.949	-3.43
281.163	-1.32
281.378	0.2
281.592	0.77
281.806	1.6
282.021	2.09
282.235	0.31
282.449	-1.54
282.664	-0.51
282.878	-1.1
283.092	-0.09
283.307	-2.54
283.521	-4.62
283.735	-5.72
283.949	-6.91
284.164	-5.68
284.378	-6.98
284.592	-3.46
284.806	-1.52
285.02	-1.67
285.234	-0.72
285.449	-1.31
285.663	-0.24
285.877	0.86
286.091	1.71
286.305	2.91
286.519	3.29
286.733	3.58
286.947	1.55
287.161	0.8
287.375	0.71
287.589	0.8
287.803	0.91
288.017	3.53
288.231	3.14
288.445	2.12
288.659	1
288.873	1.34
289.087	3.57
289.301	4.85
289.515	3.85
289.729	3.37
289.943	2.75
290.157	2.78
290.371	1.72
290.584	0.77
290.798	0.92
291.012	1.56
291.226	1.75
291.44	0.42
291.654	-0.63
291.867	0.83
292.081	1.7
292.295	1.7
292.509	1.26
292.722	-0.29
292.936	1.92
293.15	3.55
293.364	1.79
293.577	1.29
293.791	0.3
294.005	0.49
294.218	-2.24
294.432	-1.07
294.645	-2.27
294.859	-0.57
295.073	0.96
295.286	0.76
295.5	0.52
295.713	1.7
295.927	1.93
296.14	2.72
296.354	3.69
296.568	6.47
296.781	4.82
296.994	6.85
297.208	6.32
297.421	5.51
297.635	5.81
297.848	6
298.062	6.19
298.275	6.27
298.489	6.53
298.702	5.72
298.915	4.16
299.129	4.3
299.342	2.85
299.555	2.39
299.769	2.46
299.982	2.99
300.195	3.27
300.409	4.08
300.622	3.44
300.835	1.85
301.048	2.13
301.262	3.75
301.475	5.48
301.688	5.66
301.901	6.2
302.115	6.11
302.328	4.43
302.541	3.81
302.754	3.63
302.967	2.76
303.18	4.33
303.393	4.78
303.607	4.76
303.82	6.04
304.033	7.14
304.246	6.3
304.459	6.74
304.672	4.72
304.885	5.6
305.098	6.34
305.311	7.14
305.524	9.8
305.737	8.14
305.95	7.14
306.163	4.42
306.376	3.88
306.589	5.05
306.802	6.4
307.015	9.87
307.228	8.85
307.44	8.15
307.653	8.49
307.866	5.02
308.079	6.56
308.292	6.5
308.505	8.68
308.718	8.33
308.93	7.69
309.143	7.98
309.356	7.38
309.569	8.87
309.781	8.87
309.994	9.12
310.207	10.34
310.42	10.66
310.632	11
310.845	10.79
311.058	11.2
311.27	11.92
311.483	10.66
311.696	10.08
311.908	9.83
312.121	9.9
312.333	9.4
312.546	8.75
312.759	8
312.971	7.78
313.184	8.16
313.396	7.24
313.609	7.08
313.821	7.46
314.034	6.69
314.246	6.08
314.459	7.17
314.671	9.41
314.884	8.6
315.096	10.53
315.309	9.73
315.521	7.24
315.733	6.71
315.946	7.44
316.158	8.18
316.371	8.64
316.583	8.38
316.795	6.61
317.008	6.43
317.22	7.21
317.432	5.71
317.644	8.48
317.857	8.48
318.069	10.86
318.281	9.17
318.494	7.73
318.706	9.97
318.918	10.14
319.13	10.29
319.342	9.45
319.555	10.05
319.767	10.79
319.979	8.04
320.191	8.19
320.403	5.03
320.615	5.74
320.827	7.73
321.039	6.33
321.252	7.11
321.464	7.02
321.676	5.25
321.888	7.22
322.1	5.85
322.312	7.7
322.524	9.58
322.736	12.78
322.948	12.84
323.16	12.5
323.372	14.21
323.584	13.31
323.796	11.09
324.007	11.98
324.219	10.98
324.431	11.46
324.643	11.53
324.855	12.5
325.067	11.08
325.279	10.49
325.491	11.49
325.702	10.01
325.914	11.65
326.126	14.8
326.338	16.26
326.55	15.73
326.761	17.03
326.973	17.62
327.185	17.34
327.396	19.78
327.608	20.82
327.82	20.95
328.032	21.84
328.243	22.83
328.455	21.51
328.666	21.48
328.878	22.19
329.09	21.7
329.301	21.66
329.513	22.38
329.725	22.14
329.936	22.63
330.148	22.33
330.359	22.54
330.571	22.28
330.782	23.99
330.994	24.99
331.205	24.76
331.417	26.45
331.628	26.8
331.84	24.75
332.051	23.39
332.262	24.33
332.474	24.89
332.685	25.98
332.897	25.81
333.108	27.13
333.319	27.09
333.531	27.84
333.742	28.15
333.953	28.62
334.165	30.6
334.376	31.66
334.587	31.74
334.799	32.02
335.01	31.66
335.221	30.87
335.432	31.5
335.644	31.74
335.855	30.96
336.066	30.85
336.277	30.02
336.488	29.54
336.7	29.02
336.911	28.57
337.122	29.08
337.333	28.48
337.544	29.6
337.755	28.28
337.966	28.45
338.177	30.17
338.388	29.86
338.599	30.1
338.811	30.6
339.022	31.52
339.233	32.44
339.444	32.24
339.655	33.73
339.866	34.25
340.076	34.64
340.287	34.74
340.498	35.13
340.709	35.93
340.92	36.92
341.131	37.07
341.342	36.81
341.553	37.15
341.764	35.27
341.975	35.9
342.185	35.51
342.396	35.65
342.607	34.84
342.818	35.49
343.029	34.15
343.239	34.69
343.45	35.06
343.661	35.68
343.872	34.82
344.082	36.34
344.293	35.41
344.504	34.28
344.714	35
344.925	35.68
345.136	34.44
345.346	34.31
345.557	33.77
345.768	33.37
345.978	32.39
346.189	31.39
346.399	30.75
346.61	30.68
346.821	30.3
347.031	29.07
347.242	28.61
347.452	29.41
347.663	29.92
347.873	30.53
348.084	31.31
348.294	33.17
348.504	34.47
348.715	35.75
348.925	36.02
349.136	36.9
349.346	36.92
349.557	35.83
349.767	35.83
349.977	35.81
350.188	35.06
350.398	33.08
350.608	31.53
350.819	32.72
351.029	31.93
351.239	32.7
351.449	32.86
351.66	33.82
351.87	35.21
352.08	34.97
352.29	34.65
352.501	34.37
352.711	35.07
352.921	35
353.131	33.69
353.341	33.42
353.552	33.04
353.762	33.26
353.972	33.41
354.182	33.8
354.392	32.64
354.602	33.81
354.812	33.67
355.022	34.04
355.232	34.02
355.442	34.37
355.652	35.16
355.862	35.19
356.072	34.35
356.282	33.28
356.492	32.58
356.702	33.24
356.912	33.81
357.122	34.03
357.332	34.81
357.542	35.68
357.752	36.34
357.962	35.54
358.171	35.03
358.381	35.52
358.591	36.43
358.801	36.68
359.011	37.28
359.221	36.67
359.43	37.24
359.64	37.18
359.85	36.88
360.06	36.3
360.269	36.88
360.479	37.97
360.689	38.17
360.899	37.57
361.108	37.88
361.318	37.26
361.528	36.85
361.737	36.68
361.947	35.81
362.156	35.45
362.366	35.15
362.576	35.28
362.785	34.97
362.995	35.05
363.204	36.03
363.414	36.16
363.623	35.85
363.833	36.06
364.042	35.56
364.252	36.08
364.461	36.17
364.671	36.16
364.88	35.89
365.09	35.28
365.299	35.36
365.509	34.63
365.718	34.13
365.927	35
366.137	34.72
366.346	35.08
366.555	35.28
366.765	35.25
366.974	35.77
367.183	36.38
367.393	35.73
367.602	35.42
367.811	35.36
368.021	35.09
368.23	34.96
368.439	34.63
368.648	34.73
368.857	34.6
369.067	34.82
369.276	34.59
369.485	33.67
369.694	33.97
369.903	33.35
370.112	32.42
370.321	32.79
370.531	32.82
370.74	32.86
370.949	32.04
371.158	31.85
371.367	31.35
371.576	31.94
371.785	31.92
371.994	31.6
372.203	32.11
372.412	32.51
372.621	32.52
372.83	32.05
373.039	32.71
373.248	33.27
373.457	33.66
373.666	33.74
373.874	32.5
374.083	32.75
374.292	33.29
374.501	33.35
374.71	33.34
374.919	32.29
375.128	32.44
375.336	32.39
375.545	32.64
375.754	31.96
375.963	32.09
376.171	32.46
376.38	32.24
376.589	32.44
376.798	32.84
377.006	33.31
377.215	33.76
377.424	34.07
377.632	33.87
377.841	33.18
378.05	33.71
378.258	33.63
378.467	33.14
378.675	33.11
378.884	32.81
379.093	32.05
379.301	31.71
379.51	31.28
379.718	30.76
379.927	30.46
380.135	30.5
380.344	29.67
380.552	30.02
380.761	30.52
380.969	30.45
381.177	30.25
381.386	29.4
381.594	29.09
381.803	29.6
382.011	29.37
382.219	28.87
382.428	29.04
382.636	29.7
382.845	29.25
383.053	29.1
383.261	28.57
383.469	28.49
383.678	29.51
383.886	29.64
384.094	29.45
384.302	30.19
384.511	30.58
384.719	30.89
384.927	30.4
385.135	30.61
385.343	30.2
385.552	30.45
385.76	30.03
385.968	29.31
386.176	29.25
386.384	29.04
386.592	28.37
386.8	28.39
387.008	27.78
387.216	27.91
387.424	27.53
387.633	27.67
387.841	27.46
388.049	27.2
388.257	27.18
388.465	27.32
388.672	27.05
388.88	26.97
389.088	27.22
389.296	27.12
389.504	26.85
389.712	27.34
389.92	27.45
390.128	27.53
390.336	27.8
390.544	27.78
390.751	27.8
390.959	27.87
391.167	28.28
391.375	27.8
391.583	27.64
391.79	27.64
391.998	26.88
392.206	26.45
392.414	26.6
392.621	27.15
392.829	27.22
393.037	27.06
393.244	27.15
393.452	26.82
393.66	26.84
393.867	27.12
394.075	27.08
394.283	27.68
394.49	28.23
394.698	28.38
394.905	28.38
395.113	28.35
395.32	28.31
395.528	28.89
395.735	28.7
395.943	28.91
396.15	29
396.358	29.12
396.565	29.03
396.773	29.13
396.98	28.89
397.188	28.55
397.395	28.64
397.602	28.97
397.81	28.13
398.017	28.32
398.225	28.34
398.432	28.64
398.639	28.67
398.847	28.55
399.054	28.29
399.261	28.81
399.468	29.01
399.676	29.29
399.883	28.77
400.09	28.78
400.297	28.29
400.505	28.38
400.712	28.22
400.919	28.11
401.126	28.12
401.333	27.89
401.54	27.72
401.748	27.76
401.955	27.63
402.162	28.03
402.369	28.45
402.576	28.87
402.783	29.31
402.99	29.19
403.197	29.12
403.404	29.33
403.611	29.58
403.818	29.29
404.025	28.99
404.232	28.95
404.439	29.18
404.646	29.2
404.853	29.3
405.06	28.91
405.267	29.06
405.474	29.38
405.681	29.4
405.887	29.4
406.094	29.43
406.301	29.92
406.508	30.01
406.715	29.65
406.922	29.58
407.128	29.66
407.335	29.85
407.542	29.71
407.749	29.58
407.955	29.39
408.162	29.72
408.369	29.69
408.575	29.42
408.782	29.44
408.989	29.46
409.195	29.59
409.402	29.36
409.609	29.32
409.815	29.27
410.022	29.31
410.228	29.25
410.435	29.03
410.642	29.35
410.848	29.44
411.055	29.5
411.261	29.34
411.468	29.27
411.674	29.57
411.881	29.75
412.087	29.65
412.294	29.93
412.5	29.62
412.706	29.51
412.913	29.33
413.119	29.26
413.326	29.28
413.532	29.64
413.738	29.52
413.945	29.18
414.151	28.69
414.357	28.86
414.564	28.44
414.77	28.66
414.976	28.72
415.182	28.57
415.389	28.32
415.595	28.2
415.801	28.07
416.007	28.04
416.214	27.83
416.42	27.65
416.626	27.57
416.832	27.78
417.038	27.86
417.244	27.79
417.45	27.88
417.657	27.75
417.863	27.77
418.069	27.78
418.275	27.96
418.481	28.19
418.687	28.47
418.893	28.48
419.099	28.31
419.305	28.19
419.511	28.18
419.717	28.03
419.923	28.08
420.129	28.12
420.335	27.98
420.541	27.85
420.746	27.8
420.952	27.55
421.158	27.56
421.364	27.49
421.57	27.57
421.776	27.54
421.982	27.66
422.187	27.76
422.393	27.59
422.599	27.74
422.805	27.76
423.01	27.77
423.216	27.8
423.422	27.65
423.628	27.56
423.833	27.51
424.039	27.62
424.245	27.58
424.45	27.49
424.656	27.54
424.862	27.42
425.067	27.32
425.273	27.3
425.478	27.28
425.684	27.29
425.889	27.4
426.095	27.41
426.301	27.19
426.506	27.07
426.712	26.98
426.917	26.82
427.123	26.66
427.328	26.5
427.533	26.37
427.739	26.5
427.944	26.64
428.15	26.52
428.355	26.57
428.561	26.38
428.766	26.21
428.971	26.34
429.177	26.46
429.382	26.6
429.587	26.67
429.793	26.79
429.998	26.52
430.203	26.28
430.408	26.25
430.614	26.08
430.819	26.3
431.024	26.52
431.229	26.41
431.434	26.41
431.64	26.26
431.845	26.18
432.05	26.16
432.255	26.35
432.46	26.45
432.665	26.69
432.87	26.54
433.076	26.37
433.281	26.18
433.486	26.15
433.691	26.15
433.896	26.14
434.101	26.29
434.306	26.18
434.511	25.82
434.716	25.79
434.921	25.59
435.126	25.56
435.331	25.5
435.535	25.51
435.74	25.68
435.945	25.73
436.15	25.85
436.355	25.71
436.56	25.75
436.765	26.08
436.97	25.97
437.174	25.92
437.379	26
437.584	26.32
437.789	26.35
437.993	26.38
438.198	26.38
438.403	26.43
438.608	26.47
438.812	26.59
439.017	26.65
439.222	26.83
439.426	26.8
439.631	26.8
439.836	26.66
440.04	26.67
440.245	26.47
440.45	26.37
440.654	26.4
440.859	26.52
441.063	26.35
441.268	26.28
441.472	26.24
441.677	26.37
441.881	26.32
442.086	26.45
442.29	26.48
442.495	26.58
442.699	26.57
442.904	26.41
443.108	26.18
443.312	26.23
443.517	26.31
443.721	26.24
443.925	26.13
444.13	26.31
444.334	26.01
444.538	25.91
444.743	25.87
444.947	25.85
445.151	25.84
445.356	25.99
445.56	25.84
445.764	25.72
445.968	25.57
446.173	25.46
446.377	25.36
446.581	25.41
446.785	25.45
446.989	25.46
447.193	25.49
447.398	25.51
447.602	25.48
447.806	25.73
448.01	25.74
448.214	25.86
448.418	26.03
448.622	25.9
448.826	26.02
449.03	26
449.234	25.91
449.438	25.94
449.642	26.02
449.846	26
450.05	25.85
450.254	25.76
450.458	25.84
450.662	25.57
450.866	25.69
451.069	25.63
451.273	25.58
451.477	25.61
451.681	25.48
451.885	25.25
452.089	25.23
452.292	25.12
452.496	25.09
452.7	25.11
452.904	25.22
453.107	25.21
453.311	25.03
453.515	25.13
453.719	25.05
453.922	25.08
454.126	24.99
454.33	24.93
454.533	25.1
454.737	25.11
454.94	24.94
455.144	25.01
455.348	25.08
455.551	25.1
455.755	24.95
455.958	25.01
456.162	24.92
456.365	25.07
456.569	25.16
456.772	25.03
456.976	24.98
