Data from 2938091_Reflection_1.txt Node
Date: Sat Jul 11 19:16:49 EDT 2015
User: robert
Spectrometer: USB4E03001
Autoset integration time: false
Trigger mode: 4
Integration Time (sec): 1.000000E-1
Scans to average: 10
Electric dark correction enabled: true
Nonlinearity correction enabled: false
Boxcar width: 5
Stray light correction enabled: false
XAxis mode: Wavelengths
Stop averaging: false
Number of Pixels in Spectrum: 3648
>>>>>Begin Spectral Data<<<<<
177.566	53.09
177.785	47.14
178.005	89.05
178.225	92.36
178.445	39.7
178.665	48.53
178.885	10.79
179.105	32.07
179.324	31.49
179.544	16.02
179.764	36.83
179.984	28.65
180.204	29.66
180.423	67.5
180.643	40.34
180.863	13.84
181.083	3
181.302	-6.76
181.522	-295.31
181.742	-102.01
181.961	-75.29
182.181	-116.43
182.401	15.5
182.621	-0.8
182.84	-8.18
183.06	3.96
183.279	5.09
183.499	19.15
183.719	28.53
183.938	57.17
184.158	53.8
184.377	74.96
184.597	36.12
184.816	36.48
185.036	29.33
185.256	32.31
185.475	46.63
185.695	37.31
185.914	27.58
186.134	20.95
186.353	14.26
186.572	20.06
186.792	-3.07
187.011	36.13
187.231	22.7
187.45	22.87
187.67	49.33
187.889	21.6
188.108	35.95
188.328	44.57
188.547	24.42
188.766	2.19
188.986	-11.37
189.205	22.46
189.424	-0.4
189.644	1.71
189.863	19.39
190.082	-21.89
190.302	-16.58
190.521	-39.58
190.74	-19.65
190.959	-12.49
191.178	-46.97
191.398	-69.63
191.617	-51.57
191.836	-18.3
192.055	-6.67
192.274	-27.66
192.494	-31.23
192.713	-27.83
192.932	-16.28
193.151	-84.11
193.37	-64.46
193.589	0.6
193.808	-19.09
194.027	-33.26
194.246	-9410.2
194.465	896.8
194.685	252.16
194.904	571.91
195.123	665.14
195.342	392.6
195.561	-504.81
195.78	-322.85
195.999	-440.96
196.218	-235.27
196.436	-264.95
196.655	-188.93
196.874	-122.51
197.093	-79.53
197.312	-145.07
197.531	-196.24
197.75	-134.59
197.969	-261.07
198.188	-323.15
198.407	-1640.8
198.625	-1176.23
198.844	-311.38
199.063	-267.17
199.282	-199.39
199.501	-337.27
199.719	-46.8
199.938	-38.99
200.157	-70.05
200.376	-18.39
200.594	-1.73
200.813	-0.98
201.032	0.11
201.251	11.96
201.469	5.68
201.688	-6.17
201.907	-0.17
202.125	-31.98
202.344	-26.73
202.563	-34.84
202.781	-58.86
203	-66.89
203.218	-81.25
203.437	-112.11
203.656	-133.52
203.874	-78.5
204.093	-96.75
204.311	-57.14
204.53	-57.16
204.748	-101.09
204.967	-58.66
205.185	-41.11
205.404	-31.63
205.622	15.46
205.841	34.3
206.059	53.87
206.278	-16.5
206.496	-18.54
206.715	-24.3
206.933	-10.87
207.151	4.35
207.37	12.3
207.588	7.83
207.806	6.99
208.025	16.82
208.243	19.45
208.461	-3.67
208.68	20.7
208.898	25.6
209.116	22.07
209.335	12.78
209.553	12.87
209.771	-9.7
209.989	-21.64
210.208	-68.02
210.426	-870.82
210.644	-2494.03
210.862	-145.68
211.081	-182.13
211.299	-167.08
211.517	-151.09
211.735	-281.81
211.953	-375.05
212.171	-306.01
212.39	-350.66
212.608	-228.68
212.826	-182
213.044	-143.07
213.262	-122.62
213.48	-205.74
213.698	2250
213.916	-245.55
214.134	-49.91
214.352	-51.33
214.57	-26.8
214.788	-0.82
215.006	-9.42
215.224	-29.9
215.442	-25.45
215.66	-22.54
215.878	-19.26
216.096	-11.27
216.314	-28.78
216.532	-44.11
216.75	-65.35
216.968	-80.6
217.185	-48.6
217.403	-41.75
217.621	-54.46
217.839	-34.02
218.057	-28.58
218.275	-37.91
218.492	-66.59
218.71	-63.24
218.928	-73.31
219.146	-66.75
219.363	-36.76
219.581	-55.84
219.799	-36.73
220.017	-46.22
220.234	-74.54
220.452	-103.95
220.67	-40.11
220.887	-28.56
221.105	-53.49
221.323	-14.71
221.54	-50.73
221.758	-77.77
221.976	-173.88
222.193	-1392.97
222.411	-169.59
222.629	-247.46
222.846	-166.49
223.064	-140.66
223.281	-93.83
223.499	-74.62
223.716	-86.46
223.934	-50.56
224.151	-28.16
224.369	-8.63
224.586	-2.28
224.804	3.08
225.021	14.48
225.239	0.23
225.456	-14.47
225.674	-9.57
225.891	-14.73
226.108	-15.78
226.326	-23.15
226.543	-28.99
226.76	-34.17
226.978	-28.89
227.195	-25.37
227.413	-27.6
227.63	-13.02
227.847	-4.34
228.064	0.86
228.282	6.46
228.499	10.99
228.716	13.3
228.934	11.37
229.151	15.1
229.368	15.15
229.585	13.11
229.802	12.12
230.02	10.07
230.237	8.69
230.454	5.39
230.671	1.22
230.888	-3.58
231.105	-3.65
231.323	-1.66
231.54	-7.54
231.757	-7.66
231.974	-3.13
232.191	-4.21
232.408	-2.15
232.625	-6.9
232.842	-6.2
233.059	-3.52
233.276	-2.01
233.493	-2.35
233.71	-10.35
233.927	-11.06
234.144	-15.11
234.361	-25.79
234.578	-28.66
234.795	-27.51
235.012	-24.67
235.229	-20.53
235.446	-15.39
235.663	-17.26
235.879	-18.79
236.096	-15.65
236.313	-13.59
236.53	-13.31
236.747	-0.06
236.964	2.09
237.181	10.41
237.397	12.55
237.614	13.11
237.831	14.15
238.048	21.9
238.264	22.06
238.481	18.51
238.698	20.9
238.915	22.11
239.131	20.59
239.348	15.39
239.565	11.81
239.781	9.72
239.998	11.18
240.215	5.62
240.431	-3.13
240.648	-6.21
240.865	-1.41
241.081	1.12
241.298	4.51
241.514	2.79
241.731	4.42
241.947	1.59
242.164	4.86
242.38	2.52
242.597	5.17
242.814	8.09
243.03	9.2
243.246	10.59
243.463	9.21
243.679	8.9
243.896	7.5
244.112	6.39
244.329	7.53
244.545	5.45
244.762	6.78
244.978	4.78
245.194	2.06
245.411	2.6
245.627	2.44
245.843	1.66
246.06	1.11
246.276	3.32
246.492	4.76
246.709	5.66
246.925	6.15
247.141	6.75
247.357	7.68
247.574	8.06
247.79	8.3
248.006	8.29
248.222	9.42
248.439	9.42
248.655	7.92
248.871	7.09
249.087	6.92
249.303	6.7
249.519	4.59
249.736	2.37
249.952	0.75
250.168	-2.35
250.384	-4.4
250.6	-6.88
250.816	-6.61
251.032	-3.83
251.248	-4.02
251.464	-3.75
251.68	-4.42
251.896	-2.92
252.112	-3.23
252.328	0.48
252.544	-0.02
252.76	-0.35
252.976	0.73
253.192	0.68
253.408	-0.04
253.624	1.05
253.84	-0.72
254.056	0.54
254.272	2.54
254.487	6.12
254.703	5.82
254.919	10.19
255.135	9.95
255.351	10.28
255.567	8.6
255.782	5.31
255.998	1.29
256.214	0.94
256.43	-2.46
256.646	-7.6
256.861	-7.63
257.077	-9.71
257.293	-8.83
257.508	-6.67
257.724	-6.31
257.94	-6.42
258.155	-3.91
258.371	0.25
258.587	0.55
258.802	1.99
259.018	3.98
259.234	3.38
259.449	3.84
259.665	4
259.88	4.82
260.096	3.97
260.312	5.47
260.527	6.07
260.743	5.89
260.958	5.94
261.174	6.51
261.389	7.04
261.605	7.62
261.82	7.81
262.036	9.03
262.251	8.42
262.466	9.61
262.682	8.02
262.897	7.56
263.113	7.33
263.328	8.15
263.543	7.58
263.759	5.95
263.974	4.94
264.189	3.6
264.405	1.83
264.62	2.87
264.835	2.21
265.051	2.1
265.266	3.77
265.481	4.31
265.696	5.01
265.912	6.03
266.127	5.36
266.342	7.42
266.557	8.4
266.773	7.64
266.988	7.18
267.203	7.44
267.418	9.69
267.633	8.67
267.848	9.28
268.064	6.58
268.279	6.91
268.494	5.82
268.709	4.01
268.924	2.87
269.139	3.88
269.354	4.75
269.569	5.54
269.784	3.28
269.999	3.64
270.214	5.07
270.429	7.05
270.644	6.7
270.859	8.37
271.074	8.42
271.289	9.24
271.504	8.52
271.719	9.09
271.934	9.55
272.149	11.07
272.363	11.48
272.578	9.81
272.793	10.22
273.008	9.12
273.223	9.04
273.438	7.66
273.653	6.91
273.867	6.48
274.082	3.83
274.297	3.08
274.512	2.6
274.726	1.73
274.941	1.48
275.156	0.6
275.371	1.5
275.585	0.73
275.8	2.01
276.015	3.73
276.229	4.58
276.444	5.57
276.659	4.45
276.873	4.09
277.088	3.39
277.302	3.4
277.517	5.17
277.732	5.25
277.946	4.81
278.161	5.44
278.375	4.16
278.59	4.54
278.804	4.35
279.019	4.25
279.233	4.45
279.448	2.91
279.662	3.62
279.877	2.77
280.091	1.24
280.306	2.25
280.52	3.26
280.735	3.22
280.949	3.53
281.163	2.71
281.378	3.55
281.592	2.48
281.806	3.75
282.021	2.21
282.235	1.59
282.449	3.13
282.664	3.07
282.878	2.56
283.092	3.06
283.307	1.83
283.521	2.73
283.735	2.5
283.949	2.38
284.164	4.11
284.378	5.29
284.592	5.81
284.806	4.59
285.02	5.34
285.234	5.66
285.449	5.77
285.663	6.27
285.877	7.47
286.091	8.44
286.305	7.4
286.519	8
286.733	8.75
286.947	8.2
287.161	9.14
287.375	9.24
287.589	9.28
287.803	9.68
288.017	9.78
288.231	9.46
288.445	8.87
288.659	10.49
288.873	7.9
289.087	6.46
289.301	7.27
289.515	7.91
289.729	8.03
289.943	7.63
290.157	6.91
290.371	7.53
290.584	6.37
290.798	5.86
291.012	5.55
291.226	6.25
291.44	6.02
291.654	6.22
291.867	5.17
292.081	3.3
292.295	2.17
292.509	2.45
292.722	0.75
292.936	1.49
293.15	1.38
293.364	-0.79
293.577	0.16
293.791	1.07
294.005	0.18
294.218	0.67
294.432	1.83
294.645	4.43
294.859	4.39
295.073	6.2
295.286	5.21
295.5	4.57
295.713	6.76
295.927	7.24
296.14	7.09
296.354	7.83
296.568	8.32
296.781	7.56
296.994	5.98
297.208	6.59
297.421	6.7
297.635	8.12
297.848	9.51
298.062	9.48
298.275	8.44
298.489	8.77
298.702	8.99
298.915	8.36
299.129	8.91
299.342	11.21
299.555	10.44
299.769	9.93
299.982	10.34
300.195	9.98
300.409	8.66
300.622	8.55
300.835	7.8
301.048	7.64
301.262	7.89
301.475	8.3
301.688	8.3
301.901	8.86
302.115	8.84
302.328	6.6
302.541	7.07
302.754	9.37
302.967	10.4
303.18	12.88
303.393	12.89
303.607	13.17
303.82	13.48
304.033	12.12
304.246	11.96
304.459	11.66
304.672	11.77
304.885	11.18
305.098	9.5
305.311	8.83
305.524	6.7
305.737	6.2
305.95	5.22
306.163	4.83
306.376	5.12
306.589	4.71
306.802	5.46
307.015	6.7
307.228	7.28
307.44	7.98
307.653	8.56
307.866	7.6
308.079	7.47
308.292	8.43
308.505	8.22
308.718	7.33
308.93	8.43
309.143	6.21
309.356	6.19
309.569	3.7
309.781	5.33
309.994	5.12
310.207	7.65
310.42	7.4
310.632	8.79
310.845	10.52
311.058	12.4
311.27	10.86
311.483	11.75
311.696	11
311.908	12.21
312.121	11.79
312.333	11.14
312.546	11.02
312.759	12.56
312.971	10.92
313.184	10.89
313.396	9.58
313.609	11.47
313.821	11.84
314.034	12.83
314.246	14.23
314.459	14.45
314.671	15.3
314.884	13.17
315.096	12.54
315.309	12.31
315.521	9.95
315.733	7.38
315.946	7.43
316.158	7.77
316.371	7.82
316.583	5.88
316.795	4.24
317.008	4.69
317.22	6.12
317.432	5.43
317.644	6.31
317.857	5.73
318.069	7.48
318.281	7.01
318.494	5.11
318.706	5.13
318.918	6.43
319.13	6.58
319.342	6.28
319.555	3.77
319.767	3.06
319.979	2.07
320.191	3.61
320.403	3.13
320.615	0.22
320.827	2.02
321.039	-0.11
321.252	-0.78
321.464	1.58
321.676	2.11
321.888	3.49
322.1	3.22
322.312	2.78
322.524	2.45
322.736	3.33
322.948	3.53
323.16	2.77
323.372	3.99
323.584	3.38
323.796	0.23
324.007	-0.52
324.219	-1.18
324.431	-2.16
324.643	-1.3
324.855	-1.78
325.067	-1.37
325.279	0.47
325.491	1.84
325.702	2.34
325.914	4.21
326.126	5.7
326.338	5.65
326.55	6.14
326.761	8.61
326.973	9.68
327.185	10.75
327.396	10.31
327.608	10.22
327.82	9.02
328.032	8.34
328.243	6.42
328.455	6.03
328.666	6.65
328.878	6.1
329.09	3.88
329.301	0.9
329.513	0.03
329.725	0.62
329.936	-0.75
330.148	0.49
330.359	1.79
330.571	2.13
330.782	1.65
330.994	1.44
331.205	2.36
331.417	3.32
331.628	5.15
331.84	5.13
332.051	3.22
332.262	3.8
332.474	3.8
332.685	2.73
332.897	3.72
333.108	5.38
333.319	5.7
333.531	7.18
333.742	9.11
333.953	7.44
334.165	9.03
334.376	10.3
334.587	10.46
334.799	10.26
335.01	9.92
335.221	9.47
335.432	7.13
335.644	7.44
335.855	6.79
336.066	5.18
336.277	6.21
336.488	5.36
336.7	5.37
336.911	5.73
337.122	5.6
337.333	6.34
337.544	6.31
337.755	8.13
337.966	8.51
338.177	7.81
338.388	7.39
338.599	7.23
338.811	6.91
339.022	7.19
339.233	7.33
339.444	6.09
339.655	5.93
339.866	5.72
340.076	5.05
340.287	3.83
340.498	2.88
340.709	2.86
340.92	2.45
341.131	3.54
341.342	2.76
341.553	2.88
341.764	4.38
341.975	4.04
342.185	4.32
342.396	4.01
342.607	4.09
342.818	6.55
343.029	8.42
343.239	8.57
343.45	8.28
343.661	9.76
343.872	9.79
344.082	9.59
344.293	9.28
344.504	9.94
344.714	10.15
344.925	11.13
345.136	8.49
345.346	6.65
345.557	7.34
345.768	6.51
345.978	5.39
346.189	6.39
346.399	6.97
346.61	7.35
346.821	7.95
347.031	9.47
347.242	9.57
347.452	10.72
347.663	11.62
347.873	10.27
348.084	10.8
348.294	10.68
348.504	7.55
348.715	6.52
348.925	6.64
349.136	4.83
349.346	4.28
349.557	4.33
349.767	4.62
349.977	4.75
350.188	4.38
350.398	5.3
350.608	4.72
350.819	5.97
351.029	6.67
351.239	7.4
351.449	8.26
351.66	8.28
351.87	7.46
352.08	6.85
352.29	5.38
352.501	7.35
352.711	5.96
352.921	6.73
353.131	6.64
353.341	5.51
353.552	5.11
353.762	3.47
353.972	2.46
354.182	2.74
354.392	3.02
354.602	3.68
354.812	3.71
355.022	4.14
355.232	4.81
355.442	5.85
355.652	5.82
355.862	6.67
356.072	7.09
356.282	7.74
356.492	7.31
356.702	8.05
356.912	8.47
357.122	7.68
357.332	7.27
357.542	5.47
357.752	5.2
357.962	5.53
358.171	4.04
358.381	5.68
358.591	5.16
358.801	5.39
359.011	4.44
359.221	4.81
359.43	5.3
359.64	5.7
359.85	7.51
360.06	7.1
360.269	7.78
360.479	8.42
360.689	7.37
360.899	7.22
361.108	6.82
361.318	7.39
361.528	6.83
361.737	6.82
361.947	6.87
362.156	6.22
362.366	5.77
362.576	4.96
362.785	5.03
362.995	5.35
363.204	5.6
363.414	5.42
363.623	4.79
363.833	4.82
364.042	4.33
364.252	3.38
364.461	2.26
364.671	2.69
364.88	3.35
365.09	2.8
365.299	2.39
365.509	2.67
365.718	3.72
365.927	4.03
366.137	4.23
366.346	4.64
366.555	4.97
366.765	6.13
366.974	5.97
367.183	5.69
367.393	5.48
367.602	5.55
367.811	5.02
368.021	3.75
368.23	3.34
368.439	3.26
368.648	3.16
368.857	4.25
369.067	5.11
369.276	5.7
369.485	5.46
369.694	5.26
369.903	5.38
370.112	5.1
370.321	5.67
370.531	6.63
370.74	6.27
370.949	6.33
371.158	5.75
371.367	4.96
371.576	4.71
371.785	5.48
371.994	5.73
372.203	5.52
372.412	6.05
372.621	5.59
372.83	4.58
373.039	5.55
373.248	6.08
373.457	5.9
373.666	5.27
373.874	4.79
374.083	3.6
374.292	3.73
374.501	4.39
374.71	3.22
374.919	4.4
375.128	4.97
375.336	3.81
375.545	3.54
375.754	3.95
375.963	4.38
376.171	4.35
376.38	3.87
376.589	3.32
376.798	2.77
377.006	3.53
377.215	2.86
377.424	2.34
377.632	2.94
377.841	2.66
378.05	2.54
378.258	3.08
378.467	2.9
378.675	3.71
378.884	3.61
379.093	3.74
379.301	3.98
379.51	3.79
379.718	3.85
379.927	3.19
380.135	2.88
380.344	1.75
380.552	0.09
380.761	0.26
380.969	0.19
381.177	0.39
381.386	0.69
381.594	0.54
381.803	1.07
382.011	1.2
382.219	1.67
382.428	2.36
382.636	3.18
382.845	4.24
383.053	4.64
383.261	4.35
383.469	4.24
383.678	3.62
383.886	3.97
384.094	4.04
384.302	4.47
384.511	4.39
384.719	3.92
384.927	3.96
385.135	3.83
385.343	3.48
385.552	4.32
385.76	4.67
385.968	4.87
386.176	4.23
386.384	3.7
386.592	3.25
386.8	2.95
387.008	2.91
387.216	2.74
387.424	2.89
387.633	2.86
387.841	2.28
388.049	2.56
388.257	2.48
388.465	2.64
388.672	2.53
388.88	2.38
389.088	3.14
389.296	2.82
389.504	3.07
389.712	3.1
389.92	3.18
390.128	3.05
390.336	3.16
390.544	3.43
390.751	3.22
390.959	3.35
391.167	3.41
391.375	2.65
391.583	3.21
391.79	3.16
391.998	3.24
392.206	3.34
392.414	3.63
392.621	3.4
392.829	3.07
393.037	3.15
393.244	3.22
393.452	3.44
393.66	3.76
393.867	3.55
394.075	3.57
394.283	3.19
394.49	3.54
394.698	3.27
394.905	2.99
395.113	3.16
395.32	2.88
395.528	2.97
395.735	3.04
395.943	3.13
396.15	2.98
396.358	2.96
396.565	3.05
396.773	2.53
396.98	2.79
397.188	3.05
397.395	3.1
397.602	3.61
397.81	3.18
398.017	2.63
398.225	2.07
398.432	2.19
398.639	2.13
398.847	2.31
399.054	2.34
399.261	2.11
399.468	2.08
399.676	1.67
399.883	1.54
400.09	1.64
400.297	1.76
400.505	2.06
400.712	2.08
400.919	1.58
401.126	1.76
401.333	1.86
401.54	1.94
401.748	1.68
401.955	2.02
402.162	1.93
402.369	2.2
402.576	2.47
402.783	2.91
402.99	2.74
403.197	2.52
403.404	2.09
403.611	2.23
403.818	2.07
404.025	2.3
404.232	2.25
404.439	2.05
404.646	1.99
404.853	1.72
405.06	1.54
405.267	1.72
405.474	2.31
405.681	2.47
405.887	2.14
406.094	2.2
406.301	1.94
406.508	1.86
406.715	1.71
406.922	1.65
407.128	1.69
407.335	1.68
407.542	1.63
407.749	1.53
407.955	1.48
408.162	1.58
408.369	1.44
408.575	1.62
408.782	1.59
408.989	1.86
409.195	1.49
409.402	1.54
409.609	1.47
409.815	1.42
410.022	1.32
410.228	1.13
410.435	1.32
410.642	1.7
410.848	1.79
411.055	1.76
411.261	1.85
411.468	2.2
411.674	2.44
411.881	2.21
412.087	1.85
412.294	1.77
412.5	1.72
412.706	1.72
412.913	2.01
413.119	1.71
413.326	1.85
413.532	2
413.738	1.5
413.945	1.35
414.151	1.5
414.357	1.74
414.564	2.05
414.77	2.46
414.976	2.45
415.182	1.81
415.389	1.73
415.595	1.79
415.801	1.73
416.007	2.08
416.214	2.13
416.42	1.95
416.626	2.06
416.832	1.99
417.038	1.76
417.244	1.74
417.45	1.81
417.657	2.11
417.863	2.01
418.069	2.24
418.275	2.36
418.481	2.45
418.687	2.42
418.893	2.39
419.099	2.42
419.305	2.31
419.511	2.19
419.717	2.28
419.923	2.27
420.129	2.26
420.335	2.13
420.541	1.92
420.746	1.97
420.952	2
421.158	2.01
421.364	1.98
421.57	2.14
421.776	2.23
421.982	2.19
422.187	2.1
422.393	2.04
422.599	2
422.805	2.06
423.01	2.02
423.216	2.05
423.422	1.98
423.628	1.91
423.833	2.03
424.039	1.98
424.245	2.07
424.45	2.12
424.656	2.16
424.862	2.23
425.067	2.4
425.273	2.31
425.478	2.33
425.684	2.37
425.889	2.41
426.095	2.34
426.301	2.29
426.506	2.18
426.712	2.18
426.917	2.1
427.123	1.91
427.328	1.68
427.533	1.48
427.739	1.43
427.944	1.41
428.15	1.55
428.355	1.2
428.561	1.33
428.766	1.17
428.971	1.22
429.177	1.5
429.382	1.52
429.587	1.49
429.793	1.54
429.998	1.56
430.203	1.71
430.408	1.53
430.614	1.69
430.819	1.66
431.024	1.56
431.229	1.62
431.434	1.61
431.64	1.45
431.845	1.66
432.05	1.81
432.255	1.88
432.46	1.92
432.665	2.01
432.87	2.02
433.076	2.08
433.281	2.13
433.486	2.04
433.691	1.86
433.896	2
434.101	1.98
434.306	1.87
434.511	1.79
434.716	1.64
434.921	1.51
435.126	1.57
435.331	1.42
435.535	1.31
435.74	1.39
435.945	1.2
436.15	1.12
436.355	1.22
436.56	1.19
436.765	0.98
436.97	1.01
437.174	1.08
437.379	1.06
437.584	1.1
437.789	1.25
437.993	1.05
438.198	1.35
438.403	1.35
438.608	1.01
438.812	0.91
439.017	0.89
439.222	1.08
439.426	1.04
439.631	1.08
439.836	1.24
440.04	1.34
440.245	1.35
440.45	1.45
440.654	1.43
440.859	1.69
441.063	1.81
441.268	2.08
441.472	1.9
441.677	2
441.881	2.06
442.086	1.89
442.29	1.86
442.495	2
442.699	1.92
442.904	1.95
443.108	1.88
443.312	1.85
443.517	1.77
443.721	1.76
443.925	1.73
444.13	1.54
444.334	1.66
444.538	1.6
444.743	1.56
444.947	1.57
445.151	1.6
445.356	1.48
445.56	1.61
445.764	1.7
445.968	1.74
446.173	1.71
446.377	1.79
446.581	1.75
446.785	1.69
446.989	1.71
447.193	1.64
447.398	1.79
447.602	1.81
447.806	1.72
448.01	1.73
448.214	1.71
448.418	1.63
448.622	1.61
448.826	1.56
449.03	1.62
449.234	1.45
449.438	1.49
449.642	1.43
449.846	1.68
450.05	1.59
450.254	1.38
450.458	1.43
450.662	1.46
450.866	1.3
451.069	1.21
451.273	1.24
451.477	1.54
451.681	1.55
451.885	1.37
452.089	1.04
452.292	1.25
452.496	1.32
452.7	1.4
452.904	1.42
453.107	1.56
453.311	1.67
453.515	1.45
453.719	1.2
453.922	1.12
454.126	1.09
454.33	1.15
454.533	1
454.737	0.85
454.94	0.78
455.144	0.84
455.348	0.76
455.551	0.87
455.755	1.11
455.958	1.25
456.162	1.42
456.365	1.52
456.569	1.64
456.772	1.72
456.976	1.7
457.179	1.76
457.383	1.72
457.586	1.84
457.79	1.76
457.993	1.82
458.196	1.68
458.4	1.6
458.603	1.61
458.807	1.66
459.01	1.73
459.213	1.76
459.417	1.68
459.62	1.61
459.823	1.59
460.026	1.57
460.23	1.48
460.433	1.6
460.636	1.61
460.839	1.6
461.042	1.54
461.246	1.4
461.449	1.42
461.652	1.42
461.855	1.64
462.058	1.73
462.261	1.78
462.464	1.92
462.668	1.9
462.871	1.79
463.074	1.66
463.277	1.72
463.48	1.8
463.683	1.71
463.886	1.85
464.089	1.71
464.292	1.49
464.495	1.29
464.698	1.32
464.901	1.27
465.104	1.6
465.306	1.74
465.509	1.7
465.712	1.8
465.915	1.89
466.118	1.62
466.321	1.49
466.524	1.59
466.726	1.73
466.929	1.69
467.132	1.72
467.335	1.41
467.538	1.33
467.74	1.36
467.943	1.28
468.146	1.39
468.348	1.53
468.551	1.59
468.754	1.38
