Data from 2938032_Reflection_1.txt Node
Date: Sun Jul 12 14:58:25 EDT 2015
User: robert
Spectrometer: USB4E03001
Autoset integration time: false
Trigger mode: 4
Integration Time (sec): 1.000000E-1
Scans to average: 10
Electric dark correction enabled: true
Nonlinearity correction enabled: false
Boxcar width: 5
Stray light correction enabled: false
XAxis mode: Wavelengths
Stop averaging: false
Number of Pixels in Spectrum: 3648
>>>>>Begin Spectral Data<<<<<
177.566	-112.61
177.785	130.03
178.005	1556.43
178.225	-193.78
178.445	69.12
178.665	40.77
178.885	-9.45
179.105	-22.55
179.324	-37.46
179.544	-1601.51
179.764	275.28
179.984	-672.52
180.204	201.16
180.423	329.41
180.643	600
180.863	16051.43
181.083	430.07
181.302	277.48
181.522	278.72
181.742	504.2
181.961	3433.71
182.181	485.66
182.401	183.12
182.621	132.96
182.84	141.48
183.06	119.39
183.279	107.38
183.499	80.38
183.719	95.54
183.938	89.46
184.158	44.53
184.377	49.46
184.597	26.07
184.816	-3.19
185.036	36.32
185.256	31.8
185.475	50.16
185.695	34.22
185.914	56.87
186.134	50.37
186.353	28.84
186.572	47.96
186.792	23.08
187.011	44.99
187.231	54.44
187.45	71.92
187.67	61.65
187.889	22.35
188.108	99.68
188.328	119.54
188.547	181.95
188.766	340.1
188.986	397.89
189.205	419.67
189.424	1131.91
189.644	566.56
189.863	1648.91
190.082	676.54
190.302	274.56
190.521	319.83
190.74	748.03
190.959	235.65
191.178	130.05
191.398	-57.93
191.617	172.02
191.836	-523.46
192.055	-64.21
192.274	89.48
192.494	19.36
192.713	34.11
192.932	50.26
193.151	50.58
193.37	42.03
193.589	20.01
193.808	30.6
194.027	41.38
194.246	77.13
194.465	51.77
194.685	66.51
194.904	124.89
195.123	120.46
195.342	152.62
195.561	222.87
195.78	190.63
195.999	155.17
196.218	127.1
196.436	186.13
196.655	134.65
196.874	137.74
197.093	150.39
197.312	123.02
197.531	106.92
197.75	13.92
197.969	32.29
198.188	64.56
198.407	50.97
198.625	61.37
198.844	50.81
199.063	58.14
199.282	23.91
199.501	5.08
199.719	10.82
199.938	-17.47
200.157	10.9
200.376	-11.72
200.594	2.46
200.813	11.73
201.032	15.41
201.251	13.91
201.469	-6.44
201.688	32.81
201.907	13.69
202.125	62.24
202.344	56.56
202.563	7.16
202.781	-3.26
203	44.42
203.218	82.95
203.437	-1969.77
203.656	98.8
203.874	103.13
204.093	89.17
204.311	110.03
204.53	25.73
204.748	23.37
204.967	83.92
205.185	118.11
205.404	69.05
205.622	34.2
205.841	39.22
206.059	-110.26
206.278	-102.13
206.496	-106.98
206.715	-87.37
206.933	-19.66
207.151	-9.26
207.37	-38.66
207.588	-17.06
207.806	-2.03
208.025	8.38
208.243	13.34
208.461	23.29
208.68	35.32
208.898	41.19
209.116	46.72
209.335	16.01
209.553	16.1
209.771	18.06
209.989	27.9
210.208	36.84
210.426	35.54
210.644	-5.48
210.862	-9.43
211.081	-9.16
211.299	-35.98
211.517	-50
211.735	24.77
211.953	25.23
212.171	-17.76
212.39	-31.85
212.608	16.99
212.826	-3.44
213.044	-1.83
213.262	-27.35
213.48	-74.8
213.698	-26.57
213.916	-58.79
214.134	-49.16
214.352	-32.41
214.57	-0.14
214.788	-4.97
215.006	-30.71
215.224	-7.14
215.442	15.54
215.66	39.63
215.878	15.96
216.096	34.89
216.314	54.73
216.532	63.23
216.75	40.55
216.968	39.94
217.185	45.39
217.403	57.66
217.621	45.89
217.839	59.91
218.057	65.95
218.275	118.35
218.492	90.93
218.71	112.89
218.928	133.92
219.146	116.1
219.363	151.53
219.581	146.54
219.799	122.56
220.017	145.49
220.234	96.65
220.452	84.46
220.67	58.88
220.887	69.87
221.105	59.28
221.323	54.79
221.54	54.51
221.758	59.72
221.976	64.43
222.193	70.12
222.411	58.28
222.629	83.16
222.846	80
223.064	78.13
223.281	58.81
223.499	50.5
223.716	43.06
223.934	43.89
224.151	36.82
224.369	31.6
224.586	4.75
224.804	1.76
225.021	-22.79
225.239	-12.32
225.456	4.5
225.674	-3.08
225.891	-6.46
226.108	-1.68
226.326	6.81
226.543	-1.79
226.76	2.6
226.978	-4.17
227.195	5.11
227.413	1.22
227.63	4.04
227.847	6.26
228.064	6.44
228.282	8.59
228.499	6.57
228.716	6
228.934	5.49
229.151	5.22
229.368	7.58
229.585	6.57
229.802	10.16
230.02	9.95
230.237	10.33
230.454	12.31
230.671	10.85
230.888	13.98
231.105	14.68
231.323	16.43
231.54	19.13
231.757	21.53
231.974	22.92
232.191	20.32
232.408	19.32
232.625	17.96
232.842	19.72
233.059	28.79
233.276	27.24
233.493	27.07
233.71	27.55
233.927	24.2
234.144	23.08
234.361	20.46
234.578	21.46
234.795	22.46
235.012	19.08
235.229	22.07
235.446	22.36
235.663	21.72
235.879	18.87
236.096	19.16
236.313	20.26
236.53	19.29
236.747	20.09
236.964	13.72
237.181	20.37
237.397	22.59
237.614	17.93
237.831	15.4
238.048	14.91
238.264	15.53
238.481	16.03
238.698	14.33
238.915	11.66
239.131	11.54
239.348	10.99
239.565	4.48
239.781	2.88
239.998	2.83
240.215	3.28
240.431	3.13
240.648	4.26
240.865	1.75
241.081	5.29
241.298	9.18
241.514	9.64
241.731	11.01
241.947	11.16
242.164	12.67
242.38	12.74
242.597	12.92
242.814	13.87
243.03	14.18
243.246	15.44
243.463	14.57
243.679	14.15
243.896	14.2
244.112	14.57
244.329	16.56
244.545	16.91
244.762	17.33
244.978	17.39
245.194	16.44
245.411	14.18
245.627	13.32
245.843	13.53
246.06	14.13
246.276	13.62
246.492	13.21
246.709	11.62
246.925	10.48
247.141	11.16
247.357	10.52
247.574	10.24
247.79	10.9
248.006	12.19
248.222	11.74
248.439	10.35
248.655	9.8
248.871	9.84
249.087	9.54
249.303	10.35
249.519	8.37
249.736	8.32
249.952	8.15
250.168	8.11
250.384	5.47
250.6	4.81
250.816	5.54
251.032	5.4
251.248	5.58
251.464	6.49
251.68	4.83
251.896	5.25
252.112	4.22
252.328	3.63
252.544	1.12
252.76	-0.28
252.976	-0.89
253.192	-1.2
253.408	-1.01
253.624	0.33
253.84	-2.31
254.056	-2.43
254.272	-1.85
254.487	0.33
254.703	1.74
254.919	7.42
255.135	11.15
255.351	12.12
255.567	11.5
255.782	11.21
255.998	8.71
256.214	12.11
256.43	13.44
256.646	11.91
256.861	10.34
257.077	8.98
257.293	5.2
257.508	4.75
257.724	4.61
257.94	4.66
258.155	5.96
258.371	5.15
258.587	5.36
258.802	4.81
259.018	7.8
259.234	8
259.449	7.89
259.665	8.17
259.88	8.24
260.096	8.59
260.312	9.46
260.527	9.71
260.743	10.64
260.958	9.75
261.174	9.85
261.389	8.13
261.605	7.99
261.82	8.74
262.036	9.03
262.251	8.92
262.466	8.41
262.682	7.68
262.897	6.68
263.113	5.48
263.328	6.56
263.543	7.65
263.759	8.6
263.974	8.77
264.189	8.4
264.405	8.68
264.62	8.36
264.835	8.06
265.051	8.01
265.266	10.57
265.481	9.59
265.696	11.56
265.912	10.61
266.127	9.67
266.342	10.02
266.557	9
266.773	7.62
266.988	8
267.203	7.82
267.418	7.12
267.633	4.59
267.848	4.84
268.064	4.39
268.279	3.9
268.494	3.28
268.709	0.77
268.924	2.1
269.139	2.04
269.354	1.66
269.569	1.4
269.784	1.36
269.999	1.82
270.214	2.5
270.429	2.99
270.644	3.69
270.859	5.33
271.074	7.39
271.289	6.06
271.504	6.97
271.719	7.22
271.934	7.71
272.149	7.29
272.363	6.23
272.578	6.19
272.793	6.51
273.008	6.29
273.223	5.46
273.438	5.16
273.653	6.37
273.867	5.1
274.082	4.42
274.297	5.28
274.512	6.84
274.726	8.35
274.941	8.93
275.156	7.99
275.371	7.91
275.585	8.13
275.8	8.66
276.015	6.49
276.229	8.13
276.444	8.48
276.659	7.91
276.873	7.82
277.088	8.08
277.302	7.8
277.517	7.78
277.732	8.23
277.946	8.67
278.161	7.78
278.375	9.78
278.59	7.95
278.804	7.49
279.019	6.61
279.233	5.46
279.448	4.95
279.662	3.96
279.877	4.2
280.091	3.62
280.306	5.16
280.52	4.91
280.735	4.64
280.949	5.39
281.163	6.85
281.378	8.03
281.592	7.83
281.806	8.05
282.021	9.63
282.235	9.19
282.449	10.39
282.664	8.28
282.878	9.4
283.092	9.37
283.307	9.9
283.521	9.76
283.735	8.95
283.949	8.4
284.164	8.61
284.378	7.56
284.592	8.17
284.806	6.18
285.02	7.58
285.234	7.4
285.449	6.85
285.663	7.63
285.877	6.69
286.091	7.55
286.305	8.24
286.519	6.85
286.733	6.87
286.947	6.01
287.161	7.34
287.375	6.69
287.589	5.96
287.803	6.77
288.017	5.83
288.231	4.95
288.445	4.47
288.659	4.03
288.873	5.66
289.087	5
289.301	5.27
289.515	4.6
289.729	5.98
289.943	7.45
290.157	8.04
290.371	8.83
290.584	9.57
290.798	9.18
291.012	9.93
291.226	9.2
291.44	9.93
291.654	10.56
291.867	9.96
292.081	7.79
292.295	7.38
292.509	6.95
292.722	6.31
292.936	7.23
293.15	7.27
293.364	6.51
293.577	7.79
293.791	7.79
294.005	7.78
294.218	8.71
294.432	10.62
294.645	10.22
294.859	9.66
295.073	9.75
295.286	10.43
295.5	10.7
295.713	9.33
295.927	9.09
296.14	8.95
296.354	8.91
296.568	8.05
296.781	8.23
296.994	8.32
297.208	8.26
297.421	8.04
297.635	7.68
297.848	7.31
298.062	9.16
298.275	8.51
298.489	9.58
298.702	10.53
298.915	11.39
299.129	10.43
299.342	10.17
299.555	10.66
299.769	10.89
299.982	10.51
300.195	9.54
300.409	9.1
300.622	10.17
300.835	9.48
301.048	8.96
301.262	9.52
301.475	10.87
301.688	11.98
301.901	11.47
302.115	10.75
302.328	10.26
302.541	12
302.754	11.31
302.967	12.09
303.18	11.9
303.393	10.09
303.607	8.48
303.82	7.9
304.033	6.48
304.246	6.35
304.459	6.69
304.672	7.27
304.885	6.57
305.098	7.16
305.311	6.73
305.524	6.35
305.737	7.44
305.95	9.14
306.163	8.13
306.376	8.63
306.589	10.34
306.802	11.39
307.015	11.15
307.228	11.62
307.44	11.66
307.653	10.9
307.866	10.68
308.079	10.05
308.292	9.52
308.505	10.91
308.718	12.17
308.93	11.99
309.143	11.79
309.356	12.27
309.569	10.97
309.781	9.11
309.994	8.86
310.207	9.79
310.42	11.06
310.632	10.63
310.845	10.44
311.058	9.98
311.27	9.33
311.483	9.21
311.696	10.2
311.908	11.03
312.121	12.32
312.333	12.07
312.546	10.62
312.759	9.88
312.971	10.02
313.184	8.9
313.396	8.46
313.609	7.49
313.821	7.3
314.034	5.43
314.246	6.29
314.459	7.41
314.671	7.13
314.884	7.98
315.096	8.59
315.309	9.03
315.521	9.38
315.733	10.12
315.946	11.44
316.158	12.16
316.371	11.95
316.583	11.24
316.795	10.75
317.008	12.39
317.22	13.04
317.432	11.07
317.644	11.7
317.857	12.01
318.069	11.01
318.281	9.87
318.494	8.47
318.706	7.61
318.918	8.83
319.13	8.53
319.342	7.97
319.555	7.41
319.767	7.62
319.979	6.13
320.191	6.23
320.403	8.27
320.615	8.54
320.827	8.96
321.039	9.97
321.252	8.91
321.464	6.91
321.676	7.32
321.888	6.67
322.1	8.17
322.312	7.98
322.524	8.21
322.736	5.69
322.948	6.18
323.16	7.21
323.372	7.5
323.584	7.56
323.796	8.61
324.007	7.98
324.219	7.39
324.431	6.89
324.643	7.39
324.855	6.86
325.067	7.83
325.279	9.66
325.491	9.4
325.702	8.96
325.914	9.44
326.126	9.12
326.338	10.47
326.55	11.67
326.761	13.08
326.973	14.07
327.185	14.74
327.396	14.57
327.608	12.74
327.82	13.84
328.032	13.56
328.243	13.16
328.455	14.01
328.666	12.83
328.878	12.73
329.09	12.08
329.301	10.42
329.513	11.12
329.725	12.18
329.936	12.59
330.148	10.78
330.359	12.19
330.571	13.43
330.782	13.17
330.994	13.86
331.205	14.12
331.417	14.05
331.628	16.04
331.84	16.01
332.051	14.81
332.262	14.99
332.474	15.59
332.685	15.3
332.897	14.18
333.108	15.34
333.319	15.49
333.531	15.82
333.742	15.46
333.953	14.61
334.165	14.16
334.376	14.43
334.587	14.19
334.799	13.59
335.01	12.78
335.221	13.54
335.432	13.06
335.644	12.65
335.855	12.31
336.066	12.49
336.277	11.95
336.488	12.47
336.7	12.04
336.911	12.01
337.122	12.64
337.333	13.66
337.544	13.4
337.755	13.77
337.966	14.73
338.177	14.79
338.388	15.05
338.599	15.95
338.811	15.87
339.022	16.12
339.233	16.41
339.444	16.36
339.655	15.1
339.866	15.52
340.076	16.19
340.287	15.94
340.498	16.64
340.709	15.62
340.92	14.36
341.131	15.08
341.342	15.43
341.553	15.35
341.764	15.71
341.975	16.45
342.185	15.85
342.396	14.61
342.607	13.61
342.818	12.91
343.029	14.77
343.239	15.68
343.45	14.7
343.661	14.01
343.872	13.21
344.082	12.09
344.293	12.35
344.504	12.48
344.714	12.55
344.925	13.06
345.136	12.47
345.346	12.02
345.557	11.6
345.768	11.08
345.978	11.82
346.189	12.66
346.399	13.28
346.61	13.39
346.821	12.91
347.031	13.35
347.242	11.7
347.452	13.03
347.663	11.08
347.873	11.24
348.084	11.69
348.294	11.35
348.504	10.49
348.715	11.02
348.925	10.64
349.136	11.11
349.346	9.34
349.557	11.44
349.767	11.54
349.977	13.41
350.188	13.76
350.398	14.06
350.608	14.67
350.819	14.92
351.029	14.09
351.239	15.05
351.449	14.75
351.66	16.97
351.87	16.05
352.08	15.39
352.29	14.53
352.501	14.59
352.711	14.12
352.921	13.34
353.131	13.17
353.341	13.86
353.552	12.87
353.762	13.38
353.972	12.71
354.182	13.51
354.392	13.93
354.602	13.96
354.812	12.87
355.022	13.02
355.232	12.98
355.442	13.17
355.652	13.7
355.862	13.46
356.072	13.51
356.282	13.01
356.492	13.34
356.702	12.77
356.912	13.1
357.122	14.14
357.332	14.33
357.542	15.09
357.752	15.12
357.962	14.1
358.171	14.58
358.381	14.35
358.591	15.53
358.801	14.73
359.011	14.59
359.221	15.05
359.43	15.39
359.64	14.67
359.85	14.49
360.06	14.72
360.269	15.24
360.479	15.19
360.689	15.36
360.899	14.45
361.108	14.37
361.318	14.47
361.528	14.03
361.737	13.27
361.947	13.5
362.156	13.24
362.366	13.15
362.576	13.01
362.785	12.68
362.995	12.55
363.204	13.02
363.414	13.33
363.623	13.44
363.833	13.34
364.042	13.79
364.252	13.93
364.461	13.04
364.671	12.68
364.88	12.12
365.09	12.25
365.299	12.19
365.509	11.12
365.718	10.22
365.927	9.28
366.137	8.77
366.346	8.63
366.555	8.79
366.765	8.77
366.974	8.63
367.183	8.91
367.393	8.55
367.602	7.75
367.811	8.45
368.021	8.91
368.23	9.92
368.439	10.31
368.648	10.82
368.857	10.79
369.067	11.25
369.276	11.07
369.485	11
369.694	10.8
369.903	10.81
370.112	10.51
370.321	10.46
370.531	9.87
370.74	9.27
370.949	9.31
371.158	9.88
371.367	10.47
371.576	10.7
371.785	11.17
371.994	11.87
372.203	12.47
372.412	13.06
372.621	13.56
372.83	13.57
373.039	14.13
373.248	13.3
373.457	13.41
373.666	13.54
373.874	13.48
374.083	13.01
374.292	12.57
374.501	12.21
374.71	11.23
374.919	10.82
375.128	11.04
375.336	10.75
375.545	11
375.754	9.54
375.963	9.02
376.171	9.64
376.38	9.41
376.589	10.06
376.798	10.59
377.006	10.76
377.215	10.97
377.424	11.17
377.632	11.72
377.841	11.57
378.05	12.73
378.258	13.22
378.467	13.03
378.675	13.26
378.884	13.02
379.093	12.59
379.301	12.36
379.51	12.25
379.718	12.06
379.927	11.37
380.135	11.62
380.344	10.84
380.552	10.45
380.761	9.94
380.969	9.77
381.177	9.28
381.386	9.23
381.594	9.73
381.803	10.23
382.011	9.89
382.219	10.27
382.428	9.69
382.636	9.56
382.845	9.71
383.053	9.32
383.261	9.4
383.469	9.6
383.678	10.08
383.886	9.85
384.094	9.49
384.302	9.79
384.511	10.01
384.719	10.25
384.927	10.52
385.135	10.12
385.343	10.44
385.552	10.76
385.76	10.77
385.968	10.14
386.176	10.21
386.384	10.2
386.592	10.05
386.8	9.73
387.008	9.65
387.216	9.49
387.424	8.95
387.633	9.1
387.841	8.82
388.049	8.72
388.257	8.79
388.465	8.61
388.672	8.3
388.88	8.62
389.088	8.16
389.296	8.55
389.504	8.66
389.712	9.15
389.92	9.11
390.128	8.89
390.336	8.78
390.544	8.95
390.751	9.03
390.959	9.01
391.167	8.56
391.375	9
391.583	8.95
391.79	8.77
391.998	8.92
392.206	9.17
392.414	9.44
392.621	9.24
392.829	9.3
393.037	9.02
393.244	9.13
393.452	9.37
393.66	9.44
393.867	9.11
394.075	9.12
394.283	9.25
394.49	8.87
394.698	8.73
394.905	8.71
395.113	8.4
395.32	8.52
395.528	8.4
395.735	8.12
395.943	8.17
396.15	8.02
396.358	8.17
396.565	8.19
396.773	8.47
396.98	8.44
397.188	8.71
397.395	8.85
397.602	8.93
397.81	8.8
398.017	9.26
398.225	8.91
398.432	9.25
398.639	8.95
398.847	8.63
399.054	8.32
399.261	8.6
399.468	8.39
399.676	8.29
399.883	8.24
400.09	8.09
400.297	7.97
400.505	7.92
400.712	7.45
400.919	7.71
401.126	7.48
401.333	7.36
401.54	6.67
401.748	6.8
401.955	6.6
402.162	6.35
402.369	6.32
402.576	6.44
402.783	6.7
402.99	7.01
403.197	6.85
403.404	6.85
403.611	6.86
403.818	7.09
404.025	7.24
404.232	7.3
404.439	7.46
404.646	7.61
404.853	7.13
405.06	6.98
405.267	6.77
405.474	6.94
405.681	7.27
405.887	7.39
406.094	7.62
406.301	7.27
406.508	7.57
406.715	7.48
406.922	7.61
407.128	7.77
407.335	7.69
407.542	7.74
407.749	7.36
407.955	7.45
408.162	7.04
408.369	6.64
408.575	6.82
408.782	6.44
408.989	6.56
409.195	6.57
409.402	6.52
409.609	6.5
409.815	6.68
410.022	6.67
410.228	6.42
410.435	6.79
410.642	7.03
410.848	7.19
411.055	7.32
411.261	7.37
411.468	7.07
411.674	7.04
411.881	7.15
412.087	7.28
412.294	7.64
412.5	7.85
412.706	7.96
412.913	7.82
413.119	7.7
413.326	7.77
413.532	7.73
413.738	7.87
413.945	7.96
414.151	8.12
414.357	7.82
414.564	7.84
414.77	7.6
414.976	7.61
415.182	7.54
415.389	7.35
415.595	7.14
415.801	7.02
416.007	7.05
416.214	6.86
416.42	6.63
416.626	6.6
416.832	6.52
417.038	6.42
417.244	6.42
417.45	6.51
417.657	6.58
417.863	6.58
418.069	6.57
418.275	6.42
418.481	6.53
418.687	6.46
418.893	6.61
419.099	6.56
419.305	6.62
419.511	6.63
419.717	6.73
419.923	6.74
420.129	6.72
420.335	6.65
420.541	6.77
420.746	6.82
420.952	6.85
421.158	6.77
421.364	6.77
421.57	6.62
421.776	6.55
421.982	6.52
422.187	6.45
422.393	6.49
422.599	6.64
422.805	6.7
423.01	6.64
423.216	6.67
423.422	6.56
423.628	6.56
423.833	6.58
424.039	6.51
424.245	6.34
424.45	6.28
424.656	6.2
424.862	6.16
425.067	6.06
425.273	6.04
425.478	5.91
425.684	5.95
425.889	5.79
426.095	5.81
426.301	5.9
426.506	5.95
426.712	5.91
426.917	6.03
427.123	6.1
427.328	6.08
427.533	5.98
427.739	6.2
427.944	6.17
428.15	6.18
428.355	6.37
428.561	6.37
428.766	6.29
428.971	6.56
429.177	6.48
429.382	6.1
429.587	6.08
429.793	6.43
429.998	6.52
430.203	6.72
430.408	6.93
430.614	6.94
430.819	6.91
431.024	6.8
431.229	6.72
431.434	6.85
431.64	7.1
431.845	7.16
432.05	6.83
432.255	6.71
432.46	6.65
432.665	6.55
432.87	6.55
433.076	6.47
433.281	6.47
433.486	6.3
433.691	6.24
433.896	6.32
434.101	6.22
434.306	6.48
434.511	6.38
434.716	6.34
434.921	6.39
435.126	6.32
435.331	6.33
435.535	6.48
435.74	6.6
435.945	6.66
436.15	6.48
436.355	6.47
436.56	6.28
436.765	6.47
436.97	6.62
437.174	6.65
437.379	6.66
437.584	6.66
437.789	6.55
437.993	6.65
438.198	6.62
438.403	6.77
438.608	6.7
438.812	6.67
439.017	6.54
439.222	6.54
439.426	6.58
439.631	6.45
439.836	6.5
440.04	6.53
440.245	6.48
440.45	6.49
440.654	6.44
440.859	6.52
441.063	6.62
441.268	6.72
441.472	6.6
441.677	6.64
441.881	6.75
442.086	6.63
442.29	6.7
442.495	6.66
442.699	6.58
442.904	6.58
443.108	6.56
443.312	6.57
443.517	6.44
443.721	6.36
443.925	6.32
444.13	6.35
444.334	6.45
444.538	6.53
444.743	6.48
444.947	6.4
445.151	6.48
445.356	6.5
445.56	6.36
445.764	6.42
445.968	6.42
446.173	6.38
446.377	6.3
446.581	6.31
446.785	6.24
446.989	6.33
447.193	6.41
447.398	6.25
447.602	6.25
447.806	6.39
448.01	6.24
448.214	6.25
448.418	6.27
448.622	6.3
448.826	6.33
449.03	6.37
449.234	6.33
449.438	6.47
449.642	6.53
449.846	6.62
450.05	6.5
450.254	6.56
450.458	6.78
450.662	6.65
450.866	6.6
451.069	6.52
451.273	6.32
451.477	6.39
451.681	6.35
451.885	6.28
452.089	6.05
452.292	6.11
452.496	6.27
452.7	6.11
452.904	6.21
453.107	6.32
453.311	6.46
453.515	6.64
453.719	6.61
453.922	6.53
454.126	6.57
454.33	6.67
454.533	6.68
454.737	6.53
454.94	6.71
455.144	6.75
455.348	6.76
455.551	6.73
455.755	6.59
455.958	6.43
456.162	6.18
456.365	6.12
456.569	6.24
456.772	6.24
456.976	6.31
457.179	6.27
457.383	6.15
457.586	6.02
457.79	5.74
457.993	5.88
458.196	6.02
458.4	6.13
458.603	6.25
458.807	6.1
459.01	6.03
459.213	5.95
459.417	5.87
459.62	5.85
459.823	5.96
460.026	6.15
460.23	6.13
460.433	6.17
460.636	6.23
460.839	6.29
461.042	6.33
461.246	6.42
461.449	6.42
461.652	6.39
461.855	6.44
462.058	6.22
462.261	6.24
462.464	6.23
462.668	6.24
462.871	6.3
463.074	6.16
463.277	6.3
463.48	6.3
463.683	6.38
463.886	6.35
464.089	6.39
464.292	6.53
464.495	6.35
464.698	6.31
464.901	6.24
465.104	6.12
465.306	6.12
465.509	5.92
465.712	5.73
465.915	5.7
