Data from 2938047_Reflection_1.txt Node
Date: Sun Jul 12 14:23:23 EDT 2015
User: robert
Spectrometer: USB4E03001
Autoset integration time: false
Trigger mode: 4
Integration Time (sec): 1.000000E-1
Scans to average: 10
Electric dark correction enabled: true
Nonlinearity correction enabled: false
Boxcar width: 5
Stray light correction enabled: false
XAxis mode: Wavelengths
Stop averaging: false
Number of Pixels in Spectrum: 3648
>>>>>Begin Spectral Data<<<<<
177.566	-56.23
177.785	-48.87
178.005	-50.8
178.225	-4.67
178.445	31.83
178.665	44.22
178.885	-1.56
179.105	-113.33
179.324	73.41
179.544	105.86
179.764	236.69
179.984	258.76
180.204	226.06
180.423	145.72
180.643	122.99
180.863	98.51
181.083	100.31
181.302	88.53
181.522	83.75
181.742	92.13
181.961	76.7
182.181	72.47
182.401	96.43
182.621	88.66
182.84	71.07
183.06	80.25
183.279	71.43
183.499	64.49
183.719	57.67
183.938	82.65
184.158	100.64
184.377	115.39
184.597	119.9
184.816	95.87
185.036	94
185.256	121.68
185.475	55.78
185.695	64.49
185.914	91.42
186.134	124.31
186.353	102.75
186.572	79.38
186.792	62.31
187.011	48.41
187.231	44.28
187.45	52.77
187.67	64.64
187.889	69.47
188.108	57.34
188.328	32.28
188.547	-5.64
188.766	-65.59
188.986	-65.04
189.205	-107.57
189.424	-67.55
189.644	-56.49
189.863	-87.2
190.082	-60.92
190.302	-28.73
190.521	-18.37
190.74	-6.52
190.959	15.57
191.178	56.23
191.398	67.85
191.617	65.21
191.836	86.03
192.055	39.64
192.274	50.56
192.494	209.38
192.713	67.65
192.932	82.33
193.151	67.1
193.37	57.4
193.589	29.9
193.808	57.94
194.027	81.23
194.246	78.82
194.465	94.61
194.685	102.36
194.904	93.68
195.123	86.75
195.342	92.49
195.561	110.15
195.78	155.87
195.999	131.31
196.218	77.02
196.436	76.24
196.655	77.62
196.874	83.5
197.093	73.01
197.312	86.39
197.531	83.88
197.75	63.14
197.969	83.82
198.188	86.58
198.407	89.91
198.625	104.88
198.844	95.96
199.063	71.11
199.282	58.43
199.501	47.98
199.719	29.08
199.938	53.82
200.157	69.15
200.376	38.23
200.594	28.37
200.813	33.39
201.032	36.01
201.251	52.26
201.469	63.59
201.688	68.33
201.907	76.97
202.125	74.07
202.344	66.56
202.563	57.65
202.781	82.55
203	74.43
203.218	86.45
203.437	103.94
203.656	107.38
203.874	129.74
204.093	94.8
204.311	104.45
204.53	101.65
204.748	122.08
204.967	120.58
205.185	101.89
205.404	99.62
205.622	91.54
205.841	68.75
206.059	42.03
206.278	27.69
206.496	53.5
206.715	46.5
206.933	76.6
207.151	72.68
207.37	93.17
207.588	79.34
207.806	92.4
208.025	87.77
208.243	78.62
208.461	101.17
208.68	160.92
208.898	177.22
209.116	151.88
209.335	126.95
209.553	88.02
209.771	51.82
209.989	63.33
210.208	65.46
210.426	84.75
210.644	86.09
210.862	86.71
211.081	72.49
211.299	71.42
211.517	63.24
211.735	56.38
211.953	63.84
212.171	63.76
212.39	62.16
212.608	61.64
212.826	51.62
213.044	46.69
213.262	50.3
213.48	49.57
213.698	51.52
213.916	61.04
214.134	71.34
214.352	73.83
214.57	77.69
214.788	76.08
215.006	67.82
215.224	78.26
215.442	106.04
215.66	91.36
215.878	92.76
216.096	89.22
216.314	89.92
216.532	88.15
216.75	77.2
216.968	68.42
217.185	69.44
217.403	72.44
217.621	65.97
217.839	62
218.057	65.61
218.275	60.81
218.492	54.51
218.71	44.93
218.928	43.34
219.146	44.14
219.363	52.17
219.581	60.08
219.799	56.44
220.017	50.94
220.234	47.12
220.452	39.74
220.67	45.81
220.887	49.01
221.105	47.12
221.323	54.66
221.54	53.34
221.758	46.89
221.976	46.46
222.193	45.73
222.411	60.3
222.629	65.06
222.846	60.7
223.064	58.6
223.281	53.05
223.499	75.58
223.716	59.37
223.934	43.62
224.151	48.33
224.369	46.92
224.586	56.82
224.804	57.44
225.021	49.14
225.239	72.21
225.456	70.14
225.674	58.53
225.891	53.66
226.108	50.26
226.326	48.95
226.543	45.28
226.76	40.27
226.978	41.2
227.195	36.78
227.413	36.15
227.63	28.93
227.847	22.21
228.064	26.15
228.282	21.99
228.499	20.86
228.716	21.45
228.934	24.7
229.151	22.51
229.368	21.64
229.585	21.77
229.802	22.95
230.02	22.16
230.237	25.04
230.454	23.4
230.671	25.79
230.888	28.77
231.105	29.93
231.323	26.74
231.54	29.34
231.757	30.44
231.974	30.62
232.191	28.03
232.408	28.84
232.625	29.84
232.842	31.56
233.059	32.98
233.276	29.09
233.493	26.19
233.71	21.95
233.927	16.13
234.144	13.16
234.361	14.85
234.578	16.96
234.795	14.42
235.012	15.18
235.229	10.34
235.446	13.23
235.663	17.91
235.879	20.77
236.096	25.27
236.313	27.67
236.53	22.57
236.747	24.48
236.964	16.74
237.181	21.03
237.397	19.1
237.614	26.79
237.831	18.24
238.048	13.63
238.264	16.13
238.481	13.04
238.698	14.39
238.915	16.02
239.131	10.07
239.348	16.45
239.565	16.01
239.781	16.39
239.998	8
240.215	13.06
240.431	14.78
240.648	10.22
240.865	10.05
241.081	13.69
241.298	15.1
241.514	17.83
241.731	18.35
241.947	15.7
242.164	14.76
242.38	16.75
242.597	16.31
242.814	15.95
243.03	17.87
243.246	18.9
243.463	15.56
243.679	16.84
243.896	16.22
244.112	16.87
244.329	18.43
244.545	20.16
244.762	21.73
244.978	18.97
245.194	19.27
245.411	19.19
245.627	19.08
245.843	20.65
246.06	19.32
246.276	17.15
246.492	15.58
246.709	15.69
246.925	14.9
247.141	14.47
247.357	14.5
247.574	14.72
247.79	14.67
248.006	14.88
248.222	14.56
248.439	15.07
248.655	15.84
248.871	15.6
249.087	15.77
249.303	16.54
249.519	17.25
249.736	19.03
249.952	18.26
250.168	19.88
250.384	18.98
250.6	18.37
250.816	17.38
251.032	17.29
251.248	19.13
251.464	19.26
251.68	17.54
251.896	15.91
252.112	15.87
252.328	15.55
252.544	11.74
252.76	11.4
252.976	12.17
253.192	12.85
253.408	12.76
253.624	11.37
253.84	10.21
254.056	11.49
254.272	13.45
254.487	14.78
254.703	14.94
254.919	16.93
255.135	15.16
255.351	15.48
255.567	17.6
255.782	18.93
255.998	17.64
256.214	18.1
256.43	18.4
256.646	15.11
256.861	13.44
257.077	12.96
257.293	14.47
257.508	14.76
257.724	14.27
257.94	11.06
258.155	10.19
258.371	12.33
258.587	12.49
258.802	11.75
259.018	11.63
259.234	11.31
259.449	11.94
259.665	11.47
259.88	12.3
260.096	12.59
260.312	12.63
260.527	12.23
260.743	11.51
260.958	10.94
261.174	10.56
261.389	11.15
261.605	11.15
261.82	11.14
262.036	12.47
262.251	13.46
262.466	12.39
262.682	12.23
262.897	11.63
263.113	12.23
263.328	12.85
263.543	13.71
263.759	13.82
263.974	13.94
264.189	13.37
264.405	9.83
264.62	7.06
264.835	9.36
265.051	9.54
265.266	10.1
265.481	10.77
265.696	11.02
265.912	10.74
266.127	11.79
266.342	11.47
266.557	11.35
266.773	14.18
266.988	12.91
267.203	12.5
267.418	13.8
267.633	13.81
267.848	13.45
268.064	15.6
268.279	16.13
268.494	14.71
268.709	14.76
268.924	16.14
269.139	14.06
269.354	15.66
269.569	15.37
269.784	13.77
269.999	14.57
270.214	13.78
270.429	12.67
270.644	11.64
270.859	11.84
271.074	11.17
271.289	11.72
271.504	12.24
271.719	11.9
271.934	11.09
272.149	11.83
272.363	12.02
272.578	12.18
272.793	12.95
273.008	13.63
273.223	12.97
273.438	13.13
273.653	11.16
273.867	11.06
274.082	10.98
274.297	12.38
274.512	13.29
274.726	11.56
274.941	11.87
275.156	10.32
275.371	9.26
275.585	10.06
275.8	10.19
276.015	11.51
276.229	11.11
276.444	10.15
276.659	9.49
276.873	8
277.088	8.65
277.302	9.34
277.517	7.68
277.732	7.3
277.946	7.66
278.161	8.89
278.375	7.31
278.59	9.34
278.804	11.48
279.019	11.97
279.233	12.5
279.448	12.14
279.662	10.1
279.877	9.8
280.091	12.01
280.306	10.81
280.52	8.98
280.735	9.81
280.949	8.35
281.163	7.67
281.378	7.32
281.592	7.88
281.806	7.94
282.021	7.66
282.235	9.98
282.449	10.94
282.664	11.82
282.878	13.05
283.092	13.36
283.307	13.54
283.521	14.02
283.735	13.98
283.949	13.06
284.164	13.93
284.378	15.11
284.592	14.16
284.806	12.28
285.02	11.82
285.234	11.1
285.449	11.43
285.663	12.3
285.877	12.42
286.091	13.04
286.305	13.18
286.519	12.96
286.733	12.08
286.947	12
287.161	13.31
287.375	13.7
287.589	13.84
287.803	13.28
288.017	13.24
288.231	13.55
288.445	12.16
288.659	12.48
288.873	11.68
289.087	13.38
289.301	14.61
289.515	13.43
289.729	11.8
289.943	13.15
290.157	12.91
290.371	11.54
290.584	10.32
290.798	10.94
291.012	11.38
291.226	12.91
291.44	13.27
291.654	13.21
291.867	13.24
292.081	14.02
292.295	14.55
292.509	15.1
292.722	16.13
292.936	17.8
293.15	16.42
293.364	15.29
293.577	15.13
293.791	14.33
294.005	12.8
294.218	12.63
294.432	11.29
294.645	9.54
294.859	8.66
295.073	8.45
295.286	7.23
295.5	9.13
295.713	9.31
295.927	9.05
296.14	8.38
296.354	9.11
296.568	9.17
296.781	10.92
296.994	11.43
297.208	11.84
297.421	12.06
297.635	11.89
297.848	12.21
298.062	11.98
298.275	11.48
298.489	11.04
298.702	11.05
298.915	11.18
299.129	10.91
299.342	11.32
299.555	11.25
299.769	10.8
299.982	11.56
300.195	10.89
300.409	13.01
300.622	12.55
300.835	13.12
301.048	13.91
301.262	15.19
301.475	16.52
301.688	15.5
301.901	16.33
302.115	15.08
302.328	15.7
302.541	14.71
302.754	11.97
302.967	13.56
303.18	14.78
303.393	13.43
303.607	12.39
303.82	11.94
304.033	13.96
304.246	13.95
304.459	16.31
304.672	15.85
304.885	16.84
305.098	19.32
305.311	18.93
305.524	18.29
305.737	18.78
305.95	18.14
306.163	18.89
306.376	17.42
306.589	18.31
306.802	18.21
307.015	17.49
307.228	16.47
307.44	14.23
307.653	13.6
307.866	14.15
308.079	16.99
308.292	17.83
308.505	15.58
308.718	15.63
308.93	15.1
309.143	14.02
309.356	15.8
309.569	17.53
309.781	18.34
309.994	19.88
310.207	18.86
310.42	16.11
310.632	15.88
310.845	16.18
311.058	16.03
311.27	14.69
311.483	13.71
311.696	12.46
311.908	12.04
312.121	11.41
312.333	10.22
312.546	10.61
312.759	10.31
312.971	10.14
313.184	10.84
313.396	10.99
313.609	12.03
313.821	12.43
314.034	11.27
314.246	9.54
314.459	10.64
314.671	11.29
314.884	10.69
315.096	11.68
315.309	12.62
315.521	10.69
315.733	12.16
315.946	12.65
316.158	14.25
316.371	15.51
316.583	16.43
316.795	16.3
317.008	16.5
317.22	16.73
317.432	15.92
317.644	16.64
317.857	18.47
318.069	16.52
318.281	14.86
318.494	14.36
318.706	15.3
318.918	15.42
319.13	15.7
319.342	15.68
319.555	17.5
319.767	17.63
319.979	15.76
320.191	15.82
320.403	15.5
320.615	17.34
320.827	17.92
321.039	16.33
321.252	16.84
321.464	14.67
321.676	14.79
321.888	13.42
322.1	14.89
322.312	16.3
322.524	16.43
322.736	18.09
322.948	17.14
323.16	15.52
323.372	16.5
323.584	15.76
323.796	18.39
324.007	18.43
324.219	19.23
324.431	17.14
324.643	17.52
324.855	16.78
325.067	17.46
325.279	17.45
325.491	17.63
325.702	18.42
325.914	18.68
326.126	17.2
326.338	16.53
326.55	15.08
326.761	15.39
326.973	15.68
327.185	17.09
327.396	15.89
327.608	16.11
327.82	17.4
328.032	16.28
328.243	17.56
328.455	16.67
328.666	15.95
328.878	16.89
329.09	17.24
329.301	14.28
329.513	13.34
329.725	12.5
329.936	13.68
330.148	13.03
330.359	13.68
330.571	11.78
330.782	11.76
330.994	12.96
331.205	13.37
331.417	15.65
331.628	15.6
331.84	14.31
332.051	14.24
332.262	13.12
332.474	13.76
332.685	13.66
332.897	13.4
333.108	13.97
333.319	13.91
333.531	14.03
333.742	13.33
333.953	14.6
334.165	14.42
334.376	14.68
334.587	15.17
334.799	14.04
335.01	13.2
335.221	13.99
335.432	13.94
335.644	13
335.855	12.05
336.066	11.69
336.277	12.17
336.488	13.18
336.7	14.14
336.911	13.05
337.122	13.14
337.333	14.03
337.544	13.73
337.755	14.67
337.966	15.36
338.177	15.9
338.388	15.04
338.599	14.1
338.811	13.9
339.022	11.74
339.233	12.9
339.444	13.71
339.655	11.36
339.866	11.64
340.076	11.55
340.287	12.04
340.498	10.86
340.709	11.46
340.92	12.05
341.131	11.99
341.342	12.61
341.553	12.86
341.764	12.15
341.975	13.31
342.185	12.62
342.396	12.33
342.607	11.5
342.818	12.24
343.029	13.05
343.239	13.15
343.45	12.46
343.661	12.67
343.872	11.73
344.082	11.92
344.293	11.41
344.504	11.94
344.714	11.61
344.925	11.84
345.136	11.75
345.346	9.84
345.557	9.31
345.768	10.28
345.978	10.31
346.189	10.92
346.399	10.93
346.61	11.98
346.821	12.02
347.031	11.72
347.242	11.23
347.452	11.68
347.663	12.29
347.873	13.52
348.084	14.15
348.294	14.86
348.504	14.19
348.715	14.15
348.925	14.06
349.136	13.14
349.346	12.63
349.557	11.01
349.767	10.25
349.977	10.75
350.188	8.95
350.398	7.97
350.608	6.76
350.819	5.64
351.029	5.31
351.239	5.38
351.449	6.83
351.66	7.72
351.87	9.09
352.08	9.94
352.29	11.09
352.501	12.32
352.711	12.23
352.921	13.14
353.131	12.92
353.341	12.85
353.552	13.75
353.762	14.66
353.972	14.29
354.182	14.18
354.392	13.81
354.602	13.44
354.812	12.35
355.022	12.98
355.232	11.68
355.442	12.8
355.652	12.82
355.862	11.62
356.072	10.21
356.282	10.8
356.492	11.92
356.702	12.02
356.912	11.6
357.122	12.27
357.332	11.9
357.542	12.47
357.752	12.4
357.962	12.1
358.171	12.07
358.381	11.72
358.591	10.76
358.801	9.6
359.011	9.36
359.221	8.93
359.43	8.43
359.64	7.88
359.85	9.06
360.06	9.51
360.269	10.47
360.479	11.23
360.689	11.3
360.899	11.35
361.108	11.8
361.318	12.23
361.528	11.77
361.737	11.71
361.947	11.82
362.156	11.19
362.366	10.78
362.576	10.67
362.785	10.2
362.995	10.27
363.204	10.71
363.414	10.66
363.623	9.87
363.833	10.54
364.042	10.45
364.252	10.71
364.461	10.64
364.671	10.35
364.88	10.36
365.09	10.52
365.299	10.92
365.509	11.08
365.718	10.35
365.927	10.49
366.137	10.24
366.346	10.23
366.555	9.77
366.765	10.3
366.974	10.37
367.183	9.66
367.393	9.1
367.602	7.89
367.811	7.89
368.021	9.04
368.23	8.76
368.439	9.3
368.648	9.9
368.857	9.49
369.067	8.18
369.276	8.57
369.485	8.41
369.694	8.99
369.903	10.71
370.112	10.21
370.321	9.37
370.531	9.38
370.74	9.27
370.949	8.66
371.158	8.99
371.367	9.65
371.576	9.59
371.785	10.21
371.994	10.46
372.203	9.62
372.412	9.76
372.621	9.78
372.83	10.12
373.039	10.13
373.248	10.12
373.457	10.13
373.666	9.8
373.874	9.48
374.083	8.8
374.292	8.02
374.501	7.91
374.71	7.7
374.919	7.59
375.128	7.14
375.336	6.39
375.545	5.98
375.754	5.96
375.963	5.93
376.171	5.72
376.38	6.15
376.589	6.22
376.798	6.5
377.006	6.47
377.215	7.14
377.424	7.44
377.632	7.38
377.841	7.93
378.05	8.19
378.258	8.05
378.467	8.33
378.675	7.68
378.884	7.65
379.093	7.31
379.301	7.52
379.51	7.34
379.718	7.09
379.927	7.72
380.135	8.17
380.344	8.11
380.552	8.34
380.761	7.94
380.969	8.77
381.177	8.77
381.386	9.24
381.594	8.69
381.803	8.46
382.011	8.43
382.219	7.91
382.428	7.36
382.636	7.46
382.845	7.59
383.053	7.93
383.261	7.61
383.469	6.77
383.678	5.89
383.886	6.49
384.094	6.32
384.302	6.16
384.511	6.32
384.719	6.47
384.927	6.22
385.135	5.61
385.343	5.71
385.552	5.55
385.76	6.41
385.968	7.07
386.176	6.66
386.384	6.72
386.592	7.22
386.8	7.06
387.008	6.68
387.216	6.3
387.424	6.91
387.633	6.56
387.841	6.77
388.049	6.84
388.257	6.37
388.465	6.23
388.672	5.86
388.88	5.36
389.088	5.47
389.296	5.59
389.504	5.81
389.712	5.76
389.92	5.69
390.128	5.48
390.336	4.79
390.544	4.97
390.751	5.29
390.959	5.05
391.167	4.97
391.375	4.88
391.583	4.82
391.79	4.67
391.998	4.52
392.206	4.64
392.414	4.74
392.621	4.67
392.829	4.77
393.037	4.69
393.244	5.32
393.452	5.32
393.66	5.12
393.867	4.93
394.075	4.88
394.283	4.49
394.49	4.42
394.698	4.11
394.905	4.97
395.113	4.76
395.32	4.73
395.528	4.19
395.735	4.24
395.943	4.35
396.15	4.71
396.358	4.69
396.565	4.89
396.773	4.79
396.98	4.94
397.188	4.38
397.395	4.05
397.602	3.98
397.81	4.05
398.017	3.97
398.225	4.1
398.432	3.82
398.639	4.17
398.847	4.28
399.054	4.2
399.261	4.15
399.468	4.32
399.676	4.46
399.883	4.46
400.09	4.6
400.297	4.49
400.505	4.42
400.712	4.43
400.919	4.2
401.126	4.11
401.333	4.25
401.54	4.15
401.748	4.04
401.955	4.26
402.162	4.27
402.369	4.56
402.576	4.45
402.783	4.21
402.99	4.31
403.197	4.25
403.404	4.39
403.611	4.28
403.818	4.23
404.025	4.15
404.232	3.9
404.439	3.6
404.646	3.07
404.853	3.52
405.06	3.65
405.267	3.49
405.474	3.4
405.681	3.14
405.887	3.39
406.094	3.25
406.301	3.26
406.508	3.4
406.715	3.73
406.922	3.86
407.128	3.47
407.335	3.4
407.542	3.69
407.749	4.14
407.955	4.2
408.162	3.95
408.369	3.9
408.575	3.87
408.782	3.77
408.989	3.56
409.195	3.66
409.402	3.71
409.609	3.84
409.815	3.46
410.022	2.95
410.228	2.74
410.435	2.91
410.642	3.06
410.848	2.95
411.055	3.17
411.261	3.33
411.468	3.23
411.674	3.12
411.881	3.27
412.087	3.36
412.294	3.74
412.5	3.87
412.706	3.71
412.913	3.93
413.119	3.88
413.326	3.49
413.532	3.33
413.738	3.63
413.945	3.84
414.151	3.79
414.357	3.91
414.564	3.63
414.77	3.8
414.976	3.69
415.182	3.49
415.389	3.63
415.595	3.87
415.801	3.93
416.007	3.63
416.214	3.55
416.42	3.42
416.626	3.44
416.832	3.62
417.038	3.44
417.244	3.39
417.45	3.38
417.657	3.49
417.863	3.5
418.069	3.55
418.275	3.61
418.481	3.6
418.687	3.56
418.893	3.6
419.099	3.5
419.305	3.49
419.511	3.57
419.717	3.59
419.923	3.32
420.129	3.21
420.335	3.22
420.541	3.13
420.746	3.08
420.952	3.05
421.158	3.02
421.364	3
421.57	3.01
421.776	3.07
421.982	3.16
422.187	3.15
422.393	3.12
422.599	2.96
422.805	3.03
423.01	3.14
423.216	3.28
423.422	3.18
423.628	3.23
423.833	3.11
424.039	3.06
424.245	3.01
424.45	3.09
424.656	3.1
424.862	3.04
425.067	3
425.273	2.77
425.478	2.62
425.684	2.55
425.889	2.47
426.095	2.66
426.301	2.62
426.506	2.51
426.712	2.42
426.917	2.56
427.123	2.76
427.328	2.8
427.533	2.92
427.739	2.87
427.944	2.97
428.15	2.98
428.355	2.8
428.561	2.76
428.766	2.79
428.971	2.87
429.177	3.06
429.382	3.08
429.587	3.26
429.793	3.4
429.998	3.3
430.203	3.14
430.408	3.12
430.614	3.24
430.819	3.16
431.024	3.1
431.229	3.16
431.434	2.79
431.64	2.56
431.845	2.29
432.05	2.38
432.255	2.49
432.46	2.62
432.665	2.61
432.87	2.66
433.076	2.74
433.281	2.87
433.486	2.74
433.691	2.79
433.896	3.04
434.101	3.22
434.306	3
434.511	2.94
434.716	2.97
434.921	3.06
435.126	2.96
435.331	2.91
435.535	2.58
435.74	2.74
435.945	2.68
436.15	2.35
436.355	1.98
436.56	2.16
436.765	2.26
436.97	2.27
437.174	2.12
437.379	2.03
437.584	2.11
437.789	2.33
437.993	2.28
438.198	2.47
438.403	2.52
438.608	2.59
438.812	2.44
439.017	2.51
439.222	2.41
439.426	2.49
439.631	2.5
439.836	2.49
440.04	2.48
440.245	2.54
440.45	2.61
440.654	2.52
440.859	2.55
441.063	2.62
441.268	2.53
441.472	2.54
441.677	2.56
441.881	2.54
442.086	2.52
442.29	2.57
442.495	2.54
442.699	2.38
442.904	2.58
443.108	2.62
443.312	2.58
443.517	2.57
443.721	2.64
443.925	2.69
444.13	2.76
444.334	2.65
444.538	2.53
444.743	2.42
444.947	2.45
445.151	2.47
445.356	2.57
445.56	2.59
445.764	2.62
445.968	2.51
446.173	2.37
446.377	2.34
446.581	2.48
446.785	2.55
446.989	2.55
447.193	2.42
447.398	2.46
447.602	2.44
447.806	2.43
448.01	2.55
448.214	2.63
448.418	2.64
448.622	2.68
448.826	2.45
449.03	2.5
449.234	2.45
449.438	2.45
449.642	2.34
449.846	2.39
450.05	2.35
450.254	2.22
450.458	2.26
450.662	2.28
450.866	2.36
451.069	2.55
451.273	2.48
451.477	2.5
451.681	2.68
451.885	2.63
452.089	2.33
452.292	2.36
452.496	2.29
452.7	2.3
452.904	2.34
453.107	2.44
453.311	2.65
453.515	2.76
453.719	2.93
453.922	2.89
454.126	3.04
454.33	3.11
454.533	3.24
454.737	3.11
454.94	3.04
455.144	3.17
455.348	3.04
455.551	2.96
455.755	3.02
455.958	2.85
456.162	2.93
456.365	2.77
456.569	2.89
456.772	2.87
456.976	2.99
457.179	2.84
457.383	2.65
457.586	2.54
457.79	2.33
457.993	2.18
458.196	2.21
458.4	2.03
458.603	2.12
458.807	2.14
459.01	2.15
459.213	2.06
459.417	2.13
459.62	2.26
459.823	2.38
460.026	2.49
460.23	2.43
460.433	2.47
460.636	2.55
460.839	2.55
461.042	2.66
461.246	2.63
461.449	2.66
461.652	2.75
461.855	2.57
462.058	2.5
462.261	2.49
462.464	2.59
462.668	2.45
462.871	2.42
463.074	2.43
463.277	2.33
463.48	2.39
463.683	2.46
463.886	2.35
