Data from 2938089_Reflection_2.txt Node
Date: Sat Jul 11 19:23:26 EDT 2015
User: robert
Spectrometer: USB4E03001
Autoset integration time: false
Trigger mode: 4
Integration Time (sec): 1.000000E-1
Scans to average: 10
Electric dark correction enabled: true
Nonlinearity correction enabled: false
Boxcar width: 5
Stray light correction enabled: false
XAxis mode: Wavelengths
Stop averaging: false
Number of Pixels in Spectrum: 3648
>>>>>Begin Spectral Data<<<<<
177.566	60.51
177.785	15.44
178.005	26.74
178.225	-0.17
178.445	-50.82
178.665	-85.87
178.885	72.25
179.105	29.32
179.324	67.9
179.544	63.39
179.764	61.81
179.984	84.37
180.204	42.62
180.423	73.54
180.643	59.17
180.863	10.74
181.083	-40.33
181.302	-47.03
181.522	-120.69
181.742	-114.09
181.961	-109.1
182.181	-239.15
182.401	-44.92
182.621	-44.34
182.84	-53.16
183.06	-43.3
183.279	-5.57
183.499	24.13
183.719	33.01
183.938	32.81
184.158	15.21
184.377	21.38
184.597	15.87
184.816	7.02
185.036	6.78
185.256	0.83
185.475	10.58
185.695	18.02
185.914	7
186.134	9.26
186.353	7.87
186.572	17.44
186.792	16.18
187.011	34.48
187.231	50.29
187.45	30.64
187.67	26.38
187.889	-8.46
188.108	-35.31
188.328	10.18
188.547	19.69
188.766	-0.08
188.986	19.55
189.205	33.17
189.424	42.57
189.644	13.99
189.863	29.63
190.082	14.58
190.302	19.62
190.521	7.18
190.74	-31.89
190.959	-76
191.178	-59.58
191.398	-78.31
191.617	-84.22
191.836	-47.87
192.055	-28.28
192.274	-29.25
192.494	-32.28
192.713	-43.18
192.932	-18.89
193.151	-57.65
193.37	-16.77
193.589	1.21
193.808	9.07
194.027	77.2
194.246	-1255.1
194.465	169.57
194.685	103.72
194.904	-52.69
195.123	-103.19
195.342	121.83
195.561	-110.46
195.78	-47.69
195.999	-69.46
196.218	-100.25
196.436	-180.98
196.655	-77.32
196.874	-66.11
197.093	-33.67
197.312	-99.26
197.531	-112.55
197.75	-26.95
197.969	-27.57
198.188	-32.54
198.407	-554.31
198.625	-293.22
198.844	-34.92
199.063	15.6
199.282	2.53
199.501	-10.6
199.719	45.99
199.938	33.35
200.157	-5.17
200.376	11.74
200.594	10.06
200.813	20.7
201.032	22.83
201.251	18.72
201.469	7.13
201.688	4.49
201.907	11.53
202.125	2.08
202.344	-6.16
202.563	17.59
202.781	-9.69
203	-13.93
203.218	0.11
203.437	-0.06
203.656	13.66
203.874	31.65
204.093	22.57
204.311	9.04
204.53	-11.2
204.748	-3.41
204.967	-15.4
205.185	7.92
205.404	16.97
205.622	-3.06
205.841	0.75
206.059	-11.3
206.278	-36.86
206.496	-14.92
206.715	3.59
206.933	21.25
207.151	20.49
207.37	26.6
207.588	32.69
207.806	25.69
208.025	38.04
208.243	43.55
208.461	33.64
208.68	50.26
208.898	51.67
209.116	40.95
209.335	23.61
209.553	31.22
209.771	24.05
209.989	6.64
210.208	-7.77
210.426	-256.94
210.644	-552.24
210.862	-44.47
211.081	-62.11
211.299	-79.26
211.517	-56.23
211.735	-145.18
211.953	-232.42
212.171	-224.76
212.39	-355.71
212.608	-212.76
212.826	-190.62
213.044	-207.55
213.262	-138.12
213.48	-261.53
213.698	2331.2
213.916	-258.22
214.134	-59.83
214.352	-44.55
214.57	-12.9
214.788	6.81
215.006	-24.18
215.224	-23.96
215.442	-23.16
215.66	-15.98
215.878	-6.56
216.096	3.19
216.314	-22.58
216.532	-9.96
216.75	-9.88
216.968	-16.36
217.185	12.81
217.403	43.17
217.621	40.34
217.839	40.81
218.057	35.14
218.275	24.35
218.492	31.42
218.71	25.33
218.928	6.93
219.146	2.94
219.363	17.25
219.581	1.46
219.799	-12.64
220.017	-12.1
220.234	-25.51
220.452	-38.35
220.67	5.1
220.887	14.66
221.105	30.13
221.323	48.47
221.54	10.64
221.758	-6.07
221.976	-61.42
222.193	-679.26
222.411	-97.17
222.629	-99.8
222.846	-73.99
223.064	-79.67
223.281	-69.61
223.499	-42.12
223.716	-57.24
223.934	-28.28
224.151	-31.88
224.369	-2.1
224.586	10.79
224.804	16.88
225.021	21.61
225.239	26.73
225.456	17.61
225.674	14.74
225.891	11.46
226.108	30.34
226.326	29.31
226.543	33.6
226.76	13.17
226.978	7.94
227.195	4
227.413	-4.73
227.63	-0.61
227.847	2.19
228.064	8.54
228.282	10.97
228.499	9.43
228.716	10.39
228.934	11.46
229.151	13.93
229.368	13.6
229.585	10.46
229.802	10.31
230.02	8.6
230.237	10.22
230.454	7.03
230.671	6.89
230.888	2.05
231.105	-0.3
231.323	-1.6
231.54	-4.62
231.757	-6.36
231.974	-0.85
232.191	0.67
232.408	0.87
232.625	-4.4
232.842	-3.61
233.059	-6.02
233.276	-2.88
233.493	7.2
233.71	4.69
233.927	4.09
234.144	5.12
234.361	0.33
234.578	-6.43
234.795	-5.53
235.012	-4.74
235.229	-0.65
235.446	1.71
235.663	-1.64
235.879	-13.11
236.096	-8.7
236.313	-3.52
236.53	-5.24
236.747	1.72
236.964	4.25
237.181	7.5
237.397	15.4
237.614	11.64
237.831	14.09
238.048	20.66
238.264	24.81
238.481	17.14
238.698	12.81
238.915	12.7
239.131	7.34
239.348	10
239.565	7.76
239.781	1.79
239.998	3.8
240.215	-1.44
240.431	-5.55
240.648	-5.46
240.865	-0.11
241.081	2.25
241.298	5.56
241.514	5.52
241.731	5.53
241.947	5.37
242.164	6.79
242.38	6.92
242.597	9.08
242.814	9.33
243.03	8.41
243.246	12.07
243.463	11.49
243.679	11.08
243.896	10.04
244.112	7.46
244.329	8.94
244.545	9.7
244.762	9.27
244.978	6.68
245.194	7.91
245.411	9.91
245.627	7.21
245.843	6.99
246.06	4.63
246.276	6.8
246.492	9.04
246.709	9.39
246.925	8.78
247.141	9.77
247.357	10.09
247.574	9.59
247.79	9.03
248.006	8.54
248.222	9.24
248.439	9.7
248.655	9.25
248.871	7.75
249.087	6.33
249.303	5.4
249.519	3.31
249.736	0.89
249.952	0.04
250.168	-0.58
250.384	-1.69
250.6	-3.6
250.816	-3.96
251.032	-2.68
251.248	-3.4
251.464	-2.56
251.68	-0.74
251.896	-0.52
252.112	0.17
252.328	2.21
252.544	2.74
252.76	6.14
252.976	6.78
253.192	7.11
253.408	7.04
253.624	8.24
253.84	8.9
254.056	10.78
254.272	12.68
254.487	15.89
254.703	17.08
254.919	17.58
255.135	11
255.351	11.94
255.567	10.34
255.782	7.01
255.998	7.67
256.214	4.21
256.43	-0.47
256.646	-4.85
256.861	-7.79
257.077	-12.39
257.293	-12.07
257.508	-9.34
257.724	-8.57
257.94	-6.72
258.155	-2.73
258.371	-0.75
258.587	0.93
258.802	2.8
259.018	5.33
259.234	5.7
259.449	6.51
259.665	7.05
259.88	7.31
260.096	6.3
260.312	7.2
260.527	7.29
260.743	7.02
260.958	6.89
261.174	6.45
261.389	6.39
261.605	7.26
261.82	7.33
262.036	7.42
262.251	7.41
262.466	7.25
262.682	5.04
262.897	3.22
263.113	2.74
263.328	3
263.543	2.08
263.759	1.36
263.974	-1.59
264.189	-2.07
264.405	-2.9
264.62	-2.16
264.835	-1.19
265.051	-0.44
265.266	1.86
265.481	1.28
265.696	4.04
265.912	5.21
266.127	4.84
266.342	7.05
266.557	7.63
266.773	7.77
266.988	8.23
267.203	7.47
267.418	8.29
267.633	7.77
267.848	9.32
268.064	6.1
268.279	6.96
268.494	6.16
268.709	5.2
268.924	3.94
269.139	5.51
269.354	5.66
269.569	7
269.784	8.04
269.999	8.51
270.214	8.74
270.429	9.87
270.644	9.72
270.859	9.77
271.074	9.04
271.289	8.16
271.504	6.44
271.719	6.3
271.934	6.64
272.149	5.82
272.363	5.66
272.578	4.58
272.793	4.51
273.008	3.2
273.223	4.49
273.438	5.24
273.653	6.5
273.867	7.32
274.082	6.75
274.297	6.12
274.512	6.38
274.726	6.47
274.941	7.5
275.156	7.74
275.371	8.49
275.585	5.77
275.8	5.24
276.015	4.54
276.229	2.48
276.444	0.6
276.659	0.67
276.873	1.61
277.088	1.81
277.302	0.08
277.517	0.58
277.732	1.59
277.946	3.07
278.161	3.37
278.375	4.62
278.59	5.25
278.804	7.21
279.019	8.96
279.233	7.78
279.448	5.65
279.662	7.25
279.877	6.83
280.091	4.56
280.306	4.56
280.52	6.8
280.735	6.13
280.949	6.69
281.163	3.37
281.378	2.57
281.592	0.85
281.806	2.73
282.021	1.64
282.235	1.7
282.449	2.74
282.664	2.96
282.878	1.33
283.092	0.4
283.307	-0.54
283.521	2.65
283.735	1.83
283.949	3.7
284.164	3.96
284.378	3.86
284.592	2.93
284.806	2.93
285.02	4.02
285.234	4.33
285.449	5.8
285.663	6.86
285.877	6.81
286.091	7.06
286.305	6.16
286.519	6.83
286.733	8.02
286.947	7.94
287.161	8.4
287.375	8.57
287.589	7.79
287.803	7.2
288.017	7.2
288.231	6.69
288.445	8.52
288.659	10.79
288.873	8.23
289.087	7.5
289.301	8.93
289.515	8.37
289.729	8.46
289.943	9.43
290.157	9.77
290.371	9.3
290.584	9.54
290.798	8.37
291.012	6.07
291.226	7.72
291.44	8.82
291.654	8.78
291.867	8.22
292.081	6.29
292.295	5.45
292.509	5.54
292.722	6.06
292.936	5.62
293.15	5.13
293.364	5.57
293.577	5.01
293.791	5.31
294.005	5.3
294.218	5.34
294.432	5.52
294.645	6.61
294.859	6.08
295.073	6
295.286	6.12
295.5	6.69
295.713	6.83
295.927	8.4
296.14	7.1
296.354	7.98
296.568	9.19
296.781	9.05
296.994	8.11
297.208	8.49
297.421	8.95
297.635	9.47
297.848	10.14
298.062	9.33
298.275	8.42
298.489	9.92
298.702	9.42
298.915	9.19
299.129	9.44
299.342	9.28
299.555	9.28
299.769	9.18
299.982	8.98
300.195	7.66
300.409	7.42
300.622	6.69
300.835	5.77
301.048	5.2
301.262	2.81
301.475	3.49
301.688	5.64
301.901	5
302.115	3.27
302.328	2.72
302.541	3.58
302.754	5.45
302.967	5.65
303.18	4.97
303.393	6.18
303.607	7.76
303.82	9.04
304.033	8.58
304.246	8.41
304.459	9.88
304.672	8.93
304.885	8.09
305.098	7.51
305.311	8.99
305.524	10.51
305.737	9.04
305.95	8.72
306.163	7.72
306.376	8.34
306.589	8.45
306.802	8.44
307.015	11.23
307.228	12.59
307.44	13.55
307.653	12.46
307.866	11.71
308.079	11.96
308.292	12.56
308.505	12.22
308.718	10.81
308.93	11.9
309.143	10.43
309.356	9.3
309.569	7.8
309.781	8.29
309.994	8.15
310.207	8.45
310.42	8.96
310.632	9.79
310.845	9.4
311.058	10.39
311.27	9.19
311.483	10.19
311.696	8.88
311.908	8.79
312.121	8.16
312.333	7.86
312.546	6.8
312.759	6.23
312.971	5.33
313.184	5.72
313.396	4.14
313.609	4.51
313.821	4.99
314.034	5.75
314.246	7.32
314.459	9.28
314.671	9.75
314.884	9.29
315.096	10.64
315.309	9.8
315.521	9.26
315.733	9.14
315.946	9.72
316.158	8.68
316.371	11.03
316.583	7.74
316.795	4.03
317.008	4.2
317.22	5.87
317.432	5.28
317.644	8.17
317.857	8.69
318.069	9.43
318.281	9.12
318.494	8.43
318.706	5.93
318.918	8.17
319.13	9.25
319.342	8.06
319.555	7.02
319.767	7.4
319.979	5.85
320.191	5.15
320.403	3.75
320.615	1.18
320.827	1.08
321.039	2.15
321.252	2.01
321.464	3.87
321.676	4.99
321.888	5.18
322.1	5.21
322.312	3.49
322.524	1.79
322.736	2.44
322.948	2.42
323.16	3.49
323.372	3.76
323.584	2.81
323.796	1.41
324.007	1.75
324.219	2.43
324.431	0.08
324.643	1.59
324.855	3.57
325.067	4.71
325.279	6.48
325.491	5.95
325.702	5.86
325.914	6.99
326.126	8.38
326.338	7.86
326.55	6.25
326.761	8
326.973	7.78
327.185	7.07
327.396	7.04
327.608	7.71
327.82	8.11
328.032	7.94
328.243	7.28
328.455	5.2
328.666	5.81
328.878	5.38
329.09	3.53
329.301	1.09
329.513	1.17
329.725	0.27
329.936	-1.18
330.148	-1.25
330.359	-0.72
330.571	-0.58
330.782	-0.14
330.994	-2.98
331.205	-1.61
331.417	0.94
331.628	3.42
331.84	4.35
332.051	4.45
332.262	4.55
332.474	5.23
332.685	5.43
332.897	7.1
333.108	8.33
333.319	9.82
333.531	10.15
333.742	8.89
333.953	8.29
334.165	8.01
334.376	9.11
334.587	8.97
334.799	8
335.01	6.69
335.221	5.5
335.432	3.57
335.644	3.35
335.855	3.08
336.066	3.89
336.277	3.46
336.488	3.69
336.7	3.64
336.911	4.52
337.122	5.63
337.333	7.28
337.544	6.26
337.755	7.14
337.966	8.21
338.177	7.79
338.388	7.16
338.599	7.38
338.811	6.28
339.022	5.42
339.233	3.95
339.444	2.72
339.655	1.84
339.866	2.3
340.076	3.79
340.287	2.02
340.498	1.93
340.709	2.33
340.92	2.93
341.131	4.12
341.342	4.45
341.553	5.39
341.764	5.21
341.975	5.68
342.185	5.95
342.396	4.22
342.607	5.7
342.818	7.57
343.029	8.24
343.239	8.72
343.45	8.79
343.661	9.39
343.872	8.93
344.082	9.39
344.293	8.99
344.504	9.08
344.714	9.25
344.925	10.07
345.136	8.84
345.346	8.07
345.557	7.97
345.768	8.97
345.978	8.63
346.189	9.47
346.399	10.04
346.61	9.12
346.821	10.18
347.031	11.03
347.242	10.23
347.452	10.44
347.663	10.73
347.873	9.92
348.084	8.14
348.294	7.92
348.504	5.87
348.715	6.04
348.925	7.55
349.136	5.91
349.346	5.99
349.557	5.07
349.767	3.6
349.977	3.79
350.188	2.77
350.398	3.62
350.608	2.32
350.819	3.33
351.029	2.79
351.239	2.26
351.449	2.28
351.66	1.86
351.87	1.96
352.08	2.28
352.29	0.17
352.501	2.74
352.711	2.42
352.921	3.26
353.131	3.24
353.341	1.63
353.552	1.12
353.762	0.51
353.972	0.91
354.182	1.45
354.392	2.66
354.602	3.83
354.812	3.46
355.022	2.76
355.232	4.08
355.442	4.2
355.652	5.49
355.862	6.48
356.072	7.61
356.282	6.77
356.492	5.8
356.702	4.62
356.912	4.27
357.122	3.77
357.332	4.3
357.542	3.11
357.752	3.6
357.962	2.9
358.171	2.54
358.381	3.07
358.591	2.71
358.801	3.14
359.011	4.11
359.221	5.22
359.43	5.87
359.64	7.21
359.85	8.3
360.06	7.91
360.269	8.78
360.479	9.47
360.689	8.92
360.899	8.99
361.108	8.95
361.318	8.85
361.528	8.41
361.737	7.86
361.947	6.89
362.156	6.31
362.366	6.39
362.576	5.47
362.785	4.95
362.995	4.37
363.204	4.35
363.414	4.1
363.623	3.68
363.833	3.34
364.042	2.98
364.252	2.63
364.461	1.79
364.671	2.16
364.88	2.88
365.09	2.18
365.299	2.62
365.509	2.23
365.718	2.57
365.927	2.48
366.137	3.35
366.346	3.88
366.555	3.91
366.765	4.63
366.974	4.07
367.183	4.17
367.393	4.08
367.602	3.33
367.811	3.71
368.021	3.31
368.23	3.17
368.439	2.83
368.648	2.05
368.857	2.8
369.067	3.02
369.276	2.75
369.485	3.33
369.694	3.75
369.903	4.77
370.112	5.18
370.321	5.65
370.531	6.53
370.74	5.61
370.949	6.14
371.158	5.44
371.367	5.25
371.576	5.9
371.785	5.37
371.994	4.66
372.203	3.84
372.412	3.51
372.621	2.87
372.83	1.8
373.039	3.01
373.248	3.37
373.457	3.49
373.666	3.26
373.874	3.17
374.083	2.99
374.292	3.9
374.501	4.61
374.71	4.16
374.919	5.25
375.128	6.16
375.336	5.42
375.545	5.12
375.754	5.25
375.963	4.96
376.171	4.42
376.38	3.79
376.589	2.97
376.798	2.82
377.006	3.19
377.215	3.01
377.424	2.48
377.632	2.84
377.841	2.79
378.05	2.41
378.258	2.93
378.467	2.77
378.675	3.01
378.884	3.48
379.093	3.66
379.301	3.76
379.51	3.5
379.718	3.69
379.927	3.04
380.135	2.94
380.344	2.44
380.552	1.84
380.761	2.08
380.969	2.44
381.177	2.64
381.386	1.75
381.594	1.74
381.803	1.9
382.011	1.53
382.219	2.38
382.428	3.19
382.636	3.54
382.845	3.75
383.053	4.27
383.261	3.94
383.469	3.56
383.678	3.92
383.886	4.38
384.094	4.69
384.302	5.17
384.511	4.87
384.719	3.83
384.927	3.5
385.135	2.93
385.343	2.53
385.552	3.16
385.76	3.63
385.968	4.05
386.176	3.44
386.384	3.11
386.592	2.65
386.8	2.24
387.008	2.63
387.216	2.87
387.424	3.09
387.633	3.22
387.841	2.46
388.049	2.5
388.257	2.1
388.465	1.87
388.672	1.45
388.88	1.56
389.088	2.13
389.296	1.81
389.504	2.3
389.712	2.63
389.92	2.33
390.128	2.44
390.336	2.28
390.544	2.57
390.751	2.49
390.959	2.61
391.167	2.66
391.375	2.01
391.583	2.3
391.79	2.03
391.998	2.23
392.206	2.32
392.414	2.27
392.621	2.15
392.829	1.94
393.037	2.09
393.244	2.23
393.452	2.35
393.66	2.57
393.867	2.41
394.075	2.38
394.283	1.83
394.49	2.05
394.698	2.17
394.905	1.87
395.113	1.86
395.32	2.02
395.528	2.04
395.735	1.95
395.943	2.03
396.15	1.91
396.358	2
396.565	2.29
396.773	2.22
396.98	2.1
397.188	2.31
397.395	2.34
397.602	2.53
397.81	2.23
398.017	1.9
398.225	1.6
398.432	1.51
398.639	1.66
398.847	1.91
399.054	1.72
399.261	1.74
399.468	1.79
399.676	1.67
399.883	1.57
400.09	1.66
400.297	1.8
400.505	2.27
400.712	2.39
400.919	2.09
401.126	1.99
401.333	1.94
401.54	1.78
401.748	1.63
401.955	1.52
402.162	1.21
402.369	1.48
402.576	1.57
402.783	1.49
402.99	1.43
403.197	1.39
403.404	1.06
403.611	1.56
403.818	1.69
404.025	1.91
404.232	2.05
404.439	2.06
404.646	1.89
404.853	1.69
405.06	1.77
405.267	1.86
405.474	1.84
405.681	1.93
405.887	1.69
406.094	1.84
406.301	1.62
406.508	1.71
406.715	1.6
406.922	1.4
407.128	1.43
407.335	1.21
407.542	1.35
407.749	1.5
407.955	1.59
408.162	1.26
408.369	0.87
408.575	0.95
408.782	0.98
408.989	1.21
409.195	1.38
409.402	1.17
409.609	1.18
409.815	1.22
410.022	1.23
410.228	1.25
410.435	1.52
410.642	1.71
410.848	1.64
411.055	1.49
411.261	1.73
411.468	1.66
411.674	2.18
411.881	2.09
412.087	1.71
412.294	1.53
412.5	1.29
412.706	1.09
412.913	1.64
413.119	1.3
413.326	1.62
413.532	1.58
413.738	1.57
413.945	1.34
414.151	1.59
414.357	1.83
414.564	1.98
414.77	2.28
414.976	2.64
415.182	2.29
415.389	2.49
415.595	2.37
415.801	2.03
416.007	1.96
416.214	2.1
416.42	1.77
416.626	1.74
416.832	1.59
417.038	1.57
417.244	1.36
417.45	1.34
417.657	1.59
417.863	1.45
418.069	1.68
418.275	1.84
418.481	1.91
418.687	2.05
418.893	2.01
419.099	2.24
419.305	1.92
419.511	1.94
419.717	1.91
419.923	1.78
420.129	1.76
420.335	1.8
420.541	1.72
420.746	1.56
420.952	1.48
421.158	1.51
421.364	1.34
421.57	1.62
421.776	1.56
421.982	1.62
422.187	1.63
422.393	1.69
422.599	1.59
422.805	1.65
423.01	1.76
423.216	1.74
423.422	1.84
423.628	1.83
423.833	1.8
424.039	1.89
424.245	1.86
424.45	1.83
424.656	1.82
424.862	1.82
425.067	1.76
425.273	1.83
425.478	2
425.684	1.74
425.889	1.8
426.095	1.79
426.301	1.76
426.506	1.79
426.712	1.84
426.917	1.7
427.123	1.74
427.328	1.7
427.533	1.43
427.739	1.24
427.944	1.5
428.15	1.49
428.355	1.24
428.561	1.26
428.766	1.23
428.971	1.41
429.177	1.68
429.382	1.56
429.587	1.51
429.793	1.62
429.998	1.48
430.203	1.35
430.408	1.47
430.614	1.59
430.819	1.37
431.024	1.19
431.229	1.05
431.434	0.97
431.64	1.04
431.845	1.3
432.05	1.43
432.255	1.48
432.46	1.7
432.665	1.57
432.87	1.6
433.076	1.92
433.281	2.18
433.486	2.01
433.691	1.87
433.896	1.93
434.101	1.93
434.306	1.72
434.511	1.74
434.716	1.54
434.921	1.6
435.126	1.5
435.331	1.25
435.535	0.9
435.74	1.02
435.945	0.91
436.15	0.59
436.355	0.6
436.56	0.73
436.765	0.67
436.97	0.85
437.174	0.92
437.379	1.08
437.584	1.15
437.789	1.24
437.993	1.08
438.198	1.22
438.403	1.42
438.608	1.2
438.812	1.17
439.017	1.11
439.222	1.04
439.426	0.92
439.631	1.01
439.836	1.06
440.04	1.16
440.245	1.24
440.45	1.41
440.654	1.45
440.859	1.55
441.063	1.54
441.268	1.76
441.472	1.61
441.677	1.73
441.881	1.7
442.086	1.57
442.29	1.48
442.495	1.64
442.699	1.48
442.904	1.56
443.108	1.6
443.312	1.56
443.517	1.57
443.721	1.59
443.925	1.39
444.13	1.19
444.334	1.45
444.538	1.34
444.743	1.29
444.947	1.4
445.151	1.26
445.356	1.24
445.56	1.24
445.764	1.32
445.968	1.45
446.173	1.6
446.377	1.73
446.581	1.54
446.785	1.6
446.989	1.6
447.193	1.48
447.398	1.6
447.602	1.52
447.806	1.46
448.01	1.44
448.214	1.37
448.418	1.29
448.622	1.25
448.826	1.27
449.03	1.37
449.234	1.24
449.438	1.27
449.642	1.09
449.846	1.28
450.05	1.39
450.254	1.18
450.458	1.27
450.662	1.31
450.866	1.22
451.069	1
451.273	0.85
451.477	1.12
451.681	1.22
451.885	1.3
452.089	1.1
452.292	1.2
452.496	1.31
452.7	1.28
452.904	1.1
453.107	1.25
453.311	1.38
453.515	1.25
453.719	0.93
453.922	0.82
454.126	0.78
454.33	0.87
454.533	0.61
454.737	0.36
454.94	0.38
455.144	0.39
455.348	0.22
455.551	0.35
455.755	0.49
455.958	0.62
456.162	0.89
456.365	0.8
456.569	0.77
456.772	0.83
456.976	0.92
457.179	0.94
457.383	1.03
457.586	1.24
457.79	1.21
457.993	1.41
458.196	1.38
458.4	1.23
458.603	1.29
458.807	1.23
459.01	1.3
459.213	1.49
459.417	1.53
459.62	1.38
459.823	1.32
460.026	1.33
460.23	1.26
460.433	1.27
460.636	1.23
460.839	1.22
461.042	1.23
461.246	1.34
461.449	1.16
461.652	0.99
461.855	1.28
462.058	1.33
462.261	1.32
462.464	1.46
462.668	1.55
462.871	1.51
463.074	1.58
463.277	1.52
463.48	1.43
463.683	1.42
463.886	1.55
464.089	1.53
464.292	1.34
464.495	1.06
464.698	1.03
464.901	1.02
465.104	1.19
465.306	1.21
465.509	1.34
465.712	1.33
465.915	1.52
466.118	1.33
466.321	1.19
466.524	1.07
466.726	1.41
466.929	1.31
467.132	1.28
467.335	1.17
467.538	0.93
467.74	0.92
467.943	1.05
468.146	0.92
468.348	1.07
468.551	0.96
468.754	0.92
468.956	0.81
469.159	0.83
469.362	0.7
469.564	0.48
469.767	0.8
469.969	1.08
470.172	0.91
470.375	1.07
470.577	0.99
470.78	1.23
