Data from 2938049_Reflection_3.txt Node
Date: Sun Jul 12 14:18:09 EDT 2015
User: robert
Spectrometer: USB4E03001
Autoset integration time: false
Trigger mode: 4
Integration Time (sec): 1.000000E-1
Scans to average: 10
Electric dark correction enabled: true
Nonlinearity correction enabled: false
Boxcar width: 5
Stray light correction enabled: false
XAxis mode: Wavelengths
Stop averaging: false
Number of Pixels in Spectrum: 3648
>>>>>Begin Spectral Data<<<<<
177.566	794.29
177.785	2064.02
178.005	309.05
178.225	171.16
178.445	331.35
178.665	790.91
178.885	2077.78
179.105	-1015.58
179.324	310.24
179.544	125.41
179.764	164.95
179.984	291.08
180.204	328.61
180.423	283.03
180.643	290.67
180.863	280.19
181.083	307.95
181.302	234.42
181.522	257.37
181.742	376.86
181.961	345.39
182.181	250.44
182.401	216.6
182.621	310.17
182.84	290.36
183.06	237.98
183.279	341.1
183.499	439.73
183.719	-213.49
183.938	-3184.13
184.158	43.26
184.377	106.89
184.597	89.86
184.816	-18.05
185.036	-28.38
185.256	-41
185.475	-18.72
185.695	46.13
185.914	32.5
186.134	29.55
186.353	71.9
186.572	220.42
186.792	296.54
187.011	165.79
187.231	196.72
187.45	404.23
187.67	506.27
187.889	1672.45
188.108	1132.3
188.328	445.9
188.547	211.4
188.766	164.43
188.986	180.06
189.205	138.45
189.424	233.43
189.644	249.97
189.863	183.62
190.082	163.56
190.302	179.32
190.521	117.28
190.74	273.48
190.959	287.12
191.178	288.79
191.398	308.26
191.617	221.01
191.836	98.41
192.055	202.25
192.274	171.28
192.494	204.46
192.713	269.52
192.932	229.57
193.151	195.09
193.37	215.96
193.589	241.42
193.808	257.71
194.027	260.34
194.246	297.25
194.465	225.81
194.685	235.96
194.904	291.89
195.123	276.98
195.342	2641.62
195.561	1069.91
195.78	324.87
195.999	343.4
196.218	291.14
196.436	245.16
196.655	173.51
196.874	119.99
197.093	133.51
197.312	111.59
197.531	108.91
197.75	109.68
197.969	107.29
198.188	113.18
198.407	82.08
198.625	24.71
198.844	69.71
199.063	51.7
199.282	202.32
199.501	20.48
199.719	84.74
199.938	162.18
200.157	43.41
200.376	19.66
200.594	-10.32
200.813	-214.17
201.032	41.72
201.251	52.17
201.469	20.5
201.688	-118.47
201.907	83.71
202.125	83.34
202.344	55.19
202.563	72.47
202.781	83.86
203	77.64
203.218	94.04
203.437	69.99
203.656	51.46
203.874	45.1
204.093	50.87
204.311	53.29
204.53	62.79
204.748	83.78
204.967	83.34
205.185	120.32
205.404	103.59
205.622	88.03
205.841	95.88
206.059	82.32
206.278	86.44
206.496	139.93
206.715	215.73
206.933	182.05
207.151	198.43
207.37	243.67
207.588	1170.67
207.806	1942.48
208.025	818.53
208.243	1695.4
208.461	-652.53
208.68	-668.15
208.898	-787.53
209.116	-410.42
209.335	-278.77
209.553	-230.42
209.771	-523.78
209.989	1461.94
210.208	-303.23
210.426	-294.43
210.644	-200.31
210.862	-3047.03
211.081	2185.52
211.299	552.93
211.517	228.09
211.735	281.31
211.953	158.92
212.171	167.6
212.39	153.38
212.608	127.17
212.826	110.06
213.044	91.34
213.262	96.32
213.48	115.37
213.698	80.52
213.916	134.32
214.134	107.59
214.352	107.62
214.57	115.69
214.788	101.44
215.006	98.19
215.224	67.64
215.442	65.87
215.66	77.16
215.878	53.02
216.096	87.65
216.314	-21.44
216.532	-42.39
216.75	-74.64
216.968	-56.39
217.185	-49.31
217.403	3.63
217.621	45.28
217.839	53.4
218.057	70.68
218.275	73.82
218.492	59.49
218.71	86.54
218.928	111.7
219.146	117.76
219.363	123.58
219.581	114.94
219.799	125.59
220.017	84.92
220.234	98.64
220.452	105.82
220.67	97.26
220.887	89.79
221.105	61.05
221.323	54.98
221.54	9.06
221.758	-7.23
221.976	35.18
222.193	35.02
222.411	49.85
222.629	45.98
222.846	40.32
223.064	48.29
223.281	67.87
223.499	70.66
223.716	60.99
223.934	78.14
224.151	93.75
224.369	57.38
224.586	76.27
224.804	52.66
225.021	60.53
225.239	51.14
225.456	66.47
225.674	53.59
225.891	34.9
226.108	46.26
226.326	26.35
226.543	27.58
226.76	38.09
226.978	30.43
227.195	41.31
227.413	22.63
227.63	28.56
227.847	14.21
228.064	18.53
228.282	17.86
228.499	12.82
228.716	16.21
228.934	17.3
229.151	12.47
229.368	11.82
229.585	7.9
229.802	10.16
230.02	8.13
230.237	13.15
230.454	8.92
230.671	9.45
230.888	10.69
231.105	11.59
231.323	11.14
231.54	14.62
231.757	14.32
231.974	21.95
232.191	23
232.408	22.71
232.625	19.9
232.842	25.79
233.059	23.65
233.276	23.48
233.493	26.63
233.71	25.45
233.927	28.94
234.144	32.9
234.361	34.69
234.578	35.21
234.795	34.99
235.012	25.32
235.229	15.53
235.446	16.55
235.663	23.72
235.879	21.87
236.096	27.57
236.313	20.28
236.53	22.65
236.747	12.26
236.964	12.53
237.181	10.26
237.397	26.26
237.614	27.96
237.831	31.39
238.048	30.86
238.264	30.22
238.481	24.85
238.698	32.86
238.915	25.87
239.131	30.91
239.348	25.4
239.565	26.11
239.781	17.93
239.998	26
240.215	25.99
240.431	23.03
240.648	22.64
240.865	23.6
241.081	20.37
241.298	21.82
241.514	20.17
241.731	20.85
241.947	19.36
242.164	20.3
242.38	17
242.597	16.32
242.814	17.98
243.03	16.33
243.246	14.95
243.463	13.5
243.679	12.68
243.896	11.73
244.112	10.42
244.329	8.11
244.545	9.24
244.762	10.91
244.978	10.54
245.194	8.04
245.411	12.58
245.627	11.53
245.843	13.09
246.06	14.19
246.276	15.6
246.492	14.67
246.709	16.01
246.925	13.35
247.141	13.37
247.357	13.69
247.574	12.02
247.79	11.01
248.006	10.94
248.222	10.64
248.439	9.73
248.655	8.84
248.871	9.22
249.087	8.7
249.303	10.84
249.519	9.91
249.736	9.82
249.952	12.39
250.168	13.47
250.384	13.72
250.6	15.67
250.816	17.56
251.032	17.46
251.248	16.67
251.464	14.77
251.68	11.18
251.896	10.4
252.112	10.1
252.328	9.17
252.544	7.27
252.76	9.25
252.976	8.76
253.192	8.22
253.408	8.69
253.624	7.62
253.84	8.15
254.056	9.98
254.272	11.22
254.487	15.79
254.703	16.45
254.919	18.26
255.135	16.12
255.351	14.73
255.567	13.09
255.782	16.93
255.998	19.01
256.214	18.81
256.43	21.46
256.646	19.09
256.861	15.04
257.077	13.4
257.293	12.77
257.508	10.61
257.724	9.2
257.94	10.6
258.155	5.89
258.371	5.16
258.587	6.93
258.802	6.58
259.018	8.67
259.234	7.53
259.449	7.66
259.665	7.39
259.88	8.2
260.096	8.76
260.312	7.69
260.527	8.71
260.743	9.88
260.958	8.88
261.174	7.5
261.389	6.74
261.605	7.9
261.82	8.35
262.036	8.33
262.251	8.32
262.466	6.64
262.682	9
262.897	8.22
263.113	8.26
263.328	9.83
263.543	10.8
263.759	12.21
263.974	10.41
264.189	10.24
264.405	12.92
264.62	11.91
264.835	13.97
265.051	11.93
265.266	12.42
265.481	11.17
265.696	10.93
265.912	10.45
266.127	9.6
266.342	6.83
266.557	7.95
266.773	4.68
266.988	3.55
267.203	3.74
267.418	4.39
267.633	3.37
267.848	4.28
268.064	4.64
268.279	5.2
268.494	3.95
268.709	5.84
268.924	4.96
269.139	7.74
269.354	11.26
269.569	10.17
269.784	8.44
269.999	10.75
270.214	10.23
270.429	9.48
270.644	10.37
270.859	12.54
271.074	12.57
271.289	11.28
271.504	8.76
271.719	6.08
271.934	6.41
272.149	7.56
272.363	7.83
272.578	8.44
272.793	8.01
273.008	6.27
273.223	5.09
273.438	5.77
273.653	8.09
273.867	9.03
274.082	11.47
274.297	13.42
274.512	13.97
274.726	12.68
274.941	11.02
275.156	12.33
275.371	14.44
275.585	15.36
275.8	13.21
276.015	11.18
276.229	12.76
276.444	11.61
276.659	9.82
276.873	8.62
277.088	10.02
277.302	12.76
277.517	11.93
277.732	11.14
277.946	10.81
278.161	13.45
278.375	12.69
278.59	11.59
278.804	11.96
279.019	12.38
279.233	9.82
279.448	8.56
279.662	2.92
279.877	1.91
280.091	1.51
280.306	0.42
280.52	-0.7
280.735	1.25
280.949	2.03
281.163	2.09
281.378	3
281.592	6.14
281.806	6.7
282.021	6.98
282.235	8.57
282.449	9.29
282.664	8.92
282.878	9.31
283.092	9.68
283.307	7.91
283.521	7.32
283.735	6.64
283.949	8.14
284.164	6.34
284.378	7.56
284.592	6.32
284.806	5.68
285.02	7.01
285.234	7
285.449	6.3
285.663	6.96
285.877	7.27
286.091	8.75
286.305	7.19
286.519	7.79
286.733	8.72
286.947	8.56
287.161	8.59
287.375	9.65
287.589	9.56
287.803	10.7
288.017	11.51
288.231	11.71
288.445	9.77
288.659	10.1
288.873	9.92
289.087	9.03
289.301	9.61
289.515	10.52
289.729	8.98
289.943	8.64
290.157	7.58
290.371	7.79
290.584	9.37
290.798	10.03
291.012	9.97
291.226	10.65
291.44	10.66
291.654	11.05
291.867	9.87
292.081	11.02
292.295	11.49
292.509	11.85
292.722	13.03
292.936	11.72
293.15	9.46
293.364	10.76
293.577	12.03
293.791	13.68
294.005	15.59
294.218	16.59
294.432	14.43
294.645	16.01
294.859	16.93
295.073	15.64
295.286	17.05
295.5	18.35
295.713	17.75
295.927	17.24
296.14	16.87
296.354	15.05
296.568	14.68
296.781	16.16
296.994	14.68
297.208	13.72
297.421	14.64
297.635	14.04
297.848	13.91
298.062	14.12
298.275	14.58
298.489	12.88
298.702	13.05
298.915	13.01
299.129	13.4
299.342	13.55
299.555	14.62
299.769	14.3
299.982	13.15
300.195	15.37
300.409	12.92
300.622	11.86
300.835	12.87
301.048	12.9
301.262	14.72
301.475	12.82
301.688	13.99
301.901	13.66
302.115	13.35
302.328	13.96
302.541	13.42
302.754	16.61
302.967	16.72
303.18	17.63
303.393	18.82
303.607	16.74
303.82	18.45
304.033	16.44
304.246	16.72
304.459	17.04
304.672	18.44
304.885	17.82
305.098	17.98
305.311	18.22
305.524	17.38
305.737	15.5
305.95	15.45
306.163	15.7
306.376	18.45
306.589	17.54
306.802	16.77
307.015	16.62
307.228	14.31
307.44	13.33
307.653	12.74
307.866	14.37
308.079	17.17
308.292	16.86
308.505	15.57
308.718	15.99
308.93	15.68
309.143	14.43
309.356	12.42
309.569	15.37
309.781	15.76
309.994	16.91
310.207	17.68
310.42	16.48
310.632	18.71
310.845	18.89
311.058	19.08
311.27	20.22
311.483	21.85
311.696	22.63
311.908	21.71
312.121	21.75
312.333	21.3
312.546	20.55
312.759	19.65
312.971	17.92
313.184	18.45
313.396	15.99
313.609	14.2
313.821	12.94
314.034	11.59
314.246	12.71
314.459	12.27
314.671	12.35
314.884	11.3
315.096	12.64
315.309	12.99
315.521	13.33
315.733	15.61
315.946	16.96
316.158	18.19
316.371	18.75
316.583	17.88
316.795	18.97
317.008	19.21
317.22	19.04
317.432	20.01
317.644	22.35
317.857	21.8
318.069	20.47
318.281	21.18
318.494	22.72
318.706	21.41
318.918	22.57
319.13	22.1
319.342	22.63
319.555	21.43
319.767	19.12
319.979	17.07
320.191	17.44
320.403	18.23
320.615	15.83
320.827	12.41
321.039	15.19
321.252	13.54
321.464	14.71
321.676	15.92
321.888	18.46
322.1	18.82
322.312	20.25
322.524	19.49
322.736	19.79
322.948	21.62
323.16	21.69
323.372	21.53
323.584	22.47
323.796	21.07
324.007	19.06
324.219	17.5
324.431	18.68
324.643	19.33
324.855	21
325.067	22.14
325.279	21.88
325.491	23.09
325.702	24.17
325.914	24.79
326.126	24.41
326.338	25.21
326.55	25.59
326.761	26.63
326.973	25.25
327.185	24.27
327.396	22.79
327.608	23.83
327.82	23.73
328.032	22.87
328.243	22.8
328.455	24.06
328.666	27.23
328.878	28.79
329.09	29.2
329.301	30.01
329.513	29.96
329.725	31.64
329.936	32.19
330.148	33.19
330.359	33.59
330.571	34.22
330.782	35.84
330.994	34.67
331.205	36.64
331.417	36.39
331.628	36.36
331.84	37.85
332.051	38.78
332.262	39.71
332.474	41.19
332.685	43.34
332.897	44.28
333.108	44.22
333.319	45.4
333.531	46.52
333.742	47.91
333.953	49.49
334.165	49.74
334.376	49.33
334.587	50.1
334.799	51.8
335.01	50.77
335.221	50.61
335.432	50.97
335.644	50.5
335.855	49.22
336.066	50.38
336.277	51.01
336.488	51.58
336.7	52.77
336.911	51.86
337.122	50.52
337.333	51.23
337.544	51.49
337.755	51.57
337.966	51.5
338.177	52.35
338.388	51.41
338.599	50.85
338.811	52.55
339.022	52.91
339.233	55.15
339.444	55.21
339.655	56.59
339.866	56.35
340.076	56.91
340.287	57.43
340.498	56.32
340.709	56.85
340.92	57.22
341.131	56.37
341.342	56.35
341.553	55.53
341.764	55.8
341.975	54.88
342.185	55.76
342.396	55.29
342.607	55.99
342.818	57.8
343.029	58.24
343.239	59.28
343.45	59.05
343.661	59.45
343.872	59.87
344.082	60.2
344.293	59.92
344.504	60.58
344.714	61.62
344.925	61.96
345.136	61.3
345.346	60.85
345.557	60.69
345.768	61.24
345.978	60.6
346.189	61
346.399	61.21
346.61	62.49
346.821	61.88
347.031	61.9
347.242	60.5
347.452	59.77
347.663	59.91
347.873	59.48
348.084	58.71
348.294	59.09
348.504	57.13
348.715	56.53
348.925	56.18
349.136	55.76
349.346	55.31
349.557	55.53
349.767	56.97
349.977	56.31
350.188	57.37
350.398	58.35
350.608	57.98
350.819	58.83
351.029	58.9
351.239	57.44
351.449	57.97
351.66	57.88
351.87	57.39
352.08	56.02
352.29	55.55
352.501	54.27
352.711	53.66
352.921	53.75
353.131	54.23
353.341	53.93
353.552	55.51
353.762	56.46
353.972	57.01
354.182	57.59
354.392	58.59
354.602	59.85
354.812	60.91
355.022	61.29
355.232	61.17
355.442	61.75
355.652	61.4
355.862	60.95
356.072	60.31
356.282	60
356.492	60.52
356.702	60.29
356.912	59.92
357.122	58.86
357.332	59.56
357.542	60.24
357.752	59.72
357.962	60.96
358.171	61.41
358.381	60.99
358.591	61.81
358.801	61.64
359.011	62.22
359.221	62.11
359.43	62.55
359.64	61.4
359.85	61.41
360.06	61.29
360.269	60.68
360.479	60.18
360.689	59.84
360.899	58.9
361.108	59.08
361.318	58.54
361.528	58.75
361.737	58.46
361.947	58.27
362.156	57.2
362.366	56.69
362.576	56.92
362.785	56.72
362.995	57.17
363.204	57.2
363.414	56.23
363.623	56.13
363.833	54.97
364.042	55.3
364.252	55.78
364.461	56.8
364.671	56.43
364.88	55.69
365.09	55.86
365.299	55.72
365.509	55.71
365.718	55.75
365.927	55.47
366.137	56.31
366.346	56.13
366.555	56.05
366.765	54.83
366.974	55.4
367.183	56.07
367.393	55.58
367.602	55.03
367.811	53.85
368.021	54.47
368.23	54.33
368.439	54.49
368.648	53.43
368.857	52.49
369.067	52.82
369.276	52.15
369.485	51.43
369.694	51.11
369.903	51.56
370.112	51.97
370.321	50.87
370.531	50.38
370.74	49.48
370.949	49.01
371.158	49.21
371.367	48.97
371.576	49.1
371.785	48.73
371.994	48.32
372.203	47.92
372.412	48.06
372.621	48.82
372.83	48.21
373.039	48.01
373.248	48.25
373.457	48.11
373.666	48.47
373.874	47.58
374.083	47.11
374.292	47.15
374.501	46.97
374.71	46.73
374.919	46.54
375.128	46.77
375.336	47.57
375.545	47.53
375.754	47.35
375.963	47.18
376.171	47.29
376.38	47.96
376.589	48.23
376.798	47.85
377.006	48.1
377.215	47.45
377.424	48.23
377.632	47.62
377.841	46.99
378.05	47.63
378.258	46.86
378.467	47.18
378.675	46.59
378.884	46
379.093	46.3
379.301	45.25
379.51	45.27
379.718	44.62
379.927	44.64
380.135	45.23
380.344	44.69
380.552	44.78
380.761	44.45
380.969	44.55
381.177	45.02
381.386	44.44
381.594	44.83
381.803	44.42
382.011	44
382.219	43.27
382.428	42.82
382.636	42.15
382.845	42.01
383.053	41.86
383.261	41.22
383.469	41.03
383.678	40.52
383.886	39.98
384.094	40.11
384.302	39.78
384.511	39.41
384.719	39.31
384.927	39.48
385.135	39.06
385.343	38.86
385.552	38.86
385.76	38.07
385.968	38.08
386.176	37.94
386.384	37.14
386.592	36.85
386.8	37.09
387.008	36.76
387.216	35.95
387.424	36.03
387.633	35.76
387.841	35.39
388.049	35.51
388.257	35.51
388.465	35.44
388.672	35.8
388.88	36.07
389.088	35.85
389.296	35.65
389.504	35.83
389.712	35.68
389.92	35.33
390.128	35.63
390.336	35.41
390.544	35.35
390.751	34.86
390.959	34.66
391.167	34.58
391.375	34.46
391.583	34.58
391.79	34.41
391.998	34.49
392.206	34.84
392.414	34.41
392.621	34.54
392.829	34.48
393.037	34.97
393.244	34.94
393.452	34.81
393.66	34.69
393.867	34.59
394.075	34.79
394.283	34.93
394.49	34.94
394.698	34.84
394.905	34.39
395.113	34.36
395.32	33.73
395.528	33.83
395.735	33.82
395.943	33.91
396.15	33.89
396.358	33.71
396.565	33.46
396.773	33.18
396.98	33.3
397.188	33.6
397.395	33.35
397.602	33.84
397.81	33.68
398.017	33.53
398.225	33.66
398.432	33.47
398.639	33.48
398.847	33.62
399.054	33.19
399.261	32.95
399.468	33.02
399.676	33.24
399.883	33.17
400.09	33.2
400.297	33.46
400.505	33.06
400.712	33.25
400.919	33.35
401.126	33.12
401.333	33.35
401.54	33.54
401.748	33.64
401.955	33.39
402.162	33.54
402.369	33.46
402.576	33.18
402.783	33.83
402.99	33.58
403.197	33.63
403.404	33.56
403.611	33.74
403.818	33.67
404.025	33.46
404.232	33.61
404.439	33.64
404.646	33.61
404.853	33.6
405.06	33.32
405.267	33.69
405.474	33.51
405.681	33.55
405.887	33.63
406.094	33.53
406.301	33.55
406.508	33.2
406.715	32.84
406.922	32.66
407.128	32.77
407.335	32.78
407.542	32.71
407.749	32.61
407.955	32.69
408.162	32.33
408.369	32.65
408.575	32.69
408.782	32.76
408.989	33.02
409.195	33.01
409.402	32.91
409.609	32.72
409.815	32.52
410.022	32.95
410.228	32.86
410.435	33.04
410.642	32.64
410.848	32.6
411.055	32.52
411.261	32.52
411.468	32.78
411.674	33.01
411.881	32.95
412.087	33.15
412.294	32.63
412.5	32.48
412.706	32.57
412.913	32.91
413.119	32.95
413.326	33.18
413.532	33.04
413.738	32.68
413.945	32.03
414.151	31.84
414.357	31.56
414.564	31.85
414.77	31.98
414.976	31.76
415.182	31.68
415.389	31.61
415.595	31.53
415.801	31.47
416.007	31.63
416.214	31.97
416.42	31.83
416.626	31.92
416.832	31.72
417.038	31.43
417.244	31.56
417.45	31.38
417.657	31.13
417.863	31.3
418.069	31.41
418.275	31.22
418.481	31.12
418.687	31.22
418.893	31
419.099	30.89
419.305	30.92
419.511	30.76
419.717	30.87
419.923	30.88
420.129	30.64
420.335	30.58
420.541	30.61
420.746	30.49
420.952	30.56
421.158	30.58
421.364	30.68
421.57	30.52
421.776	30.46
421.982	30.45
422.187	30.4
422.393	30.48
422.599	30.35
422.805	30.36
423.01	30.46
423.216	30.52
423.422	30.39
423.628	30.28
423.833	30.39
424.039	30.41
424.245	30.35
424.45	30.39
424.656	30.28
424.862	30.34
425.067	30.32
425.273	30.31
425.478	30.12
425.684	30.21
425.889	30.16
426.095	30.3
426.301	30.22
426.506	30.11
426.712	30.14
426.917	30.05
427.123	30.03
427.328	29.95
427.533	29.96
427.739	29.97
427.944	29.87
428.15	29.96
428.355	29.67
428.561	29.77
428.766	29.71
428.971	29.77
429.177	29.85
429.382	29.7
429.587	29.84
429.793	29.64
429.998	29.85
430.203	30.18
430.408	30.15
430.614	30.24
430.819	30.37
431.024	30.32
431.229	30.1
431.434	30.09
431.64	30.17
431.845	30.01
432.05	30.21
432.255	30.02
432.46	29.77
432.665	29.71
432.87	29.74
433.076	29.45
433.281	29.62
433.486	29.84
433.691	29.95
433.896	29.73
434.101	29.84
434.306	29.67
434.511	29.7
434.716	29.75
434.921	29.81
435.126	29.84
435.331	29.84
435.535	29.94
435.74	29.7
435.945	29.59
436.15	29.58
436.355	29.33
436.56	29.31
436.765	29.25
436.97	29.3
437.174	29.61
437.379	29.77
437.584	29.78
437.789	29.34
437.993	29.44
438.198	29.61
438.403	29.76
438.608	29.79
438.812	29.97
439.017	29.96
439.222	29.84
439.426	29.61
439.631	29.31
439.836	29.39
440.04	29.65
440.245	29.63
440.45	29.43
440.654	29.37
440.859	29.5
441.063	29.34
441.268	29.37
441.472	29.33
441.677	29.32
441.881	29.47
442.086	29.39
442.29	29.22
442.495	29.27
442.699	29.3
442.904	29.46
443.108	29.45
443.312	29.63
443.517	29.51
443.721	29.5
443.925	29.53
444.13	29.45
444.334	29.3
444.538	29.45
444.743	29.23
444.947	29.28
445.151	29.25
445.356	29.21
445.56	29.15
445.764	29.13
445.968	29.17
446.173	29.12
446.377	29.1
446.581	29.29
446.785	29.18
446.989	29.27
447.193	29.21
447.398	29.16
447.602	29.06
447.806	29.02
448.01	28.96
448.214	28.82
448.418	28.71
448.622	28.67
448.826	28.58
449.03	28.53
449.234	28.38
449.438	28.34
449.642	28.13
449.846	28.34
450.05	28.21
450.254	28.29
450.458	28.35
450.662	28.28
450.866	28.27
451.069	28.15
451.273	28.21
451.477	28.34
451.681	28.3
451.885	28.49
452.089	28.34
452.292	28.37
452.496	28.41
452.7	28.53
452.904	28.63
453.107	28.43
453.311	28.48
453.515	28.36
453.719	28.19
453.922	28.25
454.126	28.12
454.33	28.08
454.533	27.97
454.737	27.71
454.94	27.71
455.144	27.73
455.348	27.91
455.551	28.02
455.755	28.08
455.958	28.19
456.162	28.28
456.365	28.43
456.569	28.43
456.772	28.53
