Data from 2938027_Reflection_3.txt Node
Date: Sun Jul 12 15:11:14 EDT 2015
User: robert
Spectrometer: USB4E03001
Autoset integration time: false
Trigger mode: 4
Integration Time (sec): 1.000000E-1
Scans to average: 10
Electric dark correction enabled: true
Nonlinearity correction enabled: false
Boxcar width: 5
Stray light correction enabled: false
XAxis mode: Wavelengths
Stop averaging: false
Number of Pixels in Spectrum: 3648
>>>>>Begin Spectral Data<<<<<
177.566	197.21
177.785	199.78
178.005	305.08
178.225	263.86
178.445	105.82
178.665	73.37
178.885	135.97
179.105	60.47
179.324	87.04
179.544	115.72
179.764	111.92
179.984	139.5
180.204	156.94
180.423	133.71
180.643	123.06
180.863	90.73
181.083	71.19
181.302	58.59
181.522	48.39
181.742	40.81
181.961	16.6
182.181	29.79
182.401	19.81
182.621	3.33
182.84	27.58
183.06	59.8
183.279	113.24
183.499	122.01
183.719	152.23
183.938	157.95
184.158	169.45
184.377	236.78
184.597	121.37
184.816	134.52
185.036	153.78
185.256	102.58
185.475	145.62
185.695	132.26
185.914	178.12
186.134	171.89
186.353	327.12
186.572	413.95
186.792	221.94
187.011	402.9
187.231	286.77
187.45	188.81
187.67	175.84
187.889	60.4
188.108	39.45
188.328	2.87
188.547	-5.07
188.766	-21.59
188.986	-4.16
189.205	-0.13
189.424	0
189.644	15.38
189.863	10.36
190.082	33.75
190.302	45.36
190.521	50.8
190.74	68.98
190.959	72.34
191.178	67.01
191.398	65.6
191.617	74.88
191.836	70.25
192.055	68.01
192.274	80.58
192.494	72.8
192.713	90.09
192.932	85.41
193.151	77.07
193.37	76.04
193.589	89.36
193.808	110.4
194.027	111.47
194.246	134.56
194.465	134.94
194.685	166.55
194.904	186.1
195.123	96.58
195.342	169.64
195.561	141.82
195.78	363.33
195.999	-39780
196.218	1406.6
196.436	1195.42
196.655	456.27
196.874	-5505.1
197.093	332.88
197.312	243.42
197.531	315.76
197.75	272.35
197.969	341.85
198.188	254.69
198.407	136.72
198.625	162.5
198.844	52.34
199.063	38.72
199.282	43.39
199.501	7.99
199.719	38.46
199.938	20.93
200.157	4.32
200.376	-12.15
200.594	-5.89
200.813	26.11
201.032	34.02
201.251	49.25
201.469	48.7
201.688	52.09
201.907	99.38
202.125	77.35
202.344	85.14
202.563	95.89
202.781	99.26
203	126.03
203.218	105.51
203.437	130.93
203.656	194.25
203.874	200.03
204.093	151.14
204.311	107
204.53	126.92
204.748	197.21
204.967	563.33
205.185	180.74
205.404	157.77
205.622	252.27
205.841	-940.79
206.059	-213.3
206.278	598.75
206.496	569.21
206.715	302.21
206.933	-41414.29
207.151	242.54
207.37	120.61
207.588	124.87
207.806	112.7
208.025	108.33
208.243	114.97
208.461	94.68
208.68	64.35
208.898	93.32
209.116	116.01
209.335	103.91
209.553	101.58
209.771	77
209.989	66.47
210.208	64.18
210.426	85.5
210.644	72.84
210.862	73.5
211.081	120.96
211.299	95.72
211.517	68.43
211.735	71.56
211.953	83.9
212.171	131.47
212.39	213.94
212.608	266.12
212.826	193.68
213.044	137.1
213.262	120.07
213.48	97.22
213.698	85.4
213.916	103.46
214.134	128.34
214.352	148.07
214.57	149.52
214.788	195.8
215.006	175.07
215.224	216.67
215.442	-331.5
215.66	-169.82
215.878	-1463.73
216.096	2354.36
216.314	219.34
216.532	246.56
216.75	199.44
216.968	94.41
217.185	51.34
217.403	87.17
217.621	92.97
217.839	85.18
218.057	68.61
218.275	64.51
218.492	50.57
218.71	94.67
218.928	97.89
219.146	73.6
219.363	86.61
219.581	88.64
219.799	86.98
220.017	97.14
220.234	99.37
220.452	97.09
220.67	92.23
220.887	84.97
221.105	84.22
221.323	72.31
221.54	91.59
221.758	83.4
221.976	74.01
222.193	69.36
222.411	62.7
222.629	59.4
222.846	55.07
223.064	69.48
223.281	65.41
223.499	58.09
223.716	39.18
223.934	41.47
224.151	50.24
224.369	45.25
224.586	45.48
224.804	48.08
225.021	50.11
225.239	42.58
225.456	19.87
225.674	26.07
225.891	21.07
226.108	29.54
226.326	25.72
226.543	14.03
226.76	17.25
226.978	18.26
227.195	4.47
227.413	0.96
227.63	7.06
227.847	18.35
228.064	17.2
228.282	16.92
228.499	18.95
228.716	17.3
228.934	18.79
229.151	15.64
229.368	12.03
229.585	12.16
229.802	13.7
230.02	11.67
230.237	9.27
230.454	7.24
230.671	7.82
230.888	3.62
231.105	5.09
231.323	3.18
231.54	8.06
231.757	9.82
231.974	9.44
232.191	5.11
232.408	7.08
232.625	12.29
232.842	11.04
233.059	9.12
233.276	10.74
233.493	4.04
233.71	2.44
233.927	-1.53
234.144	2.93
234.361	9.49
234.578	10.1
234.795	7.88
235.012	6
235.229	11.13
235.446	12.22
235.663	12.08
235.879	14.76
236.096	15.6
236.313	21.84
236.53	22.02
236.747	17.06
236.964	16.21
237.181	21.27
237.397	15.93
237.614	14.24
237.831	11.94
238.048	15.94
238.264	11.69
238.481	12.15
238.698	7.54
238.915	4.8
239.131	7.89
239.348	10.16
239.565	9.54
239.781	13.95
239.998	11.02
240.215	11.21
240.431	8.46
240.648	11.07
240.865	11.22
241.081	13.54
241.298	11.45
241.514	10.57
241.731	10.03
241.947	10.65
242.164	8.13
242.38	9.47
242.597	10.66
242.814	10.1
243.03	9.62
243.246	7.86
243.463	2.88
243.679	3.92
243.896	2.37
244.112	3.18
244.329	1.21
244.545	1.77
244.762	-1.01
244.978	-2.17
245.194	1.7
245.411	1.86
245.627	2.92
245.843	5.83
246.06	4.62
246.276	5.24
246.492	4.26
246.709	3.73
246.925	3.83
247.141	5.14
247.357	5.31
247.574	4.33
247.79	4.72
248.006	5.08
248.222	4.48
248.439	4.52
248.655	4.92
248.871	4.85
249.087	4.77
249.303	4.41
249.519	4.02
249.736	3.24
249.952	2.45
250.168	2.51
250.384	2.9
250.6	4.38
250.816	5.66
251.032	6.53
251.248	7.23
251.464	8.13
251.68	8.39
251.896	5.72
252.112	5.63
252.328	5.89
252.544	5.45
252.76	4.41
252.976	4.25
253.192	3.35
253.408	2.24
253.624	2.01
253.84	3.65
254.056	5.17
254.272	6.05
254.487	7.15
254.703	5.89
254.919	5.64
255.135	6.06
255.351	3.71
255.567	5.3
255.782	6.98
255.998	5.39
256.214	3.49
256.43	2.92
256.646	4.9
256.861	2.88
257.077	3.53
257.293	2.24
257.508	2.91
257.724	3.82
257.94	4.06
258.155	1.63
258.371	4.37
258.587	3.52
258.802	3.2
259.018	3.68
259.234	4.27
259.449	5.13
259.665	5.34
259.88	5.59
260.096	5.3
260.312	5.41
260.527	5.98
260.743	5.18
260.958	5.81
261.174	5.44
261.389	5.97
261.605	6.62
261.82	6.91
262.036	7.41
262.251	7.08
262.466	8.31
262.682	8.85
262.897	9.42
263.113	9.83
263.328	9.63
263.543	11.16
263.759	11.39
263.974	10.29
264.189	10.75
264.405	8.8
264.62	10.08
264.835	11.76
265.051	11.45
265.266	9.74
265.481	8.22
265.696	8.92
265.912	9.97
266.127	7.34
266.342	7.81
266.557	6.05
266.773	7.22
266.988	5.39
267.203	4.65
267.418	3.45
267.633	5.67
267.848	7.48
268.064	6.5
268.279	5.92
268.494	5.91
268.709	4.89
268.924	4.17
269.139	3.81
269.354	5.16
269.569	4.49
269.784	4.19
269.999	3.1
270.214	0.73
270.429	1.26
270.644	0.75
270.859	3.44
271.074	3.46
271.289	4.44
271.504	5.36
271.719	5.45
271.934	5.22
272.149	5.31
272.363	4.54
272.578	4.04
272.793	4.08
273.008	3.82
273.223	3.35
273.438	4.04
273.653	4.2
273.867	3.13
274.082	2.6
274.297	1.53
274.512	1.46
274.726	0.88
274.941	2.54
275.156	2.68
275.371	3.09
275.585	3.2
275.8	3.86
276.015	4.21
276.229	5
276.444	5.76
276.659	5.71
276.873	6.17
277.088	7.75
277.302	8.1
277.517	5.76
277.732	6.75
277.946	5.91
278.161	5.39
278.375	3.51
278.59	3.02
278.804	1.41
279.019	3.43
279.233	4.85
279.448	4.74
279.662	4.4
279.877	6.91
280.091	6.35
280.306	6.33
280.52	5.69
280.735	7.2
280.949	7.62
281.163	7.47
281.378	6.3
281.592	4.86
281.806	4.44
282.021	5.52
282.235	5.78
282.449	5.27
282.664	5.78
282.878	6.5
283.092	7.71
283.307	8.93
283.521	10.08
283.735	11.72
283.949	11.33
284.164	11.73
284.378	10.67
284.592	10.78
284.806	10.63
285.02	9.49
285.234	7.96
285.449	6.73
285.663	5.23
285.877	4.24
286.091	4.1
286.305	4.26
286.519	5.18
286.733	5.04
286.947	5.38
287.161	6.41
287.375	6.16
287.589	7.64
287.803	7.34
288.017	6.74
288.231	7.42
288.445	6.75
288.659	8.4
288.873	7.85
289.087	7.96
289.301	6.89
289.515	5.28
289.729	6.18
289.943	5.95
290.157	7.81
290.371	9.49
290.584	8.42
290.798	8.13
291.012	8.18
291.226	7.9
291.44	6.8
291.654	5.14
291.867	5
292.081	5.32
292.295	5.32
292.509	4.68
292.722	4.81
292.936	6.07
293.15	5.62
293.364	5.44
293.577	6.29
293.791	6.18
294.005	8.67
294.218	8.7
294.432	8.82
294.645	8.04
294.859	8.59
295.073	8.45
295.286	8.48
295.5	8.32
295.713	8.33
295.927	6.92
296.14	8.71
296.354	9.54
296.568	10.83
296.781	9.63
296.994	10.34
297.208	9.29
297.421	9.63
297.635	9.11
297.848	10.04
298.062	10.01
298.275	11.09
298.489	10.95
298.702	10.19
298.915	8.79
299.129	10.05
299.342	9.98
299.555	8.92
299.769	7.93
299.982	8.83
300.195	8.42
300.409	7.98
300.622	7.36
300.835	6.11
301.048	6.11
301.262	8.39
301.475	6.46
301.688	5.21
301.901	7.03
302.115	6.33
302.328	7.07
302.541	7.43
302.754	7.12
302.967	7.28
303.18	10.19
303.393	11.05
303.607	9.7
303.82	12.06
304.033	13.96
304.246	15.03
304.459	16.23
304.672	15.31
304.885	15.29
305.098	17.2
305.311	18.39
305.524	16.5
305.737	15.96
305.95	15.99
306.163	16.76
306.376	15.86
306.589	14.41
306.802	14.09
307.015	14.43
307.228	15.12
307.44	12.89
307.653	11.58
307.866	12.27
308.079	12.73
308.292	14.87
308.505	13.1
308.718	14.31
308.93	15.86
309.143	16.11
309.356	16.33
309.569	15.1
309.781	15.58
309.994	15.59
310.207	15.4
310.42	15.13
310.632	13.79
310.845	14.07
311.058	13.38
311.27	12.38
311.483	12.55
311.696	12.06
311.908	12.03
312.121	11.86
312.333	11.44
312.546	10.75
312.759	10.05
312.971	11.07
313.184	11.83
313.396	12.12
313.609	11.81
313.821	10.99
314.034	11.16
314.246	12.12
314.459	11.88
314.671	11.88
314.884	13.22
315.096	13.44
315.309	12.8
315.521	13.08
315.733	14.18
315.946	15.7
316.158	16.81
316.371	17.64
316.583	16.66
316.795	16.55
317.008	16.49
317.22	16.62
317.432	17.29
317.644	16.25
317.857	15.63
318.069	13.43
318.281	13.78
318.494	12.81
318.706	10.74
318.918	10.83
319.13	9.03
319.342	10.81
319.555	10.29
319.767	9.68
319.979	10.22
320.191	8.91
320.403	11.22
320.615	9.08
320.827	8.06
321.039	8.78
321.252	10.8
321.464	12.52
321.676	12.36
321.888	11.55
322.1	12.65
322.312	12.02
322.524	14.01
322.736	13.06
322.948	13.64
323.16	14.66
323.372	14.3
323.584	12.51
323.796	14.62
324.007	15.17
324.219	15.86
324.431	14.81
324.643	15.69
324.855	15.24
325.067	15.38
325.279	16.19
325.491	16.95
325.702	17.81
325.914	18.27
326.126	17.62
326.338	16.74
326.55	17.89
326.761	17.98
326.973	17.06
327.185	15.91
327.396	16.27
327.608	16.92
327.82	17.58
328.032	18.2
328.243	21.3
328.455	21.17
328.666	20.61
328.878	19.85
329.09	21.91
329.301	23.51
329.513	24.4
329.725	25.62
329.936	23.63
330.148	23
330.359	24.98
330.571	24.02
330.782	24.87
330.994	26.93
331.205	29.28
331.417	28.42
331.628	27.6
331.84	27.66
332.051	26.96
332.262	30.35
332.474	31.35
332.685	31.16
332.897	31.9
333.108	31.53
333.319	31.35
333.531	31.92
333.742	33.08
333.953	35.58
334.165	37.06
334.376	38.31
334.587	37.9
334.799	38.41
335.01	38.42
335.221	37.31
335.432	38.54
335.644	39.7
335.855	38.64
336.066	38.31
336.277	38.45
336.488	39.75
336.7	40.87
336.911	41.31
337.122	41.9
337.333	42.46
337.544	43.05
337.755	45.34
337.966	45.79
338.177	47.64
338.388	48.02
338.599	48.49
338.811	48.04
339.022	47.88
339.233	47.73
339.444	47.69
339.655	47.4
339.866	47.58
340.076	45.34
340.287	45.74
340.498	44.6
340.709	44.38
340.92	43.45
341.131	42.29
341.342	41.19
341.553	41.19
341.764	42.34
341.975	41.92
342.185	42.87
342.396	43.46
342.607	43.15
342.818	44.13
343.029	44.62
343.239	44.65
343.45	45.6
343.661	46.22
343.872	46.21
344.082	45.38
344.293	46.18
344.504	45.78
344.714	46.21
344.925	45.91
345.136	45.17
345.346	44.61
345.557	45.35
345.768	46.58
345.978	46.47
346.189	46.42
346.399	46.36
346.61	45.93
346.821	45.86
347.031	45.73
347.242	46
347.452	46.68
347.663	47.59
347.873	48.57
348.084	47.41
348.294	47.59
348.504	48.08
348.715	47.54
348.925	49.4
349.136	49.31
349.346	48.79
349.557	49.08
349.767	48.19
349.977	48.53
350.188	48.02
350.398	48.57
350.608	47.76
350.819	46.79
351.029	47.74
351.239	46.39
351.449	46.44
351.66	46.66
351.87	46.1
352.08	46.04
352.29	45.48
352.501	44.86
352.711	45.49
352.921	46.56
353.131	47.21
353.341	47.81
353.552	47.45
353.762	47.71
353.972	47.72
354.182	48.1
354.392	48.23
354.602	48.69
354.812	48.84
355.022	47.9
355.232	47.78
355.442	48.34
355.652	46.83
355.862	47.02
356.072	46.95
356.282	46.41
356.492	46.56
356.702	46.18
356.912	45.64
357.122	45.25
357.332	45.32
357.542	45.78
357.752	45.94
357.962	46.21
358.171	46.48
358.381	46.2
358.591	45.98
358.801	45.95
359.011	47.11
359.221	47.07
359.43	47
359.64	46.84
359.85	46.25
360.06	45.33
360.269	44.75
360.479	43.91
360.689	44.37
360.899	45.79
361.108	46.08
361.318	45.51
361.528	45.31
361.737	45.3
361.947	46.49
362.156	46.25
362.366	46.36
362.576	47.04
362.785	47.93
362.995	47.48
363.204	46.43
363.414	46.54
363.623	46.63
363.833	47.57
364.042	47.3
364.252	46.21
364.461	46.48
364.671	46.89
364.88	46.8
365.09	46.57
365.299	47.06
365.509	47.42
365.718	47.26
365.927	47.52
366.137	46.76
366.346	46.69
366.555	46.81
366.765	46.3
366.974	45.8
367.183	44.65
367.393	44.36
367.602	44.16
367.811	43.91
368.021	43.7
368.23	42.77
368.439	42.73
368.648	43.66
368.857	43.05
369.067	44.37
369.276	43.49
369.485	44.87
369.694	44.87
369.903	45.06
370.112	44.24
370.321	44.19
370.531	44.98
370.74	44.66
370.949	44.46
371.158	44.78
371.367	43.18
371.576	43.34
371.785	43.42
371.994	43.03
372.203	42.65
372.412	42.77
372.621	42.03
372.83	41.37
373.039	40.96
373.248	40.25
373.457	39.57
373.666	40.09
373.874	41.46
374.083	40.96
374.292	40.77
374.501	41.21
374.71	41.54
374.919	41.83
375.128	42.19
375.336	41.96
375.545	41.9
375.754	41.76
375.963	41.57
376.171	40.48
376.38	40.5
376.589	40.31
376.798	39.49
377.006	39.6
377.215	39.01
377.424	39.02
377.632	39.33
377.841	39.14
378.05	39
378.258	38.62
378.467	38.8
378.675	38.08
378.884	38.11
379.093	38.23
379.301	37.96
379.51	38.24
379.718	37.63
379.927	38.23
380.135	38.7
380.344	38.68
380.552	38.73
380.761	38.57
380.969	38.76
381.177	38.67
381.386	38.21
381.594	37.74
381.803	37.67
382.011	37.58
382.219	37.25
382.428	36.41
382.636	35.94
382.845	35.69
383.053	35.52
383.261	35.89
383.469	36.21
383.678	36.08
383.886	36.28
384.094	35.96
384.302	36.5
384.511	36.18
384.719	36.55
384.927	36.54
385.135	36.97
385.343	36.72
385.552	36.29
385.76	35.88
385.968	36.26
386.176	36
386.384	36.08
386.592	35.13
386.8	34.59
387.008	34.5
387.216	34.77
387.424	34.61
387.633	34.43
387.841	34.46
388.049	34.63
388.257	34.15
388.465	34.3
388.672	34.05
388.88	34.31
389.088	34.65
389.296	34.48
389.504	34.43
389.712	34.13
389.92	33.7
390.128	33.27
390.336	32.74
390.544	33.01
390.751	32.73
390.959	32.75
391.167	32.57
391.375	32.56
391.583	32.65
391.79	32.55
391.998	32.54
392.206	32.86
392.414	32.88
392.621	33.35
392.829	33.35
393.037	33.38
393.244	33.49
393.452	33.38
393.66	32.99
393.867	32.96
394.075	32.75
394.283	32.84
394.49	32.64
394.698	32.77
394.905	32.48
395.113	32.3
395.32	32.08
395.528	31.94
395.735	31.78
395.943	31.93
396.15	31.8
396.358	31.5
396.565	30.98
396.773	31.58
396.98	31.44
397.188	31.31
397.395	31.2
397.602	31.2
397.81	30.88
398.017	31.09
398.225	30.98
398.432	30.99
398.639	31.5
398.847	32.27
399.054	31.64
399.261	31.78
399.468	31.85
399.676	31.58
399.883	31.71
400.09	32.05
400.297	32.16
400.505	32.41
400.712	32.08
400.919	32.06
401.126	31.73
401.333	32.38
401.54	32.15
401.748	32.3
401.955	32.47
402.162	32.97
402.369	32.83
402.576	32.61
402.783	32.4
402.99	32.69
403.197	32.71
403.404	32.61
403.611	32.25
403.818	32.22
404.025	32.06
404.232	32.3
404.439	32.02
404.646	32.25
404.853	32.24
405.06	32.12
405.267	32.03
405.474	31.97
405.681	32.06
405.887	32.13
406.094	32.27
406.301	32.34
406.508	32.55
406.715	32.51
406.922	32.42
407.128	32.57
407.335	32.78
407.542	32.65
407.749	32.5
407.955	32.27
408.162	32.09
408.369	31.88
408.575	31.68
408.782	31.42
408.989	31.26
409.195	31.12
409.402	31.32
409.609	31.28
409.815	31.37
410.022	31.39
410.228	31.47
410.435	31.77
410.642	31.8
410.848	31.86
411.055	31.57
411.261	31.52
411.468	31.69
411.674	31.42
411.881	31.56
412.087	31.89
412.294	31.8
412.5	31.7
412.706	31.26
412.913	31.41
413.119	31.71
413.326	31.88
413.532	31.91
413.738	31.86
413.945	31.86
414.151	31.69
414.357	31.45
414.564	31.66
414.77	31.82
414.976	31.75
415.182	31.73
415.389	31.69
415.595	31.89
415.801	31.82
416.007	31.71
416.214	31.72
416.42	31.85
416.626	31.74
416.832	31.49
417.038	31.52
417.244	31.36
417.45	31
417.657	30.62
417.863	30.57
418.069	30.66
418.275	30.49
418.481	30.56
418.687	30.3
418.893	30.33
419.099	30.39
419.305	30.05
419.511	30.21
419.717	30.49
419.923	30.63
420.129	30.41
420.335	30.23
420.541	30.3
420.746	30
420.952	29.99
421.158	29.9
421.364	29.91
421.57	29.97
421.776	29.89
421.982	29.81
422.187	29.57
422.393	29.54
422.599	29.61
422.805	29.49
423.01	29.54
423.216	29.45
423.422	29.46
423.628	29.37
423.833	29.34
424.039	29.28
424.245	29.07
424.45	29.12
424.656	29.18
424.862	29.19
425.067	29.28
425.273	29.22
425.478	29.3
425.684	29.06
425.889	29.07
426.095	29.04
426.301	28.94
426.506	29.11
426.712	29.19
426.917	29.14
427.123	29.15
427.328	29.04
427.533	29.18
427.739	29.35
427.944	29.73
428.15	29.73
428.355	29.69
428.561	29.8
428.766	29.63
428.971	29.69
429.177	29.72
429.382	29.66
429.587	29.58
429.793	29.53
429.998	29.29
430.203	29.03
430.408	28.91
430.614	29.18
430.819	29.06
431.024	29.11
431.229	28.92
431.434	28.67
431.64	28.62
431.845	28.67
432.05	28.85
432.255	28.97
432.46	28.95
432.665	28.98
432.87	28.77
433.076	29.08
433.281	29.11
433.486	29.26
433.691	29.3
433.896	29.21
434.101	29.2
434.306	29.19
434.511	28.93
434.716	29.01
434.921	29.08
435.126	29.13
435.331	29.01
435.535	29.01
435.74	28.75
435.945	28.9
436.15	28.91
436.355	28.78
436.56	28.74
436.765	28.64
436.97	28.68
437.174	28.6
437.379	28.48
437.584	28.55
437.789	28.56
437.993	28.88
438.198	28.91
438.403	29.15
438.608	29.21
438.812	29.13
439.017	29.37
439.222	29.34
439.426	29.39
439.631	29.53
439.836	29.41
440.04	29.58
440.245	29.35
440.45	29.42
440.654	29.15
440.859	29.22
441.063	29.17
441.268	29.08
441.472	29.14
441.677	29.1
441.881	29.02
442.086	28.98
442.29	28.78
442.495	28.92
442.699	28.59
442.904	28.71
443.108	28.57
443.312	28.63
443.517	28.75
443.721	28.87
443.925	29.01
444.13	28.95
444.334	28.97
444.538	29
444.743	29
444.947	29.11
445.151	29.08
445.356	29.22
445.56	28.97
445.764	28.98
445.968	28.62
446.173	28.45
446.377	28.52
446.581	28.52
446.785	28.47
446.989	28.35
447.193	28.42
447.398	28.44
447.602	28.36
447.806	28.44
448.01	28.36
448.214	28.53
448.418	28.48
448.622	28.39
448.826	28.34
449.03	28.23
449.234	28.37
449.438	28.18
449.642	28.16
449.846	28.14
450.05	28.2
450.254	28.03
450.458	27.9
450.662	27.91
450.866	27.85
451.069	27.96
451.273	28.01
451.477	28.02
451.681	28.08
451.885	27.75
452.089	27.84
452.292	27.73
452.496	27.8
452.7	27.86
452.904	27.9
453.107	28.04
453.311	27.99
453.515	27.97
453.719	27.82
453.922	27.82
454.126	28.03
454.33	27.95
454.533	28.11
454.737	27.96
454.94	27.91
455.144	27.93
455.348	27.74
455.551	27.74
455.755	27.78
455.958	27.67
456.162	27.43
456.365	27.56
456.569	27.35
456.772	27.28
456.976	27.53
457.179	27.61
457.383	27.74
457.586	27.74
457.79	27.77
457.993	27.79
458.196	28.15
458.4	28.27
458.603	28.12
458.807	28.3
459.01	28.49
459.213	28.44
459.417	28.45
459.62	28.31
459.823	28.33
460.026	28.33
460.23	28.29
