Data from 2938025_Reflection_1.txt Node
Date: Sun Jul 12 15:16:59 EDT 2015
User: robert
Spectrometer: USB4E03001
Autoset integration time: false
Trigger mode: 4
Integration Time (sec): 1.000000E-1
Scans to average: 10
Electric dark correction enabled: true
Nonlinearity correction enabled: false
Boxcar width: 5
Stray light correction enabled: false
XAxis mode: Wavelengths
Stop averaging: false
Number of Pixels in Spectrum: 3648
>>>>>Begin Spectral Data<<<<<
177.566	126.14
177.785	55.19
178.005	73.27
178.225	172.79
178.445	102.85
178.665	92.93
178.885	-119.51
179.105	39.76
179.324	0.07
179.544	-41.24
179.764	-311.92
179.984	-53.89
180.204	-75.96
180.423	-15.6
180.643	11.77
180.863	2.55
181.083	-21.56
181.302	-29.81
181.522	-44.8
181.742	-41.25
181.961	-40.06
182.181	-40.11
182.401	-37.74
182.621	-55.76
182.84	-81.3
183.06	-82.58
183.279	-94.21
183.499	-77.9
183.719	-105.22
183.938	-106.45
184.158	-128.86
184.377	-217.03
184.597	-983.29
184.816	7239.53
185.036	-2494.83
185.256	2900.61
185.475	999.52
185.695	-1837.81
185.914	-488.56
186.134	-549.85
186.353	-254.08
186.572	-239.09
186.792	-237.91
187.011	-176.37
187.231	-261.73
187.45	-178.11
187.67	-180.74
187.889	-112.86
188.108	-117.22
188.328	-471.03
188.547	4870.71
188.766	218.2
188.986	232.84
189.205	123.11
189.424	207.78
189.644	206.32
189.863	139.9
190.082	93.79
190.302	105.47
190.521	125.03
190.74	119.39
190.959	132.84
191.178	147.72
191.398	114.99
191.617	134.28
191.836	133.36
192.055	107.14
192.274	115.47
192.494	159.14
192.713	139.96
192.932	94.5
193.151	74.41
193.37	70.54
193.589	-164.26
193.808	263.29
194.027	171.89
194.246	214.45
194.465	172.82
194.685	115.5
194.904	163.89
195.123	143.13
195.342	184.06
195.561	664.38
195.78	181.38
195.999	202.39
196.218	143.81
196.436	3560.27
196.655	-3638.57
196.874	-316.18
197.093	-97.25
197.312	-47.56
197.531	-25.6
197.75	-62.55
197.969	-188.13
198.188	-110.7
198.407	-201.79
198.625	-96.44
198.844	-252.66
199.063	-626.94
199.282	-1613.3
199.501	-1221.45
199.719	1459.45
199.938	623.39
200.157	736.98
200.376	250.51
200.594	225.96
200.813	296.62
201.032	228.06
201.251	218.08
201.469	195.39
201.688	300.45
201.907	237.86
202.125	208.37
202.344	197.24
202.563	311.26
202.781	344.54
203	387.16
203.218	1100.27
203.437	452.28
203.656	2408.75
203.874	-553.26
204.093	-2029.26
204.311	-714.57
204.53	-829.5
204.748	-698.41
204.967	17916.67
205.185	7775.89
205.404	256.29
205.622	386.05
205.841	-471.13
206.059	-2550.47
206.278	693.95
206.496	571.87
206.715	2157.94
206.933	-413.61
207.151	-237.45
207.37	-185.85
207.588	-138.84
207.806	-95.05
208.025	-207.48
208.243	-225.09
208.461	-197.5
208.68	-53.33
208.898	-99.49
209.116	-107.93
209.335	-267.18
209.553	-264.74
209.771	-2258.6
209.989	-618.18
210.208	-502.52
210.426	-337.81
210.644	-394.94
210.862	-195.29
211.081	1635.04
211.299	910.05
211.517	374.77
211.735	-56.1
211.953	-6.83
212.171	3.46
212.39	-18.09
212.608	-17.26
212.826	-23.06
213.044	-22.1
213.262	-34.13
213.48	-50.52
213.698	-58.83
213.916	-235.07
214.134	-261.36
214.352	-911.26
214.57	-624.34
214.788	-370.56
215.006	-732.38
215.224	-144.95
215.442	2100
215.66	313.84
215.878	739.96
216.096	-1938.05
216.314	-187.59
216.532	-199.03
216.75	-224.77
216.968	-273.73
217.185	-353.38
217.403	-286.7
217.621	-589.56
217.839	-262.6
218.057	-215.76
218.275	-260.96
218.492	-374.5
218.71	-309.71
218.928	-324.41
219.146	-485.83
219.363	-427.18
219.581	-416.51
219.799	-761.15
220.017	-1271.8
220.234	-775.3
220.452	-2494.07
220.67	-5859.92
220.887	13637.5
221.105	1912.55
221.323	2761.82
221.54	-1085.36
221.758	-403.26
221.976	-327
222.193	-286.37
222.411	-95.1
222.629	-83.32
222.846	-37.99
223.064	-30.38
223.281	-2.07
223.499	18.82
223.716	9.02
223.934	-0.35
224.151	-10.22
224.369	-25.23
224.586	-23.06
224.804	-58.06
225.021	-58.63
225.239	-28.9
225.456	-11.11
225.674	-19.87
225.891	-26.31
226.108	-27.9
226.326	-14.93
226.543	-16.46
226.76	-14.78
226.978	-11.81
227.195	-7.86
227.413	-4.7
227.63	-8.04
227.847	-9.89
228.064	-3.92
228.282	-1.87
228.499	-3.65
228.716	-1.21
228.934	3.16
229.151	7.01
229.368	7.94
229.585	9.78
229.802	11.48
230.02	11.03
230.237	8.91
230.454	5.97
230.671	7.13
230.888	9.04
231.105	4.86
231.323	5.86
231.54	1.19
231.757	-1
231.974	-2.17
232.191	-2.19
232.408	-12.14
232.625	-11.69
232.842	-5.63
233.059	-8.8
233.276	-8.63
233.493	-9.35
233.71	-15.53
233.927	-9.75
234.144	-12.03
234.361	-14.42
234.578	-22.51
234.795	-12.05
235.012	-6.03
235.229	-9.63
235.446	-12.1
235.663	-17.45
235.879	-16.98
236.096	-14.39
236.313	-16.51
236.53	-9.52
236.747	-3.82
236.964	3.18
237.181	4.84
237.397	1.9
237.614	-4.39
237.831	-7.34
238.048	-5.72
238.264	-10.75
238.481	-11.3
238.698	-16.14
238.915	-15.91
239.131	-21.05
239.348	-25.55
239.565	-25.09
239.781	-25.33
239.998	-21.19
240.215	-10.38
240.431	-8.37
240.648	-2.62
240.865	0
241.081	3.96
241.298	5.49
241.514	6.97
241.731	9.94
241.947	10.99
242.164	13.23
242.38	14.25
242.597	14.23
242.814	13.51
243.03	13.87
243.246	12.38
243.463	11.27
243.679	9.89
243.896	8.52
244.112	5.98
244.329	4.3
244.545	3.07
244.762	3.95
244.978	2.76
245.194	4.72
245.411	3.87
245.627	6.77
245.843	9.37
246.06	8.67
246.276	8.93
246.492	10.32
246.709	11.77
246.925	11.48
247.141	10.69
247.357	10.04
247.574	9.5
247.79	9.04
248.006	7.89
248.222	7.16
248.439	7.85
248.655	7.43
248.871	6.28
249.087	4.2
249.303	3.24
249.519	2.57
249.736	3.04
249.952	1.17
250.168	1.82
250.384	1.54
250.6	0.04
250.816	-0.87
251.032	0.66
251.248	1.94
251.464	2.8
251.68	3.03
251.896	2.69
252.112	1.42
252.328	0.97
252.544	-0.66
252.76	-4.21
252.976	-4.03
253.192	-5.09
253.408	-8.21
253.624	-9.83
253.84	-9.76
254.056	-11.06
254.272	-11.52
254.487	-8.79
254.703	-6.72
254.919	-5.38
255.135	0.81
255.351	2.08
255.567	4.36
255.782	7.49
255.998	7.3
256.214	6.34
256.43	5.49
256.646	5.72
256.861	4.61
257.077	4.27
257.293	5.03
257.508	5.28
257.724	3.23
257.94	3.35
258.155	4.14
258.371	2.78
258.587	3.46
258.802	4.96
259.018	5.51
259.234	6.6
259.449	6.46
259.665	7.16
259.88	7.48
260.096	8.16
260.312	8.01
260.527	7.46
260.743	7.67
260.958	7.44
261.174	7.31
261.389	6.79
261.605	5.46
261.82	5.84
262.036	4.46
262.251	3.52
262.466	2.48
262.682	1.06
262.897	0.9
263.113	2.02
263.328	0.61
263.543	-1.57
263.759	-0.87
263.974	-1.35
264.189	-3.27
264.405	-3.71
264.62	-5.15
264.835	-7.93
265.051	-9.97
265.266	-8.55
265.481	-10.38
265.696	-7.13
265.912	-5.77
266.127	-5.83
266.342	-4.67
266.557	-2.21
266.773	-2.24
266.988	-0.43
267.203	1.68
267.418	3.96
267.633	2.37
267.848	3.36
268.064	3.35
268.279	4.57
268.494	4.68
268.709	5.9
268.924	5.29
269.139	5.34
269.354	5.95
269.569	5.26
269.784	4.33
269.999	5.85
270.214	5.17
270.429	4.59
270.644	4.11
270.859	3.27
271.074	2.96
271.289	3.08
271.504	4.38
271.719	3.77
271.934	4.91
272.149	4.63
272.363	5.57
272.578	6.07
272.793	6.18
273.008	7.17
273.223	7.26
273.438	6.36
273.653	5.19
273.867	4.84
274.082	4.42
274.297	3.86
274.512	4.93
274.726	4.82
274.941	5.27
275.156	4.72
275.371	4.92
275.585	4.98
275.8	3.78
276.015	5.24
276.229	5.38
276.444	6.11
276.659	5.81
276.873	6.89
277.088	7.19
277.302	6.73
277.517	7.77
277.732	6.65
277.946	7.08
278.161	8.05
278.375	7.63
278.59	7.03
278.804	5.18
279.019	4.97
279.233	2.61
279.448	-0.3
279.662	-1.72
279.877	-3.45
280.091	-3.4
280.306	-3.7
280.52	-2.17
280.735	-3.68
280.949	-3.67
281.163	-2.34
281.378	-2.27
281.592	-1.82
281.806	-0.5
282.021	1.65
282.235	2.16
282.449	2.55
282.664	3.62
282.878	2.81
283.092	4.2
283.307	4.9
283.521	4.28
283.735	3.97
283.949	3.65
284.164	3.04
284.378	1.1
284.592	1.01
284.806	1.27
285.02	0.76
285.234	1.56
285.449	1.34
285.663	1.01
285.877	0.96
286.091	2.33
286.305	3.56
286.519	3.82
286.733	4.79
286.947	4.7
287.161	3.75
287.375	4.85
287.589	4.06
287.803	4.6
288.017	4.17
288.231	4.46
288.445	3.86
288.659	3.21
288.873	3.73
289.087	3.97
289.301	5.03
289.515	6.25
289.729	5.13
289.943	5.78
290.157	6.45
290.371	7.35
290.584	7.28
290.798	8.17
291.012	8.06
291.226	7.48
291.44	6.49
291.654	6.79
291.867	6.91
292.081	7.22
292.295	6.88
292.509	5.14
292.722	3.85
292.936	3.64
293.15	3.25
293.364	2.69
293.577	4.76
293.791	5.97
294.005	5.47
294.218	4.22
294.432	3.75
294.645	1.69
294.859	2.78
295.073	2.92
295.286	4.45
295.5	3.33
295.713	3.88
295.927	2.56
296.14	2.5
296.354	2.26
296.568	3.07
296.781	3.93
296.994	5.24
297.208	4.83
297.421	6.37
297.635	6.42
297.848	6.64
298.062	7.03
298.275	7.35
298.489	6.73
298.702	6.3
298.915	5.74
299.129	5.54
299.342	5.59
299.555	6.11
299.769	4.93
299.982	3.95
300.195	4.72
300.409	4.3
300.622	3.61
300.835	4
301.048	5.59
301.262	5.24
301.475	5.14
301.688	6.58
301.901	6.74
302.115	6.4
302.328	6.71
302.541	6.15
302.754	6.02
302.967	6.53
303.18	6.28
303.393	6.18
303.607	7.75
303.82	8.32
304.033	6.71
304.246	6.16
304.459	5.66
304.672	4.36
304.885	4.37
305.098	3.85
305.311	3.82
305.524	4.79
305.737	4.21
305.95	4.03
306.163	3.62
306.376	3.48
306.589	4.86
306.802	5.59
307.015	7.69
307.228	8.26
307.44	9.53
307.653	9.88
307.866	9.32
308.079	9.21
308.292	8.27
308.505	7.02
308.718	7.72
308.93	6.74
309.143	6.35
309.356	5.98
309.569	5.99
309.781	6.79
309.994	6.66
310.207	7.8
310.42	8.31
310.632	7.05
310.845	8.61
311.058	8
311.27	7.28
311.483	7.53
311.696	7.32
311.908	6.04
312.121	5.69
312.333	5.91
312.546	4.42
312.759	4.2
312.971	5.58
313.184	5.54
313.396	6.04
313.609	5.88
313.821	4.94
314.034	4.83
314.246	5.11
314.459	4.84
314.671	3.86
314.884	4.64
315.096	5.07
315.309	5.23
315.521	3.35
315.733	3.93
315.946	4.81
316.158	7.02
316.371	7.66
316.583	9.53
316.795	7.81
317.008	8.47
317.22	8.41
317.432	6.32
317.644	6.25
317.857	7.45
318.069	6.53
318.281	7.45
318.494	6.44
318.706	6.31
318.918	6.42
319.13	7.16
319.342	6.36
319.555	5.71
319.767	5.94
319.979	6.05
320.191	4.9
320.403	5.33
320.615	6.02
320.827	5.26
321.039	5.61
321.252	3.76
321.464	3.6
321.676	3.73
321.888	5.47
322.1	6.07
322.312	6.15
322.524	6.23
322.736	5.5
322.948	4.09
323.16	5.59
323.372	5.92
323.584	6.69
323.796	6.33
324.007	7
324.219	6.62
324.431	7.71
324.643	7.7
324.855	9.12
325.067	8.9
325.279	10.16
325.491	9.19
325.702	7.96
325.914	7.69
326.126	9.16
326.338	9
326.55	7.96
326.761	6.74
326.973	6.15
327.185	4.73
327.396	6.36
327.608	6.3
327.82	7.35
328.032	7.52
328.243	7.75
328.455	7.74
328.666	9.38
328.878	9.82
329.09	9.16
329.301	10.71
329.513	10.98
329.725	10.68
329.936	9.95
330.148	9.51
330.359	9.9
330.571	11.43
330.782	10.91
330.994	8.63
331.205	9.76
331.417	10.9
331.628	9.26
331.84	10.25
332.051	11.07
332.262	11.18
332.474	11.66
332.685	11.59
332.897	10.97
333.108	11.05
333.319	12.9
333.531	13.06
333.742	13.37
333.953	15.51
334.165	15.91
334.376	15.25
334.587	15.37
334.799	16.14
335.01	16.77
335.221	16.47
335.432	16.65
335.644	14.57
335.855	14.25
336.066	14.14
336.277	13.87
336.488	13.6
336.7	12.95
336.911	13.11
337.122	12.03
337.333	12.39
337.544	11.7
337.755	11.85
337.966	12.73
338.177	12.8
338.388	12.98
338.599	13.65
338.811	12.71
339.022	13.39
339.233	13.11
339.444	13.23
339.655	13.3
339.866	14.04
340.076	13.81
340.287	14.29
340.498	14.29
340.709	14.19
340.92	12.14
341.131	13.67
341.342	13.45
341.553	13.44
341.764	14.29
341.975	13.48
342.185	13.92
342.396	14.46
342.607	13.41
342.818	13.94
343.029	13.67
343.239	14.02
343.45	12.88
343.661	12.06
343.872	12.62
344.082	11.9
344.293	11.58
344.504	11.29
344.714	11.4
344.925	11.5
345.136	10.72
345.346	12.06
345.557	12.55
345.768	12.21
345.978	12.74
346.189	12.37
346.399	12.36
346.61	14.22
346.821	14.21
347.031	14.27
347.242	14.72
347.452	14.74
347.663	13.71
347.873	13.47
348.084	13.98
348.294	14.92
348.504	14.28
348.715	14.2
348.925	12.17
349.136	12.14
349.346	11.72
349.557	11.38
349.767	11.75
349.977	13.07
350.188	13.23
350.398	12.86
350.608	12.49
350.819	12.17
351.029	12.47
351.239	13.15
351.449	13.04
351.66	12.33
351.87	11.57
352.08	10.28
352.29	8.97
352.501	8.82
352.711	9.49
352.921	8.13
353.131	7.99
353.341	7.69
353.552	7.53
353.762	7.58
353.972	9.08
354.182	10.46
354.392	11.05
354.602	11.54
354.812	11.35
355.022	11.47
355.232	12.54
355.442	13.31
355.652	12.58
355.862	12.53
356.072	12.49
356.282	11.82
356.492	12.35
356.702	12.95
356.912	12.71
357.122	13.07
357.332	13.06
357.542	12.77
357.752	13.29
357.962	13.29
358.171	13.37
358.381	13.62
358.591	13.62
358.801	13.31
359.011	13
359.221	13.29
359.43	12.53
359.64	11.8
359.85	11.64
360.06	11.33
360.269	11.91
360.479	11.77
360.689	11.46
360.899	11.06
361.108	10.95
361.318	10.34
361.528	10.66
361.737	11.44
361.947	12.47
362.156	13
362.366	12.79
362.576	12.61
362.785	12.7
362.995	13.17
363.204	13.01
363.414	13.16
363.623	13.64
363.833	12.82
364.042	13.35
364.252	12.83
364.461	12.48
364.671	12.81
364.88	12.95
365.09	13.39
365.299	13.29
365.509	13.68
365.718	13.53
365.927	14.26
366.137	15.1
366.346	13.98
366.555	13.85
366.765	13.77
366.974	13.75
367.183	13.63
367.393	12.82
367.602	12.51
367.811	12.28
368.021	11.35
368.23	10.83
368.439	10.05
368.648	10.25
368.857	9.98
369.067	10.48
369.276	10.92
369.485	11.24
369.694	11.37
369.903	11.25
370.112	11.37
370.321	12.4
370.531	11.48
370.74	11.53
370.949	11.69
371.158	11.54
371.367	11.18
371.576	10.79
371.785	10.61
371.994	10.83
372.203	10.7
372.412	11.12
372.621	10.71
372.83	11.21
373.039	11.34
373.248	10.4
373.457	10.67
373.666	10.57
373.874	10.09
374.083	10.27
374.292	9.91
374.501	9.8
374.71	9.48
374.919	9.51
375.128	9.85
375.336	9.27
375.545	10.93
375.754	11.03
375.963	10.82
376.171	11.01
376.38	11.19
376.589	11.7
376.798	12.08
377.006	12.37
377.215	12.74
377.424	12.9
377.632	13.39
377.841	12.52
378.05	12.16
378.258	12.09
378.467	11.77
378.675	11.66
378.884	11.42
379.093	10.85
379.301	9.97
379.51	9.46
379.718	9.35
379.927	8.94
380.135	8.73
380.344	8.76
380.552	9.18
380.761	9.65
380.969	9.05
381.177	9.14
381.386	9.36
381.594	10.42
381.803	10.13
382.011	9.97
382.219	10.07
382.428	10.08
382.636	10.58
382.845	10.46
383.053	10.22
383.261	9.95
383.469	9.84
383.678	9.85
383.886	9.54
384.094	10.01
384.302	9.54
384.511	9.63
384.719	9.3
384.927	8.43
385.135	8.07
385.343	7.93
385.552	8.1
385.76	7.6
385.968	7.79
386.176	7.43
386.384	7.09
386.592	7.24
386.8	7.15
387.008	7.45
387.216	7.77
387.424	8.03
387.633	7.68
387.841	7.82
388.049	7.88
388.257	7.89
388.465	7.85
388.672	7.59
388.88	7.62
389.088	7.3
389.296	6.92
389.504	7.17
389.712	7.26
389.92	7.51
390.128	7.29
390.336	7.69
390.544	7.37
390.751	7.28
390.959	7.83
391.167	7.69
391.375	7.75
391.583	8.29
391.79	8.21
391.998	8.2
392.206	8.07
392.414	8.29
392.621	8.12
392.829	8.19
393.037	8.44
393.244	8.07
393.452	7.94
393.66	8.07
393.867	8.03
394.075	7.97
394.283	7.94
394.49	8.08
394.698	8.31
394.905	8.27
395.113	8.46
395.32	8.19
395.528	8.33
395.735	8.69
395.943	8.53
396.15	8.13
396.358	7.91
396.565	7.76
396.773	7.8
396.98	7.29
397.188	7.38
397.395	7.29
397.602	7.21
397.81	7.41
398.017	7.31
398.225	7.73
398.432	7.91
398.639	8.34
398.847	8.5
399.054	8.37
399.261	8.57
399.468	8.37
399.676	7.98
399.883	8.04
400.09	7.55
400.297	7.68
400.505	7.23
400.712	7.33
400.919	6.78
401.126	6.86
401.333	6.68
401.54	6.57
401.748	6.66
401.955	6.73
402.162	6.73
402.369	7.11
402.576	6.84
402.783	7.36
402.99	6.96
403.197	7.42
403.404	7.15
403.611	7.19
403.818	7.34
404.025	7.37
404.232	7.72
404.439	7.69
404.646	7.57
404.853	7.72
405.06	7.69
405.267	7.84
405.474	7.56
405.681	7.68
405.887	7.93
406.094	7.53
406.301	7.75
406.508	7.22
406.715	7.38
406.922	7.45
407.128	7.19
407.335	6.91
407.542	7.07
407.749	7.31
407.955	6.87
408.162	6.48
408.369	6.75
408.575	6.88
408.782	7.1
408.989	7.28
409.195	7.04
409.402	7.26
409.609	7.25
409.815	7.12
410.022	6.94
410.228	7.24
410.435	7.53
410.642	7.38
410.848	7.21
411.055	7.27
411.261	7.12
411.468	7
411.674	6.97
411.881	7.11
412.087	7.21
412.294	7.03
412.5	6.96
412.706	6.79
412.913	6.77
413.119	6.42
413.326	6.66
413.532	6.86
413.738	6.95
413.945	6.89
414.151	6.76
414.357	6.5
414.564	6.94
414.77	6.85
414.976	6.77
415.182	6.76
415.389	6.74
415.595	6.66
415.801	6.43
416.007	6.49
416.214	6.48
416.42	6.52
416.626	6.6
416.832	6.42
417.038	6.5
417.244	6.71
417.45	6.8
417.657	6.83
417.863	6.93
418.069	6.96
418.275	7.15
418.481	7.15
418.687	7.05
418.893	7.27
419.099	7.25
419.305	7.41
419.511	7.46
419.717	7.46
419.923	7.54
420.129	7.28
420.335	7.2
420.541	6.94
420.746	7.03
420.952	7.06
421.158	6.83
421.364	6.85
421.57	6.72
421.776	6.69
421.982	6.79
422.187	6.77
422.393	6.82
422.599	6.94
422.805	7.12
423.01	6.99
423.216	6.99
423.422	7.04
423.628	7.01
423.833	7.06
424.039	7.06
424.245	7.02
424.45	7.01
424.656	7.1
424.862	7.04
425.067	6.95
425.273	7.01
425.478	7.15
425.684	7.15
425.889	7.21
426.095	7.14
426.301	7.08
426.506	7.09
426.712	7.14
426.917	7.19
427.123	7.12
427.328	7.25
427.533	7.2
427.739	6.91
427.944	7.03
428.15	6.71
428.355	6.85
428.561	6.81
428.766	6.67
428.971	6.66
429.177	6.43
429.382	6.63
429.587	6.74
429.793	6.68
429.998	6.73
430.203	6.71
430.408	7.16
430.614	6.99
430.819	7.11
431.024	7.22
431.229	6.98
431.434	7.09
431.64	6.97
431.845	6.83
432.05	6.87
432.255	7.04
432.46	6.86
432.665	6.63
432.87	6.71
433.076	6.76
433.281	6.71
433.486	6.92
433.691	6.99
433.896	6.89
434.101	6.88
434.306	6.95
434.511	6.72
434.716	6.77
434.921	6.97
435.126	6.9
435.331	6.8
435.535	6.73
435.74	6.52
435.945	6.47
436.15	6.45
436.355	6.65
436.56	6.54
436.765	6.72
436.97	6.83
437.174	6.69
437.379	6.77
437.584	6.66
437.789	6.68
437.993	6.88
438.198	6.84
438.403	7.06
438.608	6.78
438.812	6.96
439.017	7.01
439.222	7.02
439.426	6.85
439.631	6.89
439.836	6.92
440.04	6.85
440.245	6.75
440.45	6.73
440.654	6.65
440.859	6.82
441.063	6.81
441.268	6.76
441.472	6.75
441.677	6.85
441.881	6.67
442.086	6.7
442.29	6.62
442.495	6.62
442.699	6.62
442.904	6.47
443.108	6.24
443.312	6.21
443.517	6.13
443.721	6.1
443.925	6.2
444.13	6.29
444.334	6.36
444.538	6.58
444.743	6.52
444.947	6.53
445.151	6.61
445.356	6.67
445.56	6.6
445.764	6.67
445.968	6.61
446.173	6.73
446.377	6.85
446.581	6.94
446.785	7.01
446.989	6.99
447.193	7.1
447.398	7.16
447.602	7.32
447.806	7.31
448.01	7.29
448.214	7.39
448.418	7.4
448.622	7.42
448.826	7.47
449.03	7.4
449.234	7.62
449.438	7.56
449.642	7.62
449.846	7.33
450.05	7.13
450.254	7.24
450.458	7.32
450.662	7.16
450.866	6.87
451.069	6.72
451.273	6.56
451.477	6.65
451.681	6.47
451.885	6.32
452.089	6.55
452.292	6.99
452.496	6.84
452.7	6.64
452.904	6.56
453.107	6.83
453.311	6.8
453.515	6.95
453.719	6.77
453.922	6.79
454.126	6.81
454.33	6.69
454.533	6.37
454.737	6.39
454.94	6.57
455.144	6.56
455.348	6.39
455.551	6.1
455.755	5.86
455.958	5.79
456.162	5.66
456.365	5.8
456.569	5.85
456.772	5.92
456.976	6.07
457.179	5.97
457.383	6.02
457.586	6.01
457.79	6.24
457.993	6.3
458.196	6.46
458.4	6.69
458.603	6.44
458.807	6.34
459.01	6.33
459.213	6.25
459.417	6.16
459.62	6.32
459.823	6.35
460.026	6.41
460.23	6.49
460.433	6.5
460.636	6.51
460.839	6.62
461.042	6.66
461.246	6.69
461.449	6.6
461.652	6.72
461.855	6.37
462.058	6.41
462.261	6.3
462.464	6.22
462.668	6.02
462.871	5.92
463.074	5.76
463.277	6.05
463.48	6.02
