Data from 2938126_Reflection_2.txt Node
Date: Sat Jul 11 17:23:16 EDT 2015
User: robert
Spectrometer: USB4E03001
Autoset integration time: false
Trigger mode: 4
Integration Time (sec): 1.000000E-1
Scans to average: 10
Electric dark correction enabled: true
Nonlinearity correction enabled: false
Boxcar width: 5
Stray light correction enabled: false
XAxis mode: Wavelengths
Stop averaging: false
Number of Pixels in Spectrum: 3648
>>>>>Begin Spectral Data<<<<<
177.566	387
177.785	-8605.88
178.005	1286.55
178.225	4496.88
178.445	413.7
178.665	269.9
178.885	-16.44
179.105	-407.58
179.324	441.47
179.544	265.1
179.764	177.51
179.984	158.32
180.204	206.14
180.423	185.84
180.643	174.88
180.863	194.41
181.083	142.4
181.302	118.16
181.522	123.07
181.742	116.28
181.961	103.46
182.181	102.34
182.401	87.12
182.621	94.87
182.84	83.6
183.06	106.58
183.279	67.28
183.499	108.95
183.719	128.46
183.938	99.73
184.158	116.99
184.377	121.27
184.597	132.68
184.816	121.36
185.036	114.71
185.256	121.03
185.475	114.45
185.695	137.41
185.914	123.49
186.134	128.55
186.353	134.2
186.572	126.92
186.792	123.94
187.011	115.6
187.231	119.06
187.45	104.04
187.67	106.76
187.889	104.9
188.108	101.71
188.328	95.41
188.547	96.21
188.766	92.64
188.986	105.9
189.205	104.01
189.424	105.96
189.644	110.44
189.863	137.44
190.082	124.23
190.302	127.22
190.521	116.81
190.74	131.19
190.959	125.42
191.178	121.52
191.398	122.23
191.617	135.11
191.836	144.32
192.055	124.41
192.274	116.53
192.494	105.34
192.713	105.38
192.932	94.26
193.151	86.78
193.37	88.98
193.589	89.33
193.808	95.01
194.027	99.27
194.246	99.98
194.465	117.29
194.685	106.32
194.904	131.33
195.123	149.26
195.342	161.32
195.561	186.81
195.78	258.27
195.999	182.37
196.218	137.67
196.436	113.74
196.655	101.67
196.874	93.68
197.093	84.11
197.312	79.67
197.531	73.06
197.75	67.15
197.969	65.32
198.188	65.87
198.407	57.58
198.625	61.17
198.844	72.71
199.063	71.73
199.282	66.74
199.501	65.89
199.719	60.93
199.938	54.94
200.157	65.06
200.376	59.89
200.594	54.64
200.813	67.04
201.032	70.07
201.251	58.08
201.469	66.66
201.688	81.47
201.907	90.53
202.125	103.82
202.344	100.79
202.563	95.06
202.781	102.92
203	101.41
203.218	88.33
203.437	90.49
203.656	93.44
203.874	89.47
204.093	82.5
204.311	85.78
204.53	90.55
204.748	113.83
204.967	120.03
205.185	109.28
205.404	119.7
205.622	134.54
205.841	111.87
206.059	116.26
206.278	132.85
206.496	114.07
206.715	109.08
206.933	88.08
207.151	84.09
207.37	85.78
207.588	88.93
207.806	80.18
208.025	80.85
208.243	89.77
208.461	88.78
208.68	76.25
208.898	90.72
209.116	86.37
209.335	99.19
209.553	98.53
209.771	87.83
209.989	85.97
210.208	83.47
210.426	93.63
210.644	107.31
210.862	108.49
211.081	127.53
211.299	100.76
211.517	105.04
211.735	92.8
211.953	81.96
212.171	83.9
212.39	77.69
212.608	89.9
212.826	87.03
213.044	78.35
213.262	79.73
213.48	88.15
213.698	95.75
213.916	110.93
214.134	125.46
214.352	156.47
214.57	165.38
214.788	211.92
215.006	191.27
215.224	180.39
215.442	155.45
215.66	164.59
215.878	149.36
216.096	134.59
216.314	97.24
216.532	94.03
216.75	99.73
216.968	96.08
217.185	94.68
217.403	105.12
217.621	107.22
217.839	109.39
218.057	105.75
218.275	101
218.492	108.42
218.71	135.67
218.928	149.68
219.146	134.45
219.363	135.04
219.581	138.53
219.799	122.49
220.017	112.77
220.234	104.46
220.452	106.99
220.67	107.8
220.887	107.08
221.105	112.86
221.323	120.29
221.54	120.44
221.758	120.24
221.976	108.04
222.193	115.92
222.411	123.69
222.629	125.42
222.846	110.4
223.064	91.06
223.281	100.1
223.499	77.5
223.716	67.3
223.934	65.42
224.151	72.47
224.369	64.49
224.586	60.1
224.804	55.94
225.021	58.47
225.239	60.73
225.456	56.85
225.674	54.59
225.891	62.47
226.108	57.78
226.326	52.07
226.543	38.07
226.76	38.34
226.978	40.65
227.195	41.22
227.413	36.33
227.63	39.02
227.847	44.15
228.064	41.15
228.282	36.97
228.499	34.41
228.716	34.22
228.934	33.32
229.151	34.72
229.368	34.47
229.585	34.04
229.802	34.77
230.02	35.99
230.237	34.53
230.454	34.28
230.671	37.07
230.888	40.36
231.105	40.09
231.323	41.39
231.54	41.62
231.757	41.43
231.974	44.99
232.191	43.64
232.408	42.65
232.625	45.18
232.842	45.97
233.059	45.76
233.276	41.68
233.493	47.02
233.71	48.2
233.927	50.06
234.144	49.08
234.361	47.31
234.578	52.12
234.795	49.88
235.012	48.78
235.229	45.52
235.446	46.42
235.663	47.66
235.879	46.54
236.096	42.46
236.313	42.41
236.53	44.9
236.747	45.31
236.964	42.51
237.181	40.89
237.397	41.94
237.614	41.77
237.831	33.45
238.048	34.64
238.264	29.16
238.481	36.1
238.698	34.81
238.915	32.36
239.131	29.83
239.348	28.93
239.565	32.02
239.781	30.9
239.998	34.36
240.215	37.39
240.431	37.49
240.648	36.47
240.865	33.38
241.081	31.86
241.298	30.19
241.514	29.85
241.731	29.92
241.947	26.76
242.164	25.13
242.38	23.37
242.597	22.23
242.814	21.99
243.03	24.11
243.246	23.18
243.463	22.56
243.679	26.12
243.896	25.62
244.112	24.23
244.329	25.38
244.545	26.9
244.762	27.61
244.978	28.41
245.194	27.35
245.411	24.55
245.627	23.92
245.843	21.99
246.06	16.29
246.276	16.74
246.492	16.74
246.709	18.39
246.925	17.65
247.141	17.79
247.357	17.65
247.574	16.95
247.79	16.45
248.006	16.51
248.222	16.95
248.439	17.85
248.655	18.25
248.871	18.61
249.087	17.84
249.303	17.33
249.519	17.43
249.736	18.38
249.952	20.45
250.168	23.14
250.384	24.61
250.6	25.28
250.816	27.39
251.032	26.98
251.248	27.37
251.464	25.55
251.68	26.08
251.896	23.99
252.112	21.27
252.328	20.38
252.544	19.41
252.76	18.81
252.976	18.85
253.192	18.41
253.408	18.73
253.624	20.59
253.84	22.58
254.056	23.87
254.272	25.2
254.487	25.44
254.703	24.4
254.919	25.93
255.135	25.86
255.351	26.08
255.567	26.31
255.782	26.65
255.998	23.1
256.214	20.93
256.43	20.15
256.646	21.24
256.861	22.57
257.077	24.59
257.293	22.39
257.508	22.25
257.724	22.51
257.94	20.95
258.155	19.67
258.371	18.77
258.587	17.85
258.802	16.93
259.018	15.02
259.234	15.07
259.449	13.89
259.665	14.19
259.88	14.04
260.096	12.77
260.312	13.27
260.527	13.21
260.743	14.02
260.958	14.4
261.174	14.87
261.389	16.13
261.605	16.97
261.82	17.46
262.036	17.71
262.251	17.94
262.466	19.47
262.682	18.82
262.897	19.45
263.113	18.93
263.328	19.73
263.543	19.41
263.759	18.17
263.974	18.4
264.189	18.5
264.405	19.26
264.62	18.86
264.835	19.02
265.051	21.18
265.266	21.37
265.481	21.4
265.696	20.72
265.912	20.69
266.127	21.22
266.342	19.54
266.557	19.51
266.773	18.51
266.988	18.12
267.203	18.51
267.418	17.68
267.633	15.97
267.848	15.66
268.064	14.83
268.279	16.04
268.494	15.62
268.709	14.96
268.924	15.47
269.139	15.16
269.354	16.14
269.569	14.48
269.784	13.81
269.999	14.95
270.214	14.29
270.429	15.11
270.644	12.59
270.859	12.89
271.074	12.63
271.289	12.71
271.504	12.8
271.719	12.47
271.934	14.54
272.149	13.24
272.363	13.59
272.578	13.75
272.793	13.76
273.008	15.32
273.223	15.45
273.438	16.02
273.653	15.97
273.867	16.9
274.082	17
274.297	15.85
274.512	17.73
274.726	17.7
274.941	17.4
275.156	17.56
275.371	18.12
275.585	18.03
275.8	18.92
276.015	19.18
276.229	17.79
276.444	16.89
276.659	16.06
276.873	15.69
277.088	15.54
277.302	15.56
277.517	15.33
277.732	15.4
277.946	15.86
278.161	16.3
278.375	16.57
278.59	16.26
278.804	15
279.019	16.72
279.233	17.23
279.448	17.4
279.662	16.38
279.877	16.16
280.091	15.34
280.306	15.01
280.52	15.25
280.735	14.62
280.949	16.34
281.163	18.48
281.378	18.41
281.592	16.76
281.806	17.24
282.021	19.04
282.235	20.48
282.449	20.67
282.664	19.54
282.878	18.95
283.092	19.2
283.307	17.39
283.521	17.97
283.735	18.68
283.949	19.58
284.164	18.58
284.378	18.1
284.592	17.66
284.806	16.04
285.02	18.32
285.234	17.65
285.449	17.34
285.663	17.94
285.877	17.02
286.091	16.49
286.305	16.71
286.519	17.26
286.733	16.24
286.947	14.75
287.161	14.4
287.375	12.12
287.589	13.35
287.803	13.7
288.017	13.75
288.231	12.45
288.445	11.69
288.659	10.89
288.873	10.24
289.087	11.16
289.301	12.59
289.515	13.44
289.729	13.54
289.943	12.25
290.157	10.86
290.371	9.7
290.584	11.51
290.798	12.25
291.012	12.89
291.226	13.93
291.44	13.91
291.654	13.84
291.867	14.04
292.081	15.21
292.295	15.6
292.509	16.68
292.722	19.14
292.936	18.94
293.15	18.95
293.364	17.76
293.577	17.15
293.791	18.12
294.005	18.52
294.218	19.27
294.432	18.47
294.645	19.31
294.859	19.89
295.073	17.67
295.286	16.38
295.5	15.86
295.713	17.4
295.927	17.74
296.14	17.15
296.354	16
296.568	15.78
296.781	15.81
296.994	15.2
297.208	15
297.421	16.32
297.635	16.82
297.848	17.25
298.062	16.28
298.275	15.81
298.489	15.83
298.702	17.14
298.915	17.4
299.129	18.26
299.342	18.68
299.555	19.34
299.769	18.62
299.982	19.68
300.195	18.94
300.409	21.43
300.622	22.19
300.835	22.58
301.048	22.85
301.262	22.91
301.475	22.92
301.688	22.28
301.901	21.98
302.115	21.73
302.328	21.03
302.541	20.58
302.754	18.82
302.967	18.58
303.18	17.32
303.393	17.24
303.607	15.76
303.82	15.77
304.033	14.92
304.246	15.16
304.459	15.53
304.672	15.39
304.885	16.49
305.098	17.53
305.311	17.97
305.524	19.39
305.737	17.37
305.95	18.87
306.163	18.28
306.376	18.7
306.589	18.19
306.802	19.52
307.015	19.75
307.228	19
307.44	17.48
307.653	17.27
307.866	15.92
308.079	16.79
308.292	15.75
308.505	15.61
308.718	15.8
308.93	16.89
309.143	16
309.356	15.72
309.569	16.61
309.781	17.81
309.994	18.33
310.207	19.31
310.42	19.04
310.632	20.33
310.845	20.06
311.058	20.44
311.27	19.38
311.483	20.41
311.696	20.95
311.908	20.83
312.121	19.9
312.333	19.48
312.546	19.88
312.759	20.16
312.971	19.44
313.184	19.57
313.396	20.13
313.609	21.07
313.821	21.27
314.034	21.36
314.246	22.26
314.459	23.4
314.671	22.73
314.884	22.5
315.096	22.93
315.309	25.28
315.521	25.36
315.733	25.74
315.946	24.55
316.158	23.6
316.371	23.54
316.583	21.54
316.795	21.6
317.008	21.36
317.22	21.38
317.432	22.38
317.644	19.17
317.857	21.18
318.069	19.25
318.281	21.4
318.494	21.13
318.706	19.81
318.918	20.21
319.13	19.26
319.342	19.41
319.555	19.29
319.767	17.74
319.979	18.44
320.191	16.96
320.403	17.6
320.615	16.4
320.827	15.98
321.039	16.85
321.252	18.31
321.464	19.18
321.676	20.05
321.888	20.63
322.1	20.67
322.312	18.78
322.524	18.56
322.736	18.14
322.948	17.81
323.16	17.11
323.372	17.52
323.584	18.43
323.796	17.74
324.007	16.09
324.219	15.28
324.431	14.73
324.643	16.17
324.855	15.16
325.067	16.13
325.279	16.28
325.491	17.26
325.702	16.28
325.914	14.91
326.126	15.84
326.338	17.25
326.55	17.62
326.761	18.88
326.973	19.61
327.185	20.48
327.396	21.74
327.608	21.63
327.82	21.89
328.032	22.63
328.243	22.54
328.455	21.46
328.666	20.71
328.878	20.63
329.09	19.81
329.301	19.38
329.513	19.76
329.725	17.74
329.936	18.09
330.148	19.31
330.359	19.13
330.571	18.92
330.782	18.76
330.994	18.35
331.205	18.14
331.417	17.12
331.628	17.9
331.84	18.59
332.051	18.15
332.262	18.6
332.474	15.15
332.685	15.4
332.897	15.03
333.108	16.45
333.319	17.39
333.531	17.36
333.742	18.03
333.953	17.41
334.165	16.14
334.376	17.27
334.587	16.77
334.799	17.65
335.01	16.85
335.221	17.88
335.432	16.32
335.644	15.59
335.855	15.32
336.066	15.62
336.277	14.98
336.488	16.73
336.7	16.38
336.911	17.06
337.122	17.97
337.333	19.15
337.544	18.71
337.755	19.5
337.966	19.9
338.177	21.36
338.388	21.91
338.599	21.7
338.811	20.85
339.022	20.66
339.233	19.89
339.444	19.5
339.655	18.69
339.866	20.22
340.076	20.63
340.287	21.86
340.498	21.98
340.709	22.13
340.92	21.93
341.131	22.84
341.342	22.81
341.553	22.65
341.764	22.42
341.975	22.07
342.185	20.85
342.396	19.37
342.607	18.12
342.818	17.44
343.029	17.16
343.239	18.48
343.45	16.83
343.661	15.68
343.872	15.8
344.082	15.86
344.293	16.34
344.504	17.35
344.714	17.67
344.925	18.23
345.136	18.07
345.346	17.33
345.557	16.88
345.768	16.94
345.978	18.01
346.189	17.96
346.399	17.58
346.61	17.17
346.821	15.77
347.031	17.07
347.242	16.4
347.452	16.77
347.663	17.38
347.873	17.26
348.084	17.12
348.294	17.47
348.504	17.53
348.715	18.48
348.925	17.96
349.136	18.3
349.346	17.98
349.557	17.87
349.767	17.18
349.977	18.02
350.188	16.64
350.398	16.77
350.608	16.21
350.819	15.28
351.029	15.16
351.239	15.91
351.449	16.71
351.66	16.16
351.87	16.51
352.08	16.02
352.29	15.5
352.501	16.9
352.711	18.16
352.921	19.09
353.131	20.16
353.341	20.27
353.552	20.6
353.762	18.93
353.972	19.34
354.182	18.83
354.392	19.5
354.602	18.88
354.812	17.96
355.022	17.09
355.232	16.58
355.442	16.37
355.652	14.71
355.862	15.03
356.072	16.23
356.282	16.35
356.492	17.26
356.702	17.19
356.912	17.14
357.122	17.1
357.332	16.83
357.542	17.2
357.752	16.84
357.962	16.97
358.171	16.31
358.381	16.57
358.591	15.86
358.801	16.28
359.011	16.02
359.221	15.39
359.43	16.15
359.64	15.75
359.85	15.13
360.06	15.64
360.269	15.8
360.479	15.7
360.689	14.89
360.899	15.28
361.108	14.04
361.318	14.12
361.528	14.35
361.737	13.77
361.947	14.05
362.156	13.82
362.366	13.15
362.576	13.27
362.785	12.78
362.995	12.67
363.204	12.71
363.414	12.51
363.623	12.23
363.833	12.31
364.042	12.26
364.252	12.6
364.461	12.54
364.671	12.81
364.88	12.7
365.09	13.4
365.299	13.7
365.509	12.53
365.718	13.13
365.927	13.16
366.137	12.96
366.346	12.64
366.555	12.54
366.765	13.66
366.974	13.57
367.183	13.67
367.393	14.31
367.602	14
367.811	15.38
368.021	14.48
368.23	13.61
368.439	13.96
368.648	14.06
368.857	14.01
369.067	13.49
369.276	13.95
369.485	14.12
369.694	12.94
369.903	13.5
370.112	13.42
370.321	14.08
370.531	14.66
370.74	14.54
370.949	14.47
371.158	14.07
371.367	13.34
371.576	12.53
371.785	12.58
371.994	12.67
372.203	12.2
372.412	11.96
372.621	12.44
372.83	12.34
373.039	12.72
373.248	12.71
373.457	13.42
373.666	14.05
373.874	14.53
374.083	14.11
374.292	14.3
374.501	13.75
374.71	13.02
374.919	12.46
375.128	12.22
375.336	11.18
375.545	11.4
375.754	10.62
375.963	9.99
376.171	9.4
376.38	9.8
376.589	10
376.798	10.15
377.006	10.49
377.215	10.6
377.424	10.56
377.632	11.25
377.841	10.97
378.05	10.71
378.258	10.67
378.467	11.18
378.675	10.94
378.884	11.16
379.093	11.02
379.301	11.03
379.51	11.05
379.718	11.02
379.927	10.38
380.135	10.5
380.344	10.07
380.552	9.91
380.761	9.95
380.969	10.08
381.177	9.7
381.386	9.86
381.594	9.15
381.803	9.01
382.011	8.9
382.219	9.19
382.428	8.84
382.636	9.39
382.845	9.62
383.053	9.81
383.261	9.57
383.469	9.83
383.678	9.48
383.886	9.58
384.094	8.9
384.302	9.08
384.511	9
384.719	9.53
384.927	9.59
385.135	9.65
385.343	9.2
385.552	9.51
385.76	8.77
385.968	9.41
386.176	9.89
386.384	10.18
386.592	10.05
386.8	10.05
387.008	10.07
387.216	10
387.424	9.83
387.633	9.58
387.841	9.32
388.049	9.61
388.257	9.43
388.465	8.96
388.672	8.96
388.88	9.3
389.088	9.39
389.296	8.96
389.504	8.97
389.712	9.07
389.92	9.26
390.128	8.9
390.336	8.47
390.544	8.24
390.751	8
390.959	8.34
391.167	8.17
391.375	7.79
391.583	7.58
391.79	7.66
391.998	7.48
392.206	7.44
392.414	7.24
392.621	7.48
392.829	7.24
393.037	7.57
393.244	7.35
393.452	7.09
393.66	6.79
393.867	7.05
394.075	7.08
394.283	6.82
394.49	6.82
394.698	7.36
394.905	7.16
395.113	7.32
395.32	7.2
395.528	7.06
395.735	7.09
395.943	6.98
396.15	6.67
396.358	6.11
396.565	6.34
396.773	6.27
396.98	6.05
397.188	6.19
397.395	5.86
397.602	5.89
397.81	5.66
398.017	5.7
398.225	6.23
398.432	6.44
398.639	6.81
398.847	6.72
399.054	6.46
399.261	6.74
399.468	6.7
399.676	6.85
399.883	6.64
400.09	6.91
400.297	6.94
400.505	7.2
400.712	7.2
400.919	7.21
401.126	7.2
401.333	7.46
401.54	6.91
401.748	6.8
401.955	6.64
402.162	6.71
402.369	6.46
402.576	6.19
402.783	5.72
402.99	5.4
403.197	5
403.404	5.05
403.611	4.81
403.818	4.97
404.025	5.08
404.232	5.32
404.439	5.21
404.646	5.28
404.853	5.28
405.06	5.09
405.267	5.22
405.474	5.36
405.681	5.36
405.887	5.48
406.094	5.57
406.301	5.7
406.508	5.54
406.715	5.51
406.922	5.62
407.128	5.37
407.335	5.54
407.542	5.74
407.749	5.76
407.955	5.86
408.162	5.66
408.369	5.59
408.575	5.65
408.782	5.99
408.989	5.96
409.195	5.77
409.402	6.05
409.609	6.16
409.815	6.18
410.022	6.29
410.228	5.98
410.435	6.22
410.642	5.82
410.848	5.48
411.055	5.09
411.261	5.25
411.468	5.25
411.674	5.29
411.881	5.36
412.087	5.47
412.294	5.36
412.5	5.56
412.706	5.34
412.913	5.58
413.119	5.66
413.326	5.93
413.532	5.93
413.738	5.76
413.945	5.79
414.151	5.74
414.357	5.36
414.564	5.64
414.77	5.72
414.976	5.52
415.182	5.53
415.389	5.23
415.595	4.95
415.801	4.88
416.007	5.09
416.214	5
416.42	4.94
416.626	4.98
416.832	4.75
417.038	4.61
417.244	4.78
417.45	4.67
417.657	4.97
417.863	5.13
418.069	5.21
418.275	5.07
418.481	5.03
418.687	4.89
418.893	4.92
419.099	4.7
419.305	4.65
419.511	4.8
419.717	4.87
419.923	4.64
420.129	4.64
420.335	4.62
420.541	4.6
420.746	4.54
420.952	4.63
421.158	4.48
421.364	4.6
421.57	4.58
421.776	4.33
421.982	4.32
422.187	4.42
422.393	4.28
422.599	4.19
422.805	4.35
423.01	4.37
423.216	4.44
423.422	4.5
423.628	4.45
423.833	4.35
424.039	4.52
424.245	4.49
424.45	4.41
424.656	4.45
424.862	4.42
425.067	4.17
425.273	4.23
425.478	4
425.684	3.88
425.889	3.82
426.095	3.97
426.301	4.07
426.506	3.99
426.712	4.05
426.917	3.95
427.123	3.95
427.328	4.13
427.533	4
427.739	4.11
427.944	4.26
428.15	4.58
428.355	4.5
428.561	4.43
428.766	4.67
428.971	4.57
429.177	4.56
429.382	4.63
429.587	4.6
429.793	4.78
429.998	4.88
430.203	5.08
430.408	4.99
430.614	4.97
430.819	4.78
431.024	4.69
431.229	4.68
431.434	4.58
431.64	4.59
431.845	4.64
432.05	4.45
432.255	4.45
432.46	4.31
432.665	4.33
432.87	4.54
433.076	4.57
433.281	4.66
433.486	4.74
433.691	4.89
433.896	4.83
434.101	4.69
434.306	4.73
434.511	4.68
434.716	4.83
434.921	4.77
435.126	4.58
435.331	4.66
435.535	4.54
435.74	4.39
435.945	4.49
436.15	4.54
436.355	4.69
436.56	4.66
436.765	4.78
436.97	4.64
437.174	4.39
437.379	4.27
437.584	4.13
437.789	4.17
437.993	4.3
438.198	4.3
438.403	4.35
438.608	4.24
438.812	4.3
439.017	4.15
439.222	4.09
439.426	4.13
439.631	4.19
439.836	4.1
440.04	4.13
440.245	4.26
440.45	4.29
440.654	4.31
440.859	4.54
441.063	4.54
441.268	4.58
441.472	4.63
441.677	4.84
441.881	4.89
442.086	5.04
442.29	4.97
442.495	4.91
442.699	4.9
442.904	4.7
443.108	4.54
443.312	4.46
443.517	4.51
443.721	4.36
443.925	4.26
444.13	4.34
444.334	4.37
444.538	4.33
444.743	4.23
444.947	4.05
445.151	4.25
445.356	4.21
445.56	4.39
445.764	4.3
445.968	4.33
446.173	4.3
446.377	4.25
446.581	4.21
446.785	4.21
446.989	4.19
447.193	4.29
447.398	4.2
447.602	4.14
447.806	4.08
448.01	4.13
448.214	4.14
448.418	4.08
448.622	4.23
448.826	4.24
449.03	4.16
449.234	4.17
449.438	4.13
449.642	4.17
449.846	4.24
450.05	4.17
450.254	4.18
450.458	4.1
450.662	4.01
450.866	3.79
451.069	3.67
451.273	3.69
451.477	3.7
451.681	3.65
451.885	3.64
452.089	3.71
452.292	3.66
452.496	3.7
452.7	3.94
452.904	4.06
453.107	4.07
453.311	4.1
453.515	4.16
453.719	4.25
453.922	4.37
454.126	4.29
454.33	4.18
454.533	4.28
454.737	4.29
454.94	4.11
455.144	4.17
455.348	4.23
455.551	4.19
455.755	4.32
455.958	4.1
456.162	4.06
456.365	4.26
456.569	4.4
456.772	4.3
456.976	4.23
457.179	4.01
457.383	4.05
457.586	4.11
457.79	4.29
457.993	4.28
458.196	4.32
458.4	4.51
458.603	4.52
458.807	4.33
459.01	4.29
459.213	4.19
459.417	4.33
459.62	4.26
459.823	4.18
460.026	4.08
460.23	3.98
460.433	4.03
460.636	3.82
460.839	3.62
461.042	3.62
461.246	3.71
461.449	3.72
