Data from 2938087_Reflection_3.txt Node
Date: Sat Jul 11 19:30:56 EDT 2015
User: robert
Spectrometer: USB4E03001
Autoset integration time: false
Trigger mode: 4
Integration Time (sec): 1.000000E-1
Scans to average: 10
Electric dark correction enabled: true
Nonlinearity correction enabled: false
Boxcar width: 5
Stray light correction enabled: false
XAxis mode: Wavelengths
Stop averaging: false
Number of Pixels in Spectrum: 3648
>>>>>Begin Spectral Data<<<<<
177.566	79.21
177.785	21.04
178.005	-58.1
178.225	0
178.445	36.33
178.665	-26.03
178.885	-105
179.105	265.99
179.324	120.71
179.544	135.55
179.764	68.85
179.984	48.41
180.204	18.5
180.423	-4.58
180.643	32.48
180.863	67.95
181.083	7.07
181.302	2.33
181.522	237.65
181.742	-34.63
181.961	130.25
182.181	107.19
182.401	153.53
182.621	84.61
182.84	81.95
183.06	94.08
183.279	-34.48
183.499	-390.28
183.719	-329.21
183.938	43.97
184.158	58.93
184.377	36.81
184.597	10.85
184.816	38.26
185.036	2.19
185.256	-35.67
185.475	-141.14
185.695	-11.65
185.914	-37.42
186.134	-45.53
186.353	-79.08
186.572	-160.01
186.792	-79.12
187.011	-60.32
187.231	-70.78
187.45	-72.87
187.67	-50.46
187.889	-37.04
188.108	-94.61
188.328	-172.84
188.547	1243.88
188.766	205.66
188.986	174.82
189.205	70.33
189.424	66.52
189.644	41.35
189.863	52.77
190.082	75.05
190.302	51.41
190.521	44.8
190.74	42.97
190.959	19.56
191.178	-32.26
191.398	738.64
191.617	-20.05
191.836	36.48
192.055	-359.16
192.274	185.83
192.494	118.1
192.713	156.28
192.932	131.37
193.151	144.03
193.37	185.48
193.589	1451.16
193.808	617.47
194.027	-1321.27
194.246	-4472.88
194.465	-346.63
194.685	-153.98
194.904	-90.12
195.123	-161.15
195.342	17.12
195.561	-68.34
195.78	-104.66
195.999	-74.5
196.218	-5633.33
196.436	-15.57
196.655	-37.21
196.874	-32.79
197.093	-17.34
197.312	-102.48
197.531	-229.33
197.75	171.63
197.969	24.22
198.188	-2.36
198.407	-27.94
198.625	-39.73
198.844	16.35
199.063	66.47
199.282	89.19
199.501	39.88
199.719	11.73
199.938	-8.21
200.157	17.71
200.376	1.02
200.594	116.35
200.813	284.09
201.032	107.89
201.251	23.09
201.469	8219.35
201.688	318.15
201.907	86.19
202.125	115.06
202.344	562.93
202.563	242.65
202.781	2710.5
203	109200
203.218	5027.71
203.437	-401.18
203.656	-48.2
203.874	2.69
204.093	44.35
204.311	21.63
204.53	-11.38
204.748	26.04
204.967	27.42
205.185	58.39
205.404	56.14
205.622	59.84
205.841	24.77
206.059	16.57
206.278	17.11
206.496	-177.56
206.715	-26.16
206.933	44.63
207.151	-28.56
207.37	-122.19
207.588	-260.63
207.806	-772.19
208.025	3770
208.243	-495.83
208.461	-399.27
208.68	-631.83
208.898	-146.12
209.116	-186.27
209.335	-651.61
209.553	-10434.82
209.771	-1168.66
209.989	9360
210.208	-1241.41
210.426	-175.72
210.644	-10168.49
210.862	1951.76
211.081	-475.57
211.299	223.69
211.517	259.79
211.735	811.09
211.953	1928.09
212.171	417.11
212.39	-140.51
212.608	-255.53
212.826	-280.32
213.044	-79.02
213.262	-190.24
213.48	969.14
213.698	-18.08
213.916	56.27
214.134	20.64
214.352	49.31
214.57	46.27
214.788	3.9
215.006	13.31
215.224	19.93
215.442	15.24
215.66	45.66
215.878	2.53
216.096	-62.65
216.314	-142.76
216.532	-134.13
216.75	-486.8
216.968	236.99
217.185	354.11
217.403	456.48
217.621	6190.98
217.839	1203.43
218.057	996.61
218.275	-3703.03
218.492	-227.82
218.71	-170.36
218.928	-160.98
219.146	-55.17
219.363	-95.02
219.581	-63.27
219.799	-76.62
220.017	-66.75
220.234	-177.26
220.452	-428.12
220.67	-1246.32
220.887	7428.57
221.105	-1017.18
221.323	-1632.51
221.54	-746.41
221.758	-136.43
221.976	-138.02
222.193	-69.59
222.411	-186.16
222.629	-267.21
222.846	-4.19
223.064	-22.19
223.281	1.79
223.499	-37.79
223.716	-52.39
223.934	-109.77
224.151	-203.1
224.369	-273.39
224.586	-392.97
224.804	-593.73
225.021	-514.83
225.239	956.97
225.456	-1313.51
225.674	-439.39
225.891	-901.26
226.108	-204.6
226.326	-102.53
226.543	-72.24
226.76	-21.56
226.978	-22.71
227.195	-9.57
227.413	-5.83
227.63	-9.85
227.847	-11.48
228.064	-15.16
228.282	-10.36
228.499	-1.86
228.716	-0.68
228.934	-4.04
229.151	-8.89
229.368	-7.91
229.585	-4.68
229.802	-5.1
230.02	-2.5
230.237	-5
230.454	-0.43
230.671	1.25
230.888	-2.64
231.105	-7.82
231.323	-4.15
231.54	1.04
231.757	-2.11
231.974	0.04
232.191	-0.24
232.408	-12.68
232.625	-14.74
232.842	-21.8
233.059	-11.93
233.276	-4.69
233.493	1.81
233.71	-8.18
233.927	-13.16
234.144	-15.61
234.361	-25.38
234.578	-27.85
234.795	-14.79
235.012	-11.26
235.229	-11.26
235.446	-27.99
235.663	-37.99
235.879	-50.47
236.096	-33.05
236.313	-30.31
236.53	-17.3
236.747	-16.9
236.964	-20.21
237.181	-24.22
237.397	-35.28
237.614	-40.69
237.831	-39.75
238.048	-32.63
238.264	-10.81
238.481	-14.51
238.698	-13.44
238.915	-21.47
239.131	-17.18
239.348	-10.38
239.565	-12.39
239.781	-9.17
239.998	-9.55
240.215	-1.98
240.431	-3.6
240.648	-6.19
240.865	-6.76
241.081	-5.9
241.298	-4.97
241.514	-5.87
241.731	-8.62
241.947	-5.78
242.164	-5.44
242.38	-2.93
242.597	-3.04
242.814	-3.61
243.03	-2.93
243.246	-2.76
243.463	-2.37
243.679	-2.91
243.896	-1.03
244.112	0.85
244.329	1.48
244.545	1.64
244.762	0.36
244.978	-4.8
245.194	-4.37
245.411	-4.9
245.627	-6.6
245.843	-7.45
246.06	-5.3
246.276	-4.85
246.492	-3.68
246.709	-4.37
246.925	-1.41
247.141	-0.42
247.357	2.36
247.574	1.42
247.79	0.35
248.006	0.94
248.222	1.36
248.439	2.07
248.655	2.11
248.871	1.71
249.087	1.59
249.303	0.76
249.519	0.92
249.736	-0.1
249.952	1.76
250.168	3.57
250.384	3.61
250.6	1.26
250.816	-1.04
251.032	-3.99
251.248	-4.12
251.464	-2.69
251.68	-5.43
251.896	-8.82
252.112	-12.05
252.328	-11.76
252.544	-11.31
252.76	-10.49
252.976	-11.03
253.192	-11.14
253.408	-9.07
253.624	-9.33
253.84	-12.48
254.056	-11.76
254.272	-9.95
254.487	-5.91
254.703	-9.34
254.919	-6.48
255.135	-5.92
255.351	-2.74
255.567	-2.57
255.782	-3.65
255.998	-0.34
256.214	3.82
256.43	3.65
256.646	-0.56
256.861	-0.96
257.077	0.62
257.293	-1.46
257.508	-0.62
257.724	-0.31
257.94	-2.13
258.155	-0.85
258.371	-1.11
258.587	-0.42
258.802	1.86
259.018	3.56
259.234	3.24
259.449	3.84
259.665	2.96
259.88	2.37
260.096	2.14
260.312	2.81
260.527	2.62
260.743	1.32
260.958	0.79
261.174	-0.87
261.389	-1.2
261.605	-2.1
261.82	-3.06
262.036	-2.89
262.251	-2.75
262.466	-2.03
262.682	-3.77
262.897	-6.68
263.113	-6.6
263.328	-7.35
263.543	-5.53
263.759	-5.43
263.974	-4.52
264.189	-3.43
264.405	-6.08
264.62	-3.95
264.835	-5.55
265.051	-5.09
265.266	-2.13
265.481	0.67
265.696	1.01
265.912	0.56
266.127	1.51
266.342	-0.51
266.557	-3.27
266.773	0.35
266.988	-2.68
267.203	-1.47
267.418	1.06
267.633	0.99
267.848	-0.28
268.064	-0.54
268.279	-1.12
268.494	-1.18
268.709	0.98
268.924	2.91
269.139	0.35
269.354	1.1
269.569	-0.38
269.784	-1.77
269.999	-4.1
270.214	-4.62
270.429	-5.79
270.644	-5.64
270.859	-7.48
271.074	-7.19
271.289	-6.92
271.504	-6.53
271.719	-6.28
271.934	-4.88
272.149	-4.24
272.363	-3.25
272.578	-3.12
272.793	-1.56
273.008	-1.98
273.223	-0.66
273.438	-0.36
273.653	-0.94
273.867	-0.85
274.082	-0.02
274.297	0.18
274.512	-0.36
274.726	2.03
274.941	3.47
275.156	2.4
275.371	4.04
275.585	3.99
275.8	3.49
276.015	3.34
276.229	2.94
276.444	3.18
276.659	3.89
276.873	3.35
277.088	1.68
277.302	1.06
277.517	1.74
277.732	-0.25
277.946	-2.26
278.161	-1.2
278.375	-1.75
278.59	0.27
278.804	-2.03
279.019	-5.31
279.233	-6.66
279.448	-5.01
279.662	-5.01
279.877	-4.75
280.091	-2.79
280.306	-1.43
280.52	-1.61
280.735	1.71
280.949	0.88
281.163	0.88
281.378	0.44
281.592	1.64
281.806	-0.89
282.021	-1.59
282.235	-1.29
282.449	-3.13
282.664	-3.02
282.878	-4.5
283.092	-3.9
283.307	-3.49
283.521	-3.39
283.735	-2.65
283.949	-4.31
284.164	-2.98
284.378	-1.75
284.592	-2.89
284.806	-0.82
285.02	-0.06
285.234	1.57
285.449	-0.29
285.663	0.45
285.877	0.63
286.091	0.5
286.305	1.71
286.519	2.14
286.733	1.88
286.947	1.84
287.161	1.72
287.375	1.02
287.589	-0.55
287.803	-0.38
288.017	-0.7
288.231	-0.53
288.445	-0.39
288.659	1.23
288.873	1.58
289.087	1.2
289.301	1.92
289.515	1.86
289.729	2.7
289.943	3.27
290.157	4.02
290.371	3.32
290.584	3.64
290.798	4.47
291.012	3.88
291.226	3.23
291.44	3.11
291.654	3.93
291.867	3.03
292.081	2.88
292.295	4.38
292.509	4.79
292.722	4.2
292.936	5.62
293.15	6.34
293.364	6.66
293.577	5.81
293.791	6.34
294.005	5.85
294.218	6.27
294.432	6.96
294.645	4.65
294.859	3.69
295.073	4.47
295.286	3.5
295.5	2.59
295.713	1.64
295.927	3.35
296.14	3.54
296.354	2.95
296.568	3.84
296.781	2.15
296.994	3.45
297.208	4.13
297.421	3.61
297.635	2.91
297.848	3.11
298.062	3.99
298.275	2.72
298.489	3.13
298.702	3.61
298.915	2.44
299.129	3.52
299.342	2.99
299.555	2.02
299.769	1.3
299.982	2.92
300.195	3.02
300.409	2.12
300.622	1.68
300.835	2.16
301.048	0.2
301.262	1.87
301.475	2.88
301.688	-0.17
301.901	-0.66
302.115	1.27
302.328	0.95
302.541	-0.32
302.754	-0.08
302.967	2.96
303.18	3.25
303.393	4.86
303.607	3.78
303.82	3.35
304.033	5.95
304.246	5.75
304.459	4.99
304.672	3.97
304.885	4.19
305.098	3.85
305.311	4.1
305.524	2.91
305.737	2.89
305.95	2.56
306.163	2.23
306.376	3.62
306.589	3.97
306.802	3.49
307.015	2.62
307.228	0.91
307.44	1.3
307.653	-0.46
307.866	-1.86
308.079	-0.85
308.292	0.49
308.505	0
308.718	-0.66
308.93	-0.05
309.143	-1.13
309.356	-0.22
309.569	0.41
309.781	0.9
309.994	0.98
310.207	2.27
310.42	0.63
310.632	1.19
310.845	0.39
311.058	1.74
311.27	2.76
311.483	4.23
311.696	4.17
311.908	5.53
312.121	5.48
312.333	5.81
312.546	5.58
312.759	7.4
312.971	6.68
313.184	7.32
313.396	6.54
313.609	6.39
313.821	6.02
314.034	7.25
314.246	6.64
314.459	6.49
314.671	6.44
314.884	4.99
315.096	4.26
315.309	2.33
315.521	0.76
315.733	-1.16
315.946	-2.75
316.158	-1.86
316.371	-4.28
316.583	-6.11
316.795	-4.81
317.008	-4.64
317.22	-4.49
317.432	-3.06
317.644	0.27
317.857	2.88
318.069	4.92
318.281	4.84
318.494	3.58
318.706	5.58
318.918	8.93
319.13	7.41
319.342	6.13
319.555	8.1
319.767	8.35
319.979	6.86
320.191	6.56
320.403	4.95
320.615	5.83
320.827	7.47
321.039	6.61
321.252	5.13
321.464	6.55
321.676	6.35
321.888	6.66
322.1	4.53
322.312	5.19
322.524	6.36
322.736	7.62
322.948	7.28
323.16	7.24
323.372	7.75
323.584	6.51
323.796	8.28
324.007	7.24
324.219	6.9
324.431	7.34
324.643	7.78
324.855	8.09
325.067	7.21
325.279	7.63
325.491	7.58
325.702	6.76
325.914	6.53
326.126	4.58
326.338	6.22
326.55	6.83
326.761	7.08
326.973	5.43
327.185	4.13
327.396	5.3
327.608	6.23
327.82	6.88
328.032	7.38
328.243	9.69
328.455	9.16
328.666	8.43
328.878	8.79
329.09	9.78
329.301	11.64
329.513	10.71
329.725	11.15
329.936	9.52
330.148	7.97
330.359	7.98
330.571	7.15
330.782	8.13
330.994	9.22
331.205	9.26
331.417	9.7
331.628	7.59
331.84	9.93
332.051	10.6
332.262	11.04
332.474	12.02
332.685	13.39
332.897	15.11
333.108	15.63
333.319	14.72
333.531	14.38
333.742	13.73
333.953	15.39
334.165	13.53
334.376	12.84
334.587	14.01
334.799	14.5
335.01	15.22
335.221	15.64
335.432	15.06
335.644	15.27
335.855	15.81
336.066	16.11
336.277	16.2
336.488	17.44
336.7	17.46
336.911	17.9
337.122	17.76
337.333	15.74
337.544	15.26
337.755	15.61
337.966	16.08
338.177	16.43
338.388	17.12
338.599	17.92
338.811	18.41
339.022	17.94
339.233	16.94
339.444	17.18
339.655	18.73
339.866	19.34
340.076	18.61
340.287	19.2
340.498	18.21
340.709	17.24
340.92	16.54
341.131	16.13
341.342	16.47
341.553	17.18
341.764	16.65
341.975	15.95
342.185	14.58
342.396	14.58
342.607	14.82
342.818	15.03
343.029	14.74
343.239	15.14
343.45	15.51
343.661	14.93
343.872	14.1
344.082	13.37
344.293	13.78
344.504	14.12
344.714	13.3
344.925	13.45
345.136	14.62
345.346	14.46
345.557	14.68
345.768	15.24
345.978	15.63
346.189	15.81
346.399	16.25
346.61	16.54
346.821	16.62
347.031	17.86
347.242	16.71
347.452	15.95
347.663	16.82
347.873	16.92
348.084	15.88
348.294	16.57
348.504	17.26
348.715	18.23
348.925	17.86
349.136	17.78
349.346	18.34
349.557	19.46
349.767	18.86
349.977	19.25
350.188	19.59
350.398	19.86
350.608	20.51
350.819	19.86
351.029	19.29
351.239	19.34
351.449	20.24
351.66	19.8
351.87	19.15
352.08	19.2
352.29	17.84
352.501	17.07
352.711	17.69
352.921	16.2
353.131	16.08
353.341	16.24
353.552	16.97
353.762	17.32
353.972	18.21
354.182	20.19
354.392	20.93
354.602	20.62
354.812	20.49
355.022	20.13
355.232	20.51
355.442	20.37
355.652	20.55
355.862	19.81
356.072	18.27
356.282	17.77
356.492	16.79
356.702	16.92
356.912	17.64
357.122	17.39
357.332	17.47
357.542	17.44
357.752	18.81
357.962	19.05
358.171	19.9
358.381	20.61
358.591	20.38
358.801	19.91
359.011	19.92
359.221	20.2
359.43	20.97
359.64	21.8
359.85	21.92
360.06	22.06
360.269	21.49
360.479	20.77
360.689	20.29
360.899	20.24
361.108	19.99
361.318	20.17
361.528	20.05
361.737	20.07
361.947	19.69
362.156	19.66
362.366	18.49
362.576	19.49
362.785	19.98
362.995	20.86
363.204	21.06
363.414	21.17
363.623	20.72
363.833	21.34
364.042	21.55
364.252	20.66
364.461	21.16
364.671	21.91
364.88	21.15
365.09	21.29
365.299	21.47
365.509	21.99
365.718	23.19
365.927	23.47
366.137	22.26
366.346	22.3
366.555	23.31
366.765	22.55
366.974	22.9
367.183	22.96
367.393	22.74
367.602	22.02
367.811	22.14
368.021	21.55
368.23	21.33
368.439	22.37
368.648	21.98
368.857	21.92
369.067	22.43
369.276	22.39
369.485	22.68
369.694	22.23
369.903	22.18
370.112	21.82
370.321	21.97
370.531	22.14
370.74	22.82
370.949	22.47
371.158	22.49
371.367	22.83
371.576	22.78
371.785	22.48
371.994	22.86
372.203	22.97
372.412	22.6
372.621	22.87
372.83	22.38
373.039	21.55
373.248	21.31
373.457	21.62
373.666	21.17
373.874	20.73
374.083	20.6
374.292	20.69
374.501	20.56
374.71	21.34
374.919	20.55
375.128	20.86
375.336	20.42
375.545	21.49
375.754	21.15
375.963	21.25
376.171	21.15
376.38	21.51
376.589	21.82
376.798	22.19
377.006	21.44
377.215	21.02
377.424	20.98
377.632	21.34
377.841	21.33
378.05	21.72
378.258	21.96
378.467	21.98
378.675	22.09
378.884	22.04
379.093	21.74
379.301	22.67
379.51	22.88
379.718	22.97
379.927	23.01
380.135	23.03
380.344	22.73
380.552	22.8
380.761	22.85
380.969	23.04
381.177	22.34
381.386	22.72
381.594	22.57
381.803	23.63
382.011	23.71
382.219	23.72
382.428	23.51
382.636	23.17
382.845	22.68
383.053	22.87
383.261	23.48
383.469	24.19
383.678	23.77
383.886	23.84
384.094	23.63
384.302	23.62
384.511	23.44
384.719	23.62
384.927	23.5
385.135	24.01
385.343	24.22
385.552	23.22
385.76	23.43
385.968	23.4
386.176	22.87
386.384	22.88
386.592	23.42
386.8	23.31
387.008	22.66
387.216	22.99
387.424	22.78
387.633	22.57
387.841	22.55
388.049	22.07
388.257	22.93
388.465	22.62
388.672	22.48
388.88	22.34
389.088	23.03
389.296	23.68
389.504	23.77
389.712	23.69
389.92	23.59
390.128	24.3
390.336	24.58
390.544	24.19
390.751	24.78
390.959	24.77
391.167	24.39
391.375	24.22
391.583	24.1
391.79	24.11
391.998	24.42
392.206	24.85
392.414	24.61
392.621	24.62
392.829	24.69
393.037	24.95
393.244	25.21
393.452	25.81
393.66	25.83
393.867	26.06
394.075	26.03
394.283	26.18
394.49	26.21
394.698	26.13
394.905	26.2
395.113	26.14
395.32	25.93
395.528	25.68
395.735	25.73
395.943	26.11
396.15	26.09
396.358	26.58
396.565	26.38
396.773	26.65
396.98	26.73
397.188	26.72
397.395	26.9
397.602	27.08
397.81	27.69
398.017	27.45
398.225	27.45
398.432	27.46
398.639	27.24
398.847	27.37
399.054	27.2
399.261	27.81
399.468	28.04
399.676	28.44
399.883	28.28
400.09	27.85
400.297	28.09
400.505	27.87
400.712	28.28
400.919	28.41
401.126	28.37
401.333	28.45
401.54	28.32
401.748	28.41
401.955	28.3
402.162	28.57
402.369	28.51
402.576	28.72
402.783	28.97
402.99	29.06
403.197	29.18
403.404	29.43
403.611	29.36
403.818	29.48
404.025	29.6
404.232	29.53
404.439	29.51
404.646	30.03
404.853	29.95
405.06	30.07
405.267	29.66
405.474	29.53
405.681	29.57
405.887	29.76
406.094	29.74
406.301	29.55
406.508	29.94
406.715	29.84
406.922	29.9
407.128	29.91
407.335	29.55
407.542	29.78
407.749	30.17
407.955	30.12
408.162	29.85
408.369	29.64
408.575	29.63
408.782	29.19
408.989	29.35
409.195	29.13
409.402	28.88
409.609	29.33
409.815	29.52
410.022	29.33
410.228	29.51
410.435	29.4
410.642	29.39
410.848	29.72
411.055	29.77
411.261	29.85
411.468	29.68
411.674	29.89
411.881	29.59
412.087	29.54
412.294	29.55
412.5	29.37
412.706	29.81
412.913	30.22
413.119	29.85
413.326	29.86
413.532	29.91
413.738	29.99
413.945	29.75
414.151	30.05
414.357	29.92
414.564	29.77
414.77	29.84
414.976	29.98
415.182	29.88
415.389	29.85
415.595	29.86
415.801	29.89
416.007	30.07
416.214	30.03
416.42	29.96
416.626	29.82
416.832	29.88
417.038	29.91
417.244	29.54
417.45	29.38
417.657	29.42
417.863	29.45
418.069	29.33
418.275	29.2
418.481	29.19
418.687	29.02
418.893	29.05
419.099	29.03
419.305	29.12
419.511	29.26
419.717	29.32
419.923	29.31
420.129	29.25
420.335	29.14
420.541	29.19
420.746	29.37
420.952	29.41
421.158	29.49
421.364	29.48
421.57	29.18
421.776	29.17
421.982	28.97
422.187	28.89
422.393	28.79
422.599	28.93
422.805	28.88
423.01	28.73
423.216	28.87
423.422	28.96
423.628	28.86
423.833	29.04
424.039	28.95
424.245	29.05
424.45	29.09
424.656	29.12
424.862	29.09
425.067	29.19
425.273	29.34
425.478	29.17
425.684	28.97
425.889	29.09
426.095	29.01
426.301	29.06
426.506	28.87
426.712	28.75
426.917	28.78
427.123	28.76
427.328	28.68
427.533	28.51
427.739	28.56
427.944	28.68
428.15	28.66
428.355	28.64
428.561	28.56
428.766	28.71
428.971	28.87
429.177	28.8
429.382	28.56
429.587	28.48
429.793	28.44
429.998	28.37
430.203	28.32
430.408	27.94
430.614	27.85
430.819	27.83
431.024	27.88
431.229	27.9
431.434	28.06
431.64	28.06
431.845	28.1
432.05	28.11
432.255	28.19
432.46	28.3
432.665	28.57
432.87	28.74
433.076	28.66
433.281	28.69
433.486	28.81
433.691	28.78
433.896	28.86
434.101	28.78
434.306	28.75
434.511	28.68
434.716	28.37
434.921	28.44
435.126	28.38
435.331	28.72
435.535	28.59
435.74	28.39
435.945	28.12
436.15	28.24
436.355	28.27
436.56	28.31
436.765	28.29
436.97	28.38
437.174	28.15
437.379	28.11
437.584	27.95
437.789	27.91
437.993	27.96
438.198	28.14
438.403	28.09
438.608	28.05
438.812	28.01
439.017	28.07
439.222	28.03
439.426	28.16
439.631	27.99
439.836	27.84
440.04	28.01
440.245	28.08
440.45	27.97
440.654	28.02
440.859	28.1
441.063	28.16
441.268	28.08
441.472	28.04
441.677	28.1
441.881	28.22
442.086	28.31
442.29	28.26
442.495	28.09
442.699	28.2
442.904	27.98
443.108	27.91
443.312	27.84
443.517	27.75
443.721	27.81
443.925	27.66
444.13	27.69
444.334	27.65
444.538	27.56
444.743	27.57
444.947	27.64
445.151	27.77
445.356	27.73
445.56	27.72
445.764	27.87
445.968	27.83
446.173	27.94
446.377	27.91
446.581	27.94
446.785	28.02
446.989	28.02
447.193	27.95
447.398	27.96
447.602	28
447.806	28.04
448.01	28.11
448.214	28.19
448.418	27.92
448.622	28.04
448.826	27.94
449.03	27.85
449.234	27.97
449.438	27.98
449.642	27.94
449.846	27.74
450.05	27.62
450.254	27.42
450.458	27.23
450.662	27.42
450.866	27.24
451.069	27.16
451.273	27.11
451.477	27.01
451.681	26.87
451.885	26.66
452.089	26.69
452.292	26.6
452.496	26.54
452.7	26.8
452.904	26.71
453.107	26.7
453.311	26.73
453.515	26.9
453.719	27.06
453.922	27.33
454.126	27.46
454.33	27.4
454.533	27.57
454.737	27.7
454.94	27.44
455.144	27.47
455.348	27.51
455.551	27.55
455.755	27.33
455.958	27.05
456.162	26.82
456.365	26.95
456.569	26.88
