Data from 2938120_Reflection_1.txt Node
Date: Sat Jul 11 17:51:07 EDT 2015
User: robert
Spectrometer: USB4E03001
Autoset integration time: false
Trigger mode: 4
Integration Time (sec): 1.000000E-1
Scans to average: 10
Electric dark correction enabled: true
Nonlinearity correction enabled: false
Boxcar width: 5
Stray light correction enabled: false
XAxis mode: Wavelengths
Stop averaging: false
Number of Pixels in Spectrum: 3648
>>>>>Begin Spectral Data<<<<<
177.566	466.67
177.785	-6.21
178.005	73.9
178.225	60.28
178.445	59
178.665	98.61
178.885	108.96
179.105	107.1
179.324	67.48
179.544	17.62
179.764	14.35
179.984	11.33
180.204	29.34
180.423	-27.73
180.643	-310.62
180.863	425.43
181.083	-139.52
181.302	-71.09
181.522	10.44
181.742	64.98
181.961	103.57
182.181	100.65
182.401	47.99
182.621	124.86
182.84	199.72
183.06	128.25
183.279	98.37
183.499	123.36
183.719	122.74
183.938	124.72
184.158	181.5
184.377	154.92
184.597	151.47
184.816	148.32
185.036	139.19
185.256	134.86
185.475	157.31
185.695	141.83
185.914	135.83
186.134	111.29
186.353	120.04
186.572	75.91
186.792	80.23
187.011	100.56
187.231	113.06
187.45	81.52
187.67	94.7
187.889	87.54
188.108	115.34
188.328	130.02
188.547	130.7
188.766	127.73
188.986	149.67
189.205	205.47
189.424	187.74
189.644	209.92
189.863	298.07
190.082	1680.82
190.302	518.36
190.521	464.41
190.74	412.72
190.959	-3052.91
191.178	-1625.86
191.398	1086.11
191.617	324.21
191.836	337.84
192.055	568.64
192.274	462.17
192.494	298.29
192.713	1072.26
192.932	973.72
193.151	-10330.93
193.37	-1971.95
193.589	-434.35
193.808	-2455.41
194.027	-1672.81
194.246	919.64
194.465	17403.39
194.685	1768.1
194.904	-4034.41
195.123	930.69
195.342	-1057.1
195.561	616.2
195.78	241.31
195.999	236.78
196.218	528.18
196.436	384.16
196.655	344.66
196.874	184.32
197.093	180.99
197.312	137.03
197.531	130.78
197.75	131.6
197.969	148.86
198.188	164.74
198.407	171.4
198.625	158.42
198.844	189.68
199.063	169.82
199.282	232.95
199.501	236.2
199.719	396
199.938	274.09
200.157	276.66
200.376	-839.71
200.594	223.22
200.813	153.23
201.032	156.23
201.251	137.18
201.469	194.88
201.688	138.23
201.907	170.08
202.125	147.89
202.344	212.83
202.563	243.89
202.781	292.97
203	216.37
203.218	209.33
203.437	260.98
203.656	264.36
203.874	178.1
204.093	138.18
204.311	120.03
204.53	103.09
204.748	85.5
204.967	72.65
205.185	64.7
205.404	60.53
205.622	61.74
205.841	63.88
206.059	83.5
206.278	95.14
206.496	114.93
206.715	98.09
206.933	103.54
207.151	202.58
207.37	324.07
207.588	409.64
207.806	290.47
208.025	268.46
208.243	27.08
208.461	85.36
208.68	106.4
208.898	-38.18
209.116	68.15
209.335	98.77
209.553	214.64
209.771	106.27
209.989	473.77
210.208	-1030.82
210.426	-960.75
210.644	-1442.3
210.862	388.12
211.081	332.02
211.299	386.21
211.517	646.78
211.735	677.97
211.953	273.15
212.171	284.91
212.39	222.82
212.608	180.79
212.826	131.8
213.044	122.17
213.262	129.23
213.48	92.9
213.698	78.82
213.916	67.19
214.134	49.34
214.352	43.31
214.57	37.11
214.788	57
215.006	63.92
215.224	61.69
215.442	65.37
215.66	50.26
215.878	72.4
216.096	109.57
216.314	114.17
216.532	133.71
216.75	88.43
216.968	124.68
217.185	105.01
217.403	143.67
217.621	183.07
217.839	172.53
218.057	161.84
218.275	177.36
218.492	149.75
218.71	125.04
218.928	91.27
219.146	177.92
219.363	180.75
219.581	338.64
219.799	-177.46
220.017	-2597.94
220.234	-103.26
220.452	12.94
220.67	-27.61
220.887	284.32
221.105	460.46
221.323	238
221.54	124.94
221.758	95.92
221.976	84.03
222.193	84.63
222.411	86.01
222.629	80.59
222.846	93.41
223.064	101.91
223.281	99.57
223.499	87.4
223.716	94.86
223.934	101.9
224.151	99.27
224.369	108.39
224.586	110.79
224.804	102.58
225.021	87.26
225.239	82.69
225.456	56.66
225.674	36.83
225.891	49.8
226.108	46.22
226.326	47.77
226.543	43.55
226.76	24.75
226.978	33.33
227.195	27.82
227.413	44.82
227.63	36.81
227.847	43.38
228.064	44.24
228.282	43.14
228.499	41.01
228.716	36.11
228.934	35.7
229.151	38.68
229.368	33.56
229.585	33.01
229.802	31.56
230.02	32.16
230.237	30.38
230.454	30.64
230.671	27.62
230.888	23.56
231.105	26.13
231.323	23.88
231.54	20.78
231.757	25.82
231.974	31.43
232.191	31.98
232.408	31.32
232.625	35.3
232.842	36.07
233.059	37.58
233.276	41.85
233.493	43.05
233.71	47.5
233.927	47.07
234.144	42.25
234.361	40.79
234.578	38.23
234.795	32.17
235.012	27.19
235.229	25.15
235.446	24.15
235.663	24.13
235.879	21.67
236.096	15.33
236.313	18
236.53	21.76
236.747	27.47
236.964	28.08
237.181	37.29
237.397	38.88
237.614	42.88
237.831	39.86
238.048	41.94
238.264	43.88
238.481	47.26
238.698	42.79
238.915	36.22
239.131	31.51
239.348	30.01
239.565	26.56
239.781	26.56
239.998	24.68
240.215	31.53
240.431	31.77
240.648	29.44
240.865	26.81
241.081	29.78
241.298	31.78
241.514	28.64
241.731	26.78
241.947	25.08
242.164	24.15
242.38	22.98
242.597	19.52
242.814	19.67
243.03	20.03
243.246	20.62
243.463	21.04
243.679	20.18
243.896	20.53
244.112	22.04
244.329	22.48
244.545	25.83
244.762	25.67
244.978	28.02
245.194	27.35
245.411	27.21
245.627	26.55
245.843	22.39
246.06	22.35
246.276	22.04
246.492	22.48
246.709	21.38
246.925	18.97
247.141	17.63
247.357	16.59
247.574	16.91
247.79	17.23
248.006	16.98
248.222	17.39
248.439	16.98
248.655	15.95
248.871	14.54
249.087	15.22
249.303	15.87
249.519	18.51
249.736	19.71
249.952	18.83
250.168	18.4
250.384	19.58
250.6	19.05
250.816	16.52
251.032	19.75
251.248	19.36
251.464	21.27
251.68	21.3
251.896	21.94
252.112	20.51
252.328	20.62
252.544	19.73
252.76	21.35
252.976	22.54
253.192	24.7
253.408	23.67
253.624	25.43
253.84	23.66
254.056	25.69
254.272	23.79
254.487	25.41
254.703	23.89
254.919	23.62
255.135	20.65
255.351	22.34
255.567	19.27
255.782	19.33
255.998	19.12
256.214	19.7
256.43	18.46
256.646	16.79
256.861	16.84
257.077	19.2
257.293	19.15
257.508	18.29
257.724	16.81
257.94	18.3
258.155	17.4
258.371	18.67
258.587	16.73
258.802	15.53
259.018	15.57
259.234	15.59
259.449	14.31
259.665	13.12
259.88	12.81
260.096	11.95
260.312	11.18
260.527	11.52
260.743	10.59
260.958	11.39
261.174	11.27
261.389	10.66
261.605	10.21
261.82	10.93
262.036	12.98
262.251	13.3
262.466	14.48
262.682	16.08
262.897	16.58
263.113	16.29
263.328	16.14
263.543	16.96
263.759	18.77
263.974	18.04
264.189	17.21
264.405	16.58
264.62	16.37
264.835	16.15
265.051	18.18
265.266	18.71
265.481	19.24
265.696	19.66
265.912	18.71
266.127	18.25
266.342	18.9
266.557	18.56
266.773	18.21
266.988	19.45
267.203	18.55
267.418	17.46
267.633	16.51
267.848	17.04
268.064	17.73
268.279	18.16
268.494	19.46
268.709	19.85
268.924	20.25
269.139	19.19
269.354	18.71
269.569	19.06
269.784	18.4
269.999	18.04
270.214	16.2
270.429	15.8
270.644	16.53
270.859	16.18
271.074	15.17
271.289	14.29
271.504	15.57
271.719	15.65
271.934	15.98
272.149	15.76
272.363	15
272.578	14.66
272.793	13.7
273.008	13.23
273.223	12.75
273.438	12.81
273.653	14.13
273.867	13.52
274.082	13.55
274.297	13.4
274.512	14.79
274.726	15.23
274.941	15.29
275.156	15.15
275.371	13.88
275.585	14.18
275.8	16.09
276.015	15.28
276.229	16.16
276.444	14.48
276.659	13.39
276.873	12.05
277.088	11.61
277.302	13.36
277.517	14.42
277.732	15.01
277.946	13.41
278.161	12.36
278.375	12.25
278.59	12.84
278.804	14.52
279.019	16.1
279.233	16.4
279.448	17.13
279.662	17.47
279.877	16.37
280.091	16.55
280.306	18.28
280.52	17.33
280.735	17.7
280.949	15.63
281.163	15.43
281.378	13.88
281.592	15.74
281.806	17.25
282.021	17.1
282.235	18.8
282.449	19.19
282.664	18.48
282.878	18.78
283.092	18.21
283.307	19
283.521	18.89
283.735	19.71
283.949	17.8
284.164	16.7
284.378	16.19
284.592	14.73
284.806	14.3
285.02	13.11
285.234	13.87
285.449	14.52
285.663	14.85
285.877	14.89
286.091	15.5
286.305	15.3
286.519	14.79
286.733	14.51
286.947	14.45
287.161	13.48
287.375	15.28
287.589	15.02
287.803	15.66
288.017	16.17
288.231	17.16
288.445	16.74
288.659	17.89
288.873	19.74
289.087	19.78
289.301	19.3
289.515	21.48
289.729	22.11
289.943	21.69
290.157	21.36
290.371	21.48
290.584	21.05
290.798	21.31
291.012	21.01
291.226	20.78
291.44	21.14
291.654	21.29
291.867	20.17
292.081	19.36
292.295	20.62
292.509	20.15
292.722	18.72
292.936	18.09
293.15	18.58
293.364	19.95
293.577	21.24
293.791	22.54
294.005	23.91
294.218	24.6
294.432	24.14
294.645	23.38
294.859	23.66
295.073	23.78
295.286	23.47
295.5	23.39
295.713	24.38
295.927	22.78
296.14	21.23
296.354	20.56
296.568	19.25
296.781	20.65
296.994	19.41
297.208	18.63
297.421	18.69
297.635	18.3
297.848	18.73
298.062	16.84
298.275	16.04
298.489	16.31
298.702	16.8
298.915	17.56
299.129	16.71
299.342	18.16
299.555	18.54
299.769	19.8
299.982	20.81
300.195	20.09
300.409	21.14
300.622	22.53
300.835	23.49
301.048	22.67
301.262	22.64
301.475	21.56
301.688	21.11
301.901	21.97
302.115	20.66
302.328	20.44
302.541	20.76
302.754	19
302.967	19.9
303.18	18.47
303.393	20.62
303.607	22.23
303.82	22.06
304.033	21.18
304.246	21.31
304.459	21.15
304.672	21.55
304.885	20.97
305.098	22.3
305.311	20.25
305.524	21.13
305.737	19.2
305.95	19.54
306.163	19.52
306.376	19.22
306.589	18.74
306.802	19.34
307.015	19.74
307.228	18.82
307.44	18.25
307.653	19.17
307.866	18.71
308.079	18.89
308.292	15.84
308.505	16.59
308.718	16.21
308.93	17.12
309.143	15.44
309.356	15.07
309.569	13.92
309.781	14.51
309.994	14.28
310.207	15.84
310.42	14.92
310.632	16.13
310.845	15.71
311.058	16.13
311.27	14.5
311.483	16.07
311.696	15.46
311.908	18.51
312.121	18.78
312.333	18.91
312.546	17.35
312.759	18.05
312.971	17.06
313.184	17.02
313.396	16.85
313.609	18.29
313.821	17.7
314.034	18.68
314.246	17.08
314.459	15.42
314.671	16.35
314.884	16.34
315.096	16.97
315.309	18.65
315.521	19.47
315.733	20.27
315.946	19.95
316.158	19.8
316.371	19.23
316.583	20.6
316.795	21.36
317.008	19.96
317.22	20.42
317.432	21.1
317.644	21.31
317.857	21.2
318.069	21.82
318.281	22.99
318.494	24.13
318.706	24.34
318.918	22.98
319.13	22.18
319.342	24.57
319.555	24.76
319.767	25.25
319.979	23.47
320.191	22.85
320.403	23.17
320.615	21.71
320.827	21.8
321.039	22.51
321.252	22.8
321.464	24.74
321.676	23.1
321.888	21.72
322.1	21.61
322.312	21.45
322.524	21.16
322.736	20.53
322.948	20.83
323.16	21.01
323.372	19.48
323.584	18.6
323.796	18.81
324.007	17.58
324.219	17.83
324.431	16.05
324.643	16.74
324.855	17.94
325.067	18.61
325.279	18.21
325.491	17.16
325.702	18.51
325.914	18.03
326.126	16.98
326.338	18.15
326.55	19.14
326.761	20.36
326.973	20.89
327.185	19.44
327.396	18.83
327.608	17.93
327.82	18.68
328.032	18.2
328.243	19.13
328.455	19.42
328.666	18.63
328.878	16.8
329.09	15.67
329.301	13.99
329.513	14.92
329.725	14.31
329.936	15.43
330.148	16.56
330.359	15.04
330.571	15.43
330.782	15.52
330.994	17.08
331.205	19.57
331.417	20.7
331.628	21.36
331.84	21.34
332.051	22.11
332.262	23.63
332.474	21.44
332.685	22.72
332.897	23.07
333.108	21.37
333.319	20.53
333.531	20.64
333.742	21.45
333.953	21.55
334.165	22.05
334.376	22.14
334.587	20.68
334.799	21.56
335.01	21.4
335.221	20.05
335.432	20.27
335.644	19.07
335.855	18.82
336.066	17.7
336.277	17.56
336.488	15.77
336.7	14.2
336.911	14.21
337.122	15.14
337.333	16.12
337.544	17.79
337.755	19.43
337.966	19.32
338.177	17.84
338.388	16.99
338.599	17.95
338.811	18.06
339.022	19.21
339.233	19.57
339.444	18.38
339.655	17.11
339.866	16.12
340.076	15.88
340.287	16.55
340.498	16.56
340.709	16.63
340.92	16.95
341.131	17.36
341.342	17.28
341.553	17.38
341.764	17.07
341.975	17.47
342.185	18.32
342.396	17.11
342.607	17.57
342.818	18.56
343.029	19.51
343.239	19.62
343.45	20.21
343.661	21
343.872	20.66
344.082	20.79
344.293	21.67
344.504	20.39
344.714	21.5
344.925	22
345.136	22.46
345.346	22.02
345.557	21.23
345.768	21.11
345.978	20.48
346.189	20.98
346.399	21.69
346.61	21.19
346.821	20.91
347.031	20.83
347.242	21.42
347.452	19.44
347.663	19.79
347.873	20.49
348.084	20.7
348.294	20.23
348.504	19.35
348.715	19.2
348.925	18.94
349.136	20.18
349.346	20.07
349.557	17.83
349.767	19.57
349.977	19.73
350.188	17.84
350.398	17.69
350.608	16.98
350.819	16.86
351.029	16.01
351.239	15.92
351.449	15.48
351.66	15.17
351.87	16.89
352.08	17.09
352.29	16.22
352.501	18.38
352.711	17.7
352.921	18.06
353.131	18.5
353.341	18.69
353.552	18.07
353.762	17.04
353.972	18.21
354.182	16.72
354.392	15.93
354.602	16.69
354.812	16.54
355.022	16.02
355.232	15.34
355.442	15.28
355.652	15.7
355.862	15.93
356.072	16.66
356.282	13.71
356.492	15.27
356.702	14.8
356.912	14.32
357.122	14.16
357.332	15.88
357.542	16.62
357.752	16.72
357.962	15.74
358.171	14.73
358.381	15.76
358.591	17.4
358.801	17.27
359.011	18.61
359.221	18.71
359.43	17.14
359.64	16.5
359.85	15.29
360.06	15.41
360.269	16.23
360.479	16.26
360.689	14.98
360.899	14.71
361.108	13.81
361.318	13.32
361.528	13.35
361.737	13.64
361.947	13.57
362.156	13.89
362.366	13.9
362.576	13.42
362.785	14.34
362.995	14.92
363.204	14.72
363.414	14.46
363.623	13.96
363.833	14.26
364.042	14.51
364.252	13.94
364.461	14.56
364.671	14.05
364.88	14.45
365.09	13.87
365.299	14.34
365.509	15.53
365.718	15.95
365.927	15.81
366.137	15.16
366.346	14.47
366.555	14.26
366.765	13.71
366.974	13.21
367.183	13.22
367.393	13.66
367.602	12.97
367.811	12.08
368.021	13.18
368.23	13.16
368.439	13.18
368.648	14.59
368.857	15.37
369.067	15.91
369.276	15.42
369.485	14.6
369.694	14.93
369.903	14.83
370.112	14.63
370.321	13.72
370.531	14.38
370.74	14.5
370.949	13.9
371.158	14.15
371.367	13.93
371.576	14.46
371.785	14.2
371.994	13.66
372.203	13.55
372.412	13.66
372.621	14.2
372.83	13.76
373.039	13.93
373.248	13.41
373.457	13.6
373.666	14.05
373.874	14.09
374.083	14.15
374.292	13.86
374.501	13.62
374.71	13.4
374.919	13.13
375.128	13.33
375.336	13.05
375.545	13.38
375.754	12.54
375.963	11.71
376.171	12.16
376.38	12.32
376.589	12.76
376.798	12.55
377.006	12.62
377.215	12.31
377.424	12
377.632	11.78
377.841	11.5
378.05	11.13
378.258	11.57
378.467	11.32
378.675	11.32
378.884	10.54
379.093	10.33
379.301	9.82
379.51	9.99
379.718	10.12
379.927	10.03
380.135	10.05
380.344	10.28
380.552	10.51
380.761	9.9
380.969	9.83
381.177	10.23
381.386	10.7
381.594	10.73
381.803	10.4
382.011	9.75
382.219	9.62
382.428	9.68
382.636	9.44
382.845	8.55
383.053	8.98
383.261	8.9
383.469	8.52
383.678	8.54
383.886	8.94
384.094	9.22
384.302	9.27
384.511	9.78
384.719	9.55
384.927	9.23
385.135	9.9
385.343	9.77
385.552	10.36
385.76	10.46
385.968	10.54
386.176	10.33
386.384	10.09
386.592	9.99
386.8	9.9
387.008	10.01
387.216	10.89
387.424	10.68
387.633	10.66
387.841	10.55
388.049	10.39
388.257	10.13
388.465	9.79
388.672	9.36
388.88	10.07
389.088	9.46
389.296	9.55
389.504	9.17
389.712	8.58
389.92	8.35
390.128	8.29
390.336	8.64
390.544	8
390.751	8.04
390.959	7.85
391.167	7.41
391.375	7.45
391.583	7.2
391.79	6.67
391.998	6.89
392.206	6.96
392.414	6.63
392.621	6.26
392.829	6.62
393.037	6.85
393.244	7.19
393.452	6.72
393.66	7.08
393.867	6.94
394.075	7.2
394.283	7.38
394.49	7.01
394.698	7.26
394.905	7.23
395.113	7.16
395.32	7.1
395.528	6.98
395.735	7.17
395.943	6.79
396.15	6.76
396.358	6.78
396.565	6.7
396.773	7.28
396.98	7.04
397.188	7.11
397.395	7.15
397.602	7.04
397.81	6.89
398.017	6.94
398.225	6.84
398.432	7.2
398.639	7.14
398.847	6.84
399.054	6.46
399.261	6.53
399.468	6.54
399.676	6.57
399.883	6.14
400.09	6.05
400.297	6.33
400.505	6.38
400.712	6.13
400.919	6.08
401.126	6.54
401.333	6.45
401.54	6.46
401.748	6.32
401.955	5.84
402.162	6.45
402.369	6.51
402.576	6.13
402.783	5.97
402.99	6
403.197	5.7
403.404	5.31
403.611	5.42
403.818	5.55
404.025	5.5
404.232	5.91
404.439	5.89
404.646	5.97
404.853	5.98
405.06	6.12
405.267	5.96
405.474	6.2
405.681	6.35
405.887	6.34
406.094	6.1
406.301	6.17
406.508	5.91
406.715	5.81
406.922	5.8
407.128	5.97
407.335	5.93
407.542	5.92
407.749	6.02
407.955	6.06
408.162	6.43
408.369	6.41
408.575	6.61
408.782	6.65
408.989	6.54
409.195	6.44
409.402	6.47
409.609	6.59
409.815	6.7
410.022	6.47
410.228	6.63
410.435	6.43
410.642	6.36
410.848	6.32
411.055	6.72
411.261	6.92
411.468	7.05
411.674	6.86
411.881	6.61
412.087	6.37
412.294	6.5
412.5	6.34
412.706	6.43
412.913	6.3
413.119	5.98
413.326	5.6
413.532	5.21
413.738	5.4
413.945	5.28
414.151	5.68
414.357	5.74
414.564	5.55
414.77	5.62
414.976	5.61
415.182	5.65
415.389	6.08
415.595	6.14
415.801	6.16
416.007	6.04
416.214	6.09
416.42	5.62
416.626	5.75
416.832	5.92
417.038	5.67
417.244	5.43
417.45	5.65
417.657	5.13
417.863	5.08
418.069	5.2
418.275	5.21
418.481	5.04
418.687	5.26
418.893	5.09
419.099	5.04
419.305	4.88
419.511	4.9
419.717	4.66
419.923	4.91
420.129	4.77
420.335	4.75
420.541	4.76
420.746	4.88
420.952	4.76
421.158	4.8
421.364	4.69
421.57	4.82
421.776	4.77
421.982	4.84
422.187	4.84
422.393	4.96
422.599	4.87
422.805	4.74
423.01	4.82
423.216	4.87
423.422	5
423.628	5.18
423.833	5.15
424.039	5.25
424.245	5.36
424.45	5.36
424.656	5.32
424.862	5.47
425.067	5.52
425.273	5.43
425.478	5.37
425.684	5.34
425.889	5.21
426.095	5.21
426.301	5.21
426.506	5.15
426.712	5.17
426.917	5.25
427.123	4.91
427.328	4.94
427.533	5.05
427.739	5.13
427.944	5.05
428.15	5.09
428.355	5.01
428.561	4.98
428.766	4.74
428.971	4.97
429.177	5.08
429.382	5.25
429.587	5.16
429.793	5.11
429.998	5.13
430.203	5.03
430.408	5.06
430.614	5.5
430.819	5.39
431.024	5.56
431.229	5.22
431.434	4.98
431.64	4.9
431.845	4.94
432.05	4.93
432.255	4.81
432.46	4.81
432.665	4.84
432.87	4.52
433.076	4.54
433.281	4.47
433.486	4.45
433.691	4.48
433.896	4.55
434.101	4.44
434.306	4.33
434.511	4.49
434.716	4.52
434.921	4.62
435.126	4.64
435.331	4.7
435.535	4.74
435.74	4.72
435.945	4.76
436.15	4.93
436.355	4.91
436.56	5.01
436.765	4.96
436.97	5.07
437.174	4.99
437.379	5.01
437.584	4.89
437.789	4.94
437.993	5.23
438.198	5.38
438.403	5.25
438.608	5.37
438.812	5.21
439.017	4.93
439.222	4.86
439.426	4.71
439.631	4.68
439.836	4.62
440.04	4.51
440.245	4.39
440.45	4.11
440.654	4.01
440.859	3.9
441.063	3.96
441.268	4.05
441.472	3.94
441.677	4.11
441.881	4.01
442.086	4.03
442.29	4.18
442.495	4.1
442.699	4.07
442.904	4.1
443.108	4.38
443.312	4.36
443.517	4.48
443.721	4.52
443.925	4.39
444.13	4.54
444.334	4.4
444.538	4.14
444.743	4.2
444.947	4.3
445.151	4.25
445.356	4.03
445.56	4.19
445.764	4.16
445.968	4.26
446.173	4.22
446.377	4.13
446.581	4.29
446.785	4.34
446.989	4.26
447.193	4.32
447.398	4.3
447.602	4.26
447.806	4.25
448.01	4.38
448.214	4.27
448.418	4.33
448.622	4.39
448.826	4.35
449.03	4.4
449.234	4.45
449.438	4.4
449.642	4.63
449.846	4.79
450.05	4.77
450.254	4.54
450.458	4.59
450.662	4.68
450.866	4.61
451.069	4.84
451.273	4.78
451.477	4.65
451.681	4.59
451.885	4.6
452.089	4.38
452.292	4.4
452.496	4.6
452.7	4.75
452.904	4.64
453.107	4.63
453.311	4.26
453.515	4.28
453.719	4.44
453.922	4.52
454.126	4.36
454.33	4.6
454.533	4.58
454.737	4.43
454.94	4.37
455.144	4.36
455.348	4.29
455.551	4.54
455.755	4.5
455.958	4.44
456.162	4.48
456.365	4.44
456.569	4.12
456.772	4.11
456.976	4.24
457.179	4.1
457.383	4.11
457.586	4.17
457.79	4.16
457.993	4.32
458.196	4.19
458.4	4.19
458.603	4.1
458.807	4.15
459.01	4.08
459.213	4.1
459.417	4.2
459.62	4.28
459.823	4.4
460.026	4.29
460.23	4.16
