Data from 2938026_Reflection_3.txt Node
Date: Sun Jul 12 15:15:30 EDT 2015
User: robert
Spectrometer: USB4E03001
Autoset integration time: false
Trigger mode: 4
Integration Time (sec): 1.000000E-1
Scans to average: 10
Electric dark correction enabled: true
Nonlinearity correction enabled: false
Boxcar width: 5
Stray light correction enabled: false
XAxis mode: Wavelengths
Stop averaging: false
Number of Pixels in Spectrum: 3648
>>>>>Begin Spectral Data<<<<<
177.566	118.13
177.785	258.94
178.005	208.07
178.225	400.46
178.445	279.88
178.665	-7.11
178.885	-202.89
179.105	-404.32
179.324	-138.56
179.544	-12.27
179.764	-424.58
179.984	480.51
180.204	1151.82
180.423	-1174.55
180.643	-40.23
180.863	-32.38
181.083	2.94
181.302	-12.69
181.522	16.07
181.742	-32.63
181.961	-115.55
182.181	-113.76
182.401	-88.65
182.621	13.48
182.84	29.88
183.06	-16.16
183.279	-6.21
183.499	-97.53
183.719	-269.38
183.938	465.91
184.158	-414.74
184.377	-23.13
184.597	-16
184.816	-13.27
185.036	-85.89
185.256	-171.96
185.475	-87.75
185.695	-278.68
185.914	-87.87
186.134	-58.01
186.353	-78.16
186.572	-58.56
186.792	166.26
187.011	98.18
187.231	64.77
187.45	37.04
187.67	42.12
187.889	56.21
188.108	24.67
188.328	-15.29
188.547	455.97
188.766	453.79
188.986	2261.31
189.205	153.49
189.424	46.72
189.644	7.19
189.863	3.3
190.082	23.6
190.302	-15.66
190.521	-170.12
190.74	-48.37
190.959	-63.59
191.178	-23.54
191.398	-53.8
191.617	-29.34
191.836	-28.5
192.055	47.35
192.274	62.88
192.494	73.21
192.713	155.06
192.932	138.7
193.151	258.76
193.37	183.48
193.589	65.97
193.808	46.44
194.027	37.59
194.246	46.89
194.465	59.97
194.685	70.12
194.904	49.83
195.123	32.88
195.342	33.07
195.561	52.86
195.78	72.85
195.999	18.84
196.218	-7.56
196.436	59.14
196.655	1.15
196.874	-19.16
197.093	19.27
197.312	49.62
197.531	56.63
197.75	56.59
197.969	62.3
198.188	19.84
198.407	-23.04
198.625	-23.58
198.844	-114.49
199.063	-82.9
199.282	-134.75
199.501	-51.69
199.719	3.94
199.938	25.32
200.157	41.9
200.376	-67.03
200.594	-877.39
200.813	-50.85
201.032	-8.05
201.251	-31.06
201.469	-17.46
201.688	-45.02
201.907	-97.06
202.125	-37.24
202.344	-17.37
202.563	-4.47
202.781	-10.82
203	13.4
203.218	-10.09
203.437	37.91
203.656	579.23
203.874	114.89
204.093	404.46
204.311	178.33
204.53	118.33
204.748	109.5
204.967	113.9
205.185	136.36
205.404	196.45
205.622	162.68
205.841	246.24
206.059	150.93
206.278	151.22
206.496	191.74
206.715	112.13
206.933	76.92
207.151	103.76
207.37	102.31
207.588	121.78
207.806	77.18
208.025	-39.35
208.243	-22.42
208.461	-70.55
208.68	-226.59
208.898	-112.49
209.116	-443.29
209.335	440.03
209.553	385.83
209.771	214.63
209.989	261.26
210.208	243.37
210.426	284.12
210.644	208.72
210.862	407.82
211.081	-178.74
211.299	259.28
211.517	98.44
211.735	-93.89
211.953	-311.46
212.171	461.35
212.39	-285.23
212.608	-110.18
212.826	-66.07
213.044	-25.87
213.262	1.5
213.48	1003.46
213.698	178.09
213.916	134.11
214.134	120.62
214.352	785.65
214.57	188.55
214.788	121.75
215.006	72.93
215.224	67.77
215.442	65
215.66	65.7
215.878	12.53
216.096	-67.76
216.314	-156.83
216.532	47.67
216.75	38.43
216.968	92.9
217.185	78.47
217.403	59.1
217.621	49.72
217.839	39.82
218.057	46.95
218.275	67.45
218.492	31.22
218.71	-1.62
218.928	-30.37
219.146	-0.56
219.363	-46.16
219.581	-61.5
219.799	1557.14
220.017	15.78
220.234	16.31
220.452	6.27
220.67	-3.14
220.887	67.4
221.105	81.87
221.323	57.01
221.54	71.88
221.758	63.39
221.976	41.91
222.193	56.41
222.411	44.88
222.629	46.53
222.846	69.4
223.064	53.21
223.281	39.12
223.499	36.61
223.716	53.55
223.934	34.42
224.151	19.52
224.369	25.18
224.586	10.83
224.804	21.19
225.021	44.6
225.239	30.04
225.456	33.44
225.674	35.34
225.891	38.18
226.108	26.5
226.326	39.26
226.543	34.07
226.76	43.96
226.978	40.14
227.195	37.41
227.413	21.61
227.63	25.2
227.847	24.47
228.064	23.59
228.282	22.71
228.499	22.36
228.716	20.58
228.934	20.42
229.151	20
229.368	18.23
229.585	18.6
229.802	22.69
230.02	20.31
230.237	19.18
230.454	19.34
230.671	16.61
230.888	15.91
231.105	13.17
231.323	11.51
231.54	7.09
231.757	5.87
231.974	0.76
232.191	-2.47
232.408	-6.07
232.625	-7.31
232.842	-6.3
233.059	-3.37
233.276	-8.08
233.493	-10.1
233.71	-4.55
233.927	-1.96
234.144	0.05
234.361	7.48
234.578	8.03
234.795	12.1
235.012	12.91
235.229	14.2
235.446	17.05
235.663	19.72
235.879	21.32
236.096	26.56
236.313	25.9
236.53	22.83
236.747	18.86
236.964	18.25
237.181	20.89
237.397	25.66
237.614	21.52
237.831	26.03
238.048	25.86
238.264	24.84
238.481	25.21
238.698	23.81
238.915	27.02
239.131	28.04
239.348	26.27
239.565	25.12
239.781	28.02
239.998	29.23
240.215	24.87
240.431	25
240.648	27.14
240.865	21.42
241.081	20.6
241.298	15.88
241.514	15.27
241.731	17.58
241.947	18.42
242.164	16.84
242.38	14.87
242.597	15.89
242.814	15.64
243.03	15.51
243.246	14.32
243.463	13.53
243.679	14.52
243.896	14.37
244.112	14.21
244.329	13.63
244.545	10.08
244.762	8.92
244.978	6.76
245.194	7.72
245.411	8.46
245.627	11.69
245.843	12.21
246.06	13.07
246.276	15.01
246.492	13.65
246.709	12.04
246.925	12.74
247.141	14.08
247.357	13.98
247.574	13.86
247.79	13.83
248.006	13.42
248.222	14.63
248.439	13.78
248.655	12.55
248.871	12.36
249.087	13.98
249.303	15.2
249.519	15.59
249.736	16.52
249.952	16.68
250.168	16.41
250.384	18.27
250.6	17.29
250.816	17.52
251.032	16.97
251.248	15.2
251.464	11.24
251.68	10.73
251.896	10.12
252.112	9.67
252.328	8.13
252.544	8.09
252.76	5.34
252.976	4.44
253.192	0.56
253.408	2.54
253.624	3.68
253.84	3.69
254.056	-0.11
254.272	-1.52
254.487	-1.95
254.703	-1.94
254.919	-4.71
255.135	-2.88
255.351	-4.29
255.567	-1.84
255.782	-2.04
255.998	2.24
256.214	3.6
256.43	2.57
256.646	2.13
256.861	1.71
257.077	2.05
257.293	2.34
257.508	1.35
257.724	2.19
257.94	7.2
258.155	6.82
258.371	6.24
258.587	7.82
258.802	9.38
259.018	9.79
259.234	10.21
259.449	11.22
259.665	11.16
259.88	11.56
260.096	11.63
260.312	10.13
260.527	9.54
260.743	8.92
260.958	8.44
261.174	8.96
261.389	8.67
261.605	8.24
261.82	7.67
262.036	7.73
262.251	7.37
262.466	7.3
262.682	7.48
262.897	9.06
263.113	9.31
263.328	10.11
263.543	8.39
263.759	10.59
263.974	11.31
264.189	9.43
264.405	10.13
264.62	10.17
264.835	9.6
265.051	10.97
265.266	10.71
265.481	13.15
265.696	13.46
265.912	14.76
266.127	13.23
266.342	12.8
266.557	12.85
266.773	12.16
266.988	11.87
267.203	12.05
267.418	12.23
267.633	11.92
267.848	9.02
268.064	8.07
268.279	8.23
268.494	7.21
268.709	8.05
268.924	9.82
269.139	9.48
269.354	8.48
269.569	8.19
269.784	7.19
269.999	7.56
270.214	7.63
270.429	6.65
270.644	5.59
270.859	5.89
271.074	5.6
271.289	4.83
271.504	6.26
271.719	6.54
271.934	8.01
272.149	9.09
272.363	9.33
272.578	10.48
272.793	11.24
273.008	12.32
273.223	11.81
273.438	10.97
273.653	10.73
273.867	10.73
274.082	12.66
274.297	11.59
274.512	11.09
274.726	10.27
274.941	9.05
275.156	9.27
275.371	7.22
275.585	9.64
275.8	10.65
276.015	10.26
276.229	10.34
276.444	8.94
276.659	8.75
276.873	9.45
277.088	8.52
277.302	9.12
277.517	7.31
277.732	9.39
277.946	6.83
278.161	6.91
278.375	7.85
278.59	6.51
278.804	5.74
279.019	6.41
279.233	4.16
279.448	4.1
279.662	3.38
279.877	4.14
280.091	1.56
280.306	2.6
280.52	2.63
280.735	3.01
280.949	6.15
281.163	6.94
281.378	7.07
281.592	8.13
281.806	9.26
282.021	9.29
282.235	11.07
282.449	12.26
282.664	11.92
282.878	10.93
283.092	10.67
283.307	9.56
283.521	9.63
283.735	8.97
283.949	9.85
284.164	9.96
284.378	9.97
284.592	9.18
284.806	9.63
285.02	9.67
285.234	10.41
285.449	10
285.663	8.6
285.877	8.54
286.091	8.45
286.305	8.5
286.519	7.32
286.733	9.33
286.947	9.54
287.161	8.69
287.375	8.76
287.589	8.19
287.803	7.83
288.017	7.66
288.231	9.05
288.445	10.38
288.659	9.94
288.873	11.53
289.087	8.29
289.301	7.75
289.515	8.46
289.729	8.67
289.943	9.93
290.157	11.29
290.371	13.02
290.584	12.16
290.798	11.71
291.012	12.34
291.226	12.58
291.44	14.41
291.654	16.74
291.867	16.63
292.081	15.3
292.295	13.51
292.509	13.41
292.722	11.6
292.936	10.46
293.15	10.08
293.364	9.11
293.577	7.57
293.791	6.99
294.005	2.51
294.218	3.17
294.432	5.28
294.645	7.94
294.859	7.2
295.073	8.72
295.286	9.27
295.5	9.03
295.713	9.6
295.927	11.81
296.14	12.72
296.354	13.93
296.568	14.87
296.781	15.34
296.994	15.33
297.208	15.19
297.421	15.59
297.635	15.31
297.848	16.18
298.062	15.4
298.275	14.14
298.489	13.37
298.702	14.41
298.915	13.99
299.129	14.13
299.342	13.06
299.555	14.24
299.769	13.99
299.982	15.29
300.195	14.5
300.409	15.91
300.622	17.18
300.835	18.33
301.048	18.37
301.262	18.05
301.475	19.07
301.688	20
301.901	19.94
302.115	20.63
302.328	18.67
302.541	19.37
302.754	19.41
302.967	19.09
303.18	19.09
303.393	18.19
303.607	17.03
303.82	16.07
304.033	14.81
304.246	14.45
304.459	13.81
304.672	14.39
304.885	14.18
305.098	12.86
305.311	14.16
305.524	15.51
305.737	15.74
305.95	17.34
306.163	16.47
306.376	16.51
306.589	16.56
306.802	16.03
307.015	17.96
307.228	17.24
307.44	18.72
307.653	19.8
307.866	18.59
308.079	20.03
308.292	20.4
308.505	21.93
308.718	21.96
308.93	21.18
309.143	21.59
309.356	21.25
309.569	22.4
309.781	22.33
309.994	21.14
310.207	20.93
310.42	20.4
310.632	19.65
310.845	18.92
311.058	19.92
311.27	21.33
311.483	21.14
311.696	20.11
311.908	20.05
312.121	19.37
312.333	18.66
312.546	20.04
312.759	18.92
312.971	18.38
313.184	17.88
313.396	17.04
313.609	17.48
313.821	17.29
314.034	17.13
314.246	16.53
314.459	17.91
314.671	18.26
314.884	17.68
315.096	20.23
315.309	20.6
315.521	19.48
315.733	22.21
315.946	21.75
316.158	23.56
316.371	25.27
316.583	25.74
316.795	26.26
317.008	26.6
317.22	25.3
317.432	22.7
317.644	23.82
317.857	26.21
318.069	22.64
318.281	21.23
318.494	20.21
318.706	21.15
318.918	19.27
319.13	17.97
319.342	15.88
319.555	16.94
319.767	17.46
319.979	16.97
320.191	17.05
320.403	19.26
320.615	19.19
320.827	19.11
321.039	19.23
321.252	22.41
321.464	21.58
321.676	22.88
321.888	22.43
322.1	23.94
322.312	24.09
322.524	24.02
322.736	24.13
322.948	24.72
323.16	25.25
323.372	24.43
323.584	23.36
323.796	24.93
324.007	26.28
324.219	27.14
324.431	27.82
324.643	27.87
324.855	28.97
325.067	29.35
325.279	30.61
325.491	31.76
325.702	30.93
325.914	31.69
326.126	31.32
326.338	32.05
326.55	32.84
326.761	32.96
326.973	33.44
327.185	33.87
327.396	35
327.608	35.41
327.82	34.9
328.032	36.03
328.243	37.14
328.455	38.19
328.666	37.61
328.878	37.57
329.09	38.42
329.301	40.28
329.513	40.3
329.725	40.71
329.936	39.64
330.148	39.41
330.359	41.42
330.571	40.56
330.782	41.46
330.994	42.4
331.205	42.89
331.417	42.11
331.628	42.21
331.84	43.83
332.051	43.66
332.262	46.79
332.474	46.91
332.685	47.79
332.897	47.49
333.108	48.95
333.319	49.69
333.531	50.15
333.742	52.88
333.953	53.76
334.165	53.65
334.376	54.47
334.587	52.8
334.799	54.06
335.01	53.94
335.221	56.27
335.432	56.58
335.644	56.46
335.855	58.31
336.066	57.45
336.277	57.19
336.488	57.75
336.7	58.46
336.911	59.22
337.122	60.19
337.333	60.35
337.544	60.53
337.755	58.68
337.966	61.1
338.177	59.2
338.388	59.41
338.599	60.29
338.811	61.09
339.022	61.58
339.233	61.09
339.444	60.11
339.655	59.97
339.866	59.63
340.076	61.41
340.287	59.81
340.498	62.04
340.709	63.3
340.92	62.33
341.131	61.64
341.342	61.7
341.553	63.8
341.764	63.38
341.975	61.75
342.185	61.53
342.396	60.68
342.607	59.82
342.818	58.23
343.029	57.35
343.239	59.13
343.45	59.49
343.661	57.17
343.872	56.45
344.082	57.61
344.293	59.89
344.504	61.82
344.714	61.98
344.925	64.4
345.136	65.37
345.346	65.31
345.557	65.95
345.768	66.26
345.978	68.91
346.189	69.61
346.399	69.15
346.61	68.73
346.821	67.63
347.031	68.41
347.242	66.48
347.452	66.22
347.663	67.34
347.873	65.08
348.084	63.61
348.294	62.06
348.504	60.36
348.715	60.07
348.925	59.66
349.136	59.74
349.346	58.74
349.557	59
349.767	58.53
349.977	57.15
350.188	57.24
350.398	59.25
350.608	59.15
350.819	61.08
351.029	61.49
351.239	62.62
351.449	62.34
351.66	63.54
351.87	62.81
352.08	62.39
352.29	62.69
352.501	62.71
352.711	61.76
352.921	61.9
353.131	61.39
353.341	61.97
353.552	61.08
353.762	60.01
353.972	59.71
354.182	62.11
354.392	62.94
354.602	63.88
354.812	64.75
355.022	64.27
355.232	64.08
355.442	63.75
355.652	63.04
355.862	63.75
356.072	65.53
356.282	66.51
356.492	63.79
356.702	64.43
356.912	64.29
357.122	63.73
357.332	63.63
357.542	64.04
357.752	64.33
357.962	64.73
358.171	64.04
358.381	62.67
358.591	61.32
358.801	61.87
359.011	61.01
359.221	61.12
359.43	60.91
359.64	60.88
359.85	59.63
360.06	58.53
360.269	57.89
360.479	58.57
360.689	58.84
360.899	58.99
361.108	59.27
361.318	59.92
361.528	59.65
361.737	59.74
361.947	59.86
362.156	61.78
362.366	63.05
362.576	63.51
362.785	63.21
362.995	63.62
363.204	64.24
363.414	64.25
363.623	63.93
363.833	63.16
364.042	63.46
364.252	63.79
364.461	61.82
364.671	61.19
364.88	59.53
365.09	59.26
365.299	58.81
365.509	58.38
365.718	58.62
365.927	57.78
366.137	58.44
366.346	57.94
366.555	57.71
366.765	58.7
366.974	58.44
367.183	59.61
367.393	59.07
367.602	58.83
367.811	57.85
368.021	57.43
368.23	57.72
368.439	57.83
368.648	57.38
368.857	57.22
369.067	57.21
369.276	58.14
369.485	57.76
369.694	58.3
369.903	58.65
370.112	59.19
370.321	58.89
370.531	59
370.74	58.84
370.949	58.62
371.158	58.35
371.367	57.59
371.576	55.94
371.785	55.61
371.994	55.19
372.203	54.87
372.412	54.75
372.621	55.07
372.83	54.57
373.039	53.51
373.248	53.44
373.457	53.07
373.666	53.33
373.874	54.1
374.083	54.44
374.292	54.4
374.501	53.89
374.71	53.94
374.919	53.15
375.128	52.94
375.336	53.1
375.545	53.44
375.754	53.24
375.963	52.85
376.171	52.24
376.38	52.08
376.589	51.84
376.798	51.77
377.006	51.25
377.215	51.18
377.424	51
377.632	51.29
377.841	51.27
378.05	51.85
378.258	51.92
378.467	51.53
378.675	50.99
378.884	50.05
379.093	49.86
379.301	49.96
379.51	49.89
379.718	49.45
379.927	49.24
380.135	48.38
380.344	47.72
380.552	46.82
380.761	46.6
380.969	46.84
381.177	46.95
381.386	46.49
381.594	46.21
381.803	46.5
382.011	46.22
382.219	45.13
382.428	45.19
382.636	44.75
382.845	45.62
383.053	45.76
383.261	45.73
383.469	46.05
383.678	45.97
383.886	45.88
384.094	45.04
384.302	45.6
384.511	46
384.719	46.03
384.927	45.79
385.135	45.02
385.343	44.61
385.552	43.79
385.76	43.77
385.968	44
386.176	43.79
386.384	43.68
386.592	42.82
386.8	42.79
387.008	42.41
387.216	41.98
387.424	41.29
387.633	40.81
387.841	41.19
388.049	40.73
388.257	40.36
388.465	39.93
388.672	39.68
388.88	40.2
389.088	39.91
389.296	39.7
389.504	39.67
389.712	40.09
389.92	40.35
390.128	40
390.336	40
390.544	39.92
390.751	40.06
390.959	40.11
391.167	39.64
391.375	39.47
391.583	38.94
391.79	39.1
391.998	39.09
392.206	38.92
392.414	39.03
392.621	38.69
392.829	38.62
393.037	38.29
393.244	37.92
393.452	37.91
393.66	37.94
393.867	38.11
394.075	38
394.283	37.8
394.49	37.65
394.698	37.36
394.905	37.44
395.113	37.24
395.32	37.05
395.528	37.07
395.735	36.73
395.943	36.47
396.15	36.42
396.358	35.89
396.565	35.8
396.773	35.62
396.98	35.46
397.188	35.25
397.395	34.81
397.602	34.98
397.81	34.93
398.017	34.88
398.225	34.69
398.432	34.48
398.639	34.85
398.847	34.87
399.054	35.2
399.261	35.06
399.468	35.03
399.676	35.23
399.883	34.69
400.09	34.69
400.297	34.23
400.505	34.24
400.712	34.29
400.919	34.04
401.126	34.26
401.333	33.74
401.54	33.32
401.748	33.31
401.955	33
402.162	32.93
402.369	33.17
402.576	33.54
402.783	33.54
402.99	33.53
403.197	33.38
403.404	32.97
403.611	33.32
403.818	33.76
404.025	33.55
404.232	33.57
404.439	34.25
404.646	33.82
404.853	33.51
405.06	33.35
405.267	33.34
405.474	33.53
405.681	33.44
405.887	33.37
406.094	33.38
406.301	33.36
406.508	33.56
406.715	32.92
406.922	32.84
407.128	33.12
407.335	33.17
407.542	32.92
407.749	32.49
407.955	32.36
408.162	32.17
408.369	32.07
408.575	32.19
408.782	31.64
408.989	31.84
409.195	32.13
409.402	32.26
409.609	32.01
409.815	32.34
410.022	32.65
410.228	32.6
410.435	32.24
410.642	31.89
410.848	31.94
411.055	32.15
411.261	32.28
411.468	32.08
411.674	32.06
411.881	32.35
412.087	32.29
412.294	31.88
412.5	32.11
412.706	32.32
412.913	32.34
413.119	32.01
413.326	32.13
413.532	31.63
413.738	31.34
413.945	31.26
414.151	30.85
414.357	30.74
414.564	30.91
414.77	30.34
414.976	30.18
415.182	30.17
415.389	30.49
415.595	30.24
415.801	30.55
416.007	30.76
416.214	30.57
416.42	30.63
416.626	30.54
416.832	30.44
417.038	30.68
417.244	30.75
417.45	30.92
417.657	30.85
417.863	30.95
418.069	30.69
418.275	30.58
418.481	30.63
418.687	30.5
418.893	30.5
419.099	30.52
419.305	30.58
419.511	30.4
419.717	30.29
419.923	30.24
420.129	30.2
420.335	30.25
420.541	30.34
420.746	30.17
420.952	30.23
421.158	30.18
421.364	30.18
421.57	30.05
421.776	30.06
421.982	29.97
422.187	29.97
422.393	29.98
422.599	29.99
422.805	29.83
423.01	29.81
423.216	29.68
423.422	29.63
423.628	29.65
423.833	29.61
424.039	29.63
424.245	29.66
424.45	29.42
424.656	29.23
424.862	29.07
425.067	28.94
425.273	29
425.478	29.11
425.684	28.88
425.889	28.83
426.095	28.84
426.301	28.74
426.506	28.54
426.712	28.47
426.917	28.49
427.123	28.41
427.328	28.68
427.533	28.66
427.739	28.48
427.944	28.7
428.15	28.66
428.355	28.57
428.561	28.59
428.766	28.52
428.971	28.5
429.177	28.57
429.382	28.81
429.587	28.64
429.793	28.42
429.998	28.24
430.203	28.26
430.408	27.94
430.614	27.96
430.819	28.12
431.024	28.15
431.229	28.25
431.434	28.33
431.64	28.14
431.845	28.05
432.05	28.24
432.255	28.46
432.46	28.31
432.665	28.42
432.87	28.25
433.076	28.2
433.281	28.13
433.486	28.09
433.691	28.01
433.896	27.98
434.101	27.81
434.306	27.71
434.511	27.48
434.716	27.59
434.921	27.56
435.126	27.62
435.331	27.58
435.535	27.89
435.74	27.97
435.945	27.85
436.15	27.84
436.355	28.01
436.56	27.98
436.765	28.36
436.97	28.23
437.174	28.02
437.379	27.98
437.584	27.86
437.789	27.61
437.993	27.42
438.198	27.52
438.403	27.41
438.608	27.35
438.812	27.42
439.017	27.44
439.222	27.37
439.426	27.66
439.631	27.69
439.836	27.74
440.04	27.92
440.245	28.01
440.45	27.96
440.654	28.11
440.859	28.34
441.063	28.21
441.268	28.01
441.472	28.05
441.677	27.92
441.881	27.8
442.086	27.78
442.29	27.56
442.495	27.65
442.699	27.55
442.904	27.56
443.108	27.43
443.312	27.73
443.517	27.74
443.721	27.83
443.925	27.87
444.13	28.06
444.334	27.98
444.538	27.91
444.743	27.69
444.947	27.86
445.151	27.67
445.356	27.58
445.56	27.39
445.764	27.23
445.968	26.98
446.173	26.93
446.377	26.89
446.581	26.85
446.785	26.98
446.989	27.05
447.193	26.73
447.398	26.83
447.602	26.85
447.806	26.93
448.01	27.09
448.214	27.13
448.418	27.06
448.622	27.08
448.826	27.04
449.03	26.98
449.234	26.93
449.438	27.23
449.642	27.15
449.846	26.99
450.05	26.87
450.254	26.7
450.458	26.79
450.662	26.88
450.866	26.74
451.069	26.74
451.273	26.64
451.477	26.72
451.681	26.63
451.885	26.67
452.089	26.67
452.292	26.5
452.496	26.52
452.7	26.57
452.904	26.53
453.107	26.6
453.311	26.61
453.515	26.67
453.719	26.48
453.922	26.44
454.126	26.37
454.33	26.24
454.533	26.18
454.737	26.2
454.94	26.08
455.144	26.16
455.348	26.09
455.551	26.25
455.755	26.36
455.958	26.37
456.162	26.39
456.365	26.28
456.569	26.25
456.772	26.26
456.976	26.31
457.179	26.55
