Data from 2938073_Reflection_2.txt Node
Date: Sat Jul 11 20:31:55 EDT 2015
User: robert
Spectrometer: USB4E03001
Autoset integration time: false
Trigger mode: 4
Integration Time (sec): 1.000000E-1
Scans to average: 10
Electric dark correction enabled: true
Nonlinearity correction enabled: false
Boxcar width: 5
Stray light correction enabled: false
XAxis mode: Wavelengths
Stop averaging: false
Number of Pixels in Spectrum: 3648
>>>>>Begin Spectral Data<<<<<
177.566	-401
177.785	-645.33
178.005	-113.6
178.225	-20.1
178.445	22.5
178.665	-1.59
178.885	19.78
179.105	91.9
179.324	110.03
179.544	-259.59
179.764	-7.69
179.984	-55.3
180.204	-227.32
180.423	-231.62
180.643	-14.77
180.863	37.35
181.083	83.85
181.302	110.27
181.522	122.98
181.742	101.86
181.961	69.47
182.181	153.44
182.401	-27.64
182.621	52.62
182.84	68.84
183.06	179.94
183.279	448.96
183.499	-12.76
183.719	-2.36
183.938	10.86
184.158	22.45
184.377	89.53
184.597	46.44
184.816	115.29
185.036	83.58
185.256	197.76
185.475	46.6
185.695	39.9
185.914	50.88
186.134	75.28
186.353	84.8
186.572	114.97
186.792	82.13
187.011	165.83
187.231	131.42
187.45	172.83
187.67	146.55
187.889	184.75
188.108	194.82
188.328	193.85
188.547	184.1
188.766	138.31
188.986	161.33
189.205	96.06
189.424	54.93
189.644	49.44
189.863	17.9
190.082	19.68
190.302	-76.19
190.521	-47.07
190.74	13.14
190.959	12.79
191.178	-9.87
191.398	-10.94
191.617	3.95
191.836	-54.07
192.055	-165.27
192.274	-44.21
192.494	-34.51
192.713	-5.46
192.932	2.87
193.151	-64.72
193.37	-59.67
193.589	-61.23
193.808	-75.04
194.027	-51.93
194.246	31.92
194.465	41.14
194.685	8.61
194.904	-5.34
195.123	8.05
195.342	18.37
195.561	32.02
195.78	14.97
195.999	35.72
196.218	60.59
196.436	35.91
196.655	26.13
196.874	25.6
197.093	27.39
197.312	16.51
197.531	19.44
197.75	27.16
197.969	32.53
198.188	-10.98
198.407	-17.18
198.625	-41.31
198.844	-4.14
199.063	-65.48
199.282	-206.64
199.501	-27.19
199.719	30.55
199.938	21.52
200.157	81.3
200.376	78.09
200.594	258.11
200.813	2750
201.032	-240.64
201.251	-35.63
201.469	9.6
201.688	29.86
201.907	65.41
202.125	253.08
202.344	-384.44
202.563	286.67
202.781	201.33
203	-305
203.218	61.98
203.437	34.35
203.656	42.69
203.874	58.61
204.093	53
204.311	52.04
204.53	40.65
204.748	40.1
204.967	28.78
205.185	18.79
205.404	26.93
205.622	17.67
205.841	23.34
206.059	15.39
206.278	9.19
206.496	25.61
206.715	31.58
206.933	30.71
207.151	38.02
207.37	52.22
207.588	54.16
207.806	58.16
208.025	72.94
208.243	68.18
208.461	53.49
208.68	66.88
208.898	-9
209.116	-88.09
209.335	-69.92
209.553	-85.28
209.771	-222.79
209.989	-131.94
210.208	-424.38
210.426	-1108.94
210.644	550.17
210.862	822.2
211.081	166.72
211.299	68.1
211.517	-33.59
211.735	-117.15
211.953	-119.05
212.171	65.56
212.39	45.2
212.608	-134.59
212.826	-938.04
213.044	59.39
213.262	160.3
213.48	53.18
213.698	42.97
213.916	98.08
214.134	32.31
214.352	-4.74
214.57	171.81
214.788	17.81
215.006	-57.64
215.224	-12.04
215.442	-107.92
215.66	-132.32
215.878	-350.62
216.096	-130.13
216.314	-197.65
216.532	-342
216.75	-604.28
216.968	-325.75
217.185	-343.76
217.403	-127.17
217.621	-122.7
217.839	149.47
218.057	85.39
218.275	92.94
218.492	58.75
218.71	49.99
218.928	39.2
219.146	30.6
219.363	15.45
219.581	14.49
219.799	20.79
220.017	6.12
220.234	-10.32
220.452	26.67
220.67	35.38
220.887	74.19
221.105	78.52
221.323	75.14
221.54	68.13
221.758	83.41
221.976	81.77
222.193	76.26
222.411	85.26
222.629	72.38
222.846	72.43
223.064	82.68
223.281	71.69
223.499	57.99
223.716	58.73
223.934	53.48
224.151	49.45
224.369	39.88
224.586	35.03
224.804	32.91
225.021	24.91
225.239	7.36
225.456	-0.6
225.674	7.18
225.891	10.45
226.108	18.81
226.326	14.52
226.543	12.39
226.76	9.94
226.978	3.37
227.195	2.13
227.413	6.08
227.63	10.37
227.847	12.37
228.064	4.54
228.282	5.8
228.499	2.05
228.716	7.2
228.934	9.23
229.151	8.35
229.368	8.97
229.585	8.04
229.802	10.8
230.02	8.94
230.237	8.02
230.454	7.74
230.671	5.93
230.888	2.86
231.105	-0.47
231.323	-2.25
231.54	1.92
231.757	1.94
231.974	5.04
232.191	3.48
232.408	6.69
232.625	8.04
232.842	4.17
233.059	10.89
233.276	15.75
233.493	15.61
233.71	11.37
233.927	8.37
234.144	13.22
234.361	12.39
234.578	4.59
234.795	5.07
235.012	6.35
235.229	16.36
235.446	15.15
235.663	15.72
235.879	16.86
236.096	15.79
236.313	15.12
236.53	10.67
236.747	7.26
236.964	13.37
237.181	17.03
237.397	20.34
237.614	17.32
237.831	14.85
238.048	16.34
238.264	15.44
238.481	19.55
238.698	19.87
238.915	19.92
239.131	22.56
239.348	21.39
239.565	15.47
239.781	11.29
239.998	9.56
240.215	11.04
240.431	8.67
240.648	10.29
240.865	10.26
241.081	10.17
241.298	9.62
241.514	8.2
241.731	8.09
241.947	9.56
242.164	10.03
242.38	11.49
242.597	11.97
242.814	11.98
243.03	12.04
243.246	12.02
243.463	13.23
243.679	14.17
243.896	16.44
244.112	16.91
244.329	16.44
244.545	16.27
244.762	14.96
244.978	14.21
245.194	14.11
245.411	15.04
245.627	13.72
245.843	12.99
246.06	12.42
246.276	10.84
246.492	11.18
246.709	11.21
246.925	11.08
247.141	11.59
247.357	11.55
247.574	12.17
247.79	11.56
248.006	11.93
248.222	11.3
248.439	10.81
248.655	10.7
248.871	10.02
249.087	9.26
249.303	9.68
249.519	8.89
249.736	8.5
249.952	7.93
250.168	6.89
250.384	7.21
250.6	7.12
250.816	6.88
251.032	4.98
251.248	6.14
251.464	7.3
251.68	7.87
251.896	9.15
252.112	9.8
252.328	8.22
252.544	9.94
252.76	9.14
252.976	10.13
253.192	10.92
253.408	11.4
253.624	10.99
253.84	11.9
254.056	10.22
254.272	8.41
254.487	8.2
254.703	9.53
254.919	6.17
255.135	6.31
255.351	3.6
255.567	1.08
255.782	1.38
255.998	-1.03
256.214	1.82
256.43	1.26
256.646	2.07
256.861	2.77
257.077	4.76
257.293	9.24
257.508	9.02
257.724	10.74
257.94	13.41
258.155	12.73
258.371	13.96
258.587	11.96
258.802	12.58
259.018	11.37
259.234	10.49
259.449	9.52
259.665	7.93
259.88	7.35
260.096	6.71
260.312	6.02
260.527	6.97
260.743	7.76
260.958	8.06
261.174	7.44
261.389	6.94
261.605	6.76
261.82	6.28
262.036	6.68
262.251	7.36
262.466	7.81
262.682	8.55
262.897	8.49
263.113	7.18
263.328	6.8
263.543	5.35
263.759	8.39
263.974	9.86
264.189	12.76
264.405	11.46
264.62	10.8
264.835	10.47
265.051	10.66
265.266	9.79
265.481	9.26
265.696	7.91
265.912	9.03
266.127	7.48
266.342	5.44
266.557	4.08
266.773	5.22
266.988	5.72
267.203	6.35
267.418	5.45
267.633	4.18
267.848	3.71
268.064	4.24
268.279	5.36
268.494	7.44
268.709	8.12
268.924	7.15
269.139	5.28
269.354	5.46
269.569	4.96
269.784	6.25
269.999	7.42
270.214	6.48
270.429	6.92
270.644	6.31
270.859	4.44
271.074	5.04
271.289	5.35
271.504	5.77
271.719	5.17
271.934	5.96
272.149	5.99
272.363	5.58
272.578	6.76
272.793	6.73
273.008	6.37
273.223	7.44
273.438	8.05
273.653	8.46
273.867	9.03
274.082	10.46
274.297	8.82
274.512	9.12
274.726	9.45
274.941	9.67
275.156	9.09
275.371	8.55
275.585	8.96
275.8	7.52
276.015	7.44
276.229	7.52
276.444	6.25
276.659	7.68
276.873	6.3
277.088	4.94
277.302	3.48
277.517	4.1
277.732	5.59
277.946	3.55
278.161	3.73
278.375	3.94
278.59	5.14
278.804	6.13
279.019	5.05
279.233	4.73
279.448	6.4
279.662	6.77
279.877	6.32
280.091	6.27
280.306	7.54
280.52	7.14
280.735	7.24
280.949	7.46
281.163	6.65
281.378	7.4
281.592	7.7
281.806	7.13
282.021	6.44
282.235	6.18
282.449	5.9
282.664	4.62
282.878	5.58
283.092	5.93
283.307	5.66
283.521	6.43
283.735	5.51
283.949	4.86
284.164	5.12
284.378	6.21
284.592	6.38
284.806	7.48
285.02	7.34
285.234	7.74
285.449	7.38
285.663	6.81
285.877	6.4
286.091	7.08
286.305	7.66
286.519	7.46
286.733	8.21
286.947	9.12
287.161	8.9
287.375	9.1
287.589	8.36
287.803	8.18
288.017	8.82
288.231	9.91
288.445	9.83
288.659	10.05
288.873	10.32
289.087	8.88
289.301	7.79
289.515	8.54
289.729	10.03
289.943	10.32
290.157	9.7
290.371	10.07
290.584	9.31
290.798	8.25
291.012	7.63
291.226	7.34
291.44	8.01
291.654	7.9
291.867	6.7
292.081	6.13
292.295	6.3
292.509	7.49
292.722	6.88
292.936	6.59
293.15	9.31
293.364	9.1
293.577	9.52
293.791	9.72
294.005	9.81
294.218	10.01
294.432	8.42
294.645	7.42
294.859	7.1
295.073	6.64
295.286	6.19
295.5	5.89
295.713	5.46
295.927	5.44
296.14	5.02
296.354	5.42
296.568	4.93
296.781	5.71
296.994	6.37
297.208	6.66
297.421	7.02
297.635	7.24
297.848	6.75
298.062	7.57
298.275	8.05
298.489	8.78
298.702	9.98
298.915	10.05
299.129	11.02
299.342	11.35
299.555	10.91
299.769	11.59
299.982	12.23
300.195	12.45
300.409	13.34
300.622	12.94
300.835	14.09
301.048	14.16
301.262	14.49
301.475	14.65
301.688	14.1
301.901	13.34
302.115	12.06
302.328	12.53
302.541	12.69
302.754	11.52
302.967	10.98
303.18	8.62
303.393	7.27
303.607	6.72
303.82	5.07
304.033	5.4
304.246	7.51
304.459	8.49
304.672	5.36
304.885	3.86
305.098	4.57
305.311	5.72
305.524	5.82
305.737	5.04
305.95	6.72
306.163	6.73
306.376	6.15
306.589	4.12
306.802	4
307.015	7.23
307.228	8.22
307.44	8.52
307.653	8.61
307.866	8.61
308.079	7.26
308.292	6.49
308.505	7.57
308.718	7.65
308.93	9.47
309.143	9.88
309.356	10.3
309.569	10.63
309.781	9.42
309.994	9.43
310.207	10.46
310.42	12.56
310.632	12.73
310.845	12.97
311.058	13.39
311.27	12.09
311.483	11.33
311.696	11.53
311.908	11.51
312.121	12.61
312.333	12.67
312.546	12.95
312.759	12.83
312.971	12.96
313.184	13.92
313.396	13.09
313.609	14.22
313.821	15.05
314.034	14.51
314.246	14.04
314.459	13.55
314.671	13.38
314.884	11.02
315.096	9.56
315.309	8.94
315.521	8.17
315.733	8.5
315.946	8.45
316.158	7.22
316.371	5.44
316.583	7.84
316.795	8.36
317.008	8.3
317.22	9.28
317.432	10.58
317.644	10.05
317.857	9.34
318.069	9.35
318.281	9.24
318.494	9.22
318.706	11.08
318.918	9.64
319.13	9.45
319.342	8.52
319.555	9.95
319.767	8.9
319.979	10.09
320.191	11.27
320.403	12.25
320.615	12.56
320.827	12.54
321.039	11.99
321.252	13
321.464	14.06
321.676	13.77
321.888	13.51
322.1	13.16
322.312	13.51
322.524	10.78
322.736	10.06
322.948	9.46
323.16	10.49
323.372	10.57
323.584	8.18
323.796	6.22
324.007	6.9
324.219	6.51
324.431	7.84
324.643	6.07
324.855	6.92
325.067	7.52
325.279	6.68
325.491	5.92
325.702	7.37
325.914	8.77
326.126	9.63
326.338	8.98
326.55	9.4
326.761	8.3
326.973	8.71
327.185	9.2
327.396	7.81
327.608	9.51
327.82	9.52
328.032	6.6
328.243	5.56
328.455	4.73
328.666	4.82
328.878	5.91
329.09	5.51
329.301	4.54
329.513	4.23
329.725	5.59
329.936	4.03
330.148	5.38
330.359	7.27
330.571	6.84
330.782	8.19
330.994	8.8
331.205	6.26
331.417	6.76
331.628	9.54
331.84	9.54
332.051	8.38
332.262	8.7
332.474	8.03
332.685	6.91
332.897	7.52
333.108	7.45
333.319	7.74
333.531	7.95
333.742	8.76
333.953	8.07
334.165	8.2
334.376	7.69
334.587	9.23
334.799	9.37
335.01	10.74
335.221	10.91
335.432	11.39
335.644	11.83
335.855	12.18
336.066	12.35
336.277	11.4
336.488	10.4
336.7	10.89
336.911	9.79
337.122	10.08
337.333	10.56
337.544	10.31
337.755	8.59
337.966	8.56
338.177	9.16
338.388	9.02
338.599	9.42
338.811	9.31
339.022	10.49
339.233	10.4
339.444	9.74
339.655	8.65
339.866	9.63
340.076	10.76
340.287	9.04
340.498	7.28
340.709	6.84
340.92	7.55
341.131	8.61
341.342	7.84
341.553	8.78
341.764	8.8
341.975	7.43
342.185	8.04
342.396	8.85
342.607	9.98
342.818	10.94
343.029	11.1
343.239	10.94
343.45	11.26
343.661	11.85
343.872	11.09
344.082	12.08
344.293	13.19
344.504	12.57
344.714	11.12
344.925	11.09
345.136	10.11
345.346	10.51
345.557	11.38
345.768	11.25
345.978	11.65
346.189	11.04
346.399	10.91
346.61	10.62
346.821	11.04
347.031	12.09
347.242	11.48
347.452	12.76
347.663	11.47
347.873	9.9
348.084	9.97
348.294	8.84
348.504	8.81
348.715	8.29
348.925	9.86
349.136	9.5
349.346	8.69
349.557	10.33
349.767	10.85
349.977	11.34
350.188	12.03
350.398	12.47
350.608	13.06
350.819	13.97
351.029	13.86
351.239	13.2
351.449	13.55
351.66	13.61
351.87	12.69
352.08	11.89
352.29	12.22
352.501	12.03
352.711	10.5
352.921	10.78
353.131	10.46
353.341	10.17
353.552	9.35
353.762	8.78
353.972	8.86
354.182	8.73
354.392	8.27
354.602	7.69
354.812	6.91
355.022	7.49
355.232	6.55
355.442	6.48
355.652	6.34
355.862	5.88
356.072	6.03
356.282	6.12
356.492	6.19
356.702	6.36
356.912	7.24
357.122	8.3
357.332	8.56
357.542	8.08
357.752	7.43
357.962	7.39
358.171	7.85
358.381	8.02
358.591	7.82
358.801	8.01
359.011	8.21
359.221	7.72
359.43	7.65
359.64	7.7
359.85	7.97
360.06	8.28
360.269	7.72
360.479	7.97
360.689	7.78
360.899	7.85
361.108	8.02
361.318	7.54
361.528	7.51
361.737	7.41
361.947	7.26
362.156	7.46
362.366	7.78
362.576	7.99
362.785	7.82
362.995	7.61
363.204	7.38
363.414	7.06
363.623	7.36
363.833	6.95
364.042	6.77
364.252	6.01
364.461	6.47
364.671	6.03
364.88	6.11
365.09	6.97
365.299	7.36
365.509	7.59
365.718	7.2
365.927	7.57
366.137	8.36
366.346	8.39
366.555	9.94
366.765	9.74
366.974	10.36
367.183	10.06
367.393	9.2
367.602	8.29
367.811	9
368.021	10.35
368.23	9.68
368.439	9.08
368.648	8.84
368.857	7.96
369.067	8.41
369.276	8.36
369.485	9.14
369.694	9.06
369.903	8.55
370.112	8.44
370.321	7.16
370.531	6.91
370.74	7.56
370.949	7.08
371.158	7.26
371.367	6.77
371.576	6.79
371.785	7.02
371.994	7.71
372.203	8.36
372.412	7.63
372.621	8.08
372.83	8.87
373.039	8.62
373.248	9.24
373.457	8.99
373.666	8.97
373.874	8.37
374.083	8.38
374.292	7.62
374.501	7.21
374.71	7.38
374.919	7.03
375.128	6.98
375.336	7.05
375.545	6.53
375.754	5.93
375.963	5.9
376.171	6.08
376.38	5.92
376.589	6.37
376.798	7.15
377.006	7.42
377.215	7.49
377.424	6.89
377.632	6.16
377.841	6.61
378.05	7.51
378.258	7.19
378.467	7.19
378.675	7.33
378.884	7.09
379.093	6.42
379.301	6.35
379.51	6.3
379.718	6.19
379.927	6.35
380.135	5.77
380.344	5.25
380.552	5.42
380.761	5.52
380.969	5.33
381.177	4.89
381.386	5.79
381.594	5.78
381.803	5.95
382.011	6.84
382.219	7.21
382.428	7.37
382.636	7.3
382.845	6.83
383.053	6.49
383.261	6.12
383.469	6.51
383.678	5.63
383.886	5.62
384.094	5.45
384.302	4.87
384.511	4.57
384.719	4.81
384.927	5.01
385.135	4.78
385.343	4.94
385.552	5.16
385.76	4.71
385.968	4.91
386.176	4.82
386.384	5.04
386.592	5
386.8	5.03
387.008	4.87
387.216	4.63
387.424	5.2
387.633	5.09
387.841	4.98
388.049	5.1
388.257	5.09
388.465	4.58
388.672	4.37
388.88	4.62
389.088	4.45
389.296	4.54
389.504	4.69
389.712	4.44
389.92	4.37
390.128	3.91
390.336	3.93
390.544	3.87
390.751	4.13
390.959	3.77
391.167	3.45
391.375	3.61
391.583	3.51
391.79	3.46
391.998	3.55
392.206	3.34
392.414	3.66
392.621	3.79
392.829	3.54
393.037	3.61
393.244	3.87
393.452	3.98
393.66	4.03
393.867	3.81
394.075	3.88
394.283	3.88
394.49	4.24
394.698	4.28
394.905	4.28
395.113	4.7
395.32	4.55
395.528	4.65
395.735	4.65
395.943	4.44
396.15	4.58
396.358	4.9
396.565	4.73
396.773	4.67
396.98	4.78
397.188	4.83
397.395	4.7
397.602	4.88
397.81	4.91
398.017	4.79
398.225	4.75
398.432	4.7
398.639	4.2
398.847	4.47
399.054	4.38
399.261	4.62
399.468	4.42
399.676	4.04
399.883	3.9
400.09	3.62
400.297	3.79
400.505	3.95
400.712	4.24
400.919	4.4
401.126	4.07
401.333	3.82
401.54	3.2
401.748	2.94
401.955	3.27
402.162	3.29
402.369	3.54
402.576	3.74
402.783	3.65
402.99	3.51
403.197	3.12
403.404	3.41
403.611	3.56
403.818	3.72
404.025	3.97
404.232	3.63
404.439	3.53
404.646	3.59
404.853	3.36
405.06	3.52
405.267	3.42
405.474	3.63
405.681	3.3
405.887	3.27
406.094	3.28
406.301	3.26
406.508	3.67
406.715	3.78
406.922	3.44
407.128	3.36
407.335	3.19
407.542	3.18
407.749	3.19
407.955	3.37
408.162	3.5
408.369	3.63
408.575	3.73
408.782	3.53
408.989	3.46
409.195	3.73
409.402	4.02
409.609	4.07
409.815	4.42
410.022	4.53
410.228	4.26
410.435	4.21
410.642	4.12
410.848	4.13
411.055	4.35
411.261	4.15
411.468	3.95
411.674	3.68
411.881	3.43
412.087	3.13
412.294	2.8
412.5	3.39
412.706	3.24
412.913	3.17
413.119	3.17
413.326	2.91
413.532	3.32
413.738	3.36
413.945	3.5
414.151	3.38
414.357	3.47
414.564	3.63
414.77	3.18
414.976	3.36
415.182	3.42
415.389	3.35
415.595	3.27
415.801	3.15
416.007	3.04
416.214	2.99
416.42	3.35
416.626	3.26
416.832	3.2
417.038	3.41
417.244	3.38
417.45	3.33
417.657	3.35
417.863	3.48
418.069	3.36
418.275	3.54
418.481	3.52
418.687	3.43
418.893	3.49
419.099	3.45
419.305	3.37
419.511	3.3
419.717	3.36
419.923	3.27
420.129	3.21
420.335	3.33
420.541	3.23
420.746	3.17
420.952	3.06
421.158	3.07
421.364	3.02
421.57	3.17
421.776	3.25
421.982	2.99
422.187	2.95
422.393	2.89
422.599	2.72
422.805	2.65
423.01	2.57
423.216	2.83
423.422	2.73
423.628	2.78
423.833	2.6
424.039	2.45
424.245	2.66
424.45	2.73
424.656	2.9
424.862	2.95
425.067	2.99
425.273	3.05
425.478	2.99
425.684	3.1
425.889	3.16
426.095	3.28
426.301	3.31
426.506	3.36
426.712	3.39
426.917	3.22
427.123	3.3
427.328	3.33
427.533	3.47
427.739	3.25
427.944	3.07
428.15	3.04
428.355	2.88
428.561	3.02
428.766	2.9
428.971	2.82
429.177	3.13
429.382	3.13
429.587	3.32
429.793	3.16
429.998	3.24
430.203	3.49
430.408	3.55
430.614	3.57
430.819	3.61
431.024	3.64
431.229	3.46
431.434	3.28
431.64	3.09
431.845	3.18
432.05	3.25
432.255	3.29
432.46	3.19
432.665	3.03
432.87	2.9
433.076	2.75
433.281	2.78
433.486	2.88
433.691	2.87
433.896	3.08
434.101	3
434.306	2.93
434.511	2.91
434.716	2.87
434.921	2.94
435.126	2.89
435.331	2.81
435.535	2.94
435.74	2.92
435.945	2.76
436.15	2.66
436.355	2.54
436.56	2.72
436.765	2.8
436.97	2.59
437.174	2.61
437.379	2.85
437.584	3.06
437.789	2.78
437.993	2.75
438.198	2.83
438.403	2.82
438.608	2.83
438.812	2.78
439.017	2.66
439.222	2.9
439.426	2.9
439.631	2.68
439.836	2.7
440.04	2.71
440.245	2.76
440.45	2.69
440.654	2.68
440.859	2.64
441.063	2.58
441.268	2.61
441.472	2.58
441.677	2.45
441.881	2.64
442.086	2.63
442.29	2.78
442.495	2.86
442.699	3.02
442.904	2.99
443.108	2.9
443.312	2.86
443.517	2.92
443.721	3.03
443.925	3.13
444.13	3.03
444.334	2.9
444.538	2.91
444.743	2.92
444.947	2.84
445.151	2.92
445.356	3.07
445.56	3.02
445.764	3.03
445.968	2.93
446.173	2.97
446.377	2.85
446.581	2.92
446.785	2.72
446.989	2.52
447.193	2.49
447.398	2.41
447.602	2.37
447.806	2.37
448.01	2.29
448.214	2.2
448.418	2.2
448.622	2.3
448.826	2.4
449.03	2.6
449.234	2.69
449.438	2.72
449.642	2.7
449.846	2.67
450.05	2.7
450.254	2.82
450.458	2.92
450.662	2.58
450.866	2.71
451.069	2.46
451.273	2.38
451.477	2.54
451.681	2.52
451.885	2.5
452.089	2.51
452.292	2.76
452.496	2.67
452.7	2.53
452.904	2.95
453.107	2.85
453.311	2.97
453.515	3
453.719	2.99
453.922	3.24
454.126	3.26
454.33	3.31
454.533	3
454.737	3.04
454.94	3.2
455.144	3.03
455.348	3.13
455.551	3.24
455.755	3.23
455.958	3.31
456.162	3.17
456.365	3.14
456.569	2.97
456.772	2.98
456.976	2.79
457.179	2.63
457.383	2.48
457.586	2.54
457.79	2.14
457.993	2.3
458.196	2.07
458.4	1.94
458.603	2.09
458.807	2.21
459.01	2.32
459.213	2.33
459.417	2.5
459.62	2.67
459.823	2.61
460.026	2.83
460.23	2.69
460.433	2.79
460.636	2.89
460.839	2.79
461.042	2.79
461.246	2.74
461.449	2.87
461.652	2.77
461.855	2.8
462.058	2.85
462.261	2.85
462.464	2.73
462.668	2.75
462.871	2.63
463.074	2.71
463.277	2.72
463.48	2.65
463.683	2.53
463.886	2.64
464.089	2.46
464.292	2.41
464.495	2.47
464.698	2.64
464.901	2.46
465.104	2.6
465.306	2.63
465.509	2.77
465.712	3.08
465.915	3.15
466.118	3.14
466.321	3.11
466.524	3.05
466.726	3
466.929	3.02
467.132	3.1
467.335	3.03
467.538	3.07
467.74	2.93
467.943	2.79
468.146	2.87
468.348	2.69
468.551	2.98
468.754	3.09
