Data from 2938116_Reflection_1.txt Node
Date: Sat Jul 11 18:09:41 EDT 2015
User: robert
Spectrometer: USB4E03001
Autoset integration time: false
Trigger mode: 4
Integration Time (sec): 1.000000E-1
Scans to average: 10
Electric dark correction enabled: true
Nonlinearity correction enabled: false
Boxcar width: 5
Stray light correction enabled: false
XAxis mode: Wavelengths
Stop averaging: false
Number of Pixels in Spectrum: 3648
>>>>>Begin Spectral Data<<<<<
177.566	504.17
177.785	-131.84
178.005	-8.29
178.225	23.97
178.445	4.17
178.665	46.84
178.885	60.54
179.105	126.49
179.324	106.17
179.544	117.81
179.764	117.15
179.984	165.73
180.204	168.32
180.423	216.25
180.643	890.37
180.863	-1437.02
181.083	551.16
181.302	603.71
181.522	335.71
181.742	388.54
181.961	394.24
182.181	365.72
182.401	566.76
182.621	2493.39
182.84	1502.26
183.06	477.58
183.279	315.38
183.499	292.16
183.719	240.78
183.938	226.43
184.158	316.15
184.377	250.21
184.597	252.25
184.816	212.47
185.036	195.63
185.256	222.07
185.475	246.85
185.695	232.07
185.914	279.33
186.134	257.42
186.353	319.83
186.572	201.95
186.792	238.65
187.011	340.84
187.231	307.46
187.45	238.45
187.67	203.36
187.889	195.95
188.108	220.87
188.328	213.81
188.547	198.1
188.766	177.01
188.986	230.72
189.205	265.74
189.424	219.99
189.644	254.74
189.863	354.26
190.082	1786.05
190.302	563.83
190.521	552.44
190.74	540.01
190.959	-3287.5
191.178	-2394.68
191.398	1519.09
191.617	502.17
191.836	576.88
192.055	936.79
192.274	785.61
192.494	535.02
192.713	2275.97
192.932	1559.32
193.151	-14258.76
193.37	-2997.24
193.589	-563.73
193.808	-3007.3
194.027	-2041.25
194.246	971.73
194.465	18330.51
194.685	1993.88
194.904	-4267.74
195.123	887.05
195.342	-1153.71
195.561	943.96
195.78	401.02
195.999	420.75
196.218	987.82
196.436	694.17
196.655	582.52
196.874	249.89
197.093	261.53
197.312	182.32
197.531	198.56
197.75	157.15
197.969	139.67
198.188	152.82
198.407	147.18
198.625	135.77
198.844	173.45
199.063	195.33
199.282	306.5
199.501	273.04
199.719	534.13
199.938	357.01
200.157	783.2
200.376	-6967.65
200.594	648.06
200.813	401.11
201.032	238.08
201.251	235.5
201.469	264.63
201.688	192.5
201.907	220.92
202.125	201.56
202.344	284.12
202.563	259.25
202.781	286.76
203	250.78
203.218	214.9
203.437	281.45
203.656	287.42
203.874	256.43
204.093	210.04
204.311	173.23
204.53	167.43
204.748	148.35
204.967	154.22
205.185	145.46
205.404	148.71
205.622	151.72
205.841	170.26
206.059	169.32
206.278	158.91
206.496	220.62
206.715	248.28
206.933	355.8
207.151	548.42
207.37	654.27
207.588	915
207.806	544.84
208.025	954.85
208.243	724.55
208.461	671.13
208.68	-341.29
208.898	558.74
209.116	417.3
209.335	306.52
209.553	679.81
209.771	549.11
209.989	1768.65
210.208	-3081.31
210.426	-1456.73
210.644	-1679.47
210.862	437.39
211.081	345.62
211.299	409.84
211.517	599.79
211.735	667.3
211.953	239.65
212.171	271.44
212.39	241.73
212.608	215.23
212.826	173.64
213.044	162.07
213.262	194.93
213.48	178.04
213.698	173.7
213.916	170.65
214.134	141.12
214.352	171.35
214.57	142.77
214.788	136.76
215.006	135.27
215.224	124.11
215.442	123.99
215.66	136.4
215.878	136.33
216.096	144.98
216.314	133.12
216.532	150.76
216.75	128.95
216.968	154.57
217.185	158.67
217.403	182.78
217.621	284.9
217.839	263.25
218.057	183.22
218.275	227.67
218.492	264.23
218.71	221.65
218.928	245.35
219.146	357.63
219.363	323.62
219.581	476.11
219.799	-769.95
220.017	-7222.68
220.234	-298.17
220.452	-185.91
220.67	-469.96
220.887	662.36
221.105	802.01
221.323	314.26
221.54	176.7
221.758	193.6
221.976	171.66
222.193	140.62
222.411	117.96
222.629	113.23
222.846	106.19
223.064	107.13
223.281	101.19
223.499	99.83
223.716	101.63
223.934	105.41
224.151	89.48
224.369	102.74
224.586	112.07
224.804	110.76
225.021	109.59
225.239	101.3
225.456	106.25
225.674	108.94
225.891	109.98
226.108	112.84
226.326	111.36
226.543	103.83
226.76	90.07
226.978	84.91
227.195	80.84
227.413	80.29
227.63	81.37
227.847	71.65
228.064	62.69
228.282	57.32
228.499	51.87
228.716	44.05
228.934	43.35
229.151	41.55
229.368	38.03
229.585	37
229.802	37.63
230.02	33.11
230.237	30.74
230.454	30.73
230.671	29.76
230.888	26.27
231.105	27.97
231.323	25.39
231.54	23.92
231.757	29.6
231.974	34.44
232.191	31.98
232.408	30.02
232.625	35.84
232.842	40.38
233.059	40.68
233.276	40.98
233.493	43.05
233.71	43.93
233.927	42.89
234.144	38.91
234.361	42.61
234.578	41.83
234.795	43.49
235.012	39.16
235.229	34.18
235.446	32.08
235.663	34.29
235.879	31.31
236.096	29.62
236.313	33.28
236.53	31.23
236.747	30.72
236.964	39.64
237.181	40.52
237.397	38.92
237.614	45.66
237.831	45.56
238.048	50.49
238.264	49.92
238.481	51.16
238.698	47.31
238.915	44.66
239.131	42.51
239.348	31.43
239.565	31.81
239.781	34.23
239.998	31.81
240.215	33.85
240.431	32.94
240.648	30.86
240.865	31.94
241.081	32.69
241.298	30.7
241.514	26.64
241.731	27.68
241.947	28.3
242.164	27.34
242.38	24.67
242.597	25.19
242.814	24.68
243.03	26.73
243.246	25.12
243.463	25.55
243.679	28.4
243.896	29.35
244.112	29.56
244.329	28.62
244.545	29.39
244.762	31.69
244.978	30.67
245.194	31.31
245.411	28.14
245.627	26.79
245.843	23.18
246.06	21.98
246.276	20.07
246.492	19.56
246.709	18.69
246.925	19.52
247.141	18.68
247.357	17.51
247.574	17.43
247.79	18.4
248.006	18.94
248.222	20.33
248.439	19.6
248.655	20.91
248.871	20.77
249.087	21.41
249.303	20.82
249.519	22.22
249.736	24.23
249.952	21.7
250.168	21.89
250.384	21.76
250.6	21.88
250.816	22.61
251.032	23.95
251.248	25.38
251.464	26.35
251.68	24.55
251.896	24.44
252.112	23
252.328	25.05
252.544	23.95
252.76	24.82
252.976	25.37
253.192	25.69
253.408	24.85
253.624	25.5
253.84	27.36
254.056	29.84
254.272	31.19
254.487	34.44
254.703	35.93
254.919	36.06
255.135	34.5
255.351	35.12
255.567	36.19
255.782	36.43
255.998	35.03
256.214	31.91
256.43	29.8
256.646	29.2
256.861	26.25
257.077	23.67
257.293	27.42
257.508	27.21
257.724	24.92
257.94	24.11
258.155	23.04
258.371	23.17
258.587	19.37
258.802	17.14
259.018	14.59
259.234	14.14
259.449	13.5
259.665	11.49
259.88	12.06
260.096	11.73
260.312	11.47
260.527	11.3
260.743	10.93
260.958	11.8
261.174	11.84
261.389	12.8
261.605	12.8
261.82	12.98
262.036	14.67
262.251	14.18
262.466	14.06
262.682	15.17
262.897	15.13
263.113	14.91
263.328	14.99
263.543	18.08
263.759	18.23
263.974	19.59
264.189	19.65
264.405	19.04
264.62	17.93
264.835	18.27
265.051	18.94
265.266	18.94
265.481	19.18
265.696	19.86
265.912	19.38
266.127	18.13
266.342	16.63
266.557	16.97
266.773	16.84
266.988	18.3
267.203	18.59
267.418	18.31
267.633	19.75
267.848	18.64
268.064	18.27
268.279	17.87
268.494	18.62
268.709	19.39
268.924	20.78
269.139	20.54
269.354	20.76
269.569	21.64
269.784	21.5
269.999	19.71
270.214	19.53
270.429	20.01
270.644	18.95
270.859	20.21
271.074	19.54
271.289	18.28
271.504	18.26
271.719	17.27
271.934	17.88
272.149	16.86
272.363	16.92
272.578	16.97
272.793	15.46
273.008	15.45
273.223	14.02
273.438	13.51
273.653	14.14
273.867	13.71
274.082	14.42
274.297	13.4
274.512	14.21
274.726	13.8
274.941	13.61
275.156	15.22
275.371	15.37
275.585	16.55
275.8	17.38
276.015	17.88
276.229	17.01
276.444	15.18
276.659	14.76
276.873	14.38
277.088	15.09
277.302	15.47
277.517	15.46
277.732	15.24
277.946	13.77
278.161	15.89
278.375	14.49
278.59	16.94
278.804	18.35
279.019	16.63
279.233	16.79
279.448	16.81
279.662	17.24
279.877	16.25
280.091	16.18
280.306	16.7
280.52	15.43
280.735	14.63
280.949	13.68
281.163	13.34
281.378	13.68
281.592	13.81
281.806	14.57
282.021	15.95
282.235	17.97
282.449	18.35
282.664	18.73
282.878	18.48
283.092	19.56
283.307	20.07
283.521	19.35
283.735	19.28
283.949	19.03
284.164	17.93
284.378	16.48
284.592	15.75
284.806	16.39
285.02	16.76
285.234	16.31
285.449	15.66
285.663	15.76
285.877	16.49
286.091	17.32
286.305	16.92
286.519	16.78
286.733	16.23
286.947	16.2
287.161	15.24
287.375	14.46
287.589	15.17
287.803	16.86
288.017	16.15
288.231	16.79
288.445	16.36
288.659	16.9
288.873	18.59
289.087	19.77
289.301	18.33
289.515	19.59
289.729	20.43
289.943	20.18
290.157	19.21
290.371	21.07
290.584	21.35
290.798	21.46
291.012	21.54
291.226	20.48
291.44	20.91
291.654	21.65
291.867	21.08
292.081	21.21
292.295	20.57
292.509	19.91
292.722	17.52
292.936	16.2
293.15	16.58
293.364	18.04
293.577	17.86
293.791	17.29
294.005	17.11
294.218	16.15
294.432	14.68
294.645	16.13
294.859	17.16
295.073	18.04
295.286	19.15
295.5	19.06
295.713	18.63
295.927	19.18
296.14	18.08
296.354	18.6
296.568	18.26
296.781	20.55
296.994	19.56
297.208	19.51
297.421	19.69
297.635	19.13
297.848	18.98
298.062	18.92
298.275	18.67
298.489	18.86
298.702	19.9
298.915	21.16
299.129	19.64
299.342	19.92
299.555	19.34
299.769	19.66
299.982	20.21
300.195	21.08
300.409	20.52
300.622	20.87
300.835	22.63
301.048	21.62
301.262	21.49
301.475	21.92
301.688	23.52
301.901	24.58
302.115	24.05
302.328	24.41
302.541	24.46
302.754	24.18
302.967	25.76
303.18	24.37
303.393	24.41
303.607	24.63
303.82	24.51
304.033	22.59
304.246	22.8
304.459	22.95
304.672	22.39
304.885	21.51
305.098	22.08
305.311	20.03
305.524	21.84
305.737	20.42
305.95	21.91
306.163	21.87
306.376	23.54
306.589	21.89
306.802	21.59
307.015	21.55
307.228	21.77
307.44	21.34
307.653	22.25
307.866	21.61
308.079	22.74
308.292	20.4
308.505	18.97
308.718	17.11
308.93	18.31
309.143	17.3
309.356	16.75
309.569	16.55
309.781	17.59
309.994	16.62
310.207	16.98
310.42	16.38
310.632	16.41
310.845	17.09
311.058	17.44
311.27	17.2
311.483	17.89
311.696	17.78
311.908	18.48
312.121	18.5
312.333	19.58
312.546	17.9
312.759	18.94
312.971	19.36
313.184	20
313.396	20.09
313.609	20.6
313.821	20.63
314.034	21.9
314.246	22.03
314.459	22.07
314.671	21.89
314.884	22.81
315.096	22.95
315.309	22.73
315.521	22.5
315.733	22.2
315.946	22.04
316.158	20.74
316.371	20.04
316.583	19.57
316.795	17.99
317.008	17.48
317.22	18.23
317.432	17.74
317.644	17.54
317.857	18.59
318.069	17.92
318.281	18.35
318.494	21.3
318.706	21.75
318.918	22.55
319.13	23.63
319.342	24.57
319.555	23.29
319.767	23.79
319.979	25.01
320.191	22.92
320.403	25.58
320.615	24.17
320.827	23.43
321.039	22.9
321.252	21.87
321.464	21.78
321.676	20.79
321.888	20.63
322.1	19.59
322.312	18.33
322.524	17.95
322.736	16.56
322.948	16.65
323.16	16.69
323.372	16.4
323.584	16.48
323.796	18.48
324.007	17.83
324.219	17.98
324.431	18.59
324.643	18.05
324.855	19.48
325.067	19.75
325.279	20.76
325.491	19.84
325.702	20.73
325.914	20.42
326.126	18.19
326.338	18.61
326.55	18.86
326.761	19.03
326.973	19.9
327.185	19.11
327.396	19.28
327.608	17.64
327.82	19.65
328.032	18.65
328.243	19.66
328.455	20.09
328.666	20.55
328.878	19.59
329.09	17.71
329.301	17
329.513	17.83
329.725	17.07
329.936	17.48
330.148	18.06
330.359	18.2
330.571	17.78
330.782	16.82
330.994	17.54
331.205	19.68
331.417	21.21
331.628	21.96
331.84	20.7
332.051	21.66
332.262	22.82
332.474	20.07
332.685	20.18
332.897	19.94
333.108	20.19
333.319	19.84
333.531	19.03
333.742	18.89
333.953	18.21
334.165	18.9
334.376	19.33
334.587	18.95
334.799	20.07
335.01	20.58
335.221	21.62
335.432	20.96
335.644	19.64
335.855	19.75
336.066	19.2
336.277	19.44
336.488	19.54
336.7	18.95
336.911	18.56
337.122	18.5
337.333	19.44
337.544	18.51
337.755	18.88
337.966	18
338.177	18.7
338.388	19.16
338.599	19.97
338.811	18.86
339.022	18.57
339.233	19.41
339.444	19.12
339.655	16.92
339.866	16.83
340.076	17.88
340.287	19.6
340.498	18.62
340.709	17.89
340.92	18.08
341.131	17.99
341.342	17.91
341.553	17.95
341.764	18.09
341.975	18.37
342.185	18.21
342.396	18.43
342.607	18.52
342.818	18.12
343.029	18.52
343.239	17.28
343.45	17.88
343.661	18.58
343.872	17.42
344.082	17.21
344.293	18.11
344.504	18.61
344.714	17.86
344.925	17.86
345.136	18.53
345.346	18.87
345.557	18.8
345.768	18.76
345.978	18.2
346.189	19.79
346.399	19.51
346.61	18.81
346.821	18.12
347.031	18.32
347.242	18.27
347.452	16.42
347.663	17.23
347.873	17.98
348.084	17.67
348.294	16.55
348.504	14.7
348.715	15.38
348.925	15.21
349.136	15.67
349.346	15.06
349.557	13.86
349.767	15.94
349.977	14.05
350.188	13.59
350.398	14.76
350.608	14.68
350.819	14.3
351.029	13.92
351.239	14.63
351.449	14.35
351.66	14.63
351.87	15.29
352.08	15.53
352.29	16.24
352.501	17.72
352.711	17.22
352.921	18.13
353.131	19.21
353.341	19.27
353.552	18.12
353.762	16.72
353.972	17.3
354.182	17.5
354.392	16.64
354.602	16.2
354.812	14.21
355.022	13.39
355.232	12.54
355.442	12.49
355.652	12.84
355.862	13.66
356.072	14.19
356.282	12.52
356.492	12.04
356.702	12.15
356.912	11.97
357.122	12.24
357.332	13.9
357.542	13.97
357.752	13.52
357.962	13.02
358.171	12.82
358.381	14.73
358.591	15.83
358.801	15.8
359.011	16.97
359.221	16.76
359.43	15.17
359.64	13.1
359.85	13.59
360.06	13.42
360.269	12.46
360.479	11.92
360.689	10.71
360.899	10.52
361.108	10.82
361.318	10.16
361.528	10.25
361.737	11.53
361.947	11.43
362.156	10.91
362.366	11.08
362.576	11.22
362.785	11.87
362.995	12.08
363.204	11.6
363.414	10.57
363.623	9.7
363.833	10.82
364.042	10.87
364.252	11.72
364.461	12.23
364.671	11.33
364.88	11.57
365.09	10.95
365.299	10.86
365.509	12.12
365.718	12.78
365.927	13.46
366.137	12.96
366.346	13.26
366.555	12.65
366.765	12.74
366.974	12.76
367.183	13.57
367.393	13.34
367.602	13.74
367.811	13.24
368.021	13.95
368.23	13.88
368.439	14.07
368.648	13.22
368.857	13.32
369.067	12.79
369.276	12.56
369.485	12.4
369.694	13.25
369.903	12.73
370.112	12.77
370.321	13.02
370.531	12.14
370.74	11.85
370.949	12.46
371.158	12.76
371.367	12.5
371.576	13.33
371.785	13.07
371.994	12.33
372.203	12.71
372.412	12.24
372.621	11.55
372.83	11.77
373.039	11.27
373.248	10.73
373.457	11.24
373.666	11.66
373.874	11.79
374.083	11.38
374.292	11.88
374.501	10.76
374.71	10.57
374.919	10.45
375.128	11.08
375.336	11.81
375.545	12.88
375.754	12.06
375.963	11.18
376.171	11.53
376.38	11.42
376.589	11.66
376.798	11.59
377.006	11.93
377.215	11.85
377.424	11.52
377.632	11.35
377.841	10.08
378.05	10.37
378.258	10.84
378.467	10.37
378.675	9.92
378.884	9.3
379.093	9.41
379.301	9.25
379.51	9.47
379.718	9.54
379.927	9.26
380.135	9.61
380.344	9.45
380.552	9.55
380.761	9.8
380.969	9.88
381.177	9.77
381.386	9.87
381.594	9.21
381.803	8.69
382.011	8.47
382.219	8.4
382.428	8.71
382.636	7.95
382.845	7.63
383.053	7.42
383.261	7.74
383.469	7.67
383.678	7.59
383.886	7.95
384.094	8.4
384.302	8.62
384.511	8.71
384.719	8.15
384.927	8.15
385.135	8.74
385.343	8.35
385.552	8.71
385.76	8.71
385.968	9.12
386.176	9.35
386.384	8.66
386.592	8.09
386.8	7.52
387.008	7.29
387.216	7.8
387.424	6.89
387.633	6.81
387.841	6.56
388.049	5.93
388.257	5.55
388.465	5.42
388.672	5.41
388.88	6.15
389.088	6.27
389.296	6.2
389.504	5.77
389.712	6.13
389.92	5.92
390.128	5.76
390.336	6.53
390.544	6.07
390.751	6
390.959	5.97
391.167	5.48
391.375	5.38
391.583	5.54
391.79	5.71
391.998	6.09
392.206	6.48
392.414	6.55
392.621	6.08
392.829	6.51
393.037	6.64
393.244	7.03
393.452	6.79
393.66	7.06
393.867	6.88
394.075	6.75
394.283	6.6
394.49	6.14
394.698	6.09
394.905	6.12
395.113	5.86
395.32	5.69
395.528	5.49
395.735	5.6
395.943	5.43
396.15	5.32
396.358	5.45
396.565	5.11
396.773	5.94
396.98	5.91
397.188	5.96
397.395	5.88
397.602	5.93
397.81	5.74
398.017	5.77
398.225	5.57
398.432	6.09
398.639	6
398.847	6.22
399.054	5.56
399.261	5.64
399.468	5.52
399.676	5.64
399.883	5.4
400.09	5.48
400.297	5.56
400.505	5.69
400.712	5.7
400.919	5.86
401.126	5.64
401.333	5.36
401.54	5.22
401.748	5.26
401.955	5.1
402.162	5.43
402.369	5.3
402.576	5.11
402.783	4.82
402.99	4.54
403.197	4.23
403.404	4.06
403.611	4.34
403.818	4.31
404.025	4.19
404.232	4.39
404.439	4.39
404.646	4.51
404.853	4.65
405.06	4.86
405.267	4.81
405.474	4.64
405.681	4.72
405.887	4.8
406.094	4.84
406.301	5.23
406.508	5.07
406.715	4.84
406.922	5.08
407.128	4.86
407.335	4.79
407.542	4.85
407.749	4.98
407.955	5.24
408.162	5.21
408.369	5.17
408.575	5.04
408.782	5.06
408.989	5
409.195	4.71
409.402	4.79
409.609	4.82
409.815	5.08
410.022	5.17
410.228	5.33
410.435	5.45
410.642	5.25
410.848	5.5
411.055	5.79
411.261	5.97
411.468	6.11
411.674	5.92
411.881	5.89
412.087	5.53
412.294	5.33
412.5	5.43
412.706	5.51
412.913	5.41
413.119	5
413.326	4.59
413.532	4.36
413.738	4.37
413.945	4.44
414.151	4.62
414.357	4.64
414.564	4.85
414.77	4.46
414.976	4.46
415.182	4.69
415.389	4.86
415.595	5
415.801	4.87
416.007	4.88
416.214	4.74
416.42	4.19
416.626	4.35
416.832	4.53
417.038	4.32
417.244	4.28
417.45	4.27
417.657	3.97
417.863	3.93
418.069	4.08
418.275	4.06
418.481	4.05
418.687	4.25
418.893	3.94
419.099	3.75
419.305	3.66
419.511	3.58
419.717	3.56
419.923	3.58
420.129	3.45
420.335	3.43
420.541	3.31
420.746	3.3
420.952	3.41
421.158	3.53
421.364	3.44
421.57	3.46
421.776	3.37
421.982	3.36
422.187	3.35
422.393	3.36
422.599	3.33
422.805	3.33
423.01	3.45
423.216	3.44
423.422	3.36
423.628	3.55
423.833	3.64
424.039	3.67
424.245	3.73
424.45	3.86
424.656	3.87
424.862	3.92
425.067	3.93
425.273	3.94
425.478	3.88
425.684	4.05
425.889	3.96
426.095	3.87
426.301	3.92
426.506	3.9
426.712	3.9
426.917	4.08
427.123	3.9
427.328	3.95
427.533	4.06
427.739	4.25
427.944	4.23
428.15	4.22
428.355	4.24
428.561	4.02
428.766	4
428.971	4.08
429.177	3.92
429.382	4.01
429.587	4.01
429.793	3.93
429.998	3.85
430.203	3.64
430.408	3.67
430.614	3.95
430.819	4.08
431.024	4.19
431.229	4.01
431.434	4.1
431.64	4.05
431.845	4.14
432.05	4.05
432.255	3.97
432.46	4.03
432.665	3.98
432.87	3.72
433.076	3.83
433.281	3.71
433.486	3.67
433.691	3.71
433.896	3.76
434.101	3.61
434.306	3.52
434.511	3.59
434.716	3.49
434.921	3.54
435.126	3.72
435.331	3.69
435.535	3.6
435.74	3.62
435.945	3.62
436.15	3.79
436.355	3.77
436.56	3.71
436.765	3.83
436.97	4.05
437.174	3.99
437.379	4.08
437.584	3.99
437.789	4.16
437.993	4.32
438.198	4.33
438.403	4.01
438.608	4.14
438.812	4.18
439.017	3.82
439.222	3.6
439.426	3.5
439.631	3.37
439.836	3.2
440.04	3.1
440.245	3.08
440.45	2.92
440.654	3
440.859	2.88
441.063	2.91
441.268	2.9
441.472	2.89
441.677	3
441.881	2.83
442.086	2.89
442.29	2.75
442.495	2.58
442.699	2.7
442.904	2.84
443.108	3.02
443.312	2.97
443.517	3.08
443.721	3.2
443.925	3.12
444.13	3.35
444.334	3.28
444.538	3.4
444.743	3.39
444.947	3.31
445.151	3.08
445.356	2.9
445.56	3.07
445.764	3.18
445.968	3.22
446.173	3.14
446.377	3.13
446.581	3.23
446.785	3.21
446.989	3.24
447.193	3.2
447.398	3.19
447.602	3.19
447.806	3.12
448.01	3.12
448.214	3.02
448.418	3.1
448.622	3.08
448.826	3.1
449.03	3.15
449.234	3.21
449.438	3.21
449.642	3.42
449.846	3.45
450.05	3.54
450.254	3.39
450.458	3.46
450.662	3.38
450.866	3.31
451.069	3.4
451.273	3.27
451.477	3.09
451.681	3.16
451.885	3.11
452.089	3.16
452.292	2.86
452.496	3.01
452.7	3.12
452.904	3.06
453.107	3.06
453.311	2.82
453.515	2.77
453.719	3.02
453.922	3.1
454.126	3.17
454.33	3.21
454.533	3.48
454.737	3.37
454.94	3.25
455.144	3.57
455.348	3.39
455.551	3.46
455.755	3.58
455.958	3.55
456.162	3.62
456.365	3.4
456.569	3.26
456.772	3.05
456.976	3.16
457.179	3.14
457.383	3.05
457.586	3.24
457.79	3.37
457.993	3.35
458.196	3.09
458.4	2.83
458.603	2.72
458.807	2.84
459.01	2.98
459.213	2.98
459.417	3.08
