Data from 2938033_Reflection_1.txt Node
Date: Sun Jul 12 14:56:18 EDT 2015
User: robert
Spectrometer: USB4E03001
Autoset integration time: false
Trigger mode: 4
Integration Time (sec): 1.000000E-1
Scans to average: 10
Electric dark correction enabled: true
Nonlinearity correction enabled: false
Boxcar width: 5
Stray light correction enabled: false
XAxis mode: Wavelengths
Stop averaging: false
Number of Pixels in Spectrum: 3648
>>>>>Begin Spectral Data<<<<<
177.566	-652.01
177.785	227.7
178.005	1307.86
178.225	-224.88
178.445	19.68
178.665	-12.22
178.885	-37.61
179.105	-97.6
179.324	-140.98
179.544	-2753.27
179.764	458.28
179.984	-736.59
180.204	175.31
180.423	247.83
180.643	396.43
180.863	12200
181.083	365.75
181.302	262.79
181.522	256.56
181.742	290.7
181.961	3114.61
182.181	468.51
182.401	177.41
182.621	176.75
182.84	184.03
183.06	210.24
183.279	182.91
183.499	162.41
183.719	152.74
183.938	173.79
184.158	167.51
184.377	142.58
184.597	107.59
184.816	166.93
185.036	203.33
185.256	99.44
185.475	91.04
185.695	89.39
185.914	109.03
186.134	124.19
186.353	99.08
186.572	90.2
186.792	87.98
187.011	118.67
187.231	87.89
187.45	92.67
187.67	123.08
187.889	133.82
188.108	106.89
188.328	95.61
188.547	122.11
188.766	157.53
188.986	240.49
189.205	215.96
189.424	584.2
189.644	342.95
189.863	1885.05
190.082	689.48
190.302	292.7
190.521	391.89
190.74	1240.15
190.959	754.05
191.178	571.64
191.398	-635.8
191.617	2623.87
191.836	2201.23
192.055	-773.36
192.274	267.66
192.494	177.92
192.713	240.88
192.932	215.9
193.151	147.47
193.37	130.96
193.589	154.38
193.808	98.95
194.027	103.47
194.246	119.14
194.465	76.74
194.685	111.48
194.904	104.67
195.123	69.5
195.342	80.34
195.561	84.29
195.78	79.17
195.999	77.69
196.218	45.71
196.436	51
196.655	60.28
196.874	109.7
197.093	44.15
197.312	27.41
197.531	111.93
197.75	37.53
197.969	73.32
198.188	91.81
198.407	47.24
198.625	79.68
198.844	81.89
199.063	68.52
199.282	25.22
199.501	35.87
199.719	58.56
199.938	40.24
200.157	44.49
200.376	15.62
200.594	13.3
200.813	21.41
201.032	22.58
201.251	0.86
201.469	6.36
201.688	41.54
201.907	22.77
202.125	-9.49
202.344	-15.04
202.563	-20.25
202.781	-4.4
203	45.75
203.218	98.57
203.437	-1555.81
203.656	106.5
203.874	47.83
204.093	69.48
204.311	74.57
204.53	59.42
204.748	99.91
204.967	107.58
205.185	90.61
205.404	80.79
205.622	57.24
205.841	44.6
206.059	-48.44
206.278	13.84
206.496	4.36
206.715	11.21
206.933	12.47
207.151	10.39
207.37	27.61
207.588	41.83
207.806	47.42
208.025	49.83
208.243	73.11
208.461	67.12
208.68	84.02
208.898	77.75
209.116	84.4
209.335	74.66
209.553	61.54
209.771	38.49
209.989	44.65
210.208	34.37
210.426	66.78
210.644	2.76
210.862	50.98
211.081	20.48
211.299	90.87
211.517	105.09
211.735	139.16
211.953	203.42
212.171	173.66
212.39	193.47
212.608	176.49
212.826	99.48
213.044	91.06
213.262	122.58
213.48	174.77
213.698	65.96
213.916	70.17
214.134	77.31
214.352	89.4
214.57	72.51
214.788	70
215.006	56.8
215.224	81.34
215.442	77.63
215.66	54.65
215.878	42.98
216.096	41.48
216.314	60.4
216.532	73.48
216.75	62.48
216.968	76.08
217.185	70.66
217.403	84.93
217.621	64.01
217.839	86.04
218.057	85.64
218.275	121.96
218.492	127.82
218.71	169.73
218.928	187.01
219.146	156.49
219.363	156.51
219.581	199.25
219.799	122.65
220.017	176.1
220.234	144.17
220.452	138.09
220.67	78.55
220.887	67.35
221.105	50.44
221.323	40.71
221.54	24.45
221.758	12.84
221.976	40.77
222.193	48.83
222.411	27.44
222.629	26.1
222.846	35.11
223.064	63.84
223.281	72.15
223.499	53.04
223.716	54.39
223.934	73.75
224.151	103.07
224.369	79.27
224.586	82.18
224.804	95.81
225.021	86.96
225.239	79.27
225.456	52.9
225.674	49.35
225.891	45.35
226.108	47.98
226.326	25.68
226.543	15.54
226.76	18.16
226.978	10.73
227.195	12.46
227.413	9.37
227.63	13.81
227.847	19.28
228.064	19.76
228.282	16.9
228.499	15.81
228.716	17.9
228.934	19.9
229.151	18.25
229.368	19.76
229.585	18.95
229.802	21.63
230.02	21.63
230.237	21.57
230.454	20.76
230.671	21.87
230.888	22.3
231.105	24.26
231.323	18.77
231.54	19.97
231.757	21.53
231.974	21.25
232.191	18.54
232.408	14.24
232.625	10.95
232.842	10.82
233.059	15.03
233.276	14.79
233.493	13.74
233.71	15.69
233.927	9.5
234.144	6.71
234.361	8.77
234.578	10.31
234.795	12.01
235.012	11.09
235.229	10.27
235.446	11.32
235.663	9.26
235.879	14.31
236.096	19.59
236.313	21.37
236.53	21.89
236.747	23.19
236.964	23.77
237.181	27.73
237.397	33.69
237.614	36.29
237.831	37.37
238.048	41.43
238.264	35.14
238.481	32.92
238.698	35.63
238.915	35.7
239.131	33.68
239.348	33.09
239.565	30.76
239.781	25.56
239.998	22.32
240.215	16.96
240.431	13.3
240.648	14.26
240.865	12.2
241.081	11.59
241.298	13.39
241.514	13.95
241.731	13.07
241.947	11.36
242.164	13.97
242.38	14.03
242.597	14.77
242.814	15.82
243.03	17.18
243.246	17.06
243.463	16.47
243.679	17.25
243.896	16.11
244.112	16.35
244.329	18.53
244.545	17.25
244.762	18.06
244.978	16.93
245.194	15.34
245.411	13.13
245.627	12.21
245.843	12.79
246.06	12.48
246.276	12.51
246.492	12.38
246.709	10.97
246.925	10
247.141	9.77
247.357	10.32
247.574	10.17
247.79	9.51
248.006	10.13
248.222	10.11
248.439	8.41
248.655	8.79
248.871	8.53
249.087	8.3
249.303	10.41
249.519	10.14
249.736	10.51
249.952	11.31
250.168	12.46
250.384	11.22
250.6	12.14
250.816	14.29
251.032	13.3
251.248	13.41
251.464	12.87
251.68	9.67
251.896	8.96
252.112	8.61
252.328	7.48
252.544	7.27
252.76	7.93
252.976	6.73
253.192	6.35
253.408	5.22
253.624	4.72
253.84	4.72
254.056	3.77
254.272	5.67
254.487	6.07
254.703	8.88
254.919	9.56
255.135	9.33
255.351	12.3
255.567	11.9
255.782	12.06
255.998	13.32
256.214	12.48
256.43	11.93
256.646	10.42
256.861	9.47
257.077	6.9
257.293	4.8
257.508	7.08
257.724	5.67
257.94	6.83
258.155	9.09
258.371	8.65
258.587	9.05
258.802	10.01
259.018	11.59
259.234	10.91
259.449	11.15
259.665	11.2
259.88	10.6
260.096	10.27
260.312	10.54
260.527	10.24
260.743	10.32
260.958	10.48
261.174	10.59
261.389	9.7
261.605	10.13
261.82	10.35
262.036	11.69
262.251	10.94
262.466	13.05
262.682	12.66
262.897	12.86
263.113	13.74
263.328	14.75
263.543	15.35
263.759	13.74
263.974	12.51
264.189	12.92
264.405	13.2
264.62	15.17
264.835	11.58
265.051	11.85
265.266	13.57
265.481	13.22
265.696	12.51
265.912	13.04
266.127	13.92
266.342	15.66
266.557	14.44
266.773	11.5
266.988	11.37
267.203	11.37
267.418	10.68
267.633	8.69
267.848	7.33
268.064	7.42
268.279	5.62
268.494	5.8
268.709	4.81
268.924	5.81
269.139	6.73
269.354	6.38
269.569	6.59
269.784	6.55
269.999	7.36
270.214	8.99
270.429	8.91
270.644	9.45
270.859	10.43
271.074	10.2
271.289	9.56
271.504	10
271.719	9.89
271.934	10.42
272.149	10.1
272.363	9.25
272.578	9.55
272.793	9.16
273.008	9.3
273.223	7.74
273.438	7.6
273.653	7.24
273.867	6.37
274.082	6.07
274.297	6.26
274.512	7.33
274.726	7.9
274.941	8.02
275.156	8.58
275.371	8.15
275.585	8.81
275.8	9.37
276.015	9.23
276.229	8.95
276.444	9.05
276.659	7.5
276.873	6.78
277.088	7.64
277.302	6.31
277.517	5.73
277.732	6.96
277.946	7.99
278.161	7.92
278.375	8.37
278.59	10.13
278.804	10.56
279.019	12.99
279.233	12.24
279.448	11.9
279.662	12.12
279.877	12.47
280.091	11.02
280.306	10.48
280.52	10.58
280.735	9.71
280.949	9.82
281.163	10.49
281.378	9.74
281.592	10.75
281.806	10.11
282.021	10.18
282.235	8.95
282.449	9.89
282.664	9.39
282.878	9.19
283.092	10.83
283.307	10.99
283.521	10.72
283.735	10.38
283.949	8.45
284.164	7.62
284.378	6.94
284.592	8.05
284.806	7.84
285.02	9.6
285.234	9.58
285.449	8.65
285.663	8.53
285.877	7.59
286.091	8.55
286.305	9.7
286.519	10.59
286.733	11.66
286.947	11.44
287.161	11.6
287.375	10.94
287.589	10.66
287.803	10.98
288.017	11.12
288.231	11.02
288.445	10.4
288.659	9.39
288.873	9.58
289.087	7.19
289.301	7.38
289.515	6.94
289.729	6.96
289.943	8.41
290.157	8.42
290.371	8.43
290.584	8.38
290.798	8.21
291.012	10.36
291.226	9.6
291.44	10.49
291.654	10.52
291.867	10.79
292.081	9.01
292.295	8.12
292.509	7.97
292.722	7.43
292.936	8.43
293.15	8.38
293.364	7.53
293.577	8.72
293.791	9.29
294.005	11.13
294.218	10.79
294.432	11.86
294.645	11.81
294.859	12.14
295.073	13.07
295.286	13.6
295.5	12.69
295.713	11.89
295.927	11.96
296.14	12.4
296.354	10.75
296.568	10.36
296.781	10.97
296.994	11.4
297.208	11.21
297.421	10.59
297.635	10.49
297.848	10.44
298.062	11.06
298.275	10.17
298.489	10.51
298.702	10.98
298.915	11.16
299.129	10.62
299.342	10.01
299.555	10.44
299.769	10.84
299.982	9.94
300.195	10.45
300.409	10.45
300.622	11.49
300.835	10.73
301.048	11.55
301.262	11.29
301.475	11.79
301.688	12.01
301.901	11.86
302.115	10.72
302.328	11.13
302.541	10.73
302.754	9.87
302.967	10.36
303.18	10.1
303.393	8.95
303.607	8.51
303.82	8.89
304.033	8.74
304.246	8.36
304.459	10.16
304.672	10.65
304.885	11.69
305.098	11.92
305.311	10.84
305.524	10.85
305.737	10.71
305.95	11.85
306.163	11.09
306.376	11.22
306.589	10.89
306.802	9.75
307.015	7.79
307.228	6.83
307.44	6.36
307.653	6.3
307.866	5.29
308.079	5.71
308.292	6.21
308.505	7.15
308.718	8.77
308.93	9.25
309.143	9.33
309.356	11.58
309.569	11.49
309.781	11.84
309.994	12
310.207	12.96
310.42	13.76
310.632	12.85
310.845	13
311.058	11.49
311.27	10.88
311.483	11.04
311.696	11.24
311.908	11.24
312.121	11.26
312.333	10.94
312.546	10.26
312.759	9.3
312.971	10.43
313.184	10.07
313.396	10.05
313.609	10.55
313.821	10.06
314.034	8.97
314.246	10.64
314.459	12.29
314.671	12.8
314.884	12.72
315.096	14.46
315.309	15.14
315.521	15.33
315.733	16.79
315.946	17.36
316.158	17.48
316.371	17.25
316.583	16.31
316.795	15.51
317.008	15.26
317.22	16.91
317.432	15.67
317.644	15.43
317.857	15.38
318.069	14.1
318.281	13.47
318.494	15.36
318.706	15.8
318.918	16.62
319.13	15.42
319.342	15.09
319.555	14.81
319.767	13.11
319.979	11.46
320.191	11.84
320.403	13.65
320.615	12.71
320.827	11.61
321.039	9.63
321.252	9.86
321.464	9.86
321.676	10.98
321.888	10.67
322.1	13.72
322.312	14.7
322.524	13.47
322.736	11.46
322.948	11.11
323.16	10.15
323.372	11.79
323.584	10.16
323.796	11
324.007	9.38
324.219	8.23
324.431	7.84
324.643	7.15
324.855	7.33
325.067	8.32
325.279	10.99
325.491	11.18
325.702	9.85
325.914	9.98
326.126	9.65
326.338	11.36
326.55	11.74
326.761	10.92
326.973	11.4
327.185	11.94
327.396	10.84
327.608	9.28
327.82	9.66
328.032	10.58
328.243	11.33
328.455	11.85
328.666	10.45
328.878	11.46
329.09	12.55
329.301	12.29
329.513	13.4
329.725	15.04
329.936	15.53
330.148	15.58
330.359	16.28
330.571	16.93
330.782	15.48
330.994	17.41
331.205	17.01
331.417	16.61
331.628	16.85
331.84	16.98
332.051	15.31
332.262	15.29
332.474	15.99
332.685	14.7
332.897	14.15
333.108	16.07
333.319	15.38
333.531	15.26
333.742	15.53
333.953	15.91
334.165	14.35
334.376	14.81
334.587	14.4
334.799	13.94
335.01	14.53
335.221	15.04
335.432	13.18
335.644	13.78
335.855	12.64
336.066	12.92
336.277	12.07
336.488	12.63
336.7	12.77
336.911	13.27
337.122	13.66
337.333	14.04
337.544	13.39
337.755	14.39
337.966	13.14
338.177	14.12
338.388	13.25
338.599	13.66
338.811	14.23
339.022	14.71
339.233	14.94
339.444	14.91
339.655	14.28
339.866	14.59
340.076	15.4
340.287	16.72
340.498	17.58
340.709	17.21
340.92	17.9
341.131	18.1
341.342	19.35
341.553	17.9
341.764	17.71
341.975	17.37
342.185	17.14
342.396	16.29
342.607	15.97
342.818	15.47
343.029	16.57
343.239	14.98
343.45	13.78
343.661	12.21
343.872	12.96
344.082	12.95
344.293	13.63
344.504	14.06
344.714	13.27
344.925	12.34
345.136	11.26
345.346	10.91
345.557	10.9
345.768	10.37
345.978	11.08
346.189	11.28
346.399	11
346.61	11.19
346.821	10.34
347.031	10.68
347.242	10.24
347.452	11.59
347.663	10.51
347.873	11.42
348.084	12.03
348.294	12.11
348.504	11.75
348.715	11.23
348.925	11.46
349.136	11.62
349.346	11.04
349.557	12.3
349.767	11.86
349.977	12.69
350.188	13.06
350.398	13.56
350.608	13.03
350.819	13.28
351.029	13.36
351.239	13.1
351.449	13.44
351.66	14.67
351.87	15.01
352.08	15.04
352.29	14.29
352.501	15.01
352.711	14.83
352.921	14.69
353.131	14.33
353.341	14.45
353.552	14.12
353.762	14.27
353.972	13.51
354.182	13.25
354.392	13.25
354.602	14.37
354.812	13.25
355.022	12.69
355.232	11.59
355.442	12.52
355.652	13.02
355.862	13.14
356.072	12.61
356.282	13.52
356.492	13.47
356.702	12.94
356.912	12.37
357.122	12.36
357.332	13.51
357.542	14.79
357.752	14.4
357.962	13.54
358.171	13.77
358.381	13.86
358.591	13.64
358.801	13.34
359.011	14.43
359.221	14.64
359.43	14.62
359.64	13.32
359.85	13.1
360.06	12.99
360.269	14.11
360.479	13.69
360.689	14.66
360.899	13.87
361.108	13.73
361.318	13.17
361.528	13.61
361.737	13.57
361.947	13.76
362.156	13.21
362.366	13.32
362.576	12.59
362.785	12.72
362.995	12.37
363.204	12.91
363.414	13.56
363.623	13.57
363.833	12.55
364.042	12.24
364.252	12.82
364.461	12.33
364.671	11.82
364.88	11.05
365.09	10.87
365.299	10.34
365.509	9.71
365.718	8.41
365.927	8.39
366.137	8.57
366.346	8.8
366.555	7.94
366.765	8.24
366.974	8.3
367.183	8.34
367.393	8.54
367.602	8.75
367.811	8.89
368.021	9.64
368.23	9.95
368.439	9.99
368.648	10.65
368.857	11.03
369.067	10.88
369.276	10.59
369.485	10.91
369.694	10.54
369.903	10.46
370.112	11.21
370.321	10.62
370.531	9.67
370.74	9.29
370.949	8.67
371.158	8.5
371.367	9.46
371.576	9.5
371.785	10.22
371.994	10.69
372.203	10.78
372.412	10.33
372.621	11.46
372.83	11.55
373.039	12.14
373.248	12.12
373.457	11.96
373.666	11.46
373.874	11.53
374.083	10.7
374.292	10.4
374.501	9.52
374.71	9.31
374.919	8.82
375.128	9.07
375.336	8.69
375.545	8.74
375.754	8.4
375.963	8.3
376.171	8.49
376.38	9.19
376.589	8.94
376.798	9.86
377.006	9.78
377.215	9.36
377.424	9.42
377.632	9.66
377.841	9.05
378.05	9.6
378.258	9.85
378.467	9.96
378.675	9.54
378.884	9.71
379.093	9.33
379.301	9.3
379.51	9.42
379.718	9.4
379.927	9.22
380.135	9.7
380.344	9.4
380.552	9.9
380.761	9.47
380.969	9.28
381.177	8.8
381.386	8.84
381.594	9.26
381.803	9.43
382.011	9.01
382.219	8.92
382.428	8.88
382.636	9.05
382.845	8.38
383.053	8.2
383.261	8.68
383.469	9
383.678	8.92
383.886	8.53
384.094	8.28
384.302	8.67
384.511	8.77
384.719	8.77
384.927	8.15
385.135	7.94
385.343	8.19
385.552	7.95
385.76	7.99
385.968	7.85
386.176	7.99
386.384	8.16
386.592	7.71
386.8	7.42
387.008	7.1
387.216	7.7
387.424	7.76
387.633	7.56
387.841	7.81
388.049	7.93
388.257	7.86
388.465	7.89
388.672	7.4
388.88	7.87
389.088	7.7
389.296	8.3
389.504	8.22
389.712	8.09
389.92	8.13
390.128	7.41
390.336	7.1
390.544	7.08
390.751	7.1
390.959	7.61
391.167	7.42
391.375	7.8
391.583	7.49
391.79	7.35
391.998	7.51
392.206	7.67
392.414	8.45
392.621	8.36
392.829	8.18
393.037	7.82
393.244	7.48
393.452	7.81
393.66	7.99
393.867	7.74
394.075	7.87
394.283	7.84
394.49	7.55
394.698	7.09
394.905	7.17
395.113	7.21
395.32	7.27
395.528	7.41
395.735	6.93
395.943	7.08
396.15	7.2
396.358	7.02
396.565	6.88
396.773	7.33
396.98	7.63
397.188	7.67
397.395	8.15
397.602	8.01
397.81	8.07
398.017	8.47
398.225	7.71
398.432	7.84
398.639	7.88
398.847	7.72
399.054	7.57
399.261	7.28
399.468	7.33
399.676	6.8
399.883	6.91
400.09	6.81
400.297	6.71
400.505	7.42
400.712	7.26
400.919	7.39
401.126	7.38
401.333	7.23
401.54	7.11
401.748	7.09
401.955	7.28
402.162	7.34
402.369	7.11
402.576	7.27
402.783	6.71
402.99	6.48
403.197	6.11
403.404	6.08
403.611	6.06
403.818	5.89
404.025	5.92
404.232	5.82
404.439	6.04
404.646	6.19
404.853	5.77
405.06	5.58
405.267	5.82
405.474	5.92
405.681	6.21
405.887	6.28
406.094	6.71
406.301	6.6
406.508	6.65
406.715	6.31
406.922	6.31
407.128	6.25
407.335	6.53
407.542	6.64
407.749	6.65
407.955	6.45
408.162	6.1
408.369	5.72
408.575	5.68
408.782	5.21
408.989	5.38
409.195	5.05
409.402	5.09
409.609	5.25
409.815	5.3
410.022	5.31
410.228	5.43
410.435	5.78
410.642	6.2
410.848	6.2
411.055	6.5
411.261	6.54
411.468	6.5
411.674	6.57
411.881	6.36
412.087	6.28
412.294	6.22
412.5	6.31
412.706	6.49
412.913	6.25
413.119	6.53
413.326	6.47
413.532	6.36
413.738	6.59
413.945	6.6
414.151	6.79
414.357	6.72
414.564	6.73
414.77	6.49
414.976	6.23
415.182	5.97
415.389	5.81
415.595	5.92
415.801	5.78
416.007	5.55
416.214	5.26
416.42	5.11
416.626	5.21
416.832	5.26
417.038	5.19
417.244	5.17
417.45	5.36
417.657	5.28
417.863	5.37
418.069	5.36
418.275	5.54
418.481	5.86
418.687	5.69
418.893	5.7
419.099	5.67
419.305	5.82
419.511	5.72
419.717	5.67
419.923	5.62
420.129	5.49
420.335	5.4
420.541	5.36
420.746	5.24
420.952	5.32
421.158	5.28
421.364	5.37
421.57	5.16
421.776	5.23
421.982	5.25
422.187	5.28
422.393	5.25
422.599	5.44
422.805	5.46
423.01	5.31
423.216	5.26
423.422	5.15
423.628	5.01
423.833	5.13
424.039	5.09
424.245	5.04
424.45	4.96
424.656	5.02
424.862	5.02
425.067	4.97
425.273	5.18
425.478	5.25
425.684	5.15
425.889	5.14
426.095	5.07
426.301	5.09
426.506	5.14
426.712	5.17
426.917	5.08
427.123	4.96
427.328	5.03
427.533	4.9
427.739	4.75
427.944	4.96
428.15	4.81
428.355	4.88
428.561	4.77
428.766	4.6
428.971	4.77
429.177	4.65
429.382	4.54
429.587	4.38
429.793	4.36
429.998	4.61
430.203	4.37
430.408	4.49
430.614	4.41
430.819	4.43
431.024	4.52
431.229	4.37
431.434	4.58
431.64	4.7
431.845	4.83
432.05	4.88
432.255	4.71
432.46	4.79
432.665	4.97
432.87	5.02
433.076	4.98
433.281	4.84
433.486	4.85
433.691	4.97
433.896	5.01
434.101	4.89
434.306	4.95
434.511	4.97
434.716	5.02
434.921	4.95
435.126	5.13
435.331	5.25
435.535	5.39
435.74	5.25
435.945	5.23
436.15	5.06
436.355	5.25
436.56	5.12
436.765	5.14
436.97	5.17
437.174	5.13
437.379	5.02
437.584	5.06
437.789	4.87
437.993	5.17
438.198	5.05
438.403	5.19
438.608	5.04
438.812	5
439.017	4.93
439.222	5.07
439.426	5.06
439.631	4.78
439.836	4.66
440.04	4.85
440.245	4.68
440.45	4.73
440.654	4.65
440.859	4.64
441.063	4.82
441.268	4.8
441.472	4.68
441.677	4.73
441.881	4.78
442.086	4.79
442.29	4.72
442.495	4.79
442.699	4.77
442.904	4.78
443.108	4.93
443.312	4.91
443.517	5.03
443.721	4.88
443.925	4.87
444.13	4.99
444.334	4.95
444.538	4.99
444.743	4.8
444.947	4.82
445.151	4.75
445.356	4.64
445.56	4.57
445.764	4.53
445.968	4.65
446.173	4.53
446.377	4.54
446.581	4.63
446.785	4.64
446.989	4.73
447.193	4.73
447.398	4.67
447.602	4.74
447.806	4.79
448.01	4.85
448.214	4.77
448.418	4.86
448.622	4.85
448.826	4.83
449.03	4.84
449.234	4.93
449.438	5.06
449.642	5.18
449.846	5.16
450.05	5.02
450.254	4.93
450.458	5.13
450.662	5.09
450.866	5.08
451.069	5.16
451.273	5.1
451.477	5.05
451.681	4.86
451.885	4.83
452.089	4.66
452.292	4.76
452.496	4.81
452.7	4.64
452.904	4.71
453.107	4.63
453.311	4.55
453.515	4.69
453.719	4.6
453.922	4.61
454.126	4.65
454.33	4.72
454.533	4.57
454.737	4.48
454.94	4.56
455.144	4.75
455.348	4.91
455.551	4.93
455.755	4.75
455.958	4.7
456.162	4.49
456.365	4.3
456.569	4.21
456.772	4.38
456.976	4.51
457.179	4.47
457.383	4.19
457.586	4.14
457.79	4.08
457.993	4.14
458.196	4.26
458.4	4.44
458.603	4.63
458.807	4.55
459.01	4.55
459.213	4.57
459.417	4.56
459.62	4.7
459.823	4.85
460.026	4.88
460.23	4.79
460.433	4.74
460.636	4.68
460.839	4.82
461.042	4.96
461.246	4.93
461.449	4.79
461.652	4.84
461.855	4.68
462.058	4.42
462.261	4.43
462.464	4.53
462.668	4.45
462.871	4.54
463.074	4.23
463.277	4.33
463.48	4.52
463.683	4.7
463.886	4.6
464.089	4.7
464.292	4.79
464.495	4.82
