Data from 2938087_Reflection_2.txt Node
Date: Sat Jul 11 19:30:45 EDT 2015
User: robert
Spectrometer: USB4E03001
Autoset integration time: false
Trigger mode: 4
Integration Time (sec): 1.000000E-1
Scans to average: 10
Electric dark correction enabled: true
Nonlinearity correction enabled: false
Boxcar width: 5
Stray light correction enabled: false
XAxis mode: Wavelengths
Stop averaging: false
Number of Pixels in Spectrum: 3648
>>>>>Begin Spectral Data<<<<<
177.566	172.4
177.785	104.83
178.005	21.88
178.225	-18.47
178.445	-17.9
178.665	39.05
178.885	-119.84
179.105	374.64
179.324	111.45
179.544	121.28
179.764	104.41
179.984	101.22
180.204	56.63
180.423	30.04
180.643	-8.02
180.863	25.99
181.083	103.58
181.302	158.12
181.522	278.44
181.742	-221.11
181.961	518.53
182.181	190.62
182.401	173.02
182.621	188.23
182.84	338.97
183.06	1231.58
183.279	-255.69
183.499	-384.67
183.719	-367.65
183.938	-72.65
184.158	1.81
184.377	22.94
184.597	-3.01
184.816	-26.13
185.036	-68.29
185.256	-167.88
185.475	-231.26
185.695	-131.86
185.914	-180.37
186.134	-76.57
186.353	-179.25
186.572	-288.15
186.792	-91.9
187.011	-81.93
187.231	-34.49
187.45	-19.97
187.67	8.91
187.889	-16.93
188.108	-60.42
188.328	-127.24
188.547	972.66
188.766	158.28
188.986	98.57
189.205	65.95
189.424	49.07
189.644	63.6
189.863	66.45
190.082	100.67
190.302	100.96
190.521	77.5
190.74	72
190.959	84.75
191.178	102.17
191.398	1654.55
191.617	58.09
191.836	-0
192.055	-281.08
192.274	164.72
192.494	92.25
192.713	100.54
192.932	96.07
193.151	151.46
193.37	166.35
193.589	1470.4
193.808	817.76
194.027	-1741.31
194.246	-4399.44
194.465	-230.29
194.685	-92.76
194.904	-31.16
195.123	-79.15
195.342	5.49
195.561	-34.91
195.78	38.56
195.999	-96.85
196.218	433.33
196.436	21.92
196.655	108.33
196.874	137.91
197.093	114.82
197.312	301.75
197.531	400.64
197.75	964.04
197.969	-11.03
198.188	-69.2
198.407	-18.77
198.625	-34.96
198.844	-82.77
199.063	-50.05
199.282	-11.88
199.501	-30.28
199.719	-14.96
199.938	15.91
200.157	11.96
200.376	-8.2
200.594	123.26
200.813	235.55
201.032	214.71
201.251	232.46
201.469	-9016.13
201.688	-101.84
201.907	-13.13
202.125	7.41
202.344	293.61
202.563	149.47
202.781	1800.5
203	112320
203.218	5936.14
203.437	-677.4
203.656	-152.16
203.874	-130.46
204.093	-42.86
204.311	-39.77
204.53	-83.05
204.748	-71.08
204.967	-89.72
205.185	-43.12
205.404	-25.61
205.622	-51.2
205.841	-77.07
206.059	-125.37
206.278	-111.06
206.496	-675.37
206.715	-204.82
206.933	-64.3
207.151	-114.91
207.37	-119.48
207.588	-236.19
207.806	-585.84
208.025	2682.73
208.243	-239.67
208.461	-150.29
208.68	-146.69
208.898	6.01
209.116	-9.77
209.335	-206.92
209.553	-3470.54
209.771	-487.84
209.989	2879.26
210.208	-183.1
210.426	53.97
210.644	-2208.22
210.862	507.32
211.081	-310.68
211.299	151.65
211.517	149.97
211.735	376.26
211.953	1110.11
212.171	188.09
212.39	-216.99
212.608	-613
212.826	-422.82
213.044	-184.9
213.262	-454.47
213.48	1057.72
213.698	-132.31
213.916	-65.61
214.134	-75.85
214.352	-15.87
214.57	-0.94
214.788	-55.94
215.006	-8.65
215.224	-64.78
215.442	-22.86
215.66	16.6
215.878	12.04
216.096	57.3
216.314	57.71
216.532	40.65
216.75	272.31
216.968	43.41
217.185	18.34
217.403	-2.95
217.621	-777.87
217.839	-445.71
218.057	-257.43
218.275	2245.45
218.492	263.46
218.71	219.51
218.928	168.28
219.146	94
219.363	105.26
219.581	71.18
219.799	44.43
220.017	26.83
220.234	-22.33
220.452	-50.4
220.67	-268.39
220.887	2341.61
221.105	-420.52
221.323	-677.89
221.54	-356.8
221.758	-56.38
221.976	-69.62
222.193	9.77
222.411	-126.39
222.629	-466.86
222.846	-86.28
223.064	-46.85
223.281	-62.55
223.499	-82.77
223.716	-107.48
223.934	-128.74
224.151	-221.39
224.369	-260.3
224.586	-390
224.804	-566
225.021	-389.45
225.239	676.45
225.456	-918.44
225.674	-180.35
225.891	-139.29
226.108	-27.28
226.326	-60.44
226.543	-13.91
226.76	1.16
226.978	-17.39
227.195	-3.35
227.413	1.1
227.63	0.48
227.847	0.41
228.064	-1.25
228.282	-1.17
228.499	6.04
228.716	8.19
228.934	2.35
229.151	1.59
229.368	6.98
229.585	13.25
229.802	13.36
230.02	12.9
230.237	9.25
230.454	9.52
230.671	11.23
230.888	7.26
231.105	6.76
231.323	12.44
231.54	14.41
231.757	12.87
231.974	16.96
232.191	12.12
232.408	0.95
232.625	0.81
232.842	6.35
233.059	3.65
233.276	1.15
233.493	-2.24
233.71	-11.84
233.927	-14.75
234.144	-22.75
234.361	-33.71
234.578	-36.45
234.795	-22
235.012	-22.15
235.229	-26.41
235.446	-31.2
235.663	-19.07
235.879	-20.1
236.096	-14.84
236.313	-17
236.53	-6.4
236.747	-14.34
236.964	-22.06
237.181	-24.65
237.397	-22.07
237.614	-25.03
237.831	-22.11
238.048	-31.36
238.264	-20.76
238.481	-16.75
238.698	-12.29
238.915	-20.96
239.131	-8.23
239.348	-4.37
239.565	-4.01
239.781	-3.42
239.998	-4.86
240.215	3.93
240.431	2.23
240.648	5.53
240.865	5.52
241.081	7.3
241.298	9.3
241.514	5.26
241.731	7.22
241.947	7.64
242.164	5.61
242.38	8.15
242.597	6.1
242.814	7.13
243.03	7.07
243.246	4.69
243.463	4.72
243.679	4.25
243.896	8.71
244.112	9.1
244.329	11.21
244.545	14.99
244.762	13.78
244.978	13.63
245.194	11.65
245.411	8.69
245.627	10.74
245.843	8.79
246.06	9.31
246.276	8.85
246.492	9.04
246.709	8.81
246.925	9.66
247.141	10.87
247.357	11.4
247.574	12.1
247.79	12.23
248.006	12.65
248.222	13.1
248.439	13.47
248.655	12.45
248.871	12
249.087	10.75
249.303	9.75
249.519	8.33
249.736	7.47
249.952	7.8
250.168	8.79
250.384	6.99
250.6	6.04
250.816	4.65
251.032	6.5
251.248	7.01
251.464	9.48
251.68	8.88
251.896	9.87
252.112	7.84
252.328	6.92
252.544	6.07
252.76	8.31
252.976	7
253.192	5.91
253.408	3.66
253.624	4.38
253.84	2.9
254.056	2.63
254.272	2.54
254.487	6.1
254.703	5.78
254.919	9.29
255.135	9.38
255.351	11.13
255.567	11.68
255.782	16.47
255.998	17.82
256.214	18.13
256.43	14.85
256.646	12.13
256.861	9.9
257.077	10.23
257.293	9.49
257.508	8.74
257.724	10.54
257.94	11.17
258.155	10.33
258.371	9.32
258.587	9.59
258.802	11.82
259.018	12.09
259.234	12.15
259.449	11.29
259.665	10.11
259.88	10.18
260.096	10.09
260.312	9.69
260.527	9.02
260.743	8.02
260.958	7.6
261.174	6.4
261.389	5.69
261.605	4.27
261.82	4.06
262.036	3.53
262.251	3.06
262.466	3.13
262.682	1.87
262.897	0.1
263.113	1.23
263.328	0.75
263.543	2.99
263.759	3.06
263.974	4.61
264.189	6.23
264.405	5.27
264.62	5.29
264.835	5.66
265.051	6.14
265.266	10.47
265.481	13.3
265.696	13.65
265.912	13.44
266.127	16.65
266.342	17.42
266.557	13.79
266.773	15.73
266.988	13.72
267.203	11.45
267.418	12.95
267.633	11.93
267.848	9.37
268.064	9.03
268.279	8.27
268.494	4.35
268.709	3.04
268.924	5.42
269.139	3.99
269.354	6.91
269.569	8.14
269.784	6.91
269.999	6.31
270.214	7.15
270.429	6.7
270.644	4.42
270.859	4.55
271.074	5.82
271.289	6.02
271.504	5.16
271.719	4.73
271.934	5.38
272.149	5.46
272.363	4.55
272.578	4.15
272.793	5.03
273.008	6.23
273.223	7.06
273.438	6.73
273.653	7.17
273.867	8.52
274.082	8.31
274.297	7.49
274.512	7.86
274.726	10.57
274.941	9.57
275.156	9.89
275.371	8.88
275.585	9.39
275.8	9.91
276.015	8.3
276.229	8.33
276.444	8.79
276.659	9.96
276.873	8.96
277.088	7.74
277.302	10.19
277.517	8.19
277.732	7.82
277.946	5.53
278.161	4.04
278.375	4.39
278.59	4.71
278.804	4.01
279.019	0.64
279.233	1.85
279.448	2.97
279.662	3
279.877	3.86
280.091	6.68
280.306	8.68
280.52	10.21
280.735	11.16
280.949	10.63
281.163	9.39
281.378	11.07
281.592	10.05
281.806	7.61
282.021	5.94
282.235	7.09
282.449	5.96
282.664	6.8
282.878	6.99
283.092	8.44
283.307	8.14
283.521	8.2
283.735	7.56
283.949	6.55
284.164	7.87
284.378	8.84
284.592	9.47
284.806	10.02
285.02	10.1
285.234	7.91
285.449	5.04
285.663	5.65
285.877	6.16
286.091	5.96
286.305	7.51
286.519	7.23
286.733	7.14
286.947	5.31
287.161	6.41
287.375	6.04
287.589	7.59
287.803	7.49
288.017	7.65
288.231	7.27
288.445	8.97
288.659	8.11
288.873	9.03
289.087	8.67
289.301	11.3
289.515	11.17
289.729	10.03
289.943	10.24
290.157	11.6
290.371	11.32
290.584	13.13
290.798	13.09
291.012	13.31
291.226	12.9
291.44	12.04
291.654	9.96
291.867	8.35
292.081	8.77
292.295	8.69
292.509	9.63
292.722	9.07
292.936	8.18
293.15	6.19
293.364	8.34
293.577	7.38
293.791	8.53
294.005	9.69
294.218	9.33
294.432	11.18
294.645	9.8
294.859	7.74
295.073	7.65
295.286	8.13
295.5	10.29
295.713	8.84
295.927	9.66
296.14	10.23
296.354	10.36
296.568	11.2
296.781	9.64
296.994	11.01
297.208	11.6
297.421	12.2
297.635	12.13
297.848	11.27
298.062	10.8
298.275	10.27
298.489	10.46
298.702	9.97
298.915	9.23
299.129	9.18
299.342	8.91
299.555	8.87
299.769	7.81
299.982	8.65
300.195	8.08
300.409	8.45
300.622	6.98
300.835	7.12
301.048	6.45
301.262	6.87
301.475	7.77
301.688	6.59
301.901	6.68
302.115	7.91
302.328	5.12
302.541	4.59
302.754	3.52
302.967	6.94
303.18	7.23
303.393	7.38
303.607	7.74
303.82	6.17
304.033	6.49
304.246	5.75
304.459	5.51
304.672	6.51
304.885	8.17
305.098	11.57
305.311	11.25
305.524	8.53
305.737	8.95
305.95	8.63
306.163	9.96
306.376	11.27
306.589	12.2
306.802	11.11
307.015	10.57
307.228	9.72
307.44	6.97
307.653	7.73
307.866	7.27
308.079	9.4
308.292	9.7
308.505	8.94
308.718	8.22
308.93	9.65
309.143	9.43
309.356	10.51
309.569	9.2
309.781	11
309.994	9.96
310.207	10.91
310.42	8.7
310.632	10.39
310.845	10.67
311.058	11.67
311.27	11.42
311.483	12.56
311.696	12.01
311.908	13.39
312.121	12.52
312.333	13.12
312.546	14.34
312.759	14.69
312.971	12.86
313.184	12.42
313.396	12.11
313.609	11.84
313.821	11.81
314.034	11.18
314.246	10.69
314.459	10.76
314.671	9.52
314.884	7.35
315.096	6.54
315.309	6.97
315.521	7.7
315.733	8.48
315.946	8.03
316.158	8.58
316.371	9.33
316.583	7.64
316.795	8.62
317.008	11.03
317.22	11.29
317.432	12.8
317.644	13.92
317.857	13.04
318.069	9.83
318.281	8.87
318.494	6.32
318.706	5.65
318.918	8.94
319.13	6.83
319.342	5.08
319.555	8.14
319.767	7.67
319.979	5.57
320.191	7.12
320.403	7.07
320.615	6.83
320.827	9.5
321.039	9.66
321.252	8.29
321.464	8.44
321.676	6.48
321.888	5
322.1	3.71
322.312	4.64
322.524	4.57
322.736	5.27
322.948	5.98
323.16	5.6
323.372	6.84
323.584	6.59
323.796	9.37
324.007	8.81
324.219	8.12
324.431	10.29
324.643	10.2
324.855	11.2
325.067	12.28
325.279	11.18
325.491	11.13
325.702	10.08
325.914	9.78
326.126	8.81
326.338	11.15
326.55	12.21
326.761	11.77
326.973	11.35
327.185	9.02
327.396	8.56
327.608	10.84
327.82	10.67
328.032	11.39
328.243	12.67
328.455	12.54
328.666	11.85
328.878	11.69
329.09	12.4
329.301	13.32
329.513	14.1
329.725	13.95
329.936	12.7
330.148	13.41
330.359	12.71
330.571	12.7
330.782	12.11
330.994	12.53
331.205	13.2
331.417	13.25
331.628	12.08
331.84	11.46
332.051	11.23
332.262	10.11
332.474	10.1
332.685	10.3
332.897	9.19
333.108	8.9
333.319	8.2
333.531	6.14
333.742	6.01
333.953	6.36
334.165	5.53
334.376	6.73
334.587	7.08
334.799	7.31
335.01	8.73
335.221	9.48
335.432	9.17
335.644	9.12
335.855	10.15
336.066	9.11
336.277	8.21
336.488	10.05
336.7	9.84
336.911	11.56
337.122	10.59
337.333	8.41
337.544	8.3
337.755	8.22
337.966	7.18
338.177	8.43
338.388	8.5
338.599	10.35
338.811	10.26
339.022	8.48
339.233	7.1
339.444	7.47
339.655	9
339.866	9.6
340.076	10.27
340.287	12.88
340.498	11.74
340.709	11.65
340.92	10.19
341.131	9.88
341.342	10.98
341.553	11.78
341.764	12.01
341.975	11.22
342.185	11.09
342.396	10.53
342.607	10.55
342.818	9.61
343.029	9.64
343.239	10.41
343.45	10.24
343.661	9.14
343.872	8.54
344.082	7.42
344.293	7.25
344.504	7.17
344.714	7.82
344.925	7.72
345.136	9.4
345.346	9.41
345.557	10.3
345.768	10.76
345.978	11.86
346.189	11.99
346.399	12.93
346.61	13.63
346.821	13.19
347.031	14.14
347.242	12.43
347.452	12.49
347.663	12.74
347.873	11.84
348.084	11.15
348.294	11.67
348.504	11.14
348.715	11.06
348.925	10.38
349.136	10.09
349.346	9.73
349.557	10.53
349.767	9.14
349.977	8.92
350.188	9.68
350.398	10.27
350.608	10.27
350.819	10.77
351.029	10.94
351.239	12.69
351.449	13.12
351.66	11.92
351.87	12.88
352.08	13.63
352.29	14.17
352.501	13.21
352.711	13.63
352.921	12.75
353.131	13.67
353.341	12.91
353.552	13.11
353.762	13.45
353.972	14.17
354.182	13.54
354.392	13.46
354.602	13.81
354.812	14.01
355.022	13.78
355.232	14.23
355.442	13.63
355.652	13.48
355.862	11.25
356.072	9.92
356.282	10.46
356.492	10.48
356.702	10.01
356.912	8.33
357.122	7.95
357.332	6.95
357.542	7.25
357.752	7.19
357.962	8.02
358.171	9.34
358.381	9.7
358.591	7.77
358.801	7.91
359.011	8.51
359.221	10.23
359.43	10.93
359.64	11.93
359.85	11.46
360.06	11.51
360.269	10.68
360.479	9.61
360.689	9.76
360.899	10.65
361.108	10.15
361.318	10.01
361.528	9.44
361.737	9.59
361.947	9.35
362.156	9.12
362.366	8.61
362.576	9.58
362.785	10.24
362.995	10.83
363.204	10.68
363.414	10.1
363.623	10.26
363.833	10.18
364.042	9.92
364.252	9.28
364.461	10.49
364.671	11.67
364.88	11.22
365.09	11.13
365.299	10.98
365.509	11.97
365.718	13.07
365.927	13.18
366.137	13.1
366.346	13
366.555	13.9
366.765	12.72
366.974	11.98
367.183	11.69
367.393	11.62
367.602	10.92
367.811	9.84
368.021	9.51
368.23	9.25
368.439	8.62
368.648	8.1
368.857	8.62
369.067	9.15
369.276	9.66
369.485	10.01
369.694	9.82
369.903	10.18
370.112	10.76
370.321	10.38
370.531	10.7
370.74	11.11
370.949	11.13
371.158	10.29
371.367	9.52
371.576	9.44
371.785	9.18
371.994	9.57
372.203	9.14
372.412	8.53
372.621	9
372.83	7.86
373.039	8.03
373.248	7.66
373.457	7.87
373.666	8.64
373.874	8.39
374.083	8.3
374.292	8.6
374.501	8.55
374.71	8.74
374.919	8.68
375.128	8.98
375.336	8.97
375.545	9.75
375.754	9.35
375.963	9.01
376.171	9.13
376.38	8.77
376.589	8.75
376.798	8.55
377.006	8.84
377.215	8.15
377.424	8.45
377.632	8.96
377.841	8.65
378.05	8.72
378.258	9.22
378.467	8.66
378.675	8.77
378.884	8.46
379.093	9.04
379.301	7.97
379.51	8.26
379.718	7.98
379.927	7.43
380.135	7.94
380.344	7.35
380.552	6.42
380.761	6.58
380.969	6.31
381.177	5.8
381.386	5.78
381.594	6.62
381.803	7.38
382.011	7.8
382.219	7.68
382.428	7.22
382.636	7.84
382.845	7.29
383.053	7.19
383.261	8.37
383.469	8.29
383.678	8.49
383.886	8.22
384.094	7.72
384.302	7.43
384.511	6.76
384.719	6.99
384.927	6.44
385.135	7.74
385.343	7.8
385.552	7
385.76	7.86
385.968	7.27
386.176	6.99
386.384	7.05
386.592	6.67
386.8	7.02
387.008	5.97
387.216	6.13
387.424	5.7
387.633	6.05
387.841	5.94
388.049	5.22
388.257	5.45
388.465	5.57
388.672	5.61
388.88	6.16
389.088	6.61
389.296	7.11
389.504	6.98
389.712	6.79
389.92	6.32
390.128	6.45
390.336	6.57
390.544	5.96
390.751	6.19
390.959	5.85
391.167	5.4
391.375	5.12
391.583	5.21
391.79	5.51
391.998	5.52
392.206	5.37
392.414	5.15
392.621	5.19
392.829	5.46
393.037	5.68
393.244	5.8
393.452	5.93
393.66	5.78
393.867	5.64
394.075	5.32
394.283	5.38
394.49	5.51
394.698	5.66
394.905	5.42
395.113	5.27
395.32	4.65
395.528	4.45
395.735	4.26
395.943	4.52
396.15	4.39
396.358	4.65
396.565	4.52
396.773	4.34
396.98	4.22
397.188	4.55
397.395	4.5
397.602	4.49
397.81	4.77
398.017	4.94
398.225	4.91
398.432	5.1
398.639	5
398.847	5.03
399.054	5.13
399.261	5.36
399.468	5.24
399.676	5.57
399.883	5.74
400.09	5.53
400.297	5.45
400.505	5.26
400.712	4.84
400.919	4.76
401.126	4.51
401.333	4.78
401.54	4.45
401.748	4.14
401.955	4.06
402.162	4.2
402.369	4.27
402.576	4.59
402.783	4.81
402.99	5.34
403.197	5.55
403.404	5.86
403.611	5.48
403.818	5.7
404.025	5.48
404.232	5.22
404.439	5.1
404.646	5.27
404.853	4.9
405.06	4.85
405.267	4.6
405.474	4.32
405.681	4.16
405.887	4.12
406.094	4
406.301	4.15
406.508	4.62
406.715	4.74
406.922	4.53
407.128	4.66
407.335	4.32
407.542	4.44
407.749	4.67
407.955	4.59
408.162	4.59
408.369	4.39
408.575	4.64
408.782	4.14
408.989	4.07
409.195	4.51
409.402	4.34
409.609	4.67
409.815	4.77
410.022	4.88
410.228	4.87
410.435	4.79
410.642	4.77
410.848	4.8
411.055	4.82
411.261	4.69
411.468	4.14
411.674	4.35
411.881	4.17
412.087	3.92
412.294	3.87
412.5	3.79
412.706	4.14
412.913	4.49
413.119	4.31
413.326	4.41
413.532	4.65
413.738	4.8
413.945	4.7
414.151	4.98
414.357	4.96
414.564	4.77
414.77	5
414.976	4.99
415.182	4.96
415.389	4.7
415.595	4.69
415.801	4.68
416.007	4.75
416.214	4.61
416.42	4.38
416.626	4.49
416.832	4.46
417.038	4.27
417.244	4.23
417.45	4.23
417.657	4.47
417.863	4.55
418.069	4.48
418.275	4.54
418.481	4.64
418.687	4.59
418.893	4.48
419.099	4.6
419.305	4.68
419.511	4.68
419.717	4.57
419.923	4.47
420.129	4.51
420.335	4.53
420.541	4.53
420.746	4.53
420.952	4.71
421.158	4.81
421.364	4.76
421.57	4.73
421.776	4.75
421.982	4.79
422.187	4.82
422.393	4.83
422.599	4.91
422.805	4.77
423.01	4.87
423.216	4.67
423.422	4.68
423.628	4.57
423.833	4.59
424.039	4.56
424.245	4.53
424.45	4.63
424.656	4.6
424.862	4.47
425.067	4.72
425.273	4.68
425.478	4.67
425.684	4.69
425.889	4.89
426.095	4.97
426.301	4.98
426.506	4.83
426.712	4.62
426.917	4.51
427.123	4.6
427.328	4.36
427.533	4.44
427.739	4.73
427.944	4.62
428.15	4.56
428.355	4.59
428.561	4.51
428.766	4.48
428.971	4.73
429.177	4.85
429.382	4.58
429.587	4.6
429.793	4.33
429.998	4.31
430.203	4.43
430.408	4.38
430.614	4.3
430.819	4.17
431.024	4.27
431.229	4.2
431.434	4.21
431.64	4.38
431.845	4.32
432.05	4.26
432.255	4
432.46	4.01
432.665	3.94
432.87	3.99
433.076	4.17
433.281	4.15
433.486	4.4
433.691	4.34
433.896	4.36
434.101	4.51
434.306	4.67
434.511	4.75
434.716	4.63
434.921	4.73
435.126	4.71
435.331	4.71
435.535	4.85
435.74	4.56
435.945	4.74
436.15	4.9
436.355	4.79
436.56	4.69
436.765	4.61
436.97	4.63
437.174	4.46
437.379	4.39
437.584	4.39
437.789	4.3
437.993	4.37
438.198	4.09
438.403	3.93
438.608	3.83
438.812	3.9
439.017	3.91
439.222	3.81
439.426	3.87
439.631	3.9
439.836	3.85
440.04	4.08
440.245	4.08
440.45	4.08
440.654	4.07
440.859	4.16
441.063	4.19
441.268	4.17
441.472	4.19
441.677	4.26
441.881	4.19
442.086	4.15
442.29	4.19
442.495	3.96
442.699	4.06
442.904	3.96
443.108	4.04
443.312	3.99
443.517	3.87
443.721	4
443.925	3.98
444.13	4.03
444.334	4.11
444.538	4.17
444.743	4.26
444.947	4.28
445.151	4.37
445.356	4.23
445.56	4.11
445.764	4.24
445.968	4.24
446.173	4.25
446.377	4.23
446.581	4.17
446.785	4.01
446.989	4.12
447.193	4.26
447.398	4.25
447.602	4.42
447.806	4.68
448.01	4.76
448.214	4.7
448.418	4.65
448.622	4.74
448.826	4.76
449.03	4.91
449.234	5.04
449.438	4.77
449.642	4.91
449.846	4.57
450.05	4.51
450.254	4.53
450.458	4.71
450.662	4.78
450.866	4.7
451.069	4.71
451.273	4.29
451.477	4.06
451.681	4.09
451.885	3.94
452.089	4.07
452.292	4.06
452.496	4
452.7	3.9
452.904	3.93
453.107	3.9
453.311	3.85
453.515	4.11
453.719	4.12
453.922	4.28
454.126	4.31
454.33	4.32
454.533	4.15
454.737	3.96
454.94	3.93
455.144	3.83
455.348	3.83
455.551	3.82
455.755	3.64
455.958	3.83
456.162	3.54
456.365	3.53
456.569	3.18
456.772	3.19
456.976	3.38
457.179	3.23
457.383	3.21
457.586	3.43
457.79	3.45
457.993	3.48
458.196	3.63
458.4	3.81
458.603	3.89
458.807	4.18
459.01	4.22
459.213	4.23
459.417	4.27
459.62	4.3
459.823	4.26
460.026	4.34
460.23	4.3
460.433	4.19
460.636	4.25
460.839	4.19
461.042	4.12
461.246	4.11
461.449	4.14
461.652	4.06
461.855	4.1
462.058	3.89
462.261	3.82
462.464	3.99
462.668	3.96
462.871	3.97
463.074	3.92
463.277	3.94
463.48	3.87
463.683	3.64
463.886	3.74
464.089	3.77
464.292	3.89
464.495	3.86
464.698	3.62
464.901	3.72
465.104	3.78
465.306	3.7
465.509	3.84
465.712	3.81
