Data from 2938113_Reflection_3.txt Node
Date: Sat Jul 11 18:19:36 EDT 2015
User: robert
Spectrometer: USB4E03001
Autoset integration time: false
Trigger mode: 4
Integration Time (sec): 1.000000E-1
Scans to average: 10
Electric dark correction enabled: true
Nonlinearity correction enabled: false
Boxcar width: 5
Stray light correction enabled: false
XAxis mode: Wavelengths
Stop averaging: false
Number of Pixels in Spectrum: 3648
>>>>>Begin Spectral Data<<<<<
177.566	53.48
177.785	157.81
178.005	-71.71
178.225	74.84
178.445	262.95
178.665	-7387.1
178.885	-314.13
179.105	22.56
179.324	39.09
179.544	75.41
179.764	289.69
179.984	312.4
180.204	-75.67
180.423	48.76
180.643	51.33
180.863	64.75
181.083	80.04
181.302	49.12
181.522	52.41
181.742	16.5
181.961	-303.79
182.181	285.68
182.401	264.42
182.621	258
182.84	196.48
183.06	247.86
183.279	180.35
183.499	222.23
183.719	135.04
183.938	237.84
184.158	289.4
184.377	198.89
184.597	278.74
184.816	146.94
185.036	49.91
185.256	77.65
185.475	56.68
185.695	52.43
185.914	-42.26
186.134	-143.63
186.353	-76.82
186.572	-425.47
186.792	364.47
187.011	245.07
187.231	161.42
187.45	131.15
187.67	262.14
187.889	268.43
188.108	328.65
188.328	222.64
188.547	289.44
188.766	314.84
188.986	-856.69
189.205	-19.06
189.424	-10.88
189.644	-0.61
189.863	-51.48
190.082	49.88
190.302	36.31
190.521	-51.7
190.74	-145.76
190.959	-1002
191.178	-16766.67
191.398	-1526.2
191.617	225.23
191.836	277.28
192.055	305.56
192.274	474.14
192.494	-273.31
192.713	-327.44
192.932	-270.74
193.151	-5665.96
193.37	51440
193.589	-231.94
193.808	-385.64
194.027	-150.62
194.246	-220.04
194.465	-132.18
194.685	-297.79
194.904	-414.18
195.123	-388.42
195.342	-124.52
195.561	-51.6
195.78	-21.14
195.999	-23.89
196.218	-38.18
196.436	-24.62
196.655	-28.06
196.874	-5.29
197.093	16.45
197.312	16.6
197.531	25.49
197.75	7.53
197.969	-19.44
198.188	-10.38
198.407	24.5
198.625	55.71
198.844	55.18
199.063	146.43
199.282	868.81
199.501	-16.52
199.719	-2223.29
199.938	688
200.157	262.47
200.376	-72.95
200.594	-379.07
200.813	-691.48
201.032	-99.72
201.251	7.55
201.469	-15.63
201.688	-9.18
201.907	-11.24
202.125	-32.66
202.344	-4.46
202.563	40.75
202.781	20.14
203	56.65
203.218	30.52
203.437	32.51
203.656	-225.5
203.874	-79.54
204.093	-12.61
204.311	-11.62
204.53	52.43
204.748	57.38
204.967	38.65
205.185	30.76
205.404	25.95
205.622	39.86
205.841	78.68
206.059	79.72
206.278	30.04
206.496	40.25
206.715	33.86
206.933	44.51
207.151	255.65
207.37	335.59
207.588	198.26
207.806	233.76
208.025	339.7
208.243	-384.78
208.461	-561.37
208.68	-469.09
208.898	1566.13
209.116	1076.68
209.335	391.25
209.553	-420.73
209.771	-1105.43
209.989	-673.29
210.208	-1121.62
210.426	3392
210.644	559.88
210.862	360.77
211.081	172.07
211.299	206.27
211.517	110.36
211.735	149.28
211.953	142.68
212.171	82.85
212.39	93.7
212.608	85.94
212.826	119.91
213.044	114.33
213.262	117.88
213.48	109.03
213.698	70.15
213.916	133.78
214.134	101.06
214.352	86.4
214.57	126.02
214.788	338.57
215.006	3254.13
215.224	16888.89
215.442	879.49
215.66	2598.36
215.878	236.72
216.096	382.72
216.314	-621.58
216.532	-3178.57
216.75	445.92
216.968	783.03
217.185	679.3
217.403	309.19
217.621	163.38
217.839	161.8
218.057	140.14
218.275	-662.63
218.492	-103.35
218.71	-60.17
218.928	14.17
219.146	56.94
219.363	56.9
219.581	38.52
219.799	22.23
220.017	30.34
220.234	38.74
220.452	15.18
220.67	2.26
220.887	11.89
221.105	13.33
221.323	4.42
221.54	-16.26
221.758	-23.02
221.976	-7.46
222.193	4.15
222.411	0.02
222.629	6.46
222.846	10.32
223.064	17.5
223.281	-0.21
223.499	1.16
223.716	15.65
223.934	10.79
224.151	16.36
224.369	9.38
224.586	-1.79
224.804	-15.92
225.021	-33.67
225.239	-38.57
225.456	-49.76
225.674	-38.04
225.891	-60.6
226.108	-50.42
226.326	-42.22
226.543	-75.81
226.76	-44.22
226.978	-26.49
227.195	-3.84
227.413	10.32
227.63	1.56
227.847	-0.81
228.064	-2.2
228.282	-1.46
228.499	-4.1
228.716	0.92
228.934	6.38
229.151	8.16
229.368	11.49
229.585	10.7
229.802	9.29
230.02	15.65
230.237	18.49
230.454	19.74
230.671	23.18
230.888	21.8
231.105	20.44
231.323	17.33
231.54	16.19
231.757	7.03
231.974	1.94
232.191	-0.07
232.408	-7.63
232.625	-3.63
232.842	0.47
233.059	0.86
233.276	11.18
233.493	13.44
233.71	14.56
233.927	7.4
234.144	14.72
234.361	17.54
234.578	16.74
234.795	16.47
235.012	12.01
235.229	4.21
235.446	2.39
235.663	-3.1
235.879	-0.94
236.096	3.85
236.313	12.34
236.53	9.43
236.747	9.26
236.964	17.57
237.181	12.27
237.397	10.38
237.614	7.6
237.831	-2.02
238.048	-8.81
238.264	-18.57
238.481	-26.6
238.698	-29.98
238.915	-34.76
239.131	-25.17
239.348	-29.27
239.565	-22.33
239.781	-11.97
239.998	-9.88
240.215	2.32
240.431	7.56
240.648	10.75
240.865	14.81
241.081	13.39
241.298	16.78
241.514	14.12
241.731	12.19
241.947	15.86
242.164	15.13
242.38	15.27
242.597	12.24
242.814	10.69
243.03	8.83
243.246	5.07
243.463	6.11
243.679	5.23
243.896	3.67
244.112	6.09
244.329	1.87
244.545	0.16
244.762	0.99
244.978	3.67
245.194	5.37
245.411	8.79
245.627	13.05
245.843	12.96
246.06	12.64
246.276	12.91
246.492	12
246.709	11.05
246.925	11.45
247.141	12.39
247.357	12.34
247.574	12.42
247.79	11.52
248.006	10.53
248.222	10.94
248.439	11.76
248.655	11.31
248.871	10.75
249.087	11.08
249.303	9.94
249.519	6.61
249.736	5.74
249.952	3.39
250.168	4.07
250.384	3.07
250.6	0.56
250.816	-2.28
251.032	-2.5
251.248	-3.48
251.464	-2.08
251.68	2.07
251.896	6.39
252.112	7.81
252.328	8.28
252.544	8
252.76	7.04
252.976	8.29
253.192	11.28
253.408	13.07
253.624	13.7
253.84	11.55
254.056	9.6
254.272	11.18
254.487	12.9
254.703	15.07
254.919	14.01
255.135	15.77
255.351	15.03
255.567	14.97
255.782	10.55
255.998	4.69
256.214	6.71
256.43	5.24
256.646	1.66
256.861	-1.19
257.077	-0.51
257.293	-4.65
257.508	-5.09
257.724	-5.89
257.94	-5.6
258.155	-3.87
258.371	0.51
258.587	2.28
258.802	3.08
259.018	6.06
259.234	6.5
259.449	7.36
259.665	9.25
259.88	9.92
260.096	10.9
260.312	10.08
260.527	11.5
260.743	12.79
260.958	12.64
261.174	13.05
261.389	11.19
261.605	10.58
261.82	10.05
262.036	9.69
262.251	8.82
262.466	6.61
262.682	4.8
262.897	3.55
263.113	0.79
263.328	-1.24
263.543	1.29
263.759	2.38
263.974	4.83
264.189	3.58
264.405	1.36
264.62	5.56
264.835	5.55
265.051	11.23
265.266	11.32
265.481	12.38
265.696	12.32
265.912	8.96
266.127	8.97
266.342	7.36
266.557	10.02
266.773	12.45
266.988	8.31
267.203	10.48
267.418	6.52
267.633	6.85
267.848	6.45
268.064	5.82
268.279	6.47
268.494	5.22
268.709	5.06
268.924	2.98
269.139	3.84
269.354	5.33
269.569	3.38
269.784	6.94
269.999	5.51
270.214	4.97
270.429	6.17
270.644	6.07
270.859	7.07
271.074	7.62
271.289	8.13
271.504	5.67
271.719	5.86
271.934	6.2
272.149	2.81
272.363	5.42
272.578	6.63
272.793	6.75
273.008	6.49
273.223	6.81
273.438	7.28
273.653	6.34
273.867	6.67
274.082	7.29
274.297	8.89
274.512	10.82
274.726	8.5
274.941	8.25
275.156	7.55
275.371	7.47
275.585	4.72
275.8	2.8
276.015	3.96
276.229	4.07
276.444	3.04
276.659	2.1
276.873	2.63
277.088	3.39
277.302	3.97
277.517	7.12
277.732	5.57
277.946	8.42
278.161	10.03
278.375	9.18
278.59	13.11
278.804	12.04
279.019	9.82
279.233	9.76
279.448	9.17
279.662	8.57
279.877	7.77
280.091	9.51
280.306	9.29
280.52	9.01
280.735	9
280.949	8.55
281.163	9.63
281.378	11.85
281.592	10.86
281.806	12.27
282.021	11.13
282.235	10.96
282.449	12.19
282.664	11.5
282.878	12.23
283.092	13.26
283.307	12.3
283.521	12.54
283.735	11.18
283.949	11.76
284.164	9.69
284.378	10.52
284.592	9.55
284.806	8.48
285.02	9.22
285.234	8.65
285.449	8.29
285.663	7.18
285.877	5.64
286.091	6.2
286.305	6.31
286.519	6.94
286.733	6.39
286.947	6.2
287.161	6.82
287.375	7.38
287.589	6.63
287.803	6.13
288.017	5.85
288.231	5.92
288.445	4.68
288.659	4.38
288.873	4.96
289.087	4.86
289.301	6.78
289.515	5.09
289.729	5.35
289.943	5.53
290.157	7.59
290.371	8.65
290.584	9.98
290.798	13.14
291.012	12.67
291.226	13.63
291.44	13.02
291.654	11.69
291.867	11.72
292.081	12.18
292.295	12.29
292.509	10.35
292.722	11.31
292.936	9.94
293.15	7.59
293.364	9.75
293.577	9.62
293.791	10.08
294.005	11.38
294.218	12.58
294.432	10.87
294.645	11.29
294.859	11.91
295.073	12.56
295.286	13.16
295.5	12.58
295.713	11.07
295.927	11.67
296.14	13.41
296.354	12.75
296.568	11.62
296.781	12.07
296.994	11.69
297.208	10.46
297.421	9.11
297.635	8.72
297.848	9.28
298.062	10.06
298.275	8.95
298.489	7.29
298.702	7.22
298.915	8.06
299.129	8.47
299.342	9.35
299.555	10.78
299.769	10.95
299.982	11.33
300.195	10.72
300.409	9.26
300.622	9.38
300.835	10.74
301.048	12.61
301.262	12.54
301.475	11.86
301.688	10.7
301.901	11.63
302.115	12.27
302.328	12.47
302.541	14.89
302.754	14.69
302.967	15.3
303.18	15.16
303.393	13.18
303.607	15.03
303.82	15.94
304.033	19.21
304.246	18.76
304.459	18.36
304.672	17.1
304.885	14.06
305.098	15.3
305.311	15.16
305.524	14.15
305.737	14.26
305.95	12.45
306.163	10.89
306.376	9.31
306.589	8.46
306.802	7.21
307.015	7.3
307.228	10.27
307.44	10.87
307.653	10.73
307.866	11.66
308.079	12.42
308.292	14.55
308.505	15.53
308.718	15.17
308.93	15.26
309.143	17.77
309.356	19.85
309.569	18.23
309.781	18.14
309.994	16.87
310.207	16.34
310.42	15.84
310.632	15.12
310.845	15.09
311.058	14.29
311.27	14.42
311.483	13.97
311.696	13.48
311.908	15.23
312.121	15.33
312.333	17.52
312.546	18.76
312.759	18.35
312.971	18.14
313.184	18.42
313.396	19.41
313.609	19.23
313.821	17.51
314.034	17.83
314.246	16.32
314.459	16.09
314.671	14.78
314.884	13.6
315.096	15.13
315.309	14.26
315.521	16.02
315.733	15.05
315.946	16.21
316.158	17.86
316.371	17.82
316.583	18.17
316.795	17.68
317.008	15.7
317.22	14.95
317.432	12.91
317.644	13.69
317.857	11.04
318.069	10.48
318.281	10.66
318.494	11.38
318.706	9.06
318.918	7.81
319.13	7.92
319.342	11.54
319.555	10.67
319.767	10.37
319.979	11.16
320.191	12.81
320.403	13.39
320.615	13.64
320.827	13.14
321.039	16.6
321.252	18.45
321.464	17.32
321.676	16.15
321.888	17.12
322.1	18.27
322.312	16.93
322.524	15.18
322.736	16.47
322.948	15.46
323.16	15.87
323.372	15.77
323.584	14.9
323.796	14.96
324.007	14.15
324.219	15.44
324.431	16.22
324.643	15.92
324.855	17.35
325.067	16.8
325.279	16.97
325.491	17.77
325.702	17.33
325.914	17.65
326.126	21.71
326.338	21.33
326.55	20.49
326.761	21.06
326.973	21.41
327.185	20.51
327.396	20.93
327.608	22.47
327.82	23.6
328.032	23.27
328.243	22.58
328.455	21.12
328.666	22.96
328.878	25.26
329.09	25.32
329.301	26.88
329.513	29.83
329.725	29.43
329.936	29.13
330.148	27.63
330.359	28.06
330.571	29.46
330.782	28.6
330.994	28.09
331.205	27.79
331.417	28.55
331.628	28.63
331.84	26.74
332.051	27.87
332.262	29.46
332.474	30.13
332.685	30.68
332.897	31.73
333.108	30.96
333.319	31.81
333.531	31.98
333.742	31.35
333.953	31.95
334.165	32.86
334.376	33.18
334.587	32.35
334.799	31.55
335.01	33.93
335.221	34.35
335.432	35.01
335.644	34.24
335.855	32.44
336.066	33.87
336.277	35.48
336.488	36.72
336.7	37.24
336.911	36.94
337.122	38.52
337.333	38.03
337.544	38.9
337.755	39.79
337.966	40.28
338.177	42.83
338.388	41.42
338.599	39.29
338.811	36.95
339.022	36.4
339.233	35.34
339.444	35.65
339.655	33.89
339.866	32.87
340.076	31.71
340.287	32.28
340.498	31.53
340.709	32.99
340.92	33.45
341.131	34.6
341.342	33.55
341.553	33.43
341.764	33.21
341.975	34.55
342.185	35.25
342.396	36.19
342.607	36.95
342.818	37.22
343.029	36.6
343.239	37.66
343.45	36.45
343.661	36.56
343.872	37.94
344.082	37.1
344.293	37.17
344.504	37.74
344.714	37.87
344.925	36.93
345.136	37.49
345.346	35.59
345.557	34.12
345.768	34.89
345.978	37.61
346.189	37.32
346.399	37.95
346.61	37.06
346.821	35.88
347.031	36.06
347.242	37.15
347.452	37.24
347.663	38.72
347.873	40.26
348.084	41.17
348.294	39.87
348.504	40
348.715	40.25
348.925	39.81
349.136	40.71
349.346	40.97
349.557	39.92
349.767	40.2
349.977	39.42
350.188	37.58
350.398	36.17
350.608	36.37
350.819	35.59
351.029	34.51
351.239	35.16
351.449	35.23
351.66	35.72
351.87	35.41
352.08	33.57
352.29	35.63
352.501	36.51
352.711	38.29
352.921	37.32
353.131	38.19
353.341	38.46
353.552	38.52
353.762	37.18
353.972	36.6
354.182	37.8
354.392	38.97
354.602	37.55
354.812	36.5
355.022	36.4
355.232	37.62
355.442	37.52
355.652	37.59
355.862	37.12
356.072	37.89
356.282	37.12
356.492	37.06
356.702	36.88
356.912	37.14
357.122	37.19
357.332	35.86
357.542	35.51
357.752	35.96
357.962	35.31
358.171	35.29
358.381	34.64
358.591	35
358.801	34.08
359.011	34.2
359.221	34.56
359.43	36.27
359.64	37.71
359.85	37.06
360.06	36.88
360.269	37.76
360.479	38.87
360.689	39.77
360.899	39.4
361.108	39.49
361.318	39.39
361.528	38.37
361.737	38.23
361.947	37.93
362.156	37.98
362.366	37.84
362.576	38
362.785	38.02
362.995	37.54
363.204	37.69
363.414	37.93
363.623	37.15
363.833	38.41
364.042	37.57
364.252	36.93
364.461	36.75
364.671	36.48
364.88	36.32
365.09	36.67
365.299	35.87
365.509	36.59
365.718	36.66
365.927	37.84
366.137	38.15
366.346	38.48
366.555	38.77
366.765	39.04
366.974	38.9
367.183	38.05
367.393	36.58
367.602	36.33
367.811	36.13
368.021	35.74
368.23	35.15
368.439	34.94
368.648	35.02
368.857	34.94
369.067	34.81
369.276	34.79
369.485	35.86
369.694	35.33
369.903	36.27
370.112	35.75
370.321	36.35
370.531	36.9
370.74	36.82
370.949	36.24
371.158	34.63
371.367	34.65
371.576	34.37
371.785	33.47
371.994	34.28
372.203	34.33
372.412	33.68
372.621	32.71
372.83	32.45
373.039	31.32
373.248	31.19
373.457	31.71
373.666	31.45
373.874	30.93
374.083	31.16
374.292	31.01
374.501	30.25
374.71	29.82
374.919	30.27
375.128	29.15
375.336	29.73
375.545	29.63
375.754	30.04
375.963	29.94
376.171	30.38
376.38	29.63
376.589	29.91
376.798	30.21
377.006	30.55
377.215	30.15
377.424	30.21
377.632	30.19
377.841	30.26
378.05	29.73
378.258	29.77
378.467	30.03
378.675	30.94
378.884	30.43
379.093	29.8
379.301	29.39
379.51	29.4
379.718	29.89
379.927	28.78
380.135	28.37
380.344	28.71
380.552	28.09
380.761	27.5
380.969	27.43
381.177	27.04
381.386	26.69
381.594	27.25
381.803	26.69
382.011	26.31
382.219	26.6
382.428	26.91
382.636	26.69
382.845	26.16
383.053	25.95
383.261	25.58
383.469	25.53
383.678	25.41
383.886	24.69
384.094	24.74
384.302	24.3
384.511	24.34
384.719	23.22
384.927	22.96
385.135	22.88
385.343	22.7
385.552	22
385.76	21.78
385.968	21.65
386.176	22.29
386.384	22.14
386.592	22.15
386.8	22.52
387.008	23.24
387.216	23.25
387.424	23.35
387.633	23.58
387.841	23.78
388.049	23.88
388.257	24.06
388.465	22.95
388.672	22.77
388.88	22.27
389.088	21.66
389.296	21.3
389.504	21.47
389.712	21.32
389.92	20.93
390.128	20.27
390.336	19.89
390.544	19.46
390.751	20
390.959	19.78
391.167	20.04
391.375	20
391.583	19.94
391.79	19.73
391.998	19.51
392.206	19.73
392.414	19.79
392.621	19.99
392.829	19.89
393.037	19.4
393.244	19.49
393.452	19.47
393.66	19.39
393.867	19.44
394.075	18.88
394.283	19.12
394.49	18.9
394.698	18.8
394.905	18.63
395.113	18.61
395.32	18.73
395.528	18.56
395.735	18.22
395.943	17.94
396.15	18.03
396.358	18.46
396.565	18.29
396.773	18.02
396.98	18.02
397.188	17.94
397.395	17.81
397.602	17.87
397.81	17.83
398.017	17.78
398.225	17.53
398.432	16.98
398.639	16.67
398.847	16.58
399.054	16.33
399.261	16.25
399.468	16.29
399.676	16.42
399.883	16.25
400.09	16.01
400.297	16.16
400.505	16.08
400.712	16.15
400.919	16.33
401.126	16.44
401.333	17.01
401.54	16.96
401.748	16.79
401.955	16.59
402.162	16.63
402.369	16.82
402.576	16.59
402.783	16.71
402.99	16.88
403.197	16.9
403.404	16.96
403.611	16.42
403.818	16.41
404.025	16.49
404.232	16.58
404.439	16.74
404.646	16.63
404.853	16.69
405.06	16.64
405.267	16.26
405.474	16.38
405.681	16.2
405.887	16.28
406.094	16.29
406.301	16.02
406.508	16
406.715	15.65
406.922	16.08
407.128	16.05
407.335	16.22
407.542	16.33
407.749	16.03
407.955	15.92
408.162	16
408.369	15.83
408.575	15.8
408.782	16.12
408.989	16.54
409.195	16.18
409.402	16.28
409.609	16.09
409.815	15.98
410.022	16.1
410.228	16.03
410.435	16.08
410.642	15.87
410.848	16.17
411.055	15.69
411.261	15.32
411.468	15.28
411.674	15.03
411.881	14.93
412.087	15.01
412.294	14.82
412.5	14.96
412.706	14.73
412.913	14.88
413.119	14.84
413.326	14.8
413.532	14.83
413.738	14.73
413.945	14.8
414.151	14.87
414.357	14.71
414.564	14.83
414.77	14.53
414.976	14.59
415.182	14.72
415.389	14.34
415.595	14.6
415.801	14.56
416.007	14.52
416.214	14.26
416.42	14.32
416.626	14.26
416.832	14.28
417.038	14.42
417.244	14.49
417.45	14.34
417.657	14.51
417.863	14.26
418.069	14.2
418.275	14.4
418.481	14.49
418.687	14.35
418.893	14.41
419.099	14.35
419.305	14.29
419.511	14.16
419.717	14.15
419.923	14.11
420.129	14.12
420.335	14.15
420.541	13.98
420.746	13.99
420.952	13.98
421.158	14.12
421.364	14.01
421.57	13.91
421.776	13.78
421.982	13.87
422.187	13.92
422.393	14.04
422.599	13.98
422.805	13.93
423.01	13.9
423.216	13.87
423.422	13.72
423.628	13.68
423.833	13.7
424.039	13.84
424.245	13.73
424.45	13.7
424.656	13.58
424.862	13.69
425.067	13.75
425.273	13.77
425.478	13.9
425.684	13.94
425.889	14.04
426.095	14.08
426.301	14.2
426.506	14.3
426.712	14.02
426.917	14.05
427.123	13.85
427.328	13.76
427.533	13.77
427.739	13.74
427.944	13.82
428.15	13.73
428.355	13.73
428.561	13.6
428.766	13.43
428.971	13.39
429.177	13.34
429.382	13.25
429.587	13.29
429.793	13.2
429.998	13.15
430.203	12.84
430.408	12.76
430.614	12.86
430.819	12.79
431.024	12.77
431.229	13.27
431.434	13.38
431.64	13.59
431.845	13.6
432.05	13.81
432.255	13.67
432.46	13.88
432.665	13.96
432.87	13.72
433.076	13.72
433.281	13.89
433.486	13.7
433.691	13.67
433.896	13.49
434.101	13.48
434.306	13.36
434.511	13.43
434.716	13.42
434.921	13.34
435.126	13.4
435.331	13.48
435.535	13.37
435.74	13.42
435.945	13.17
436.15	13.44
436.355	13.4
436.56	13.44
436.765	13.33
436.97	13.39
437.174	13.42
437.379	13.5
437.584	13.45
437.789	13.37
437.993	13.34
438.198	13.47
438.403	13.28
438.608	13.34
438.812	13.13
439.017	13.19
439.222	12.96
439.426	13.1
439.631	13.12
439.836	13.1
440.04	13.05
440.245	12.96
440.45	13.01
440.654	13.17
440.859	13.08
441.063	13.26
441.268	13.1
441.472	13.26
441.677	13.11
441.881	13.01
442.086	12.98
442.29	13.01
442.495	13.11
442.699	13.07
442.904	12.8
443.108	12.82
443.312	12.66
443.517	12.74
443.721	12.68
443.925	12.81
444.13	12.89
444.334	12.85
444.538	12.85
444.743	12.9
444.947	12.85
445.151	12.89
445.356	12.89
445.56	12.89
445.764	12.93
445.968	12.89
446.173	12.75
446.377	12.7
446.581	12.67
446.785	12.75
446.989	12.63
447.193	12.72
447.398	12.72
447.602	12.7
447.806	12.92
448.01	12.87
448.214	12.88
448.418	12.99
448.622	13.08
448.826	13.18
449.03	13.01
449.234	13.09
449.438	13.13
449.642	13.1
449.846	13.12
450.05	12.86
450.254	13.06
450.458	13.08
450.662	12.88
450.866	12.54
451.069	12.46
451.273	12.68
451.477	12.63
451.681	12.58
451.885	12.71
452.089	12.78
452.292	13.05
452.496	12.93
452.7	12.82
452.904	12.89
453.107	13.19
453.311	13.23
453.515	13.24
453.719	13.22
453.922	13.1
454.126	12.96
454.33	13
454.533	12.88
454.737	12.74
454.94	12.91
455.144	12.95
455.348	13.03
455.551	13.02
455.755	12.94
455.958	12.99
456.162	12.95
456.365	13.03
456.569	13.02
456.772	12.8
456.976	13.09
457.179	12.99
457.383	12.88
