Data from 2938061_Reflection_2.txt Node
Date: Sun Jul 12 13:49:23 EDT 2015
User: robert
Spectrometer: USB4E03001
Autoset integration time: false
Trigger mode: 4
Integration Time (sec): 1.000000E-1
Scans to average: 10
Electric dark correction enabled: true
Nonlinearity correction enabled: false
Boxcar width: 5
Stray light correction enabled: false
XAxis mode: Wavelengths
Stop averaging: false
Number of Pixels in Spectrum: 3648
>>>>>Begin Spectral Data<<<<<
177.566	346.23
177.785	-925.72
178.005	-762.34
178.225	-348.81
178.445	-33.71
178.665	15.19
178.885	138.66
179.105	-2284.44
179.324	-240.18
179.544	-2131.61
179.764	390.83
179.984	369.06
180.204	-23.53
180.423	25.89
180.643	53.57
180.863	104.43
181.083	67.15
181.302	72.57
181.522	33.87
181.742	-27.02
181.961	17.16
182.181	16.08
182.401	12.62
182.621	-79.61
182.84	-223.89
183.06	-84.57
183.279	-303.2
183.499	-47.97
183.719	-83.84
183.938	-120.99
184.158	-91.33
184.377	-289.8
184.597	831.28
184.816	221.19
185.036	235.88
185.256	745.38
185.475	403.67
185.695	202.95
185.914	140.05
186.134	115.78
186.353	106.59
186.572	127.9
186.792	123.73
187.011	132.28
187.231	162.81
187.45	186.85
187.67	154.2
187.889	290.49
188.108	1508.28
188.328	157.46
188.547	206.18
188.766	192.77
188.986	116.69
189.205	68.82
189.424	58.93
189.644	46.3
189.863	21.55
190.082	24.32
190.302	54.42
190.521	70.59
190.74	80.84
190.959	77.46
191.178	68.17
191.398	135.09
191.617	104.9
191.836	105.7
192.055	35.41
192.274	-343.15
192.494	-938.54
192.713	-589.13
192.932	-434.69
193.151	-204.64
193.37	-171.78
193.589	-566.57
193.808	1706.58
194.027	-189.02
194.246	-356.66
194.465	-1039.2
194.685	-330.73
194.904	-5662.75
195.123	-248.81
195.342	-291.77
195.561	50.08
195.78	-109.13
195.999	177.19
196.218	475.87
196.436	-92.06
196.655	-313.28
196.874	-775
197.093	-219.52
197.312	-676.28
197.531	-145.09
197.75	-96.22
197.969	1157.36
198.188	35.12
198.407	32.04
198.625	87.98
198.844	128.21
199.063	182.09
199.282	344.94
199.501	182.48
199.719	105.64
199.938	43.59
200.157	18.27
200.376	52.98
200.594	78.97
200.813	118.64
201.032	104.36
201.251	19.13
201.469	-29.19
201.688	22.95
201.907	30.17
202.125	69.85
202.344	102.19
202.563	179.11
202.781	208.75
203	167.79
203.218	158.69
203.437	206.78
203.656	1086.08
203.874	609.46
204.093	-1017.64
204.311	-391.64
204.53	-197
204.748	-343.66
204.967	-397.83
205.185	-543.04
205.404	-384.52
205.622	-288.71
205.841	-239.78
206.059	-3068.31
206.278	-893.25
206.496	123.51
206.715	108.6
206.933	121.91
207.151	148.23
207.37	142.38
207.588	197.22
207.806	155.01
208.025	103.32
208.243	110.6
208.461	91.54
208.68	83.07
208.898	212.56
209.116	215.92
209.335	-361.08
209.553	-298.77
209.771	-77.07
209.989	-168.66
210.208	-222.84
210.426	-136.04
210.644	22.69
210.862	2.37
211.081	7.53
211.299	-77.77
211.517	-155.94
211.735	536.69
211.953	117.28
212.171	109.24
212.39	155.58
212.608	114.42
212.826	46.41
213.044	58.02
213.262	68.84
213.48	31.89
213.698	80.66
213.916	-0.3
214.134	-29.41
214.352	-1396.2
214.57	-24.53
214.788	-69.73
215.006	-128.75
215.224	-107.63
215.442	51.19
215.66	-42.83
215.878	-84.24
216.096	-20.18
216.314	-26.75
216.532	-134.82
216.75	-1933.96
216.968	124.1
217.185	139.62
217.403	-16.17
217.621	12.37
217.839	72.23
218.057	37.67
218.275	131.93
218.492	96.1
218.71	238.85
218.928	620.4
219.146	37.32
219.363	23.54
219.581	69.18
219.799	115.57
220.017	168.8
220.234	120.1
220.452	138.63
220.67	180.36
220.887	184.71
221.105	248.58
221.323	243.67
221.54	176.7
221.758	209.85
221.976	153.8
222.193	34.62
222.411	26.38
222.629	458.24
222.846	2581.68
223.064	-410.39
223.281	241.63
223.499	139.68
223.716	115.17
223.934	29.83
224.151	210.57
224.369	322.35
224.586	336.05
224.804	144.28
225.021	45.73
225.239	24.69
225.456	23
225.674	-9.52
225.891	9.89
226.108	30.71
226.326	46.26
226.543	49.63
226.76	38.33
226.978	34.93
227.195	17.94
227.413	23.26
227.63	24.88
227.847	29.41
228.064	35.51
228.282	30.28
228.499	23.12
228.716	17.98
228.934	16.38
229.151	17.64
229.368	20.4
229.585	26
229.802	28.51
230.02	26.73
230.237	26.53
230.454	27.92
230.671	29.94
230.888	32.09
231.105	36.09
231.323	36.41
231.54	37.1
231.757	42.16
231.974	38.55
232.191	34.9
232.408	49.21
232.625	52.5
232.842	40.06
233.059	31.18
233.276	29.39
233.493	32.38
233.71	33.02
233.927	24.1
234.144	27.59
234.361	24.07
234.578	24.21
234.795	16.76
235.012	10.18
235.229	18.65
235.446	26.14
235.663	26.84
235.879	22.95
236.096	27.67
236.313	37.01
236.53	29.81
236.747	32.38
236.964	34.58
237.181	28.85
237.397	32.27
237.614	30.15
237.831	31.94
238.048	28.27
238.264	29.42
238.481	18.09
238.698	9.72
238.915	11.44
239.131	14.32
239.348	15.72
239.565	13.39
239.781	13.12
239.998	16.79
240.215	18.5
240.431	20.75
240.648	20.1
240.865	22.1
241.081	24.83
241.298	24.28
241.514	21.19
241.731	20.12
241.947	21.99
242.164	21.32
242.38	20.52
242.597	17.52
242.814	19.87
243.03	22.12
243.246	22.02
243.463	23.34
243.679	24.32
243.896	27.74
244.112	27.17
244.329	27.72
244.545	29.53
244.762	30.63
244.978	31.72
245.194	25.75
245.411	24.32
245.627	24.39
245.843	23.77
246.06	22.24
246.276	20.32
246.492	19.23
246.709	18.99
246.925	19.19
247.141	18.88
247.357	19.75
247.574	20.54
247.79	20.71
248.006	19.58
248.222	17.81
248.439	17.05
248.655	18.27
248.871	19.27
249.087	19.24
249.303	17.22
249.519	17.46
249.736	14.86
249.952	14.89
250.168	13.98
250.384	11.78
250.6	16.6
250.816	17.98
251.032	15.08
251.248	13.46
251.464	13.89
251.68	14.33
251.896	11.25
252.112	14.77
252.328	16
252.544	17.39
252.76	18.9
252.976	15.83
253.192	17.11
253.408	15.23
253.624	16.42
253.84	18.82
254.056	17.49
254.272	20.33
254.487	23.66
254.703	22.32
254.919	15.83
255.135	14.84
255.351	15.59
255.567	14.73
255.782	15.41
255.998	15.39
256.214	12.28
256.43	15.21
256.646	17.07
256.861	12.57
257.077	12.15
257.293	11.97
257.508	16.62
257.724	18.58
257.94	19.64
258.155	20.52
258.371	21.62
258.587	22.82
258.802	21.47
259.018	20.07
259.234	19.25
259.449	18.72
259.665	19.92
259.88	19.77
260.096	18.02
260.312	16.6
260.527	16.8
260.743	16.69
260.958	15.69
261.174	17
261.389	17.42
261.605	16.63
261.82	17.3
262.036	16.34
262.251	14.04
262.466	15.21
262.682	17.85
262.897	17.05
263.113	16.58
263.328	17.31
263.543	12.89
263.759	11.6
263.974	13.18
264.189	13.29
264.405	13.7
264.62	16.73
264.835	16.98
265.051	15.9
265.266	16.91
265.481	17.79
265.696	18.89
265.912	21.21
266.127	23.09
266.342	22.07
266.557	19.54
266.773	22.21
266.988	21.14
267.203	18.41
267.418	17.5
267.633	16.87
267.848	15.75
268.064	13.15
268.279	14.71
268.494	16.18
268.709	16.12
268.924	18.42
269.139	16.19
269.354	17.04
269.569	21.19
269.784	21.27
269.999	22.14
270.214	20.53
270.429	22.21
270.644	19.22
270.859	15.4
271.074	17.04
271.289	15.88
271.504	15.02
271.719	14.87
271.934	14.22
272.149	15.22
272.363	16.11
272.578	17.76
272.793	17.57
273.008	16.33
273.223	15.96
273.438	16.55
273.653	17.21
273.867	19.72
274.082	20.8
274.297	19.2
274.512	18.81
274.726	17.44
274.941	16.46
275.156	15.69
275.371	17.06
275.585	17.78
275.8	16.88
276.015	17.2
276.229	14.51
276.444	13.17
276.659	13.83
276.873	13.08
277.088	13.4
277.302	13.99
277.517	13.37
277.732	12.79
277.946	11.37
278.161	12.06
278.375	15.06
278.59	16.57
278.804	15.73
279.019	17.3
279.233	17.55
279.448	14.15
279.662	13.85
279.877	13.49
280.091	16.33
280.306	18.37
280.52	14.5
280.735	13.15
280.949	13.46
281.163	14.38
281.378	13.54
281.592	12.21
281.806	15.4
282.021	14.03
282.235	14.52
282.449	14.74
282.664	14.46
282.878	15.52
283.092	13.17
283.307	12.07
283.521	11.44
283.735	11.53
283.949	14.42
284.164	13.85
284.378	14.35
284.592	14.84
284.806	15.11
285.02	15.37
285.234	16.52
285.449	17.69
285.663	17.5
285.877	18.2
286.091	19.4
286.305	17.46
286.519	16.49
286.733	18.33
286.947	16.76
287.161	15.72
287.375	17.18
287.589	18.99
287.803	20.31
288.017	20
288.231	20.33
288.445	18.38
288.659	18.66
288.873	20.98
289.087	19.42
289.301	22.17
289.515	22.67
289.729	20.37
289.943	16.74
290.157	14.27
290.371	15.54
290.584	15.49
290.798	16.52
291.012	19.12
291.226	18.19
291.44	17.81
291.654	18.3
291.867	17.4
292.081	17.84
292.295	19.32
292.509	21.66
292.722	23.2
292.936	21.05
293.15	21.39
293.364	19.8
293.577	19.78
293.791	21.06
294.005	20.84
294.218	21.56
294.432	22.54
294.645	21.24
294.859	20.11
295.073	19.59
295.286	21.31
295.5	21.32
295.713	20.24
295.927	20.12
296.14	20.22
296.354	17.94
296.568	18.12
296.781	17.79
296.994	18.97
297.208	18.54
297.421	17.54
297.635	15.73
297.848	14.22
298.062	16.38
298.275	17.52
298.489	14.84
298.702	15.62
298.915	14.7
299.129	15.22
299.342	16.11
299.555	16.18
299.769	16.1
299.982	18.52
300.195	21.55
300.409	20.1
300.622	19.02
300.835	22.53
301.048	23.09
301.262	20.06
301.475	17.74
301.688	15.72
301.901	16.52
302.115	16.67
302.328	16.45
302.541	14.41
302.754	14.45
302.967	14.06
303.18	13.02
303.393	11.8
303.607	15.58
303.82	15.15
304.033	16.15
304.246	14.06
304.459	12.07
304.672	9.34
304.885	10.81
305.098	8.45
305.311	8.22
305.524	4.98
305.737	4.12
305.95	4.56
306.163	5.47
306.376	5.17
306.589	6.9
306.802	9.48
307.015	12.62
307.228	10.76
307.44	11.24
307.653	13.33
307.866	15.8
308.079	14.83
308.292	14.78
308.505	15.23
308.718	15.02
308.93	17.07
309.143	16.65
309.356	14.6
309.569	14.81
309.781	15.26
309.994	14.07
310.207	13.83
310.42	17.24
310.632	17.33
310.845	18.54
311.058	18.19
311.27	15.85
311.483	15.04
311.696	16.34
311.908	17.39
312.121	17.08
312.333	19.5
312.546	20.93
312.759	20.47
312.971	20.1
313.184	17.73
313.396	18.33
313.609	19.64
313.821	20.85
314.034	19.79
314.246	19.92
314.459	22.21
314.671	19.86
314.884	18.28
315.096	16.81
315.309	16.75
315.521	18.55
315.733	19.04
315.946	17.54
316.158	17.67
316.371	15.87
316.583	14.06
316.795	11.93
317.008	10.53
317.22	10.62
317.432	10.53
317.644	12.67
317.857	12.61
318.069	12.79
318.281	14.8
318.494	14.81
318.706	17.57
318.918	15.55
319.13	14.92
319.342	15.3
319.555	17.59
319.767	17.98
319.979	13.8
320.191	13
320.403	13.09
320.615	8.67
320.827	7.86
321.039	5.86
321.252	10.7
321.464	11.46
321.676	12.17
321.888	8.55
322.1	8.67
322.312	10.2
322.524	11.99
322.736	11.97
322.948	15.18
323.16	16.6
323.372	15.99
323.584	12.17
323.796	11.54
324.007	11.48
324.219	12.33
324.431	12.71
324.643	12.81
324.855	13.04
325.067	12.8
325.279	12.89
325.491	12.41
325.702	13.07
325.914	14.7
326.126	14.51
326.338	13.39
326.55	14.97
326.761	14.56
326.973	13.15
327.185	11.76
327.396	11.71
327.608	10.78
327.82	10.29
328.032	9.24
328.243	8.89
328.455	10.3
328.666	10.66
328.878	8.21
329.09	8.3
329.301	9.73
329.513	10.51
329.725	8.41
329.936	7.83
330.148	8.33
330.359	9.29
330.571	11.07
330.782	10.5
330.994	11.14
331.205	12.39
331.417	11.2
331.628	10.52
331.84	8.28
332.051	9.22
332.262	10.62
332.474	10.46
332.685	12.01
332.897	10.88
333.108	11.2
333.319	8.45
333.531	9.01
333.742	9.53
333.953	10.18
334.165	10.44
334.376	10.79
334.587	11.01
334.799	10.52
335.01	7.49
335.221	7.72
335.432	7.34
335.644	8.61
335.855	8.53
336.066	11.55
336.277	12.03
336.488	11.74
336.7	12.49
336.911	10.88
337.122	9.97
337.333	12.87
337.544	12.38
337.755	12.05
337.966	12.11
338.177	11.22
338.388	7.7
338.599	6.54
338.811	6.36
339.022	5.41
339.233	7.07
339.444	7.78
339.655	7.22
339.866	7.33
340.076	6.99
340.287	8.39
340.498	9.26
340.709	10.37
340.92	11.83
341.131	13.01
341.342	12.91
341.553	12.43
341.764	12.12
341.975	11.92
342.185	10.87
342.396	11.58
342.607	10.88
342.818	11.53
343.029	13.65
343.239	13.04
343.45	12.93
343.661	12.87
343.872	12.63
344.082	12.86
344.293	13.16
344.504	12.95
344.714	14.1
344.925	13.78
345.136	12.99
345.346	11.89
345.557	11.21
345.768	11.34
345.978	10.28
346.189	10.19
346.399	10.66
346.61	10.37
346.821	11.82
347.031	10.29
347.242	11.15
347.452	10.44
347.663	8.59
347.873	9.69
348.084	9.26
348.294	11.33
348.504	12.48
348.715	11.59
348.925	10.77
349.136	10.2
349.346	8.88
349.557	8.08
349.767	9.76
349.977	10.62
350.188	11.51
350.398	10.85
350.608	10.21
350.819	9.33
351.029	8.52
351.239	8.84
351.449	8.49
351.66	9.54
351.87	10.24
352.08	10.32
352.29	11.53
352.501	10.49
352.711	11.08
352.921	11.74
353.131	10.8
353.341	11.59
353.552	11.3
353.762	11.79
353.972	12.14
354.182	12.35
354.392	12.01
354.602	10.5
354.812	10.39
355.022	10.72
355.232	10.55
355.442	11.38
355.652	11.83
355.862	12.62
356.072	12.05
356.282	13.21
356.492	12.47
356.702	11.68
356.912	11.79
357.122	11.2
357.332	11.27
357.542	10.96
357.752	10.41
357.962	9.97
358.171	9.54
358.381	10.15
358.591	8.17
358.801	7.8
359.011	8.61
359.221	9.07
359.43	9.41
359.64	9.35
359.85	9.87
360.06	10
360.269	10.02
360.479	10.37
360.689	10.36
360.899	11.16
361.108	11.85
361.318	10.76
361.528	10.47
361.737	10.48
361.947	10.1
362.156	9.59
362.366	9.79
362.576	9.87
362.785	9.03
362.995	8.87
363.204	8.57
363.414	8.49
363.623	8.83
363.833	8.39
364.042	8.63
364.252	8.79
364.461	9.57
364.671	9.56
364.88	9.99
365.09	10.47
365.299	9.57
365.509	8.61
365.718	7.98
365.927	7.79
366.137	7.87
366.346	7.59
366.555	7.24
366.765	6.67
366.974	6.37
367.183	6.21
367.393	5.67
367.602	6.3
367.811	7.75
368.021	7.69
368.23	7.55
368.439	7.87
368.648	7.29
368.857	7.89
369.067	7.6
369.276	6.86
369.485	6.98
369.694	7.59
369.903	7.78
370.112	7.14
370.321	7.04
370.531	6.57
370.74	6.23
370.949	6.8
371.158	7
371.367	7.38
371.576	8.57
371.785	8.48
371.994	9.18
372.203	8.64
372.412	8.38
372.621	8.12
372.83	9
373.039	9.01
373.248	8.84
373.457	8.24
373.666	7.49
373.874	6.67
374.083	6.38
374.292	5.31
374.501	5.87
374.71	4.67
374.919	5.08
375.128	4.54
375.336	4.28
375.545	4.13
375.754	4.62
375.963	4.69
376.171	4.55
376.38	4.74
376.589	4.41
376.798	3.68
377.006	5.2
377.215	5.3
377.424	5.18
377.632	5.95
377.841	5.6
378.05	5.46
378.258	5.57
378.467	5.48
378.675	4.03
378.884	4.3
379.093	4.79
379.301	4.25
379.51	4.55
379.718	4.39
379.927	3.76
380.135	3.6
380.344	3.38
380.552	3.17
380.761	3.06
380.969	4.62
381.177	4.64
381.386	4.72
381.594	4.68
381.803	3.99
382.011	4.45
382.219	4.83
382.428	4.72
382.636	4.4
382.845	4.18
383.053	5.02
383.261	4.93
383.469	4.96
383.678	4.76
383.886	4.54
384.094	4.57
384.302	5.04
384.511	4.98
384.719	5.25
384.927	5.91
385.135	5.79
385.343	5.35
385.552	5.29
385.76	5.31
385.968	5.46
386.176	5.61
386.384	5.84
386.592	5.56
386.8	5.53
387.008	5.13
387.216	4.76
387.424	4.92
387.633	4.69
387.841	4.63
388.049	4.27
388.257	4.27
388.465	4.36
388.672	4.07
388.88	4.23
389.088	4.16
389.296	4.31
389.504	3.95
389.712	4.02
389.92	4.15
390.128	3.65
390.336	4.07
390.544	4.17
390.751	4.32
390.959	4.26
391.167	3.59
391.375	3.38
391.583	3.56
391.79	3.64
391.998	3.54
392.206	3.57
392.414	3.85
392.621	3.45
392.829	3.18
393.037	3.22
393.244	3.05
393.452	2.97
393.66	3.21
393.867	3.27
394.075	3.17
394.283	3.12
394.49	3.07
394.698	3.49
394.905	3.41
395.113	3.16
395.32	2.87
395.528	2.99
395.735	3.27
395.943	3.05
396.15	2.81
396.358	2.76
396.565	2.5
396.773	2.33
396.98	1.82
397.188	2.15
397.395	2.26
397.602	2.32
397.81	2.51
398.017	2.46
398.225	2.68
398.432	3.17
398.639	3.56
398.847	3.71
399.054	3.63
399.261	3.61
399.468	3.37
399.676	3.36
399.883	3.49
400.09	3.53
400.297	3.69
400.505	3.53
400.712	3.22
400.919	2.98
401.126	3.18
401.333	3.51
401.54	3.22
401.748	3.41
401.955	3.33
402.162	3.13
402.369	3.12
402.576	2.94
402.783	2.88
402.99	3.13
403.197	3.13
403.404	3.33
403.611	3.24
403.818	3.76
404.025	3.87
404.232	3.78
404.439	3.42
404.646	2.94
404.853	2.84
405.06	2.86
405.267	2.58
405.474	2.36
405.681	2.19
405.887	1.89
406.094	1.54
406.301	1.29
406.508	1.34
406.715	1.67
406.922	2.04
407.128	2.33
407.335	2.62
407.542	2.68
407.749	2.73
407.955	2.79
408.162	3.16
408.369	3.22
408.575	3.25
408.782	3.54
408.989	3.61
409.195	3.37
409.402	2.88
409.609	2.66
409.815	2.68
410.022	3.07
410.228	2.79
410.435	2.56
410.642	2.34
410.848	2.5
411.055	2.26
411.261	2.29
411.468	2.39
411.674	2.66
411.881	2.69
412.087	2.35
412.294	2.2
412.5	2.38
412.706	2.65
412.913	2.77
413.119	2.51
413.326	2.26
413.532	2.35
413.738	2.66
413.945	2.54
414.151	2.56
414.357	2.71
414.564	2.74
414.77	2.82
414.976	2.44
415.182	2.76
415.389	2.87
415.595	2.81
415.801	2.63
416.007	2.38
416.214	2.6
416.42	2.78
416.626	2.78
416.832	2.75
417.038	2.57
417.244	2.62
417.45	2.4
417.657	2.44
417.863	2.89
418.069	2.89
418.275	2.83
418.481	2.86
418.687	2.61
418.893	2.47
419.099	2.24
419.305	2.49
419.511	2.57
419.717	2.58
419.923	2.52
420.129	2.51
420.335	2.45
420.541	2.56
420.746	2.29
420.952	2.39
421.158	2.68
421.364	2.83
421.57	2.57
421.776	2.47
421.982	2.46
422.187	2.48
422.393	2.5
422.599	2.5
422.805	2.42
423.01	2.71
423.216	2.63
423.422	2.49
423.628	2.51
423.833	2.62
424.039	2.81
424.245	2.87
424.45	2.99
424.656	2.86
424.862	2.77
425.067	2.82
425.273	2.63
425.478	2.54
425.684	2.55
425.889	2.67
426.095	2.78
426.301	2.51
426.506	2.47
426.712	2.46
426.917	2.52
427.123	2.8
427.328	2.7
427.533	2.91
427.739	2.87
427.944	2.8
428.15	2.65
428.355	2.47
428.561	2.58
428.766	2.58
428.971	2.46
429.177	2.2
429.382	1.94
429.587	2.14
429.793	1.99
429.998	2.28
430.203	2.23
430.408	1.93
430.614	1.86
430.819	1.92
431.024	1.78
431.229	1.96
431.434	2.17
431.64	2.13
431.845	2.13
432.05	2
432.255	1.9
432.46	2.01
432.665	2.25
432.87	2.23
433.076	2.32
433.281	2.54
433.486	2.5
433.691	2.48
433.896	2.72
434.101	2.59
434.306	2.64
434.511	2.71
434.716	2.54
434.921	2.5
435.126	2.65
435.331	2.51
435.535	2.23
435.74	2.21
435.945	2.04
436.15	1.93
436.355	2.06
436.56	2.03
436.765	1.92
436.97	2.12
437.174	2.17
437.379	2.02
437.584	2.14
437.789	2.35
437.993	2.16
438.198	2.24
438.403	2.26
438.608	2.29
438.812	2.25
439.017	2.51
439.222	2.33
439.426	2.29
439.631	2.32
439.836	2.28
440.04	2.29
440.245	2.24
440.45	2.24
440.654	2.18
440.859	2.07
441.063	2.29
441.268	1.95
441.472	2.12
441.677	2.1
441.881	2.26
442.086	2.36
442.29	2.3
442.495	2.27
442.699	2.44
442.904	2.45
443.108	2.58
443.312	2.33
443.517	2.27
443.721	2.15
443.925	2.08
444.13	1.92
444.334	1.65
444.538	1.59
444.743	1.81
444.947	1.78
445.151	1.87
445.356	1.84
445.56	2.02
445.764	2.24
445.968	2.22
446.173	2.4
446.377	2.44
446.581	2.54
446.785	2.66
446.989	2.53
447.193	2.6
447.398	2.58
447.602	2.58
447.806	2.52
448.01	2.41
448.214	2.44
448.418	2.26
448.622	2.26
448.826	2.2
449.03	2.11
449.234	2.16
449.438	1.94
449.642	1.77
449.846	1.65
450.05	1.62
450.254	1.69
450.458	1.61
450.662	1.72
450.866	1.53
451.069	1.79
451.273	1.8
451.477	1.84
451.681	1.9
451.885	2.09
452.089	2.24
452.292	2.35
452.496	2.23
452.7	2.44
452.904	2.41
453.107	2.48
453.311	2.26
453.515	2.2
453.719	2.1
453.922	2.08
454.126	1.95
454.33	1.86
454.533	1.72
454.737	1.66
454.94	1.62
455.144	1.72
455.348	1.62
455.551	1.79
455.755	1.73
455.958	1.84
456.162	2.01
456.365	2.07
456.569	2.09
456.772	2.29
456.976	2.3
457.179	2.18
457.383	2.09
457.586	2.18
457.79	2.15
457.993	2.35
458.196	2.28
458.4	2.36
458.603	2.38
458.807	2.35
459.01	2.08
459.213	2.15
459.417	2.14
459.62	2.23
459.823	2.28
460.026	2.27
460.23	2.14
460.433	2.16
460.636	2
460.839	2.01
461.042	1.96
461.246	2.07
461.449	2.07
461.652	2.04
461.855	1.9
462.058	1.82
