Data from 2938052_Reflection_2.txt Node
Date: Sun Jul 12 14:09:55 EDT 2015
User: robert
Spectrometer: USB4E03001
Autoset integration time: false
Trigger mode: 4
Integration Time (sec): 1.000000E-1
Scans to average: 10
Electric dark correction enabled: true
Nonlinearity correction enabled: false
Boxcar width: 5
Stray light correction enabled: false
XAxis mode: Wavelengths
Stop averaging: false
Number of Pixels in Spectrum: 3648
>>>>>Begin Spectral Data<<<<<
177.566	-293.97
177.785	-1722.33
178.005	856.06
178.225	1438.71
178.445	85.04
178.665	108.77
178.885	23.74
179.105	-2650
179.324	-108.1
179.544	778.75
179.764	36.84
179.984	-318.67
180.204	-142.86
180.423	15.13
180.643	32.9
180.863	54.99
181.083	28.65
181.302	3.83
181.522	43.83
181.742	11000
181.961	-27.28
182.181	-26.91
182.401	-91.95
182.621	-142.3
182.84	-75.58
183.06	-7.68
183.279	-12.57
183.499	-14.69
183.719	-1.26
183.938	26.99
184.158	-27.53
184.377	60.93
184.597	69.58
184.816	26.26
185.036	42.76
185.256	32.51
185.475	35.45
185.695	28.11
185.914	13.63
186.134	-65.5
186.353	-16.26
186.572	7.71
186.792	-251.97
187.011	-16.91
187.231	38.9
187.45	72.64
187.67	97.57
187.889	124.35
188.108	139.29
188.328	150.27
188.547	95.34
188.766	-20.1
188.986	-162.77
189.205	-128.13
189.424	-46.27
189.644	-82.07
189.863	-52.15
190.082	-37.91
190.302	-36.5
190.521	-190.63
190.74	-303.07
190.959	634.45
191.178	200.86
191.398	212.51
191.617	155.13
191.836	148.92
192.055	129.71
192.274	149.88
192.494	119.5
192.713	21.72
192.932	53.55
193.151	71.35
193.37	94.04
193.589	108.74
193.808	145.8
194.027	118.83
194.246	125.5
194.465	92.4
194.685	70.23
194.904	41.99
195.123	-2.29
195.342	150.08
195.561	231.95
195.78	567.46
195.999	290.07
196.218	893.41
196.436	504.92
196.655	616.4
196.874	896.8
197.093	-391.85
197.312	-760.08
197.531	50.86
197.75	88.97
197.969	154.11
198.188	443.24
198.407	215.14
198.625	754.93
198.844	174.04
199.063	148.45
199.282	226.47
199.501	185.62
199.719	181.41
199.938	76.15
200.157	70.52
200.376	93.32
200.594	58.44
200.813	63.74
201.032	44.18
201.251	33.51
201.469	69.78
201.688	50.04
201.907	56.27
202.125	23.86
202.344	221.48
202.563	154.01
202.781	105.26
203	28.72
203.218	10.57
203.437	-354.4
203.656	-121.36
203.874	-115.41
204.093	-47.42
204.311	-143.34
204.53	-218.52
204.748	-248.11
204.967	-511.98
205.185	-1034.95
205.404	-143.4
205.622	-13.88
205.841	31.52
206.059	23.76
206.278	681.25
206.496	-901.27
206.715	312.69
206.933	503.21
207.151	440.24
207.37	969.83
207.588	333.48
207.806	180.38
208.025	106.99
208.243	112.6
208.461	148.09
208.68	68.34
208.898	76.12
209.116	44.18
209.335	43.45
209.553	46.77
209.771	44.85
209.989	46.86
210.208	17.82
210.426	922.76
210.644	1644.48
210.862	530.38
211.081	578.56
211.299	336.52
211.517	358.61
211.735	98.49
211.953	108.12
212.171	68.47
212.39	59.35
212.608	33.03
212.826	-0.43
213.044	-23.22
213.262	-1.85
213.48	203.39
213.698	64.35
213.916	146.71
214.134	39.38
214.352	96.93
214.57	67.37
214.788	24.48
215.006	3.2
215.224	-51.13
215.442	-36.58
215.66	-17.93
215.878	-42.59
216.096	-63.08
216.314	-75.82
216.532	-37.63
216.75	-43.62
216.968	-73.05
217.185	-42.63
217.403	-62.67
217.621	-20.05
217.839	-8.72
218.057	6.41
218.275	26.15
218.492	33.75
218.71	43.57
218.928	29.83
219.146	13.19
219.363	29.96
219.581	43.17
219.799	41.94
220.017	48.25
220.234	95.98
220.452	99.88
220.67	95.6
220.887	223.38
221.105	236.35
221.323	189.72
221.54	154.77
221.758	127.39
221.976	121.48
222.193	130.91
222.411	94.75
222.629	76.84
222.846	91.18
223.064	105.59
223.281	114.05
223.499	109.66
223.716	114.61
223.934	158.39
224.151	119.79
224.369	92.2
224.586	59.91
224.804	79.79
225.021	52.08
225.239	26.85
225.456	22.15
225.674	35.77
225.891	32.54
226.108	28.91
226.326	28.73
226.543	23.51
226.76	23.96
226.978	26.2
227.195	30.95
227.413	29.94
227.63	30.8
227.847	30.98
228.064	21.35
228.282	14.04
228.499	15.3
228.716	16.14
228.934	19.57
229.151	22.24
229.368	21.03
229.585	18.25
229.802	18.69
230.02	20.38
230.237	16.94
230.454	16.12
230.671	20.53
230.888	22.79
231.105	20.48
231.323	21.06
231.54	19.79
231.757	18.02
231.974	17.12
232.191	14.05
232.408	8.75
232.625	15.2
232.842	19.14
233.059	21.06
233.276	18.79
233.493	21.55
233.71	19.26
233.927	15.52
234.144	20.59
234.361	24.24
234.578	24.15
234.795	20.32
235.012	20.77
235.229	18.26
235.446	14.64
235.663	10.69
235.879	8.16
236.096	3.41
236.313	5.02
236.53	2.67
236.747	4.91
236.964	3.72
237.181	8.76
237.397	8.33
237.614	12.13
237.831	9.48
238.048	12.88
238.264	11.1
238.481	10.23
238.698	11.28
238.915	11.44
239.131	6.13
239.348	5.56
239.565	4.44
239.781	3.8
239.998	3.08
240.215	5.4
240.431	7.51
240.648	8.1
240.865	11.75
241.081	8.98
241.298	10.37
241.514	13.5
241.731	16.58
241.947	15.65
242.164	14.86
242.38	15.47
242.597	15.17
242.814	14.02
243.03	15.19
243.246	14.98
243.463	15.11
243.679	16.07
243.896	15.44
244.112	14.6
244.329	14.84
244.545	14.69
244.762	13.75
244.978	14.59
245.194	14.78
245.411	14.5
245.627	14.78
245.843	15.05
246.06	13.34
246.276	13.79
246.492	13.98
246.709	14.71
246.925	15.25
247.141	15.31
247.357	14.89
247.574	15.05
247.79	15.27
248.006	15.31
248.222	15.55
248.439	15.36
248.655	15.18
248.871	15.1
249.087	14.43
249.303	14.27
249.519	14.15
249.736	12.62
249.952	12.86
250.168	11.89
250.384	10.56
250.6	9.61
250.816	11.07
251.032	10.19
251.248	11.54
251.464	9.65
251.68	10.77
251.896	11.5
252.112	14.02
252.328	13.2
252.544	13.09
252.76	15.14
252.976	15.42
253.192	15.16
253.408	15.28
253.624	13.99
253.84	16.16
254.056	14.14
254.272	12.78
254.487	11.73
254.703	11.11
254.919	11.03
255.135	6.2
255.351	5.79
255.567	1.53
255.782	2.46
255.998	5.4
256.214	6.9
256.43	11.14
256.646	11.5
256.861	10.44
257.077	10.45
257.293	8.79
257.508	11.53
257.724	11.9
257.94	13.76
258.155	11.99
258.371	11.77
258.587	11.05
258.802	9.28
259.018	8.49
259.234	9.36
259.449	9.68
259.665	10.1
259.88	9.41
260.096	9.18
260.312	9.51
260.527	9.84
260.743	9.86
260.958	9.8
261.174	9.8
261.389	10.47
261.605	10.57
261.82	10.59
262.036	10.87
262.251	11.58
262.466	12.86
262.682	11.88
262.897	11.56
263.113	10.19
263.328	9.58
263.543	9.85
263.759	8.47
263.974	9.49
264.189	8.45
264.405	8.08
264.62	9.89
264.835	8.48
265.051	9.99
265.266	11.44
265.481	10.56
265.696	10.88
265.912	9.74
266.127	10.84
266.342	8.73
266.557	10.25
266.773	10.26
266.988	7.32
267.203	6.48
267.418	6.18
267.633	3.84
267.848	5.52
268.064	5.84
268.279	7.6
268.494	6.42
268.709	6.1
268.924	4.47
269.139	4.63
269.354	4.68
269.569	5.52
269.784	5.65
269.999	7.04
270.214	5.28
270.429	4.62
270.644	4.48
270.859	5.41
271.074	6.09
271.289	6.11
271.504	6.36
271.719	7.99
271.934	8.04
272.149	8.45
272.363	8.06
272.578	8.82
272.793	9.19
273.008	8.28
273.223	9.16
273.438	10.73
273.653	11.25
273.867	9.94
274.082	8.66
274.297	10.24
274.512	10.04
274.726	10.15
274.941	10.26
275.156	10.35
275.371	11.42
275.585	12.37
275.8	10.49
276.015	10.04
276.229	12.25
276.444	12.96
276.659	10.95
276.873	10.01
277.088	10.29
277.302	10.55
277.517	12.26
277.732	11.55
277.946	8.69
278.161	6.93
278.375	7.95
278.59	7.16
278.804	6.26
279.019	6.33
279.233	6.36
279.448	7.06
279.662	7.5
279.877	5.86
280.091	6.19
280.306	6.33
280.52	8.75
280.735	8.54
280.949	8.47
281.163	8.62
281.378	8.97
281.592	9.34
281.806	8.95
282.021	8.3
282.235	8.05
282.449	7.62
282.664	7.7
282.878	6.63
283.092	6.03
283.307	5.93
283.521	7.21
283.735	7.88
283.949	7.01
284.164	7.78
284.378	8.38
284.592	9.5
284.806	10.17
285.02	10.38
285.234	10.97
285.449	11.41
285.663	10.95
285.877	10.04
286.091	9.92
286.305	11.02
286.519	10.35
286.733	10.11
286.947	9.1
287.161	8.81
287.375	9.17
287.589	9.32
287.803	9.31
288.017	9.53
288.231	9.28
288.445	7.7
288.659	7.15
288.873	8.23
289.087	8.38
289.301	9.28
289.515	8.66
289.729	7.85
289.943	7.63
290.157	8.89
290.371	8.23
290.584	8.18
290.798	9.26
291.012	9.79
291.226	8.86
291.44	8.35
291.654	8.77
291.867	8.11
292.081	8.19
292.295	8.85
292.509	8.03
292.722	9.06
292.936	8.7
293.15	9.9
293.364	8.92
293.577	8.45
293.791	8.11
294.005	7.46
294.218	8.05
294.432	8.49
294.645	7.41
294.859	7.88
295.073	7.85
295.286	9.57
295.5	9.18
295.713	10.15
295.927	10.43
296.14	10.64
296.354	10.64
296.568	11.13
296.781	10.54
296.994	11.61
297.208	10.87
297.421	11.57
297.635	10.53
297.848	10.58
298.062	9.85
298.275	10.09
298.489	9.87
298.702	9.43
298.915	9.4
299.129	8.96
299.342	8.02
299.555	8.48
299.769	7.42
299.982	8.06
300.195	7.37
300.409	8.04
300.622	8.35
300.835	8.36
301.048	9
301.262	10.2
301.475	12.36
301.688	13.53
301.901	14.84
302.115	14.4
302.328	13.99
302.541	13.51
302.754	12.79
302.967	12.16
303.18	13.02
303.393	12.89
303.607	11.59
303.82	10.7
304.033	9.44
304.246	7.15
304.459	7.34
304.672	7.63
304.885	9.15
305.098	8.67
305.311	9.22
305.524	8.05
305.737	8.25
305.95	9.19
306.163	9.62
306.376	10.57
306.589	11.94
306.802	12.81
307.015	12.95
307.228	12.55
307.44	14.05
307.653	14.01
307.866	14.71
308.079	13.56
308.292	12.95
308.505	13.04
308.718	12.3
308.93	11.66
309.143	11.81
309.356	11.97
309.569	12.09
309.781	12.08
309.994	12.09
310.207	11.78
310.42	12.59
310.632	13.48
310.845	13.02
311.058	13.27
311.27	13.52
311.483	12.94
311.696	12.65
311.908	12.25
312.121	11.88
312.333	12.35
312.546	12.94
312.759	13.16
312.971	13.16
313.184	14.96
313.396	14.49
313.609	14.18
313.821	14.46
314.034	15.3
314.246	15.75
314.459	16.19
314.671	14.93
314.884	14.51
315.096	14.07
315.309	14.29
315.521	13.81
315.733	14.17
315.946	14.67
316.158	15.56
316.371	14.35
316.583	12.29
316.795	12.03
317.008	13.75
317.22	13.28
317.432	13.92
317.644	12.9
317.857	11.92
318.069	12.48
318.281	12.33
318.494	13.02
318.706	13.37
318.918	13.85
319.13	13.49
319.342	11.7
319.555	13.06
319.767	14.28
319.979	14.05
320.191	13.19
320.403	12.24
320.615	11.78
320.827	10.8
321.039	11.51
321.252	12.83
321.464	13.42
321.676	14.09
321.888	13.38
322.1	12.03
322.312	12.18
322.524	12.4
322.736	11.68
322.948	10.9
323.16	10.93
323.372	10.52
323.584	10.68
323.796	10.72
324.007	11.07
324.219	11.13
324.431	9.68
324.643	10.2
324.855	9.73
325.067	11.46
325.279	12.67
325.491	13.12
325.702	13.11
325.914	13.36
326.126	12.62
326.338	12.82
326.55	11.35
326.761	12.01
326.973	10.98
327.185	11.9
327.396	10.86
327.608	10.23
327.82	9.36
328.032	8.74
328.243	7.9
328.455	8.46
328.666	8.68
328.878	10.8
329.09	11.6
329.301	11.27
329.513	11.52
329.725	11.83
329.936	12.64
330.148	12.53
330.359	13.19
330.571	12.59
330.782	12.91
330.994	12.81
331.205	12.8
331.417	11.75
331.628	13.13
331.84	13.37
332.051	14.01
332.262	12.13
332.474	12.19
332.685	12.37
332.897	13.09
333.108	13.27
333.319	12.66
333.531	11.09
333.742	12.09
333.953	11.68
334.165	10.36
334.376	9.19
334.587	9.79
334.799	10.27
335.01	10.45
335.221	9.35
335.432	9.37
335.644	9.62
335.855	10.05
336.066	10.39
336.277	10.05
336.488	11.01
336.7	11.68
336.911	11.34
337.122	10.79
337.333	9.82
337.544	10.2
337.755	9.31
337.966	9.31
338.177	9.22
338.388	8.25
338.599	9.11
338.811	8.62
339.022	9.26
339.233	9.68
339.444	8.75
339.655	9.11
339.866	8.98
340.076	9.23
340.287	8.19
340.498	9.63
340.709	10.51
340.92	9.92
341.131	10.06
341.342	9.47
341.553	10.16
341.764	11.16
341.975	11.98
342.185	11.45
342.396	11.75
342.607	12.53
342.818	11.98
343.029	10.91
343.239	10.49
343.45	11.13
343.661	10.68
343.872	9.68
344.082	9.54
344.293	8.89
344.504	9.39
344.714	9.14
344.925	8.61
345.136	8.28
345.346	9.14
345.557	9.92
345.768	10.01
345.978	9.54
346.189	9.79
346.399	10.54
346.61	11.37
346.821	11.65
347.031	11.34
347.242	12.04
347.452	12.32
347.663	11.36
347.873	12.05
348.084	10.31
348.294	9.97
348.504	10.47
348.715	10.67
348.925	10.36
349.136	10.34
349.346	11.25
349.557	12.41
349.767	12.78
349.977	12.81
350.188	11.3
350.398	11.64
350.608	13.6
350.819	13.23
351.029	12.42
351.239	11.62
351.449	10.73
351.66	8.71
351.87	8.15
352.08	8.49
352.29	9.34
352.501	10.14
352.711	10.74
352.921	9.73
353.131	9.91
353.341	9.42
353.552	9.33
353.762	10.87
353.972	12.85
354.182	13.21
354.392	11.98
354.602	10.97
354.812	10.42
355.022	9.88
355.232	9.27
355.442	9.36
355.652	9.96
355.862	10.81
356.072	10.06
356.282	9.18
356.492	7.38
356.702	8.22
356.912	9.2
357.122	9.09
357.332	9.35
357.542	9.37
357.752	8.87
357.962	8.11
358.171	7.83
358.381	8.06
358.591	7.96
358.801	9.34
359.011	9.17
359.221	8.47
359.43	8.92
359.64	9.92
359.85	10.48
360.06	10.61
360.269	11.33
360.479	11.35
360.689	10.68
360.899	11.02
361.108	10.57
361.318	10.29
361.528	10.14
361.737	9.54
361.947	8.55
362.156	8.62
362.366	8.89
362.576	8.47
362.785	8.36
362.995	9.02
363.204	9.21
363.414	9.29
363.623	9.58
363.833	10.21
364.042	10.53
364.252	11.04
364.461	10.16
364.671	10.55
364.88	10.77
365.09	10.58
365.299	10.95
365.509	10.24
365.718	9.6
365.927	9.5
366.137	9.04
366.346	9.26
366.555	8.61
366.765	9.34
366.974	8.19
367.183	7.96
367.393	7.8
367.602	6.87
367.811	6.98
368.021	7.45
368.23	6.6
368.439	6.33
368.648	6.41
368.857	7.2
369.067	6.51
369.276	7.1
369.485	6.97
369.694	6.67
369.903	6.49
370.112	6.97
370.321	6.17
370.531	6.01
370.74	6.3
370.949	5.89
371.158	5.27
371.367	5.68
371.576	5.59
371.785	5.94
371.994	5.34
372.203	5.67
372.412	6.25
372.621	6.73
372.83	6.89
373.039	6.46
373.248	6.59
373.457	6.83
373.666	7.55
373.874	7.72
374.083	7.85
374.292	8.57
374.501	8.72
374.71	7.17
374.919	7.11
375.128	7.48
375.336	7.48
375.545	7.34
375.754	7.17
375.963	6.61
376.171	6.35
376.38	6.01
376.589	6.27
376.798	5.66
377.006	6.69
377.215	6.7
377.424	6.42
377.632	6.2
377.841	6.46
378.05	6.68
378.258	6.43
378.467	6.33
378.675	6.19
378.884	5.85
379.093	6.39
379.301	6.16
379.51	5.93
379.718	6.09
379.927	6.47
380.135	5.81
380.344	5.52
380.552	6.17
380.761	6.24
380.969	6.32
381.177	6.78
381.386	6.59
381.594	6.3
381.803	6.98
382.011	6.77
382.219	6.72
382.428	6.87
382.636	7.02
382.845	6.33
383.053	5.84
383.261	5.88
383.469	5.49
383.678	5.36
383.886	5.38
384.094	4.87
384.302	4.97
384.511	5.11
384.719	5.25
384.927	5.11
385.135	5.11
385.343	5.29
385.552	5.39
385.76	5.68
385.968	5.97
386.176	5.7
386.384	5.73
386.592	5.91
386.8	5.81
387.008	5.69
387.216	5.41
387.424	5.56
387.633	5.87
387.841	5.79
388.049	5.44
388.257	5.17
388.465	5.27
388.672	5.38
388.88	4.98
389.088	5.23
389.296	5.39
389.504	5.99
389.712	6.56
389.92	6.58
390.128	6.33
390.336	6.31
390.544	6.11
390.751	6.17
390.959	6.03
391.167	6.49
391.375	6.02
391.583	6.05
391.79	5.55
391.998	5.18
392.206	4.94
392.414	5.1
392.621	5.22
392.829	5.15
393.037	5.06
393.244	5.12
393.452	5.02
393.66	5.49
393.867	5.29
394.075	5.48
394.283	5.36
394.49	5.41
394.698	5.43
394.905	5.35
395.113	5.28
395.32	5.25
395.528	5.23
395.735	4.72
395.943	4.35
396.15	4.29
396.358	3.95
396.565	3.95
396.773	3.59
396.98	3.47
397.188	3.36
397.395	3.42
397.602	3.73
397.81	3.49
398.017	3.7
398.225	3.55
398.432	3.74
398.639	3.97
398.847	4.24
399.054	4.58
399.261	4.69
399.468	4.63
399.676	4.86
399.883	4.62
400.09	4.58
400.297	4.63
400.505	4.69
400.712	4.77
400.919	4.56
401.126	4.14
401.333	3.9
401.54	3.42
401.748	3.63
401.955	3.58
402.162	3.58
402.369	3.6
402.576	3.63
402.783	4.1
402.99	4.15
403.197	4.38
403.404	4.63
403.611	4.72
403.818	5.02
404.025	5.23
404.232	5.23
404.439	5.09
404.646	5.19
404.853	5.01
405.06	4.28
405.267	4.03
405.474	4.13
405.681	3.97
405.887	3.87
406.094	3.71
406.301	3.35
406.508	3.02
406.715	3.24
406.922	3.49
407.128	3.85
407.335	4.36
407.542	4.3
407.749	4.15
407.955	3.94
408.162	4.3
408.369	4.61
408.575	4.58
408.782	4.64
408.989	4.48
409.195	4.51
409.402	4.48
409.609	4.36
409.815	4.43
410.022	4.37
410.228	4.72
410.435	4.72
410.642	4.41
410.848	4.3
411.055	4.58
411.261	4.34
411.468	4.18
411.674	4.29
411.881	4.33
412.087	4.28
412.294	4.46
412.5	3.98
412.706	3.92
412.913	4.13
413.119	4.49
413.326	4.44
413.532	4.8
413.738	4.45
413.945	3.88
414.151	3.97
414.357	4.22
414.564	4.14
414.77	4.62
414.976	4.57
415.182	4.68
415.389	4.52
415.595	4.49
415.801	4.57
416.007	4.42
416.214	4.67
416.42	4.55
416.626	4.45
416.832	4.29
417.038	4.09
417.244	4.15
417.45	4.02
417.657	3.9
417.863	4.01
418.069	3.97
418.275	4.17
418.481	4.17
418.687	4.21
418.893	4.2
419.099	4.18
419.305	4.26
419.511	4.18
419.717	4.12
419.923	4.13
420.129	4
420.335	3.83
420.541	3.89
420.746	3.89
420.952	3.94
421.158	3.92
421.364	3.96
421.57	3.86
421.776	3.79
421.982	3.86
422.187	3.87
422.393	3.93
422.599	3.87
422.805	3.88
423.01	3.77
423.216	3.54
423.422	3.53
423.628	3.64
423.833	3.7
424.039	3.67
424.245	3.59
424.45	3.7
424.656	3.53
424.862	3.64
425.067	3.55
425.273	3.67
425.478	3.73
425.684	3.75
425.889	3.7
426.095	3.78
426.301	3.8
426.506	3.87
426.712	3.63
426.917	3.86
427.123	3.87
427.328	4
427.533	3.94
427.739	4
427.944	3.9
428.15	3.72
428.355	3.72
428.561	3.91
428.766	3.93
428.971	4.19
429.177	4.04
429.382	4.02
429.587	4.29
429.793	4.23
429.998	4.28
430.203	4.39
430.408	4.29
430.614	3.88
430.819	3.9
431.024	3.77
431.229	3.59
431.434	3.55
431.64	3.6
431.845	3.18
432.05	3.39
432.255	3.44
432.46	3.45
432.665	3.44
432.87	3.47
433.076	3.31
433.281	3.23
433.486	3.37
433.691	3.48
433.896	3.46
434.101	3.56
434.306	3.44
434.511	3.55
434.716	3.56
434.921	3.78
435.126	3.91
435.331	3.74
435.535	3.74
435.74	3.72
435.945	3.48
436.15	3.42
436.355	3.13
436.56	3.02
436.765	2.7
436.97	2.61
437.174	2.56
437.379	2.71
437.584	2.74
437.789	2.9
437.993	2.99
438.198	3.09
438.403	3.19
438.608	3.31
438.812	3.35
439.017	3.35
439.222	3.39
439.426	3.48
439.631	3.42
439.836	3.63
440.04	3.53
440.245	3.41
440.45	3.51
440.654	3.37
440.859	3.38
441.063	3.49
441.268	3.52
441.472	3.47
441.677	3.47
441.881	3.41
442.086	3.29
442.29	3.26
442.495	3.34
442.699	3.19
442.904	3.22
443.108	3.3
443.312	3.24
443.517	3.25
443.721	3.22
443.925	3.08
444.13	3.1
444.334	3.3
444.538	3.36
444.743	3.39
444.947	3.49
445.151	3.49
445.356	3.51
445.56	3.56
445.764	3.63
445.968	3.68
446.173	3.76
446.377	3.82
446.581	3.58
446.785	3.58
446.989	3.49
447.193	3.46
447.398	3.49
447.602	3.39
447.806	3.38
448.01	3.34
448.214	3.26
448.418	3.13
448.622	2.87
448.826	3.14
449.03	3.33
449.234	3.41
449.438	3.46
449.642	3.52
449.846	3.58
450.05	3.37
450.254	3.32
450.458	3.27
450.662	3.33
450.866	3.57
451.069	3.51
451.273	3.22
451.477	3
451.681	2.92
451.885	3
452.089	3.2
452.292	3.22
452.496	3.28
452.7	3.42
452.904	3.32
453.107	3.43
453.311	3.28
453.515	3.32
453.719	3.44
453.922	3.32
454.126	3.34
454.33	3.12
454.533	3.2
454.737	3.15
454.94	3.12
455.144	3.33
455.348	3.09
455.551	3.18
455.755	2.97
455.958	3.08
456.162	3.35
456.365	3.33
456.569	3.32
456.772	3.43
456.976	3.49
457.179	3.38
457.383	3.28
457.586	3.46
457.79	3.48
457.993	3.62
458.196	3.62
458.4	3.56
458.603	3.51
458.807	3.52
459.01	3.42
459.213	3.41
459.417	3.48
459.62	3.5
459.823	3.48
460.026	3.53
460.23	3.53
460.433	3.36
460.636	3.43
460.839	3.28
461.042	3.25
461.246	3.1
461.449	3.07
461.652	3.02
461.855	2.85
462.058	2.71
462.261	2.52
462.464	2.59
462.668	2.71
462.871	2.48
463.074	2.6
463.277	2.71
463.48	3.01
463.683	2.9
463.886	3.05
464.089	3.25
464.292	3.3
464.495	3.29
464.698	3.11
464.901	3.22
465.104	3.38
465.306	3.15
