Data from 2938028_Reflection_1.txt Node
Date: Sun Jul 12 15:08:27 EDT 2015
User: robert
Spectrometer: USB4E03001
Autoset integration time: false
Trigger mode: 4
Integration Time (sec): 1.000000E-1
Scans to average: 10
Electric dark correction enabled: true
Nonlinearity correction enabled: false
Boxcar width: 5
Stray light correction enabled: false
XAxis mode: Wavelengths
Stop averaging: false
Number of Pixels in Spectrum: 3648
>>>>>Begin Spectral Data<<<<<
177.566	-13.16
177.785	36.75
178.005	-110.16
178.225	-4.05
178.445	15.53
178.665	70.99
178.885	42.63
179.105	78.76
179.324	71.97
179.544	47.12
179.764	58.31
179.984	70
180.204	101.2
180.423	54.16
180.643	80.51
180.863	74.21
181.083	87.21
181.302	75.21
181.522	77
181.742	77.51
181.961	97.23
182.181	165.91
182.401	117.86
182.621	118.91
182.84	246.57
183.06	191.74
183.279	203.87
183.499	155.85
183.719	170.68
183.938	148.71
184.158	173.73
184.377	193.98
184.597	73.98
184.816	96.09
185.036	91.35
185.256	75.48
185.475	109.72
185.695	69.45
185.914	58.38
186.134	95.46
186.353	177.59
186.572	248.72
186.792	164.04
187.011	336.02
187.231	321.02
187.45	259.59
187.67	275.78
187.889	119.82
188.108	170.5
188.328	182.64
188.547	175.48
188.766	137.57
188.986	122.18
189.205	110.6
189.424	116.55
189.644	117.07
189.863	123.43
190.082	128.07
190.302	133.73
190.521	105.61
190.74	122.72
190.959	123.4
191.178	125
191.398	123.07
191.617	128.56
191.836	118.05
192.055	121.31
192.274	101.1
192.494	102.2
192.713	117.79
192.932	125.25
193.151	122.12
193.37	108.9
193.589	104.75
193.808	123.89
194.027	139.26
194.246	157.92
194.465	125.69
194.685	186.72
194.904	252.38
195.123	196.81
195.342	275.01
195.561	222.91
195.78	437
195.999	-41230
196.218	1428.2
196.436	1150.9
196.655	482.6
196.874	-6543.88
197.093	288.41
197.312	196.61
197.531	205.69
197.75	166.52
197.969	202.35
198.188	217.99
198.407	205.29
198.625	336.51
198.844	134.5
199.063	112.81
199.282	153.81
199.501	141.4
199.719	147.17
199.938	124.06
200.157	129.53
200.376	108.95
200.594	77.79
200.813	80.75
201.032	57.74
201.251	79.23
201.469	97.27
201.688	75.35
201.907	76.76
202.125	79.6
202.344	117.33
202.563	103.42
202.781	127.39
203	147.02
203.218	125.73
203.437	159.18
203.656	251.41
203.874	321.89
204.093	254.53
204.311	286.01
204.53	275.61
204.748	361.95
204.967	1185.69
205.185	430.81
205.404	522.09
205.622	877.92
205.841	-5281.58
206.059	-1978.76
206.278	1512.02
206.496	1456.1
206.715	762.53
206.933	-140457.14
207.151	1108.77
207.37	502.32
207.588	357.23
207.806	238.29
208.025	220.33
208.243	172.83
208.461	157.97
208.68	136.04
208.898	151.29
209.116	165.05
209.335	157.07
209.553	136.15
209.771	135.05
209.989	132.84
210.208	141.94
210.426	120.08
210.644	110.49
210.862	94.03
211.081	142.96
211.299	158.27
211.517	111.53
211.735	74.48
211.953	105.37
212.171	127.81
212.39	172.65
212.608	192.19
212.826	218.48
213.044	164.26
213.262	133.93
213.48	108.41
213.698	96.11
213.916	120.12
214.134	130.18
214.352	125.5
214.57	140.32
214.788	215.41
215.006	197.46
215.224	266.72
215.442	-553
215.66	-228.53
215.878	-1792.19
216.096	2045.64
216.314	220.28
216.532	328
216.75	334.4
216.968	196.95
217.185	103.6
217.403	116.75
217.621	96.24
217.839	84.38
218.057	64.86
218.275	72.27
218.492	75.56
218.71	85.87
218.928	102.16
219.146	77.57
219.363	86.88
219.581	74.08
219.799	94.29
220.017	115.77
220.234	115.52
220.452	113.98
220.67	106.8
220.887	104.34
221.105	115.68
221.323	95.32
221.54	120.44
221.758	109.59
221.976	107.03
222.193	89.83
222.411	82.34
222.629	70.5
222.846	70.18
223.064	69.21
223.281	71.35
223.499	77.2
223.716	55.1
223.934	62.64
224.151	73.16
224.369	76.45
224.586	62.51
224.804	65.23
225.021	59.36
225.239	64.85
225.456	48.04
225.674	36.45
225.891	27.64
226.108	47.59
226.326	31.44
226.543	16.97
226.76	18.69
226.978	30.07
227.195	24.31
227.413	25.8
227.63	26.26
227.847	32.44
228.064	33.82
228.282	31.53
228.499	33.85
228.716	33.31
228.934	34.5
229.151	32.97
229.368	28
229.585	27.4
229.802	29.81
230.02	29.46
230.237	30.66
230.454	30.78
230.671	29.4
230.888	23.42
231.105	22.62
231.323	23.61
231.54	22.65
231.757	24.23
231.974	25.96
232.191	24.04
232.408	19.71
232.625	21.81
232.842	23.38
233.059	28.02
233.276	30.56
233.493	28.64
233.71	22.25
233.927	22.05
234.144	22.74
234.361	20.62
234.578	20.41
234.795	22.54
235.012	18.43
235.229	15.24
235.446	19.37
235.663	18.94
235.879	18.87
236.096	22.36
236.313	22.6
236.53	24.94
236.747	26.06
236.964	23.4
237.181	23.62
237.397	22.93
237.614	22.45
237.831	16.06
238.048	16.06
238.264	20.47
238.481	20.94
238.698	20.05
238.915	19.69
239.131	20.25
239.348	25.99
239.565	28.2
239.781	29.43
239.998	29.68
240.215	29.43
240.431	30.34
240.648	30.06
240.865	29.76
241.081	30.88
241.298	27.88
241.514	26.54
241.731	23.03
241.947	20.94
242.164	18.38
242.38	17.57
242.597	16.37
242.814	14.42
243.03	13.49
243.246	11.25
243.463	7.56
243.679	8.95
243.896	7.52
244.112	9.45
244.329	9.15
244.545	10.16
244.762	9.55
244.978	12.23
245.194	16.58
245.411	15.6
245.627	15.07
245.843	17.83
246.06	16.03
246.276	15.51
246.492	14.67
246.709	14.41
246.925	14.09
247.141	14.13
247.357	13.23
247.574	11.87
247.79	12.77
248.006	13.16
248.222	12.16
248.439	12.72
248.655	13.44
248.871	11.21
249.087	11.48
249.303	12.06
249.519	11.65
249.736	11.54
249.952	12.17
250.168	11.59
250.384	10.88
250.6	13.23
250.816	11.19
251.032	11.53
251.248	15.44
251.464	15.72
251.68	14.7
251.896	15.73
252.112	13.35
252.328	12.98
252.544	11.59
252.76	11.42
252.976	10.54
253.192	11.67
253.408	11.03
253.624	10.56
253.84	10.07
254.056	10.89
254.272	12.29
254.487	14.64
254.703	13.73
254.919	17.44
255.135	21.55
255.351	19.38
255.567	19.89
255.782	17.87
255.998	17.84
256.214	19.9
256.43	18.54
256.646	17.23
256.861	15.11
257.077	16.51
257.293	13.33
257.508	11.96
257.724	14.7
257.94	12.79
258.155	12.41
258.371	12.57
258.587	9.63
258.802	9.68
259.018	9.33
259.234	9.67
259.449	9.47
259.665	9.64
259.88	9.75
260.096	9.16
260.312	9.87
260.527	10.39
260.743	9.8
260.958	10.57
261.174	9.54
261.389	9.99
261.605	11.16
261.82	11.85
262.036	12.33
262.251	11.72
262.466	11.43
262.682	10.81
262.897	9.4
263.113	9.75
263.328	9.51
263.543	10.88
263.759	10.7
263.974	9.17
264.189	10.05
264.405	9.67
264.62	12.35
264.835	15.14
265.051	16.63
265.266	17.37
265.481	16.78
265.696	16.14
265.912	17.61
266.127	17.07
266.342	19.1
266.557	17.7
266.773	17.39
266.988	16.46
267.203	14.99
267.418	13.74
267.633	14.67
267.848	15.88
268.064	15.59
268.279	16.32
268.494	15.31
268.709	12.73
268.924	12.09
269.139	11.72
269.354	11.7
269.569	11.24
269.784	11.67
269.999	10.98
270.214	9.19
270.429	9.31
270.644	7.92
270.859	9.04
271.074	10.32
271.289	11.22
271.504	11.31
271.719	10.7
271.934	10.03
272.149	9.59
272.363	8.99
272.578	9.51
272.793	8.94
273.008	8.91
273.223	9.03
273.438	8.31
273.653	7.98
273.867	8.26
274.082	7.93
274.297	8.02
274.512	7.09
274.726	6.58
274.941	6.61
275.156	8.21
275.371	6.45
275.585	7
275.8	7.91
276.015	6.54
276.229	6.51
276.444	6.71
276.659	7.33
276.873	8.76
277.088	11.01
277.302	10.84
277.517	9.45
277.732	9.41
277.946	7.99
278.161	7.66
278.375	8
278.59	7.74
278.804	7.28
279.019	8.87
279.233	8.07
279.448	6.95
279.662	6.22
279.877	5.99
280.091	6.85
280.306	7.16
280.52	8.24
280.735	9.54
280.949	8.91
281.163	9.83
281.378	8.32
281.592	8.26
281.806	8.25
282.021	10.23
282.235	11.55
282.449	11.76
282.664	12.16
282.878	11.2
283.092	11.78
283.307	13.05
283.521	12.6
283.735	13.64
283.949	13.68
284.164	13.64
284.378	12.42
284.592	13.38
284.806	13.42
285.02	13.5
285.234	13.22
285.449	10.94
285.663	10.22
285.877	9.88
286.091	8.5
286.305	8.32
286.519	8.67
286.733	8.35
286.947	8.26
287.161	8.98
287.375	7.64
287.589	7.56
287.803	8.83
288.017	7.9
288.231	8.43
288.445	8.81
288.659	9.81
288.873	9.3
289.087	9.72
289.301	9.05
289.515	9.03
289.729	9.88
289.943	9.58
290.157	10.23
290.371	11.1
290.584	10.36
290.798	10.15
291.012	10.14
291.226	10.55
291.44	10.29
291.654	8.75
291.867	7.88
292.081	8.56
292.295	9.57
292.509	10.58
292.722	10.98
292.936	12.5
293.15	11.52
293.364	10.91
293.577	10.77
293.791	10.48
294.005	10.83
294.218	10.26
294.432	10.18
294.645	9.24
294.859	8.99
295.073	10.23
295.286	9.82
295.5	11.52
295.713	13.12
295.927	13.28
296.14	13.75
296.354	14.69
296.568	14.73
296.781	13.84
296.994	13.73
297.208	12.91
297.421	12.37
297.635	11.89
297.848	12.08
298.062	10.93
298.275	11.43
298.489	12.25
298.702	11.95
298.915	11.54
299.129	12.55
299.342	13.31
299.555	12.65
299.769	12
299.982	12.89
300.195	12.11
300.409	12.62
300.622	11.38
300.835	9.63
301.048	10.78
301.262	14.17
301.475	12.38
301.688	11.54
301.901	11.98
302.115	11.59
302.328	11.85
302.541	12.93
302.754	11.59
302.967	12.97
303.18	14.89
303.393	14.48
303.607	12.25
303.82	13.06
304.033	14.62
304.246	14.57
304.459	14.95
304.672	14.33
304.885	13.76
305.098	15.61
305.311	15.29
305.524	14.11
305.737	12.85
305.95	13.8
306.163	15.23
306.376	14.56
306.589	14.6
306.802	14.82
307.015	14.86
307.228	15.61
307.44	14.06
307.653	13.03
307.866	13.73
308.079	13.55
308.292	13.28
308.505	12.81
308.718	14.47
308.93	15.52
309.143	16.34
309.356	16.84
309.569	16.49
309.781	17.59
309.994	17.1
310.207	17.09
310.42	18.14
310.632	16.91
310.845	15.66
311.058	14.77
311.27	14.2
311.483	13.4
311.696	11.94
311.908	11.84
312.121	10.33
312.333	10.79
312.546	10.25
312.759	9.07
312.971	10.51
313.184	12.99
313.396	11.7
313.609	12.03
313.821	12.14
314.034	14.33
314.246	13.64
314.459	14.02
314.671	15.26
314.884	15.29
315.096	14.22
315.309	14.55
315.521	12.99
315.733	13.65
315.946	12.95
316.158	13.89
316.371	13.47
316.583	13.25
316.795	15.06
317.008	13.98
317.22	14.99
317.432	16.25
317.644	15
317.857	12.82
318.069	12.29
318.281	12.99
318.494	12.89
318.706	12.85
318.918	13.63
319.13	12.31
319.342	12.65
319.555	11.03
319.767	10.74
319.979	10.86
320.191	12.95
320.403	15.07
320.615	13.74
320.827	12.66
321.039	13.1
321.252	14.12
321.464	15.02
321.676	16.09
321.888	16.04
322.1	19.04
322.312	17.71
322.524	18.58
322.736	16.74
322.948	17.98
323.16	18.24
323.372	15.98
323.584	15.19
323.796	15.37
324.007	14.23
324.219	14.97
324.431	13.53
324.643	15.39
324.855	13.96
325.067	15.37
325.279	15.15
325.491	14.93
325.702	15.02
325.914	15.05
326.126	14.81
326.338	14.91
326.55	16.58
326.761	15.58
326.973	14.78
327.185	13.59
327.396	12.34
327.608	12.88
327.82	12.5
328.032	12.52
328.243	13.96
328.455	13
328.666	12.32
328.878	11.55
329.09	13.28
329.301	11.13
329.513	13.08
329.725	12.39
329.936	11.76
330.148	11.99
330.359	14.29
330.571	13.18
330.782	13.53
330.994	16.66
331.205	16.02
331.417	15.02
331.628	16.3
331.84	16.86
332.051	17.8
332.262	19.01
332.474	19.77
332.685	21.07
332.897	20.77
333.108	20.23
333.319	18.95
333.531	18.52
333.742	19.34
333.953	20.83
334.165	20.13
334.376	20.09
334.587	20.22
334.799	21.13
335.01	18.87
335.221	17.89
335.432	19.54
335.644	19.49
335.855	18.3
336.066	17.73
336.277	17.5
336.488	18.41
336.7	19.36
336.911	19.14
337.122	17.51
337.333	17.16
337.544	17.31
337.755	17.64
337.966	18.21
338.177	19.43
338.388	18.83
338.599	19.85
338.811	20.07
339.022	19.18
339.233	17.45
339.444	18.26
339.655	18.25
339.866	20.46
340.076	18.95
340.287	18.67
340.498	19.65
340.709	20.14
340.92	18.62
341.131	17.19
341.342	17.71
341.553	19.56
341.764	19.89
341.975	20.71
342.185	18.89
342.396	19.92
342.607	19.29
342.818	18.79
343.029	19.26
343.239	18.76
343.45	19.7
343.661	20.26
343.872	19.18
344.082	18.97
344.293	18.44
344.504	20.48
344.714	19.27
344.925	20.34
345.136	19.5
345.346	18.46
345.557	19.82
345.768	20.15
345.978	19.2
346.189	19.55
346.399	18.94
346.61	18.28
346.821	16.9
347.031	17.53
347.242	16.95
347.452	17.89
347.663	18.16
347.873	17.55
348.084	17.01
348.294	17.42
348.504	17.05
348.715	16.61
348.925	17.61
349.136	17.59
349.346	17.13
349.557	16.7
349.767	14.93
349.977	16.18
350.188	15.81
350.398	16.47
350.608	16.2
350.819	15.9
351.029	16.07
351.239	16.53
351.449	16.29
351.66	16.1
351.87	15.52
352.08	16.25
352.29	15.63
352.501	16.39
352.711	15.92
352.921	15.56
353.131	16.38
353.341	17.83
353.552	16.92
353.762	17.25
353.972	17.6
354.182	18
354.392	17.64
354.602	18.4
354.812	17.87
355.022	17.59
355.232	17.21
355.442	17.32
355.652	16.17
355.862	16.19
356.072	15.93
356.282	16.5
356.492	16.79
356.702	16.75
356.912	16.66
357.122	16.31
357.332	16.17
357.542	16.63
357.752	16.79
357.962	16.74
358.171	17.5
358.381	17.82
358.591	17.37
358.801	17.27
359.011	18.23
359.221	16.78
359.43	16.27
359.64	17.52
359.85	17.63
360.06	16.72
360.269	16.11
360.479	14.97
360.689	14
360.899	14.34
361.108	14.17
361.318	13.62
361.528	13.86
361.737	14.07
361.947	13.19
362.156	13.12
362.366	12.66
362.576	13.42
362.785	14.41
362.995	14.82
363.204	14.63
363.414	14.83
363.623	14.35
363.833	14.79
364.042	15.22
364.252	15.5
364.461	15.8
364.671	17.56
364.88	16.99
365.09	16.14
365.299	15.81
365.509	15.58
365.718	14.78
365.927	15.5
366.137	15.2
366.346	15.37
366.555	15.73
366.765	14.97
366.974	14.02
367.183	13.75
367.393	13.74
367.602	13.82
367.811	14.56
368.021	15
368.23	15.72
368.439	15.37
368.648	15.65
368.857	14.43
369.067	14.84
369.276	14.4
369.485	15.31
369.694	15.91
369.903	16.21
370.112	15.33
370.321	15.61
370.531	15.41
370.74	15.86
370.949	15.52
371.158	15.4
371.367	14.51
371.576	14.78
371.785	14.34
371.994	13.71
372.203	12.77
372.412	12.72
372.621	11.89
372.83	11.28
373.039	11.07
373.248	10.81
373.457	10.81
373.666	11.31
373.874	11.32
374.083	11.45
374.292	11.53
374.501	12.76
374.71	12.3
374.919	12.4
375.128	12.9
375.336	12.59
375.545	12.83
375.754	13.48
375.963	13.19
376.171	12.96
376.38	12.79
376.589	12.61
376.798	12.54
377.006	13.55
377.215	13.69
377.424	13.6
377.632	14.11
377.841	13.77
378.05	13.1
378.258	13.46
378.467	13.82
378.675	13.08
378.884	13.49
379.093	13.44
379.301	12.9
379.51	13.2
379.718	13.17
379.927	13.62
380.135	14.23
380.344	14.37
380.552	14.34
380.761	13.78
380.969	14.57
381.177	14.29
381.386	13.53
381.594	13.03
381.803	12.93
382.011	12.57
382.219	11.81
382.428	10.64
382.636	10.47
382.845	10.36
383.053	9.83
383.261	9.93
383.469	10.03
383.678	9.85
383.886	9.76
384.094	9.3
384.302	9.02
384.511	9.3
384.719	9.59
384.927	9.54
385.135	9.24
385.343	9.66
385.552	9.5
385.76	9.1
385.968	9.63
386.176	9.59
386.384	9.74
386.592	9.44
386.8	8.94
387.008	9.3
387.216	9.26
387.424	9.75
387.633	9.91
387.841	9.79
388.049	10.32
388.257	10.03
388.465	10.51
388.672	10.89
388.88	11.36
389.088	11.33
389.296	11.54
389.504	11.69
389.712	11.1
389.92	10.83
390.128	10.67
390.336	9.82
390.544	9.82
390.751	9.78
390.959	9.1
391.167	8.93
391.375	8.86
391.583	8.78
391.79	8.75
391.998	8.92
392.206	8.95
392.414	8.81
392.621	9.35
392.829	9.24
393.037	8.74
393.244	9.03
393.452	9.12
393.66	8.84
393.867	8.69
394.075	8.54
394.283	8.48
394.49	8.33
394.698	8.54
394.905	8.21
395.113	8.57
395.32	8.7
395.528	8.75
395.735	8.46
395.943	8.8
396.15	8.56
396.358	8.23
396.565	7.93
396.773	8.17
396.98	7.96
397.188	7.9
397.395	7.72
397.602	7.8
397.81	7.57
398.017	7.5
398.225	7.55
398.432	7.58
398.639	7.76
398.847	8.26
399.054	7.97
399.261	7.79
399.468	7.83
399.676	7.49
399.883	7.51
400.09	7.71
400.297	7.91
400.505	7.73
400.712	7.44
400.919	7.66
401.126	7.46
401.333	7.88
401.54	8.15
401.748	8.1
401.955	8.28
402.162	8.19
402.369	8.44
402.576	8.15
402.783	8.05
402.99	8.09
403.197	8.03
403.404	7.89
403.611	7.47
403.818	7.46
404.025	7.48
404.232	7.43
404.439	7.5
404.646	7.28
404.853	7.54
405.06	7.78
405.267	8.13
405.474	8.11
405.681	8.25
405.887	8.47
406.094	8.37
406.301	8.43
406.508	8.62
406.715	8.61
406.922	8.67
407.128	8.77
407.335	8.57
407.542	8.16
407.749	8.33
407.955	8.06
408.162	7.93
408.369	7.93
408.575	7.96
408.782	7.79
408.989	7.82
409.195	7.44
409.402	7.42
409.609	7.42
409.815	7.55
410.022	7.3
410.228	7.26
410.435	7.41
410.642	7.26
410.848	7.31
411.055	7.12
411.261	6.91
411.468	7.05
411.674	6.85
411.881	6.86
412.087	6.86
412.294	6.81
412.5	7.14
412.706	7.03
412.913	7.25
413.119	7.18
413.326	7.38
413.532	7.65
413.738	7.79
413.945	7.7
414.151	7.98
414.357	7.82
414.564	8.04
414.77	7.79
414.976	7.61
415.182	7.62
415.389	7.61
415.595	7.4
415.801	7.32
416.007	7.09
416.214	7.23
416.42	6.77
416.626	7
416.832	6.57
417.038	6.5
417.244	6.66
417.45	6.51
417.657	6.42
417.863	6.58
418.069	6.58
418.275	6.63
418.481	6.58
418.687	6.84
418.893	6.91
419.099	7.19
419.305	7.36
419.511	7.44
419.717	7.52
419.923	7.51
420.129	7.44
420.335	7.33
420.541	7.45
420.746	7.54
420.952	7.4
421.158	7.27
421.364	7.23
421.57	7.11
421.776	6.9
421.982	6.89
422.187	6.83
422.393	6.81
422.599	6.9
422.805	6.71
423.01	6.5
423.216	6.59
423.422	6.65
423.628	6.54
423.833	6.56
424.039	6.69
424.245	6.62
424.45	6.5
424.656	6.47
424.862	6.45
425.067	6.54
425.273	6.6
425.478	6.53
425.684	6.41
425.889	6.41
426.095	6.42
426.301	6.17
426.506	6.14
426.712	6.36
426.917	6.52
427.123	6.48
427.328	6.55
427.533	6.7
427.739	6.73
427.944	6.78
428.15	6.72
428.355	6.67
428.561	6.91
428.766	6.99
428.971	7.2
429.177	7.29
429.382	7.29
429.587	7.22
429.793	7.05
429.998	7.07
430.203	7.03
430.408	7.22
430.614	7.26
430.819	7.28
431.024	7.39
431.229	7.1
431.434	6.8
431.64	6.75
431.845	6.7
432.05	6.88
432.255	6.94
432.46	6.92
432.665	6.89
432.87	6.79
433.076	6.84
433.281	6.66
433.486	6.77
433.691	6.86
433.896	6.89
434.101	6.93
434.306	7.03
434.511	6.82
434.716	7.11
434.921	7.1
435.126	7.23
435.331	7.18
435.535	7.25
435.74	7.17
435.945	7.12
436.15	7.17
436.355	7.17
436.56	7.05
436.765	6.98
436.97	6.82
437.174	6.85
437.379	6.98
437.584	7.04
437.789	7.07
437.993	7.16
438.198	7.2
438.403	7.3
438.608	7.15
438.812	7.08
439.017	7.33
439.222	7.21
439.426	7.15
439.631	7.07
439.836	7.1
440.04	7.25
440.245	7.16
440.45	7.18
440.654	7.08
440.859	7.25
441.063	7.18
441.268	6.96
441.472	6.97
441.677	7.06
441.881	6.95
442.086	6.77
442.29	6.56
442.495	6.81
442.699	6.76
442.904	6.79
443.108	6.63
443.312	6.76
443.517	7
443.721	7.24
443.925	7.17
444.13	7.14
444.334	7.16
444.538	7.12
444.743	6.82
444.947	6.7
445.151	6.71
445.356	6.77
445.56	6.64
445.764	6.59
445.968	6.32
446.173	6.36
446.377	6.39
446.581	6.4
446.785	6.48
446.989	6.48
447.193	6.6
447.398	6.48
447.602	6.41
447.806	6.51
448.01	6.52
448.214	6.61
448.418	6.56
448.622	6.67
448.826	6.71
449.03	6.58
449.234	6.69
449.438	6.75
449.642	6.85
449.846	6.93
450.05	6.92
450.254	6.98
450.458	7.04
450.662	6.9
450.866	6.72
451.069	6.81
451.273	6.97
451.477	7.07
451.681	7.03
451.885	7.03
452.089	7.09
452.292	6.95
452.496	6.86
452.7	6.79
452.904	7.15
453.107	7.43
453.311	7.39
453.515	7.31
453.719	7.2
453.922	7.14
454.126	7.25
454.33	7.21
454.533	7.11
454.737	6.93
454.94	6.68
455.144	6.52
455.348	6.24
455.551	6.21
455.755	6.04
455.958	5.86
456.162	5.62
456.365	5.44
456.569	5.52
456.772	5.87
456.976	5.98
457.179	6.21
457.383	6.21
457.586	6.11
457.79	5.85
457.993	5.84
458.196	6.07
458.4	6.22
458.603	6.23
458.807	6.08
459.01	6.06
459.213	6.13
459.417	6.28
459.62	6.23
459.823	6.2
460.026	6.39
460.23	6.42
460.433	6.36
460.636	6.27
460.839	6.27
461.042	6.33
461.246	6.28
461.449	6.27
461.652	6.28
461.855	6.33
