Data from 2938119_Reflection_3.txt Node
Date: Sat Jul 11 17:55:35 EDT 2015
User: robert
Spectrometer: USB4E03001
Autoset integration time: false
Trigger mode: 4
Integration Time (sec): 1.000000E-1
Scans to average: 10
Electric dark correction enabled: true
Nonlinearity correction enabled: false
Boxcar width: 5
Stray light correction enabled: false
XAxis mode: Wavelengths
Stop averaging: false
Number of Pixels in Spectrum: 3648
>>>>>Begin Spectral Data<<<<<
177.566	766.67
177.785	-150.49
178.005	3.4
178.225	20.93
178.445	56.48
178.665	147.66
178.885	81.1
179.105	144.12
179.324	99.98
179.544	58.73
179.764	65.94
179.984	38.22
180.204	84.16
180.423	32.4
180.643	-26.87
180.863	136.16
181.083	-143.81
181.302	-23.15
181.522	18.27
181.742	74.29
181.961	50.06
182.181	51.46
182.401	60.06
182.621	-30.89
182.84	7.92
183.06	75.58
183.279	28.06
183.499	55.41
183.719	72.72
183.938	58.04
184.158	66.78
184.377	86.13
184.597	92.25
184.816	110.8
185.036	103.35
185.256	103.65
185.475	128.21
185.695	129.51
185.914	166.64
186.134	137.45
186.353	145.58
186.572	100.84
186.792	123.68
187.011	156.91
187.231	126.86
187.45	118.52
187.67	132.5
187.889	111.35
188.108	153.73
188.328	148.41
188.547	151.9
188.766	155.25
188.986	186.2
189.205	189.66
189.424	162.64
189.644	193.09
189.863	254.69
190.082	1123.77
190.302	320.96
190.521	181.78
190.74	232.48
190.959	-1305.52
191.178	-577
191.398	634.78
191.617	310.75
191.836	332.9
192.055	424.95
192.274	346.83
192.494	256.85
192.713	855.48
192.932	727.92
193.151	-6559.79
193.37	-1104.14
193.589	-307.46
193.808	-1712.7
194.027	-752.47
194.246	512.44
194.465	12261.02
194.685	1247.27
194.904	-2499.64
195.123	603.93
195.342	-967.14
195.561	627.53
195.78	298.83
195.999	237.02
196.218	450.94
196.436	405.43
196.655	394.23
196.874	205.99
197.093	213.94
197.312	160.06
197.531	171.54
197.75	124.16
197.969	127.33
198.188	136.48
198.407	141.57
198.625	134.15
198.844	133.69
199.063	99.35
199.282	148.28
199.501	69.46
199.719	115.03
199.938	91.29
200.157	114.27
200.376	-855.15
200.594	218.4
200.813	136.99
201.032	106.6
201.251	111.44
201.469	150.84
201.688	97.76
201.907	129.08
202.125	111.99
202.344	154.35
202.563	154.33
202.781	133.73
203	104.78
203.218	92.71
203.437	102.98
203.656	79.94
203.874	31.28
204.093	55.96
204.311	66.48
204.53	76.72
204.748	60.44
204.967	49.37
205.185	58.8
205.404	59.36
205.622	78.72
205.841	77.51
206.059	87.75
206.278	107.15
206.496	130.43
206.715	129.22
206.933	154.74
207.151	285.17
207.37	497.19
207.588	644.99
207.806	400.19
208.025	693.24
208.243	484.77
208.461	426.99
208.68	-196.39
208.898	381.77
209.116	203.94
209.335	138.23
209.553	231.8
209.771	165.15
209.989	382.17
210.208	-615.74
210.426	-220.8
210.644	-686.73
210.862	256.84
211.081	238.47
211.299	275.51
211.517	378.07
211.735	430.47
211.953	145.84
212.171	141.63
212.39	139.64
212.608	130.69
212.826	107.51
213.044	96.61
213.262	101.82
213.48	78.05
213.698	66.34
213.916	81.12
214.134	73.79
214.352	99.21
214.57	91.1
214.788	80.53
215.006	74.7
215.224	66.91
215.442	66.34
215.66	63.13
215.878	77
216.096	91.8
216.314	87.92
216.532	90.94
216.75	61.77
216.968	62.95
217.185	89.88
217.403	135.43
217.621	226.24
217.839	179.97
218.057	124.43
218.275	93.93
218.492	74.89
218.71	71.07
218.928	83.96
219.146	166.76
219.363	153.13
219.581	127.43
219.799	189.78
220.017	1293.81
220.234	70.31
220.452	70.25
220.67	32.11
220.887	173.53
221.105	207.93
221.323	123.02
221.54	66.33
221.758	58.65
221.976	58.33
222.193	55.2
222.411	54.43
222.629	48.91
222.846	61.45
223.064	65.49
223.281	61.36
223.499	57.19
223.716	42.34
223.934	44.31
224.151	41.77
224.369	51.97
224.586	50.82
224.804	48.82
225.021	42.21
225.239	35.81
225.456	26.22
225.674	20.48
225.891	30.79
226.108	44.34
226.326	40.16
226.543	34.82
226.76	22.27
226.978	23.11
227.195	20.67
227.413	22.12
227.63	28.89
227.847	32.8
228.064	32.8
228.282	29.13
228.499	29.15
228.716	27.56
228.934	27.46
229.151	29.23
229.368	27.5
229.585	25.62
229.802	26.04
230.02	21.21
230.237	18.98
230.454	16.79
230.671	14.33
230.888	9.33
231.105	8.88
231.323	8.55
231.54	7.07
231.757	8.12
231.974	10.82
232.191	14.77
232.408	14.78
232.625	21.8
232.842	21.38
233.059	22.72
233.276	21.11
233.493	24.89
233.71	27.05
233.927	24.32
234.144	22.93
234.361	22.55
234.578	20.55
234.795	22.72
235.012	14
235.229	15.43
235.446	12.83
235.663	20.74
235.879	14.73
236.096	11.05
236.313	9.57
236.53	10.66
236.747	10.81
236.964	10.64
237.181	12.67
237.397	21.21
237.614	29.66
237.831	25.29
238.048	25.2
238.264	24.43
238.481	20.01
238.698	23.6
238.915	18.89
239.131	14.79
239.348	10.42
239.565	6.18
239.781	3.64
239.998	-3.08
240.215	6.73
240.431	5.21
240.648	8.04
240.865	12.38
241.081	11.1
241.298	13.52
241.514	11.52
241.731	12.62
241.947	13.29
242.164	13.77
242.38	14.57
242.597	13.68
242.814	13.82
243.03	14.56
243.246	14.42
243.463	14.84
243.679	15.12
243.896	18.49
244.112	17.34
244.329	16.35
244.545	14.96
244.762	12.78
244.978	12.87
245.194	12.69
245.411	10.76
245.627	10.37
245.843	10.46
246.06	9.36
246.276	7.73
246.492	8.67
246.709	8.77
246.925	8.83
247.141	8.51
247.357	7.97
247.574	7.74
247.79	7.98
248.006	8
248.222	7.53
248.439	7.31
248.655	7.18
248.871	6.74
249.087	7.92
249.303	9.24
249.519	10.66
249.736	11.01
249.952	11.97
250.168	11.65
250.384	11.16
250.6	10.97
250.816	9.75
251.032	11.54
251.248	14.43
251.464	12.46
251.68	10.99
251.896	11.64
252.112	10.38
252.328	8.37
252.544	9.98
252.76	12.92
252.976	14.23
253.192	15.86
253.408	16.07
253.624	15.67
253.84	16.98
254.056	18.04
254.272	19.07
254.487	19.61
254.703	21.8
254.919	21.32
255.135	17.37
255.351	19.72
255.567	17.85
255.782	18.86
255.998	16.75
256.214	18.56
256.43	20.11
256.646	19.41
256.861	20.34
257.077	16.87
257.293	16.5
257.508	15.22
257.724	11.87
257.94	11.59
258.155	10.07
258.371	9.52
258.587	6.42
258.802	5.41
259.018	4.41
259.234	4.38
259.449	5.3
259.665	4.82
259.88	5.01
260.096	4.6
260.312	4.37
260.527	4.76
260.743	4.86
260.958	5.55
261.174	5.14
261.389	4.7
261.605	5.06
261.82	5.83
262.036	6.18
262.251	6.21
262.466	6.16
262.682	7.59
262.897	6.07
263.113	5.89
263.328	6.2
263.543	6.79
263.759	8.62
263.974	8.09
264.189	4.83
264.405	5.23
264.62	6.49
264.835	7.06
265.051	7.81
265.266	8.51
265.481	8.34
265.696	8.38
265.912	9.75
266.127	8.99
266.342	7.57
266.557	9.79
266.773	8.69
266.988	7.98
267.203	8.45
267.418	8.75
267.633	8.86
267.848	8.4
268.064	8.26
268.279	8.69
268.494	9.22
268.709	10.01
268.924	10.11
269.139	10.64
269.354	10.26
269.569	10.76
269.784	9.35
269.999	9.46
270.214	8.96
270.429	9.1
270.644	7.95
270.859	8.72
271.074	6.98
271.289	5.82
271.504	6.77
271.719	7.45
271.934	6.91
272.149	6.73
272.363	6.91
272.578	7.46
272.793	6.98
273.008	6.86
273.223	5.2
273.438	7.02
273.653	8.75
273.867	7.49
274.082	7.89
274.297	8.24
274.512	9.06
274.726	6.95
274.941	6.11
275.156	7.17
275.371	7.44
275.585	8.15
275.8	8.03
276.015	6.9
276.229	8.15
276.444	7.77
276.659	7.72
276.873	6.55
277.088	8.08
277.302	10.79
277.517	8.98
277.732	8.51
277.946	8.32
278.161	9.27
278.375	9.52
278.59	10.35
278.804	10.93
279.019	9.2
279.233	10.29
279.448	10.49
279.662	8.81
279.877	8.79
280.091	7.48
280.306	7.8
280.52	6.19
280.735	3.64
280.949	1.7
281.163	1.83
281.378	3.53
281.592	4.03
281.806	4.16
282.021	4.56
282.235	5.56
282.449	5.57
282.664	6.87
282.878	8.64
283.092	9.88
283.307	11.78
283.521	9.61
283.735	7.7
283.949	6.97
284.164	6.81
284.378	7.22
284.592	7.38
284.806	8.64
285.02	7.59
285.234	6.46
285.449	6.39
285.663	4.68
285.877	5.07
286.091	7.05
286.305	6.13
286.519	5.39
286.733	3.51
286.947	3.16
287.161	3.57
287.375	4.24
287.589	4.38
287.803	6.18
288.017	7.73
288.231	9.6
288.445	8.34
288.659	8.78
288.873	9.73
289.087	11.19
289.301	10.25
289.515	9.69
289.729	9.96
289.943	10.39
290.157	9.45
290.371	9.84
290.584	8.52
290.798	9.26
291.012	10.28
291.226	11.39
291.44	12.27
291.654	12.19
291.867	12.07
292.081	13.45
292.295	13.15
292.509	12.8
292.722	10.24
292.936	10.97
293.15	10.35
293.364	10.99
293.577	9.73
293.791	8.45
294.005	9
294.218	7.58
294.432	5.14
294.645	5.79
294.859	6.85
295.073	7.37
295.286	8.42
295.5	8.03
295.713	7.34
295.927	7.42
296.14	7.37
296.354	7.63
296.568	8.36
296.781	9.16
296.994	8.72
297.208	7.99
297.421	8.79
297.635	8.54
297.848	9.37
298.062	10.28
298.275	10.16
298.489	11.01
298.702	11.34
298.915	11.27
299.129	12.04
299.342	12.65
299.555	12.8
299.769	13.5
299.982	13.52
300.195	13.65
300.409	13.47
300.622	14.7
300.835	13.67
301.048	13.72
301.262	13.78
301.475	12.76
301.688	12.55
301.901	13.33
302.115	12.31
302.328	12.21
302.541	12.71
302.754	12.72
302.967	13.82
303.18	14.05
303.393	14.63
303.607	16.1
303.82	15.52
304.033	15.25
304.246	15.78
304.459	16.26
304.672	16.05
304.885	14.92
305.098	15.95
305.311	13.24
305.524	14.66
305.737	13.7
305.95	13.36
306.163	12.36
306.376	13.87
306.589	11.47
306.802	10.87
307.015	11.01
307.228	11.55
307.44	9.47
307.653	11.92
307.866	10.99
308.079	12.1
308.292	11.2
308.505	11.65
308.718	10.09
308.93	13
309.143	13.12
309.356	12.15
309.569	11.31
309.781	12.46
309.994	11.99
310.207	12.87
310.42	10.76
310.632	9.71
310.845	9.32
311.058	9.16
311.27	6.17
311.483	7.12
311.696	7.51
311.908	8.64
312.121	7.4
312.333	7.67
312.546	6.31
312.759	8.78
312.971	10.14
313.184	10.53
313.396	10.24
313.609	13.51
313.821	12.77
314.034	13.82
314.246	13.77
314.459	14.3
314.671	13.7
314.884	12.93
315.096	12.38
315.309	11.43
315.521	12.46
315.733	14.1
315.946	12.48
316.158	11.86
316.371	11.02
316.583	10.77
316.795	10.93
317.008	11.41
317.22	13.1
317.432	13.19
317.644	14.67
317.857	15.17
318.069	14.24
318.281	14.82
318.494	17.19
318.706	17.44
318.918	18.79
319.13	18.9
319.342	17.99
319.555	16.78
319.767	18
319.979	16.02
320.191	13.98
320.403	13.54
320.615	14.57
320.827	13.15
321.039	12.44
321.252	11.37
321.464	11.29
321.676	11.33
321.888	11.35
322.1	9.73
322.312	9.92
322.524	11.63
322.736	11.31
322.948	10.92
323.16	11.7
323.372	13.07
323.584	13.6
323.796	14.13
324.007	13.28
324.219	15.04
324.431	15.4
324.643	16.67
324.855	15.35
325.067	16.68
325.279	16.91
325.491	16.21
325.702	15.67
325.914	15.36
326.126	14.96
326.338	16.06
326.55	15.46
326.761	15.99
326.973	16.63
327.185	18.39
327.396	18.64
327.608	17.56
327.82	19.26
328.032	19.94
328.243	20.11
328.455	21.16
328.666	20.98
328.878	19.53
329.09	18.13
329.301	17.12
329.513	15.4
329.725	14.73
329.936	15.9
330.148	15.23
330.359	13.52
330.571	12.44
330.782	11.37
330.994	13.15
331.205	14.62
331.417	16.19
331.628	15.57
331.84	16.81
332.051	17.11
332.262	18.45
332.474	18.64
332.685	20.89
332.897	21.87
333.108	20.97
333.319	19.86
333.531	19.86
333.742	18.88
333.953	19.54
334.165	20.35
334.376	21.12
334.587	19.12
334.799	18.66
335.01	18.21
335.221	18.32
335.432	19.63
335.644	19.23
335.855	19.41
336.066	20.47
336.277	20.82
336.488	20.41
336.7	19.22
336.911	19.82
337.122	19.92
337.333	20.03
337.544	21.31
337.755	20.52
337.966	20.73
338.177	20.9
338.388	20.01
338.599	19.7
338.811	18.48
339.022	18.89
339.233	19.08
339.444	19.05
339.655	18.92
339.866	17.77
340.076	18.36
340.287	17.96
340.498	17.98
340.709	18.7
340.92	19.89
341.131	21.3
341.342	20.92
341.553	20.81
341.764	21.75
341.975	21.39
342.185	21.11
342.396	21.41
342.607	22.3
342.818	22.27
343.029	21.78
343.239	21.76
343.45	21.48
343.661	22.27
343.872	22.02
344.082	21.09
344.293	21.26
344.504	21.21
344.714	20.92
344.925	20.45
345.136	20.18
345.346	21.54
345.557	21.65
345.768	21.55
345.978	22.46
346.189	23.26
346.399	23.5
346.61	23.18
346.821	23.3
347.031	23.12
347.242	23.55
347.452	23.67
347.663	23.08
347.873	23.25
348.084	23.2
348.294	21.18
348.504	21.52
348.715	22.01
348.925	22.39
349.136	22.63
349.346	21.94
349.557	20.54
349.767	22.31
349.977	21.55
350.188	21.29
350.398	21.7
350.608	21.68
350.819	20.3
351.029	19.18
351.239	20.23
351.449	19.19
351.66	19.76
351.87	20.09
352.08	18.78
352.29	19.27
352.501	19.46
352.711	19.89
352.921	20.35
353.131	20.86
353.341	21.33
353.552	20.2
353.762	19.84
353.972	20.98
354.182	21.52
354.392	20.47
354.602	20.44
354.812	20.36
355.022	19.9
355.232	18.89
355.442	19.04
355.652	19.55
355.862	20.49
356.072	21.22
356.282	20.18
356.492	20.97
356.702	21.38
356.912	21.48
357.122	21.58
357.332	22.16
357.542	21.85
357.752	21.81
357.962	21.01
358.171	19.69
358.381	20.7
358.591	20.85
358.801	19.73
359.011	20.47
359.221	20.54
359.43	19.9
359.64	18.85
359.85	18.95
360.06	18.69
360.269	19.69
360.479	20.18
360.689	19.65
360.899	20.31
361.108	20.69
361.318	20.45
361.528	20.12
361.737	20.49
361.947	20.84
362.156	21.62
362.366	22.61
362.576	22.2
362.785	22.6
362.995	22.54
363.204	22.36
363.414	22.63
363.623	23.44
363.833	23.84
364.042	23.71
364.252	23.8
364.461	24.38
364.671	23.39
364.88	23.2
365.09	22.54
365.299	23.12
365.509	23.52
365.718	23.33
365.927	22.1
366.137	22.57
366.346	22.42
366.555	21.81
366.765	20.84
366.974	20.09
367.183	20.5
367.393	20.86
367.602	21.19
367.811	20.34
368.021	20
368.23	20.3
368.439	20.1
368.648	20.88
368.857	21.77
369.067	22.26
369.276	22.24
369.485	21.77
369.694	21.66
369.903	20.23
370.112	20.77
370.321	21.35
370.531	21.79
370.74	22.24
370.949	22.13
371.158	21.83
371.367	21.87
371.576	22.92
371.785	23.19
371.994	23.31
372.203	24.13
372.412	23.33
372.621	23.63
372.83	22.82
373.039	21.87
373.248	20.81
373.457	20.95
373.666	21.1
373.874	20.54
374.083	20.44
374.292	20.65
374.501	19.56
374.71	20.26
374.919	19.98
375.128	20.7
375.336	20.94
375.545	22.44
375.754	22.27
375.963	21.69
376.171	22.55
376.38	22.61
376.589	22.45
376.798	22.76
377.006	22.6
377.215	22.47
377.424	22.43
377.632	22.99
377.841	21.75
378.05	21.54
378.258	22.08
378.467	21.69
378.675	21.66
378.884	21.24
379.093	21.74
379.301	21.87
379.51	22.06
379.718	21.77
379.927	21.52
380.135	21.8
380.344	21.81
380.552	21.58
380.761	21.23
380.969	20.91
381.177	21.02
381.386	21.11
381.594	20.48
381.803	20.1
382.011	20.09
382.219	19.64
382.428	20.15
382.636	19.99
382.845	20.07
383.053	20.64
383.261	21.05
383.469	21.21
383.678	21.12
383.886	21.58
384.094	21.99
384.302	22.31
384.511	22.57
384.719	22.19
384.927	22.36
385.135	22.64
385.343	22.37
385.552	22.5
385.76	22.53
385.968	22.52
386.176	22.7
386.384	22.37
386.592	22.26
386.8	22.43
387.008	22.29
387.216	22.6
387.424	22.14
387.633	21.85
387.841	22.34
388.049	21.99
388.257	22.09
388.465	22.14
388.672	22.16
388.88	22.34
389.088	21.77
389.296	21.76
389.504	21.39
389.712	21.62
389.92	21.59
390.128	20.82
390.336	21.28
390.544	20.8
390.751	20.37
390.959	20.45
391.167	20.2
391.375	20.34
391.583	20.49
391.79	20.54
391.998	20.48
392.206	20.99
392.414	21.35
392.621	21.19
392.829	21.53
393.037	21.83
393.244	21.68
393.452	21.35
393.66	21.77
393.867	21.67
394.075	21.83
394.283	21.97
394.49	21.79
394.698	21.52
394.905	21.6
395.113	21.63
395.32	21.7
395.528	21.97
395.735	22.17
395.943	21.91
396.15	21.78
396.358	22.05
396.565	21.98
396.773	22.2
396.98	22.05
397.188	22.38
397.395	22.13
397.602	22.22
397.81	22.52
398.017	22.81
398.225	23
398.432	23.62
398.639	23.46
398.847	23.96
399.054	23.85
399.261	24.18
399.468	23.74
399.676	23.77
399.883	23.65
400.09	23.46
400.297	23.4
400.505	23.1
400.712	23.03
400.919	23.15
401.126	22.96
401.333	22.76
401.54	22.91
401.748	23.36
401.955	23.25
402.162	23.41
402.369	23.41
402.576	23.5
402.783	23.56
402.99	23.7
403.197	23.71
403.404	23.48
403.611	23.7
403.818	24.02
404.025	23.84
404.232	24.17
404.439	24.17
404.646	24.29
404.853	24.35
405.06	24.63
405.267	24.73
405.474	24.64
405.681	24.83
405.887	24.88
406.094	24.77
406.301	24.92
406.508	25.11
406.715	25.14
406.922	24.94
407.128	24.91
407.335	24.77
407.542	24.57
407.749	24.85
407.955	25.02
408.162	25.13
408.369	25.06
408.575	25.28
408.782	25
408.989	25
409.195	25.03
409.402	25.21
409.609	25.33
409.815	25.39
410.022	25.26
410.228	25.3
410.435	25.1
410.642	24.86
410.848	24.58
411.055	24.98
411.261	25.04
411.468	25.2
411.674	25.17
411.881	25.08
412.087	24.87
412.294	24.69
412.5	24.57
412.706	24.85
412.913	24.87
413.119	24.73
413.326	24.29
413.532	24.07
413.738	23.97
413.945	23.96
414.151	24.05
414.357	23.9
414.564	23.9
414.77	23.83
414.976	23.69
415.182	23.77
415.389	24.03
415.595	24.25
415.801	24.4
416.007	24.39
416.214	24.03
416.42	23.74
416.626	23.98
416.832	24.02
417.038	23.88
417.244	23.75
417.45	23.7
417.657	23.34
417.863	23.34
418.069	23.47
418.275	23.52
418.481	23.5
418.687	23.56
418.893	23.51
419.099	23.42
419.305	23.2
419.511	23.25
419.717	23.12
419.923	23.34
420.129	23.17
420.335	23.09
420.541	23.1
420.746	23.23
420.952	23.37
421.158	23.34
421.364	23.28
421.57	23.5
421.776	23.41
421.982	23.49
422.187	23.36
422.393	23.33
422.599	23.06
422.805	22.92
423.01	22.9
423.216	22.76
423.422	22.8
423.628	22.87
423.833	22.85
424.039	22.99
424.245	23.05
424.45	23.11
424.656	23.13
424.862	23.31
425.067	23.4
425.273	23.34
425.478	23.31
425.684	23.34
425.889	23.24
426.095	23
426.301	22.78
426.506	22.69
426.712	22.72
426.917	22.89
427.123	22.82
427.328	22.86
427.533	23.04
427.739	23.11
427.944	23.03
428.15	23.13
428.355	22.97
428.561	23.06
428.766	23.04
428.971	22.87
429.177	22.73
429.382	22.44
429.587	22.33
429.793	22.2
429.998	22.12
430.203	21.86
430.408	21.86
430.614	22.34
430.819	22.22
431.024	22.37
431.229	22.45
431.434	22.43
431.64	22.61
431.845	22.56
432.05	22.74
432.255	22.61
432.46	22.62
432.665	22.52
432.87	22.51
433.076	22.8
433.281	22.53
433.486	22.47
433.691	22.6
433.896	22.55
434.101	22.6
434.306	22.26
434.511	22.33
434.716	22.35
434.921	22.49
435.126	22.52
435.331	22.41
435.535	22.52
435.74	22.5
435.945	22.27
436.15	22.5
436.355	22.5
436.56	22.74
436.765	22.91
436.97	23.04
437.174	22.84
437.379	22.76
437.584	22.57
437.789	22.8
437.993	22.96
438.198	23.08
438.403	22.78
438.608	22.67
438.812	22.49
439.017	22.33
439.222	22.21
439.426	22.25
439.631	22.15
439.836	22.15
440.04	21.86
440.245	21.91
440.45	21.85
440.654	21.99
440.859	22.04
441.063	21.88
441.268	21.88
441.472	21.87
441.677	21.9
441.881	21.98
442.086	22
442.29	22.08
442.495	21.86
442.699	21.7
442.904	21.58
443.108	21.68
443.312	21.83
443.517	22.05
443.721	22.07
443.925	22.12
444.13	22.13
444.334	22.13
444.538	22.1
444.743	22.11
444.947	22.19
445.151	22.24
445.356	22.09
445.56	22.19
445.764	21.97
445.968	21.98
446.173	21.84
446.377	21.85
446.581	21.87
446.785	21.84
446.989	21.84
447.193	21.89
447.398	21.76
447.602	21.73
447.806	21.71
448.01	21.88
448.214	21.79
448.418	21.9
448.622	21.83
448.826	21.84
449.03	21.83
449.234	21.86
449.438	21.62
449.642	21.91
449.846	21.91
450.05	21.96
450.254	21.79
450.458	21.83
450.662	21.78
450.866	21.69
451.069	21.92
451.273	21.98
451.477	21.89
451.681	21.93
451.885	21.77
452.089	21.59
452.292	21.33
452.496	21.43
452.7	21.6
452.904	21.52
453.107	21.47
453.311	21.17
453.515	21.21
453.719	21.35
453.922	21.58
454.126	21.47
454.33	21.64
454.533	21.83
454.737	21.81
454.94	21.78
455.144	22.04
455.348	22.12
455.551	22.25
455.755	22.14
455.958	22.13
456.162	22.04
456.365	22.1
456.569	21.86
456.772	21.72
456.976	21.78
457.179	21.65
457.383	21.54
457.586	21.46
457.79	21.38
457.993	21.54
458.196	21.38
