Data from 2938028_Reflection_2.txt Node
Date: Sun Jul 12 15:08:38 EDT 2015
User: robert
Spectrometer: USB4E03001
Autoset integration time: false
Trigger mode: 4
Integration Time (sec): 1.000000E-1
Scans to average: 10
Electric dark correction enabled: true
Nonlinearity correction enabled: false
Boxcar width: 5
Stray light correction enabled: false
XAxis mode: Wavelengths
Stop averaging: false
Number of Pixels in Spectrum: 3648
>>>>>Begin Spectral Data<<<<<
177.566	36.46
177.785	3.64
178.005	-16.73
178.225	77.88
178.445	68.58
178.665	89.88
178.885	191.44
179.105	44.88
179.324	54.71
179.544	44.27
179.764	40.44
179.984	90.12
180.204	86.59
180.423	51.93
180.643	67.29
180.863	67.17
181.083	63.42
181.302	40.4
181.522	49.25
181.742	40.93
181.961	38.25
182.181	68.81
182.401	28.13
182.621	47.68
182.84	95.45
183.06	53.09
183.279	54.79
183.499	83.74
183.719	135.16
183.938	112.46
184.158	152.63
184.377	156.63
184.597	68.9
184.816	80.87
185.036	70.54
185.256	57.36
185.475	105.98
185.695	83.24
185.914	90.56
186.134	75.7
186.353	85.23
186.572	25.67
186.792	111.2
187.011	237.28
187.231	128.89
187.45	84.53
187.67	70.29
187.889	29.26
188.108	33.89
188.328	19.5
188.547	50.2
188.766	40.75
188.986	44.58
189.205	44.93
189.424	60.43
189.644	98.98
189.863	101.04
190.082	112.4
190.302	108.57
190.521	112.75
190.74	120.89
190.959	88.41
191.178	98.15
191.398	86.93
191.617	80.14
191.836	67.77
192.055	38.28
192.274	49.35
192.494	56.18
192.713	53.22
192.932	45.18
193.151	34.75
193.37	30.23
193.589	16
193.808	25.36
194.027	19.39
194.246	15.42
194.465	55.63
194.685	73.67
194.904	119.2
195.123	110.32
195.342	118.31
195.561	126.38
195.78	338.17
195.999	-36535
196.218	1196.2
196.436	719.56
196.655	395.44
196.874	-3078.57
197.093	179.6
197.312	147.84
197.531	174.54
197.75	185.65
197.969	214.42
198.188	190.19
198.407	168.39
198.625	319.11
198.844	152.91
199.063	114.97
199.282	146.64
199.501	108.12
199.719	113.96
199.938	111.57
200.157	102.07
200.376	108.66
200.594	78.73
200.813	96.67
201.032	83.25
201.251	88.38
201.469	98.49
201.688	100.11
201.907	109.24
202.125	61.36
202.344	57.57
202.563	71.98
202.781	55.28
203	42.38
203.218	-10.45
203.437	9.89
203.656	2.34
203.874	-57.69
204.093	-57.81
204.311	-34.16
204.53	-5.6
204.748	-39.41
204.967	-29.22
205.185	66.87
205.404	130.05
205.622	347.06
205.841	-1015.35
206.059	-530.05
206.278	847.81
206.496	710.15
206.715	476.17
206.933	-92871.43
207.151	728.92
207.37	332.29
207.588	222.33
207.806	154.96
208.025	156.76
208.243	128.41
208.461	117.75
208.68	101.76
208.898	111.45
209.116	128.93
209.335	119.93
209.553	105.62
209.771	89.67
209.989	89.43
210.208	99.32
210.426	101.22
210.644	111.64
210.862	116.45
211.081	159.54
211.299	189.42
211.517	146.7
211.735	89.6
211.953	147.41
212.171	163.63
212.39	233.8
212.608	243.98
212.826	194.06
213.044	149.51
213.262	119.6
213.48	106.52
213.698	98.66
213.916	110.86
214.134	123.35
214.352	111.01
214.57	106.97
214.788	106.71
215.006	91.79
215.224	-7.49
215.442	186.75
215.66	108.34
215.878	39.04
216.096	298.84
216.314	51.37
216.532	171.32
216.75	181.96
216.968	37.68
217.185	54.45
217.403	72.01
217.621	80.09
217.839	74.08
218.057	78.35
218.275	78.58
218.492	65.93
218.71	74.34
218.928	63.46
219.146	57.31
219.363	64.2
219.581	47.57
219.799	49.32
220.017	58.96
220.234	44.65
220.452	30.85
220.67	9.74
220.887	15.7
221.105	6.03
221.323	18.01
221.54	23.09
221.758	49.34
221.976	50.74
222.193	37.54
222.411	25.9
222.629	48.36
222.846	47.55
223.064	45.16
223.281	36.41
223.499	37.59
223.716	19.08
223.934	19.64
224.151	11.51
224.369	13.12
224.586	14.43
224.804	30.04
225.021	26.33
225.239	40.7
225.456	30.11
225.674	33.93
225.891	32.64
226.108	37.14
226.326	33.04
226.543	30.12
226.76	35.38
226.978	42.85
227.195	22.68
227.413	14.13
227.63	12.28
227.847	26.68
228.064	23.57
228.282	24.78
228.499	27.96
228.716	28.32
228.934	26.09
229.151	22.85
229.368	19.55
229.585	21.94
229.802	25.78
230.02	24.09
230.237	20.36
230.454	20.13
230.671	19.04
230.888	13.09
231.105	9.41
231.323	7.52
231.54	10.26
231.757	10.94
231.974	12.44
232.191	7.9
232.408	6.31
232.625	9.93
232.842	13.93
233.059	14.99
233.276	22.07
233.493	19.06
233.71	18.31
233.927	16.62
234.144	19.64
234.361	15.95
234.578	16.81
234.795	16.43
235.012	13.73
235.229	12.96
235.446	14.68
235.663	10
235.879	13.82
236.096	17.34
236.313	21.75
236.53	21.75
236.747	25.4
236.964	23.29
237.181	26.45
237.397	25.54
237.614	21.71
237.831	21.59
238.048	25.54
238.264	23.32
238.481	20.09
238.698	15.18
238.915	14.34
239.131	11.72
239.348	10.16
239.565	12.85
239.781	17.44
239.998	18.93
240.215	15.8
240.431	16.08
240.648	17.95
240.865	17.68
241.081	18.83
241.298	15.65
241.514	16.88
241.731	18.06
241.947	16.33
242.164	13.07
242.38	14.42
242.597	14.83
242.814	13.44
243.03	11.9
243.246	11.65
243.463	9.91
243.679	11.38
243.896	8.28
244.112	7.99
244.329	5.95
244.545	7.46
244.762	4.8
244.978	4.95
245.194	8.82
245.411	8.05
245.627	8.11
245.843	10.95
246.06	10.94
246.276	10.5
246.492	10.72
246.709	10.83
246.925	10.37
247.141	11.07
247.357	11.24
247.574	9.81
247.79	11.52
248.006	11.63
248.222	10.43
248.439	10.07
248.655	11
248.871	8.21
249.087	8.38
249.303	8.6
249.519	7.18
249.736	6.36
249.952	5.95
250.168	3.35
250.384	3.01
250.6	3.7
250.816	4.35
251.032	6.18
251.248	10.38
251.464	11.05
251.68	9.13
251.896	9.97
252.112	10.47
252.328	10.69
252.544	10.65
252.76	10.64
252.976	9.4
253.192	8.27
253.408	6.15
253.624	7.35
253.84	7.74
254.056	9.52
254.272	9
254.487	7.19
254.703	6.13
254.919	7.06
255.135	6.54
255.351	5.63
255.567	8.6
255.782	8.75
255.998	6.08
256.214	7.81
256.43	7.15
256.646	6.72
256.861	5.33
257.077	5.62
257.293	5.04
257.508	5.04
257.724	8.43
257.94	8.01
258.155	8.24
258.371	9.88
258.587	8.35
258.802	8.33
259.018	7.48
259.234	8.09
259.449	8.52
259.665	8.4
259.88	9.18
260.096	8.39
260.312	8.15
260.527	8.15
260.743	7.65
260.958	7.55
261.174	6.63
261.389	8.25
261.605	9.23
261.82	9.55
262.036	10.29
262.251	9.33
262.466	10.12
262.682	10.62
262.897	10.69
263.113	9
263.328	7.99
263.543	8.75
263.759	7.65
263.974	6.38
264.189	6.44
264.405	4.88
264.62	5.95
264.835	5.45
265.051	6
265.266	6.01
265.481	8.83
265.696	9.97
265.912	11.11
266.127	10.69
266.342	10.71
266.557	11.32
266.773	11.47
266.988	11.05
267.203	11.09
267.418	9.77
267.633	10.24
267.848	10.11
268.064	10.64
268.279	11.19
268.494	10.33
268.709	8.73
268.924	5.73
269.139	5.65
269.354	5.29
269.569	5.49
269.784	5.52
269.999	3.91
270.214	2.23
270.429	1.26
270.644	2.12
270.859	4.84
271.074	6.92
271.289	9.02
271.504	10.19
271.719	10.24
271.934	9.71
272.149	9.56
272.363	9.99
272.578	10.82
272.793	10.98
273.008	11.02
273.223	10.2
273.438	9.69
273.653	9.12
273.867	8.46
274.082	9.23
274.297	8.82
274.512	9.34
274.726	8.82
274.941	8.86
275.156	9.11
275.371	8.29
275.585	7.97
275.8	8.59
276.015	8.89
276.229	8.19
276.444	7.5
276.659	7.27
276.873	7.5
277.088	9.88
277.302	10.38
277.517	8.95
277.732	8.53
277.946	8.13
278.161	8.02
278.375	6.3
278.59	6.02
278.804	5.41
279.019	6.49
279.233	7.13
279.448	5.54
279.662	3.35
279.877	4.92
280.091	5.68
280.306	4.45
280.52	4.35
280.735	5.34
280.949	5.82
281.163	6.57
281.378	6.04
281.592	6.02
281.806	7.09
282.021	8.92
282.235	9.79
282.449	9.91
282.664	12.16
282.878	11.18
283.092	12.48
283.307	12.74
283.521	13.06
283.735	13.74
283.949	12.55
284.164	11.78
284.378	10.52
284.592	10.55
284.806	9.83
285.02	8.67
285.234	8.96
285.449	8.1
285.663	7.36
285.877	7.34
286.091	6.89
286.305	7.81
286.519	7.25
286.733	8.04
286.947	9.33
287.161	9.05
287.375	9.12
287.589	8.9
287.803	9.31
288.017	8.65
288.231	7.55
288.445	7.75
288.659	7.11
288.873	7.51
289.087	6.23
289.301	3.37
289.515	3.52
289.729	4.49
289.943	4.46
290.157	4.33
290.371	5.71
290.584	4.82
290.798	4.96
291.012	6.1
291.226	5.55
291.44	6.13
291.654	6.48
291.867	7.38
292.081	7.41
292.295	8.44
292.509	8.68
292.722	9.8
292.936	12.27
293.15	9.86
293.364	8.19
293.577	8.43
293.791	8.23
294.005	8.23
294.218	7.29
294.432	6.85
294.645	6.26
294.859	6.66
295.073	5.57
295.286	4.59
295.5	6.34
295.713	6.62
295.927	6.25
296.14	6.84
296.354	6.91
296.568	7.55
296.781	5.93
296.994	5.92
297.208	5.67
297.421	6.6
297.635	6.64
297.848	7.26
298.062	7.19
298.275	8.56
298.489	8.4
298.702	9.1
298.915	7.9
299.129	9.93
299.342	10.23
299.555	9.12
299.769	8.36
299.982	8.72
300.195	8.15
300.409	9.6
300.622	8.32
300.835	7.46
301.048	7.62
301.262	10.28
301.475	9.07
301.688	8.09
301.901	9.19
302.115	8.05
302.328	8.04
302.541	7.88
302.754	6.95
302.967	8.18
303.18	10.34
303.393	9.64
303.607	8.22
303.82	9.2
304.033	10.68
304.246	10.56
304.459	11.87
304.672	11.93
304.885	11.78
305.098	12.74
305.311	12.65
305.524	12.14
305.737	12.09
305.95	12.14
306.163	12.31
306.376	12.39
306.589	12.92
306.802	13.76
307.015	14.74
307.228	14.99
307.44	12.92
307.653	13.2
307.866	13.72
308.079	13.61
308.292	14.06
308.505	12.79
308.718	12.89
308.93	12.25
309.143	10.96
309.356	10.46
309.569	10.71
309.781	11.61
309.994	9.95
310.207	8.9
310.42	8.81
310.632	8.21
310.845	8.01
311.058	8.69
311.27	9.61
311.483	9.86
311.696	9.22
311.908	9.57
312.121	8.67
312.333	8.86
312.546	9.25
312.759	8.81
312.971	9.4
313.184	10.96
313.396	10.11
313.609	8.25
313.821	7.17
314.034	8.31
314.246	7.69
314.459	8.05
314.671	8.3
314.884	8.8
315.096	8.43
315.309	9.39
315.521	7.99
315.733	9.06
315.946	10.35
316.158	12.74
316.371	11.25
316.583	11.03
316.795	11.62
317.008	11.59
317.22	11.39
317.432	11.7
317.644	9.39
317.857	10.18
318.069	7.8
318.281	8.65
318.494	7.93
318.706	9.28
318.918	8.57
319.13	8.02
319.342	8.13
319.555	7.27
319.767	8.56
319.979	9.26
320.191	7.88
320.403	8.3
320.615	6.51
320.827	5
321.039	5.21
321.252	7.02
321.464	7.79
321.676	9.94
321.888	8.98
322.1	8.14
322.312	7.18
322.524	8.08
322.736	7.11
322.948	9.44
323.16	10.14
323.372	7.85
323.584	6.88
323.796	8.25
324.007	7.02
324.219	7.79
324.431	7.72
324.643	9.69
324.855	9.52
325.067	11.47
325.279	12.41
325.491	12.48
325.702	13.85
325.914	14.21
326.126	13.53
326.338	12.21
326.55	12.63
326.761	11.5
326.973	10.74
327.185	9.7
327.396	8.69
327.608	6.53
327.82	5.8
328.032	5.14
328.243	5.58
328.455	4.02
328.666	4.68
328.878	4.97
329.09	5.81
329.301	4.94
329.513	5.26
329.725	4.99
329.936	4.18
330.148	4.03
330.359	5.55
330.571	6.36
330.782	7
330.994	8.34
331.205	9.14
331.417	10.94
331.628	10.99
331.84	11.57
332.051	11.09
332.262	14.93
332.474	15.49
332.685	16.36
332.897	16.23
333.108	15.18
333.319	15.15
333.531	14.71
333.742	14.51
333.953	15.96
334.165	16.43
334.376	17.79
334.587	17.35
334.799	18.8
335.01	17.6
335.221	16.23
335.432	17.61
335.644	17.09
335.855	17.22
336.066	17.79
336.277	17.2
336.488	18.84
336.7	18.51
336.911	16.7
337.122	14.98
337.333	15.43
337.544	16.14
337.755	18.53
337.966	19.01
338.177	20.22
338.388	20.16
338.599	21.34
338.811	21.21
339.022	22.59
339.233	22.78
339.444	23.36
339.655	22.69
339.866	23.23
340.076	20.61
340.287	21.33
340.498	20.44
340.709	19.91
340.92	19.34
341.131	17.65
341.342	17
341.553	17.34
341.764	18.07
341.975	18.19
342.185	18.68
342.396	20.08
342.607	19.7
342.818	18.77
343.029	18.57
343.239	18.35
343.45	19.78
343.661	19.75
343.872	19.3
344.082	19.55
344.293	19.93
344.504	19.4
344.714	18.19
344.925	18.53
345.136	18.52
345.346	19.44
345.557	20.52
345.768	19.88
345.978	18.33
346.189	18.38
346.399	18.11
346.61	17.28
346.821	17.17
347.031	18.02
347.242	17.18
347.452	17.72
347.663	16.9
347.873	17.35
348.084	17.64
348.294	19
348.504	18.97
348.715	18.03
348.925	19.95
349.136	20.16
349.346	18.81
349.557	20.26
349.767	19.3
349.977	20.52
350.188	18.84
350.398	19.22
350.608	18.44
350.819	17.73
351.029	18.73
351.239	17.74
351.449	17.04
351.66	17.7
351.87	15.46
352.08	15.74
352.29	14.67
352.501	13.83
352.711	13.28
352.921	13.77
353.131	14.46
353.341	14.4
353.552	13.95
353.762	13.8
353.972	13.11
354.182	14
354.392	14.64
354.602	15.59
354.812	16.8
355.022	16.5
355.232	15.77
355.442	15.65
355.652	15.83
355.862	16.95
356.072	16.87
356.282	18.04
356.492	18.55
356.702	18.02
356.912	17.77
357.122	17.33
357.332	17.57
357.542	18.81
357.752	19.11
357.962	18.6
358.171	18.06
358.381	18.94
358.591	18.16
358.801	18.49
359.011	18.9
359.221	18.77
359.43	19.09
359.64	19.22
359.85	18.36
360.06	18.21
360.269	17.3
360.479	17.26
360.689	16.38
360.899	17.2
361.108	16.34
361.318	16.16
361.528	15.18
361.737	15.42
361.947	14.95
362.156	14.64
362.366	14.29
362.576	15.16
362.785	15.01
362.995	15.19
363.204	14.29
363.414	15.17
363.623	14.66
363.833	15.36
364.042	14.64
364.252	15.56
364.461	16.47
364.671	17.29
364.88	16.58
365.09	16.36
365.299	16.31
365.509	16.67
365.718	15.52
365.927	16.01
366.137	15.66
366.346	16.42
366.555	15.95
366.765	15.49
366.974	15
367.183	14.16
367.393	13.76
367.602	14.21
367.811	14.25
368.021	14.63
368.23	14.99
368.439	14.46
368.648	14.03
368.857	13.57
369.067	13.68
369.276	13.88
369.485	15.57
369.694	15.85
369.903	16.13
370.112	15.97
370.321	15.84
370.531	15.34
370.74	15.85
370.949	15.82
371.158	15.54
371.367	14.79
371.576	14.53
371.785	13.9
371.994	13.94
372.203	13.1
372.412	13
372.621	12.65
372.83	13.1
373.039	12.88
373.248	12.82
373.457	12.51
373.666	12.88
373.874	13.18
374.083	13.26
374.292	13.5
374.501	13.92
374.71	13.77
374.919	13.49
375.128	13.48
375.336	13.7
375.545	13.91
375.754	14.44
375.963	14.55
376.171	14.28
376.38	14.51
376.589	14.35
376.798	14.14
377.006	14.59
377.215	14.97
377.424	14.74
377.632	15.12
377.841	15.04
378.05	15.04
378.258	14.93
378.467	15.5
378.675	15.2
378.884	15.21
379.093	14.86
379.301	14.14
379.51	14.23
379.718	14.3
379.927	14.24
380.135	14.48
380.344	14.26
380.552	14.61
380.761	14.18
380.969	14.14
381.177	14.34
381.386	14.06
381.594	13.99
381.803	14.07
382.011	13.64
382.219	13.27
382.428	12.32
382.636	12.15
382.845	12.12
383.053	11.21
383.261	10.93
383.469	11.4
383.678	11.55
383.886	11.99
384.094	11.47
384.302	12.25
384.511	12.42
384.719	12.58
384.927	12.78
385.135	12.51
385.343	12.77
385.552	13.14
385.76	12.56
385.968	12.68
386.176	12.41
386.384	12.81
386.592	12.01
386.8	11.56
387.008	11.58
387.216	11.59
387.424	11.7
387.633	11.8
387.841	11.6
388.049	11.73
388.257	11.46
388.465	11.62
388.672	11.59
388.88	11.74
389.088	11.73
389.296	11.68
389.504	11.31
389.712	11.4
389.92	11.46
390.128	11.42
390.336	10.83
390.544	11.13
390.751	11.18
390.959	10.75
391.167	10.79
391.375	10.82
391.583	11.06
391.79	11.46
391.998	11.37
392.206	11.18
392.414	10.92
392.621	10.98
392.829	10.72
393.037	10.08
393.244	10.3
393.452	10.02
393.66	9.82
393.867	9.64
394.075	9.44
394.283	9.38
394.49	9.35
394.698	9.45
394.905	9.43
395.113	9.47
395.32	9.63
395.528	9.3
395.735	9.27
395.943	9.55
396.15	9.61
396.358	9.27
396.565	9.08
396.773	9.27
396.98	9.28
397.188	9.32
397.395	9.31
397.602	9.41
397.81	9.73
398.017	9.64
398.225	9.36
398.432	9.11
398.639	9.22
398.847	9.35
399.054	8.92
399.261	8.89
399.468	8.87
399.676	8.56
399.883	8.78
400.09	8.76
400.297	8.84
400.505	8.68
400.712	8.73
400.919	8.8
401.126	8.69
401.333	8.95
401.54	9.11
401.748	9.01
401.955	9.29
402.162	9.34
402.369	9.48
402.576	9.11
402.783	9.18
402.99	9.12
403.197	9
403.404	9.01
403.611	8.81
403.818	8.74
404.025	8.89
404.232	9.03
404.439	8.95
404.646	9.09
404.853	9.55
405.06	9.78
405.267	9.71
405.474	9.91
405.681	9.99
405.887	10.23
406.094	10.12
406.301	9.89
406.508	9.94
406.715	10.02
406.922	9.5
407.128	9.31
407.335	9.18
407.542	9.3
407.749	9.13
407.955	8.86
408.162	8.81
408.369	8.92
408.575	8.89
408.782	8.86
408.989	8.51
409.195	8.54
409.402	8.75
409.609	8.78
409.815	8.77
410.022	8.82
410.228	8.7
410.435	8.74
410.642	8.51
410.848	8.7
411.055	8.27
411.261	8.32
411.468	8.37
411.674	8.18
411.881	8.23
412.087	8
412.294	7.86
412.5	8.02
412.706	7.81
412.913	7.74
413.119	7.72
413.326	7.85
413.532	8.12
413.738	8.19
413.945	8.26
414.151	8.08
414.357	8.37
414.564	8.5
414.77	8.54
414.976	8.55
415.182	8.7
415.389	8.67
415.595	8.59
415.801	8.4
416.007	8.45
416.214	8.28
416.42	8.23
416.626	8.12
416.832	8.04
417.038	8.02
417.244	8.12
417.45	8.28
417.657	8.37
417.863	8.46
418.069	8.45
418.275	8.23
418.481	8.35
418.687	8.53
418.893	8.77
419.099	8.84
419.305	8.98
419.511	9.08
419.717	8.97
419.923	8.91
420.129	8.87
420.335	8.89
420.541	9
420.746	9.02
420.952	8.95
421.158	8.75
421.364	8.74
421.57	8.5
421.776	8.35
421.982	8.4
422.187	8.35
422.393	8.28
422.599	8.34
422.805	8.18
423.01	8.02
423.216	8.08
423.422	8.1
423.628	8.01
423.833	8.06
424.039	8.18
424.245	8.16
424.45	8.14
424.656	8.21
424.862	8.24
425.067	8.35
425.273	8.4
425.478	8.32
425.684	8.28
425.889	8.33
426.095	8.32
426.301	8.09
426.506	8.01
426.712	8.06
426.917	8.28
427.123	8.27
427.328	8.33
427.533	8.4
427.739	8.39
427.944	8.4
428.15	8.2
428.355	8.23
428.561	8.29
428.766	8.29
428.971	8.45
429.177	8.42
429.382	8.23
429.587	8.36
429.793	8.28
429.998	8.23
430.203	8.16
430.408	8.33
430.614	8.31
430.819	8.44
431.024	8.54
431.229	8.48
431.434	8.23
431.64	8.14
431.845	7.96
432.05	8.31
432.255	8.39
432.46	8.28
432.665	8.33
432.87	8.48
433.076	8.52
433.281	8.37
433.486	8.29
433.691	8.45
433.896	8.42
434.101	8.42
434.306	8.15
434.511	7.95
434.716	8.12
434.921	7.89
435.126	8.02
435.331	7.77
435.535	7.84
435.74	7.7
435.945	7.46
436.15	7.64
436.355	7.77
436.56	7.81
436.765	7.89
436.97	7.83
437.174	7.74
437.379	7.45
437.584	7.58
437.789	7.59
437.993	7.74
438.198	7.79
438.403	7.85
438.608	7.85
438.812	7.91
439.017	8.1
439.222	8
439.426	8.17
439.631	8.21
439.836	8.38
440.04	8.47
440.245	8.4
440.45	8.46
440.654	8.3
440.859	8.28
441.063	8.2
441.268	7.9
441.472	8.07
441.677	8.19
441.881	8.1
442.086	7.88
442.29	7.72
442.495	7.77
442.699	7.75
442.904	7.79
443.108	7.68
443.312	7.66
443.517	7.87
443.721	7.78
443.925	7.72
444.13	7.8
444.334	7.82
444.538	7.92
444.743	7.89
444.947	7.79
445.151	7.87
445.356	7.83
445.56	7.75
445.764	7.78
445.968	7.75
446.173	7.74
446.377	7.89
446.581	7.95
446.785	7.91
446.989	7.96
447.193	8.04
447.398	7.93
447.602	7.97
447.806	8.1
448.01	8.08
448.214	8.07
448.418	7.94
448.622	7.82
448.826	7.87
449.03	7.86
449.234	7.87
449.438	7.83
449.642	7.86
449.846	7.78
450.05	7.7
450.254	7.78
450.458	7.88
450.662	8.07
450.866	8.01
451.069	7.84
451.273	7.84
451.477	7.79
451.681	7.77
451.885	7.82
452.089	8.08
452.292	8.14
452.496	7.91
452.7	7.77
452.904	8.01
453.107	8.12
453.311	8.25
453.515	8.29
453.719	8.03
453.922	8.1
454.126	8.1
454.33	7.93
454.533	7.78
454.737	7.8
454.94	7.77
455.144	7.48
455.348	7.36
455.551	7.34
455.755	7.27
455.958	7.43
456.162	7.07
456.365	6.98
456.569	7.01
456.772	6.98
456.976	7.17
457.179	7.17
457.383	7.21
457.586	7.12
457.79	7.11
457.993	7.28
458.196	7.46
458.4	7.72
458.603	7.78
458.807	7.67
459.01	7.86
459.213	7.71
459.417	7.89
459.62	7.89
459.823	7.86
460.026	7.89
460.23	7.75
460.433	7.6
460.636	7.59
460.839	7.61
461.042	7.65
461.246	7.59
461.449	7.82
461.652	7.71
461.855	7.72
462.058	8.08
462.261	8.12
462.464	8.2
462.668	8.32
462.871	8.36
463.074	8.19
463.277	8.19
463.48	8.2
463.683	8.1
463.886	8.12
464.089	8.12
464.292	7.98
464.495	7.86
464.698	7.97
464.901	7.96
465.104	7.87
465.306	7.94
