Data from 2938039_Reflection_1.txt Node
Date: Sun Jul 12 14:41:34 EDT 2015
User: robert
Spectrometer: USB4E03001
Autoset integration time: false
Trigger mode: 4
Integration Time (sec): 1.000000E-1
Scans to average: 10
Electric dark correction enabled: true
Nonlinearity correction enabled: false
Boxcar width: 5
Stray light correction enabled: false
XAxis mode: Wavelengths
Stop averaging: false
Number of Pixels in Spectrum: 3648
>>>>>Begin Spectral Data<<<<<
177.566	-11.98
177.785	14.98
178.005	1789.33
178.225	194.95
178.445	231.26
178.665	120.62
178.885	151.51
179.105	-1097.67
179.324	693.59
179.544	1629.36
179.764	-1.49
179.984	-156.71
180.204	-147.89
180.423	-979.54
180.643	469.5
180.863	240.95
181.083	134.35
181.302	155.29
181.522	180.35
181.742	118.83
181.961	107.75
182.181	82.93
182.401	55.28
182.621	37.5
182.84	39.46
183.06	41.54
183.279	65.98
183.499	67.88
183.719	60.73
183.938	29.87
184.158	18.58
184.377	45.82
184.597	81.54
184.816	105.63
185.036	128.86
185.256	341.19
185.475	158.02
185.695	62.89
185.914	100.1
186.134	78.61
186.353	107.3
186.572	108.46
186.792	74.7
187.011	58.58
187.231	63.54
187.45	152.45
187.67	116.22
187.889	97.86
188.108	103.73
188.328	102.68
188.547	153.78
188.766	102.9
188.986	122.53
189.205	108.38
189.424	109.14
189.644	163.34
189.863	87.14
190.082	69.34
190.302	63.95
190.521	86.72
190.74	77.34
190.959	56.81
191.178	80.6
191.398	93.4
191.617	89
191.836	136.25
192.055	132.23
192.274	117.58
192.494	134.98
192.713	173.16
192.932	176.47
193.151	127.59
193.37	217.75
193.589	177.55
193.808	159.46
194.027	132.01
194.246	107.65
194.465	91.42
194.685	102.05
194.904	84.15
195.123	107.34
195.342	83.13
195.561	113.33
195.78	101.05
195.999	142.21
196.218	122.73
196.436	132.99
196.655	220.77
196.874	103.46
197.093	77.62
197.312	94.28
197.531	63.87
197.75	99.2
197.969	51.93
198.188	17.71
198.407	1.64
198.625	8.41
198.844	14.17
199.063	17.3
199.282	36.57
199.501	9
199.719	49.9
199.938	76.57
200.157	48.59
200.376	59.32
200.594	76.53
200.813	74.97
201.032	80.91
201.251	123.96
201.469	125.82
201.688	132.4
201.907	139.11
202.125	168.4
202.344	190.79
202.563	134.07
202.781	557.89
203	596.83
203.218	293.61
203.437	141.66
203.656	69.17
203.874	113.82
204.093	135.81
204.311	120.34
204.53	157.19
204.748	239.43
204.967	485.74
205.185	229.14
205.404	200.36
205.622	146.19
205.841	151.08
206.059	183.63
206.278	140.5
206.496	104.31
206.715	141.18
206.933	139.7
207.151	126.43
207.37	116.07
207.588	124.87
207.806	155.18
208.025	161.12
208.243	240.59
208.461	191.15
208.68	176.44
208.898	232.98
209.116	328.7
209.335	394.59
209.553	180.88
209.771	201.18
209.989	280.41
210.208	550
210.426	552.58
210.644	233.71
210.862	554.89
211.081	197.38
211.299	156.78
211.517	149.52
211.735	151.5
211.953	143.53
212.171	130.01
212.39	93.97
212.608	78.53
212.826	123.45
213.044	153.54
213.262	127.94
213.48	133.36
213.698	113.29
213.916	98.34
214.134	104.48
214.352	98.72
214.57	88.76
214.788	77.92
215.006	68.87
215.224	42.79
215.442	33.28
215.66	35.01
215.878	48.01
216.096	45.58
216.314	56.81
216.532	56.57
216.75	58.35
216.968	45.81
217.185	50.77
217.403	47.08
217.621	61.21
217.839	50.96
218.057	56.17
218.275	36.31
218.492	35.04
218.71	9.87
218.928	-8.19
219.146	-4.35
219.363	14.73
219.581	23.7
219.799	58.75
220.017	39.18
220.234	65.84
220.452	57.49
220.67	67.87
220.887	76.13
221.105	77.47
221.323	85.18
221.54	80.87
221.758	75.2
221.976	77.37
222.193	62.49
222.411	63.42
222.629	69.45
222.846	84.97
223.064	64.1
223.281	54.29
223.499	68.66
223.716	72.15
223.934	85.57
224.151	90.61
224.369	105.91
224.586	89.94
224.804	74.96
225.021	34.59
225.239	-4.09
225.456	12.21
225.674	16.37
225.891	8.58
226.108	7.91
226.326	4.58
226.543	2.03
226.76	-5.42
226.978	-10.04
227.195	-0.94
227.413	7.21
227.63	14.3
227.847	20.58
228.064	16.71
228.282	19.63
228.499	20.35
228.716	18.02
228.934	18.97
229.151	18.55
229.368	20.22
229.585	21.58
229.802	18.9
230.02	16.04
230.237	13.01
230.454	13.61
230.671	11.34
230.888	6.43
231.105	6.11
231.323	5.66
231.54	5.56
231.757	5.61
231.974	4.9
232.191	7.8
232.408	11.98
232.625	12.57
232.842	13.52
233.059	9.16
233.276	18.75
233.493	22.67
233.71	21.31
233.927	18.57
234.144	19.46
234.361	18.96
234.578	18.89
234.795	21.48
235.012	21.07
235.229	25.41
235.446	27.1
235.663	22.29
235.879	21.48
236.096	18.76
236.313	15.6
236.53	15.85
236.747	19.04
236.964	18.93
237.181	16.1
237.397	18.54
237.614	15.93
237.831	12.71
238.048	14.3
238.264	15.47
238.481	19.87
238.698	25.74
238.915	31.3
239.131	28.37
239.348	30.06
239.565	30.12
239.781	28.82
239.998	26.5
240.215	28.87
240.431	28.13
240.648	26.59
240.865	21.84
241.081	20.87
241.298	15.34
241.514	16.05
241.731	13.11
241.947	14.76
242.164	13.11
242.38	12.13
242.597	10.03
242.814	11.16
243.03	10.7
243.246	13.19
243.463	13.49
243.679	14.37
243.896	13.97
244.112	15.08
244.329	12.47
244.545	12.59
244.762	11.74
244.978	13.97
245.194	10.2
245.411	11.44
245.627	11.42
245.843	11.37
246.06	11.84
246.276	12.08
246.492	10.68
246.709	12.38
246.925	12.82
247.141	13.46
247.357	13.74
247.574	14.14
247.79	14.05
248.006	13.79
248.222	13.5
248.439	13.48
248.655	13.95
248.871	15.1
249.087	13.87
249.303	12.96
249.519	12.21
249.736	12.26
249.952	13.2
250.168	12.96
250.384	12.36
250.6	12.34
250.816	12.13
251.032	10.65
251.248	11.28
251.464	11.4
251.68	14.4
251.896	16.66
252.112	15.75
252.328	13.94
252.544	13.15
252.76	12.4
252.976	13.5
253.192	13.04
253.408	14.98
253.624	15.64
253.84	15.93
254.056	13.6
254.272	12.09
254.487	11.82
254.703	12.26
254.919	13.93
255.135	17.33
255.351	16.68
255.567	19.41
255.782	14.39
255.998	10.94
256.214	9.37
256.43	11.75
256.646	13.77
256.861	13.86
257.077	15.12
257.293	13.29
257.508	10.3
257.724	9.27
257.94	7.64
258.155	8.93
258.371	8.93
258.587	11.76
258.802	11.93
259.018	11.28
259.234	12.41
259.449	11.92
259.665	12.28
259.88	12.14
260.096	12.26
260.312	11.91
260.527	11.09
260.743	11.13
260.958	10.48
261.174	10.68
261.389	10.46
261.605	9.37
261.82	8.98
262.036	9.42
262.251	8.65
262.466	8.89
262.682	8.47
262.897	7.89
263.113	8.02
263.328	7.03
263.543	5.6
263.759	5.17
263.974	6.16
264.189	7.13
264.405	3.42
264.62	5.42
264.835	5.16
265.051	4.89
265.266	7.37
265.481	10.17
265.696	11.02
265.912	9.51
266.127	9.6
266.342	8.91
266.557	8.34
266.773	9.37
266.988	9.24
267.203	8.63
267.418	9.38
267.633	10.93
267.848	8.54
268.064	8.26
268.279	7.89
268.494	7.19
268.709	8.37
268.924	7.84
269.139	8.88
269.354	8.24
269.569	8.36
269.784	7.75
269.999	6.98
270.214	6.43
270.429	7.64
270.644	9.52
270.859	9.51
271.074	7.83
271.289	7.85
271.504	7.58
271.719	7.86
271.934	8.57
272.149	8.91
272.363	8.27
272.578	8.87
272.793	9.03
273.008	8.74
273.223	9.73
273.438	10.58
273.653	10.01
273.867	10.62
274.082	10.61
274.297	9.87
274.512	8.22
274.726	9.24
274.941	9.8
275.156	8.9
275.371	7.31
275.585	7.64
275.8	7.17
276.015	7.27
276.229	6.69
276.444	7.08
276.659	7.87
276.873	11.48
277.088	9.47
277.302	9.71
277.517	10.21
277.732	10.54
277.946	8.71
278.161	8.82
278.375	10.24
278.59	9.48
278.804	9.66
279.019	7.62
279.233	5.83
279.448	8.01
279.662	7.9
279.877	7.3
280.091	9.73
280.306	10.77
280.52	9.94
280.735	9.5
280.949	11.13
281.163	11.71
281.378	12.16
281.592	12.83
281.806	12.41
282.021	13
282.235	12.67
282.449	12.18
282.664	12.08
282.878	13.81
283.092	13.21
283.307	13.14
283.521	11.68
283.735	13.51
283.949	12.77
284.164	12.36
284.378	10.78
284.592	10.97
284.806	10.01
285.02	10.19
285.234	9.01
285.449	10.72
285.663	9.51
285.877	10.03
286.091	9.32
286.305	8.44
286.519	8.66
286.733	8.34
286.947	8.6
287.161	8.43
287.375	8.16
287.589	8.42
287.803	7.63
288.017	7.88
288.231	8.13
288.445	8.19
288.659	9.44
288.873	9.01
289.087	10.28
289.301	10.09
289.515	11.64
289.729	12.92
289.943	12.72
290.157	13.78
290.371	12.7
290.584	12.82
290.798	11.63
291.012	13.23
291.226	13.86
291.44	13.99
291.654	13.9
291.867	14.27
292.081	11.66
292.295	11.98
292.509	9.74
292.722	12.78
292.936	12.35
293.15	12.56
293.364	10.28
293.577	11.34
293.791	11.16
294.005	12.6
294.218	12.54
294.432	13.71
294.645	14.04
294.859	15.86
295.073	15.09
295.286	15.52
295.5	16.38
295.713	17.64
295.927	15.15
296.14	14.82
296.354	14.78
296.568	13.59
296.781	13.38
296.994	12.28
297.208	11.38
297.421	10.53
297.635	11.25
297.848	11.54
298.062	11.21
298.275	12.34
298.489	11.95
298.702	11.06
298.915	10.85
299.129	11.45
299.342	12.1
299.555	11.03
299.769	11.92
299.982	11.17
300.195	10.72
300.409	10.59
300.622	10.94
300.835	11.84
301.048	11.67
301.262	12.63
301.475	13.11
301.688	14.29
301.901	15.71
302.115	15.44
302.328	14.78
302.541	14.45
302.754	13.05
302.967	12.09
303.18	11.05
303.393	11.62
303.607	11.75
303.82	10.73
304.033	9.43
304.246	7.92
304.459	8.16
304.672	7.85
304.885	8.66
305.098	11.35
305.311	11.4
305.524	11.42
305.737	11.06
305.95	10.23
306.163	11.55
306.376	11.81
306.589	12.85
306.802	11.69
307.015	10.69
307.228	10.41
307.44	8.18
307.653	8.98
307.866	10.31
308.079	9.9
308.292	9.95
308.505	8.67
308.718	7.33
308.93	7.72
309.143	9.57
309.356	11.57
309.569	10.94
309.781	10.39
309.994	11.36
310.207	12.04
310.42	11.75
310.632	11.68
310.845	11.95
311.058	12.05
311.27	13.35
311.483	12.99
311.696	11.68
311.908	12.59
312.121	12.71
312.333	11.36
312.546	10.96
312.759	11.67
312.971	10.55
313.184	11.5
313.396	13.47
313.609	11.34
313.821	11.23
314.034	11.33
314.246	11.25
314.459	12.27
314.671	12.99
314.884	13.28
315.096	13.63
315.309	13.91
315.521	13.68
315.733	13
315.946	13.05
316.158	12.85
316.371	14.53
316.583	13.27
316.795	11.35
317.008	10.51
317.22	9.31
317.432	9.47
317.644	12.21
317.857	9.99
318.069	10.66
318.281	10.82
318.494	9.57
318.706	7.84
318.918	7.35
319.13	10.05
319.342	10.56
319.555	11.75
319.767	11.49
319.979	9.78
320.191	11.94
320.403	10.47
320.615	12.1
320.827	12.18
321.039	12.59
321.252	14.2
321.464	15.74
321.676	15.47
321.888	13.8
322.1	13.21
322.312	12.86
322.524	12.57
322.736	13.47
322.948	12.42
323.16	12.86
323.372	13.01
323.584	12.47
323.796	10.42
324.007	9.75
324.219	10.09
324.431	10.51
324.643	11.47
324.855	10.43
325.067	9.75
325.279	9.25
325.491	9.22
325.702	8.87
325.914	7.95
326.126	7.04
326.338	7.99
326.55	7.17
326.761	7.73
326.973	7.76
327.185	7.76
327.396	7.71
327.608	7.38
327.82	7.68
328.032	7.89
328.243	8.18
328.455	9.49
328.666	7.7
328.878	9.75
329.09	9.16
329.301	9.08
329.513	8.61
329.725	8.9
329.936	8.82
330.148	9.42
330.359	9.46
330.571	9.86
330.782	8.09
330.994	8.23
331.205	7.81
331.417	6.83
331.628	7.52
331.84	7.72
332.051	6.11
332.262	6.36
332.474	5.72
332.685	6.19
332.897	5.58
333.108	5.45
333.319	7.5
333.531	6.37
333.742	8.48
333.953	9.18
334.165	9.99
334.376	11.77
334.587	12.19
334.799	12.33
335.01	11.25
335.221	11.62
335.432	13.19
335.644	13.08
335.855	14.34
336.066	12.45
336.277	10.25
336.488	9.15
336.7	8.78
336.911	8.5
337.122	8.04
337.333	9.21
337.544	9.25
337.755	8.34
337.966	7.48
338.177	6.34
338.388	6.58
338.599	7.52
338.811	8.17
339.022	8.61
339.233	9.62
339.444	10.11
339.655	9.55
339.866	8.83
340.076	8.74
340.287	9.25
340.498	10.24
340.709	11.43
340.92	11.67
341.131	13.1
341.342	13
341.553	11.65
341.764	12.42
341.975	12.84
342.185	12.71
342.396	11.54
342.607	12.23
342.818	11.59
343.029	10.58
343.239	10.6
343.45	8.99
343.661	9.49
343.872	9.34
344.082	7.38
344.293	7.83
344.504	8.04
344.714	8.53
344.925	8.62
345.136	8.31
345.346	9.58
345.557	8.95
345.768	9.58
345.978	8.99
346.189	9.2
346.399	10.07
346.61	9.63
346.821	10.42
347.031	12.37
347.242	11.82
347.452	12.01
347.663	10.44
347.873	11.11
348.084	10.08
348.294	9.69
348.504	9.94
348.715	10.56
348.925	11.28
349.136	11.65
349.346	11.23
349.557	11.03
349.767	12
349.977	12.29
350.188	11.55
350.398	12.58
350.608	13.24
350.819	13.23
351.029	12.96
351.239	12.02
351.449	11.33
351.66	11.45
351.87	10.23
352.08	9.42
352.29	7.93
352.501	7.57
352.711	6.56
352.921	6.39
353.131	5.88
353.341	4.75
353.552	5.35
353.762	6.15
353.972	5.56
354.182	7.06
354.392	6.84
354.602	8.25
354.812	9.25
355.022	10.46
355.232	10.01
355.442	10.05
355.652	10.98
355.862	11.13
356.072	10.92
356.282	10.56
356.492	10.87
356.702	11.65
356.912	11.13
357.122	10.91
357.332	10.72
357.542	10.67
357.752	11.19
357.962	10.07
358.171	8.77
358.381	8.53
358.591	8.1
358.801	7.85
359.011	7.16
359.221	7.42
359.43	7.25
359.64	6.82
359.85	6.8
360.06	6.92
360.269	8.13
360.479	8.35
360.689	7.77
360.899	7.43
361.108	7.08
361.318	7.14
361.528	7.23
361.737	7.17
361.947	7.58
362.156	7.41
362.366	6.99
362.576	7.01
362.785	7.05
362.995	7.5
363.204	8.23
363.414	8.83
363.623	8.23
363.833	8.57
364.042	7.79
364.252	7.72
364.461	7.39
364.671	8.01
364.88	8.06
365.09	7.64
365.299	7.29
365.509	6.71
365.718	6.05
365.927	6.75
366.137	6.61
366.346	7.6
366.555	7.36
366.765	7.99
366.974	7.19
367.183	6.76
367.393	7.23
367.602	7.08
367.811	6.99
368.021	7.42
368.23	7.46
368.439	7.44
368.648	7.04
368.857	6.5
369.067	5.92
369.276	6.14
369.485	5.56
369.694	5.81
369.903	5.99
370.112	6.11
370.321	5.6
370.531	6.42
370.74	6.49
370.949	6.19
371.158	6.37
371.367	6.13
371.576	6.7
371.785	7.27
371.994	6.71
372.203	7.44
372.412	8.2
372.621	8.15
372.83	7.91
373.039	8.2
373.248	8.77
373.457	9.35
373.666	9.65
373.874	9.01
374.083	8.81
374.292	9.79
374.501	9.93
374.71	8.77
374.919	9.34
375.128	8.55
375.336	8.06
375.545	7.66
375.754	7.05
375.963	7.2
376.171	7.26
376.38	6.75
376.589	6.01
376.798	5.28
377.006	6.03
377.215	5.77
377.424	5.68
377.632	5.61
377.841	6.26
378.05	5.94
378.258	6.18
378.467	6.17
378.675	6.59
378.884	7.19
379.093	7.35
379.301	7.35
379.51	6.96
379.718	7.28
379.927	7.6
380.135	6.8
380.344	6.95
380.552	6.96
380.761	7.02
380.969	6.88
381.177	6.6
381.386	5.99
381.594	6.34
381.803	6.57
382.011	6.15
382.219	5.68
382.428	5.65
382.636	6.02
382.845	5.65
383.053	5.7
383.261	6.36
383.469	6.14
383.678	6.2
383.886	5.73
384.094	5.75
384.302	5.98
384.511	5.67
384.719	5.75
384.927	5.67
385.135	5.43
385.343	5.41
385.552	5.17
385.76	4.98
385.968	4.63
386.176	4.77
386.384	4.82
386.592	4.94
386.8	5.45
387.008	5.75
387.216	5.12
387.424	4.65
387.633	4.58
387.841	4.25
388.049	4.69
388.257	5.2
388.465	4.78
388.672	4.8
388.88	4.7
389.088	4.78
389.296	4.78
389.504	5.28
389.712	6.2
389.92	5.95
390.128	5.81
390.336	5.31
390.544	5.29
390.751	5.56
390.959	5.38
391.167	5.04
391.375	4.23
391.583	4.13
391.79	3.67
391.998	3.37
392.206	3.6
392.414	3.54
392.621	3.17
392.829	2.83
393.037	2.72
393.244	2.6
393.452	2.73
393.66	3.47
393.867	2.94
394.075	3.17
394.283	2.97
394.49	2.96
394.698	3.08
394.905	3.62
395.113	3.57
395.32	3.31
395.528	3.52
395.735	3.51
395.943	3.24
396.15	3.84
396.358	3.81
396.565	4.06
396.773	3.82
396.98	3.84
397.188	3.96
397.395	4.31
397.602	4.47
397.81	4.26
398.017	4.05
398.225	3.68
398.432	3.38
398.639	3.74
398.847	3.84
399.054	3.83
399.261	3.46
399.468	3.05
399.676	3.16
399.883	3.41
400.09	3.51
400.297	3.71
400.505	3.86
400.712	3.74
400.919	3.12
401.126	3.03
401.333	2.73
401.54	2.96
401.748	3.13
401.955	3.27
402.162	3.13
402.369	2.99
402.576	2.91
402.783	2.74
402.99	2.72
403.197	3.06
403.404	3.15
403.611	3.36
403.818	3.48
404.025	3.48
404.232	3.16
404.439	3.02
404.646	3.38
404.853	3.43
405.06	3.74
405.267	4.16
405.474	4.24
405.681	4.35
405.887	4.45
406.094	4.42
406.301	4.45
406.508	4.32
406.715	4.24
406.922	3.82
407.128	3.74
407.335	3.83
407.542	3.37
407.749	3.17
407.955	2.63
408.162	2.7
408.369	2.43
408.575	2.2
408.782	2.31
408.989	2.66
409.195	2.56
409.402	2.57
409.609	2.44
409.815	2.57
410.022	2.55
410.228	2.9
410.435	2.77
410.642	2.97
410.848	3.34
411.055	3.37
411.261	2.93
411.468	2.99
411.674	2.96
411.881	3.11
412.087	3.31
412.294	3.23
412.5	3.17
412.706	3.15
412.913	2.86
413.119	3.01
413.326	2.99
413.532	3.16
413.738	3.25
413.945	3.09
414.151	2.88
414.357	2.63
414.564	2.88
414.77	2.82
414.976	2.78
415.182	3.23
415.389	2.65
415.595	2.7
415.801	2.63
416.007	2.41
416.214	2.78
416.42	2.76
416.626	2.75
416.832	2.69
417.038	2.69
417.244	3
417.45	2.9
417.657	3.03
417.863	3.08
418.069	3.03
418.275	3.17
418.481	2.98
418.687	2.93
418.893	2.83
419.099	2.63
419.305	2.58
419.511	2.3
419.717	2.23
419.923	2.3
420.129	2.22
420.335	2.23
420.541	2.28
420.746	2.32
420.952	2.3
421.158	2.48
421.364	2.64
421.57	2.72
421.776	2.84
421.982	2.88
422.187	2.89
422.393	2.84
422.599	2.82
422.805	2.71
423.01	2.67
423.216	2.82
423.422	2.74
423.628	2.6
423.833	2.49
424.039	2.38
424.245	2.38
424.45	2.23
424.656	2.35
424.862	2.44
425.067	2.36
425.273	2.4
425.478	2.39
425.684	2.27
425.889	2.34
426.095	2.37
426.301	2.27
426.506	2.19
426.712	2.26
426.917	2.09
427.123	2.12
427.328	2.18
427.533	2.15
427.739	1.84
427.944	2.12
428.15	2.3
428.355	2.45
428.561	2.61
428.766	2.59
428.971	2.43
429.177	2.36
429.382	2.39
429.587	2.39
429.793	2.47
429.998	2.49
430.203	2.3
430.408	2.03
430.614	1.94
430.819	1.96
431.024	2.25
431.229	2.58
431.434	2.78
431.64	2.54
431.845	2.77
432.05	2.55
432.255	2.82
432.46	2.84
432.665	2.94
432.87	2.89
433.076	2.79
433.281	2.64
433.486	2.39
433.691	2.2
433.896	2.31
434.101	2.18
434.306	2.36
434.511	2.41
434.716	2.34
434.921	2.29
435.126	2.37
435.331	2.39
435.535	2.53
435.74	2.67
435.945	2.7
436.15	2.57
436.355	2.62
436.56	2.48
436.765	2.27
436.97	2.32
437.174	2.34
437.379	2.26
437.584	2.24
437.789	2.02
437.993	1.95
438.198	2.14
438.403	2.23
438.608	1.93
438.812	1.94
439.017	2.23
439.222	2.08
439.426	2.07
439.631	2.07
439.836	2.11
440.04	2.11
440.245	2.15
440.45	2.15
440.654	2.11
440.859	2.33
441.063	2.26
441.268	2.09
441.472	2.21
441.677	2.19
441.881	2.17
442.086	2.05
442.29	2.08
442.495	2.03
442.699	1.82
442.904	1.8
443.108	1.83
443.312	1.9
443.517	1.92
443.721	1.97
443.925	1.94
444.13	1.99
444.334	2.09
444.538	2.22
444.743	2.16
444.947	2.26
445.151	2.28
445.356	2.15
445.56	2.15
445.764	2.18
445.968	2.17
446.173	2.29
446.377	2.32
446.581	2.32
446.785	2.2
446.989	2.18
447.193	2.15
447.398	2.2
447.602	2.29
447.806	2.36
448.01	2.19
448.214	2.16
448.418	2.1
448.622	2.01
448.826	1.99
449.03	1.91
449.234	1.99
449.438	2.31
449.642	2.35
449.846	2.21
450.05	2.19
450.254	2.13
450.458	2.02
450.662	1.8
450.866	1.69
451.069	1.68
451.273	1.73
451.477	1.8
451.681	1.48
451.885	1.35
452.089	1.51
452.292	1.52
452.496	1.75
452.7	1.86
452.904	2
453.107	2.17
453.311	2.47
453.515	2.64
453.719	2.62
453.922	2.77
454.126	2.69
454.33	2.55
454.533	2.54
454.737	2.41
454.94	2.4
455.144	2.39
455.348	2.24
455.551	1.93
455.755	1.97
455.958	1.98
456.162	1.89
456.365	1.93
456.569	2.02
456.772	1.96
456.976	2.03
457.179	2.07
457.383	2.06
457.586	2.14
457.79	2.25
457.993	2.15
458.196	2.05
458.4	2.05
458.603	2.09
458.807	2.11
459.01	2.06
459.213	2.12
459.417	2.09
459.62	2.07
459.823	2.05
460.026	2.04
460.23	2.08
460.433	2.18
460.636	2.16
460.839	2.16
461.042	2.1
461.246	2.07
461.449	2.06
461.652	2.06
461.855	2.03
462.058	2.15
462.261	2.06
462.464	2.1
462.668	1.96
462.871	2
463.074	2.14
463.277	2.31
463.48	2.44
463.683	2.32
463.886	2.18
464.089	2.23
464.292	2.22
464.495	2.31
464.698	2.19
464.901	2.17
465.104	2.13
465.306	2.19
465.509	2.17
465.712	2.09
465.915	2.08
