Data from 2938026_Reflection_2.txt Node
Date: Sun Jul 12 15:15:13 EDT 2015
User: robert
Spectrometer: USB4E03001
Autoset integration time: false
Trigger mode: 4
Integration Time (sec): 1.000000E-1
Scans to average: 10
Electric dark correction enabled: true
Nonlinearity correction enabled: false
Boxcar width: 5
Stray light correction enabled: false
XAxis mode: Wavelengths
Stop averaging: false
Number of Pixels in Spectrum: 3648
>>>>>Begin Spectral Data<<<<<
177.566	73.61
177.785	-21.9
178.005	-27.82
178.225	324.66
178.445	-84.26
178.665	187.15
178.885	131.08
179.105	47.53
179.324	109.37
179.544	116.3
179.764	124.17
179.984	-224.8
180.204	-1005.11
180.423	903.18
180.643	135.06
180.863	175.12
181.083	165.15
181.302	166.87
181.522	102.36
181.742	95.87
181.961	255.92
182.181	317.68
182.401	161.18
182.621	136.41
182.84	156.26
183.06	338.37
183.279	206.72
183.499	172.01
183.719	391.94
183.938	-399.41
184.158	402.63
184.377	99.55
184.597	85.7
184.816	102.14
185.036	101.61
185.256	111.08
185.475	78.84
185.695	100.76
185.914	94.16
186.134	69.04
186.353	58.05
186.572	57.16
186.792	53.01
187.011	60.52
187.231	78.77
187.45	93.22
187.67	86.39
187.889	89.74
188.108	62.81
188.328	-10.34
188.547	421.95
188.766	434.09
188.986	2304.76
189.205	185.4
189.424	123.66
189.644	149.04
189.863	97.04
190.082	119.36
190.302	56.94
190.521	18.05
190.74	33.17
190.959	32.85
191.178	61.07
191.398	22.82
191.617	97.42
191.836	78.05
192.055	57.5
192.274	53.09
192.494	64.15
192.713	75.05
192.932	61.35
193.151	57.16
193.37	54.47
193.589	58.24
193.808	44.21
194.027	77.65
194.246	81.6
194.465	119.24
194.685	113.57
194.904	88.51
195.123	73.34
195.342	75.31
195.561	67.68
195.78	97.8
195.999	35.9
196.218	43.86
196.436	507.3
196.655	255.4
196.874	269.05
197.093	197.13
197.312	193.75
197.531	112.99
197.75	99.04
197.969	83.55
198.188	159.05
198.407	206.06
198.625	99.13
198.844	33.23
199.063	-75.68
199.282	-1838.14
199.501	-148.13
199.719	-50.25
199.938	52.71
200.157	63.83
200.376	-98.21
200.594	-339.36
200.813	-25.08
201.032	39.21
201.251	18.19
201.469	13.01
201.688	-22.46
201.907	-53.35
202.125	-3.7
202.344	6.53
202.563	-14.32
202.781	-51.09
203	-50.05
203.218	0.29
203.437	-38.61
203.656	-848.79
203.874	25.91
204.093	119.19
204.311	91.7
204.53	69.72
204.748	78.37
204.967	67.15
205.185	107.45
205.404	184.87
205.622	106.34
205.841	112.25
206.059	92.48
206.278	63.1
206.496	32.04
206.715	15.94
206.933	-14.42
207.151	-6.7
207.37	34.87
207.588	27.07
207.806	-33.18
208.025	-89.7
208.243	-2.66
208.461	-46.82
208.68	-244.46
208.898	20.71
209.116	-8.9
209.335	31.81
209.553	69.34
209.771	60.82
209.989	102.71
210.208	18.49
210.426	-9.64
210.644	7.35
210.862	-178.44
211.081	242.3
211.299	-33.03
211.517	-89.04
211.735	-93.55
211.953	-287.91
212.171	626.43
212.39	-1613.35
212.608	-413.16
212.826	-98.34
213.044	-92.34
213.262	-211.6
213.48	1309.84
213.698	136.99
213.916	85.69
214.134	73.31
214.352	119.27
214.57	-69.08
214.788	-23.01
215.006	14.01
215.224	3.3
215.442	-11.65
215.66	-42.05
215.878	-50.8
216.096	-5.81
216.314	111.23
216.532	151.85
216.75	69.78
216.968	93.33
217.185	87.25
217.403	53.45
217.621	70.05
217.839	78.58
218.057	91.76
218.275	119.89
218.492	63.16
218.71	60.79
218.928	44.94
219.146	81.63
219.363	82.22
219.581	146.26
219.799	-2499.05
220.017	158.73
220.234	131.71
220.452	196.92
220.67	139.65
220.887	128.83
221.105	102.09
221.323	113.64
221.54	109.88
221.758	90.57
221.976	81.95
222.193	94.89
222.411	101.85
222.629	123.23
222.846	110.26
223.064	100.73
223.281	77.8
223.499	67.9
223.716	43.78
223.934	33.25
224.151	21.33
224.369	29.31
224.586	23.72
224.804	0.16
225.021	42.42
225.239	31.29
225.456	40.41
225.674	52.08
225.891	62.56
226.108	70.06
226.326	60.28
226.543	58.55
226.76	55.31
226.978	53.74
227.195	49.67
227.413	25.12
227.63	21.57
227.847	23.32
228.064	22.41
228.282	20.86
228.499	18.31
228.716	18.08
228.934	17.84
229.151	18.1
229.368	15.66
229.585	17.31
229.802	19.63
230.02	16.57
230.237	18.69
230.454	16.27
230.671	16.49
230.888	21.59
231.105	24.53
231.323	23.22
231.54	15.97
231.757	19.53
231.974	18.12
232.191	19.97
232.408	27.07
232.625	24.81
232.842	27.46
233.059	24.71
233.276	12.88
233.493	7.96
233.71	12.73
233.927	17.3
234.144	18.74
234.361	18.64
234.578	16.58
234.795	15.9
235.012	12.58
235.229	11.79
235.446	8.75
235.663	12.56
235.879	9.81
236.096	7.69
236.313	9.72
236.53	5.41
236.747	9.37
236.964	8.37
237.181	9.31
237.397	9.64
237.614	9.21
237.831	18.75
238.048	25.62
238.264	26.39
238.481	23.12
238.698	20.64
238.915	21.11
239.131	17.35
239.348	19.33
239.565	19.76
239.781	19.93
239.998	17.87
240.215	14.09
240.431	10.2
240.648	13.39
240.865	12.98
241.081	14.69
241.298	16.18
241.514	15.99
241.731	16.25
241.947	15.42
242.164	16.06
242.38	15.57
242.597	17.81
242.814	15.55
243.03	15.96
243.246	16.1
243.463	14.45
243.679	13.65
243.896	13.86
244.112	13.46
244.329	15
244.545	13.2
244.762	13.61
244.978	11.13
245.194	12.96
245.411	11.82
245.627	13.36
245.843	12.68
246.06	12.95
246.276	13.31
246.492	13.36
246.709	11.47
246.925	11.21
247.141	11.92
247.357	10.93
247.574	10.53
247.79	10.83
248.006	10.77
248.222	12.54
248.439	12.44
248.655	12.51
248.871	13.11
249.087	14.13
249.303	14.69
249.519	15.64
249.736	17.68
249.952	19.07
250.168	18.66
250.384	20.25
250.6	21.16
250.816	21.12
251.032	19.85
251.248	17.51
251.464	13.66
251.68	17.1
251.896	16.21
252.112	17.04
252.328	15.35
252.544	14.1
252.76	10.8
252.976	8.34
253.192	2.96
253.408	4.22
253.624	3.72
253.84	4.98
254.056	-1.58
254.272	-1.36
254.487	-3.52
254.703	-3.24
254.919	-2.25
255.135	-2.02
255.351	-3.69
255.567	1.94
255.782	4.04
255.998	7.2
256.214	10.42
256.43	13.42
256.646	11.37
256.861	9.22
257.077	12.63
257.293	10.31
257.508	11.41
257.724	12.18
257.94	11.94
258.155	9.98
258.371	11.21
258.587	11.15
258.802	9.95
259.018	9.06
259.234	9.75
259.449	9.16
259.665	9.54
259.88	9.45
260.096	9.2
260.312	9.15
260.527	9.58
260.743	8.3
260.958	7.29
261.174	6.76
261.389	6.98
261.605	5.64
261.82	5.13
262.036	4.92
262.251	4.47
262.466	5.71
262.682	5.62
262.897	4.87
263.113	4.8
263.328	3.59
263.543	2.3
263.759	1.28
263.974	3.84
264.189	3.79
264.405	4.58
264.62	5.84
264.835	5.28
265.051	7.48
265.266	9.25
265.481	10.51
265.696	14.51
265.912	15.36
266.127	15.91
266.342	15.81
266.557	13.42
266.773	13.24
266.988	13.45
267.203	11
267.418	9.55
267.633	9.48
267.848	7.86
268.064	7.02
268.279	9.13
268.494	9.53
268.709	9.69
268.924	13.45
269.139	11.97
269.354	11.62
269.569	12.17
269.784	13.39
269.999	12.4
270.214	13.53
270.429	11.09
270.644	8.76
270.859	6.96
271.074	5.82
271.289	3.7
271.504	4.78
271.719	4.76
271.934	5.5
272.149	5.75
272.363	6.27
272.578	6.26
272.793	8.09
273.008	9.83
273.223	10.77
273.438	10.65
273.653	11.07
273.867	12.52
274.082	12.58
274.297	13.08
274.512	11.99
274.726	10.7
274.941	10.93
275.156	10.81
275.371	9.62
275.585	10.94
275.8	10.53
276.015	10.51
276.229	10.75
276.444	9.83
276.659	10.34
276.873	13.33
277.088	13.4
277.302	13.04
277.517	12.06
277.732	12.71
277.946	10.62
278.161	13.63
278.375	12.98
278.59	10.81
278.804	11.42
279.019	10.5
279.233	7.25
279.448	7.54
279.662	7.38
279.877	6.79
280.091	6.12
280.306	6.83
280.52	6.49
280.735	8.07
280.949	9.29
281.163	9.78
281.378	9.5
281.592	10.1
281.806	11.61
282.021	10.77
282.235	11.9
282.449	10.62
282.664	9
282.878	6.15
283.092	5.54
283.307	4.84
283.521	3.53
283.735	3.39
283.949	2.33
284.164	0.66
284.378	0.63
284.592	2.58
284.806	4.58
285.02	5.34
285.234	7.82
285.449	7.76
285.663	7.03
285.877	7.76
286.091	8.13
286.305	9.58
286.519	9.36
286.733	10.75
286.947	8.92
287.161	8.22
287.375	8.35
287.589	6.93
287.803	6.79
288.017	7.68
288.231	7.71
288.445	8.45
288.659	8.19
288.873	9.65
289.087	7.66
289.301	8.82
289.515	8.91
289.729	8.27
289.943	8.96
290.157	9.09
290.371	9.12
290.584	9.22
290.798	9.55
291.012	9.67
291.226	7.97
291.44	8.09
291.654	9.6
291.867	9.39
292.081	9.45
292.295	7.18
292.509	7.14
292.722	7.66
292.936	6.04
293.15	3.5
293.364	3.88
293.577	4.05
293.791	5.29
294.005	0.94
294.218	1.03
294.432	3.52
294.645	7.86
294.859	8.39
295.073	8.33
295.286	8.48
295.5	9
295.713	8.73
295.927	9.97
296.14	9.96
296.354	11.11
296.568	12.21
296.781	10.65
296.994	10.21
297.208	9.98
297.421	10.68
297.635	10.9
297.848	10.79
298.062	10.28
298.275	9.6
298.489	9.2
298.702	8.94
298.915	8.73
299.129	9.61
299.342	6.95
299.555	7.8
299.769	7.36
299.982	8.53
300.195	9.88
300.409	10.2
300.622	11.83
300.835	12.26
301.048	12.83
301.262	11.75
301.475	11.67
301.688	15.55
301.901	13.97
302.115	14.06
302.328	13.09
302.541	12.05
302.754	12.09
302.967	11.57
303.18	11.29
303.393	11.44
303.607	11.67
303.82	11.03
304.033	6.06
304.246	5.75
304.459	7.09
304.672	7.57
304.885	8.63
305.098	8.23
305.311	7.6
305.524	8.9
305.737	7.51
305.95	7.55
306.163	9.19
306.376	11.59
306.589	11.75
306.802	8.88
307.015	10.02
307.228	8.18
307.44	8.36
307.653	9.97
307.866	10.3
308.079	11.75
308.292	12.26
308.505	11.59
308.718	10.63
308.93	10.18
309.143	12.2
309.356	11.4
309.569	11.92
309.781	12.7
309.994	11.09
310.207	11.31
310.42	11.21
310.632	10.54
310.845	10.5
311.058	11.78
311.27	13.74
311.483	13.25
311.696	12.46
311.908	14.62
312.121	15.29
312.333	15.63
312.546	15.57
312.759	15.1
312.971	13.65
313.184	12.7
313.396	11.31
313.609	8.83
313.821	8.19
314.034	8.3
314.246	6.28
314.459	6.54
314.671	8.03
314.884	7.68
315.096	7.84
315.309	9.46
315.521	10.52
315.733	14.07
315.946	16.95
316.158	17.79
316.371	19.49
316.583	20.06
316.795	19.15
317.008	18.05
317.22	16.19
317.432	16.52
317.644	14.77
317.857	14.89
318.069	11.33
318.281	8.72
318.494	6.12
318.706	5.23
318.918	1.75
319.13	-0.08
319.342	-0.96
319.555	0.16
319.767	0.61
319.979	0.65
320.191	1.79
320.403	4.73
320.615	6.93
320.827	8.88
321.039	8.65
321.252	12.29
321.464	13.88
321.676	14.73
321.888	15.25
322.1	14.21
322.312	16.31
322.524	16.1
322.736	13.92
322.948	12.13
323.16	11.05
323.372	10.18
323.584	8.09
323.796	7.9
324.007	8.34
324.219	8.9
324.431	9.23
324.643	9.89
324.855	10.22
325.067	11.25
325.279	11.42
325.491	12.02
325.702	10.08
325.914	10.8
326.126	12.55
326.338	12.75
326.55	12.56
326.761	13.07
326.973	12.62
327.185	12.35
327.396	12.42
327.608	13.5
327.82	13.04
328.032	15.4
328.243	14.8
328.455	11.29
328.666	11.14
328.878	11.5
329.09	10.8
329.301	12.43
329.513	11.56
329.725	11.71
329.936	10.16
330.148	10.8
330.359	9.82
330.571	10.93
330.782	14.21
330.994	14.13
331.205	11.01
331.417	11.54
331.628	10.5
331.84	9.04
332.051	8.01
332.262	7.98
332.474	7.68
332.685	10.39
332.897	10.03
333.108	8.76
333.319	9.15
333.531	11.72
333.742	11.69
333.953	11.02
334.165	12.37
334.376	13.62
334.587	13.53
334.799	13.6
335.01	12.4
335.221	12.61
335.432	12.36
335.644	11.36
335.855	9.13
336.066	9.11
336.277	8.62
336.488	8.66
336.7	6.1
336.911	7.3
337.122	7.71
337.333	7.71
337.544	6.24
337.755	7.48
337.966	9.23
338.177	10.79
338.388	10.7
338.599	10.97
338.811	12.04
339.022	13.63
339.233	12.66
339.444	11.75
339.655	10.85
339.866	13.09
340.076	10.64
340.287	9.91
340.498	8.16
340.709	7.9
340.92	7.36
341.131	6.23
341.342	6.35
341.553	7.1
341.764	7.42
341.975	7.61
342.185	6.65
342.396	9.38
342.607	7.21
342.818	9.05
343.029	8.96
343.239	9.42
343.45	9.54
343.661	9.34
343.872	9.38
344.082	10.1
344.293	10.33
344.504	10.42
344.714	8.27
344.925	10.3
345.136	11.63
345.346	11.92
345.557	12.17
345.768	11.75
345.978	12.32
346.189	11.63
346.399	10.36
346.61	10.87
346.821	11.15
347.031	11.96
347.242	11.77
347.452	9.76
347.663	9.93
347.873	8.92
348.084	8.48
348.294	7.97
348.504	8.77
348.715	9.28
348.925	8.17
349.136	8.1
349.346	8.47
349.557	7.76
349.767	8.06
349.977	6.79
350.188	7.06
350.398	9.23
350.608	9.16
350.819	8.95
351.029	9.07
351.239	10.52
351.449	9.52
351.66	8.99
351.87	8.59
352.08	7.81
352.29	8.64
352.501	8.94
352.711	8.74
352.921	8.77
353.131	9.32
353.341	9.47
353.552	9.88
353.762	9.09
353.972	10.12
354.182	10.09
354.392	11.75
354.602	12.7
354.812	12.22
355.022	10.83
355.232	11.52
355.442	10.98
355.652	10.26
355.862	9.83
356.072	11.32
356.282	10.14
356.492	11.04
356.702	10.36
356.912	9.8
357.122	8.83
357.332	7.89
357.542	6.73
357.752	6.69
357.962	7.37
358.171	5.79
358.381	6.27
358.591	6.32
358.801	5.5
359.011	4.82
359.221	4.8
359.43	6
359.64	6.83
359.85	6.68
360.06	6.03
360.269	4.96
360.479	6.2
360.689	5.08
360.899	5.38
361.108	6.09
361.318	6.51
361.528	6.72
361.737	7.02
361.947	6.44
362.156	7.47
362.366	7.67
362.576	8.04
362.785	7.63
362.995	8.25
363.204	8.01
363.414	8.08
363.623	8.4
363.833	8.19
364.042	7.97
364.252	9.18
364.461	8.67
364.671	9.39
364.88	9.15
365.09	9.53
365.299	10.14
365.509	9.3
365.718	9.19
365.927	8.7
366.137	9.78
366.346	9.82
366.555	9.3
366.765	8.87
366.974	8.03
367.183	8.2
367.393	8.28
367.602	6.93
367.811	7.64
368.021	7.68
368.23	8.37
368.439	7.55
368.648	7.51
368.857	8.3
369.067	8.05
369.276	8.63
369.485	8.47
369.694	8.9
369.903	9.87
370.112	9.72
370.321	9.84
370.531	8.5
370.74	8.14
370.949	7.94
371.158	6.48
371.367	6.69
371.576	6.56
371.785	7.55
371.994	7.46
372.203	6.74
372.412	7.01
372.621	6.71
372.83	7.17
373.039	6.35
373.248	6.78
373.457	7.53
373.666	8.51
373.874	8.66
374.083	7.88
374.292	7.05
374.501	6.87
374.71	6.94
374.919	6.66
375.128	6.8
375.336	8.39
375.545	8.13
375.754	7.82
375.963	7.1
376.171	7.31
376.38	7.7
376.589	8.03
376.798	8.03
377.006	7.86
377.215	7.88
377.424	7.88
377.632	7.29
377.841	6.88
378.05	6.71
378.258	7.33
378.467	7.28
378.675	7.59
378.884	6.68
379.093	6.83
379.301	7.22
379.51	7.31
379.718	7.18
379.927	6.85
380.135	7.45
380.344	7.9
380.552	6.88
380.761	6.53
380.969	6.44
381.177	7.32
381.386	6.92
381.594	6.85
381.803	7.26
382.011	7.5
382.219	6.95
382.428	6.76
382.636	6.43
382.845	6.97
383.053	7.42
383.261	7.24
383.469	7.34
383.678	8.23
383.886	7.88
384.094	7.59
384.302	7.64
384.511	7.99
384.719	7.97
384.927	7.8
385.135	7.21
385.343	6.66
385.552	6.18
385.76	5.94
385.968	5.87
386.176	5.78
386.384	5.23
386.592	4.5
386.8	4.33
387.008	4.35
387.216	3.95
387.424	3.17
387.633	2.8
387.841	2.88
388.049	3.06
388.257	2.86
388.465	2.97
388.672	3.34
388.88	3.85
389.088	4.39
389.296	4.55
389.504	4.9
389.712	5.49
389.92	5.83
390.128	5.75
390.336	5.93
390.544	5.67
390.751	5.91
390.959	5.64
391.167	5.28
391.375	4.73
391.583	4.32
391.79	4.34
391.998	4.95
392.206	4.97
392.414	5.3
392.621	4.88
392.829	4.64
393.037	4.44
393.244	4.58
393.452	4.76
393.66	4.96
393.867	4.66
394.075	4.75
394.283	4.13
394.49	3.72
394.698	3.57
394.905	3.01
395.113	2.96
395.32	2.93
395.528	2.72
395.735	2.55
395.943	2.73
396.15	2.98
396.358	2.66
396.565	2.88
396.773	3.33
396.98	3.25
397.188	3.48
397.395	3.43
397.602	3.2
397.81	3.09
398.017	3.04
398.225	3.02
398.432	2.85
398.639	2.95
398.847	3.03
399.054	2.97
399.261	3.14
399.468	3.66
399.676	4.33
399.883	4.07
400.09	4.07
400.297	3.78
400.505	3.53
400.712	4.16
400.919	4.36
401.126	4.78
401.333	4.44
401.54	3.97
401.748	3.63
401.955	3.27
402.162	3.46
402.369	3.73
402.576	4.12
402.783	3.98
402.99	3.66
403.197	3.69
403.404	3.25
403.611	3.51
403.818	3.58
404.025	3.46
404.232	3.3
404.439	3.41
404.646	3.58
404.853	3.68
405.06	3.72
405.267	3.78
405.474	3.79
405.681	3.7
405.887	3.53
406.094	3.45
406.301	3.64
406.508	3.64
406.715	3.6
406.922	3.11
407.128	2.99
407.335	2.88
407.542	2.62
407.749	2.52
407.955	2.61
408.162	2.8
408.369	3.14
408.575	3.08
408.782	3.11
408.989	3.41
409.195	3.49
409.402	3.6
409.609	3.89
409.815	3.96
410.022	3.86
410.228	3.67
410.435	3.63
410.642	3.35
410.848	3.52
411.055	3.33
411.261	3.17
411.468	3.02
411.674	3.03
411.881	2.96
412.087	3.19
412.294	3.25
412.5	3.44
412.706	3.38
412.913	3.2
413.119	2.97
413.326	3.2
413.532	3.03
413.738	2.96
413.945	3.04
414.151	3.01
414.357	2.93
414.564	3.1
414.77	3.14
414.976	3.11
415.182	3.37
415.389	3.29
415.595	3.17
415.801	3.29
416.007	3.55
416.214	3.41
416.42	3.38
416.626	3.29
416.832	3.09
417.038	2.97
417.244	3.15
417.45	3.06
417.657	3.31
417.863	3.54
418.069	3.31
418.275	3.27
418.481	3.26
418.687	3.32
418.893	3.25
419.099	3.31
419.305	3.4
419.511	3.03
419.717	3.2
419.923	2.99
420.129	2.64
420.335	2.66
420.541	2.77
420.746	2.82
420.952	2.76
421.158	2.77
421.364	2.52
421.57	2.52
421.776	2.78
421.982	2.8
422.187	3.01
422.393	3.18
422.599	3.18
422.805	3.05
423.01	3.09
423.216	3.04
423.422	3.12
423.628	3.28
423.833	3.23
424.039	3.24
424.245	3.13
424.45	3
424.656	2.91
424.862	2.98
425.067	2.94
425.273	2.75
425.478	2.74
425.684	2.63
425.889	2.7
426.095	2.59
426.301	2.6
426.506	2.5
426.712	2.59
426.917	2.59
427.123	2.46
427.328	2.76
427.533	2.82
427.739	2.81
427.944	3.03
428.15	2.98
428.355	3.1
428.561	2.83
428.766	2.7
428.971	2.6
429.177	2.52
429.382	2.64
429.587	2.42
429.793	2.45
429.998	2.49
430.203	2.28
430.408	2
430.614	2.02
430.819	2.21
431.024	2.37
431.229	2.3
431.434	2.48
431.64	2.49
431.845	2.31
432.05	2.22
432.255	2.2
432.46	2.28
432.665	2.4
432.87	2.34
433.076	2.31
433.281	2.37
433.486	2.33
433.691	2.38
433.896	2.31
434.101	2.32
434.306	2.53
434.511	2.44
434.716	2.5
434.921	2.32
435.126	2.41
435.331	2.36
435.535	2.5
435.74	2.48
435.945	2.43
436.15	2.41
436.355	2.44
436.56	2.47
436.765	2.71
436.97	2.58
437.174	2.58
437.379	2.33
437.584	2.21
437.789	2.04
437.993	2.21
438.198	2.02
438.403	1.94
438.608	2.1
438.812	2.13
439.017	1.97
439.222	1.71
439.426	2.04
439.631	2.31
439.836	2.43
440.04	2.41
440.245	2.31
440.45	2.59
440.654	2.65
440.859	2.7
441.063	2.48
441.268	2.62
441.472	2.86
441.677	2.66
441.881	2.48
442.086	2.55
442.29	2.51
442.495	2.61
442.699	2.46
442.904	2.59
443.108	2.52
443.312	2.61
443.517	2.33
443.721	2.27
443.925	2.39
444.13	2.51
444.334	2.41
444.538	2.46
444.743	2.41
444.947	2.45
445.151	2.5
445.356	2.42
445.56	2.56
445.764	2.62
445.968	2.68
446.173	2.62
446.377	2.56
446.581	2.5
446.785	2.55
446.989	2.56
447.193	2.46
447.398	2.35
447.602	2.43
447.806	2.31
448.01	2.4
448.214	2.22
448.418	2.2
448.622	2.19
448.826	2.31
449.03	2.3
449.234	2.21
449.438	2.38
449.642	2.38
449.846	2.41
450.05	2.32
450.254	2.18
450.458	2.35
450.662	2.5
450.866	2.84
451.069	2.76
451.273	2.85
451.477	2.97
451.681	2.99
451.885	3.2
452.089	3.08
452.292	3.03
452.496	3.2
452.7	3.18
452.904	3.09
453.107	2.73
453.311	2.62
453.515	2.36
453.719	2.11
453.922	1.9
454.126	1.55
454.33	1.46
454.533	1.38
454.737	1.27
454.94	1.28
455.144	1.3
455.348	1.26
455.551	1.35
455.755	1.69
455.958	1.74
456.162	1.85
456.365	1.96
456.569	1.92
456.772	1.97
456.976	1.99
457.179	2.19
457.383	2.14
457.586	2.39
457.79	2.38
457.993	2.24
458.196	2.56
458.4	2.51
458.603	2.59
458.807	2.64
459.01	2.69
459.213	2.76
459.417	2.63
459.62	2.66
459.823	2.55
460.026	2.62
460.23	2.45
460.433	2.2
460.636	2.39
460.839	2.36
461.042	2.35
461.246	2.27
461.449	2.26
461.652	2.15
461.855	2.21
462.058	2.26
462.261	2.13
462.464	2.13
462.668	2.23
462.871	1.95
463.074	1.88
463.277	1.89
463.48	2.07
463.683	2.02
463.886	2.17
464.089	1.84
464.292	1.89
464.495	2
464.698	2.25
464.901	2.2
465.104	2.09
465.306	2.12
465.509	2.24
465.712	2.33
465.915	2.39
466.118	2.37
466.321	2.49
466.524	2.54
466.726	2.44
466.929	2.38
