Data from 2938048_Reflection_1.txt Node
Date: Sun Jul 12 14:20:27 EDT 2015
User: robert
Spectrometer: USB4E03001
Autoset integration time: false
Trigger mode: 4
Integration Time (sec): 1.000000E-1
Scans to average: 10
Electric dark correction enabled: true
Nonlinearity correction enabled: false
Boxcar width: 5
Stray light correction enabled: false
XAxis mode: Wavelengths
Stop averaging: false
Number of Pixels in Spectrum: 3648
>>>>>Begin Spectral Data<<<<<
177.566	210.79
177.785	-296.83
178.005	12.46
178.225	10.65
178.445	115.75
178.665	452.6
178.885	-712.96
179.105	984.42
179.324	-18.32
179.544	44.57
179.764	78.7
179.984	163.35
180.204	100.09
180.423	106.03
180.643	95.66
180.863	98.12
181.083	81.4
181.302	89
181.522	83.49
181.742	47.23
181.961	64.99
182.181	83.46
182.401	76.22
182.621	143.5
182.84	72.15
183.06	74.33
183.279	-7.62
183.499	-70.17
183.719	390.96
183.938	4944.44
184.158	-204.85
184.377	762.12
184.597	270.17
184.816	424.37
185.036	-2071.85
185.256	-417.46
185.475	-181.28
185.695	-112.75
185.914	-83.92
186.134	-126.7
186.353	-161.21
186.572	-308.12
186.792	-34.64
187.011	15.48
187.231	17.68
187.45	165.27
187.67	206.72
187.889	541.84
188.108	454.01
188.328	215.17
188.547	104.77
188.766	76.69
188.986	104.64
189.205	93.37
189.424	116.1
189.644	121.82
189.863	91.7
190.082	63.07
190.302	64.35
190.521	47.79
190.74	-43.91
190.959	-4.97
191.178	56.46
191.398	-2.19
191.617	-2.88
191.836	27.33
192.055	-5.68
192.274	-54.99
192.494	7.44
192.713	-4.61
192.932	-3.09
193.151	37.9
193.37	27.31
193.589	9.42
193.808	-13.27
194.027	-37.01
194.246	-40.71
194.465	-18.84
194.685	16.42
194.904	-36.46
195.123	-78.82
195.342	-1403.05
195.561	-353.83
195.78	9.45
195.999	23.92
196.218	80.77
196.436	111.19
196.655	71.95
196.874	48.61
197.093	11.7
197.312	19.01
197.531	20.63
197.75	19.49
197.969	4.12
198.188	-11.4
198.407	20.92
198.625	-29.7
198.844	-32.49
199.063	-109.71
199.282	-351.34
199.501	-752.86
199.719	308.58
199.938	-560.73
200.157	770
200.376	-61.2
200.594	-483.4
200.813	-668.79
201.032	245
201.251	284.29
201.469	443.65
201.688	-3830.12
201.907	-746.67
202.125	-261.39
202.344	-663.29
202.563	-111.51
202.781	-88.2
203	-69.76
203.218	-75.91
203.437	-38.07
203.656	-60.4
203.874	-40.14
204.093	-40.43
204.311	-22.93
204.53	-44.22
204.748	-29.59
204.967	-117.43
205.185	-87.44
205.404	-31.18
205.622	-37.48
205.841	-28.35
206.059	35.12
206.278	17.14
206.496	21.96
206.715	43.82
206.933	27.35
207.151	-56.68
207.37	-87.2
207.588	-831.17
207.806	-688.13
208.025	-65.78
208.243	-394.02
208.461	387.58
208.68	384.67
208.898	646.02
209.116	412.62
209.335	309.93
209.553	203.85
209.771	414.25
209.989	-1050
210.208	451.55
210.426	373.1
210.644	304.08
210.862	3434.7
211.081	-2033.88
211.299	-378.54
211.517	-233.74
211.735	-202.67
211.953	-116.23
212.171	-127.17
212.39	-116.38
212.608	-43.04
212.826	-42.26
213.044	-29.76
213.262	-52.04
213.48	-33.75
213.698	-28.2
213.916	-6.51
214.134	5.6
214.352	21.66
214.57	24.18
214.788	12.98
215.006	-66.41
215.224	-68.27
215.442	-87.25
215.66	-43.64
215.878	-182.21
216.096	-364.33
216.314	-118.02
216.532	-94.04
216.75	-194.82
216.968	-122.09
217.185	-149.19
217.403	-42.23
217.621	-28.88
217.839	20.18
218.057	39.58
218.275	45.85
218.492	27.22
218.71	12.52
218.928	-7.97
219.146	20.36
219.363	35.13
219.581	32.27
219.799	28.41
220.017	13.75
220.234	-18.37
220.452	-35.09
220.67	-3.25
220.887	18.99
221.105	8.62
221.323	52.74
221.54	28.36
221.758	12.94
221.976	14.23
222.193	-0.73
222.411	1.01
222.629	-12.05
222.846	-1.83
223.064	-6.57
223.281	-20.33
223.499	-24.11
223.716	-57.31
223.934	-70.9
224.151	-99.52
224.369	-83.8
224.586	-77.86
224.804	-76.81
225.021	-30.61
225.239	-40.99
225.456	-52.23
225.674	-37.34
225.891	-47.13
226.108	-36.38
226.326	-49.11
226.543	-29.97
226.76	-15.32
226.978	-8.03
227.195	-11.11
227.413	-18.35
227.63	-2.42
227.847	3.2
228.064	7.89
228.282	12.84
228.499	14.64
228.716	17.46
228.934	17.2
229.151	16.84
229.368	13.77
229.585	11.4
229.802	11.81
230.02	7.3
230.237	5.57
230.454	2.88
230.671	5.27
230.888	3.61
231.105	1.69
231.323	-3.87
231.54	-3.53
231.757	-2.06
231.974	8.17
232.191	10.23
232.408	14.31
232.625	19.25
232.842	25.16
233.059	14.84
233.276	11.75
233.493	11.6
233.71	19.99
233.927	18.35
234.144	22.93
234.361	24.43
234.578	19.99
234.795	20.82
235.012	13.75
235.229	9.43
235.446	16.37
235.663	20.77
235.879	18.69
236.096	18.32
236.313	6.21
236.53	5.32
236.747	-5.1
236.964	-4
237.181	-13.24
237.397	-8.75
237.614	-0.71
237.831	-7.13
238.048	-5.87
238.264	-2.21
238.481	-3.73
238.698	5.09
238.915	1.56
239.131	8.68
239.348	10.38
239.565	12.62
239.781	9.55
239.998	7.06
240.215	9.73
240.431	8.87
240.648	12.21
240.865	17.92
241.081	17.56
241.298	15.45
241.514	15.19
241.731	13.8
241.947	18.65
242.164	19.26
242.38	16.98
242.597	18.76
242.814	21.9
243.03	20.07
243.246	17.85
243.463	18.66
243.679	21.42
243.896	17.79
244.112	16.47
244.329	9.74
244.545	10.75
244.762	12.41
244.978	8.69
245.194	2.82
245.411	5.6
245.627	8.81
245.843	11.32
246.06	12.05
246.276	11.99
246.492	14.83
246.709	17.15
246.925	15.61
247.141	16.92
247.357	18
247.574	18.15
247.79	17.84
248.006	16.5
248.222	14.54
248.439	14.08
248.655	15.16
248.871	13.73
249.087	12.31
249.303	13.25
249.519	11.19
249.736	11.54
249.952	10.55
250.168	9.66
250.384	7.64
250.6	9.88
250.816	9.52
251.032	8.88
251.248	8.7
251.464	9.22
251.68	9.45
251.896	9.98
252.112	7.53
252.328	8.43
252.544	8.92
252.76	10.75
252.976	9.19
253.192	9.75
253.408	9.55
253.624	10.89
253.84	11.06
254.056	8.99
254.272	10.16
254.487	8.67
254.703	9.58
254.919	6.39
255.135	2.28
255.351	4.05
255.567	1.97
255.782	1.47
255.998	1.87
256.214	1.65
256.43	4.33
256.646	6.07
256.861	10.46
257.077	5.86
257.293	9.99
257.508	8.77
257.724	6.69
257.94	6.86
258.155	8.64
258.371	7.82
258.587	9.77
258.802	9.75
259.018	9.66
259.234	9.93
259.449	10.7
259.665	10.84
259.88	12.65
260.096	13.03
260.312	12.66
260.527	11.51
260.743	12.75
260.958	11.72
261.174	10.79
261.389	9.63
261.605	9.46
261.82	9.73
262.036	7.2
262.251	6.13
262.466	4.12
262.682	5.26
262.897	5.96
263.113	2.99
263.328	4.74
263.543	6.2
263.759	7.53
263.974	6.62
264.189	7.62
264.405	9.03
264.62	8.37
264.835	10.76
265.051	11.1
265.266	11.92
265.481	11.02
265.696	8.68
265.912	8.65
266.127	9.01
266.342	7.37
266.557	8.34
266.773	8.99
266.988	7.61
267.203	8.17
267.418	7.18
267.633	5.39
267.848	7.72
268.064	9.02
268.279	8.7
268.494	7.73
268.709	8.89
268.924	6.4
269.139	7.14
269.354	8.87
269.569	4.59
269.784	3
269.999	5.48
270.214	3.16
270.429	4.05
270.644	3.42
270.859	4.47
271.074	3.62
271.289	5.18
271.504	4.24
271.719	3.74
271.934	7.26
272.149	9.52
272.363	9.05
272.578	9.95
272.793	8.57
273.008	9.64
273.223	9.17
273.438	10.94
273.653	12.37
273.867	12.43
274.082	14.03
274.297	15.44
274.512	14.41
274.726	15.42
274.941	13.64
275.156	14.99
275.371	15.43
275.585	15.65
275.8	12.1
276.015	10.89
276.229	11.6
276.444	10.91
276.659	8.26
276.873	9.61
277.088	10.8
277.302	13.54
277.517	13.24
277.732	11.31
277.946	11.76
278.161	13.49
278.375	11.22
278.59	12.06
278.804	10.36
279.019	11.18
279.233	8.99
279.448	6.11
279.662	4.71
279.877	4.27
280.091	5.83
280.306	3.51
280.52	2.53
280.735	6.81
280.949	6.49
281.163	9.43
281.378	9.45
281.592	10.32
281.806	9.66
282.021	8.37
282.235	7.51
282.449	7.89
282.664	9.75
282.878	12.12
283.092	10.62
283.307	9.8
283.521	8.56
283.735	7.92
283.949	8.91
284.164	9.86
284.378	11.3
284.592	12.02
284.806	12.51
285.02	12.73
285.234	11.96
285.449	10.56
285.663	10.64
285.877	10.19
286.091	11.03
286.305	10.1
286.519	9.51
286.733	9.85
286.947	10.13
287.161	8.36
287.375	6.81
287.589	5.8
287.803	6.31
288.017	8.27
288.231	9.17
288.445	9.01
288.659	10.27
288.873	10.51
289.087	9.88
289.301	9.45
289.515	11.71
289.729	11.72
289.943	12.73
290.157	14.37
290.371	12.19
290.584	12.99
290.798	12.21
291.012	10.62
291.226	10.52
291.44	9.7
291.654	9.76
291.867	7.02
292.081	8.68
292.295	8.48
292.509	4.91
292.722	6.24
292.936	4.61
293.15	4.18
293.364	4.81
293.577	5.11
293.791	7.74
294.005	7.92
294.218	9.99
294.432	9.07
294.645	8
294.859	9.75
295.073	9.76
295.286	11.06
295.5	12.25
295.713	14.67
295.927	14.72
296.14	14.04
296.354	14.8
296.568	14.51
296.781	15.07
296.994	16.27
297.208	16.65
297.421	15.69
297.635	15.34
297.848	14.31
298.062	12.71
298.275	12.87
298.489	12.54
298.702	11.31
298.915	11.52
299.129	11.68
299.342	11.91
299.555	11.43
299.769	13.09
299.982	13.27
300.195	14.54
300.409	12.36
300.622	11.64
300.835	12.42
301.048	13.25
301.262	12.91
301.475	12.28
301.688	11.83
301.901	12.82
302.115	13.41
302.328	12.09
302.541	11.93
302.754	14.86
302.967	14.68
303.18	14.03
303.393	13.36
303.607	11.88
303.82	11.95
304.033	12.18
304.246	11.86
304.459	10.04
304.672	11.77
304.885	10.56
305.098	8.64
305.311	9.73
305.524	7.34
305.737	5.75
305.95	8.42
306.163	9.28
306.376	9.32
306.589	8.87
306.802	8.07
307.015	7.83
307.228	9.22
307.44	10.53
307.653	11.06
307.866	12.17
308.079	15.13
308.292	14.49
308.505	13.71
308.718	13.17
308.93	12.75
309.143	13.52
309.356	12.42
309.569	14.62
309.781	14.22
309.994	13.91
310.207	15.83
310.42	14.88
310.632	15.96
310.845	16.16
311.058	16.25
311.27	17.5
311.483	18.01
311.696	17.88
311.908	16.96
312.121	16.63
312.333	15.77
312.546	14.52
312.759	14.67
312.971	13.44
313.184	13.17
313.396	13.46
313.609	11.3
313.821	11.16
314.034	10.27
314.246	9.89
314.459	10.42
314.671	12.75
314.884	14.06
315.096	14.3
315.309	14.84
315.521	16.81
315.733	16.37
315.946	16.88
316.158	17.51
316.371	18.47
316.583	16.57
316.795	16.7
317.008	16.12
317.22	16.09
317.432	16.99
317.644	16.6
317.857	14.27
318.069	15.41
318.281	16.2
318.494	16.17
318.706	15.21
318.918	15.27
319.13	14.46
319.342	12.67
319.555	12.51
319.767	9.54
319.979	9.01
320.191	8.98
320.403	6.66
320.615	6.18
320.827	4.88
321.039	7.45
321.252	8.87
321.464	9.68
321.676	11.48
321.888	12.71
322.1	15.31
322.312	16.04
322.524	17.88
322.736	18.62
322.948	19.01
323.16	20.06
323.372	18.4
323.584	19.24
323.796	18.29
324.007	17.59
324.219	15.83
324.431	15.93
324.643	14.71
324.855	11.86
325.067	11.66
325.279	9.51
325.491	7.89
325.702	9.06
325.914	9.22
326.126	10.05
326.338	10.37
326.55	10.46
326.761	11.17
326.973	11.81
327.185	13.01
327.396	12.37
327.608	13.46
327.82	13.34
328.032	12.46
328.243	13.21
328.455	13.07
328.666	13.65
328.878	15.14
329.09	14.31
329.301	12.67
329.513	12.67
329.725	14.13
329.936	14.83
330.148	16
330.359	16.27
330.571	14.67
330.782	14.46
330.994	12.5
331.205	12.91
331.417	12.9
331.628	15.85
331.84	17.22
332.051	16.89
332.262	17.07
332.474	19.27
332.685	17.52
332.897	17.56
333.108	18.57
333.319	19.35
333.531	18.29
333.742	17.86
333.953	17.38
334.165	15.52
334.376	17.02
334.587	18
334.799	15.92
335.01	17.15
335.221	17.54
335.432	16.98
335.644	17.48
335.855	17.12
336.066	16.94
336.277	17.15
336.488	18.01
336.7	16.74
336.911	14.66
337.122	14.19
337.333	14.79
337.544	14.7
337.755	14.54
337.966	14.21
338.177	13.07
338.388	13.18
338.599	13.78
338.811	14.48
339.022	15.31
339.233	16.44
339.444	16.74
339.655	17.03
339.866	17.23
340.076	17.6
340.287	17
340.498	18.24
340.709	19.38
340.92	18.99
341.131	18.35
341.342	17.11
341.553	16.77
341.764	16.56
341.975	15.47
342.185	14.86
342.396	14.93
342.607	15.57
342.818	16.51
343.029	15.32
343.239	14.84
343.45	15.98
343.661	15.72
343.872	16.7
344.082	15.57
344.293	16.21
344.504	17.59
344.714	17.65
344.925	18.03
345.136	17.58
345.346	17.48
345.557	17.99
345.768	17.09
345.978	17.51
346.189	17.51
346.399	18.44
346.61	17.94
346.821	15.75
347.031	15.24
347.242	14.61
347.452	13.25
347.663	13.45
347.873	13.65
348.084	13.07
348.294	13.15
348.504	12.73
348.715	12.64
348.925	13.39
349.136	14.04
349.346	14.7
349.557	15.32
349.767	16.47
349.977	17.25
350.188	16.68
350.398	16.42
350.608	16.66
350.819	16.13
351.029	15.34
351.239	14.06
351.449	15.12
351.66	14.14
351.87	12.1
352.08	11.42
352.29	11.62
352.501	11.59
352.711	11.96
352.921	11.39
353.131	11.9
353.341	12.78
353.552	14.75
353.762	14.37
353.972	14.3
354.182	14.74
354.392	16.27
354.602	15.1
354.812	14.41
355.022	15.2
355.232	16.42
355.442	16.69
355.652	17.43
355.862	16.83
356.072	16.09
356.282	16.89
356.492	18.02
356.702	16.29
356.912	16.01
357.122	16.58
357.332	16.26
357.542	16.61
357.752	16.75
357.962	15.95
358.171	15.96
358.381	17.32
358.591	16.94
358.801	17.1
359.011	18.28
359.221	18.3
359.43	18.38
359.64	18.12
359.85	17.51
360.06	17.49
360.269	17.61
360.479	17.77
360.689	16.54
360.899	16.11
361.108	15.92
361.318	15.8
361.528	16.32
361.737	16.12
361.947	16.42
362.156	16.07
362.366	16.27
362.576	16.48
362.785	16.66
362.995	16.93
363.204	17.06
363.414	16.58
363.623	15.72
363.833	15.17
364.042	15.65
364.252	15.48
364.461	15.38
364.671	14.73
364.88	13.78
365.09	13.44
365.299	14.21
365.509	13.72
365.718	14.01
365.927	14.98
366.137	15.2
366.346	13.79
366.555	14.05
366.765	14.4
366.974	14.56
367.183	15.54
367.393	14.38
367.602	12.82
367.811	13.93
368.021	13.27
368.23	12.85
368.439	12.98
368.648	13.55
368.857	12.52
369.067	12.04
369.276	11.56
369.485	11.28
369.694	11.18
369.903	11.12
370.112	11.03
370.321	10.64
370.531	11.37
370.74	11.61
370.949	11.84
371.158	11.89
371.367	11.71
371.576	11.34
371.785	11.36
371.994	12.36
372.203	13.28
372.412	13.72
372.621	14.63
372.83	14.21
373.039	13.76
373.248	13.17
373.457	13.87
373.666	13.92
373.874	13.81
374.083	13.95
374.292	14.35
374.501	13.39
374.71	12.09
374.919	11.85
375.128	11.92
375.336	12.66
375.545	12.94
375.754	12.89
375.963	13.71
376.171	14
376.38	13.67
376.589	13.22
376.798	13.78
377.006	14.45
377.215	14.16
377.424	14.17
377.632	13.54
377.841	13.49
378.05	12.89
378.258	11.55
378.467	11.1
378.675	11.38
378.884	11.27
379.093	11.18
379.301	11.27
379.51	11.3
379.718	10.6
379.927	10.97
380.135	11.25
380.344	11.56
380.552	11.9
380.761	12.23
380.969	12.14
381.177	11.64
381.386	11.2
381.594	10.91
381.803	11.02
382.011	11.41
382.219	10.93
382.428	10.6
382.636	10.37
382.845	10.3
383.053	10.73
383.261	10.62
383.469	10.86
383.678	11.22
383.886	10.74
384.094	11.05
384.302	10.51
384.511	10.3
384.719	10.42
384.927	10.21
385.135	10.48
385.343	10.4
385.552	10.6
385.76	10.42
385.968	10.56
386.176	10.53
386.384	10.08
386.592	10.34
386.8	10.54
387.008	9.96
387.216	10.06
387.424	10.15
387.633	9.47
387.841	8.8
388.049	8.94
388.257	8.38
388.465	8.55
388.672	8.18
388.88	7.87
389.088	8.09
389.296	7.82
389.504	7.69
389.712	7.57
389.92	7.61
390.128	7.98
390.336	7.7
390.544	7.64
390.751	7.55
390.959	7.86
391.167	8
391.375	7.39
391.583	7.86
391.79	7.83
391.998	7.63
392.206	7.78
392.414	7.61
392.621	7.86
392.829	8.29
393.037	8.61
393.244	8.43
393.452	8.46
393.66	8.93
393.867	8.78
394.075	8.99
394.283	9.12
394.49	9.3
394.698	9.18
394.905	8.79
395.113	8.61
395.32	8.25
395.528	8.52
395.735	8.31
395.943	8.07
396.15	8.32
396.358	8.25
396.565	7.92
396.773	7.85
396.98	7.98
397.188	8.07
397.395	7.62
397.602	7.4
397.81	7.1
398.017	7.11
398.225	7.03
398.432	6.71
398.639	6.72
398.847	6.98
399.054	6.63
399.261	6.3
399.468	6.28
399.676	6.52
399.883	6.77
400.09	6.7
400.297	6.64
400.505	6.31
400.712	6.25
400.919	6.3
401.126	6.31
401.333	6.13
401.54	6.53
401.748	6.47
401.955	6.31
402.162	6.06
402.369	6.21
402.576	6.14
402.783	6.78
402.99	6.61
403.197	6.28
403.404	6.07
403.611	6.29
403.818	6.28
404.025	6.25
404.232	6.26
404.439	6.47
404.646	6.49
404.853	6.6
405.06	6.28
405.267	6.52
405.474	6.83
405.681	6.91
405.887	6.96
406.094	6.93
406.301	7.08
406.508	7.21
406.715	7.51
406.922	7.49
407.128	7.75
407.335	7.77
407.542	7.64
407.749	7.48
407.955	7.48
408.162	7.1
408.369	7.17
408.575	7.44
408.782	7.37
408.989	7.2
409.195	6.93
409.402	6.45
409.609	6.6
409.815	7.01
410.022	6.95
410.228	6.75
410.435	7.35
410.642	7.11
410.848	7.17
411.055	7.26
411.261	6.78
411.468	7.08
411.674	7.27
411.881	7.18
412.087	7.01
412.294	7.04
412.5	7.21
412.706	6.93
412.913	6.78
413.119	6.38
413.326	6.46
413.532	6.79
413.738	6.78
413.945	6.66
414.151	6.5
414.357	6.41
414.564	6.33
414.77	6.36
414.976	6.18
415.182	6.28
415.389	6.41
415.595	6.14
415.801	6.11
416.007	6.13
416.214	6.21
416.42	6.09
416.626	6.12
416.832	6.14
417.038	6.15
417.244	6.34
417.45	6.46
417.657	6.3
417.863	6.47
418.069	6.37
418.275	6.3
418.481	6.43
418.687	6.71
418.893	6.69
419.099	6.65
419.305	6.56
419.511	6.46
419.717	6.4
419.923	6.3
420.129	6.13
420.335	6.25
420.541	6.19
420.746	6.04
420.952	5.98
421.158	6.03
421.364	6.02
421.57	6.01
421.776	6.17
421.982	6.11
422.187	6.17
422.393	6.4
422.599	6.36
422.805	6.46
423.01	6.6
423.216	6.48
423.422	6.29
423.628	6.28
423.833	6.33
424.039	6.2
424.245	6.36
424.45	6.43
424.656	6.39
424.862	6.5
425.067	6.31
425.273	6.25
425.478	6.36
425.684	6.57
425.889	6.61
426.095	6.66
426.301	6.66
426.506	6.44
426.712	6.46
426.917	6.3
427.123	6.16
427.328	6.43
427.533	6.26
427.739	6.12
427.944	5.86
428.15	5.81
428.355	5.85
428.561	5.79
428.766	5.7
428.971	5.8
429.177	5.93
429.382	5.82
429.587	5.73
429.793	5.78
429.998	5.81
430.203	6.07
430.408	6.07
430.614	5.73
430.819	5.83
431.024	5.9
431.229	5.66
431.434	5.57
431.64	5.47
431.845	5.4
432.05	5.45
432.255	5.3
432.46	4.96
432.665	5.15
432.87	5.3
433.076	5.31
433.281	5.42
433.486	5.38
433.691	5.45
433.896	5.47
434.101	5.59
434.306	5.6
434.511	5.88
434.716	6.19
434.921	6.1
435.126	6.26
435.331	6.04
435.535	6.23
435.74	6.39
435.945	6.25
436.15	6.17
436.355	6.16
436.56	5.96
436.765	5.91
436.97	6.02
437.174	6.01
437.379	5.99
437.584	6.22
437.789	6
437.993	5.85
438.198	5.94
438.403	6.25
438.608	6.14
438.812	6.25
439.017	6.14
439.222	5.98
439.426	6.06
439.631	5.97
439.836	5.89
440.04	6.04
440.245	6.12
440.45	6.15
440.654	5.98
440.859	6.12
441.063	6.17
441.268	6.25
441.472	6.34
441.677	6.25
441.881	6.16
442.086	6.25
442.29	5.94
442.495	5.87
442.699	5.81
442.904	5.83
443.108	5.79
443.312	5.74
443.517	5.87
443.721	5.67
443.925	5.74
444.13	5.95
444.334	5.86
444.538	6.24
444.743	6.12
444.947	6.16
445.151	6.17
445.356	6.2
445.56	6.15
445.764	5.9
445.968	5.93
446.173	5.96
446.377	5.93
446.581	5.99
446.785	5.89
446.989	6.02
447.193	6.04
447.398	6.12
447.602	5.94
447.806	6.08
448.01	6.16
448.214	6.01
448.418	5.77
448.622	5.69
448.826	5.65
449.03	5.48
449.234	5.31
449.438	5.22
449.642	5.27
449.846	5.32
450.05	5.06
450.254	4.94
450.458	5.11
450.662	5.21
450.866	5.24
451.069	5.25
451.273	5.37
451.477	5.55
451.681	5.59
451.885	5.23
452.089	5.35
452.292	5.42
452.496	5.64
452.7	5.69
452.904	5.73
453.107	5.53
453.311	5.52
453.515	5.48
453.719	5.42
453.922	5.4
454.126	5.54
454.33	5.49
454.533	5.34
454.737	5.11
454.94	5.15
455.144	5.17
455.348	5.31
455.551	5.38
455.755	5.33
455.958	5.28
456.162	5.3
456.365	5.42
456.569	5.28
456.772	5.6
456.976	5.7
457.179	5.59
457.383	5.45
457.586	5.54
457.79	5.47
457.993	5.47
458.196	5.59
458.4	5.6
458.603	5.35
458.807	5.54
459.01	5.63
459.213	5.66
459.417	5.84
459.62	5.97
459.823	5.94
460.026	6.06
460.23	6.08
460.433	6.01
460.636	5.95
460.839	6.12
461.042	6.04
461.246	6.07
461.449	5.95
461.652	5.84
461.855	5.79
462.058	5.75
462.261	5.62
462.464	5.81
462.668	5.99
