Data from 2938046_Reflection_1.txt Node
Date: Sun Jul 12 14:25:13 EDT 2015
User: robert
Spectrometer: USB4E03001
Autoset integration time: false
Trigger mode: 4
Integration Time (sec): 1.000000E-1
Scans to average: 10
Electric dark correction enabled: true
Nonlinearity correction enabled: false
Boxcar width: 5
Stray light correction enabled: false
XAxis mode: Wavelengths
Stop averaging: false
Number of Pixels in Spectrum: 3648
>>>>>Begin Spectral Data<<<<<
177.566	-22.02
177.785	-22.46
178.005	-40.76
178.225	27.6
178.445	116.57
178.665	103.82
178.885	-37.9
179.105	-178
179.324	91.56
179.544	106.18
179.764	224.69
179.984	305.21
180.204	297.41
180.423	192.22
180.643	172.68
180.863	127.13
181.083	158.9
181.302	134.92
181.522	144.99
181.742	162.54
181.961	157.28
182.181	133.04
182.401	116.77
182.621	105.54
182.84	97.9
183.06	107.58
183.279	106.85
183.499	85.37
183.719	80.65
183.938	83.21
184.158	101.97
184.377	116.8
184.597	151.53
184.816	169.08
185.036	232.99
185.256	268.5
185.475	182.13
185.695	154.53
185.914	211.62
186.134	206.11
186.353	177.15
186.572	149.25
186.792	119.56
187.011	104.4
187.231	107.74
187.45	116.53
187.67	128.19
187.889	126.08
188.108	134.8
188.328	119.44
188.547	131.56
188.766	171.63
188.986	163.85
189.205	205.41
189.424	253.58
189.644	248.38
189.863	245.27
190.082	202.69
190.302	246.84
190.521	262.59
190.74	317.31
190.959	406.4
191.178	246.22
191.398	320.43
191.617	277.62
191.836	381.73
192.055	265.46
192.274	260.04
192.494	995.31
192.713	281.02
192.932	211.69
193.151	141.4
193.37	87.52
193.589	66.93
193.808	59.64
194.027	113.19
194.246	92.58
194.465	106.01
194.685	116.6
194.904	127.74
195.123	143.22
195.342	163.53
195.561	220.73
195.78	404
195.999	317.83
196.218	303.36
196.436	276.26
196.655	453.13
196.874	342.5
197.093	290.5
197.312	265.71
197.531	248.02
197.75	178.02
197.969	193.71
198.188	160.02
198.407	175.57
198.625	182.4
198.844	169.28
199.063	130.91
199.282	128.23
199.501	116.01
199.719	94.52
199.938	118.26
200.157	172.11
200.376	139.75
200.594	139.46
200.813	121.51
201.032	114.88
201.251	122.24
201.469	133.65
201.688	133.61
201.907	117.19
202.125	132.2
202.344	101.27
202.563	119.23
202.781	129.96
203	108.87
203.218	128.17
203.437	165.34
203.656	148.33
203.874	179.73
204.093	170.53
204.311	201.15
204.53	193.22
204.748	336.45
204.967	184.6
205.185	164.11
205.404	201.35
205.622	244.22
205.841	158.84
206.059	156.13
206.278	131.44
206.496	117.51
206.715	132.72
206.933	107.69
207.151	106.63
207.37	142.53
207.588	130.99
207.806	129.26
208.025	117.81
208.243	87.12
208.461	97.57
208.68	166.87
208.898	172.78
209.116	139.47
209.335	182.55
209.553	76.51
209.771	84.43
209.989	87.91
210.208	127.86
210.426	163.11
210.644	175.73
210.862	161.9
211.081	124.34
211.299	137.51
211.517	129.52
211.735	125.19
211.953	136.54
212.171	122.62
212.39	112.12
212.608	104.34
212.826	91.15
213.044	83.25
213.262	83.5
213.48	86.92
213.698	92.18
213.916	90.27
214.134	92.7
214.352	87.31
214.57	109.43
214.788	108.7
215.006	106.82
215.224	119.02
215.442	144.86
215.66	142.66
215.878	113.63
216.096	97.62
216.314	97.4
216.532	96.14
216.75	91.22
216.968	71.31
217.185	87.56
217.403	79.35
217.621	77.5
217.839	80.67
218.057	77.56
218.275	84.04
218.492	78.15
218.71	72.84
218.928	81.22
219.146	93.05
219.363	106.99
219.581	100.92
219.799	102.32
220.017	95.85
220.234	89.7
220.452	86.62
220.67	83.01
220.887	87.08
221.105	88.02
221.323	79.93
221.54	77.83
221.758	61.86
221.976	60.82
222.193	59.5
222.411	75.42
222.629	90.33
222.846	83.27
223.064	85.52
223.281	83.56
223.499	90.68
223.716	99.2
223.934	70.91
224.151	80.31
224.369	85.07
224.586	93.92
224.804	80.53
225.021	57.17
225.239	70.8
225.456	78.08
225.674	71.77
225.891	73.31
226.108	73.03
226.326	79.95
226.543	72.21
226.76	80.11
226.978	74.34
227.195	69.12
227.413	65.45
227.63	58.67
227.847	51.82
228.064	51.27
228.282	45.38
228.499	41.3
228.716	39.19
228.934	36.88
229.151	31.46
229.368	29.3
229.585	28.08
229.802	26.99
230.02	26.29
230.237	25.38
230.454	21.91
230.671	20.07
230.888	23.27
231.105	21.51
231.323	20.41
231.54	23.77
231.757	28.35
231.974	31.73
232.191	33.71
232.408	31.83
232.625	33.16
232.842	34.14
233.059	41.44
233.276	38.14
233.493	36.93
233.71	41.51
233.927	40.11
234.144	34.45
234.361	33.91
234.578	34.6
234.795	38
235.012	40.39
235.229	38.98
235.446	41.32
235.663	45.72
235.879	46.31
236.096	46.08
236.313	47.44
236.53	43.53
236.747	44.98
236.964	40.68
237.181	40.38
237.397	38.47
237.614	40.75
237.831	36.03
238.048	33.36
238.264	31.86
238.481	33.37
238.698	31.24
238.915	31.94
239.131	25.3
239.348	32.04
239.565	33.04
239.781	31.18
239.998	31.56
240.215	36.99
240.431	35.79
240.648	36.67
240.865	33.03
241.081	31.46
241.298	30.98
241.514	29.11
241.731	26.77
241.947	24.12
242.164	23.31
242.38	21.47
242.597	18.06
242.814	17.31
243.03	17.14
243.246	16.81
243.463	16.9
243.679	16.11
243.896	18.67
244.112	17.54
244.329	18.51
244.545	19.13
244.762	21.48
244.978	20.47
245.194	19.14
245.411	19.19
245.627	20.23
245.843	20.95
246.06	21.53
246.276	19.53
246.492	19.25
246.709	19
246.925	18.62
247.141	17.65
247.357	16.97
247.574	16.47
247.79	16.6
248.006	17.4
248.222	16.82
248.439	17.58
248.655	18.63
248.871	19.44
249.087	20.26
249.303	21.4
249.519	23.02
249.736	24.18
249.952	25.39
250.168	28.34
250.384	26.83
250.6	27.51
250.816	27.56
251.032	25.53
251.248	24.59
251.464	24.04
251.68	23.29
251.896	21.08
252.112	21.85
252.328	23.11
252.544	20.09
252.76	19.3
252.976	18.79
253.192	19.44
253.408	20
253.624	21.56
253.84	21.3
254.056	22.89
254.272	24.69
254.487	26.97
254.703	27.24
254.919	29.67
255.135	29.25
255.351	27.61
255.567	28.1
255.782	28.56
255.998	27.08
256.214	25.49
256.43	23.33
256.646	23.6
256.861	22.87
257.077	22.68
257.293	21.14
257.508	22.06
257.724	22.81
257.94	18.91
258.155	18.38
258.371	16.82
258.587	17.46
258.802	15.94
259.018	15.12
259.234	15.18
259.449	14.54
259.665	13.7
259.88	14.59
260.096	14.69
260.312	15.1
260.527	15.16
260.743	15.18
260.958	14.76
261.174	14.94
261.389	14.77
261.605	13.98
261.82	14.65
262.036	15.86
262.251	15.87
262.466	15.67
262.682	16.88
262.897	16.47
263.113	18.57
263.328	19.82
263.543	20.62
263.759	21.05
263.974	23.27
264.189	20.57
264.405	20.02
264.62	17.45
264.835	17.66
265.051	16.25
265.266	17.36
265.481	16.29
265.696	13.93
265.912	13.59
266.127	15.66
266.342	12.99
266.557	14.19
266.773	15.05
266.988	13.86
267.203	14.05
267.418	14.5
267.633	14.98
267.848	14.61
268.064	16.49
268.279	17.35
268.494	16.6
268.709	18.52
268.924	19.16
269.139	19.32
269.354	21.4
269.569	20.55
269.784	19.34
269.999	19.56
270.214	20.27
270.429	18.1
270.644	17.28
270.859	17.73
271.074	16.11
271.289	16.28
271.504	15.07
271.719	14.58
271.934	14.92
272.149	15.11
272.363	13.61
272.578	14.17
272.793	16.17
273.008	16.25
273.223	16.51
273.438	18.21
273.653	16.99
273.867	18.49
274.082	20.47
274.297	20.99
274.512	21.29
274.726	21.13
274.941	19.49
275.156	18.58
275.371	18.8
275.585	20.87
275.8	20.47
276.015	23.03
276.229	22.53
276.444	20.05
276.659	19.11
276.873	19.71
277.088	20.57
277.302	21.65
277.517	22.52
277.732	21.86
277.946	18.95
278.161	18.08
278.375	15.85
278.59	16.92
278.804	18.4
279.019	19.87
279.233	19.1
279.448	18.51
279.662	17.42
279.877	16.27
280.091	16.93
280.306	16.17
280.52	16.25
280.735	16.04
280.949	13.27
281.163	12.56
281.378	12.57
281.592	13.69
281.806	14.08
282.021	13.42
282.235	14.19
282.449	14.54
282.664	15.1
282.878	16.16
283.092	16.71
283.307	17.72
283.521	17.06
283.735	16.77
283.949	16.97
284.164	17.35
284.378	18.15
284.592	18.02
284.806	17.36
285.02	17.22
285.234	15.62
285.449	15.93
285.663	16.58
285.877	16.82
286.091	16.26
286.305	15.37
286.519	16.02
286.733	15.18
286.947	14.97
287.161	17.32
287.375	17.89
287.589	18.19
287.803	18.45
288.017	18.43
288.231	19.33
288.445	19.42
288.659	19.03
288.873	18.56
289.087	20.14
289.301	20.52
289.515	18.17
289.729	17.53
289.943	18.04
290.157	15.74
290.371	15.64
290.584	14.71
290.798	15.77
291.012	16.86
291.226	16.6
291.44	15.65
291.654	15.66
291.867	16.16
292.081	15.22
292.295	14.75
292.509	18.9
292.722	19.02
292.936	20.56
293.15	19.94
293.364	18.62
293.577	18.73
293.791	19.42
294.005	18.2
294.218	17.47
294.432	16.62
294.645	17.37
294.859	15.8
295.073	15.02
295.286	13.31
295.5	14.32
295.713	14.3
295.927	14.11
296.14	14.57
296.354	14.71
296.568	13.99
296.781	14.58
296.994	14.6
297.208	13.47
297.421	14.42
297.635	15.35
297.848	14.15
298.062	14.65
298.275	15.05
298.489	15.18
298.702	16.09
298.915	16.77
299.129	17.23
299.342	17.19
299.555	18.64
299.769	18.16
299.982	19.44
300.195	20.7
300.409	21.44
300.622	20.73
300.835	19.98
301.048	19.71
301.262	20.56
301.475	22.18
301.688	22.21
301.901	22.68
302.115	22.03
302.328	20.21
302.541	18.24
302.754	16.69
302.967	17.79
303.18	18.59
303.393	19.27
303.607	18.92
303.82	18.32
304.033	18.83
304.246	18.42
304.459	18.74
304.672	19.68
304.885	21.54
305.098	23.34
305.311	22.84
305.524	22.89
305.737	23.17
305.95	22.62
306.163	23.45
306.376	22.31
306.589	21.85
306.802	23.04
307.015	22.71
307.228	21.35
307.44	20.93
307.653	20.24
307.866	18.91
308.079	18.5
308.292	20.41
308.505	18.49
308.718	18.8
308.93	18.79
309.143	17.35
309.356	17.72
309.569	18.94
309.781	19.88
309.994	20.18
310.207	20.06
310.42	18.91
310.632	18.36
310.845	18.6
311.058	19.46
311.27	20.48
311.483	19.16
311.696	18.52
311.908	19.09
312.121	18.49
312.333	18.83
312.546	20.52
312.759	21.05
312.971	20.31
313.184	19.75
313.396	18.77
313.609	18.04
313.821	20.38
314.034	20.64
314.246	18.3
314.459	17.25
314.671	18.91
314.884	17.2
315.096	17.36
315.309	17.59
315.521	19.64
315.733	20.19
315.946	20.46
316.158	19.57
316.371	20.94
316.583	22.37
316.795	24.01
317.008	22.75
317.22	22.58
317.432	22.08
317.644	22.95
317.857	22.11
318.069	21.73
318.281	21.19
318.494	23.22
318.706	22.63
318.918	22.57
319.13	22.44
319.342	22.35
319.555	23.13
319.767	23.99
319.979	22.81
320.191	23.15
320.403	23.08
320.615	22.74
320.827	22.36
321.039	23.26
321.252	23.5
321.464	20.75
321.676	20.64
321.888	21.6
322.1	20.64
322.312	21.94
322.524	23.31
322.736	24.16
322.948	24.98
323.16	23.76
323.372	22.49
323.584	20.48
323.796	22.73
324.007	22.67
324.219	22.78
324.431	22.03
324.643	21.47
324.855	19.94
325.067	19.8
325.279	18.98
325.491	18.75
325.702	19.68
325.914	20.74
326.126	19.12
326.338	19.26
326.55	19.16
326.761	20.22
326.973	20.3
327.185	19.84
327.396	18.84
327.608	19.32
327.82	19.56
328.032	17.95
328.243	19.13
328.455	19.95
328.666	19.49
328.878	18.32
329.09	18.74
329.301	17.84
329.513	17.39
329.725	17.53
329.936	18.87
330.148	18.86
330.359	19.44
330.571	18.42
330.782	17.82
330.994	17.97
331.205	18.41
331.417	18.69
331.628	18.85
331.84	19.29
332.051	20.27
332.262	19.1
332.474	19.97
332.685	18.81
332.897	19.47
333.108	20.43
333.319	20.18
333.531	18.32
333.742	18.49
333.953	18.52
334.165	18.74
334.376	18.94
334.587	19.44
334.799	19.84
335.01	20.57
335.221	19.71
335.432	18.87
335.644	19.57
335.855	19.82
336.066	20.82
336.277	22.04
336.488	22.47
336.7	22.71
336.911	21.91
337.122	21.22
337.333	22.15
337.544	22.57
337.755	21.96
337.966	22.03
338.177	22.56
338.388	20.95
338.599	20.83
338.811	19.35
339.022	17.25
339.233	16.98
339.444	16.49
339.655	14.15
339.866	14.8
340.076	15.52
340.287	15.62
340.498	16.71
340.709	16.21
340.92	15.72
341.131	16.34
341.342	18.15
341.553	18.46
341.764	18.07
341.975	18.97
342.185	17.78
342.396	18.59
342.607	18.56
342.818	17.34
343.029	17.49
343.239	16.86
343.45	17.57
343.661	17.8
343.872	16.66
344.082	17.72
344.293	17.88
344.504	18
344.714	17.32
344.925	16.88
345.136	17.07
345.346	16.99
345.557	16.66
345.768	15.72
345.978	14.01
346.189	14.82
346.399	13.9
346.61	13.96
346.821	14.24
347.031	14.15
347.242	13.64
347.452	15.04
347.663	14.85
347.873	15.15
348.084	15.35
348.294	17.45
348.504	17.67
348.715	17.89
348.925	17.9
349.136	18.66
349.346	18.54
349.557	19.07
349.767	17.79
349.977	19.46
350.188	19.63
350.398	20.57
350.608	18.96
350.819	18.9
351.029	19.43
351.239	19.25
351.449	18.62
351.66	18.52
351.87	17.15
352.08	17.39
352.29	16.74
352.501	17.18
352.711	15.92
352.921	15.76
353.131	14.95
353.341	14.38
353.552	15.42
353.762	15.86
353.972	15.18
354.182	15.81
354.392	16.29
354.602	16.4
354.812	15.81
355.022	15.95
355.232	15.42
355.442	15.84
355.652	15.97
355.862	15.27
356.072	15.16
356.282	16.21
356.492	16.84
356.702	15.33
356.912	14.42
357.122	14.47
357.332	15.28
357.542	15.27
357.752	14.65
357.962	14.33
358.171	13.99
358.381	13.4
358.591	12.56
358.801	11.74
359.011	12.72
359.221	12.42
359.43	12.45
359.64	12.48
359.85	14.36
360.06	14.56
360.269	14.77
360.479	15.29
360.689	14.76
360.899	14.61
361.108	14.65
361.318	14.7
361.528	14.93
361.737	15.1
361.947	13.96
362.156	12.87
362.366	12.75
362.576	13.01
362.785	12.71
362.995	13.62
363.204	14.31
363.414	14.23
363.623	14.03
363.833	13.88
364.042	13.59
364.252	14.4
364.461	14.62
364.671	14.69
364.88	14.37
365.09	13.31
365.299	13.38
365.509	12.87
365.718	12.67
365.927	12
366.137	11.9
366.346	11.73
366.555	11.42
366.765	11.66
366.974	12.5
367.183	12.29
367.393	12.8
367.602	11.41
367.811	11.54
368.021	11.83
368.23	12.29
368.439	13.79
368.648	14.22
368.857	13.98
369.067	13.22
369.276	12.83
369.485	12.73
369.694	12.66
369.903	13.36
370.112	13.23
370.321	13.51
370.531	13.93
370.74	12.21
370.949	11.96
371.158	12.58
371.367	12.06
371.576	11.93
371.785	12.08
371.994	12.82
372.203	13.04
372.412	12.5
372.621	12.9
372.83	13.14
373.039	14.04
373.248	13.36
373.457	12.96
373.666	13.62
373.874	13.18
374.083	12.57
374.292	11.62
374.501	11.62
374.71	11.89
374.919	11.48
375.128	11.24
375.336	10.55
375.545	11.13
375.754	11.19
375.963	11.02
376.171	10.86
376.38	11.15
376.589	11.46
376.798	10.99
377.006	11.08
377.215	11.15
377.424	10.89
377.632	10.97
377.841	11.24
378.05	11.42
378.258	11
378.467	11.36
378.675	10.98
378.884	11.46
379.093	11.35
379.301	11.56
379.51	11.6
379.718	11.31
379.927	10.8
380.135	10.9
380.344	11.22
380.552	11.88
380.761	11.88
380.969	12.48
381.177	11.86
381.386	11.64
381.594	11.17
381.803	10.54
382.011	10.62
382.219	11.23
382.428	10.5
382.636	10.21
382.845	9.67
383.053	9.62
383.261	9.61
383.469	8.91
383.678	9.13
383.886	9.35
384.094	9.36
384.302	9
384.511	8.43
384.719	8.25
384.927	7.58
385.135	7.71
385.343	8.05
385.552	7.8
385.76	8.54
385.968	8.48
386.176	8.27
386.384	8.38
386.592	8.25
386.8	8.12
387.008	8.44
387.216	8.1
387.424	8.48
387.633	7.71
387.841	7.47
388.049	7.25
388.257	7.06
388.465	6.83
388.672	6.69
388.88	6.85
389.088	6.8
389.296	6.37
389.504	6.56
389.712	6.65
389.92	6.84
390.128	6.69
390.336	6.25
390.544	6.56
390.751	6.53
390.959	5.79
391.167	5.92
391.375	6.29
391.583	6.39
391.79	6.36
391.998	5.92
392.206	5.74
392.414	6
392.621	6.15
392.829	5.77
393.037	5.94
393.244	6.53
393.452	6.16
393.66	5.64
393.867	5.55
394.075	5.83
394.283	5.73
394.49	5.65
394.698	5.71
394.905	5.72
395.113	5.86
395.32	5.85
395.528	5.75
395.735	5.97
395.943	6.38
396.15	6.8
396.358	6.57
396.565	6.61
396.773	6.88
396.98	6.64
397.188	6.85
397.395	6.29
397.602	6.4
397.81	6.33
398.017	5.97
398.225	5.96
398.432	5.59
398.639	5.87
398.847	6.03
399.054	5.93
399.261	6.03
399.468	5.93
399.676	6.29
399.883	6.06
400.09	6.13
400.297	6.46
400.505	6.46
400.712	6.38
400.919	6.09
401.126	5.57
401.333	5.53
401.54	5.22
401.748	4.98
401.955	4.94
402.162	5.17
402.369	5.34
402.576	5.05
402.783	4.89
402.99	4.91
403.197	4.8
403.404	5.06
403.611	4.94
403.818	5.15
404.025	5.21
404.232	5.36
404.439	5.24
404.646	4.91
404.853	5.08
405.06	5.08
405.267	5.03
405.474	5.05
405.681	4.9
405.887	4.94
406.094	4.6
406.301	4.64
406.508	4.62
406.715	4.69
406.922	4.89
407.128	4.91
407.335	4.84
407.542	5.03
407.749	5.21
407.955	5.43
408.162	5.34
408.369	5.71
408.575	5.56
408.782	5.45
408.989	5
409.195	4.7
409.402	4.63
409.609	4.64
409.815	4.47
410.022	4.4
410.228	4.16
410.435	4.29
410.642	4.05
410.848	3.89
411.055	4.16
411.261	4.43
411.468	4.6
411.674	4.36
411.881	4.8
412.087	4.84
412.294	4.88
412.5	5
412.706	5.01
412.913	5.24
413.119	5.27
413.326	4.64
413.532	4.62
413.738	4.77
413.945	5.34
414.151	4.95
414.357	4.99
414.564	4.88
414.77	5.03
414.976	4.76
415.182	4.61
415.389	4.57
415.595	4.84
415.801	4.73
416.007	4.53
416.214	4.3
416.42	4.12
416.626	3.92
416.832	4.08
417.038	3.96
417.244	4.03
417.45	3.92
417.657	3.97
417.863	3.94
418.069	3.92
418.275	3.96
418.481	3.8
418.687	3.89
418.893	4.05
419.099	4.02
419.305	3.98
419.511	3.97
419.717	4.11
419.923	4.07
420.129	4.05
420.335	4.11
420.541	3.98
420.746	3.91
420.952	3.86
421.158	3.81
421.364	3.7
421.57	3.65
421.776	3.6
421.982	3.49
422.187	3.6
422.393	3.66
422.599	3.45
422.805	3.37
423.01	3.54
423.216	3.73
423.422	3.69
423.628	3.56
423.833	3.5
424.039	3.54
424.245	3.59
424.45	3.5
424.656	3.5
424.862	3.48
425.067	3.79
425.273	3.51
425.478	3.28
425.684	3.11
425.889	3.25
426.095	3.28
426.301	3.12
426.506	3.07
426.712	3.18
426.917	3.09
427.123	3.34
427.328	3.17
427.533	3.5
427.739	3.38
427.944	3.45
428.15	3.39
428.355	3.43
428.561	3.63
428.766	3.59
428.971	3.6
429.177	3.66
429.382	3.88
429.587	4.03
429.793	4.02
429.998	4.29
430.203	4.31
430.408	4.24
430.614	4.37
430.819	4.3
431.024	4.23
431.229	4.13
431.434	3.83
431.64	3.54
431.845	3.27
432.05	3.27
432.255	3.05
432.46	3.17
432.665	3.09
432.87	3.12
433.076	3.22
433.281	3.3
433.486	3.23
433.691	3.32
433.896	3.34
434.101	3.47
434.306	3.42
434.511	3.52
434.716	3.59
434.921	3.79
435.126	3.72
435.331	3.6
435.535	3.65
435.74	3.68
435.945	3.6
436.15	3.49
436.355	3.08
436.56	3.11
436.765	3.1
436.97	3.17
437.174	3.18
437.379	3.04
437.584	2.94
437.789	3.03
437.993	3.08
438.198	3.22
438.403	3.17
438.608	3.42
438.812	3.21
439.017	3.28
439.222	3.16
439.426	3.18
439.631	3.17
439.836	3.43
440.04	3.25
440.245	3.27
440.45	3.44
440.654	3.51
440.859	3.42
441.063	3.47
441.268	3.52
441.472	3.54
441.677	3.54
441.881	3.59
442.086	3.49
442.29	3.5
442.495	3.51
442.699	3.43
442.904	3.49
443.108	3.57
443.312	3.72
443.517	3.57
443.721	3.48
443.925	3.3
444.13	3.47
444.334	3.46
444.538	3.57
444.743	3.51
444.947	3.43
445.151	3.4
445.356	3.45
445.56	3.42
445.764	3.45
445.968	3.37
446.173	3.43
446.377	3.31
446.581	3.37
446.785	3.31
446.989	3.3
447.193	3.26
447.398	3.28
447.602	3.25
447.806	3.26
448.01	3.31
448.214	3.33
448.418	3.37
448.622	3.45
448.826	3.25
449.03	3.23
449.234	3.15
449.438	3.13
449.642	3.14
449.846	3.38
450.05	3.39
450.254	3.39
450.458	3.22
450.662	3.14
450.866	2.98
451.069	3.17
451.273	3.16
451.477	3.33
451.681	3.4
451.885	3.33
452.089	2.97
452.292	2.95
452.496	2.89
452.7	3.23
452.904	3.27
453.107	3.36
453.311	3.45
453.515	3.51
453.719	3.58
453.922	3.53
454.126	3.57
454.33	3.64
454.533	3.76
454.737	3.68
454.94	3.54
455.144	3.59
455.348	3.62
455.551	3.66
455.755	3.84
455.958	3.79
456.162	3.78
456.365	3.7
456.569	3.64
456.772	3.65
456.976	3.72
457.179	3.57
457.383	3.36
457.586	3.23
457.79	2.89
457.993	2.71
458.196	2.59
458.4	2.59
458.603	2.76
458.807	2.73
459.01	2.61
459.213	2.53
459.417	2.59
459.62	2.74
459.823	2.88
460.026	3.05
460.23	3.04
460.433	3.08
460.636	3.03
