Data from 2938048_Reflection_2.txt Node
Date: Sun Jul 12 14:20:36 EDT 2015
User: robert
Spectrometer: USB4E03001
Autoset integration time: false
Trigger mode: 4
Integration Time (sec): 1.000000E-1
Scans to average: 10
Electric dark correction enabled: true
Nonlinearity correction enabled: false
Boxcar width: 5
Stray light correction enabled: false
XAxis mode: Wavelengths
Stop averaging: false
Number of Pixels in Spectrum: 3648
>>>>>Begin Spectral Data<<<<<
177.566	-109.68
177.785	-1243.92
178.005	-12.46
178.225	-31.41
178.445	44.58
178.665	264.94
178.885	-81.48
179.105	400
179.324	-6.64
179.544	25.84
179.764	33.58
179.984	23.45
180.204	20.77
180.423	84.79
180.643	110.66
180.863	127.44
181.083	127.26
181.302	87.87
181.522	106.3
181.742	177.19
181.961	160.08
182.181	126.9
182.401	164.14
182.621	239.15
182.84	216.74
183.06	123.27
183.279	177.26
183.499	208.54
183.719	-102.77
183.938	-446.03
184.158	-44.09
184.377	579.06
184.597	223.15
184.816	248.26
185.036	-905.86
185.256	-202.85
185.475	-125.07
185.695	-88.22
185.914	-56.84
186.134	-55.75
186.353	-55.03
186.572	-51.48
186.792	198.59
187.011	205.09
187.231	183.24
187.45	269.75
187.67	381.69
187.889	1696.68
188.108	1152.01
188.328	440.28
188.547	183.67
188.766	152.05
188.986	187.69
189.205	164.53
189.424	172.6
189.644	165.37
189.863	112.37
190.082	78.93
190.302	95.89
190.521	48.39
190.74	74.06
190.959	35.76
191.178	6.67
191.398	-185.8
191.617	-93.97
191.836	-23.72
192.055	-15.93
192.274	6.36
192.494	31.39
192.713	5.92
192.932	9.2
193.151	31.81
193.37	38.16
193.589	26.9
193.808	11.78
194.027	-54.58
194.246	-70.05
194.465	-60.79
194.685	-106.9
194.904	-86.06
195.123	-34.35
195.342	-965.99
195.561	-49.53
195.78	50.35
195.999	96.17
196.218	132
196.436	150.51
196.655	142.03
196.874	97.35
197.093	79.5
197.312	47.6
197.531	35.01
197.75	53.17
197.969	35.23
198.188	37.49
198.407	24.74
198.625	14.52
198.844	20.13
199.063	-31.76
199.282	-348.48
199.501	-1129.05
199.719	211.05
199.938	-796
200.157	920
200.376	-68.23
200.594	-472.11
200.813	-467.23
201.032	273
201.251	212.04
201.469	266.76
201.688	-1516.06
201.907	-196.79
202.125	-100.13
202.344	-118.9
202.563	31.68
202.781	47.88
203	37
203.218	35.88
203.437	50.14
203.656	48.02
203.874	47.73
204.093	43.76
204.311	50.16
204.53	61.22
204.748	66.16
204.967	41.41
205.185	0.71
205.404	13.65
205.622	14.78
205.841	12.77
206.059	55.73
206.278	42.78
206.496	51.33
206.715	55.78
206.933	79.1
207.151	66.08
207.37	64.77
207.588	356.67
207.806	880.21
208.025	280.63
208.243	477.76
208.461	-84.46
208.68	-178.77
208.898	-368.64
209.116	-124.58
209.335	87.84
209.553	80.83
209.771	73.65
209.989	-232.43
210.208	172.35
210.426	128.77
210.644	163.45
210.862	1379.45
211.081	-885.79
211.299	-169.72
211.517	-38.67
211.735	9.84
211.953	0.76
212.171	35.73
212.39	12.55
212.608	59.27
212.826	67.07
213.044	57.42
213.262	46.56
213.48	39.29
213.698	37.11
213.916	45.07
214.134	60.61
214.352	74.44
214.57	67.87
214.788	87.7
215.006	37.01
215.224	64.43
215.442	83.06
215.66	76.09
215.878	119.03
216.096	219.89
216.314	120.51
216.532	56.98
216.75	48.95
216.968	51.36
217.185	23.79
217.403	29.12
217.621	6.01
217.839	14.5
218.057	55.58
218.275	37.68
218.492	25.98
218.71	48.36
218.928	60.06
219.146	69.2
219.363	57.11
219.581	62.53
219.799	76.57
220.017	65.49
220.234	75.77
220.452	61.14
220.67	91.97
220.887	118.78
221.105	126.76
221.323	122.72
221.54	97.69
221.758	67.37
221.976	60.56
222.193	38.98
222.411	36.77
222.629	33.08
222.846	39.17
223.064	29.02
223.281	9.73
223.499	4.35
223.716	-18.23
223.934	-29.53
224.151	-35.87
224.369	-6.44
224.586	30.7
224.804	12.57
225.021	30.61
225.239	-1.6
225.456	-24.28
225.674	13.17
225.891	1.63
226.108	3.85
226.326	7.56
226.543	13.17
226.76	-4.65
226.978	-4.02
227.195	4.3
227.413	-7.77
227.63	8.24
227.847	8.61
228.064	9.64
228.282	14.14
228.499	18.49
228.716	18.74
228.934	19.97
229.151	22.11
229.368	20.59
229.585	16.93
229.802	18.85
230.02	15.9
230.237	19.27
230.454	22.04
230.671	21.43
230.888	18.48
231.105	18.8
231.323	15.59
231.54	16.43
231.757	19.42
231.974	28.55
232.191	30.6
232.408	30.02
232.625	31.38
232.842	30.46
233.059	21.76
233.276	26.28
233.493	26.86
233.71	30.63
233.927	33.49
234.144	28.46
234.361	31.09
234.578	31.45
234.795	36.15
235.012	30.99
235.229	30.16
235.446	37.46
235.663	37.33
235.879	40.96
236.096	42.11
236.313	30.46
236.53	32.95
236.747	26.33
236.964	24.85
237.181	24.65
237.397	25.99
237.614	17.84
237.831	11.65
238.048	16.27
238.264	14.52
238.481	13.77
238.698	23.38
238.915	15.7
239.131	20.33
239.348	20.16
239.565	17.54
239.781	16.72
239.998	22.05
240.215	26.51
240.431	21.71
240.648	22.95
240.865	22.9
241.081	21.47
241.298	24.51
241.514	23.15
241.731	22.07
241.947	21.3
242.164	22.35
242.38	21.54
242.597	20.88
242.814	24.76
243.03	22.61
243.246	24.13
243.463	23.68
243.679	21.99
243.896	20.04
244.112	19.83
244.329	18.05
244.545	17.37
244.762	16.94
244.978	14.45
245.194	7.91
245.411	13.64
245.627	13.46
245.843	13.88
246.06	17.77
246.276	18.72
246.492	19.09
246.709	21.18
246.925	19.6
247.141	20.4
247.357	21.21
247.574	21.77
247.79	20.96
248.006	19.81
248.222	20.24
248.439	18.73
248.655	19.16
248.871	19.24
249.087	17.22
249.303	18.95
249.519	18.78
249.736	19.83
249.952	20.44
250.168	20.7
250.384	18.3
250.6	18.24
250.816	18.5
251.032	19.47
251.248	19.69
251.464	21.26
251.68	18.77
251.896	18.03
252.112	15.85
252.328	15.62
252.544	13.94
252.76	17.25
252.976	18.06
253.192	14.97
253.408	14.52
253.624	13.7
253.84	12.63
254.056	13.15
254.272	14.77
254.487	17.75
254.703	17.41
254.919	18.13
255.135	15.46
255.351	12.28
255.567	19.13
255.782	18.43
255.998	20.75
256.214	21.81
256.43	21.99
256.646	20.54
256.861	17.19
257.077	13.76
257.293	12.95
257.508	12.84
257.724	11.64
257.94	10.92
258.155	9.24
258.371	7.08
258.587	7.68
258.802	8.54
259.018	8.3
259.234	9.9
259.449	10.76
259.665	12.38
259.88	12.78
260.096	13.75
260.312	13.82
260.527	14.08
260.743	15.06
260.958	14.78
261.174	14.27
261.389	13.57
261.605	12.74
261.82	13.37
262.036	10.77
262.251	10.35
262.466	7.92
262.682	8.5
262.897	7.95
263.113	6.93
263.328	7.48
263.543	8.24
263.759	11.49
263.974	11.46
264.189	11.04
264.405	13.57
264.62	13.69
264.835	15.63
265.051	13.39
265.266	14.99
265.481	12.48
265.696	12.5
265.912	13.61
266.127	12.47
266.342	10.02
266.557	11.56
266.773	11.64
266.988	9.7
267.203	10.94
267.418	11.77
267.633	10.28
267.848	11.83
268.064	12.44
268.279	11
268.494	9.93
268.709	12.6
268.924	11.05
269.139	11.72
269.354	14.08
269.569	9.89
269.784	9.46
269.999	11.53
270.214	11.1
270.429	9.26
270.644	10.21
270.859	11.93
271.074	11.74
271.289	10.9
271.504	9.02
271.719	7.64
271.934	9.64
272.149	9.18
272.363	10.35
272.578	10.06
272.793	11.14
273.008	10.22
273.223	9.79
273.438	10.06
273.653	12
273.867	12.41
274.082	14.04
274.297	14.67
274.512	16.06
274.726	13.87
274.941	15.34
275.156	14.9
275.371	16.88
275.585	16.06
275.8	15.25
276.015	13.74
276.229	15.63
276.444	15.12
276.659	14.99
276.873	14.84
277.088	15.65
277.302	16.09
277.517	15.54
277.732	14.67
277.946	16.29
278.161	16.57
278.375	15.4
278.59	13.68
278.804	12.9
279.019	12.84
279.233	10.35
279.448	8.97
279.662	6.24
279.877	7.46
280.091	6.92
280.306	5.56
280.52	5.94
280.735	9.66
280.949	8.9
281.163	11.37
281.378	10.83
281.592	12.76
281.806	12.51
282.021	14.21
282.235	13.97
282.449	15.66
282.664	15.95
282.878	16.77
283.092	15.64
283.307	17.43
283.521	16.76
283.735	17.44
283.949	17.01
284.164	17.07
284.378	15.41
284.592	15.72
284.806	14.63
285.02	13.93
285.234	12.91
285.449	12.6
285.663	12.91
285.877	12.74
286.091	13.59
286.305	14.4
286.519	14.42
286.733	16.1
286.947	15.43
287.161	14.68
287.375	15.51
287.589	16.54
287.803	16.92
288.017	16.6
288.231	16.24
288.445	15.02
288.659	14.11
288.873	13.46
289.087	12.98
289.301	14.54
289.515	15.38
289.729	15.53
289.943	12.17
290.157	12.06
290.371	10.71
290.584	12.23
290.798	12.71
291.012	15.05
291.226	16.16
291.44	15.25
291.654	14.56
291.867	15.03
292.081	15.42
292.295	16.86
292.509	16.22
292.722	18.45
292.936	17.52
293.15	17.29
293.364	15.22
293.577	16.08
293.791	17.03
294.005	17.91
294.218	18.06
294.432	17.32
294.645	17.81
294.859	18.82
295.073	18.71
295.286	19.01
295.5	18.19
295.713	18.53
295.927	18.49
296.14	18.91
296.354	19.6
296.568	18.95
296.781	18.17
296.994	17.89
297.208	17.05
297.421	16.34
297.635	16.41
297.848	16.46
298.062	16.8
298.275	16.08
298.489	15.45
298.702	15.3
298.915	15.2
299.129	15.56
299.342	17.56
299.555	19.01
299.769	20.64
299.982	19.65
300.195	21.19
300.409	19.73
300.622	21.01
300.835	22.03
301.048	21.84
301.262	22.84
301.475	23.84
301.688	23.36
301.901	23.73
302.115	22.9
302.328	22.08
302.541	22.14
302.754	23.08
302.967	22.51
303.18	21.08
303.393	19.75
303.607	19.56
303.82	19.06
304.033	16.73
304.246	15.29
304.459	14.28
304.672	17.01
304.885	15.3
305.098	15.06
305.311	12.89
305.524	12.44
305.737	11.87
305.95	11.79
306.163	13.88
306.376	15.76
306.589	16.4
306.802	16.5
307.015	16.24
307.228	16.37
307.44	15.48
307.653	16.6
307.866	17.26
308.079	16.95
308.292	16.11
308.505	15
308.718	16.22
308.93	15.07
309.143	15.61
309.356	13.81
309.569	16.54
309.781	17.72
309.994	18.98
310.207	19.36
310.42	18.59
310.632	18.99
310.845	18.75
311.058	18.39
311.27	19.42
311.483	19.76
311.696	19.73
311.908	17.91
312.121	16.88
312.333	15.85
312.546	15.59
312.759	16.35
312.971	17.06
313.184	16.44
313.396	16.64
313.609	15.42
313.821	13.42
314.034	14.08
314.246	14.8
314.459	15
314.671	14.51
314.884	14.19
315.096	14.16
315.309	13.57
315.521	13.17
315.733	12.91
315.946	10.95
316.158	12.75
316.371	13.04
316.583	11.33
316.795	9.48
317.008	9.45
317.22	9.59
317.432	11.11
317.644	10.49
317.857	10.41
318.069	8
318.281	11.54
318.494	10.88
318.706	10.89
318.918	11.33
319.13	12.07
319.342	13.13
319.555	12.64
319.767	11.85
319.979	12.42
320.191	14.07
320.403	14.71
320.615	13.91
320.827	13.77
321.039	14.64
321.252	15.49
321.464	17.3
321.676	16.88
321.888	19.14
322.1	18.85
322.312	19.94
322.524	19.48
322.736	21.14
322.948	21.6
323.16	21.93
323.372	20.16
323.584	21.5
323.796	20.47
324.007	20.05
324.219	19.33
324.431	20.65
324.643	18.62
324.855	19.22
325.067	18.5
325.279	18.29
325.491	18.68
325.702	19.6
325.914	18.16
326.126	17.03
326.338	16.46
326.55	15.31
326.761	13.98
326.973	14.77
327.185	12.9
327.396	11.72
327.608	11.29
327.82	10.56
328.032	9.84
328.243	8.95
328.455	10.43
328.666	11.57
328.878	13.29
329.09	13.37
329.301	12.5
329.513	14.02
329.725	13.97
329.936	14.68
330.148	14.85
330.359	15.46
330.571	15.27
330.782	14.91
330.994	13.96
331.205	15.35
331.417	12.9
331.628	13.25
331.84	12.57
332.051	14.75
332.262	14.19
332.474	16.07
332.685	16.47
332.897	17.45
333.108	17.46
333.319	18.61
333.531	17.19
333.742	19.95
333.953	20.75
334.165	20.31
334.376	21
334.587	21.36
334.799	21.15
335.01	20.71
335.221	20.78
335.432	21.69
335.644	21.53
335.855	21.36
336.066	21.09
336.277	19.9
336.488	20.41
336.7	19.47
336.911	17.25
337.122	16.81
337.333	15.59
337.544	15.4
337.755	14.24
337.966	14.01
338.177	13.52
338.388	13.3
338.599	13.81
338.811	14.46
339.022	14.72
339.233	17.07
339.444	15.86
339.655	16.47
339.866	16.7
340.076	17.81
340.287	18.33
340.498	18.87
340.709	18.31
340.92	19.9
341.131	20.27
341.342	20.43
341.553	19.03
341.764	19.2
341.975	21.62
342.185	20.93
342.396	20.8
342.607	20.89
342.818	21.35
343.029	21.29
343.239	19.64
343.45	18.87
343.661	18.88
343.872	20.87
344.082	20.98
344.293	17.87
344.504	19.33
344.714	18.61
344.925	18.66
345.136	18.09
345.346	19.18
345.557	20.22
345.768	19.92
345.978	19.55
346.189	18.7
346.399	18.15
346.61	19.11
346.821	17.21
347.031	17.38
347.242	16.43
347.452	16.88
347.663	16.1
347.873	15.02
348.084	14.44
348.294	14.05
348.504	13.84
348.715	14.79
348.925	15.38
349.136	16.29
349.346	17.02
349.557	17.41
349.767	16.88
349.977	17.36
350.188	17.96
350.398	19.25
350.608	18.95
350.819	19.97
351.029	19.37
351.239	18.56
351.449	19.2
351.66	17.93
351.87	16.34
352.08	15.69
352.29	15.37
352.501	15.2
352.711	14.71
352.921	14.73
353.131	14.36
353.341	14.36
353.552	14.98
353.762	14.22
353.972	14.67
354.182	15.36
354.392	16.28
354.602	15.83
354.812	16.01
355.022	15.02
355.232	15.74
355.442	16.55
355.652	16.69
355.862	17
356.072	17.46
356.282	18.34
356.492	19.31
356.702	18.71
356.912	18.14
357.122	18.48
357.332	19.42
357.542	20.23
357.752	19.77
357.962	19.82
358.171	19.38
358.381	20.38
358.591	19.4
358.801	19.52
359.011	20.91
359.221	21.33
359.43	21.14
359.64	21.24
359.85	20.3
360.06	20.54
360.269	20.2
360.479	20.65
360.689	19.34
360.899	19.61
361.108	19.28
361.318	18.81
361.528	19.16
361.737	18.45
361.947	17.62
362.156	17.76
362.366	16.61
362.576	16.45
362.785	16.32
362.995	16.61
363.204	17.12
363.414	17.16
363.623	16.34
363.833	15.34
364.042	15.89
364.252	16.32
364.461	15.47
364.671	16.03
364.88	16.01
365.09	15.07
365.299	15.2
365.509	14.15
365.718	14.02
365.927	14.18
366.137	14.46
366.346	13.82
366.555	13.88
366.765	14.2
366.974	14.19
367.183	13.68
367.393	13.74
367.602	13.6
367.811	13.01
368.021	12.8
368.23	12.59
368.439	12.87
368.648	13.25
368.857	13.32
369.067	13.42
369.276	12.3
369.485	13.19
369.694	12.85
369.903	12.42
370.112	13.65
370.321	13.45
370.531	13.22
370.74	13.06
370.949	12.45
371.158	11.53
371.367	11.19
371.576	11.51
371.785	11.31
371.994	12.02
372.203	12.34
372.412	11.94
372.621	12.27
372.83	12.37
373.039	12.78
373.248	12.33
373.457	12.76
373.666	13.18
373.874	13.68
374.083	13.34
374.292	13.09
374.501	13.1
374.71	12.45
374.919	12.53
375.128	12.79
375.336	12.89
375.545	13.79
375.754	13.69
375.963	13.87
376.171	13.53
376.38	14.37
376.589	14.24
376.798	13.48
377.006	13.79
377.215	13.49
377.424	13.44
377.632	13.08
377.841	12.92
378.05	12.73
378.258	11.88
378.467	11.97
378.675	12.08
378.884	12.31
379.093	13
379.301	13.47
379.51	13.06
379.718	12.69
379.927	12.38
380.135	12.71
380.344	13.24
380.552	13.53
380.761	13.23
380.969	12.36
381.177	12.06
381.386	12.13
381.594	11.41
381.803	11.5
382.011	11.57
382.219	11.79
382.428	11.4
382.636	10.91
382.845	11.14
383.053	11.28
383.261	11.21
383.469	11.62
383.678	11.33
383.886	11.75
384.094	12.1
384.302	12.2
384.511	12.09
384.719	12.01
384.927	12.3
385.135	12.21
385.343	12.31
385.552	12.68
385.76	11.98
385.968	12.04
386.176	12.05
386.384	11.83
386.592	11.56
386.8	11.59
387.008	11.47
387.216	10.78
387.424	10.6
387.633	10.3
387.841	9.66
388.049	9.86
388.257	9.57
388.465	8.95
388.672	8.52
388.88	8.39
389.088	8.2
389.296	7.71
389.504	7.94
389.712	8.06
389.92	7.75
390.128	8.52
390.336	8.61
390.544	8.6
390.751	8.73
390.959	9.14
391.167	9.24
391.375	9.11
391.583	9.4
391.79	9.17
391.998	9.09
392.206	9.1
392.414	8.62
392.621	8.44
392.829	8.36
393.037	8.53
393.244	8.18
393.452	8.05
393.66	8.22
393.867	7.9
394.075	7.93
394.283	7.98
394.49	8.35
394.698	8.29
394.905	8.33
395.113	8.39
395.32	7.91
395.528	7.77
395.735	7.85
395.943	7.98
396.15	8.62
396.358	8.76
396.565	8.4
396.773	8.2
396.98	8.58
397.188	8.3
397.395	7.74
397.602	7.89
397.81	8.06
398.017	8.38
398.225	8.13
398.432	7.42
398.639	7.47
398.847	7.76
399.054	7.5
399.261	7.05
399.468	7.1
399.676	7.38
399.883	7.51
400.09	7.4
400.297	6.95
400.505	6.67
400.712	7
400.919	6.75
401.126	6.83
401.333	7.01
401.54	7.35
401.748	7.43
401.955	7.58
402.162	7.41
402.369	7.52
402.576	7.56
402.783	7.96
402.99	7.69
403.197	7.73
403.404	7.64
403.611	7.73
403.818	7.53
404.025	7.45
404.232	7.06
404.439	7.23
404.646	7.31
404.853	7.34
405.06	7.08
405.267	7.6
405.474	7.74
405.681	7.4
405.887	7.26
406.094	7.21
406.301	7.27
406.508	7.55
406.715	7.76
406.922	7.31
407.128	7.12
407.335	7.36
407.542	6.84
407.749	6.78
407.955	6.97
408.162	6.92
408.369	7.24
408.575	7.26
408.782	7.27
408.989	7.48
409.195	7.64
409.402	7.52
409.609	7.41
409.815	7.53
410.022	7.5
410.228	7.55
410.435	7.66
410.642	7.09
410.848	7.27
411.055	7.26
411.261	6.94
411.468	7.24
411.674	7.34
411.881	7.49
412.087	7.47
412.294	7.41
412.5	7.51
412.706	7.33
412.913	7.33
413.119	7.17
413.326	6.99
413.532	7.13
413.738	7.1
413.945	7.13
414.151	6.64
414.357	6.75
414.564	6.71
414.77	6.73
414.976	6.79
415.182	6.95
415.389	7.02
415.595	7.22
415.801	6.88
416.007	7.01
416.214	7.23
416.42	7.15
416.626	7.02
416.832	7.23
417.038	7
417.244	6.8
417.45	6.97
417.657	6.58
417.863	6.63
418.069	6.67
418.275	6.5
418.481	6.39
418.687	6.54
418.893	6.51
419.099	6.32
419.305	6.32
419.511	6.46
419.717	6.39
419.923	6.48
420.129	6.26
420.335	6.31
420.541	6.16
420.746	6.06
420.952	6.04
421.158	6.04
421.364	6.05
421.57	6.02
421.776	6.06
421.982	5.89
422.187	6.01
422.393	6.19
422.599	6.14
422.805	6.3
423.01	6.35
423.216	6.36
423.422	6.33
423.628	6.36
423.833	6.33
424.039	6.25
424.245	6.23
424.45	6.16
424.656	6.17
424.862	6.16
425.067	6.06
425.273	6.13
425.478	6.05
425.684	6.26
425.889	6.13
426.095	6.18
426.301	6.25
426.506	6.32
426.712	6.41
426.917	6.21
427.123	6.27
427.328	6.21
427.533	6.12
427.739	6.26
427.944	6.14
428.15	6.31
428.355	6.22
428.561	6.21
428.766	6.13
428.971	6.04
429.177	6.26
429.382	5.98
429.587	6.05
429.793	5.98
429.998	5.92
430.203	6.03
430.408	6.06
430.614	6.14
430.819	5.98
431.024	6.09
431.229	5.91
431.434	5.85
431.64	6.17
431.845	6.15
432.05	6.1
432.255	6.15
432.46	5.92
432.665	6.03
432.87	5.89
433.076	5.98
433.281	5.98
433.486	6.11
433.691	6.06
433.896	5.73
434.101	5.85
434.306	5.95
434.511	6.02
434.716	6.14
434.921	6.13
435.126	6.36
435.331	6.2
435.535	6.23
435.74	6.17
435.945	6.11
436.15	6.07
436.355	6.06
436.56	5.8
436.765	5.75
436.97	5.75
437.174	5.82
437.379	5.74
437.584	5.91
437.789	5.73
437.993	5.78
438.198	5.77
438.403	6
438.608	5.9
438.812	6.11
439.017	6.12
439.222	6.18
439.426	6.14
439.631	6.06
439.836	6.1
440.04	6.24
440.245	6.31
440.45	6.38
440.654	6.27
440.859	6.43
441.063	6.45
441.268	6.49
441.472	6.19
441.677	5.9
441.881	6.07
442.086	6.14
442.29	6.01
442.495	5.9
442.699	6.01
442.904	6.02
443.108	5.86
443.312	5.91
443.517	5.92
443.721	5.99
443.925	6.26
444.13	6.08
444.334	5.92
444.538	6.06
444.743	6.01
444.947	5.91
445.151	5.92
445.356	5.94
445.56	5.89
445.764	5.76
445.968	5.87
446.173	5.87
446.377	5.98
446.581	5.99
446.785	5.94
446.989	5.92
447.193	5.82
447.398	5.88
447.602	5.77
447.806	5.74
448.01	5.75
448.214	5.6
448.418	5.34
448.622	5.33
448.826	5.29
449.03	5.24
449.234	5.24
449.438	5.33
449.642	5.42
449.846	5.47
450.05	5.4
450.254	5.32
450.458	5.49
450.662	5.45
450.866	5.27
451.069	5.3
451.273	5.28
451.477	5.37
451.681	5.28
451.885	5.21
452.089	5.37
452.292	5.23
452.496	5.29
452.7	5.19
452.904	5.48
453.107	5.31
453.311	5.34
453.515	5.36
453.719	5.26
453.922	5.35
454.126	5.21
454.33	5.12
454.533	5.2
454.737	5.24
454.94	5.3
455.144	5.28
455.348	5.46
455.551	5.34
455.755	5.27
455.958	5.19
456.162	5.32
456.365	5.38
456.569	5.33
456.772	5.25
456.976	5.15
457.179	5.12
457.383	4.94
457.586	5.02
457.79	4.95
457.993	5.13
458.196	5.22
458.4	5.19
458.603	5.06
458.807	5.08
459.01	5.27
459.213	5.41
459.417	5.43
459.62	5.59
459.823	5.66
460.026	5.79
460.23	5.8
460.433	5.74
460.636	5.7
460.839	5.9
461.042	5.91
461.246	5.99
461.449	5.81
461.652	5.85
