Data from 2938046_Reflection_2.txt Node
Date: Sun Jul 12 14:25:31 EDT 2015
User: robert
Spectrometer: USB4E03001
Autoset integration time: false
Trigger mode: 4
Integration Time (sec): 1.000000E-1
Scans to average: 10
Electric dark correction enabled: true
Nonlinearity correction enabled: false
Boxcar width: 5
Stray light correction enabled: false
XAxis mode: Wavelengths
Stop averaging: false
Number of Pixels in Spectrum: 3648
>>>>>Begin Spectral Data<<<<<
177.566	-64.67
177.785	-117.8
178.005	-129.07
178.225	-41.45
178.445	-14.31
178.665	9.37
178.885	17.45
179.105	-368.67
179.324	138.74
179.544	126.59
179.764	164.28
179.984	222.35
180.204	270.58
180.423	159.36
180.643	152.74
180.863	107.96
181.083	126.23
181.302	88.79
181.522	88.19
181.742	92.12
181.961	83.64
182.181	85.17
182.401	79.17
182.621	69.31
182.84	78.41
183.06	61.6
183.279	58.04
183.499	48.1
183.719	58.87
183.938	66.12
184.158	94.66
184.377	105.96
184.597	113.7
184.816	109.94
185.036	169.54
185.256	188.7
185.475	145.98
185.695	155.48
185.914	186.32
186.134	177.73
186.353	160.03
186.572	104.7
186.792	98.04
187.011	100.37
187.231	112.13
187.45	101.89
187.67	97.18
187.889	96.92
188.108	98.98
188.328	96.78
188.547	86.81
188.766	82.64
188.986	90.4
189.205	73.02
189.424	95.27
189.644	130.92
189.863	145.26
190.082	124.37
190.302	154.55
190.521	138.18
190.74	159.03
190.959	215.59
191.178	161.14
191.398	220.97
191.617	230.7
191.836	332.2
192.055	269.9
192.274	329.4
192.494	1400.34
192.713	367.72
192.932	265.22
193.151	203.33
193.37	153.56
193.589	201.21
193.808	182.71
194.027	248.36
194.246	182.05
194.465	177.92
194.685	177.88
194.904	174.25
195.123	205.19
195.342	236.38
195.561	274.11
195.78	393.61
195.999	251.57
196.218	185.79
196.436	173.64
196.655	228.86
196.874	170.44
197.093	134.99
197.312	118.02
197.531	116.8
197.75	82.97
197.969	102.39
198.188	104.57
198.407	129.09
198.625	148.21
198.844	131.28
199.063	110.42
199.282	100.35
199.501	94.78
199.719	91.23
199.938	107.08
200.157	156.06
200.376	128.44
200.594	130.31
200.813	114.42
201.032	108.51
201.251	122.99
201.469	131.07
201.688	148.17
201.907	144.09
202.125	141.31
202.344	113.27
202.563	129.58
202.781	140.16
203	112.89
203.218	105.62
203.437	120.44
203.656	114.87
203.874	100.03
204.093	73.62
204.311	63.99
204.53	63.08
204.748	90.05
204.967	62.72
205.185	46.32
205.404	90.1
205.622	88.31
205.841	77.63
206.059	59.29
206.278	82.73
206.496	84.7
206.715	102.85
206.933	115.23
207.151	122.22
207.37	109.07
207.588	125.53
207.806	88.86
208.025	90.86
208.243	93.57
208.461	113.94
208.68	125.81
208.898	167.95
209.116	164.24
209.335	160.59
209.553	112.09
209.771	127.46
209.989	100.75
210.208	138.39
210.426	169.98
210.644	126.68
210.862	105.23
211.081	95.81
211.299	90.21
211.517	84.95
211.735	84.06
211.953	71.15
212.171	68.5
212.39	60.76
212.608	68.61
212.826	61.37
213.044	70.69
213.262	73.68
213.48	76.12
213.698	78.86
213.916	87.02
214.134	86.78
214.352	100.19
214.57	105.94
214.788	120.12
215.006	111.12
215.224	123.22
215.442	154.5
215.66	158.99
215.878	119.84
216.096	102.42
216.314	103.04
216.532	100.5
216.75	86.19
216.968	88.01
217.185	92.94
217.403	82.18
217.621	76.57
217.839	76.79
218.057	72.26
218.275	86.71
218.492	93.29
218.71	73.88
218.928	78.38
219.146	86.89
219.363	88.8
219.581	91.66
219.799	93.16
220.017	86.28
220.234	70.79
220.452	64.46
220.67	54.6
220.887	53.29
221.105	60.79
221.323	63.12
221.54	56.77
221.758	50.2
221.976	40.87
222.193	39.55
222.411	42.26
222.629	45.98
222.846	46.3
223.064	66.28
223.281	41.04
223.499	40.98
223.716	37.94
223.934	34.34
224.151	34.97
224.369	35.86
224.586	52.87
224.804	67.37
225.021	69.6
225.239	71.45
225.456	63.74
225.674	71.29
225.891	59.98
226.108	66.36
226.326	65.66
226.543	59.34
226.76	56.06
226.978	52.69
227.195	45.86
227.413	37.02
227.63	36.2
227.847	30.08
228.064	25.52
228.282	25.34
228.499	19.43
228.716	19.28
228.934	21.28
229.151	20.41
229.368	19.14
229.585	19.16
229.802	23.82
230.02	20.91
230.237	22.73
230.454	23.2
230.671	22.41
230.888	26.11
231.105	26.65
231.323	24.09
231.54	26.16
231.757	24.26
231.974	25.83
232.191	21.39
232.408	19.53
232.625	20.07
232.842	23.94
233.059	33.47
233.276	31.07
233.493	29.35
233.71	30.22
233.927	32.98
234.144	36.66
234.361	32.29
234.578	34.17
234.795	34.62
235.012	31.86
235.229	26.25
235.446	22.28
235.663	22.09
235.879	23.35
236.096	25.45
236.313	27.49
236.53	19.98
236.747	26.51
236.964	24.37
237.181	25.12
237.397	26.73
237.614	30.5
237.831	28.87
238.048	28.57
238.264	32.39
238.481	34.01
238.698	27.75
238.915	31.14
239.131	24.42
239.348	29.74
239.565	32.97
239.781	32.26
239.998	32.81
240.215	34.32
240.431	36.73
240.648	32.26
240.865	30.92
241.081	31.16
241.298	28.66
241.514	29.25
241.731	25.53
241.947	22.89
242.164	22.3
242.38	20.05
242.597	18.63
242.814	16.69
243.03	17.82
243.246	15.54
243.463	13.93
243.679	14.45
243.896	14.5
244.112	14.83
244.329	16.76
244.545	17.79
244.762	21.64
244.978	19.44
245.194	20.12
245.411	18.26
245.627	19.74
245.843	20.9
246.06	19.35
246.276	16.81
246.492	15.49
246.709	15.37
246.925	15.02
247.141	13.61
247.357	13.41
247.574	13.27
247.79	13.81
248.006	14.34
248.222	13.23
248.439	14.69
248.655	16.46
248.871	16.38
249.087	16.24
249.303	16.61
249.519	17.58
249.736	19.65
249.952	19.33
250.168	20.72
250.384	20.48
250.6	19.62
250.816	17.81
251.032	15.21
251.248	15.63
251.464	17.03
251.68	15.18
251.896	15.91
252.112	13.77
252.328	14.31
252.544	11.87
252.76	9.58
252.976	11.67
253.192	12.28
253.408	12.15
253.624	14.29
253.84	10.84
254.056	14.02
254.272	12.54
254.487	17.17
254.703	15.97
254.919	18.1
255.135	17.43
255.351	17.51
255.567	18.52
255.782	22.3
255.998	20.23
256.214	19.1
256.43	18.6
256.646	17.63
256.861	13.76
257.077	15.66
257.293	15.18
257.508	17.07
257.724	17.64
257.94	15.98
258.155	14.46
258.371	16.74
258.587	18.08
258.802	16.36
259.018	15.49
259.234	15.27
259.449	14.45
259.665	14.18
259.88	14.67
260.096	14.39
260.312	14.27
260.527	13.92
260.743	12.81
260.958	12.15
261.174	11.82
261.389	12.32
261.605	13.47
261.82	14.79
262.036	15
262.251	15.22
262.466	15.11
262.682	15.41
262.897	15.33
263.113	15.52
263.328	15.78
263.543	15.67
263.759	17.06
263.974	14.75
264.189	13.12
264.405	11.96
264.62	10.46
264.835	11.74
265.051	10.94
265.266	12.68
265.481	15.68
265.696	17.12
265.912	18.65
266.127	17.88
266.342	17.38
266.557	17.29
266.773	17.71
266.988	17.4
267.203	15.45
267.418	14.99
267.633	14.79
267.848	14.06
268.064	13.29
268.279	12.88
268.494	11.39
268.709	12.77
268.924	14.05
269.139	14.16
269.354	15.04
269.569	16.03
269.784	15.74
269.999	14.4
270.214	12.34
270.429	14.23
270.644	14.99
270.859	17.16
271.074	15.42
271.289	15.16
271.504	15.7
271.719	16.22
271.934	15.5
272.149	16.56
272.363	17.54
272.578	17.61
272.793	17.79
273.008	17.65
273.223	16.94
273.438	18.29
273.653	17.33
273.867	17.46
274.082	16.44
274.297	17.51
274.512	17.18
274.726	17.28
274.941	16.51
275.156	15.22
275.371	14.46
275.585	15.25
275.8	14.86
276.015	15.17
276.229	14.72
276.444	16.32
276.659	16.62
276.873	16.75
277.088	16.68
277.302	17.65
277.517	16.46
277.732	16.56
277.946	13.25
278.161	11.98
278.375	11.77
278.59	13.75
278.804	13.1
279.019	12.71
279.233	12.94
279.448	10.39
279.662	11.44
279.877	12.28
280.091	14.09
280.306	17.23
280.52	15.88
280.735	15.65
280.949	14.67
281.163	13.51
281.378	12.23
281.592	13.31
281.806	14.03
282.021	12.88
282.235	13.21
282.449	13.81
282.664	13.68
282.878	15.83
283.092	16.15
283.307	16.47
283.521	17.13
283.735	17.41
283.949	15.49
284.164	15.88
284.378	15.93
284.592	16.35
284.806	13.83
285.02	12.9
285.234	11.85
285.449	12.51
285.663	12.69
285.877	12.73
286.091	14.19
286.305	14.99
286.519	15.97
286.733	16.38
286.947	16.01
287.161	18.53
287.375	18.55
287.589	20.08
287.803	18.84
288.017	18.9
288.231	18.81
288.445	17.87
288.659	17.44
288.873	16.46
289.087	17.61
289.301	17.67
289.515	13.72
289.729	13.67
289.943	13.75
290.157	13.91
290.371	13.76
290.584	13.08
290.798	13.5
291.012	14.21
291.226	13.81
291.44	13.16
291.654	14.15
291.867	16.45
292.081	17.28
292.295	17.98
292.509	19.86
292.722	19.4
292.936	21.42
293.15	21.03
293.364	20.22
293.577	21.55
293.791	20.7
294.005	19.59
294.218	19.47
294.432	18.48
294.645	17.73
294.859	16.75
295.073	16.92
295.286	15.06
295.5	15.81
295.713	15.82
295.927	12.95
296.14	13.2
296.354	14.29
296.568	12.61
296.781	12.12
296.994	12.16
297.208	11.95
297.421	12.2
297.635	12.12
297.848	11.13
298.062	11.39
298.275	12.57
298.489	11.7
298.702	10.31
298.915	11.69
299.129	12.91
299.342	12.71
299.555	13.16
299.769	12.32
299.982	13.15
300.195	14.27
300.409	14.83
300.622	15.98
300.835	18.14
301.048	18.77
301.262	19.83
301.475	20.51
301.688	20.38
301.901	20.67
302.115	19.76
302.328	19.88
302.541	18.34
302.754	17.19
302.967	16.9
303.18	17.45
303.393	17.6
303.607	15.91
303.82	16.04
304.033	16.58
304.246	15.46
304.459	17.2
304.672	18.07
304.885	20.38
305.098	21.45
305.311	21.73
305.524	20.84
305.737	20.82
305.95	20.87
306.163	21.14
306.376	20.07
306.589	21.07
306.802	21.13
307.015	20.22
307.228	17.17
307.44	16.89
307.653	16.24
307.866	15.39
308.079	17.78
308.292	17.35
308.505	16.88
308.718	17.29
308.93	17.57
309.143	16.68
309.356	16.51
309.569	19.11
309.781	18.85
309.994	19.85
310.207	20.21
310.42	17.81
310.632	19.33
310.845	18.32
311.058	17.83
311.27	17.39
311.483	16.1
311.696	14.95
311.908	14.64
312.121	14.84
312.333	14.71
312.546	14.21
312.759	13.59
312.971	13.64
313.184	13.64
313.396	14.39
313.609	14.18
313.821	15.36
314.034	16.01
314.246	14.63
314.459	13.57
314.671	14.55
314.884	13.86
315.096	15.09
315.309	14.44
315.521	15.32
315.733	15.95
315.946	17.83
316.158	18.06
316.371	19.16
316.583	18.71
316.795	20.79
317.008	20.67
317.22	20.9
317.432	19.43
317.644	19.1
317.857	18.88
318.069	16.73
318.281	15.03
318.494	17.33
318.706	18.4
318.918	18.45
319.13	17.4
319.342	15.87
319.555	16.44
319.767	16.9
319.979	16.4
320.191	15.92
320.403	17.18
320.615	16.89
320.827	15.29
321.039	15.55
321.252	17.37
321.464	17.31
321.676	18.31
321.888	18.72
322.1	18.63
322.312	18.73
322.524	19.81
322.736	20.63
322.948	19.9
323.16	19.56
323.372	17.04
323.584	15.65
323.796	16.72
324.007	15.99
324.219	15.91
324.431	16.18
324.643	16.66
324.855	15.87
325.067	15.75
325.279	15.52
325.491	15.45
325.702	16.45
325.914	17.48
326.126	15.26
326.338	14.56
326.55	14.58
326.761	14.33
326.973	15.02
327.185	15.89
327.396	14.46
327.608	15.12
327.82	15.16
328.032	14.99
328.243	14.88
328.455	16.21
328.666	16.49
328.878	16.27
329.09	17.08
329.301	14.87
329.513	14.14
329.725	13.8
329.936	14.98
330.148	14.91
330.359	15.29
330.571	15.64
330.782	14.24
330.994	14.95
331.205	14.7
331.417	15.35
331.628	16.72
331.84	16.8
332.051	18.97
332.262	16.79
332.474	17.17
332.685	15.93
332.897	15.51
333.108	17.35
333.319	16.46
333.531	16.33
333.742	15.7
333.953	15.84
334.165	16.2
334.376	15.18
334.587	16.11
334.799	15.6
335.01	16.14
335.221	16.04
335.432	15.62
335.644	16.68
335.855	17.18
336.066	18.46
336.277	18.35
336.488	17.27
336.7	18.09
336.911	17.94
337.122	18.64
337.333	20.23
337.544	20.31
337.755	20.01
337.966	19.2
338.177	19.99
338.388	18.42
338.599	18.17
338.811	18.23
339.022	17.11
339.233	17.56
339.444	17.71
339.655	15.06
339.866	15.36
340.076	16.19
340.287	17.1
340.498	17.18
340.709	16.8
340.92	17.15
341.131	18.01
341.342	17.97
341.553	18.41
341.764	17.93
341.975	19.44
342.185	18.41
342.396	17.91
342.607	17.65
342.818	16.29
343.029	16.8
343.239	16.51
343.45	15.98
343.661	16.53
343.872	15.76
344.082	15.25
344.293	13.26
344.504	13.77
344.714	12.9
344.925	13.28
345.136	13.46
345.346	13.05
345.557	12.36
345.768	11.17
345.978	10.88
346.189	11.13
346.399	11.67
346.61	13.19
346.821	13.65
347.031	14.21
347.242	13.83
347.452	13.93
347.663	14.52
347.873	16.2
348.084	17.92
348.294	18.7
348.504	18.7
348.715	17.73
348.925	18.07
349.136	17.76
349.346	16.7
349.557	16.2
349.767	17.08
349.977	17.58
350.188	16.1
350.398	15.41
350.608	14.73
350.819	14.48
351.029	14.88
351.239	14.91
351.449	16.54
351.66	16.91
351.87	17.13
352.08	15.44
352.29	16.2
352.501	16.41
352.711	16.25
352.921	15.73
353.131	15.26
353.341	14.54
353.552	13.88
353.762	13.01
353.972	13
354.182	12.85
354.392	13.57
354.602	12.21
354.812	11.86
355.022	13.49
355.232	13.06
355.442	13.04
355.652	14.17
355.862	15.03
356.072	14.17
356.282	15
356.492	14.59
356.702	14.53
356.912	13.8
357.122	13.96
357.332	12.84
357.542	13.54
357.752	14.34
357.962	14.2
358.171	13.08
358.381	13.27
358.591	11.53
358.801	11.75
359.011	11.64
359.221	12.28
359.43	11.93
359.64	12.23
359.85	12.97
360.06	13.24
360.269	13.1
360.479	13.3
360.689	12.42
360.899	13.43
361.108	13
361.318	13.2
361.528	12.19
361.737	12.74
361.947	12.46
362.156	11.9
362.366	11.02
362.576	11.37
362.785	10.93
362.995	11.96
363.204	11.96
363.414	12.72
363.623	12.29
363.833	12.7
364.042	12.69
364.252	12.95
364.461	12.81
364.671	12.66
364.88	12.09
365.09	12.72
365.299	12.27
365.509	12.09
365.718	11.68
365.927	12.1
366.137	13.44
366.346	13.9
366.555	13.24
366.765	14.47
366.974	14.68
367.183	13.84
367.393	14
367.602	13.09
367.811	13.38
368.021	13.8
368.23	13.25
368.439	12.86
368.648	12.39
368.857	12.64
369.067	11.61
369.276	11.58
369.485	12.46
369.694	12.11
369.903	13.41
370.112	13
370.321	12.54
370.531	13.7
370.74	13.51
370.949	13.33
371.158	13.92
371.367	13.11
371.576	13.29
371.785	12.95
371.994	13.87
372.203	13.51
372.412	13.6
372.621	14.11
372.83	13.61
373.039	13.51
373.248	13.55
373.457	12.78
373.666	13.39
373.874	12.79
374.083	12.98
374.292	11.83
374.501	11.7
374.71	11.42
374.919	10.19
375.128	9.87
375.336	9.62
375.545	9.27
375.754	9.27
375.963	8.81
376.171	9.25
376.38	8.78
376.589	9.02
376.798	8.88
377.006	8.91
377.215	9.43
377.424	9.71
377.632	10.12
377.841	10.09
378.05	10.1
378.258	9.84
378.467	10.05
378.675	9.76
378.884	9.72
379.093	9.97
379.301	10.43
379.51	10.33
379.718	9.29
379.927	8.77
380.135	9.2
380.344	9.14
380.552	9.49
380.761	8.76
380.969	9.65
381.177	9.45
381.386	9.2
381.594	8.98
381.803	8.85
382.011	8.94
382.219	9.3
382.428	8.15
382.636	7.83
382.845	7.81
383.053	8.37
383.261	7.85
383.469	7.19
383.678	7.01
383.886	6.87
384.094	6.66
384.302	7.65
384.511	7.68
384.719	8.45
384.927	8.5
385.135	8.41
385.343	8.36
385.552	8.65
385.76	9.22
385.968	9.72
386.176	9.54
386.384	9.98
386.592	9.44
386.8	8.97
387.008	8.72
387.216	8.87
387.424	8.43
387.633	8.1
387.841	7.87
388.049	7.68
388.257	7.1
388.465	6.69
388.672	6.35
388.88	6.34
389.088	6.17
389.296	6.1
389.504	6.08
389.712	6.04
389.92	5.78
390.128	5.51
390.336	5.22
390.544	5.42
390.751	5.8
390.959	5.19
391.167	5.04
391.375	5.67
391.583	5.82
391.79	5.6
391.998	5.79
392.206	6.09
392.414	6.02
392.621	6.14
392.829	5.91
393.037	6.01
393.244	6.8
393.452	6.46
393.66	5.82
393.867	5.5
394.075	5.94
394.283	5.73
394.49	5.66
394.698	5.76
394.905	5.93
395.113	5.9
395.32	5.9
395.528	5.53
395.735	5.84
395.943	6.36
396.15	6.69
396.358	6.31
396.565	6.48
396.773	6.33
396.98	6.77
397.188	6.64
397.395	6.39
397.602	6.4
397.81	6.05
398.017	5.94
398.225	5.6
398.432	5.78
398.639	5.87
398.847	5.84
399.054	5.64
399.261	5.35
399.468	5.37
399.676	5.86
399.883	5.76
400.09	6.01
400.297	5.92
400.505	5.72
400.712	5.32
400.919	5.17
401.126	5.3
401.333	5.89
401.54	5.75
401.748	5.64
401.955	5.58
402.162	5.53
402.369	5.8
402.576	5.64
402.783	5.73
402.99	5.62
403.197	5.39
403.404	5.55
403.611	5.13
403.818	4.96
404.025	5
404.232	4.8
404.439	4.8
404.646	4.57
404.853	5.05
405.06	5.04
405.267	5.13
405.474	5.35
405.681	5.17
405.887	5.32
406.094	5.26
406.301	5.28
406.508	5.28
406.715	5.19
406.922	5.17
407.128	4.9
407.335	4.87
407.542	4.82
407.749	5.15
407.955	4.83
408.162	4.82
408.369	4.86
408.575	4.74
408.782	4.66
408.989	4.71
409.195	4.69
409.402	4.81
409.609	4.75
409.815	4.9
410.022	4.45
410.228	4.53
410.435	4.7
410.642	4.81
410.848	4.86
411.055	4.86
411.261	5.12
411.468	5
411.674	4.91
411.881	5.01
412.087	4.99
412.294	5.15
412.5	5.29
412.706	5.22
412.913	5.53
413.119	5.44
413.326	5.38
413.532	4.95
413.738	5.2
413.945	5.17
414.151	5.41
414.357	5.36
414.564	5.32
414.77	5.4
414.976	5.08
415.182	4.75
415.389	4.89
415.595	5.05
415.801	5.15
416.007	4.89
416.214	4.84
416.42	4.52
416.626	4.43
416.832	4.58
417.038	4.43
417.244	4.47
417.45	4.44
417.657	4.47
417.863	4.34
418.069	4.29
418.275	4.37
418.481	4.4
418.687	4.49
418.893	4.61
419.099	4.52
419.305	4.48
419.511	4.58
419.717	4.51
419.923	4.18
420.129	4.11
420.335	4.14
420.541	4.06
420.746	3.98
420.952	3.92
421.158	3.85
421.364	3.71
421.57	3.74
421.776	3.72
421.982	3.81
422.187	4.01
422.393	4
422.599	3.72
422.805	3.67
423.01	3.85
423.216	4
423.422	3.9
423.628	3.92
423.833	3.81
424.039	3.62
424.245	3.64
424.45	3.69
424.656	3.78
424.862	3.88
425.067	4.07
425.273	3.83
425.478	3.73
425.684	3.65
425.889	3.63
426.095	3.64
426.301	3.83
426.506	3.68
426.712	3.64
426.917	3.5
427.123	3.73
427.328	3.47
427.533	3.53
427.739	3.21
427.944	3.38
428.15	3.4
428.355	3.38
428.561	3.33
428.766	3.34
428.971	3.34
429.177	3.63
429.382	3.8
429.587	4.2
429.793	4.34
429.998	4.46
430.203	4.23
430.408	4.28
430.614	4.4
430.819	4.22
431.024	4.13
431.229	4.17
431.434	4.03
431.64	3.67
431.845	3.46
432.05	3.58
432.255	3.58
432.46	3.79
432.665	3.75
432.87	3.68
433.076	3.8
433.281	3.95
433.486	3.97
433.691	3.83
433.896	3.94
434.101	3.96
434.306	3.8
434.511	3.89
434.716	4
434.921	4
435.126	4.11
435.331	4.03
435.535	3.88
435.74	3.86
435.945	3.82
436.15	3.75
436.355	3.58
436.56	3.54
436.765	3.55
436.97	3.48
437.174	3.56
437.379	3.43
437.584	3.38
437.789	3.55
437.993	3.47
438.198	3.68
438.403	3.65
438.608	3.71
438.812	3.6
439.017	3.56
439.222	3.35
439.426	3.26
439.631	3.28
439.836	3.37
440.04	3.28
440.245	3.33
440.45	3.38
440.654	3.39
440.859	3.33
441.063	3.47
441.268	3.49
441.472	3.58
441.677	3.65
441.881	3.59
442.086	3.57
442.29	3.79
442.495	3.79
442.699	3.75
442.904	3.75
443.108	3.73
443.312	3.69
443.517	3.57
443.721	3.48
443.925	3.41
444.13	3.65
444.334	3.66
444.538	3.4
444.743	3.24
444.947	3.24
445.151	3.23
445.356	3.29
445.56	3.28
445.764	3.33
445.968	3.34
446.173	3.38
446.377	3.22
446.581	3.26
446.785	3.21
446.989	3.2
447.193	3.16
447.398	3.22
447.602	3.22
447.806	3.22
448.01	3.35
448.214	3.34
448.418	3.32
448.622	3.56
448.826	3.44
449.03	3.46
449.234	3.39
449.438	3.24
449.642	3.34
449.846	3.57
450.05	3.62
450.254	3.63
450.458	3.68
450.662	3.72
450.866	3.46
451.069	3.61
451.273	3.7
451.477	3.89
451.681	3.98
451.885	3.81
452.089	3.5
452.292	3.28
452.496	3.03
452.7	3.04
452.904	3.05
453.107	3.04
453.311	3.01
453.515	3.16
453.719	3.09
453.922	3.09
454.126	3.15
454.33	3.22
454.533	3.49
454.737	3.54
454.94	3.55
455.144	3.51
455.348	3.55
455.551	3.51
455.755	3.54
455.958	3.59
456.162	3.66
456.365	3.58
456.569	3.6
456.772	3.5
456.976	3.49
457.179	3.53
457.383	3.4
457.586	3.41
457.79	3.24
457.993	2.92
458.196	2.86
458.4	2.83
458.603	2.85
458.807	2.89
459.01	2.96
459.213	2.92
459.417	2.96
459.62	3.03
459.823	3.16
460.026	3.33
460.23	3.42
460.433	3.47
460.636	3.5
460.839	3.54
461.042	3.59
461.246	3.65
461.449	3.81
461.652	3.81
