Data from LC_158_Reflection_2.txt Node
Date: Mon Nov 16 22:28:41 EST 2015
User: robert
Spectrometer: USB4E03001
Autoset integration time: false
Trigger mode: 4
Integration Time (sec): 1.000000E-1
Scans to average: 15
Electric dark correction enabled: true
Nonlinearity correction enabled: false
Boxcar width: 5
Stray light correction enabled: false
XAxis mode: Wavelengths
Stop averaging: false
Number of Pixels in Spectrum: 3648
>>>>>Begin Spectral Data<<<<<
177.566	4902.41
177.785	382.96
178.005	-4074.79
178.225	253.68
178.445	285.93
178.665	-293.84
178.885	-356.86
179.105	1591.59
179.324	2454.21
179.544	-235.09
179.764	-1471.3
179.984	-512.7
180.204	-432.73
180.423	-474.7
180.643	-562.7
180.863	-375.2
181.083	-310.44
181.302	-423.36
181.522	-263.14
181.742	-225.11
181.961	-402.83
182.181	-312.01
182.401	-421.25
182.621	-1847.96
182.84	-794.41
183.06	-570.41
183.279	-351.69
183.499	-242.88
183.719	-203.11
183.938	-209.19
184.158	-249.68
184.377	-164.23
184.597	-268.61
184.816	-172.06
185.036	-109.91
185.256	-83.59
185.475	-120.67
185.695	-170.41
185.914	-281.18
186.134	-501.01
186.353	-623.09
186.572	-722.8
186.792	-1134.51
187.011	-502.31
187.231	-479.31
187.45	-317.4
187.67	-843.35
187.889	-1974.38
188.108	2983.97
188.328	-783.04
188.547	-309.73
188.766	-601.54
188.986	-759.16
189.205	-500.74
189.424	-278.05
189.644	-821.92
189.863	-967.15
190.082	-594.37
190.302	-1116.65
190.521	-764.39
190.74	801.19
190.959	290.24
191.178	413.24
191.398	393.83
191.617	416.56
191.836	367.5
192.055	882.58
192.274	431.64
192.494	507.42
192.713	520.18
192.932	1263.06
193.151	1139.41
193.37	2166.67
193.589	-1281.35
193.808	-385.69
194.027	-430.73
194.246	-4092.46
194.465	736.24
194.685	1658.1
194.904	713.5
195.123	-1120.58
195.342	-743.62
195.561	-302.58
195.78	-520
195.999	23070.42
196.218	771.53
196.436	764.9
196.655	-2613.47
196.874	-894.9
197.093	-1233.36
197.312	-1190.95
197.531	3086.88
197.75	988.6
197.969	-3411.35
198.188	-681.48
198.407	-179.4
198.625	-257.15
198.844	-205.61
199.063	-206.41
199.282	-428.1
199.501	-302.88
199.719	-217.75
199.938	-133.58
200.157	-124.64
200.376	-142.98
200.594	-233.15
200.813	-449.85
201.032	-312.23
201.251	-299.15
201.469	-296.16
201.688	-220.59
201.907	-385.61
202.125	-546.28
202.344	23941.67
202.563	4046.98
202.781	632.76
203	1775.07
203.218	1438.16
203.437	1255.81
203.656	575.64
203.874	349.88
204.093	348.11
204.311	468.25
204.53	445.11
204.748	605.11
204.967	385.85
205.185	379.09
205.404	424.72
205.622	276.86
205.841	203.95
206.059	240.59
206.278	299.62
206.496	659.26
206.715	373
206.933	315.39
207.151	277.62
207.37	338.93
207.588	363.19
207.806	341.81
208.025	692.5
208.243	-1416.07
208.461	2156.95
208.68	-18903.53
208.898	749.19
209.116	806.96
209.335	764.93
209.553	786.57
209.771	6808.75
209.989	1351.91
210.208	2812.55
210.426	-5412.97
210.644	2853.97
210.862	-2519.65
211.081	1113.86
211.299	-522.33
211.517	1895.83
211.735	-517.63
211.953	-177171.43
212.171	-4080.12
212.39	-11454.05
212.608	-32189.13
212.826	1227.94
213.044	948.23
213.262	719.84
213.48	4275.74
213.698	439.94
213.916	593.24
214.134	408.65
214.352	772
214.57	489.69
214.788	562.87
215.006	435.78
215.224	351.05
215.442	292.57
215.66	260.04
215.878	182.78
216.096	219.26
216.314	208.1
216.532	429.9
216.75	371.18
216.968	336.94
217.185	807.58
217.403	1460.65
217.621	-4281.09
217.839	-1184.55
218.057	-1455.13
218.275	2695.12
218.492	800.74
218.71	1522.62
218.928	432.9
219.146	406.08
219.363	329.06
219.581	263.47
219.799	180.92
220.017	186.99
220.234	160.96
220.452	163.68
220.67	190.68
220.887	197.57
221.105	197.03
221.323	145.21
221.54	130.29
221.758	171.67
221.976	200.02
222.193	206.92
222.411	126.02
222.629	143.8
222.846	143.57
223.064	167.72
223.281	161.48
223.499	147.75
223.716	159.02
223.934	144.73
224.151	127.57
224.369	100.66
224.586	110.39
224.804	127.16
225.021	136.82
225.239	130.15
225.456	117.24
225.674	113.6
225.891	97.03
226.108	108.52
226.326	104.5
226.543	95.04
226.76	100.57
226.978	88.82
227.195	84.39
227.413	70.38
227.63	59.51
227.847	47.77
228.064	43.89
228.282	42.79
228.499	35.42
228.716	31.41
228.934	27.95
229.151	26.26
229.368	26.21
229.585	23.73
229.802	25.36
230.02	24.27
230.237	27.96
230.454	28.2
230.671	27.09
230.888	25.37
231.105	26.79
231.323	28.93
231.54	28.23
231.757	25.92
231.974	27.91
232.191	27.34
232.408	32.14
232.625	24.77
232.842	23.45
233.059	26.34
233.276	28.96
233.493	28.92
233.71	25.61
233.927	31.3
234.144	34.76
234.361	31.62
234.578	29.18
234.795	25.54
235.012	27.18
235.229	29.58
235.446	27.14
235.663	30.87
235.879	31.39
236.096	34.77
236.313	31.79
236.53	33.32
236.747	37.78
236.964	38.93
237.181	46.33
237.397	48.66
237.614	46.42
237.831	45.87
238.048	44.89
238.264	44.2
238.481	41.2
238.698	44.91
238.915	43.53
239.131	42.65
239.348	42.12
239.565	38.62
239.781	37.43
239.998	36.76
240.215	36.76
240.431	35.47
240.648	36.03
240.865	33.65
241.081	29.35
241.298	27.95
241.514	25.94
241.731	23.85
241.947	23.07
242.164	21.54
242.38	19.4
242.597	19.1
242.814	18.7
243.03	16.77
243.246	17.66
243.463	17.22
243.679	17.68
243.896	15.84
244.112	17.93
244.329	17.01
244.545	16.57
244.762	17.57
244.978	18.96
245.194	18.78
245.411	18.03
245.627	17.5
245.843	19.43
246.06	18.04
246.276	19.37
246.492	16.56
246.709	16.35
246.925	16.31
247.141	16.64
247.357	15.5
247.574	15.27
247.79	15.73
248.006	14.92
248.222	14.64
248.439	14.66
248.655	15.11
248.871	16.44
249.087	16.43
249.303	16.36
249.519	17.07
249.736	18.6
249.952	17.51
250.168	18.61
250.384	20.41
250.6	19.82
250.816	20.16
251.032	17.31
251.248	16.88
251.464	16.4
251.68	16.68
251.896	16.38
252.112	16.19
252.328	18.35
252.544	18.57
252.76	20.16
252.976	18.63
253.192	18.9
253.408	19.56
253.624	20.11
253.84	20.74
254.056	24.38
254.272	23.04
254.487	23.13
254.703	23.08
254.919	22.78
255.135	20.23
255.351	24.01
255.567	24.81
255.782	28.01
255.998	26.53
256.214	27.37
256.43	20.93
256.646	21.74
256.861	21.57
257.077	20.13
257.293	20.25
257.508	19.92
257.724	20.77
257.94	19.05
258.155	15.79
258.371	16.35
258.587	14.7
258.802	15.9
259.018	14.98
259.234	14.13
259.449	14.94
259.665	14.29
259.88	14.14
260.096	13.18
260.312	12.53
260.527	12.87
260.743	12.97
260.958	13.24
261.174	12.65
261.389	13.65
261.605	14.3
261.82	14.18
262.036	14.9
262.251	15.77
262.466	15.25
262.682	17.14
262.897	17.84
263.113	16.8
263.328	17.22
263.543	18.59
263.759	17.83
263.974	16.66
264.189	16.1
264.405	14.58
264.62	14.36
264.835	17.23
265.051	17.57
265.266	17.98
265.481	20.54
265.696	21.2
265.912	21.59
266.127	19.8
266.342	19.22
266.557	19.12
266.773	20.04
266.988	19.35
267.203	18.61
267.418	17.25
267.633	16.17
267.848	16.01
268.064	14.21
268.279	13.92
268.494	13.65
268.709	14.06
268.924	14.92
269.139	15.2
269.354	14.85
269.569	13.73
269.784	14.16
269.999	15.09
270.214	13.51
270.429	15.83
270.644	14.55
270.859	13.88
271.074	14.62
271.289	13.97
271.504	12.41
271.719	11.88
271.934	12.29
272.149	11.36
272.363	11.18
272.578	10.27
272.793	9.16
273.008	9.31
273.223	10.1
273.438	9.34
273.653	9.58
273.867	9.86
274.082	10.68
274.297	10.83
274.512	12.14
274.726	11.18
274.941	13.69
275.156	15.11
275.371	16.21
275.585	17.01
275.8	18.37
276.015	17.54
276.229	17.76
276.444	18.31
276.659	19.05
276.873	19.06
277.088	20.63
277.302	20.69
277.517	19.51
277.732	19.97
277.946	18.49
278.161	19
278.375	20.53
278.59	21.13
278.804	20.61
279.019	20.14
279.233	19.73
279.448	19.43
279.662	17.15
279.877	17.97
280.091	17.41
280.306	16.58
280.52	15.66
280.735	12.68
280.949	12.66
281.163	12.9
281.378	12.07
281.592	10.97
281.806	10.93
282.021	10.62
282.235	11.6
282.449	11.22
282.664	12.51
282.878	12.06
283.092	14.3
283.307	13.39
283.521	13.84
283.735	14.05
283.949	15.41
284.164	15.42
284.378	16.16
284.592	13.82
284.806	13.88
285.02	13.87
285.234	12.98
285.449	11.22
285.663	11.27
285.877	10.3
286.091	10.5
286.305	10.03
286.519	9.56
286.733	9.35
286.947	10.65
287.161	10.72
287.375	11.2
287.589	12.16
287.803	13.6
288.017	14.42
288.231	14.59
288.445	14.96
288.659	15.79
288.873	15.88
289.087	17.12
289.301	16.66
289.515	15.75
289.729	15.31
289.943	15.43
290.157	14.89
290.371	15.85
290.584	15.62
290.798	16.25
291.012	16.11
291.226	15.88
291.44	15.86
291.654	15.71
291.867	16.49
292.081	15.89
292.295	15.34
292.509	15.15
292.722	14.55
292.936	14.68
293.15	15.47
293.364	14.46
293.577	14.62
293.791	13.35
294.005	13.97
294.218	14.3
294.432	14.89
294.645	15.62
294.859	15.9
295.073	14.56
295.286	14.7
295.5	12.35
295.713	12.18
295.927	12.14
296.14	12.37
296.354	12.01
296.568	11.3
296.781	11.73
296.994	11.49
297.208	11.47
297.421	11.91
297.635	12.17
297.848	12.73
298.062	13.54
298.275	13.96
298.489	13.95
298.702	14.4
298.915	14.6
299.129	15.1
299.342	14.95
299.555	15.58
299.769	16.24
299.982	16.08
300.195	16.61
300.409	16.32
300.622	16.2
300.835	17.46
301.048	17.29
301.262	17.54
301.475	16.82
301.688	17.36
301.901	17.15
302.115	17.04
302.328	17.53
302.541	17.15
302.754	16.41
302.967	16.48
303.18	15.59
303.393	15.88
303.607	16.81
303.82	18.27
304.033	18.51
304.246	18.25
304.459	18.32
304.672	18.58
304.885	18.73
305.098	19.83
305.311	19.82
305.524	19.91
305.737	19.23
305.95	19.7
306.163	17.7
306.376	16.7
306.589	17.23
306.802	16.28
307.015	16.52
307.228	16.91
307.44	16.79
307.653	16.72
307.866	16.32
308.079	17.89
308.292	17.46
308.505	18.11
308.718	18.8
308.93	17.58
309.143	18.18
309.356	17.42
309.569	16.79
309.781	17.27
309.994	17.15
310.207	17.63
310.42	15.77
310.632	14.11
310.845	14.42
311.058	13.78
311.27	14.54
311.483	14.22
311.696	14.18
311.908	14.47
312.121	13.44
312.333	14.2
312.546	13.83
312.759	14.91
312.971	15.9
313.184	15.54
313.396	15.64
313.609	16.07
313.821	16.03
314.034	16.17
314.246	16.35
314.459	16.25
314.671	16.03
314.884	15.4
315.096	14.37
315.309	13.52
315.521	14.78
315.733	13.7
315.946	12.52
316.158	12.08
316.371	12.05
316.583	11.84
316.795	12.55
317.008	11.9
317.22	12.79
317.432	12.41
317.644	13.81
317.857	11.21
318.069	11.48
318.281	11.53
318.494	12.01
318.706	12.14
318.918	12.46
319.13	13.85
319.342	14.25
319.555	14.11
319.767	15.92
319.979	16.29
320.191	17.61
320.403	19.19
320.615	19.97
320.827	20.99
321.039	20.46
321.252	18.77
321.464	16.73
321.676	15.77
321.888	15.65
322.1	15.28
322.312	13.37
322.524	12.91
322.736	12.56
322.948	11.74
323.16	10.09
323.372	10.92
323.584	11.25
323.796	10.41
324.007	10.7
324.219	10.14
324.431	10.32
324.643	11.48
324.855	11.67
325.067	11.98
325.279	12.45
325.491	12.75
325.702	11.67
325.914	12.7
326.126	15.07
326.338	15.54
326.55	15.89
326.761	15.64
326.973	15.92
327.185	16.93
327.396	16.84
327.608	16.97
327.82	17.66
328.032	18.44
328.243	17.87
328.455	17.48
328.666	16.5
328.878	17.23
329.09	16.89
329.301	16.25
329.513	15.38
329.725	14.21
329.936	13.57
330.148	13.39
330.359	12.97
330.571	13.78
330.782	12.85
330.994	14.31
331.205	14.01
331.417	13.44
331.628	14.05
331.84	13.92
332.051	15.57
332.262	16.32
332.474	15.83
332.685	17.14
332.897	15.45
333.108	15.95
333.319	14.72
333.531	14.63
333.742	14.95
333.953	12.82
334.165	12.61
334.376	11.07
334.587	11.34
334.799	10.97
335.01	9.16
335.221	9.82
335.432	9.7
335.644	10.01
335.855	10.14
336.066	10.98
336.277	12.51
336.488	13.03
336.7	13.42
336.911	13.04
337.122	13.28
337.333	14.35
337.544	15.38
337.755	15.39
337.966	15.82
338.177	15.76
338.388	15.66
338.599	16.16
338.811	15.78
339.022	15.92
339.233	16.27
339.444	16.47
339.655	15.1
339.866	14.9
340.076	15.36
340.287	15.59
340.498	15.69
340.709	14.97
340.92	14.34
341.131	14.31
341.342	14.04
341.553	13.64
341.764	14.14
341.975	14.97
342.185	13.74
342.396	13.36
342.607	13.31
342.818	13.5
343.029	13.82
343.239	13.84
343.45	14.31
343.661	14.02
343.872	13.5
344.082	12.7
344.293	12.83
344.504	13.07
344.714	12.02
344.925	11.12
345.136	10.24
345.346	8.6
345.557	8.75
345.768	8.06
345.978	8.35
346.189	8.91
346.399	8.93
346.61	8.75
346.821	9.41
347.031	10.59
347.242	10.72
347.452	11.17
347.663	12.59
347.873	12.79
348.084	12.91
348.294	13.63
348.504	13.62
348.715	13.87
348.925	13.21
349.136	12.41
349.346	11.36
349.557	11.33
349.767	11.71
349.977	11.44
350.188	10.92
350.398	11.49
350.608	10.54
350.819	10.43
351.029	10.58
351.239	11.21
351.449	11.41
351.66	12.38
351.87	12.69
352.08	11.82
352.29	12.17
352.501	12
352.711	11.52
352.921	12.04
353.131	11.61
353.341	11.3
353.552	11.12
353.762	11.26
353.972	10.51
354.182	10.93
354.392	10.9
354.602	10.85
354.812	11.04
355.022	11.49
355.232	11.04
355.442	11.35
355.652	11.29
355.862	11
356.072	11.07
356.282	11.19
356.492	11
356.702	11.49
356.912	11.96
357.122	12.07
357.332	11.35
357.542	11.59
357.752	11.72
357.962	11.38
358.171	11.71
358.381	11.9
358.591	12.07
358.801	11.83
359.011	12
359.221	11.41
359.43	11.69
359.64	12.18
359.85	12.12
360.06	12.07
360.269	12.12
360.479	11.81
360.689	11.75
360.899	11.21
361.108	11.1
361.318	11.1
361.528	10.54
361.737	10.24
361.947	9.38
362.156	9.5
362.366	9.29
362.576	9.48
362.785	9.63
362.995	9.25
363.204	9.81
363.414	9.44
363.623	9.09
363.833	9.63
364.042	9.58
364.252	9.82
364.461	9.41
364.671	9.32
364.88	9.52
365.09	9.51
365.299	9.91
365.509	9.26
365.718	9.24
365.927	9.07
366.137	9.24
366.346	8.95
366.555	9.12
366.765	8.96
366.974	9.4
367.183	9.27
367.393	8.85
367.602	8.03
367.811	8.44
368.021	8.46
368.23	8.71
368.439	8.4
368.648	8.79
368.857	9.63
369.067	9.38
369.276	9.17
369.485	9.41
369.694	9.62
369.903	10.57
370.112	10.53
370.321	10.51
370.531	10.65
370.74	10.47
370.949	10.14
371.158	9.37
371.367	9.82
371.576	9.43
371.785	8.68
371.994	8.66
372.203	8.44
372.412	8.48
372.621	8.74
372.83	8.6
373.039	8.86
373.248	8.4
373.457	8.6
373.666	8.45
373.874	8.75
374.083	9.41
374.292	9.34
374.501	9
374.71	8.75
374.919	8.93
375.128	8.75
375.336	8.82
375.545	9.32
375.754	8.99
375.963	8.74
376.171	8.06
376.38	7.95
376.589	7.95
376.798	7.85
377.006	8.02
377.215	8.01
377.424	7.92
377.632	7.84
377.841	7.6
378.05	7.74
378.258	7.53
378.467	7.89
378.675	7.73
378.884	7.94
379.093	8.09
379.301	7.45
379.51	7.17
379.718	6.89
379.927	6.94
380.135	6.58
380.344	6.7
380.552	6.97
380.761	6.66
380.969	6.4
381.177	6.41
381.386	6.07
381.594	6.19
381.803	6.41
382.011	6.53
382.219	6.12
382.428	6.14
382.636	5.89
382.845	6.17
383.053	6.34
383.261	6.65
383.469	6.55
383.678	6.91
383.886	7.15
384.094	7.09
384.302	7.09
384.511	7.5
384.719	7.81
384.927	7.63
385.135	7.72
385.343	8.06
385.552	7.61
385.76	7.41
385.968	7.2
386.176	6.78
386.384	6.51
386.592	6.2
386.8	5.72
387.008	5.69
387.216	5.78
387.424	5.5
387.633	5.52
387.841	5.89
388.049	5.91
388.257	6.01
388.465	6.18
388.672	6.43
388.88	6.79
389.088	7.03
389.296	6.85
389.504	7.14
389.712	7.12
389.92	6.66
390.128	6.56
390.336	6.58
390.544	6.62
390.751	6.38
390.959	6.1
391.167	5.87
391.375	5.97
391.583	5.98
391.79	5.79
391.998	5.77
392.206	6.01
392.414	5.81
392.621	5.66
392.829	5.71
393.037	5.99
393.244	6.2
393.452	6.4
393.66	6.22
393.867	6.29
394.075	6.08
394.283	6.26
394.49	5.88
394.698	6.03
394.905	6.03
395.113	5.88
395.32	6.03
395.528	5.8
395.735	5.74
395.943	5.77
396.15	5.83
396.358	6.28
396.565	6.2
396.773	6.58
396.98	6.57
397.188	6.43
397.395	6.23
397.602	6.07
397.81	6.09
398.017	6.04
398.225	5.96
398.432	6.18
398.639	6.15
398.847	6.22
399.054	6.08
399.261	5.99
399.468	6.38
399.676	6.43
399.883	6.52
400.09	6.47
400.297	6.4
400.505	6.43
400.712	6.05
400.919	6.03
401.126	5.94
401.333	6.03
401.54	6.07
401.748	6.14
401.955	6.18
402.162	6.09
402.369	6.11
402.576	6.29
402.783	6.26
402.99	6.49
403.197	6.14
403.404	6.05
403.611	5.87
403.818	5.85
404.025	5.49
404.232	5.4
404.439	5.26
404.646	5.15
404.853	4.87
405.06	4.93
405.267	4.55
405.474	4.6
405.681	4.55
405.887	4.49
406.094	4.44
406.301	4.54
406.508	4.68
406.715	4.9
406.922	5
407.128	5.1
407.335	4.96
407.542	5.04
407.749	5.12
407.955	5.44
408.162	5.5
408.369	5.76
408.575	5.69
408.782	5.58
408.989	5.5
409.195	5.53
409.402	5.56
409.609	5.74
409.815	6.06
410.022	5.95
410.228	5.59
410.435	5.44
410.642	5.18
410.848	5.4
411.055	5.23
411.261	5.05
411.468	5.23
411.674	5.12
411.881	5.04
412.087	5.05
412.294	5.08
412.5	5.07
412.706	5.18
412.913	5.03
413.119	4.69
413.326	4.73
413.532	5.06
413.738	4.93
413.945	5.17
414.151	5.14
414.357	5.12
414.564	5.16
414.77	5.37
414.976	5.39
415.182	5.72
415.389	5.76
415.595	5.83
415.801	5.53
416.007	5.48
416.214	5.4
416.42	5.44
416.626	5.21
416.832	5.03
417.038	4.85
417.244	4.94
417.45	4.66
417.657	4.92
417.863	5.1
418.069	5.31
418.275	5.23
418.481	5.19
418.687	5.14
418.893	5.17
419.099	5.08
419.305	5.23
419.511	5.15
419.717	5.25
419.923	4.97
420.129	4.91
420.335	4.83
420.541	4.93
420.746	4.94
420.952	4.9
421.158	4.91
421.364	4.88
421.57	4.78
421.776	4.74
421.982	4.62
422.187	4.62
422.393	4.57
422.599	4.48
422.805	4.45
423.01	4.46
423.216	4.36
423.422	4.33
423.628	4.42
423.833	4.36
424.039	4.5
424.245	4.53
424.45	4.66
424.656	4.7
424.862	4.73
425.067	4.75
425.273	4.69
425.478	4.83
425.684	4.8
425.889	5.01
426.095	5.1
426.301	4.96
426.506	4.98
426.712	4.98
426.917	4.77
427.123	4.88
427.328	4.66
427.533	4.87
427.739	4.77
427.944	4.82
428.15	4.56
428.355	4.48
428.561	4.6
428.766	4.64
428.971	4.62
429.177	4.78
429.382	4.76
429.587	5.01
429.793	4.74
429.998	4.84
430.203	4.8
430.408	4.85
430.614	4.92
430.819	4.74
431.024	4.86
431.229	4.92
431.434	4.87
431.64	4.67
431.845	4.75
432.05	4.9
432.255	4.81
432.46	4.77
432.665	4.75
432.87	4.65
433.076	4.87
433.281	4.8
433.486	4.69
433.691	4.56
433.896	4.52
434.101	4.43
434.306	4.38
434.511	4.34
434.716	4.36
434.921	4.46
435.126	4.44
435.331	4.21
435.535	4.09
435.74	4.17
435.945	4.44
436.15	4.46
436.355	4.47
436.56	4.42
436.765	4.49
436.97	4.31
437.174	4.18
437.379	4.21
437.584	4.38
437.789	4.55
437.993	4.47
438.198	4.46
438.403	4.77
438.608	4.8
438.812	4.67
439.017	4.66
439.222	4.76
439.426	4.66
439.631	4.73
439.836	4.62
440.04	4.52
440.245	4.47
440.45	4.35
440.654	4.04
440.859	4
441.063	4.04
441.268	3.91
441.472	4.03
441.677	4.11
441.881	3.95
442.086	3.95
442.29	3.96
442.495	4.04
442.699	4.07
442.904	4.33
443.108	4.3
443.312	4.27
443.517	4.37
443.721	4.19
443.925	4.14
444.13	4.26
444.334	4.19
444.538	4.1
444.743	3.94
444.947	3.89
445.151	3.8
445.356	3.79
445.56	3.82
445.764	3.76
445.968	3.82
446.173	3.84
446.377	3.86
446.581	3.93
446.785	3.97
446.989	4.05
447.193	4.06
447.398	4.04
447.602	4.06
447.806	4.23
448.01	4.42
448.214	4.61
448.418	4.58
448.622	4.73
448.826	4.7
449.03	4.73
449.234	4.8
449.438	4.85
449.642	4.97
449.846	5.08
450.05	5
450.254	4.8
450.458	4.73
450.662	4.87
450.866	4.62
451.069	4.64
451.273	4.67
451.477	4.51
451.681	4.48
451.885	4.28
452.089	4.06
452.292	3.92
452.496	4.02
452.7	3.89
452.904	3.82
453.107	4
453.311	3.99
453.515	4.01
453.719	3.99
453.922	4.09
454.126	4.22
454.33	4.38
454.533	4.35
454.737	4.31
454.94	4.36
455.144	4.42
455.348	4.19
455.551	4.19
455.755	4.07
455.958	4.33
456.162	4.21
456.365	4.13
456.569	3.91
456.772	4.01
456.976	3.97
457.179	3.91
457.383	3.82
457.586	4.03
457.79	3.96
457.993	4.07
458.196	3.85
458.4	3.82
458.603	3.94
458.807	3.99
459.01	4.05
459.213	3.96
