Data from LC_154_Reflection_2.txt Node
Date: Mon Nov 16 22:14:57 EST 2015
User: robert
Spectrometer: USB4E03001
Autoset integration time: false
Trigger mode: 4
Integration Time (sec): 1.000000E-1
Scans to average: 15
Electric dark correction enabled: true
Nonlinearity correction enabled: false
Boxcar width: 5
Stray light correction enabled: false
XAxis mode: Wavelengths
Stop averaging: false
Number of Pixels in Spectrum: 3648
>>>>>Begin Spectral Data<<<<<
177.566	-879.52
177.785	-44.35
178.005	1447.9
178.225	-70.24
178.445	-93.99
178.665	176.37
178.885	75.07
179.105	40.19
179.324	-111.68
179.544	-0.39
179.764	0.73
179.984	129.74
180.204	121.18
180.423	148.71
180.643	95.78
180.863	60.19
181.083	44.71
181.302	15.63
181.522	-26.1
181.742	-26.29
181.961	-102.9
182.181	-108.73
182.401	-77.44
182.621	-527.85
182.84	-222.58
183.06	-62.21
183.279	-37.89
183.499	-25.66
183.719	-14.56
183.938	40.23
184.158	16.34
184.377	17.17
184.597	4.62
184.816	6.58
185.036	45.61
185.256	38.19
185.475	18.23
185.695	-2.16
185.914	3.95
186.134	41.3
186.353	-63.64
186.572	-34.05
186.792	133.33
187.011	84.25
187.231	54.48
187.45	40.27
187.67	-19.54
187.889	-212.25
188.108	407.59
188.328	-97.02
188.547	-27.16
188.766	-12.6
188.986	-12.73
189.205	-68.89
189.424	-23.47
189.644	-331.87
189.863	-382.69
190.082	-99.28
190.302	-199.24
190.521	21.79
190.74	177.79
190.959	114.85
191.178	140.09
191.398	102.74
191.617	-38.52
191.836	-25.1
192.055	-478.75
192.274	-55.13
192.494	28.77
192.713	-42.68
192.932	-184.06
193.151	-324.22
193.37	-773.36
193.589	380.56
193.808	153.34
194.027	37.9
194.246	-496.09
194.465	267.87
194.685	507.99
194.904	100.11
195.123	-89.83
195.342	-22.48
195.561	-19.29
195.78	-141.11
195.999	6566.2
196.218	208.92
196.436	123.23
196.655	-37.31
196.874	81.53
197.093	220.97
197.312	127.63
197.531	414.26
197.75	105.99
197.969	-210.87
198.188	162.16
198.407	55.29
198.625	13.8
198.844	43.5
199.063	52.99
199.282	37.17
199.501	7.87
199.719	1.66
199.938	37.38
200.157	8.47
200.376	-18.25
200.594	-40.77
200.813	-81.09
201.032	-48.19
201.251	-67.67
201.469	-45.74
201.688	-11.6
201.907	-50.54
202.125	-89.93
202.344	3754.76
202.563	1207.8
202.781	249.81
203	716.83
203.218	511.04
203.437	416.69
203.656	271.5
203.874	180.07
204.093	178.33
204.311	208.02
204.53	199.48
204.748	309.06
204.967	140.25
205.185	52.28
205.404	118.62
205.622	90.69
205.841	83.44
206.059	78.94
206.278	44.53
206.496	136.42
206.715	98.59
206.933	56.43
207.151	7.58
207.37	36.39
207.588	89.87
207.806	67.88
208.025	196.99
208.243	-207.14
208.461	174.14
208.68	-4307.06
208.898	196.5
209.116	181.34
209.335	257.3
209.553	292.76
209.771	2755
209.989	404.08
210.208	619.39
210.426	223.55
210.644	223.01
210.862	-172.27
211.081	101.15
211.299	152.38
211.517	-408.33
211.735	123.57
211.953	8800
212.171	890.36
212.39	2768.47
212.608	6708.7
212.826	-17.43
213.044	-51.6
213.262	41.71
213.48	-151.9
213.698	59.88
213.916	110.31
214.134	38.23
214.352	62.9
214.57	81.23
214.788	149.97
215.006	189.21
215.224	155.77
215.442	122.28
215.66	103.58
215.878	110.3
216.096	112.1
216.314	79.7
216.532	186.99
216.75	153.15
216.968	150.53
217.185	272.44
217.403	485.52
217.621	-1467.85
217.839	-284.98
218.057	-271.6
218.275	246.95
218.492	113.69
218.71	161.2
218.928	46.22
219.146	74.4
219.363	101.79
219.581	77.69
219.799	62.1
220.017	54.23
220.234	54.12
220.452	60.4
220.67	64.61
220.887	58
221.105	58.06
221.323	35.38
221.54	19.99
221.758	-17.19
221.976	6.5
222.193	-17.34
222.411	-22.88
222.629	35.81
222.846	47.01
223.064	47.53
223.281	40.92
223.499	43.28
223.716	50.54
223.934	36.33
224.151	25.07
224.369	8.82
224.586	2.64
224.804	9.76
225.021	-18.94
225.239	-17.22
225.456	-2.67
225.674	-2.87
225.891	-0.98
226.108	2.53
226.326	10.27
226.543	24.3
226.76	22.33
226.978	22.43
227.195	32.39
227.413	32.14
227.63	23.97
227.847	22.03
228.064	20.74
228.282	22.66
228.499	22.59
228.716	17.82
228.934	12.61
229.151	14.31
229.368	13.05
229.585	8.93
229.802	7.79
230.02	8.43
230.237	10.44
230.454	12.23
230.671	11.36
230.888	8.97
231.105	12.17
231.323	14.81
231.54	13.58
231.757	14.56
231.974	14.39
232.191	13.74
232.408	18.45
232.625	12.25
232.842	10.99
233.059	14.19
233.276	14.98
233.493	15.59
233.71	17.48
233.927	22.46
234.144	23.64
234.361	20.99
234.578	22.38
234.795	17.86
235.012	19.17
235.229	17.21
235.446	15.07
235.663	16.65
235.879	16.87
236.096	16.76
236.313	13.01
236.53	13.32
236.747	18.53
236.964	18.16
237.181	18.26
237.397	18.43
237.614	19.59
237.831	13.62
238.048	14.74
238.264	14.9
238.481	10.69
238.698	11.87
238.915	8.86
239.131	10.83
239.348	8.88
239.565	9.14
239.781	10
239.998	10.25
240.215	14.12
240.431	13.25
240.648	11.59
240.865	12.83
241.081	10.8
241.298	13.61
241.514	12.02
241.731	11.73
241.947	14.59
242.164	14.44
242.38	12.87
242.597	11.93
242.814	13.04
243.03	12.85
243.246	12.96
243.463	14.86
243.679	13.8
243.896	12.83
244.112	15.79
244.329	12.87
244.545	11.56
244.762	11.53
244.978	13.56
245.194	10.93
245.411	11.52
245.627	13.04
245.843	11.57
246.06	12.1
246.276	13.96
246.492	11.39
246.709	12.02
246.925	13.2
247.141	13.58
247.357	12.72
247.574	12.79
247.79	12.53
248.006	11.05
248.222	10.62
248.439	10.48
248.655	10.09
248.871	10.27
249.087	10.3
249.303	8.14
249.519	8.33
249.736	9.11
249.952	8.38
250.168	9.38
250.384	11.93
250.6	13.24
250.816	14.34
251.032	12.62
251.248	13.75
251.464	12.62
251.68	13.25
251.896	12.54
252.112	11.21
252.328	11.36
252.544	11.04
252.76	10.93
252.976	10.84
253.192	9.22
253.408	8.5
253.624	10.79
253.84	10.14
254.056	12.62
254.272	11.56
254.487	11.7
254.703	11.38
254.919	10.39
255.135	7.97
255.351	10.15
255.567	14.05
255.782	15.46
255.998	12.57
256.214	14.53
256.43	10.16
256.646	12.58
256.861	13.65
257.077	14.39
257.293	11.81
257.508	11.27
257.724	11.42
257.94	9.57
258.155	9.5
258.371	6.96
258.587	6.46
258.802	7.46
259.018	8.58
259.234	7.58
259.449	8.17
259.665	8.43
259.88	9.6
260.096	9.14
260.312	8.34
260.527	8.75
260.743	9.93
260.958	10.37
261.174	10.19
261.389	9.63
261.605	10.04
261.82	10.03
262.036	10.62
262.251	10.62
262.466	9.68
262.682	10.85
262.897	9.54
263.113	9.14
263.328	8.39
263.543	9.38
263.759	8.87
263.974	9.78
264.189	9.67
264.405	10.42
264.62	9.8
264.835	10.79
265.051	10.98
265.266	13.01
265.481	13.95
265.696	15.57
265.912	14.74
266.127	14.43
266.342	12.17
266.557	11.07
266.773	10.77
266.988	9.99
267.203	10.95
267.418	9.36
267.633	8.61
267.848	7.37
268.064	4.97
268.279	5.96
268.494	6.32
268.709	6.52
268.924	7.91
269.139	6.8
269.354	6.88
269.569	5.39
269.784	6.09
269.999	6.44
270.214	6.85
270.429	8.56
270.644	8.5
270.859	7.66
271.074	8.02
271.289	6.41
271.504	7.14
271.719	7.41
271.934	7.07
272.149	7.4
272.363	7.78
272.578	7.1
272.793	6.85
273.008	5.88
273.223	5.45
273.438	5.44
273.653	7.12
273.867	6.78
274.082	6.09
274.297	6.58
274.512	5.91
274.726	5.21
274.941	6.1
275.156	6.31
275.371	7.31
275.585	9.02
275.8	10.33
276.015	8.7
276.229	8.56
276.444	9.19
276.659	9.31
276.873	9.15
277.088	8.58
277.302	7.9
277.517	8.07
277.732	9.34
277.946	8.98
278.161	8.6
278.375	8.28
278.59	9.15
278.804	8.78
279.019	9.35
279.233	9.48
279.448	10.18
279.662	10.51
279.877	10.43
280.091	8.08
280.306	6.5
280.52	6.64
280.735	6.47
280.949	6.33
281.163	6.49
281.378	5.32
281.592	5.55
281.806	5.78
282.021	4.77
282.235	5.82
282.449	6.66
282.664	8.29
282.878	7.99
283.092	9.32
283.307	9.03
283.521	9.14
283.735	9.78
283.949	11.24
284.164	11.13
284.378	12.04
284.592	10.11
284.806	9.63
285.02	8.41
285.234	8.09
285.449	7.04
285.663	7.17
285.877	7.38
286.091	6.75
286.305	5.67
286.519	4.65
286.733	3.99
286.947	4.05
287.161	4.13
287.375	5.22
287.589	5.57
287.803	5.86
288.017	5.42
288.231	4.51
288.445	4.87
288.659	6.2
288.873	6.99
289.087	7.93
289.301	8.98
289.515	8.84
289.729	8.13
289.943	8.61
290.157	8.6
290.371	10.66
290.584	10.93
290.798	11.89
291.012	11.74
291.226	11.43
291.44	11.95
291.654	11.57
291.867	11.98
292.081	11.15
292.295	11.29
292.509	11.48
292.722	10.06
292.936	10.21
293.15	10.94
293.364	9.69
293.577	10.92
293.791	9.31
294.005	10.94
294.218	11.79
294.432	13.28
294.645	12.73
294.859	12.33
295.073	11.56
295.286	12.35
295.5	10.99
295.713	11.48
295.927	11.16
296.14	12.13
296.354	11.3
296.568	9.76
296.781	9.5
296.994	9.82
297.208	10.33
297.421	11.07
297.635	10.37
297.848	10.6
298.062	10.42
298.275	11.16
298.489	10.65
298.702	10.72
298.915	11.77
299.129	11.79
299.342	11.12
299.555	11.19
299.769	11.31
299.982	11.69
300.195	11.83
300.409	12.08
300.622	11.63
300.835	12.6
301.048	12.28
301.262	12.05
301.475	11.86
301.688	12.98
301.901	13.09
302.115	12.69
302.328	13.03
302.541	12.44
302.754	12.93
302.967	12.22
303.18	12.16
303.393	11.91
303.607	11.65
303.82	12.43
304.033	11.46
304.246	11.71
304.459	11.88
304.672	11.81
304.885	12.85
305.098	12.19
305.311	12.44
305.524	13.31
305.737	13.78
305.95	14.34
306.163	12.92
306.376	13.75
306.589	14.01
306.802	12.89
307.015	13.16
307.228	13.45
307.44	13.76
307.653	13.13
307.866	11.59
308.079	13.83
308.292	14.05
308.505	15.15
308.718	14.85
308.93	13.91
309.143	14.74
309.356	14.38
309.569	13.34
309.781	13.29
309.994	13.14
310.207	12.89
310.42	10.49
310.632	9.52
310.845	10.12
311.058	9.74
311.27	10.39
311.483	11.03
311.696	10.39
311.908	10.37
312.121	11.05
312.333	12.12
312.546	12.41
312.759	12.6
312.971	12.83
313.184	12.31
313.396	12.66
313.609	12.73
313.821	11.61
314.034	12.96
314.246	13.76
314.459	12.56
314.671	11.29
314.884	10.17
315.096	9.74
315.309	10.42
315.521	10.76
315.733	8.86
315.946	7.32
316.158	7.66
316.371	7.21
316.583	6.76
316.795	7.34
317.008	8.1
317.22	10.04
317.432	11.22
317.644	11.29
317.857	9.81
318.069	11.56
318.281	12.68
318.494	12.82
318.706	13.28
318.918	12.85
319.13	14.01
319.342	14.34
319.555	13.38
319.767	14.54
319.979	14.11
320.191	15.14
320.403	15.35
320.615	15.52
320.827	15.51
321.039	14.86
321.252	14.8
321.464	12.9
321.676	12.74
321.888	13.51
322.1	12.86
322.312	12.59
322.524	11.54
322.736	11.77
322.948	10.96
323.16	10.62
323.372	10.82
323.584	10.01
323.796	9.28
324.007	8.84
324.219	8.33
324.431	7.41
324.643	7.63
324.855	7.92
325.067	7.9
325.279	8.17
325.491	8.19
325.702	7.2
325.914	7.94
326.126	9.73
326.338	10.7
326.55	11.29
326.761	12.06
326.973	12.31
327.185	12.8
327.396	13.25
327.608	13.18
327.82	13.42
328.032	13.95
328.243	13.85
328.455	14.5
328.666	13.46
328.878	13.07
329.09	13.08
329.301	12.74
329.513	12.46
329.725	11.8
329.936	11.18
330.148	10.92
330.359	11.46
330.571	12.08
330.782	10.19
330.994	12.28
331.205	12.91
331.417	13.34
331.628	13.37
331.84	13.65
332.051	13.69
332.262	15.95
332.474	15.13
332.685	16.12
332.897	15.75
333.108	16.34
333.319	13.95
333.531	13.07
333.742	13.88
333.953	12.94
334.165	12.73
334.376	12.47
334.587	11.41
334.799	13.4
335.01	12.59
335.221	12.63
335.432	11.93
335.644	11.98
335.855	12.83
336.066	12.14
336.277	13.89
336.488	14.5
336.7	13.77
336.911	13.91
337.122	12.58
337.333	12.8
337.544	13.77
337.755	14.85
337.966	15.41
338.177	14.57
338.388	14.56
338.599	14.47
338.811	14.09
339.022	14.83
339.233	15.1
339.444	16.4
339.655	14.84
339.866	14.02
340.076	14.88
340.287	14.93
340.498	15.43
340.709	14.97
340.92	14.43
341.131	13.75
341.342	13.59
341.553	12.74
341.764	11.71
341.975	12.93
342.185	12.97
342.396	11.72
342.607	12.2
342.818	12.27
343.029	11.83
343.239	11.7
343.45	12.45
343.661	12.63
343.872	12.79
344.082	12.93
344.293	13.14
344.504	13.41
344.714	12.9
344.925	11.68
345.136	11.82
345.346	12.21
345.557	13.03
345.768	12.87
345.978	12.45
346.189	12.68
346.399	12.3
346.61	12.58
346.821	11.95
347.031	13
347.242	13.16
347.452	12.74
347.663	12.81
347.873	12.37
348.084	12.51
348.294	13.01
348.504	12.91
348.715	13.03
348.925	11.95
349.136	11.98
349.346	10.72
349.557	11.06
349.767	11.45
349.977	11.01
350.188	11.64
350.398	12.01
350.608	11.86
350.819	11.58
351.029	11.63
351.239	12.01
351.449	12.06
351.66	13.31
351.87	14.28
352.08	14.01
352.29	14.51
352.501	13.69
352.711	13.34
352.921	13.25
353.131	13.35
353.341	13.48
353.552	13.12
353.762	12.77
353.972	11.74
354.182	11.09
354.392	10.79
354.602	10.61
354.812	10.75
355.022	10.36
355.232	10.85
355.442	10.89
355.652	10.74
355.862	10.42
356.072	10.64
356.282	10.84
356.492	11.13
356.702	11.21
356.912	11.35
357.122	11.15
357.332	11.34
357.542	10.68
357.752	10.57
357.962	10.44
358.171	10.64
358.381	10.77
358.591	10.57
358.801	9.9
359.011	10.54
359.221	10.52
359.43	10.58
359.64	10.84
359.85	11.39
360.06	11.79
360.269	12.19
360.479	11.81
360.689	11.97
360.899	12.14
361.108	12.51
361.318	12.01
361.528	11.86
361.737	11.5
361.947	11.05
362.156	10.89
362.366	10.57
362.576	10.31
362.785	10.49
362.995	10.17
363.204	10.02
363.414	10.21
363.623	9.96
363.833	10.44
364.042	10.56
364.252	11.07
364.461	10.65
364.671	10.62
364.88	11.14
365.09	11.87
365.299	11.58
365.509	11.29
365.718	10.65
365.927	10.92
366.137	10.28
366.346	10.21
366.555	9.83
366.765	9.6
366.974	10.21
367.183	10.05
367.393	9.02
367.602	9.28
367.811	9.86
368.021	9.7
368.23	9.86
368.439	9.6
368.648	9.56
368.857	9.71
369.067	10.66
369.276	9.65
369.485	9.74
369.694	10.35
369.903	11.14
370.112	10.95
370.321	11.01
370.531	10.53
370.74	10.76
370.949	10.41
371.158	10.32
371.367	9.94
371.576	10.24
371.785	9.76
371.994	9.72
372.203	9.32
372.412	8.97
372.621	9.69
372.83	10.03
373.039	10.44
373.248	10.69
373.457	11.1
373.666	10.77
373.874	10.5
374.083	11.15
374.292	10.97
374.501	10.83
374.71	10.99
374.919	10.11
375.128	10
375.336	9.56
375.545	9.7
375.754	8.77
375.963	9.01
376.171	9.11
376.38	8.59
376.589	8.92
376.798	8.43
377.006	8.91
377.215	9.22
377.424	9.25
377.632	9.14
377.841	9.35
378.05	9.52
378.258	9.36
378.467	9.55
378.675	9.71
378.884	9.67
379.093	9.74
379.301	9.23
379.51	9.27
379.718	8.92
379.927	8.98
380.135	8.27
380.344	8.29
380.552	8.29
380.761	8.15
380.969	8.11
381.177	7.67
381.386	7.87
381.594	7.84
381.803	7.57
382.011	7.66
382.219	7.36
382.428	7.06
382.636	7.05
382.845	7.22
383.053	7.14
383.261	6.68
383.469	7.13
383.678	7.11
383.886	7.04
384.094	6.91
384.302	7.21
384.511	7.45
384.719	8.06
384.927	8.07
385.135	8
385.343	8.32
385.552	8.44
385.76	8.21
385.968	8.01
386.176	7.66
386.384	7.79
386.592	7.47
386.8	7.41
387.008	7.37
387.216	7.51
387.424	7.33
387.633	7.04
387.841	7.24
388.049	7.17
388.257	7.14
388.465	7.3
388.672	7.44
388.88	7.25
389.088	7.6
389.296	7.52
389.504	7.22
389.712	7.39
389.92	7.53
390.128	7.27
390.336	7.5
390.544	7.97
390.751	7.72
390.959	7.55
391.167	7.74
391.375	7.47
391.583	7.57
391.79	7.62
391.998	7.35
392.206	7.32
392.414	7.21
392.621	6.92
392.829	6.49
393.037	6.67
393.244	6.75
393.452	6.63
393.66	6.71
393.867	6.78
394.075	6.61
394.283	6.84
394.49	6.71
394.698	6.84
394.905	6.75
395.113	6.73
395.32	7.01
395.528	6.85
395.735	7.04
395.943	6.8
396.15	6.63
396.358	6.79
396.565	6.59
396.773	6.79
396.98	6.84
397.188	6.83
397.395	7.14
397.602	6.92
397.81	7.01
398.017	7.16
398.225	7.09
398.432	7.25
398.639	7.34
398.847	7.33
399.054	6.99
399.261	6.92
399.468	7.2
399.676	6.84
399.883	6.81
400.09	6.95
400.297	6.74
400.505	6.85
400.712	6.57
400.919	6.61
401.126	6.7
401.333	6.95
401.54	7.13
401.748	7.03
401.955	7.25
402.162	7.37
402.369	7.31
402.576	7.28
402.783	7.31
402.99	7.64
403.197	7.41
403.404	7.37
403.611	7.3
403.818	7.11
404.025	7.07
404.232	6.92
404.439	6.8
404.646	6.52
404.853	6.32
405.06	6.38
405.267	6.2
405.474	6.26
405.681	6.17
405.887	6.13
406.094	6.04
406.301	6.13
406.508	6.18
406.715	6.3
406.922	6.44
407.128	6.63
407.335	6.66
407.542	6.76
407.749	6.91
407.955	7.06
408.162	6.88
408.369	7.08
408.575	6.9
408.782	6.78
408.989	6.63
409.195	6.68
409.402	6.57
409.609	6.55
409.815	6.4
410.022	6.23
410.228	6.12
410.435	6.4
410.642	6.21
410.848	6.54
411.055	6.56
411.261	6.68
411.468	6.7
411.674	6.65
411.881	6.57
412.087	6.75
412.294	6.58
412.5	6.53
412.706	6.47
412.913	6.43
413.119	6.27
413.326	6.11
413.532	6.11
413.738	6
413.945	6.02
414.151	5.84
414.357	5.64
414.564	5.81
414.77	5.82
414.976	5.75
415.182	5.94
415.389	5.88
415.595	5.87
415.801	5.79
416.007	5.93
416.214	5.97
416.42	6.09
416.626	5.96
416.832	5.98
417.038	5.96
417.244	6.1
417.45	5.84
417.657	5.86
417.863	6.18
418.069	6.34
418.275	6.34
418.481	6.28
418.687	6.27
418.893	6.36
419.099	6.29
419.305	6.42
419.511	6.22
419.717	6.28
419.923	6.17
420.129	5.99
420.335	5.92
420.541	5.95
420.746	5.98
420.952	5.98
421.158	6.03
421.364	6.02
421.57	6
421.776	6.05
421.982	6.07
422.187	5.92
422.393	5.99
422.599	5.82
422.805	5.85
423.01	5.87
423.216	5.76
423.422	5.73
423.628	5.83
423.833	5.77
424.039	5.92
424.245	5.93
424.45	6.16
424.656	6.19
424.862	6.27
425.067	6.22
425.273	6.17
425.478	6.3
425.684	6.22
425.889	6.24
426.095	6.3
426.301	6.04
426.506	6.09
426.712	6.12
426.917	5.91
427.123	5.95
427.328	5.76
427.533	5.86
427.739	5.9
427.944	5.95
428.15	5.81
428.355	5.75
428.561	5.8
428.766	5.75
428.971	5.58
429.177	5.78
429.382	5.93
429.587	6.05
429.793	5.98
429.998	5.88
430.203	5.97
430.408	5.94
430.614	6.09
430.819	6.11
431.024	6.21
431.229	6.16
431.434	6.14
431.64	5.99
431.845	6.06
432.05	6.08
432.255	6.07
432.46	5.86
432.665	5.83
432.87	5.73
433.076	5.79
433.281	5.82
433.486	5.8
433.691	5.62
433.896	5.51
434.101	5.44
434.306	5.42
434.511	5.45
434.716	5.62
434.921	5.57
435.126	5.59
435.331	5.4
435.535	5.29
435.74	5.37
435.945	5.56
436.15	5.64
436.355	5.78
436.56	5.9
436.765	5.86
436.97	5.67
437.174	5.71
437.379	5.65
437.584	5.81
437.789	5.7
437.993	5.69
438.198	5.77
438.403	5.88
438.608	5.93
438.812	5.75
439.017	5.81
439.222	5.91
439.426	5.99
439.631	6.01
439.836	6.07
440.04	6.27
440.245	6.29
440.45	6.18
440.654	6.11
440.859	6.02
441.063	6.03
441.268	5.86
441.472	5.88
441.677	5.84
441.881	5.8
442.086	5.75
442.29	5.6
442.495	5.61
442.699	5.65
442.904	5.61
443.108	5.51
443.312	5.58
443.517	5.64
443.721	5.55
443.925	5.56
444.13	5.59
444.334	5.47
444.538	5.45
444.743	5.33
444.947	5.35
445.151	5.38
445.356	5.35
445.56	5.32
445.764	5.36
445.968	5.43
446.173	5.41
446.377	5.36
446.581	5.45
446.785	5.52
446.989	5.56
447.193	5.55
447.398	5.56
447.602	5.65
447.806	5.76
448.01	5.94
448.214	5.94
448.418	6
448.622	6.13
448.826	6.23
449.03	6.28
449.234	6.32
449.438	6.43
449.642	6.45
449.846	6.41
450.05	6.24
450.254	6.03
450.458	6.27
450.662	6.09
450.866	5.96
451.069	5.81
451.273	5.67
451.477	5.56
451.681	5.38
451.885	5.32
452.089	5.42
452.292	5.5
452.496	5.47
452.7	5.31
452.904	5.47
453.107	5.49
453.311	5.5
453.515	5.57
453.719	5.58
453.922	5.6
454.126	5.58
454.33	5.62
454.533	5.56
454.737	5.6
454.94	5.55
455.144	5.59
455.348	5.56
455.551	5.54
455.755	5.49
455.958	5.53
456.162	5.49
456.365	5.57
456.569	5.34
456.772	5.39
456.976	5.38
457.179	5.39
457.383	5.33
457.586	5.43
457.79	5.41
457.993	5.47
458.196	5.34
458.4	5.4
458.603	5.39
458.807	5.49
459.01	5.56
459.213	5.46
459.417	5.45
459.62	5.47
459.823	5.36
460.026	5.37
460.23	5.35
460.433	5.44
460.636	5.51
460.839	5.55
461.042	5.6
461.246	5.58
461.449	5.57
461.652	5.6
461.855	5.46
462.058	5.54
462.261	5.42
462.464	5.45
462.668	5.59
462.871	5.53
463.074	5.52
463.277	5.23
463.48	5.27
