Data from LC_187_Reflection_1.txt Node
Date: Tue Nov 17 13:20:21 EST 2015
User: robert
Spectrometer: USB4E03001
Autoset integration time: false
Trigger mode: 4
Integration Time (sec): 1.000000E-1
Scans to average: 15
Electric dark correction enabled: true
Nonlinearity correction enabled: false
Boxcar width: 5
Stray light correction enabled: false
XAxis mode: Wavelengths
Stop averaging: false
Number of Pixels in Spectrum: 3648
>>>>>Begin Spectral Data<<<<<
177.566	120.28
177.785	240.6
178.005	-1077.61
178.225	359.53
178.445	-507.43
178.665	-84.76
178.885	-35.81
179.105	-165.75
179.324	495.72
179.544	696.14
179.764	163.37
179.984	113.79
180.204	176.9
180.423	380.07
180.643	561.44
180.863	-1831.8
181.083	-1732.91
181.302	353.63
181.522	191.01
181.742	522
181.961	6341.18
182.181	-342.41
182.401	-20.94
182.621	-128.66
182.84	-128.53
183.06	-365.04
183.279	396.69
183.499	-3206.72
183.719	-220.87
183.938	-89.61
184.158	-139.69
184.377	-167.56
184.597	-120.76
184.816	140.42
185.036	131.2
185.256	167.22
185.475	89.19
185.695	136.58
185.914	77.56
186.134	143.91
186.353	69.95
186.572	88.91
186.792	109.19
187.011	118.79
187.231	433.24
187.45	1566.53
187.67	296
187.889	345.49
188.108	222.39
188.328	254.15
188.547	217.87
188.766	-961.76
188.986	864.13
189.205	230.25
189.424	300
189.644	199.64
189.863	146.64
190.082	148.74
190.302	194.83
190.521	349.69
190.74	6707.14
190.959	909.12
191.178	220.46
191.398	168.24
191.617	472.57
191.836	293.36
192.055	233.86
192.274	-580.05
192.494	-351.79
192.713	-1053.84
192.932	-297.68
193.151	781.16
193.37	10555.56
193.589	-581450
193.808	16104.49
194.027	-2020.45
194.246	-831.53
194.465	3704.42
194.685	433.04
194.904	310.45
195.123	49429.17
195.342	1288.15
195.561	376.65
195.78	323.11
195.999	360.77
196.218	218.07
196.436	189.69
196.655	143.65
196.874	139
197.093	136.92
197.312	115.27
197.531	89.73
197.75	78.01
197.969	107.09
198.188	106.39
198.407	88.56
198.625	92.1
198.844	87.49
199.063	61.29
199.282	73.73
199.501	48.2
199.719	72.82
199.938	101.98
200.157	125.39
200.376	103.63
200.594	121.4
200.813	106.94
201.032	178.89
201.251	240.53
201.469	3688.85
201.688	1147.93
201.907	-6100.85
202.125	1784.44
202.344	1752.75
202.563	1546.14
202.781	1013.82
203	-1231.66
203.218	-246.41
203.437	-333.34
203.656	-152.59
203.874	-409.09
204.093	-772.35
204.311	-633.23
204.53	15147.37
204.748	-561.76
204.967	2687.64
205.185	562.1
205.404	236.43
205.622	212.53
205.841	171.05
206.059	210.05
206.278	161.28
206.496	135.59
206.715	118.98
206.933	101.03
207.151	71.89
207.37	49.42
207.588	49.93
207.806	56.58
208.025	94.5
208.243	97.51
208.461	90.94
208.68	158.66
208.898	-209.05
209.116	-375.9
209.335	930.69
209.553	-736.09
209.771	345.96
209.989	156.55
210.208	163.31
210.426	122.71
210.644	146.26
210.862	119.74
211.081	62.25
211.299	46.42
211.517	64.4
211.735	62.76
211.953	86.33
212.171	100.19
212.39	235.54
212.608	218.31
212.826	305.61
213.044	267.55
213.262	270.85
213.48	-14446.27
213.698	-755.49
213.916	388.58
214.134	-837.63
214.352	-191.74
214.57	-257.05
214.788	2880.55
215.006	1161.73
215.224	1101.31
215.442	697.71
215.66	727.73
215.878	440.82
216.096	203.13
216.314	219.93
216.532	137.36
216.75	117.25
216.968	111.85
217.185	123.88
217.403	113.14
217.621	107.61
217.839	123.5
218.057	131.55
218.275	147.05
218.492	163.18
218.71	153.99
218.928	178.92
219.146	190.62
219.363	180.54
219.581	138.68
219.799	172.77
220.017	199.62
220.234	186.47
220.452	140.96
220.67	124.07
220.887	138.25
221.105	163.74
221.323	149.2
221.54	139.75
221.758	139.28
221.976	144.26
222.193	122.53
222.411	94.41
222.629	97.45
222.846	106.54
223.064	95.58
223.281	97.34
223.499	85.8
223.716	100.94
223.934	86.33
224.151	75.31
224.369	51.22
224.586	50.07
224.804	83.25
225.021	89.13
225.239	85.63
225.456	76.43
225.674	63.7
225.891	66.07
226.108	54.18
226.326	57.71
226.543	58.88
226.76	65.95
226.978	59.26
227.195	51.37
227.413	41.2
227.63	40.35
227.847	45.07
228.064	41.14
228.282	35.62
228.499	38.33
228.716	36.55
228.934	39.71
229.151	40.08
229.368	37.55
229.585	37.09
229.802	38.3
230.02	38.5
230.237	39.73
230.454	41.12
230.671	44.07
230.888	40.76
231.105	42.12
231.323	40.85
231.54	39.46
231.757	43.95
231.974	42.62
232.191	39.75
232.408	36.76
232.625	29.35
232.842	31.67
233.059	32.2
233.276	34.8
233.493	33.37
233.71	32.72
233.927	32.03
234.144	29.99
234.361	31.08
234.578	36.34
234.795	35.12
235.012	38.04
235.229	37.52
235.446	33.18
235.663	40.68
235.879	41.85
236.096	40.88
236.313	39.96
236.53	41.08
236.747	34.88
236.964	32.62
237.181	42.87
237.397	40.23
237.614	45.3
237.831	51.15
238.048	44.57
238.264	45.51
238.481	43.49
238.698	40.49
238.915	40.17
239.131	47.18
239.348	48.33
239.565	39.97
239.781	44.39
239.998	41.84
240.215	38.8
240.431	34.94
240.648	31.2
240.865	32.44
241.081	32.46
241.298	30.81
241.514	28.28
241.731	26.51
241.947	25.5
242.164	22.19
242.38	19.09
242.597	19.06
242.814	19.27
243.03	18.28
243.246	16.49
243.463	15.52
243.679	15.52
243.896	13.71
244.112	12.6
244.329	12.48
244.545	12.88
244.762	14.09
244.978	12.3
245.194	12.86
245.411	15.15
245.627	16.49
245.843	16.15
246.06	15.45
246.276	14.28
246.492	14.33
246.709	15.47
246.925	16.22
247.141	17.18
247.357	17.53
247.574	18.05
247.79	16.82
248.006	16.9
248.222	17.91
248.439	18.24
248.655	19.09
248.871	19.82
249.087	19.49
249.303	19.6
249.519	18.99
249.736	19.79
249.952	19.1
250.168	22.18
250.384	21.39
250.6	21.87
250.816	20.89
251.032	19.86
251.248	19.32
251.464	18.88
251.68	19.35
251.896	18.53
252.112	14.71
252.328	15.87
252.544	13.9
252.76	14.32
252.976	13.99
253.192	13.84
253.408	15.48
253.624	16.9
253.84	17.19
254.056	16.05
254.272	16.67
254.487	19.28
254.703	19.79
254.919	21.29
255.135	22.83
255.351	22.64
255.567	22.82
255.782	20.6
255.998	17.7
256.214	16.94
256.43	16.84
256.646	16.82
256.861	16.29
257.077	16.3
257.293	16.9
257.508	15.74
257.724	16.77
257.94	16.58
258.155	17.16
258.371	17.04
258.587	15.8
258.802	14.94
259.018	14.19
259.234	15.1
259.449	15.06
259.665	14.38
259.88	13.98
260.096	13.83
260.312	14.21
260.527	13.95
260.743	14.12
260.958	14.29
261.174	14.87
261.389	14.84
261.605	14.21
261.82	13.88
262.036	13.85
262.251	13.13
262.466	11.45
262.682	12.26
262.897	12.98
263.113	11.89
263.328	11.81
263.543	10.93
263.759	10.88
263.974	11.62
264.189	11.85
264.405	12.38
264.62	14.94
264.835	17.72
265.051	15.83
265.266	15.07
265.481	17
265.696	18.44
265.912	20.79
266.127	19.49
266.342	16.59
266.557	14.3
266.773	14.66
266.988	13.95
267.203	12.91
267.418	14.02
267.633	14.36
267.848	13.09
268.064	11.41
268.279	10.1
268.494	10.89
268.709	12.98
268.924	14.33
269.139	13.85
269.354	15.58
269.569	15.32
269.784	14.2
269.999	13.93
270.214	12.98
270.429	14.56
270.644	12.61
270.859	12.94
271.074	13.45
271.289	14.08
271.504	13.23
271.719	11.93
271.934	11.91
272.149	11.47
272.363	13.23
272.578	14.24
272.793	13.73
273.008	15.35
273.223	15.85
273.438	14.56
273.653	13.22
273.867	14.73
274.082	14.52
274.297	15.27
274.512	16.42
274.726	14.12
274.941	12.92
275.156	13.62
275.371	12.61
275.585	12.4
275.8	13.68
276.015	14.75
276.229	13.99
276.444	12.8
276.659	12.75
276.873	12.68
277.088	13.2
277.302	14.09
277.517	12.9
277.732	12.76
277.946	12.44
278.161	13.08
278.375	13.9
278.59	13.87
278.804	14.76
279.019	14.05
279.233	13.06
279.448	13.76
279.662	15.56
279.877	15.61
280.091	16.41
280.306	17.1
280.52	16.72
280.735	16.74
280.949	16.26
281.163	15.95
281.378	17.36
281.592	18.08
281.806	16.76
282.021	15.83
282.235	16.36
282.449	15.55
282.664	15.29
282.878	16.21
283.092	15.53
283.307	16.3
283.521	16.66
283.735	15.21
283.949	14.28
284.164	14.48
284.378	13.49
284.592	13.64
284.806	14.31
285.02	12.93
285.234	11.4
285.449	11.32
285.663	10.83
285.877	11.41
286.091	11.18
286.305	11.07
286.519	11.31
286.733	12.25
286.947	11.73
287.161	11.8
287.375	12.48
287.589	12.55
287.803	13.13
288.017	13.52
288.231	13.04
288.445	14.17
288.659	13.96
288.873	13.56
289.087	13.77
289.301	14.4
289.515	14.5
289.729	15.41
289.943	15.35
290.157	14.11
290.371	13.49
290.584	13.44
290.798	12.93
291.012	14.07
291.226	14.85
291.44	13.42
291.654	13.75
291.867	12.84
292.081	12.32
292.295	12.49
292.509	12.31
292.722	12.55
292.936	12.72
293.15	13.31
293.364	12.21
293.577	12.72
293.791	12.31
294.005	11.11
294.218	11.88
294.432	12.13
294.645	12.58
294.859	13.68
295.073	14.01
295.286	12.96
295.5	12.16
295.713	12.59
295.927	11.54
296.14	12.63
296.354	12.77
296.568	13.08
296.781	12.8
296.994	12.58
297.208	12.47
297.421	12.42
297.635	13.07
297.848	13.57
298.062	13.86
298.275	13.93
298.489	13.87
298.702	13.85
298.915	13.61
299.129	13.07
299.342	13.02
299.555	12.83
299.769	12.75
299.982	12.69
300.195	12
300.409	11.04
300.622	10.66
300.835	11.28
301.048	11.41
301.262	11.28
301.475	11.85
301.688	11.64
301.901	11.64
302.115	12.53
302.328	12.25
302.541	12.5
302.754	13.25
302.967	13.71
303.18	13.28
303.393	13.17
303.607	13.73
303.82	14.27
304.033	13.89
304.246	14.28
304.459	13.66
304.672	14.34
304.885	14.64
305.098	14.15
305.311	15.23
305.524	15.54
305.737	16.11
305.95	16.34
306.163	15.05
306.376	15.33
306.589	14.64
306.802	13.93
307.015	12.71
307.228	13.91
307.44	14.83
307.653	13.8
307.866	13.05
308.079	12.21
308.292	11.68
308.505	12.42
308.718	13.46
308.93	13.8
309.143	14.6
309.356	14.25
309.569	13.9
309.781	13.74
309.994	12.86
310.207	12.75
310.42	11.57
310.632	10.94
310.845	11.13
311.058	9.66
311.27	9.15
311.483	8.35
311.696	9.1
311.908	8.24
312.121	8.04
312.333	8.47
312.546	8.77
312.759	10.22
312.971	10.81
313.184	11.83
313.396	12.23
313.609	12.95
313.821	13.5
314.034	14.3
314.246	15.35
314.459	15.53
314.671	15.94
314.884	15.9
315.096	16.84
315.309	16.36
315.521	15.04
315.733	16.05
315.946	15.68
316.158	16.48
316.371	15.73
316.583	16.03
316.795	16.05
317.008	15.17
317.22	13.93
317.432	13.68
317.644	13.21
317.857	13.29
318.069	13.69
318.281	13.63
318.494	13.09
318.706	13.37
318.918	12.48
319.13	13.49
319.342	14.55
319.555	14.74
319.767	14.66
319.979	15.35
320.191	15.65
320.403	15.51
320.615	15.79
320.827	15.01
321.039	15.23
321.252	14.54
321.464	13.86
321.676	14.85
321.888	15.66
322.1	15.78
322.312	15.34
322.524	14.76
322.736	14.72
322.948	14.35
323.16	15.29
323.372	14.21
323.584	15.53
323.796	16.42
324.007	15.72
324.219	16.8
324.431	16.85
324.643	17.65
324.855	18.38
325.067	18.52
325.279	18.96
325.491	19.15
325.702	20.34
325.914	19.71
326.126	18.57
326.338	19.24
326.55	17.09
326.761	16.41
326.973	15.18
327.185	14.87
327.396	14.12
327.608	13.84
327.82	13.12
328.032	13.08
328.243	12.17
328.455	11.98
328.666	11.29
328.878	12.48
329.09	12.7
329.301	13.63
329.513	13.51
329.725	13.25
329.936	14.02
330.148	15.39
330.359	14.93
330.571	15.64
330.782	15.6
330.994	16.02
331.205	15.84
331.417	15.68
331.628	15.75
331.84	17.28
332.051	17.76
332.262	16.76
332.474	15.62
332.685	15.55
332.897	15.57
333.108	16.14
333.319	14.73
333.531	14.24
333.742	13.62
333.953	13.04
334.165	11.17
334.376	11.56
334.587	11.84
334.799	11.91
335.01	11.85
335.221	11.37
335.432	9.89
335.644	10.64
335.855	11.19
336.066	11.87
336.277	12.11
336.488	12.1
336.7	11.53
336.911	11.42
337.122	10.83
337.333	10.77
337.544	11.23
337.755	12.13
337.966	11.8
338.177	11.94
338.388	11.34
338.599	11.33
338.811	11.24
339.022	11.08
339.233	9.77
339.444	9.27
339.655	10.12
339.866	10.38
340.076	9.89
340.287	10.36
340.498	10.16
340.709	11.72
340.92	11.76
341.131	11.21
341.342	11.71
341.553	12.67
341.764	13.54
341.975	12.56
342.185	12.54
342.396	12.41
342.607	12.73
342.818	13.08
343.029	11.8
343.239	12.1
343.45	13.06
343.661	12.98
343.872	13.52
344.082	13.14
344.293	13.73
344.504	13.13
344.714	13.52
344.925	12.68
345.136	12.47
345.346	12.55
345.557	11.78
345.768	11.87
345.978	11.73
346.189	11.9
346.399	12.46
346.61	12.42
346.821	12.28
347.031	12.39
347.242	11.76
347.452	11.96
347.663	11.92
347.873	12.5
348.084	10.99
348.294	11.2
348.504	10.52
348.715	10.56
348.925	10.46
349.136	10.58
349.346	10.74
349.557	11.67
349.767	11.17
349.977	10.67
350.188	10.58
350.398	11.28
350.608	11.09
350.819	11.18
351.029	10.82
351.239	11.03
351.449	11.08
351.66	11.63
351.87	11.99
352.08	12.3
352.29	12.93
352.501	12.55
352.711	13.25
352.921	12.94
353.131	13.01
353.341	12.87
353.552	11.77
353.762	11.57
353.972	10.35
354.182	11.05
354.392	11.22
354.602	11.25
354.812	11.43
355.022	11.3
355.232	10.79
355.442	10.56
355.652	10.65
355.862	10.91
356.072	11.46
356.282	11.62
356.492	10.34
356.702	10.34
356.912	9.97
357.122	10.04
357.332	9.91
357.542	10.43
357.752	10.3
357.962	9.97
358.171	10.08
358.381	9.62
358.591	8.88
358.801	9.05
359.011	8.62
359.221	9.34
359.43	9.1
359.64	8.79
359.85	8.73
360.06	8.8
360.269	8.7
360.479	8.34
360.689	8.38
360.899	9
361.108	8.83
361.318	8.67
361.528	8.1
361.737	8.43
361.947	8.7
362.156	8.99
362.366	8.98
362.576	9.15
362.785	9.4
362.995	9.55
363.204	9.27
363.414	9.19
363.623	9.19
363.833	9.43
364.042	9.05
364.252	8.49
364.461	7.95
364.671	8.18
364.88	8
365.09	8.03
365.299	7.65
365.509	7.67
365.718	8.57
365.927	8.31
366.137	8.3
366.346	8.83
366.555	9.13
366.765	9.31
366.974	9.22
367.183	9.68
367.393	9.32
367.602	9.21
367.811	9.14
368.021	8.36
368.23	9.69
368.439	10.27
368.648	9.88
368.857	9.47
369.067	9.78
369.276	9.68
369.485	9.93
369.694	10.08
369.903	10.38
370.112	10.76
370.321	11.15
370.531	9.97
370.74	8.97
370.949	8.52
371.158	9.49
371.367	8.58
371.576	8.78
371.785	8.7
371.994	8.84
372.203	8.82
372.412	8.62
372.621	8.19
372.83	8.42
373.039	8.85
373.248	9.38
373.457	9.08
373.666	9.99
373.874	9.56
374.083	9.09
374.292	9.26
374.501	9.33
374.71	9.57
374.919	9.73
375.128	9.52
375.336	9.3
375.545	9.27
375.754	8.67
375.963	7.69
376.171	8.07
376.38	8.64
376.589	8.54
376.798	8.32
377.006	7.98
377.215	8.24
377.424	8.32
377.632	8.22
377.841	8.3
378.05	8.95
378.258	9.37
378.467	9.14
378.675	8.39
378.884	8.48
379.093	8.8
379.301	9.33
379.51	9.01
379.718	8.84
379.927	8.69
380.135	8.32
380.344	8.29
380.552	8.42
380.761	8.55
380.969	9
381.177	8.94
381.386	8.13
381.594	7.73
381.803	7.63
382.011	7.46
382.219	7.64
382.428	8.03
382.636	7.86
382.845	7.65
383.053	7.47
383.261	7.06
383.469	7.09
383.678	7.88
383.886	7.65
384.094	7.32
384.302	7.36
384.511	7.35
384.719	7.19
384.927	7.17
385.135	7.43
385.343	7.48
385.552	7.45
385.76	7.58
385.968	7.26
386.176	7.6
386.384	8.11
386.592	8.27
386.8	8.4
387.008	8.26
387.216	8.31
387.424	7.74
387.633	7.61
387.841	7.92
388.049	7.88
388.257	7.8
388.465	7.94
388.672	7.69
388.88	7.57
389.088	7.7
389.296	7.88
389.504	8.07
389.712	8.28
389.92	8.48
390.128	8.4
390.336	8.07
390.544	8
390.751	7.76
390.959	7.71
391.167	7.87
391.375	7.56
391.583	6.99
391.79	6.48
391.998	6.61
392.206	6.64
392.414	6.44
392.621	6.52
392.829	6.7
393.037	6.65
393.244	6.72
393.452	6.65
393.66	6.49
393.867	6.95
394.075	7.22
394.283	7.36
394.49	7.18
394.698	7.31
394.905	7.15
395.113	7.05
395.32	7.07
395.528	7.06
395.735	7.22
395.943	7.14
396.15	7.05
396.358	6.99
396.565	6.65
396.773	6.58
396.98	6.6
397.188	6.76
397.395	6.69
397.602	6.65
397.81	6.92
398.017	6.8
398.225	7.31
398.432	7.35
398.639	7.44
398.847	8.03
399.054	7.82
399.261	7.88
399.468	7.58
399.676	7.61
399.883	7.66
400.09	7.29
400.297	7.42
400.505	7.09
400.712	7.05
400.919	7.02
401.126	6.51
401.333	6.79
401.54	6.8
401.748	6.92
401.955	7.12
402.162	7.26
402.369	7.36
402.576	7.18
402.783	7.03
402.99	6.97
403.197	6.99
403.404	6.84
403.611	6.59
403.818	6.35
404.025	6.14
404.232	5.72
404.439	5.53
404.646	5.75
404.853	5.76
405.06	5.91
405.267	5.75
405.474	5.33
405.681	5.41
405.887	5.8
406.094	6.06
406.301	6.19
406.508	6.33
406.715	6.19
406.922	5.94
407.128	6.04
407.335	5.92
407.542	6.18
407.749	6.48
407.955	6.6
408.162	6.43
408.369	6.3
408.575	6.59
408.782	6.78
408.989	7.1
409.195	7.36
409.402	7.17
409.609	7.19
409.815	7.06
410.022	7.07
410.228	6.76
410.435	6.69
410.642	6.41
410.848	6.34
411.055	6.33
411.261	5.98
411.468	5.92
411.674	5.85
411.881	5.89
412.087	6.09
412.294	6.24
412.5	6.56
412.706	6.52
412.913	6.64
413.119	6.76
413.326	6.67
413.532	6.85
413.738	6.56
413.945	6.45
414.151	6.44
414.357	6.3
414.564	6.11
414.77	6.13
414.976	6.4
415.182	6.45
415.389	5.95
415.595	5.96
415.801	5.99
416.007	6.19
416.214	6.45
416.42	6.46
416.626	6.43
416.832	6.34
417.038	6.38
417.244	6.07
417.45	6.25
417.657	6.37
417.863	6.32
418.069	5.99
418.275	5.75
418.481	5.69
418.687	5.67
418.893	5.66
419.099	5.66
419.305	5.58
419.511	5.71
419.717	5.5
419.923	5.58
420.129	5.56
420.335	5.72
420.541	5.61
420.746	5.55
420.952	5.43
421.158	5.37
421.364	5.35
421.57	5.31
421.776	5.16
421.982	5.15
422.187	5.07
422.393	5.01
422.599	4.98
422.805	5.02
423.01	4.99
423.216	5.03
423.422	5.13
423.628	5.17
423.833	5.14
424.039	5.08
424.245	5.05
424.45	5.11
424.656	5.13
424.862	5.1
425.067	5.09
425.273	5.19
425.478	5.31
425.684	5.06
425.889	5.12
426.095	5.09
426.301	5.16
426.506	5.38
426.712	5.38
426.917	5.39
427.123	5.59
427.328	5.72
427.533	5.75
427.739	5.74
427.944	5.95
428.15	5.78
428.355	5.92
428.561	5.91
428.766	5.45
428.971	5.54
429.177	5.73
429.382	5.73
429.587	5.74
429.793	5.75
429.998	5.55
430.203	5.54
430.408	5.51
430.614	5.44
430.819	5.58
431.024	5.88
431.229	5.72
431.434	5.61
431.64	5.55
431.845	5.53
432.05	5.47
432.255	5.69
432.46	5.75
432.665	5.85
432.87	5.84
433.076	5.64
433.281	5.56
433.486	5.49
433.691	5.62
433.896	5.54
434.101	5.63
434.306	5.72
434.511	5.66
434.716	5.62
434.921	5.56
435.126	5.55
435.331	5.72
435.535	5.76
435.74	5.77
435.945	5.55
436.15	5.47
436.355	5.38
436.56	5.29
436.765	5.33
436.97	5.24
437.174	5.15
437.379	5.01
437.584	4.9
437.789	4.77
437.993	4.76
438.198	4.81
438.403	5.03
438.608	5
438.812	4.78
439.017	4.57
439.222	4.48
439.426	4.58
439.631	4.66
439.836	4.68
440.04	4.68
440.245	4.74
440.45	4.63
440.654	4.45
440.859	4.37
441.063	4.51
441.268	4.51
441.472	4.66
441.677	4.71
441.881	4.83
442.086	5
442.29	5.1
442.495	5.21
442.699	5.3
442.904	5.42
443.108	5.43
443.312	5.49
443.517	5.51
443.721	5.5
443.925	5.41
444.13	5.14
444.334	4.92
444.538	4.93
444.743	4.7
444.947	4.78
445.151	4.58
445.356	4.65
445.56	4.56
445.764	4.7
445.968	4.67
446.173	4.68
446.377	4.77
446.581	4.86
446.785	4.75
446.989	4.78
447.193	4.82
447.398	4.98
447.602	5.08
447.806	5.14
448.01	5.03
448.214	5.02
448.418	4.95
448.622	4.86
448.826	4.84
449.03	4.96
449.234	5
449.438	4.85
449.642	4.92
449.846	4.66
450.05	4.54
450.254	4.47
450.458	4.28
450.662	4.26
450.866	4.42
451.069	4.42
451.273	4.2
451.477	4.25
451.681	4.34
451.885	4.21
452.089	4.31
452.292	4.37
452.496	4.4
452.7	4.62
452.904	4.65
453.107	4.77
453.311	4.68
453.515	4.84
453.719	4.88
453.922	4.78
454.126	4.8
454.33	4.95
454.533	4.93
454.737	5.02
454.94	4.75
455.144	4.81
455.348	4.67
455.551	4.63
455.755	4.65
455.958	4.61
456.162	4.53
456.365	4.44
456.569	4.31
456.772	4.54
456.976	4.45
457.179	4.72
457.383	4.68
457.586	4.76
457.79	4.86
457.993	5.01
458.196	4.97
458.4	5.16
458.603	5.41
458.807	5.29
459.01	5.22
459.213	5.26
459.417	5.13
459.62	5.21
459.823	5.11
460.026	5.05
460.23	5.01
460.433	5.03
460.636	4.92
460.839	4.86
461.042	4.92
