Data from LC_160_Reflection_3.txt Node
Date: Mon Nov 16 22:35:08 EST 2015
User: robert
Spectrometer: USB4E03001
Autoset integration time: false
Trigger mode: 4
Integration Time (sec): 1.000000E-1
Scans to average: 15
Electric dark correction enabled: true
Nonlinearity correction enabled: false
Boxcar width: 5
Stray light correction enabled: false
XAxis mode: Wavelengths
Stop averaging: false
Number of Pixels in Spectrum: 3648
>>>>>Begin Spectral Data<<<<<
177.566	5810.84
177.785	469.9
178.005	-4839.5
178.225	247.7
178.445	362.3
178.665	-66.78
178.885	451.54
179.105	1883.18
179.324	2168.69
179.544	-197.4
179.764	-1183.89
179.984	-451.31
180.204	-443.67
180.423	-483.19
180.643	-521.42
180.863	-409.27
181.083	-318.43
181.302	-395.98
181.522	-300.38
181.742	-268.93
181.961	-459.14
182.181	-416.21
182.401	-610.56
182.621	-2437.85
182.84	-1091.3
183.06	-793.95
183.279	-459.68
183.499	-338.37
183.719	-289.34
183.938	-279.12
184.158	-343.9
184.377	-229.58
184.597	-271.78
184.816	-149.72
185.036	-89.05
185.256	-57.62
185.475	-66.12
185.695	-82.04
185.914	-132.77
186.134	-270.85
186.353	-328.69
186.572	-427.73
186.792	-714.57
187.011	-289.71
187.231	-321.34
187.45	-218.67
187.67	-710.05
187.889	-1906.13
188.108	3784.81
188.328	-960.94
188.547	-306.94
188.766	-719.62
188.986	-875.6
189.205	-597.04
189.424	-446.41
189.644	-1095.25
189.863	-1307.33
190.082	-902.45
190.302	-1959.09
190.521	-1079.77
190.74	990.3
190.959	458.48
191.178	568.89
191.398	552.88
191.617	520.08
191.836	424.29
192.055	1266.48
192.274	476.87
192.494	441.58
192.713	482.3
192.932	994.24
193.151	855
193.37	1566.27
193.589	-998.57
193.808	-243.09
194.027	-302.34
194.246	-3594.97
194.465	593.1
194.685	1381.25
194.904	739.44
195.123	-829.42
195.342	-524.95
195.561	-261.6
195.78	-449.58
195.999	17723.94
196.218	733.08
196.436	697.12
196.655	-2532.64
196.874	-959.5
197.093	-1467.19
197.312	-1124.67
197.531	2903.99
197.75	971.02
197.969	-3291.49
198.188	-646.19
198.407	-178.93
198.625	-209.2
198.844	-161.97
199.063	-146.34
199.282	-315.85
199.501	-225.5
199.719	-172.15
199.938	-125.35
200.157	-133.46
200.376	-136.68
200.594	-213.53
200.813	-490.64
201.032	-328.92
201.251	-273.65
201.469	-248.28
201.688	-191.96
201.907	-319.73
202.125	-486.51
202.344	18880.95
202.563	3469.2
202.781	530.41
203	1491.9
203.218	994.06
203.437	932.01
203.656	517.11
203.874	294.44
204.093	254.31
204.311	329.28
204.53	316.45
204.748	477.62
204.967	259.42
205.185	277.38
205.404	320.5
205.622	249.21
205.841	179.21
206.059	198.76
206.278	263.16
206.496	652.85
206.715	310.1
206.933	271.12
207.151	205.91
207.37	256.89
207.588	248.56
207.806	189.54
208.025	315.08
208.243	-600.99
208.461	989.09
208.68	-6882.35
208.898	435
209.116	483.81
209.335	554.05
209.553	579.73
209.771	5790.42
209.989	1272.96
210.208	2950.95
210.426	-5324.23
210.644	2961.59
210.862	-2540.25
211.081	1337.83
211.299	-566.64
211.517	2623.55
211.735	-591.14
211.953	-211714.29
212.171	-4087.95
212.39	-11500.9
212.608	-32358.7
212.826	1083.81
213.044	742.96
213.262	533.27
213.48	3134.81
213.698	358.27
213.916	427.41
214.134	282.69
214.352	496.45
214.57	294.77
214.788	366.52
215.006	317.57
215.224	292.9
215.442	242.72
215.66	237.93
215.878	195.17
216.096	223.11
216.314	257.95
216.532	491.41
216.75	445.36
216.968	458.48
217.185	1107.34
217.403	1935.71
217.621	-6072.81
217.839	-1718.63
218.057	-2157.56
218.275	3838.57
218.492	1098.82
218.71	1752.75
218.928	486.46
219.146	420.35
219.363	328.47
219.581	230.86
219.799	163.18
220.017	157.1
220.234	156.18
220.452	135.99
220.67	132.66
220.887	157.12
221.105	194.92
221.323	164.88
221.54	161.98
221.758	222.07
221.976	260.18
222.193	255.04
222.411	165.71
222.629	157.25
222.846	181.92
223.064	217.35
223.281	180.84
223.499	164.89
223.716	168.6
223.934	140.53
224.151	130.43
224.369	117.94
224.586	117.9
224.804	120.97
225.021	116.88
225.239	88.05
225.456	69.03
225.674	75.05
225.891	61.76
226.108	80.77
226.326	81.12
226.543	74.06
226.76	62.9
226.978	62.88
227.195	70.29
227.413	56.62
227.63	51.55
227.847	43.38
228.064	35.17
228.282	31.78
228.499	25.66
228.716	23.29
228.934	20.36
229.151	23.86
229.368	21.94
229.585	18.19
229.802	20.5
230.02	18.44
230.237	20.97
230.454	22.4
230.671	21.29
230.888	20.71
231.105	23.15
231.323	24.22
231.54	21.17
231.757	21.5
231.974	19.82
232.191	19.72
232.408	26.53
232.625	25.24
232.842	23.33
233.059	32.27
233.276	29.49
233.493	28.42
233.71	26.33
233.927	30.05
234.144	31
234.361	29.89
234.578	30
234.795	25.74
235.012	24.55
235.229	27.42
235.446	23.56
235.663	24.82
235.879	24.42
236.096	21.68
236.313	21.1
236.53	21.82
236.747	30.38
236.964	27.97
237.181	28.73
237.397	29.39
237.614	29.09
237.831	28.17
238.048	31.94
238.264	34.4
238.481	36.2
238.698	33.74
238.915	29.9
239.131	23.28
239.348	27.3
239.565	30.31
239.781	31.05
239.998	28.21
240.215	28.29
240.431	27.91
240.648	24.08
240.865	23.51
241.081	22.73
241.298	23.78
241.514	25.04
241.731	21.28
241.947	21.19
242.164	19.43
242.38	19.97
242.597	19.66
242.814	19.42
243.03	19.02
243.246	19.99
243.463	21.08
243.679	20.73
243.896	17.98
244.112	19.72
244.329	17.66
244.545	17.78
244.762	16.18
244.978	17.6
245.194	16.26
245.411	16.56
245.627	15.36
245.843	14.02
246.06	14.18
246.276	15.67
246.492	15.13
246.709	15.55
246.925	15.38
247.141	15.61
247.357	14.26
247.574	13.95
247.79	13.59
248.006	13.07
248.222	12.71
248.439	12.8
248.655	13.26
248.871	14.08
249.087	14.33
249.303	13.26
249.519	13.54
249.736	15.43
249.952	15.1
250.168	16.79
250.384	16.64
250.6	17.84
250.816	16.69
251.032	14.56
251.248	12.78
251.464	11.99
251.68	14.68
251.896	13.62
252.112	13.01
252.328	14.88
252.544	16
252.76	18.92
252.976	18.83
253.192	20.43
253.408	20.68
253.624	23.69
253.84	24.29
254.056	27.02
254.272	28.64
254.487	30.43
254.703	29.01
254.919	27.93
255.135	24.99
255.351	25.78
255.567	27.56
255.782	30.8
255.998	27.38
256.214	28.45
256.43	23.35
256.646	25.04
256.861	23.68
257.077	24.01
257.293	22.99
257.508	23.43
257.724	23.42
257.94	20.64
258.155	17
258.371	15.01
258.587	13.67
258.802	13.47
259.018	12.99
259.234	12.06
259.449	12.81
259.665	11.76
259.88	12.34
260.096	11.98
260.312	11.41
260.527	12.19
260.743	12.93
260.958	13.34
261.174	13.62
261.389	13.88
261.605	14.17
261.82	13.55
262.036	15.19
262.251	15.95
262.466	15.43
262.682	17.52
262.897	18.17
263.113	18.22
263.328	18.16
263.543	17.75
263.759	16.73
263.974	17.36
264.189	17.64
264.405	17.61
264.62	16.57
264.835	17.3
265.051	15.62
265.266	15.97
265.481	16.27
265.696	18.05
265.912	18.77
266.127	18.02
266.342	17.11
266.557	17.89
266.773	17.56
266.988	16.93
267.203	17.68
267.418	16.49
267.633	14.8
267.848	16.33
268.064	14.83
268.279	14.08
268.494	13.47
268.709	13.78
268.924	13.26
269.139	12.95
269.354	12.45
269.569	11.21
269.784	13.12
269.999	14.24
270.214	12.2
270.429	11.39
270.644	11.21
270.859	10.98
271.074	12.08
271.289	12.26
271.504	12.38
271.719	12.77
271.934	13.15
272.149	11.71
272.363	11.48
272.578	10.47
272.793	11.01
273.008	10.55
273.223	11.26
273.438	9.03
273.653	9.61
273.867	9.35
274.082	8.32
274.297	8.87
274.512	10.09
274.726	10.02
274.941	12.03
275.156	10.72
275.371	12.17
275.585	11.65
275.8	13.78
276.015	13.13
276.229	13.43
276.444	14.83
276.659	13.94
276.873	13.48
277.088	13.73
277.302	13.28
277.517	15.65
277.732	15.96
277.946	16.98
278.161	16.93
278.375	16.5
278.59	15.64
278.804	15.02
279.019	15.43
279.233	15.22
279.448	15.79
279.662	15.02
279.877	14.61
280.091	13.39
280.306	12.19
280.52	12.45
280.735	10.13
280.949	11.01
281.163	11.48
281.378	11.96
281.592	11.49
281.806	11.97
282.021	11.14
282.235	11.66
282.449	12.45
282.664	12.88
282.878	12.02
283.092	14.44
283.307	14.51
283.521	14.88
283.735	14.9
283.949	15.74
284.164	14.54
284.378	15.61
284.592	14.66
284.806	14.24
285.02	14.03
285.234	13.9
285.449	13.1
285.663	12.69
285.877	11.43
286.091	10.88
286.305	10.17
286.519	9.42
286.733	8.49
286.947	8.77
287.161	8.41
287.375	8.77
287.589	9.03
287.803	9.8
288.017	10.17
288.231	10.6
288.445	9.78
288.659	10.58
288.873	10.65
289.087	10.59
289.301	10.19
289.515	9.87
289.729	9.93
289.943	9.38
290.157	9.3
290.371	10.02
290.584	10.41
290.798	11.44
291.012	12.25
291.226	12.76
291.44	13.7
291.654	14.14
291.867	15.25
292.081	15.17
292.295	16.54
292.509	16.45
292.722	15.56
292.936	15.41
293.15	15.31
293.364	14.84
293.577	14.78
293.791	14.05
294.005	15.41
294.218	14.5
294.432	14.35
294.645	13.48
294.859	12.79
295.073	12.34
295.286	12.83
295.5	11.86
295.713	10.9
295.927	10.6
296.14	11
296.354	9.12
296.568	9.33
296.781	8.83
296.994	8.74
297.208	8.71
297.421	8.94
297.635	8.31
297.848	9.24
298.062	8.78
298.275	9.53
298.489	10.23
298.702	10.45
298.915	10.68
299.129	11.18
299.342	11.89
299.555	12.76
299.769	12.87
299.982	12.99
300.195	12.74
300.409	13.81
300.622	14.32
300.835	13.88
301.048	13.5
301.262	13.26
301.475	13.6
301.688	14.52
301.901	13.67
302.115	13.99
302.328	14.67
302.541	13.86
302.754	13.31
302.967	13.08
303.18	13.2
303.393	13.47
303.607	13.88
303.82	13.83
304.033	12.68
304.246	13.01
304.459	12.5
304.672	11.42
304.885	11.5
305.098	12.01
305.311	10.98
305.524	11.3
305.737	11.83
305.95	12.52
306.163	10.94
306.376	11.5
306.589	10.5
306.802	11.48
307.015	12.08
307.228	12.52
307.44	12.58
307.653	13.19
307.866	11.61
308.079	12.42
308.292	12.17
308.505	14.19
308.718	12.8
308.93	13.78
309.143	13.23
309.356	14.05
309.569	13.97
309.781	14.33
309.994	14.13
310.207	14.39
310.42	13.21
310.632	11.32
310.845	11.16
311.058	10.5
311.27	10.65
311.483	9.69
311.696	8.7
311.908	8.67
312.121	8.29
312.333	8.53
312.546	9.22
312.759	9.92
312.971	11.39
313.184	11.28
313.396	11.77
313.609	12.23
313.821	12.92
314.034	13.96
314.246	14.41
314.459	14.32
314.671	13.96
314.884	13.41
315.096	12.54
315.309	12.05
315.521	11.77
315.733	11.57
315.946	10.51
316.158	10.55
316.371	9.3
316.583	10.11
316.795	10.61
317.008	10.63
317.22	12.22
317.432	12.99
317.644	13.53
317.857	13.37
318.069	14.07
318.281	14.28
318.494	13.88
318.706	14.89
318.918	14.18
319.13	14.62
319.342	15.05
319.555	12.97
319.767	14.67
319.979	15.71
320.191	15.96
320.403	16.03
320.615	16.03
320.827	17.85
321.039	18.22
321.252	17.77
321.464	15.8
321.676	15.99
321.888	16.2
322.1	14.66
322.312	11.45
322.524	10.97
322.736	11.05
322.948	10.12
323.16	8.25
323.372	7.58
323.584	8.1
323.796	7.87
324.007	6.96
324.219	7.54
324.431	7.07
324.643	8.55
324.855	8.31
325.067	8.57
325.279	8.95
325.491	10.54
325.702	9.73
325.914	9.84
326.126	11.48
326.338	12.23
326.55	11.5
326.761	12.56
326.973	13.39
327.185	14.33
327.396	14.81
327.608	15.77
327.82	15.11
328.032	15.68
328.243	15.14
328.455	14.92
328.666	14.88
328.878	15.38
329.09	14.13
329.301	12.92
329.513	12.61
329.725	11.92
329.936	11.31
330.148	11.38
330.359	10.57
330.571	10.5
330.782	10.5
330.994	10.44
331.205	11.55
331.417	11.94
331.628	12.59
331.84	12.86
332.051	13.34
332.262	14.02
332.474	13.25
332.685	15.04
332.897	14.5
333.108	14.62
333.319	13.89
333.531	13.19
333.742	14.32
333.953	13.43
334.165	13.6
334.376	12.88
334.587	11.57
334.799	12.09
335.01	10.69
335.221	11.32
335.432	10.29
335.644	10.37
335.855	9.97
336.066	9.54
336.277	9.84
336.488	10.01
336.7	9.47
336.911	10.61
337.122	10.34
337.333	11.08
337.544	11.01
337.755	11.82
337.966	12.02
338.177	12.09
338.388	11.83
338.599	12.25
338.811	10.98
339.022	11.28
339.233	11.65
339.444	11.84
339.655	11.33
339.866	11.31
340.076	11.73
340.287	11.86
340.498	11.86
340.709	11.01
340.92	10.85
341.131	11.63
341.342	11.68
341.553	10.64
341.764	10.2
341.975	10.3
342.185	11.07
342.396	10.53
342.607	10.71
342.818	10.98
343.029	11.48
343.239	11.36
343.45	11.51
343.661	11.65
343.872	11.47
344.082	11.49
344.293	11.44
344.504	11.05
344.714	10.5
344.925	9.38
345.136	9.31
345.346	7.5
345.557	8.06
345.768	7.69
345.978	7.38
346.189	8.14
346.399	8.5
346.61	8.59
346.821	8.5
347.031	9.25
347.242	9.72
347.452	9.73
347.663	10.93
347.873	11.4
348.084	10.95
348.294	11.48
348.504	11
348.715	11.12
348.925	10.78
349.136	10.31
349.346	9.27
349.557	9.43
349.767	9.87
349.977	10.5
350.188	10.33
350.398	11.47
350.608	11.28
350.819	10.35
351.029	9.93
351.239	10.21
351.449	10.06
351.66	11.27
351.87	12.16
352.08	11.32
352.29	10.86
352.501	10.12
352.711	9.45
352.921	9.9
353.131	10.03
353.341	10.01
353.552	9.97
353.762	10.17
353.972	9.44
354.182	9.02
354.392	9.29
354.602	9.81
354.812	9.54
355.022	9.45
355.232	9.58
355.442	10.47
355.652	10.56
355.862	9.85
356.072	10.29
356.282	10.3
356.492	10.52
356.702	10.3
356.912	10.53
357.122	10.96
357.332	10.68
357.542	9.75
357.752	9.62
357.962	9.27
358.171	9.37
358.381	9.49
358.591	8.97
358.801	8.25
359.011	9.12
359.221	8.27
359.43	8.33
359.64	8.72
359.85	9.02
360.06	8.72
360.269	9.13
360.479	9.38
360.689	8.44
360.899	8.9
361.108	8.99
361.318	8.66
361.528	8.58
361.737	7.92
361.947	7.63
362.156	7.84
362.366	7.71
362.576	7.55
362.785	7.61
362.995	7.42
363.204	7.25
363.414	7.26
363.623	6.99
363.833	7.52
364.042	7.88
364.252	8.37
364.461	7.71
364.671	7.6
364.88	7.63
365.09	8.01
365.299	9.04
365.509	8.99
365.718	8.75
365.927	8.25
366.137	8.36
366.346	8.61
366.555	7.84
366.765	8.59
366.974	9.29
367.183	9.39
367.393	8.82
367.602	8
367.811	8.02
368.021	7.74
368.23	8.47
368.439	8.11
368.648	8.02
368.857	9.15
369.067	8.56
369.276	8.18
369.485	8.1
369.694	8.16
369.903	8.86
370.112	9.03
370.321	9.13
370.531	8.3
370.74	8.17
370.949	8.18
371.158	7.52
371.367	7.67
371.576	6.98
371.785	6.55
371.994	6.38
372.203	6.36
372.412	6.06
372.621	6.48
372.83	6.71
373.039	6.87
373.248	6.51
373.457	6.45
373.666	6.49
373.874	6.8
374.083	7.68
374.292	7.89
374.501	7.27
374.71	7.1
374.919	7.04
375.128	7.05
375.336	6.99
375.545	7.26
375.754	6.81
375.963	6.6
376.171	6.66
376.38	6.38
376.589	6.31
376.798	6.48
377.006	6.8
377.215	7.11
377.424	6.78
377.632	6.35
377.841	6.14
378.05	6.48
378.258	6.41
378.467	6.64
378.675	6.54
378.884	6.28
379.093	6.37
379.301	6.05
379.51	5.44
379.718	5.43
379.927	5.94
380.135	5.51
380.344	5.53
380.552	5.45
380.761	5.61
380.969	5.36
381.177	5.49
381.386	4.88
381.594	5.02
381.803	4.99
382.011	5.05
382.219	4.63
382.428	4.38
382.636	3.82
382.845	4.21
383.053	4.06
383.261	3.9
383.469	3.97
383.678	4.69
383.886	4.5
384.094	4.42
384.302	4.81
384.511	5.25
384.719	5.75
384.927	6.07
385.135	6.19
385.343	6.26
385.552	6.47
385.76	6.21
385.968	5.98
386.176	6.07
386.384	6.19
386.592	5.64
386.8	5.33
387.008	5.45
387.216	5.43
387.424	5.31
387.633	5.18
387.841	5.02
388.049	4.92
388.257	4.72
388.465	4.53
388.672	4.43
388.88	4.81
389.088	4.88
389.296	4.56
389.504	4.62
389.712	4.45
389.92	4.26
390.128	4.22
390.336	4.63
390.544	4.95
390.751	4.71
390.959	4.99
391.167	5.02
391.375	5.11
391.583	5.08
391.79	5
391.998	4.89
392.206	5
392.414	4.97
392.621	5.07
392.829	5.08
393.037	5.35
393.244	5.11
393.452	5.18
393.66	4.78
393.867	5.12
394.075	5.05
394.283	5.2
394.49	4.93
394.698	4.97
394.905	4.68
395.113	4.46
395.32	4.47
395.528	4.42
395.735	4.37
395.943	4.78
396.15	4.48
396.358	4.71
396.565	4.42
396.773	4.95
396.98	4.89
397.188	4.92
397.395	5.1
397.602	5.04
397.81	4.87
398.017	5
398.225	4.61
398.432	4.88
398.639	4.6
398.847	4.67
399.054	4.13
399.261	4.16
399.468	4.41
399.676	4.2
399.883	4.3
400.09	4.52
400.297	4.43
400.505	4.63
400.712	4.45
400.919	4.85
401.126	5
401.333	5.06
401.54	5.17
401.748	4.91
401.955	5.01
402.162	5.03
402.369	5.14
402.576	4.9
402.783	5.04
402.99	5.01
403.197	4.6
403.404	4.4
403.611	4.49
403.818	4.48
404.025	4.4
404.232	4.35
404.439	4.14
404.646	4.02
404.853	3.91
405.06	3.8
405.267	3.82
405.474	3.85
405.681	3.81
405.887	3.83
406.094	3.66
406.301	3.69
406.508	3.8
406.715	4.02
406.922	4.18
407.128	4.16
407.335	4.14
407.542	4.11
407.749	4.37
407.955	4.68
408.162	4.68
408.369	5.06
408.575	5.11
408.782	4.91
408.989	4.78
409.195	4.7
409.402	5.06
409.609	5.33
409.815	5.46
410.022	5.43
410.228	5.28
410.435	5.62
410.642	5.25
410.848	5.2
411.055	5.17
411.261	5.28
411.468	5.29
411.674	4.96
411.881	4.56
412.087	4.78
412.294	4.63
412.5	4.43
412.706	4.16
412.913	4.05
413.119	3.98
413.326	3.89
413.532	3.97
413.738	3.87
413.945	4.14
414.151	3.98
414.357	3.74
414.564	3.53
414.77	3.54
414.976	3.22
415.182	3.64
415.389	3.67
415.595	3.67
415.801	3.4
416.007	3.39
416.214	3.27
416.42	3.53
416.626	3.56
416.832	3.78
417.038	3.7
417.244	3.94
417.45	3.67
417.657	3.83
417.863	4.11
418.069	4.21
418.275	4.23
418.481	4.11
418.687	3.97
418.893	3.85
419.099	3.77
419.305	4.08
419.511	4.04
419.717	4.03
419.923	3.81
420.129	3.65
420.335	3.68
420.541	3.71
420.746	3.78
420.952	3.87
421.158	3.92
421.364	3.96
421.57	3.83
421.776	3.8
421.982	3.86
422.187	3.75
422.393	3.78
422.599	3.71
422.805	3.65
423.01	3.62
423.216	3.53
423.422	3.47
423.628	3.51
423.833	3.48
424.039	3.41
424.245	3.39
424.45	3.73
424.656	3.68
424.862	3.72
425.067	3.84
425.273	3.83
425.478	3.89
425.684	3.86
425.889	3.97
426.095	4.06
426.301	4.19
426.506	4.15
426.712	4.1
426.917	3.97
427.123	4.13
427.328	4.15
427.533	4.25
427.739	4.28
427.944	4.28
428.15	4.09
428.355	3.94
428.561	3.85
428.766	4
428.971	3.97
429.177	4.19
429.382	4.2
429.587	4.17
429.793	4.27
429.998	4.43
430.203	4.53
430.408	4.46
430.614	4.63
430.819	4.71
431.024	4.59
431.229	4.55
431.434	4.71
431.64	4.54
431.845	4.61
432.05	4.51
432.255	4.33
432.46	4.24
432.665	4.17
432.87	4.13
433.076	4.17
433.281	4.28
433.486	4.23
433.691	3.99
433.896	3.88
434.101	3.62
434.306	3.72
434.511	3.67
434.716	3.76
434.921	3.91
435.126	3.64
435.331	3.6
435.535	3.42
435.74	3.49
435.945	3.63
436.15	3.76
436.355	3.87
436.56	3.83
436.765	3.92
436.97	3.64
437.174	3.63
437.379	3.95
437.584	3.98
437.789	4.02
437.993	4.01
438.198	4.06
438.403	4.07
438.608	4.17
438.812	3.93
439.017	3.98
439.222	4.03
439.426	3.96
439.631	3.99
439.836	3.9
440.04	3.87
440.245	3.87
440.45	3.78
440.654	3.72
440.859	3.68
441.063	3.7
441.268	3.59
441.472	3.79
441.677	3.77
441.881	3.57
442.086	3.49
442.29	3.54
442.495	3.49
442.699	3.55
442.904	3.61
443.108	3.55
443.312	3.66
443.517	3.76
443.721	3.58
443.925	3.67
444.13	3.84
444.334	3.87
444.538	3.79
444.743	3.73
444.947	3.57
445.151	3.53
445.356	3.44
445.56	3.47
445.764	3.39
445.968	3.44
446.173	3.42
446.377	3.4
446.581	3.46
446.785	3.49
446.989	3.53
447.193	3.62
447.398	3.52
447.602	3.55
447.806	3.55
448.01	3.71
448.214	3.79
448.418	3.81
448.622	3.86
448.826	3.86
449.03	3.97
449.234	4.03
449.438	3.88
449.642	4.07
449.846	4.05
450.05	4.01
450.254	3.82
450.458	3.9
450.662	3.71
450.866	3.49
451.069	3.39
451.273	3.25
451.477	3.22
451.681	3.27
451.885	3.17
452.089	3.2
452.292	3.28
452.496	3.41
452.7	3.31
452.904	3.44
453.107	3.5
453.311	3.61
453.515	3.52
453.719	3.34
453.922	3.43
454.126	3.36
454.33	3.39
454.533	3.3
454.737	3.06
454.94	3.15
455.144	3.23
455.348	3.37
455.551	3.43
455.755	3.42
455.958	3.59
456.162	3.59
456.365	3.72
456.569	3.74
456.772	3.8
456.976	3.78
457.179	3.6
457.383	3.54
457.586	3.53
457.79	3.39
457.993	3.53
458.196	3.42
458.4	3.53
458.603	3.44
458.807	3.41
459.01	3.49
459.213	3.51
459.417	3.48
459.62	3.53
459.823	3.43
460.026	3.41
460.23	3.5
460.433	3.61
460.636	3.6
