Data from LC_188_Reflection_3.txt Node
Date: Tue Nov 17 13:25:33 EST 2015
User: robert
Spectrometer: USB4E03001
Autoset integration time: false
Trigger mode: 4
Integration Time (sec): 1.000000E-1
Scans to average: 15
Electric dark correction enabled: true
Nonlinearity correction enabled: false
Boxcar width: 5
Stray light correction enabled: false
XAxis mode: Wavelengths
Stop averaging: false
Number of Pixels in Spectrum: 3648
>>>>>Begin Spectral Data<<<<<
177.566	10.86
177.785	6.14
178.005	320.15
178.225	94.77
178.445	-28.97
178.665	137.74
178.885	-89.77
179.105	-51.18
179.324	12.73
179.544	303.98
179.764	69.52
179.984	15
180.204	19.96
180.423	-93.97
180.643	-22.33
180.863	488.12
181.083	756.12
181.302	-144.44
181.522	-27.16
181.742	-44.4
181.961	-1516.67
182.181	152.61
182.401	80.02
182.621	138.22
182.84	118.98
183.06	501.95
183.279	-393.94
183.499	3211.76
183.719	265.86
183.938	107.18
184.158	102.66
184.377	158.98
184.597	141.56
184.816	68.65
185.036	79.9
185.256	73.05
185.475	83.7
185.695	94.9
185.914	114.05
186.134	129.36
186.353	79
186.572	77.36
186.792	72.63
187.011	66.94
187.231	-102.22
187.45	-203.37
187.67	64.93
187.889	78.24
188.108	51.84
188.328	56.97
188.547	10.15
188.766	350.77
188.986	-44.13
189.205	63.17
189.424	91.58
189.644	95.06
189.863	47.17
190.082	22.6
190.302	44.38
190.521	112.3
190.74	-1409.74
190.959	-58.72
191.178	50.99
191.398	-30.56
191.617	-137.57
191.836	-190.22
192.055	-82.59
192.274	443.63
192.494	124.52
192.713	552.62
192.932	424.88
193.151	-159.56
193.37	-4312.7
193.589	93600
193.808	2074.16
194.027	-7.82
194.246	-155.44
194.465	822.38
194.685	137.16
194.904	109.3
195.123	7962.5
195.342	380.73
195.561	66.83
195.78	81.83
195.999	84.27
196.218	39.09
196.436	51.02
196.655	48.99
196.874	54.8
197.093	54.41
197.312	36.9
197.531	46.32
197.75	29.56
197.969	38.28
198.188	24.97
198.407	26.89
198.625	30.89
198.844	31.78
199.063	4.07
199.282	1.17
199.501	-26.22
199.719	-20.15
199.938	-23.46
200.157	9.45
200.376	-155.14
200.594	-36.31
200.813	5.91
201.032	20.48
201.251	69.75
201.469	1336.22
201.688	323.78
201.907	-1410.17
202.125	75.21
202.344	103.43
202.563	77.79
202.781	61.86
203	-253.84
203.218	10
203.437	21.35
203.656	107.25
203.874	131.14
204.093	63.9
204.311	103.8
204.53	1471.05
204.748	-30.97
204.967	289.85
205.185	175.84
205.404	54.97
205.622	65.14
205.841	40.01
206.059	45.9
206.278	11.64
206.496	26.1
206.715	42.37
206.933	-7.61
207.151	-1.94
207.37	9.27
207.588	-22.86
207.806	-74.84
208.025	-50.23
208.243	-33.86
208.461	-55.66
208.68	-140.92
208.898	348.95
209.116	621.57
209.335	-921.58
209.553	1088.87
209.771	-503.09
209.989	-134.96
210.208	-193.09
210.426	-180.87
210.644	-151.39
210.862	-83.63
211.081	-33.96
211.299	-26.58
211.517	-30.31
211.735	-34.99
211.953	0.39
212.171	-13.46
212.39	-64.13
212.608	-28.76
212.826	-64.7
213.044	-87.45
213.262	-142.7
213.48	8964.18
213.698	367.79
213.916	-128.8
214.134	290.46
214.352	159.22
214.57	113.3
214.788	-962.84
215.006	-166.2
215.224	-174.75
215.442	-158.27
215.66	-18.2
215.878	6.79
216.096	32.48
216.314	67.67
216.532	62.74
216.75	57.62
216.968	54.15
217.185	55.76
217.403	65.37
217.621	71.33
217.839	97.52
218.057	95.41
218.275	107.88
218.492	107.43
218.71	95.38
218.928	118.53
219.146	123.84
219.363	125.81
219.581	126.43
219.799	101.3
220.017	71.32
220.234	37.13
220.452	26.14
220.67	12.63
220.887	9.67
221.105	10.65
221.323	-13.38
221.54	-31.41
221.758	-23.6
221.976	-60.61
222.193	-21.01
222.411	-18.38
222.629	-27.87
222.846	-33.37
223.064	-37.14
223.281	-33.02
223.499	-39.61
223.716	-30.1
223.934	-13.74
224.151	-4.43
224.369	8.38
224.586	0.7
224.804	25.6
225.021	44.15
225.239	28.05
225.456	25.56
225.674	18.14
225.891	21.99
226.108	24.84
226.326	20.15
226.543	23.01
226.76	16.52
226.978	17.57
227.195	20.17
227.413	15.73
227.63	25.47
227.847	21.37
228.064	20.38
228.282	18.62
228.499	19.09
228.716	17.96
228.934	17.24
229.151	22.42
229.368	15.49
229.585	12.06
229.802	15.7
230.02	15.65
230.237	15.8
230.454	16.45
230.671	17.85
230.888	15.63
231.105	17.04
231.323	14.14
231.54	7.64
231.757	15.71
231.974	19.16
232.191	8.81
232.408	7.72
232.625	11.65
232.842	16.1
233.059	13.43
233.276	17.86
233.493	12.47
233.71	14.86
233.927	15.56
234.144	14.47
234.361	9.13
234.578	20.38
234.795	17.96
235.012	15.59
235.229	8.15
235.446	2.68
235.663	2.76
235.879	2.86
236.096	4.94
236.313	5.63
236.53	6.09
236.747	9.77
236.964	2.53
237.181	4.22
237.397	6.88
237.614	12.81
237.831	16.86
238.048	11.82
238.264	15.88
238.481	15.07
238.698	11.21
238.915	12.38
239.131	13.93
239.348	15.48
239.565	15.23
239.781	16.5
239.998	14.43
240.215	14.59
240.431	16.73
240.648	15.09
240.865	14.19
241.081	14.66
241.298	14.05
241.514	13.81
241.731	12.44
241.947	10.59
242.164	9.97
242.38	8.15
242.597	9.16
242.814	8.55
243.03	9.22
243.246	8.39
243.463	10.09
243.679	7.77
243.896	5.78
244.112	5.35
244.329	7
244.545	4.75
244.762	7.57
244.978	4.81
245.194	4.87
245.411	6.37
245.627	9.23
245.843	8.19
246.06	8.01
246.276	7.68
246.492	8.46
246.709	8.55
246.925	10.1
247.141	10.16
247.357	10.85
247.574	10.95
247.79	9.98
248.006	9.49
248.222	10.11
248.439	10.67
248.655	10.31
248.871	11.09
249.087	10.88
249.303	10.06
249.519	9.2
249.736	9.08
249.952	7.02
250.168	8.82
250.384	7
250.6	5.77
250.816	4.59
251.032	6.03
251.248	3.38
251.464	3.13
251.68	3.93
251.896	2.69
252.112	0.58
252.328	5.47
252.544	4
252.76	5.08
252.976	4.28
253.192	6.79
253.408	7.86
253.624	9.93
253.84	10.46
254.056	8.65
254.272	9.29
254.487	12.97
254.703	10.4
254.919	9.65
255.135	12.47
255.351	10.85
255.567	7.32
255.782	2.88
255.998	0.78
256.214	0.54
256.43	1.83
256.646	3.62
256.861	2.19
257.077	2.68
257.293	6.2
257.508	5.26
257.724	6.48
257.94	6.61
258.155	7.92
258.371	8.68
258.587	7.78
258.802	7.24
259.018	7.28
259.234	7.84
259.449	8.27
259.665	7.48
259.88	7.15
260.096	8.04
260.312	8.23
260.527	7.86
260.743	7.83
260.958	8.13
261.174	8.48
261.389	8.45
261.605	8.74
261.82	8.11
262.036	8.56
262.251	8.28
262.466	6.96
262.682	8.31
262.897	9.52
263.113	7.37
263.328	8.57
263.543	8.79
263.759	8.48
263.974	7.31
264.189	7.96
264.405	7.71
264.62	9.03
264.835	9.83
265.051	6.38
265.266	6.85
265.481	10.25
265.696	9.77
265.912	10.98
266.127	9.24
266.342	7.82
266.557	5.77
266.773	6.13
266.988	5.25
267.203	5.18
267.418	8.18
267.633	6.97
267.848	6.08
268.064	4.34
268.279	3.94
268.494	5.52
268.709	6.39
268.924	7.02
269.139	5.47
269.354	5.77
269.569	5.54
269.784	2.74
269.999	3.65
270.214	2.48
270.429	4.32
270.644	3.03
270.859	3.31
271.074	3.29
271.289	3.85
271.504	4
271.719	4.1
271.934	4.5
272.149	5.61
272.363	6.34
272.578	8.02
272.793	7.66
273.008	8.51
273.223	8.41
273.438	8.18
273.653	8.21
273.867	8.26
274.082	8.24
274.297	8.32
274.512	8.35
274.726	7.12
274.941	5.3
275.156	5.53
275.371	3.45
275.585	4.54
275.8	5.72
276.015	6.44
276.229	7.19
276.444	5.98
276.659	5.71
276.873	4.09
277.088	4.93
277.302	5.51
277.517	5.52
277.732	6.58
277.946	5.44
278.161	4.96
278.375	5.09
278.59	3.77
278.804	4.25
279.019	4.38
279.233	6.05
279.448	5.19
279.662	6.49
279.877	5.29
280.091	5.65
280.306	6.35
280.52	6.32
280.735	5.61
280.949	6.77
281.163	7.11
281.378	7.94
281.592	7.64
281.806	7.83
282.021	7.31
282.235	7.41
282.449	8.37
282.664	7.96
282.878	8.44
283.092	7.87
283.307	8.28
283.521	8.29
283.735	6.56
283.949	5.35
284.164	4.92
284.378	4.33
284.592	4.58
284.806	3.4
285.02	2.74
285.234	1.96
285.449	2.76
285.663	2.42
285.877	3.26
286.091	4.4
286.305	5.59
286.519	5.85
286.733	6.43
286.947	6.93
287.161	6.74
287.375	7.52
287.589	7.88
287.803	7.63
288.017	7.76
288.231	7.1
288.445	6.88
288.659	6.24
288.873	5.48
289.087	5.5
289.301	5.89
289.515	6.89
289.729	7.38
289.943	6.83
290.157	6.61
290.371	6.2
290.584	6.62
290.798	6.43
291.012	7.61
291.226	9.25
291.44	9.53
291.654	9.59
291.867	9.65
292.081	7.93
292.295	8.82
292.509	7.73
292.722	8.76
292.936	8.29
293.15	7.91
293.364	6.24
293.577	4.53
293.791	4.05
294.005	4.33
294.218	4.26
294.432	5.69
294.645	6.25
294.859	7.19
295.073	6.25
295.286	6.71
295.5	6.91
295.713	7.73
295.927	8.66
296.14	8.76
296.354	7.73
296.568	8.09
296.781	8.48
296.994	8.27
297.208	9.05
297.421	9.03
297.635	9.58
297.848	9.54
298.062	9.43
298.275	9.08
298.489	8.42
298.702	9.63
298.915	9.61
299.129	9.52
299.342	9.23
299.555	8.62
299.769	9.58
299.982	8.44
300.195	7.94
300.409	7.21
300.622	7.2
300.835	8.8
301.048	7.19
301.262	6.34
301.475	6.27
301.688	6.96
301.901	7.06
302.115	6.15
302.328	6.27
302.541	6.95
302.754	7.87
302.967	8.54
303.18	7.78
303.393	8.81
303.607	9.83
303.82	9.08
304.033	8.52
304.246	8.57
304.459	9.14
304.672	10.02
304.885	10.83
305.098	10.49
305.311	9.94
305.524	9.44
305.737	8.72
305.95	9.34
306.163	8.55
306.376	8.05
306.589	8.19
306.802	7.54
307.015	6.7
307.228	7.31
307.44	7.74
307.653	7.45
307.866	7.81
308.079	7.44
308.292	6.35
308.505	7.71
308.718	8.04
308.93	7.43
309.143	8.29
309.356	8.02
309.569	6.67
309.781	6.73
309.994	6.37
310.207	5.9
310.42	5.19
310.632	5.23
310.845	5.24
311.058	4.89
311.27	4.9
311.483	4.47
311.696	4.86
311.908	5.35
312.121	4.99
312.333	5.29
312.546	5.89
312.759	6.8
312.971	6.78
313.184	7.35
313.396	7.43
313.609	8.78
313.821	9.98
314.034	10.74
314.246	10.84
314.459	10.43
314.671	10.41
314.884	9.94
315.096	9.69
315.309	8.9
315.521	8.15
315.733	8.12
315.946	7.6
316.158	6.7
316.371	5.46
316.583	5.05
316.795	5.77
317.008	6.34
317.22	6.4
317.432	8.26
317.644	9.01
317.857	8.42
318.069	10.55
318.281	10.56
318.494	10.62
318.706	10.48
318.918	11
319.13	11.43
319.342	11.8
319.555	11.11
319.767	10.16
319.979	10.46
320.191	10.79
320.403	9.51
320.615	8.97
320.827	7.96
321.039	10.41
321.252	10.23
321.464	9.15
321.676	9.61
321.888	10.68
322.1	10.19
322.312	10.69
322.524	11.33
322.736	10.16
322.948	10.14
323.16	10.4
323.372	8.1
323.584	8.87
323.796	11.1
324.007	10.52
324.219	11.49
324.431	12.46
324.643	12.74
324.855	12.63
325.067	14.19
325.279	14.91
325.491	16.12
325.702	17.04
325.914	16.45
326.126	15.21
326.338	16.68
326.55	15.72
326.761	15.26
326.973	15.68
327.185	15.34
327.396	14.95
327.608	14.97
327.82	14.22
328.032	14.5
328.243	14.16
328.455	14.56
328.666	14.11
328.878	14.9
329.09	15.32
329.301	14.56
329.513	15.34
329.725	16.54
329.936	16.3
330.148	17.6
330.359	18
330.571	18.46
330.782	18.94
330.994	18.37
331.205	17.9
331.417	18.1
331.628	18.21
331.84	19.37
332.051	18.46
332.262	19.29
332.474	18.88
332.685	19.49
332.897	20.12
333.108	20.31
333.319	20.33
333.531	20.56
333.742	19.99
333.953	20
334.165	19.21
334.376	20.14
334.587	19.94
334.799	19.68
335.01	20.53
335.221	20.23
335.432	19.78
335.644	20.63
335.855	21.45
336.066	23.04
336.277	23.66
336.488	23.92
336.7	23.69
336.911	23.86
337.122	24.48
337.333	23.78
337.544	24.15
337.755	24.53
337.966	24.09
338.177	24
338.388	23.04
338.599	23.2
338.811	23.1
339.022	23.49
339.233	22.55
339.444	21.54
339.655	21.44
339.866	21.11
340.076	20.9
340.287	21.52
340.498	21.7
340.709	22.7
340.92	22.18
341.131	21.97
341.342	21.8
341.553	23.25
341.764	24.21
341.975	24.21
342.185	24.33
342.396	24.29
342.607	23.77
342.818	24.23
343.029	23.52
343.239	23.82
343.45	23.91
343.661	23.46
343.872	22.89
344.082	23.35
344.293	23.22
344.504	24.53
344.714	24.15
344.925	23.91
345.136	23.01
345.346	22.95
345.557	21.76
345.768	21.87
345.978	22
346.189	22.49
346.399	21.97
346.61	21.68
346.821	20.17
347.031	20.21
347.242	20.43
347.452	20.88
347.663	20.35
347.873	21.22
348.084	21.05
348.294	21.4
348.504	20.86
348.715	21.18
348.925	21.54
349.136	22.05
349.346	22.13
349.557	22.27
349.767	21.85
349.977	21.82
350.188	23.13
350.398	23.43
350.608	23.44
350.819	23.21
351.029	22.56
351.239	22.6
351.449	22.09
351.66	22.4
351.87	22.01
352.08	22.46
352.29	23.39
352.501	21.46
352.711	21.57
352.921	21.37
353.131	21.44
353.341	21.98
353.552	21.23
353.762	21.41
353.972	21.55
354.182	22.19
354.392	21.85
354.602	21.76
354.812	21.89
355.022	21.67
355.232	21.78
355.442	21.86
355.652	21.71
355.862	22.88
356.072	22.93
356.282	22.83
356.492	22.15
356.702	22.05
356.912	22.09
357.122	22.18
357.332	22.12
357.542	22.05
357.752	21.9
357.962	21.84
358.171	21.05
358.381	21.16
358.591	20.97
358.801	21.2
359.011	20.74
359.221	20.8
359.43	21.2
359.64	20.84
359.85	20.58
360.06	20.93
360.269	20.68
360.479	20.43
360.689	20.41
360.899	20.49
361.108	20.26
361.318	21.01
361.528	20.44
361.737	20.27
361.947	20.65
362.156	20.88
362.366	20.68
362.576	20.63
362.785	20.84
362.995	20.98
363.204	20.84
363.414	20.88
363.623	20.4
363.833	20.49
364.042	20.51
364.252	19.77
364.461	19.55
364.671	19.47
364.88	19.37
365.09	19.44
365.299	19.24
365.509	19.45
365.718	19.68
365.927	19.7
366.137	20.38
366.346	20.94
366.555	21.77
366.765	21.59
366.974	21.3
367.183	21.12
367.393	20.76
367.602	20.7
367.811	20.47
368.021	20.03
368.23	20.7
368.439	20.38
368.648	19.82
368.857	19.34
369.067	19.82
369.276	20.5
369.485	21.44
369.694	22.04
369.903	22.01
370.112	22.02
370.321	22.04
370.531	21.07
370.74	20.91
370.949	20.77
371.158	21.08
371.367	20.7
371.576	20.44
371.785	19.93
371.994	19.64
372.203	19.25
372.412	19.37
372.621	19.41
372.83	19.77
373.039	19.86
373.248	19.89
373.457	20.02
373.666	19.97
373.874	19.75
374.083	19.41
374.292	19.12
374.501	19.53
374.71	19.42
374.919	19.16
375.128	18.71
375.336	18.67
375.545	18.71
375.754	17.8
375.963	17.73
376.171	17.91
376.38	18.74
376.589	18.86
376.798	18.89
377.006	19.04
377.215	19.69
377.424	19.84
377.632	19.52
377.841	19.29
378.05	19.95
378.258	20.06
378.467	19.68
378.675	19.12
378.884	19.14
379.093	18.98
379.301	19.11
379.51	18.8
379.718	19
379.927	19.07
380.135	18.97
380.344	18.88
380.552	18.48
380.761	18.47
380.969	18.5
381.177	18.66
381.386	17.87
381.594	17.67
381.803	17.54
382.011	17.52
382.219	17.67
382.428	17.7
382.636	17.53
382.845	18.01
383.053	18.17
383.261	17.69
383.469	17.56
383.678	18.24
383.886	17.97
384.094	17.9
384.302	17.74
384.511	17.41
384.719	17.53
384.927	17.45
385.135	17.5
385.343	17.46
385.552	17.68
385.76	17.45
385.968	17.35
386.176	17.1
386.384	17.13
386.592	16.77
386.8	17.22
387.008	16.95
387.216	17.14
387.424	16.85
387.633	16.64
387.841	16.84
388.049	17.05
388.257	17.23
388.465	17.29
388.672	17.14
388.88	17.26
389.088	17.27
389.296	17.74
389.504	17.73
389.712	17.92
389.92	17.8
390.128	17.53
390.336	17.23
390.544	17.13
390.751	17.27
390.959	17.28
391.167	17.45
391.375	16.95
391.583	16.48
391.79	15.96
391.998	15.85
392.206	16.16
392.414	15.9
392.621	16.18
392.829	15.77
393.037	15.53
393.244	15.48
393.452	15.49
393.66	15.37
393.867	15.56
394.075	15.68
394.283	15.54
394.49	15.25
394.698	15.6
394.905	15.39
395.113	15.66
395.32	15.49
395.528	15.54
395.735	15.46
395.943	15.79
396.15	15.83
396.358	16.01
396.565	15.82
396.773	15.81
396.98	15.82
397.188	16.03
397.395	16.37
397.602	16.68
397.81	16.73
398.017	16.68
398.225	16.62
398.432	16.44
398.639	16.58
398.847	16.72
399.054	16.7
399.261	16.52
399.468	16
399.676	15.56
399.883	15.47
400.09	15.39
400.297	15.44
400.505	15.37
400.712	15.47
400.919	15.12
401.126	14.94
401.333	15.09
401.54	15.22
401.748	15.62
401.955	15.75
402.162	15.92
402.369	15.86
402.576	15.73
402.783	15.49
402.99	15.37
403.197	15.46
403.404	15.55
403.611	15.45
403.818	15.2
404.025	14.85
404.232	14.69
404.439	14.53
404.646	14.52
404.853	14.6
405.06	14.8
405.267	14.78
405.474	14.62
405.681	14.48
405.887	14.5
406.094	14.62
406.301	14.79
406.508	14.76
406.715	14.57
406.922	14.44
407.128	14.5
407.335	14.14
407.542	14.19
407.749	14.51
407.955	14.64
408.162	14.72
408.369	14.65
408.575	14.69
408.782	14.81
408.989	15.02
409.195	15.16
409.402	14.93
409.609	15.16
409.815	14.93
410.022	14.77
410.228	14.6
410.435	14.41
410.642	14.38
410.848	14.45
411.055	14.42
411.261	14.29
411.468	14.49
411.674	14.43
411.881	14.34
412.087	14.74
412.294	14.55
412.5	14.54
412.706	14.75
412.913	14.51
413.119	14.31
413.326	14.32
413.532	14.22
413.738	14.03
413.945	13.77
414.151	13.87
414.357	13.81
414.564	13.85
414.77	13.99
414.976	13.98
415.182	14.28
415.389	14.23
415.595	14.25
415.801	14.3
416.007	14.34
416.214	14.63
416.42	14.64
416.626	14.37
416.832	14.35
417.038	14.52
417.244	14.25
417.45	14.25
417.657	14.29
417.863	14.29
418.069	14.16
418.275	13.88
418.481	14.01
418.687	13.98
418.893	14.15
419.099	14.04
419.305	14.06
419.511	14.16
419.717	14.14
419.923	14.04
420.129	13.85
420.335	14.04
420.541	14.08
420.746	14.03
420.952	13.99
421.158	13.92
421.364	13.99
421.57	13.9
421.776	13.74
421.982	13.71
422.187	13.75
422.393	13.86
422.599	13.68
422.805	13.66
423.01	13.53
423.216	13.63
423.422	13.65
423.628	13.77
423.833	13.75
424.039	13.68
424.245	13.73
424.45	13.73
424.656	13.68
424.862	13.73
425.067	13.76
425.273	13.81
425.478	13.73
425.684	13.54
425.889	13.49
426.095	13.44
426.301	13.65
426.506	13.57
426.712	13.45
426.917	13.45
427.123	13.53
427.328	13.52
427.533	13.53
427.739	13.32
427.944	13.47
428.15	13.24
428.355	13.2
428.561	12.99
428.766	12.86
428.971	12.87
429.177	12.99
429.382	12.92
429.587	12.96
429.793	13
429.998	13.1
430.203	13.14
430.408	13.21
430.614	13.1
430.819	13.27
431.024	13.43
431.229	13.43
431.434	13.39
431.64	13.37
431.845	13.5
432.05	13.54
432.255	13.51
432.46	13.5
432.665	13.75
432.87	13.87
433.076	13.7
433.281	13.77
433.486	13.79
433.691	13.67
433.896	13.56
434.101	13.48
434.306	13.48
434.511	13.64
434.716	13.46
434.921	13.22
435.126	13.32
435.331	13.34
435.535	13.27
435.74	13.19
435.945	13.33
436.15	13.33
436.355	13.29
436.56	13.18
436.765	13.31
436.97	13.48
437.174	13.33
437.379	13.34
437.584	13.54
437.789	13.5
437.993	13.59
438.198	13.53
438.403	13.72
438.608	13.7
438.812	13.57
439.017	13.35
439.222	13.28
439.426	13.4
439.631	13.2
439.836	13.14
440.04	13
440.245	13.06
440.45	12.94
440.654	12.79
440.859	12.7
441.063	12.82
441.268	12.78
441.472	12.89
441.677	12.86
441.881	13.02
442.086	13.06
442.29	13.18
442.495	13.27
442.699	13.38
442.904	13.5
443.108	13.5
443.312	13.54
443.517	13.49
443.721	13.44
443.925	13.35
444.13	13.28
444.334	13.13
444.538	13.09
444.743	12.84
444.947	12.78
445.151	12.74
445.356	12.87
445.56	12.82
445.764	12.9
445.968	12.89
446.173	12.96
446.377	12.86
446.581	12.97
446.785	12.99
446.989	13.06
447.193	13.2
447.398	13.26
447.602	13.26
447.806	13.27
448.01	13.27
448.214	13.23
448.418	13.23
448.622	13.33
448.826	13.16
449.03	13.09
449.234	12.97
449.438	12.72
449.642	12.62
449.846	12.51
450.05	12.44
450.254	12.29
450.458	12.04
450.662	11.94
450.866	11.85
451.069	12.02
451.273	11.94
451.477	12.16
451.681	12.34
451.885	12.5
452.089	12.33
452.292	12.23
452.496	12.28
452.7	12.56
452.904	12.63
453.107	12.68
453.311	12.6
453.515	12.71
453.719	12.66
453.922	12.64
454.126	12.36
454.33	12.61
454.533	12.61
454.737	12.5
454.94	12.4
455.144	12.44
455.348	12.42
455.551	12.49
455.755	12.69
455.958	12.51
456.162	12.25
456.365	12.35
456.569	12.14
456.772	12.31
456.976	12.57
457.179	12.73
457.383	12.72
457.586	12.75
457.79	12.76
457.993	12.85
458.196	12.96
458.4	13.23
458.603	13.26
458.807	13.28
459.01	13.28
459.213	13.21
459.417	13.04
459.62	13.03
459.823	12.87
460.026	12.82
460.23	12.63
460.433	12.52
