Data from LC_194_Reflection_3.txt Node
Date: Tue Nov 17 13:43:45 EST 2015
User: robert
Spectrometer: USB4E03001
Autoset integration time: false
Trigger mode: 4
Integration Time (sec): 1.000000E-1
Scans to average: 15
Electric dark correction enabled: true
Nonlinearity correction enabled: false
Boxcar width: 5
Stray light correction enabled: false
XAxis mode: Wavelengths
Stop averaging: false
Number of Pixels in Spectrum: 3648
>>>>>Begin Spectral Data<<<<<
177.566	311.43
177.785	444.64
178.005	-2351.12
178.225	584.58
178.445	-914.86
178.665	-347.29
178.885	-54.73
179.105	-489.96
179.324	1231.46
179.544	1125.25
179.764	388.56
179.984	219.88
180.204	287.66
180.423	703.34
180.643	976.57
180.863	-3688.12
181.083	-4596.17
181.302	905.94
181.522	452.79
181.742	1395.95
181.961	18645.1
182.181	-1061.03
182.401	-240.91
182.621	-670.98
182.84	-642.75
183.06	-1972.84
183.279	2290.08
183.499	-15992.44
183.719	-1656.93
183.938	-502.68
184.158	-661.77
184.377	-828.54
184.597	-768.99
184.816	691.97
185.036	652.49
185.256	735.76
185.475	417.13
185.695	543.65
185.914	382.19
186.134	392.56
186.353	236.71
186.572	307.77
186.792	250.22
187.011	225.46
187.231	687.31
187.45	2574.06
187.67	490.52
187.889	574.91
188.108	485.66
188.328	477.4
188.547	479.9
188.766	-2084.53
188.986	1782.94
189.205	519.97
189.424	697.77
189.644	573.46
189.863	425.87
190.082	465.54
190.302	534.81
190.521	651.34
190.74	14223.38
190.959	2013.82
191.178	528.18
191.398	488.67
191.617	1429.37
191.836	856.49
192.055	526.76
192.274	-1313.3
192.494	-733.74
192.713	-2243.61
192.932	-1113.66
193.151	2162.04
193.37	37553.97
193.589	-1324000
193.808	32907.87
194.027	-4241.95
194.246	-2035.47
194.465	8632.87
194.685	929.35
194.904	731.06
195.123	118512.5
195.342	2750.19
195.561	840.08
195.78	611.92
195.999	761.11
196.218	487.57
196.436	403.95
196.655	295.71
196.874	343.43
197.093	369.67
197.312	283.11
197.531	244.65
197.75	236.65
197.969	249.58
198.188	273.69
198.407	268.42
198.625	337.64
198.844	334.34
199.063	307.89
199.282	335.97
199.501	305.28
199.719	498.01
199.938	540.14
200.157	633.31
200.376	2001.96
200.594	949.53
200.813	557.06
201.032	736.57
201.251	700.83
201.469	9643.03
201.688	2988.44
201.907	-13836.86
202.125	3692.15
202.344	3209.3
202.563	2686.65
202.781	1934.21
203	-2042.94
203.218	-432.81
203.437	-646.55
203.656	-476.48
203.874	-1023.93
204.093	-1450.69
204.311	-1416.58
204.53	28051.32
204.748	-1334.01
204.967	5483.89
205.185	1029.01
205.404	496.79
205.622	485.97
205.841	383.73
206.059	441.28
206.278	321.71
206.496	305.53
206.715	288.09
206.933	360.96
207.151	303.19
207.37	286
207.588	335.26
207.806	465.4
208.025	386.63
208.243	374.84
208.461	423.48
208.68	831.75
208.898	-1274.63
209.116	-2342.18
209.335	4540.79
209.553	-3012.33
209.771	1291.73
209.989	459.76
210.208	531.45
210.426	456.56
210.644	424.22
210.862	284.87
211.081	195.89
211.299	126.98
211.517	160.43
211.735	177.58
211.953	198.57
212.171	216.21
212.39	537.84
212.608	519.79
212.826	781.09
213.044	810.44
213.262	785.27
213.48	-31761.19
213.698	-1884.72
213.916	791.45
214.134	-1429.01
214.352	-346.6
214.57	-419.96
214.788	4084.54
215.006	1400.09
215.224	1408.61
215.442	883.3
215.66	961.82
215.878	657.89
216.096	281.88
216.314	326.77
216.532	220.01
216.75	184.02
216.968	209.57
217.185	230.75
217.403	243.92
217.621	216.34
217.839	257.46
218.057	270.32
218.275	263.58
218.492	315.48
218.71	351.36
218.928	405.03
219.146	419.31
219.363	416.26
219.581	326.32
219.799	329.03
220.017	380.13
220.234	366.16
220.452	290.15
220.67	267.52
220.887	248.12
221.105	238.48
221.323	210.42
221.54	206.43
221.758	183.22
221.976	181.38
222.193	159.74
222.411	138.21
222.629	133.75
222.846	155.36
223.064	154.89
223.281	169.21
223.499	171.7
223.716	186
223.934	193.86
224.151	200.66
224.369	182.26
224.586	211.63
224.804	193.72
225.021	195.11
225.239	181.63
225.456	174.68
225.674	157.48
225.891	143.5
226.108	158.4
226.326	147.09
226.543	123.61
226.76	123.59
226.978	104.74
227.195	96.4
227.413	78.57
227.63	74.67
227.847	63.71
228.064	58.64
228.282	51.24
228.499	45.9
228.716	41.23
228.934	43.87
229.151	40.77
229.368	36.38
229.585	37.69
229.802	39.37
230.02	38.62
230.237	40.77
230.454	43.55
230.671	48.24
230.888	46.95
231.105	48.97
231.323	49.8
231.54	57.07
231.757	65.63
231.974	66.64
232.191	65.7
232.408	67.23
232.625	67.1
232.842	66.77
233.059	65.97
233.276	66.94
233.493	68.75
233.71	64.09
233.927	55.82
234.144	55.3
234.361	56.86
234.578	62.38
234.795	62.14
235.012	59.81
235.229	59.01
235.446	56.92
235.663	66.9
235.879	70.67
236.096	77.33
236.313	74.45
236.53	73.46
236.747	71.18
236.964	65.78
237.181	63.54
237.397	68.82
237.614	68.15
237.831	70.65
238.048	62.34
238.264	55.79
238.481	48.92
238.698	53.67
238.915	52.78
239.131	50.23
239.348	55.12
239.565	55.81
239.781	59.7
239.998	57.52
240.215	52.71
240.431	50.68
240.648	47.92
240.865	48.22
241.081	45.09
241.298	41.62
241.514	40.43
241.731	36.91
241.947	34.52
242.164	28.6
242.38	24.74
242.597	24.52
242.814	25.39
243.03	24.44
243.246	22.88
243.463	22.15
243.679	21.97
243.896	21.53
244.112	19.99
244.329	21.8
244.545	23.82
244.762	26.15
244.978	26.52
245.194	25.2
245.411	29.91
245.627	31.75
245.843	30.01
246.06	27.88
246.276	24.36
246.492	23.72
246.709	22.07
246.925	20.9
247.141	20.89
247.357	20.22
247.574	20.01
247.79	18.2
248.006	16.99
248.222	17.83
248.439	18.59
248.655	18.2
248.871	18.87
249.087	19.49
249.303	20.82
249.519	21.01
249.736	22.98
249.952	23.87
250.168	28.79
250.384	31.23
250.6	30.71
250.816	30.59
251.032	34.01
251.248	34.12
251.464	31.65
251.68	29.45
251.896	29.12
252.112	25.23
252.328	25.36
252.544	22.93
252.76	22.1
252.976	22.66
253.192	22.96
253.408	24.01
253.624	21.93
253.84	22.55
254.056	23.14
254.272	23.11
254.487	26.34
254.703	24.41
254.919	25.79
255.135	26.43
255.351	25.62
255.567	27.45
255.782	24.08
255.998	26.06
256.214	27.84
256.43	25.78
256.646	27.74
256.861	25.88
257.077	25.53
257.293	24.74
257.508	26.24
257.724	25.88
257.94	23.4
258.155	23.78
258.371	23.67
258.587	20.05
258.802	19.99
259.018	18.08
259.234	17.87
259.449	17.73
259.665	16.66
259.88	16.09
260.096	16.44
260.312	16.68
260.527	16.03
260.743	16.11
260.958	16.89
261.174	17.16
261.389	16.76
261.605	17.37
261.82	17.84
262.036	17.81
262.251	16.85
262.466	15.73
262.682	16.04
262.897	17.8
263.113	15.35
263.328	16.54
263.543	18.93
263.759	21.73
263.974	21.68
264.189	21.03
264.405	23.65
264.62	26.41
264.835	29.46
265.051	28.89
265.266	29.31
265.481	32.16
265.696	31.32
265.912	29.26
266.127	27.06
266.342	26.91
266.557	25.32
266.773	23.75
266.988	23.39
267.203	22.18
267.418	22.82
267.633	20.9
267.848	19.57
268.064	17.11
268.279	16.07
268.494	15.77
268.709	15.6
268.924	17.2
269.139	17.38
269.354	17.58
269.569	16.82
269.784	14.68
269.999	16.24
270.214	16.8
270.429	18.76
270.644	18.29
270.859	19.11
271.074	18.65
271.289	19.22
271.504	17.71
271.719	16.74
271.934	16.02
272.149	16.66
272.363	17.27
272.578	17.28
272.793	17.58
273.008	17.7
273.223	18.13
273.438	18.15
273.653	17.41
273.867	17.74
274.082	17.22
274.297	18.22
274.512	19.16
274.726	17.94
274.941	17.23
275.156	17.53
275.371	17.83
275.585	18.31
275.8	19.2
276.015	19.19
276.229	19.32
276.444	19.42
276.659	19.59
276.873	18.68
277.088	19.19
277.302	20.86
277.517	20.02
277.732	19.92
277.946	18.62
278.161	18.21
278.375	18.2
278.59	19.64
278.804	19.81
279.019	19.77
279.233	20.69
279.448	19.78
279.662	19.15
279.877	19.5
280.091	19.46
280.306	19
280.52	19.02
280.735	18.69
280.949	17.06
281.163	16.51
281.378	16.72
281.592	16.16
281.806	16.48
282.021	15.7
282.235	14.76
282.449	15.37
282.664	16.48
282.878	17.24
283.092	17.43
283.307	18.04
283.521	18.12
283.735	16.89
283.949	15.94
284.164	15.41
284.378	15.1
284.592	15.28
284.806	15.43
285.02	14.19
285.234	12.52
285.449	12
285.663	12.07
285.877	12.99
286.091	13.72
286.305	14.87
286.519	14.79
286.733	15.26
286.947	15.4
287.161	14.46
287.375	15.42
287.589	16.2
287.803	16.34
288.017	15.81
288.231	15.69
288.445	15.5
288.659	14.98
288.873	15.1
289.087	15.79
289.301	16.53
289.515	17.54
289.729	17.51
289.943	17.13
290.157	17.05
290.371	17.33
290.584	17.54
290.798	17.58
291.012	18.32
291.226	19.12
291.44	18.87
291.654	18.7
291.867	17.85
292.081	17.18
292.295	17.96
292.509	17.48
292.722	18.32
292.936	17.24
293.15	17.93
293.364	17.68
293.577	17.07
293.791	15.64
294.005	16.24
294.218	17.08
294.432	17.75
294.645	16.51
294.859	16.92
295.073	16.46
295.286	16.01
295.5	14.39
295.713	13.55
295.927	13.46
296.14	14.11
296.354	12.6
296.568	12.26
296.781	12.41
296.994	12.76
297.208	12.71
297.421	12.65
297.635	13.24
297.848	13.42
298.062	13.7
298.275	13.84
298.489	13.92
298.702	16.28
298.915	16.97
299.129	17.62
299.342	18.28
299.555	17.82
299.769	18.71
299.982	19.3
300.195	18.35
300.409	18.67
300.622	18.66
300.835	19.78
301.048	18.14
301.262	17.4
301.475	16.68
301.688	16.6
301.901	18.48
302.115	18.73
302.328	18.99
302.541	20.05
302.754	19.75
302.967	20.05
303.18	19.48
303.393	18.96
303.607	19.12
303.82	18.38
304.033	18.04
304.246	17.23
304.459	17.6
304.672	16.95
304.885	17.97
305.098	17.96
305.311	18.03
305.524	17.09
305.737	17.66
305.95	19.06
306.163	18.34
306.376	17.82
306.589	18.01
306.802	15.89
307.015	16.35
307.228	16.97
307.44	17.68
307.653	17.11
307.866	17.03
308.079	15.93
308.292	14.69
308.505	15.6
308.718	15.92
308.93	15.53
309.143	15.5
309.356	14.65
309.569	13.57
309.781	14.61
309.994	13.51
310.207	14.07
310.42	13.86
310.632	13.08
310.845	13.45
311.058	13.25
311.27	12.72
311.483	12.92
311.696	13.07
311.908	13.13
312.121	11.86
312.333	13.18
312.546	13.25
312.759	13.75
312.971	14.62
313.184	15.34
313.396	15.77
313.609	17.32
313.821	18.71
314.034	20.32
314.246	21.59
314.459	21.71
314.671	21.32
314.884	21.72
315.096	22.61
315.309	22.33
315.521	22.21
315.733	21.88
315.946	20.37
316.158	20.33
316.371	19.37
316.583	19.31
316.795	19.6
317.008	20.34
317.22	19.94
317.432	21.8
317.644	22.16
317.857	21.34
318.069	22.59
318.281	24.89
318.494	24.29
318.706	23.69
318.918	22.69
319.13	23.34
319.342	23.57
319.555	23.2
319.767	21.47
319.979	21.07
320.191	20.84
320.403	20.74
320.615	19.81
320.827	18.71
321.039	20.27
321.252	20.93
321.464	20.55
321.676	21.12
321.888	21.64
322.1	21.78
322.312	22.59
322.524	23.17
322.736	22.29
322.948	21.64
323.16	21.66
323.372	20.64
323.584	21.11
323.796	21.57
324.007	20.56
324.219	20.81
324.431	21.21
324.643	20.55
324.855	20.89
325.067	21.73
325.279	21.98
325.491	23.31
325.702	23.23
325.914	24.19
326.126	23.89
326.338	25.43
326.55	24.59
326.761	23.88
326.973	24.24
327.185	24.17
327.396	23.76
327.608	24.32
327.82	23.94
328.032	24.96
328.243	23.54
328.455	24.17
328.666	23.57
328.878	24.63
329.09	25.1
329.301	25.89
329.513	26.28
329.725	27.51
329.936	27.96
330.148	29.77
330.359	30.15
330.571	30.79
330.782	30.58
330.994	30.17
331.205	30.25
331.417	29.99
331.628	30.42
331.84	30.88
332.051	31.01
332.262	31.29
332.474	30.17
332.685	31.69
332.897	30.92
333.108	31.72
333.319	31.66
333.531	33.04
333.742	33.04
333.953	32.89
334.165	32.92
334.376	32.75
334.587	33.38
334.799	33.87
335.01	33.04
335.221	33
335.432	32.34
335.644	33.52
335.855	32.33
336.066	33.69
336.277	33.86
336.488	34.43
336.7	34.61
336.911	34.61
337.122	34.66
337.333	34.77
337.544	36.66
337.755	37.19
337.966	36.44
338.177	37.42
338.388	37.02
338.599	37.52
338.811	36.54
339.022	36.47
339.233	35.47
339.444	35.56
339.655	35.38
339.866	34.59
340.076	34.22
340.287	35.14
340.498	34.49
340.709	35.34
340.92	33.96
341.131	33.59
341.342	33.11
341.553	34.03
341.764	34.64
341.975	35.12
342.185	35.06
342.396	35.56
342.607	35.5
342.818	36.59
343.029	35.65
343.239	37.15
343.45	38.08
343.661	38.92
343.872	38.66
344.082	38.65
344.293	38.04
344.504	39.55
344.714	38.4
344.925	37.88
345.136	36.51
345.346	36.31
345.557	35.28
345.768	35.47
345.978	34.98
346.189	35.41
346.399	34.97
346.61	35.35
346.821	33.85
347.031	34.75
347.242	34.43
347.452	34.92
347.663	35.37
347.873	36.85
348.084	36.23
348.294	37.13
348.504	36.25
348.715	36.36
348.925	35.76
349.136	35.49
349.346	35.52
349.557	36.05
349.767	36.02
349.977	35.97
350.188	35.3
350.398	36.23
350.608	35.18
350.819	35.68
351.029	35.39
351.239	36.33
351.449	36.52
351.66	36.45
351.87	36.33
352.08	36.75
352.29	37.2
352.501	36.95
352.711	37.12
352.921	37.12
353.131	37.22
353.341	37.02
353.552	35.87
353.762	36.12
353.972	35.26
354.182	35.98
354.392	36.39
354.602	36.45
354.812	36.29
355.022	35.61
355.232	35.75
355.442	35.01
355.652	35.17
355.862	35.67
356.072	35.51
356.282	36.4
356.492	35.6
356.702	34.72
356.912	34.2
357.122	34.44
357.332	34.39
357.542	33.86
357.752	34.39
357.962	34.65
358.171	34.57
358.381	34.83
358.591	33.87
358.801	34.39
359.011	34.12
359.221	34.33
359.43	34.23
359.64	33.8
359.85	34.11
360.06	33.75
360.269	33.51
360.479	32.95
360.689	32.22
360.899	32.67
361.108	31.84
361.318	31.9
361.528	31.32
361.737	31.33
361.947	31.74
362.156	31.73
362.366	31.92
362.576	31.51
362.785	32.05
362.995	32.52
363.204	32.43
363.414	32.98
363.623	33.28
363.833	33.77
364.042	33.58
364.252	32.89
364.461	32.85
364.671	32.45
364.88	32.56
365.09	32.53
365.299	32.4
365.509	32.48
365.718	32.12
365.927	31.5
366.137	31.41
366.346	31.82
366.555	32.24
366.765	32.62
366.974	32.78
367.183	33.11
367.393	32.64
367.602	32.21
367.811	32.06
368.021	31.71
368.23	32.57
368.439	32.42
368.648	31.89
368.857	32.2
369.067	31.72
369.276	31.85
369.485	31.97
369.694	31.65
369.903	32.07
370.112	32.05
370.321	32.75
370.531	31.79
370.74	31.59
370.949	31.14
371.158	30.62
371.367	30.78
371.576	30.46
371.785	29.74
371.994	30.23
372.203	29.81
372.412	30.01
372.621	29.75
372.83	29.73
373.039	30.07
373.248	30.38
373.457	30.62
373.666	30.49
373.874	30.49
374.083	30.48
374.292	30.24
374.501	30.56
374.71	30.64
374.919	30.11
375.128	30.27
375.336	30.13
375.545	29.98
375.754	29.85
375.963	29.35
376.171	29.44
376.38	30.13
376.589	30.05
376.798	29.49
377.006	29.15
377.215	29.74
377.424	29.56
377.632	28.85
377.841	28.9
378.05	29.3
378.258	29.3
378.467	29.44
378.675	28.79
378.884	29.05
379.093	29.47
379.301	29.46
379.51	29.09
379.718	29.31
379.927	29.88
380.135	29.61
380.344	29.3
380.552	29.76
380.761	29.65
380.969	29.99
381.177	29.9
381.386	29.87
381.594	29.52
381.803	29.48
382.011	29.53
382.219	29.23
382.428	29.62
382.636	29.54
382.845	29.35
383.053	29.11
383.261	28.98
383.469	29.04
383.678	29.13
383.886	28.78
384.094	28.78
384.302	28.58
384.511	28.84
384.719	28.53
384.927	28.63
385.135	28.33
385.343	28.63
385.552	28.65
385.76	28.1
385.968	27.6
386.176	27.68
386.384	27.41
386.592	27.2
386.8	27.14
387.008	27.25
387.216	26.77
387.424	26.8
387.633	26.3
387.841	25.99
388.049	26.31
388.257	26.53
388.465	27.01
388.672	27.11
388.88	27.08
389.088	26.9
389.296	26.52
389.504	26.68
389.712	26.66
389.92	26.62
390.128	26.53
390.336	26.09
390.544	25.36
390.751	24.9
390.959	24.5
391.167	24.32
391.375	24.13
391.583	24.19
391.79	23.73
391.998	24.1
392.206	24.36
392.414	24.06
392.621	24.2
392.829	24.58
393.037	24.79
393.244	24.79
393.452	25.04
393.66	25.02
393.867	24.85
394.075	24.88
394.283	24.44
394.49	24.24
394.698	24.37
394.905	24.26
395.113	24.34
395.32	24.15
395.528	24.5
395.735	24.45
395.943	24.38
396.15	24.58
396.358	24.61
396.565	24.43
396.773	24.1
396.98	24.39
397.188	24.26
397.395	24.18
397.602	24.47
397.81	24.42
398.017	24.35
398.225	24.58
398.432	24.48
398.639	24.56
398.847	25.13
399.054	25.3
399.261	24.88
399.468	24.74
399.676	24.91
399.883	24.37
400.09	24.25
400.297	24.36
400.505	24.21
400.712	24.23
400.919	24.12
401.126	23.78
401.333	23.95
401.54	24.01
401.748	24.05
401.955	23.73
402.162	24.14
402.369	24.27
402.576	24.15
402.783	23.85
402.99	23.85
403.197	24.12
403.404	23.68
403.611	23.35
403.818	23.44
404.025	23.37
404.232	23.12
404.439	22.95
404.646	22.63
404.853	22.57
405.06	22.95
405.267	22.71
405.474	22.24
405.681	22.25
405.887	22.47
406.094	22.49
406.301	22.77
406.508	22.86
406.715	23.15
406.922	23.42
407.128	23.45
407.335	23.04
407.542	23.19
407.749	23.7
407.955	24.19
408.162	24.41
408.369	24.38
408.575	24.43
408.782	24.51
408.989	24.37
409.195	24.44
409.402	24.52
409.609	24.56
409.815	24.46
410.022	24.24
410.228	23.97
410.435	23.61
410.642	23.49
410.848	23.11
411.055	23.16
411.261	22.95
411.468	22.96
411.674	22.77
411.881	22.81
412.087	23.22
412.294	23.23
412.5	23.33
412.706	23.34
412.913	23.48
413.119	23.9
413.326	23.75
413.532	23.76
413.738	23.61
413.945	23.31
414.151	23.44
414.357	23.26
414.564	23.07
414.77	22.76
414.976	22.7
415.182	22.73
415.389	22.37
415.595	22.48
415.801	22.52
416.007	22.5
416.214	22.67
416.42	22.36
416.626	22.22
416.832	22.04
417.038	22.23
417.244	22.21
417.45	22.1
417.657	21.79
417.863	21.8
418.069	21.57
418.275	21.38
418.481	21.37
418.687	21.32
418.893	21.29
419.099	21.32
419.305	21.27
419.511	21.2
419.717	21.12
419.923	21.14
420.129	20.96
420.335	20.96
420.541	20.87
420.746	20.81
420.952	20.86
421.158	20.73
421.364	20.75
421.57	20.67
421.776	20.53
421.982	20.47
422.187	20.49
422.393	20.55
422.599	20.57
422.805	20.54
423.01	20.59
423.216	20.54
423.422	20.69
423.628	20.72
423.833	20.72
424.039	20.56
424.245	20.42
424.45	20.49
424.656	20.49
424.862	20.48
425.067	20.53
425.273	20.52
425.478	20.51
425.684	20.28
425.889	20.46
426.095	20.55
426.301	20.82
426.506	21.04
426.712	20.97
426.917	20.99
427.123	20.96
427.328	21.01
427.533	20.9
427.739	20.92
427.944	21.04
428.15	20.64
428.355	20.43
428.561	20.4
428.766	20.18
428.971	20.27
429.177	20.28
429.382	20.48
429.587	20.44
429.793	20.63
429.998	20.54
430.203	20.54
430.408	20.58
430.614	20.72
430.819	20.83
431.024	20.99
431.229	20.98
431.434	20.76
431.64	20.7
431.845	20.92
432.05	20.89
432.255	20.95
432.46	20.91
432.665	21.11
432.87	21.11
433.076	20.92
433.281	21.02
433.486	20.96
433.691	21.03
433.896	20.89
434.101	20.7
434.306	20.72
434.511	20.86
434.716	20.86
434.921	20.8
435.126	20.97
435.331	20.99
435.535	21.06
435.74	21.11
435.945	21.11
436.15	21.19
436.355	21.48
436.56	21.45
436.765	21.57
436.97	21.53
437.174	21.22
437.379	20.98
437.584	21.32
437.789	21.09
437.993	21.11
438.198	21.14
438.403	21.17
438.608	20.82
438.812	20.57
439.017	20.31
439.222	20.34
439.426	20.4
439.631	20.33
439.836	20.02
440.04	20
440.245	20.04
440.45	19.84
440.654	19.77
440.859	19.79
441.063	19.88
441.268	19.97
441.472	20.09
441.677	20.27
441.881	20.51
442.086	20.55
442.29	20.62
442.495	20.54
442.699	20.7
442.904	20.83
443.108	20.82
443.312	20.87
443.517	20.83
443.721	20.68
443.925	20.51
444.13	20.24
444.334	20.3
444.538	20.24
444.743	20.12
444.947	20.18
445.151	19.93
445.356	19.91
445.56	19.91
445.764	20.01
445.968	20.02
446.173	20.04
446.377	20.03
446.581	20.05
446.785	20.04
446.989	20.14
447.193	20.12
447.398	20.28
447.602	20.24
447.806	20.24
448.01	20.04
448.214	19.92
448.418	19.86
448.622	19.78
448.826	19.75
449.03	19.8
449.234	19.83
449.438	19.68
449.642	19.6
449.846	19.6
450.05	19.6
450.254	19.64
450.458	19.71
450.662	19.81
450.866	19.92
451.069	20
451.273	19.81
451.477	19.87
451.681	20.06
451.885	20.08
452.089	20.21
452.292	20.29
452.496	20.19
