Data from LC_196_Reflection_1.txt Node
Date: Tue Nov 17 13:49:43 EST 2015
User: robert
Spectrometer: USB4E03001
Autoset integration time: false
Trigger mode: 4
Integration Time (sec): 1.000000E-1
Scans to average: 15
Electric dark correction enabled: true
Nonlinearity correction enabled: false
Boxcar width: 5
Stray light correction enabled: false
XAxis mode: Wavelengths
Stop averaging: false
Number of Pixels in Spectrum: 3648
>>>>>Begin Spectral Data<<<<<
177.566	417.43
177.785	444.85
178.005	-2326.49
178.225	522.06
178.445	-687.22
178.665	-246.85
178.885	-166.5
179.105	-512.01
179.324	1238.19
179.544	1727.11
179.764	611.28
179.984	307.6
180.204	358.69
180.423	876.95
180.643	1117.17
180.863	-4612.64
181.083	-6576.79
181.302	1443.12
181.522	739.96
181.742	2272.84
181.961	27607.84
182.181	-1380.02
182.401	-360.66
182.621	-910.63
182.84	-921.51
183.06	-2937.52
183.279	3318.32
183.499	-19567.23
183.719	-1842.74
183.938	-536.62
184.158	-829.94
184.377	-1009.17
184.597	-989.53
184.816	810.37
185.036	779.98
185.256	896.78
185.475	545.41
185.695	672.73
185.914	529.97
186.134	576.13
186.353	359.09
186.572	433.02
186.792	355.89
187.011	333.49
187.231	1311.39
187.45	5025.35
187.67	918.03
187.889	1012.6
188.108	721.6
188.328	674.5
188.547	706.04
188.766	-3639.26
188.986	2744.5
189.205	796.85
189.424	1003.88
189.644	734.67
189.863	522.54
190.082	487
190.302	529.22
190.521	757.59
190.74	15550.65
190.959	2210.98
191.178	557.62
191.398	559.37
191.617	1580.15
191.836	1076.69
192.055	665.16
192.274	-1772.6
192.494	-988.02
192.713	-3023.02
192.932	-1312.8
193.151	2493.82
193.37	33307.94
193.589	-1130450
193.808	30398.88
194.027	-4113.38
194.246	-1808.15
194.465	7682.04
194.685	895.7
194.904	776.22
195.123	124808.33
195.342	2940.85
195.561	960.99
195.78	773.73
195.999	958.26
196.218	588.75
196.436	493.38
196.655	351.95
196.874	438.25
197.093	435
197.312	328.31
197.531	308.61
197.75	311.52
197.969	334.21
198.188	332.11
198.407	319.42
198.625	400.63
198.844	387.19
199.063	356.45
199.282	356.21
199.501	319.38
199.719	481.27
199.938	481.16
200.157	503.66
200.376	1511.25
200.594	818.74
200.813	498.89
201.032	691
201.251	690.62
201.469	10167.18
201.688	3196.43
201.907	-14934.32
202.125	4629.06
202.344	4250.31
202.563	3862.83
202.781	2523.56
203	-2892.23
203.218	-632.18
203.437	-888.8
203.656	-673.13
203.874	-1627.98
204.093	-2226.73
204.311	-2310.49
204.53	41773.68
204.748	-1791.01
204.967	7126.05
205.185	1337.69
205.404	630.5
205.622	559.07
205.841	462.52
206.059	525.51
206.278	410.62
206.496	411.84
206.715	382.53
206.933	454.14
207.151	397.28
207.37	391.74
207.588	481.05
207.806	626.48
208.025	576.75
208.243	525.93
208.461	562.57
208.68	892.72
208.898	-1358.26
209.116	-2241.4
209.335	4997.03
209.553	-3485.86
209.771	1543.06
209.989	485.76
210.208	693.06
210.426	611.43
210.644	580.37
210.862	383.75
211.081	257.16
211.299	184.43
211.517	218.09
211.735	230.19
211.953	219.49
212.171	240.67
212.39	713.51
212.608	637.66
212.826	984.34
213.044	1055.31
213.262	1058.6
213.48	-43892.54
213.698	-2180.41
213.916	998.42
214.134	-1949.65
214.352	-566.44
214.57	-641.1
214.788	6494.01
215.006	2289.4
215.224	2057.79
215.442	1294.02
215.66	1380.61
215.878	857.23
216.096	417.59
216.314	503.77
216.532	273.15
216.75	212.47
216.968	234.32
217.185	241.86
217.403	262.46
217.621	252.07
217.839	274.93
218.057	283.95
218.275	288.69
218.492	317.36
218.71	335.97
218.928	430.11
219.146	454.4
219.363	471.32
219.581	354.82
219.799	354.35
220.017	377.14
220.234	381.84
220.452	317.01
220.67	303.78
220.887	325.91
221.105	302.16
221.323	283.34
221.54	282.83
221.758	234.15
221.976	231.58
222.193	186.99
222.411	174.32
222.629	189.04
222.846	214.83
223.064	201.8
223.281	192.16
223.499	199.5
223.716	196.06
223.934	190.85
224.151	203.95
224.369	200.55
224.586	233.59
224.804	208.35
225.021	212.52
225.239	193.62
225.456	184.01
225.674	167.03
225.891	164.46
226.108	181.13
226.326	178.5
226.543	154.33
226.76	146.96
226.978	127.61
227.195	124.51
227.413	89.42
227.63	81.58
227.847	81.97
228.064	74.59
228.282	65.49
228.499	60.74
228.716	55.58
228.934	56.69
229.151	56.44
229.368	53.42
229.585	51.25
229.802	54.95
230.02	55.99
230.237	56.97
230.454	57.41
230.671	63.11
230.888	63.77
231.105	64.77
231.323	63.8
231.54	64.64
231.757	68.82
231.974	69.87
232.191	69.74
232.408	70.71
232.625	70.11
232.842	74.55
233.059	74.11
233.276	72.78
233.493	79.36
233.71	82.8
233.927	79.04
234.144	83.06
234.361	90.54
234.578	96.29
234.795	94.53
235.012	96.8
235.229	97.86
235.446	92.26
235.663	89.62
235.879	88.61
236.096	88.26
236.313	87.32
236.53	84.13
236.747	78.62
236.964	79.77
237.181	80.68
237.397	77.54
237.614	75.93
237.831	79.03
238.048	82.34
238.264	79.56
238.481	79.06
238.698	78.62
238.915	76.9
239.131	74.8
239.348	71.73
239.565	65.59
239.781	66.99
239.998	65.36
240.215	61.72
240.431	59.55
240.648	54.31
240.865	52.58
241.081	52.33
241.298	49.74
241.514	48.62
241.731	44.87
241.947	42.89
242.164	37.76
242.38	34.51
242.597	34.59
242.814	34.84
243.03	34.04
243.246	32.62
243.463	30.86
243.679	31.85
243.896	31.04
244.112	29.64
244.329	31.95
244.545	33.57
244.762	37.01
244.978	36.32
245.194	34.72
245.411	35.17
245.627	33.41
245.843	32.12
246.06	27.94
246.276	26.39
246.492	26.45
246.709	24.65
246.925	24.6
247.141	23.7
247.357	22.8
247.574	21.99
247.79	22.86
248.006	23.13
248.222	23.4
248.439	24.16
248.655	24.11
248.871	24.25
249.087	25.01
249.303	25.65
249.519	26.21
249.736	27.88
249.952	29.78
250.168	31.98
250.384	34.42
250.6	37.44
250.816	37.4
251.032	38.68
251.248	39.81
251.464	40.8
251.68	41.13
251.896	40.56
252.112	38.45
252.328	37.15
252.544	33.75
252.76	33.48
252.976	33
253.192	35.42
253.408	36.03
253.624	35.37
253.84	34.47
254.056	32.9
254.272	34.26
254.487	37.57
254.703	38.19
254.919	42.59
255.135	45.32
255.351	43
255.567	38.67
255.782	36.09
255.998	36.17
256.214	37.76
256.43	37.73
256.646	38.8
256.861	34.64
257.077	34.89
257.293	32.63
257.508	29.85
257.724	29.28
257.94	30.13
258.155	29.65
258.371	29.28
258.587	25.79
258.802	24.51
259.018	22.3
259.234	21.87
259.449	20.6
259.665	18.93
259.88	18.44
260.096	19.26
260.312	18.4
260.527	17.98
260.743	18.09
260.958	18.79
261.174	19.26
261.389	18.57
261.605	19.53
261.82	20.06
262.036	21.06
262.251	20.66
262.466	18.67
262.682	20.68
262.897	20.7
263.113	19.24
263.328	19.37
263.543	20.74
263.759	23.4
263.974	23.97
264.189	24.23
264.405	25.8
264.62	29.14
264.835	31.81
265.051	32.58
265.266	35.97
265.481	37.61
265.696	38.24
265.912	37.64
266.127	35.17
266.342	31.7
266.557	30.52
266.773	29.1
266.988	27.34
267.203	26.82
267.418	25.96
267.633	24.73
267.848	23.16
268.064	19.95
268.279	19.27
268.494	19.47
268.709	20.91
268.924	21.31
269.139	21.64
269.354	22.88
269.569	22.92
269.784	21.61
269.999	21.44
270.214	21.52
270.429	24.12
270.644	23.31
270.859	22.97
271.074	22.76
271.289	22.73
271.504	22.05
271.719	20.6
271.934	20
272.149	19.73
272.363	19.83
272.578	20.46
272.793	19.67
273.008	20.01
273.223	20.2
273.438	19.87
273.653	20.4
273.867	21.79
274.082	22.37
274.297	22.6
274.512	23.61
274.726	24.48
274.941	23.96
275.156	24.51
275.371	23.98
275.585	25.92
275.8	26.68
276.015	27.24
276.229	24.9
276.444	23.73
276.659	24.96
276.873	24.68
277.088	24.54
277.302	23.82
277.517	23.53
277.732	23.6
277.946	22.89
278.161	23.68
278.375	22.58
278.59	24.22
278.804	24.82
279.019	24.02
279.233	22.74
279.448	21.15
279.662	22.7
279.877	22.61
280.091	21.72
280.306	20.75
280.52	19.96
280.735	19.83
280.949	17.76
281.163	18.82
281.378	18.83
281.592	20.11
281.806	19.22
282.021	19.28
282.235	19.24
282.449	21.17
282.664	21.82
282.878	22.29
283.092	22.92
283.307	23.61
283.521	22.89
283.735	21.4
283.949	20.81
284.164	21.77
284.378	20.58
284.592	19.96
284.806	18.95
285.02	17.35
285.234	16.1
285.449	15.73
285.663	16.68
285.877	16.84
286.091	17.16
286.305	17.19
286.519	17.24
286.733	17.69
286.947	18.2
287.161	17.82
287.375	18.53
287.589	19.09
287.803	19.15
288.017	18.41
288.231	18.34
288.445	19.28
288.659	19.06
288.873	18.58
289.087	19.27
289.301	20.42
289.515	21.49
289.729	21.91
289.943	21.58
290.157	20.7
290.371	20.83
290.584	20.41
290.798	19.12
291.012	20.16
291.226	21.32
291.44	20.16
291.654	20.06
291.867	18.64
292.081	17.37
292.295	18.41
292.509	19.68
292.722	20.16
292.936	20.41
293.15	21.2
293.364	20.19
293.577	20.66
293.791	20.62
294.005	20.06
294.218	21
294.432	21.22
294.645	20.16
294.859	19.48
295.073	18.56
295.286	17.23
295.5	16.96
295.713	16.93
295.927	15.17
296.14	15.1
296.354	14.18
296.568	13.12
296.781	13.69
296.994	14.25
297.208	14.2
297.421	14.12
297.635	14.85
297.848	14.73
298.062	14.84
298.275	15.09
298.489	15.52
298.702	16.3
298.915	16.63
299.129	16.38
299.342	16.01
299.555	16.02
299.769	16.84
299.982	17.53
300.195	17.8
300.409	17.83
300.622	18.19
300.835	17.88
301.048	17.53
301.262	18.51
301.475	18.46
301.688	18.87
301.901	19.18
302.115	19.91
302.328	19.57
302.541	19.04
302.754	18.8
302.967	19.98
303.18	20.61
303.393	20.61
303.607	19.98
303.82	20.68
304.033	19.05
304.246	18.83
304.459	18.47
304.672	18.45
304.885	19.47
305.098	19.02
305.311	18.67
305.524	18.95
305.737	19.07
305.95	20.1
306.163	18.24
306.376	19.32
306.589	19.21
306.802	18.11
307.015	18.6
307.228	20.02
307.44	20.39
307.653	19.46
307.866	19.23
308.079	19.86
308.292	19.76
308.505	21.95
308.718	21.88
308.93	21.85
309.143	21.82
309.356	21.12
309.569	19.68
309.781	20.61
309.994	19.81
310.207	18.68
310.42	17
310.632	16.71
310.845	16.08
311.058	15.66
311.27	14.48
311.483	13.79
311.696	13.83
311.908	13.42
312.121	12.55
312.333	14.1
312.546	14.85
312.759	15.58
312.971	15.88
313.184	16.37
313.396	16.85
313.609	18.7
313.821	20.29
314.034	21.27
314.246	22.25
314.459	23.66
314.671	22.55
314.884	22.35
315.096	22.06
315.309	21.43
315.521	21.64
315.733	22
315.946	20.84
316.158	20.72
316.371	20.32
316.583	20.4
316.795	19.14
317.008	18.92
317.22	19.24
317.432	21.3
317.644	20.89
317.857	20.83
318.069	20.46
318.281	21.58
318.494	21.72
318.706	21.55
318.918	21.47
319.13	22.54
319.342	23.53
319.555	23.53
319.767	22.96
319.979	22.9
320.191	22.45
320.403	22.98
320.615	22.64
320.827	22.35
321.039	23.19
321.252	23.61
321.464	22.96
321.676	23.81
321.888	24.02
322.1	23.37
322.312	23.52
322.524	23.48
322.736	23.1
322.948	23.05
323.16	21.89
323.372	20.51
323.584	20.48
323.796	20.68
324.007	19.85
324.219	20.28
324.431	20.88
324.643	21.47
324.855	22.27
325.067	22.78
325.279	22.43
325.491	22.74
325.702	23.55
325.914	23.45
326.126	22.46
326.338	22.91
326.55	21.4
326.761	21.25
326.973	21.15
327.185	20.36
327.396	20.17
327.608	20.85
327.82	20.97
328.032	21.32
328.243	20.45
328.455	21.36
328.666	21.07
328.878	22.61
329.09	22.11
329.301	22.29
329.513	22.37
329.725	22.17
329.936	23.21
330.148	25.33
330.359	24.58
330.571	25.73
330.782	25.89
330.994	25.72
331.205	24.82
331.417	24.86
331.628	24.78
331.84	26.21
332.051	25.35
332.262	24.96
332.474	23.02
332.685	23.84
332.897	23.51
333.108	23.73
333.319	22.97
333.531	22.89
333.742	22.43
333.953	21.2
334.165	19.91
334.376	21.07
334.587	20.36
334.799	20.2
335.01	19.45
335.221	18.44
335.432	17.74
335.644	18.45
335.855	18.72
336.066	19.95
336.277	20.7
336.488	20.27
336.7	20.19
336.911	20.13
337.122	20.63
337.333	20.62
337.544	21.54
337.755	21.13
337.966	20.53
338.177	20.73
338.388	19.7
338.599	19.66
338.811	20.02
339.022	19.16
339.233	18.4
339.444	17.76
339.655	17.64
339.866	18.51
340.076	18.63
340.287	19.14
340.498	19.54
340.709	20.73
340.92	21.14
341.131	20.56
341.342	20.87
341.553	22.15
341.764	23.28
341.975	23.9
342.185	22.78
342.396	22.84
342.607	23.1
342.818	23.03
343.029	22.63
343.239	21.83
343.45	21.67
343.661	21.98
343.872	21.56
344.082	21.24
344.293	21.23
344.504	22.62
344.714	22.49
344.925	21.98
345.136	21.13
345.346	20.39
345.557	20.3
345.768	21.16
345.978	21.11
346.189	21.27
346.399	21.04
346.61	20.64
346.821	19.07
347.031	19.4
347.242	19.69
347.452	20.13
347.663	20.34
347.873	21.16
348.084	19.86
348.294	20.19
348.504	19.04
348.715	19.02
348.925	18.81
349.136	18.21
349.346	18.15
349.557	17.65
349.767	17.38
349.977	16.52
350.188	16.45
350.398	17.9
350.608	17.1
350.819	17.27
351.029	17.01
351.239	18.03
351.449	18.78
351.66	19
351.87	19.22
352.08	19.56
352.29	20.26
352.501	19.77
352.711	19.62
352.921	20.33
353.131	20.99
353.341	21.53
353.552	19.91
353.762	19.7
353.972	19.22
354.182	20.67
354.392	20.71
354.602	21.49
354.812	21.71
355.022	21.48
355.232	20.71
355.442	20.36
355.652	20.05
355.862	20.7
356.072	20.59
356.282	20.98
356.492	19.35
356.702	18.94
356.912	18.67
357.122	18.95
357.332	18.29
357.542	17.94
357.752	18.46
357.962	18.4
358.171	17.97
358.381	17.81
358.591	17.34
358.801	17.68
359.011	17.51
359.221	17.23
359.43	16.9
359.64	16.59
359.85	16.6
360.06	16.22
360.269	15.79
360.479	15.78
360.689	15.54
360.899	15.66
361.108	15.12
361.318	14.97
361.528	14.5
361.737	14.19
361.947	14.38
362.156	15.08
362.366	14.65
362.576	14.5
362.785	14.38
362.995	14.49
363.204	14.19
363.414	14.41
363.623	14.36
363.833	14.61
364.042	14.43
364.252	13.99
364.461	12.93
364.671	13.33
364.88	13.4
365.09	13.7
365.299	13.83
365.509	13.92
365.718	14.13
365.927	14.2
366.137	14.61
366.346	15.31
366.555	15.91
366.765	16.35
366.974	15.6
367.183	15.79
367.393	15.52
367.602	15.47
367.811	16.02
368.021	15.8
368.23	16.51
368.439	16.47
368.648	15.78
368.857	15.91
369.067	16.37
369.276	17.13
369.485	17.71
369.694	17.8
369.903	17.98
370.112	17.47
370.321	17.74
370.531	16.56
370.74	15.94
370.949	15.73
371.158	15.45
371.367	14.89
371.576	14.83
371.785	14.2
371.994	14.11
372.203	13.96
372.412	14.38
372.621	14.1
372.83	14.59
373.039	15.06
373.248	15.19
373.457	15.74
373.666	15.36
373.874	14.76
374.083	14.95
374.292	15.29
374.501	15.44
374.71	14.72
374.919	14.46
375.128	14.32
375.336	13.98
375.545	14.14
375.754	13.27
375.963	13.27
376.171	13.39
376.38	13.67
376.589	13.29
376.798	12.5
377.006	12.87
377.215	13.34
377.424	13.36
377.632	13.33
377.841	13.47
378.05	14.02
378.258	14.23
378.467	14.35
378.675	13.99
378.884	14.35
379.093	15
379.301	15.01
379.51	14.67
379.718	14.52
379.927	14.82
380.135	14.54
380.344	14.73
380.552	14.76
380.761	14.86
380.969	14.79
381.177	14.18
381.386	14.22
381.594	13.91
381.803	13.56
382.011	13.34
382.219	12.94
382.428	13.21
382.636	12.47
382.845	12.04
383.053	11.69
383.261	11.49
383.469	11.84
383.678	11.84
383.886	11.8
384.094	12.07
384.302	12.46
384.511	12.48
384.719	12.05
384.927	12.17
385.135	12.48
385.343	12.49
385.552	12.91
385.76	12.68
385.968	12.51
386.176	12.28
386.384	12.08
386.592	11.94
386.8	12.1
387.008	12.36
387.216	12.34
387.424	12.42
387.633	12.51
387.841	11.8
388.049	12.17
388.257	12.33
388.465	12.57
388.672	12.57
388.88	12.36
389.088	12.09
389.296	11.67
389.504	11.92
389.712	11.84
389.92	11.58
390.128	12.13
390.336	12.02
390.544	11.54
390.751	11.23
390.959	11.18
391.167	11.17
391.375	11.23
391.583	11.45
391.79	11.15
391.998	11.15
392.206	11.43
392.414	10.98
392.621	10.96
392.829	10.98
393.037	11.13
393.244	11.36
393.452	11.39
393.66	11.07
393.867	11.11
394.075	11.03
394.283	10.83
394.49	10.65
394.698	10.93
394.905	10.69
395.113	11.04
395.32	10.93
395.528	10.9
395.735	10.98
395.943	11.17
396.15	10.95
396.358	11.05
396.565	10.79
396.773	10.97
396.98	11.19
397.188	11.5
397.395	10.94
397.602	11
397.81	10.91
398.017	10.87
398.225	11.27
398.432	11.43
398.639	11.67
398.847	12.36
399.054	12.22
399.261	11.9
399.468	11.64
399.676	12.15
399.883	12.19
400.09	12.13
400.297	12.35
400.505	11.99
400.712	12.48
400.919	12.39
401.126	11.66
401.333	11.83
401.54	11.73
401.748	11.74
401.955	11.7
402.162	11.67
402.369	11.61
402.576	11.53
402.783	11.29
402.99	10.67
403.197	10.58
403.404	10.74
403.611	10.47
403.818	10.43
404.025	10.19
404.232	9.79
404.439	9.71
404.646	9.76
404.853	9.9
405.06	10.04
405.267	10.08
405.474	9.71
405.681	9.7
405.887	9.73
406.094	9.88
406.301	10.18
406.508	10.36
406.715	10.58
406.922	10.59
407.128	10.37
407.335	10.21
407.542	10.32
407.749	10.92
407.955	11.12
408.162	11.36
408.369	11.55
408.575	11.82
408.782	11.91
408.989	11.61
409.195	11.76
409.402	11.78
409.609	11.77
409.815	11.57
410.022	11.13
410.228	10.86
410.435	10.8
410.642	10.66
410.848	10.21
411.055	10.01
411.261	10.16
411.468	9.99
411.674	10.02
411.881	10.03
412.087	10.33
412.294	10.35
412.5	10.31
412.706	9.89
412.913	9.52
413.119	9.59
413.326	9.74
413.532	9.58
413.738	9.5
413.945	8.99
414.151	8.98
414.357	9.06
414.564	9.25
414.77	9.34
414.976	9.8
415.182	10.12
415.389	10
415.595	9.76
415.801	9.7
416.007	9.84
416.214	10.12
416.42	9.94
416.626	9.75
416.832	9.7
417.038	9.66
417.244	9.33
417.45	9.33
417.657	9.31
417.863	9.39
418.069	9.43
418.275	9.27
418.481	9.38
418.687	9.49
418.893	9.51
419.099	9.19
419.305	9.43
419.511	9.59
419.717	9.45
419.923	9.27
420.129	9.21
420.335	9.2
420.541	8.99
420.746	8.73
420.952	8.66
421.158	8.53
421.364	8.65
421.57	8.48
421.776	8.35
421.982	8.24
422.187	8.26
422.393	8.26
422.599	8.14
422.805	8.26
423.01	8.37
423.216	8.44
423.422	8.44
423.628	8.55
423.833	8.47
424.039	8.23
424.245	8.26
424.45	8.24
424.656	8.19
424.862	8.33
425.067	8.34
425.273	8.31
425.478	8.25
425.684	8.12
425.889	8.12
426.095	8.21
426.301	8.38
426.506	8.44
426.712	8.55
426.917	8.57
427.123	8.52
427.328	8.65
427.533	8.71
427.739	8.74
427.944	8.65
428.15	8.59
428.355	8.52
428.561	8.85
428.766	8.81
428.971	8.96
429.177	9.11
429.382	9.08
429.587	9.11
429.793	9.21
429.998	9.13
430.203	9.53
430.408	9.3
430.614	9.25
430.819	9.07
431.024	9.09
431.229	8.95
431.434	8.89
431.64	9.09
431.845	9
432.05	8.96
432.255	8.96
432.46	8.93
432.665	9.28
432.87	9.31
433.076	9.27
433.281	9.32
433.486	9.3
433.691	9.28
433.896	8.91
434.101	8.87
434.306	8.92
434.511	9.02
434.716	8.89
434.921	8.72
435.126	8.79
435.331	8.84
435.535	8.89
435.74	8.94
435.945	9.06
436.15	9.17
436.355	9.35
436.56	9.17
436.765	9.35
436.97	9.41
437.174	9.24
437.379	9.19
437.584	9.49
437.789	9.33
437.993	9.4
438.198	9.15
438.403	9.22
438.608	8.97
438.812	8.83
439.017	8.63
439.222	8.49
439.426	8.49
439.631	8.35
439.836	7.97
440.04	7.94
440.245	7.85
440.45	7.87
440.654	7.77
440.859	7.76
441.063	7.87
441.268	7.74
441.472	7.89
441.677	8.1
441.881	8.11
442.086	8.27
442.29	8.3
442.495	8.35
442.699	8.45
442.904	8.62
443.108	8.51
443.312	8.45
443.517	8.53
443.721	8.51
443.925	8.26
444.13	8.31
444.334	8.2
444.538	8.15
444.743	7.81
444.947	7.92
445.151	7.68
445.356	7.75
445.56	7.86
445.764	7.95
445.968	7.98
446.173	7.98
446.377	7.83
446.581	7.77
446.785	7.79
446.989	7.94
447.193	7.82
447.398	7.99
447.602	8.06
447.806	8.06
448.01	7.91
448.214	7.79
448.418	7.83
448.622	7.95
448.826	8.12
449.03	8.13
449.234	8.15
449.438	7.95
449.642	8.01
449.846	8.03
450.05	7.96
450.254	7.96
450.458	8
450.662	7.9
450.866	7.95
451.069	7.8
451.273	7.61
451.477	7.6
451.681	7.79
451.885	7.69
452.089	7.62
452.292	7.58
452.496	7.7
452.7	7.72
452.904	7.86
453.107	8.01
453.311	8.11
453.515	8.29
453.719	8.38
453.922	8.45
454.126	8.34
454.33	8.4
454.533	8.25
454.737	8.27
454.94	8.28
455.144	8.22
455.348	8.12
455.551	8
455.755	8.06
455.958	7.94
