Data from LC_152_Reflection_3.txt Node
Date: Mon Nov 16 22:09:03 EST 2015
User: robert
Spectrometer: USB4E03001
Autoset integration time: false
Trigger mode: 4
Integration Time (sec): 1.000000E-1
Scans to average: 15
Electric dark correction enabled: true
Nonlinearity correction enabled: false
Boxcar width: 5
Stray light correction enabled: false
XAxis mode: Wavelengths
Stop averaging: false
Number of Pixels in Spectrum: 3648
>>>>>Begin Spectral Data<<<<<
177.566	-113.25
177.785	139.97
178.005	-378.99
178.225	59.92
178.445	-46.86
178.665	386.99
178.885	276.47
179.105	66.36
179.324	-346.73
179.544	22.41
179.764	-241.58
179.984	-161.71
180.204	-215.1
180.423	-143.17
180.643	-225.86
180.863	-119.22
181.083	-93.81
181.302	-126.08
181.522	-129.62
181.742	-122.51
181.961	-235.47
182.181	-249.01
182.401	-254.51
182.621	-972.8
182.84	-479.29
183.06	-321.77
183.279	-219.26
183.499	-145.19
183.719	-100.27
183.938	-61.29
184.158	-105.04
184.377	-54.39
184.597	-83.33
184.816	-30.86
185.036	15.59
185.256	22.04
185.475	17.52
185.695	35.73
185.914	-1.9
186.134	-100.17
186.353	-242.13
186.572	-235.49
186.792	-552.83
187.011	-214.31
187.231	-248.1
187.45	-235.1
187.67	-686.24
187.889	-1844.25
188.108	3823
188.328	-954.8
188.547	-337.61
188.766	-568.64
188.986	-749.15
189.205	-487.1
189.424	-304.31
189.644	-972.51
189.863	-1020.45
190.082	-648.77
190.302	-1521.22
190.521	-706.58
190.74	790.16
190.959	341.61
191.178	493.21
191.398	449.49
191.617	346
191.836	305.98
192.055	483.36
192.274	292.02
192.494	315.74
192.713	281.31
192.932	638.12
193.151	553.49
193.37	1294.65
193.589	-734.34
193.808	-208.24
194.027	-359.56
194.246	-3325.98
194.465	734.43
194.685	1478.94
194.904	774.89
195.123	-1008.75
195.342	-707.46
195.561	-272.05
195.78	-382.29
195.999	17942.25
196.218	707.62
196.436	575.84
196.655	-1820.73
196.874	-475.76
197.093	-786.21
197.312	-578.29
197.531	1766.92
197.75	421.83
197.969	-1296.69
198.188	-206.12
198.407	-30.39
198.625	2.39
198.844	27.46
199.063	-0.97
199.282	-144.01
199.501	-92.34
199.719	-95.34
199.938	-45.99
200.157	-54.57
200.376	-69
200.594	-123.53
200.813	-333.26
201.032	-241.68
201.251	-254.98
201.469	-239.39
201.688	-155.85
201.907	-277.84
202.125	-358.15
202.344	13664.29
202.563	2721.44
202.781	417.27
203	1055.36
203.218	830.71
203.437	764.83
203.656	391.08
203.874	235.57
204.093	217.02
204.311	276.54
204.53	242.36
204.748	396.08
204.967	242.84
205.185	261.95
205.404	364.6
205.622	219.45
205.841	163.74
206.059	153.88
206.278	168.98
206.496	444.91
206.715	236.57
206.933	243.95
207.151	156.46
207.37	177.37
207.588	195.17
207.806	116.92
208.025	231.73
208.243	-297.82
208.461	930.64
208.68	-7737.65
208.898	371.23
209.116	403.74
209.335	441.78
209.553	495.82
209.771	4766.25
209.989	927.87
210.208	2105.51
210.426	-3522.53
210.644	1951.99
210.862	-1363.71
211.081	761.41
211.299	-326.41
211.517	1469.38
211.735	-308.91
211.953	-113271.43
212.171	-1534.64
212.39	-4355.86
212.608	-13139.13
212.826	543.25
213.044	413.44
213.262	324.21
213.48	1442.41
213.698	193.04
213.916	256.42
214.134	149.15
214.352	250.72
214.57	300.49
214.788	397.17
215.006	383
215.224	300.41
215.442	249.46
215.66	280.56
215.878	207.71
216.096	195.98
216.314	231.26
216.532	509.07
216.75	463.81
216.968	374.5
217.185	794.6
217.403	1187.57
217.621	-3721.51
217.839	-954.51
218.057	-909.92
218.275	2195.58
218.492	737.23
218.71	979.62
218.928	227.17
219.146	242.57
219.363	225.03
219.581	187.47
219.799	162.35
220.017	179.16
220.234	180.09
220.452	185.06
220.67	184.03
220.887	165.47
221.105	189.29
221.323	160.5
221.54	132.05
221.758	138.13
221.976	147.53
222.193	107
222.411	35.71
222.629	64.92
222.846	79.45
223.064	81.57
223.281	105.19
223.499	94.8
223.716	102.96
223.934	71.54
224.151	61.34
224.369	39.98
224.586	46.54
224.804	56.96
225.021	55.75
225.239	40.25
225.456	51.67
225.674	35.23
225.891	45.37
226.108	54.54
226.326	66.23
226.543	73.72
226.76	72.65
226.978	68.25
227.195	71.84
227.413	56.16
227.63	48.91
227.847	40.24
228.064	37.12
228.282	32.64
228.499	28.95
228.716	24.35
228.934	19.85
229.151	21.74
229.368	19.18
229.585	17
229.802	20.1
230.02	20.58
230.237	21.9
230.454	22.05
230.671	22.7
230.888	22.37
231.105	24.16
231.323	28.27
231.54	26.02
231.757	27.88
231.974	27.47
232.191	24.26
232.408	28.26
232.625	27.9
232.842	31.11
233.059	30.86
233.276	26.6
233.493	26.36
233.71	22.41
233.927	27.21
234.144	22.88
234.361	21.04
234.578	25.04
234.795	21.95
235.012	20.76
235.229	23.1
235.446	22.53
235.663	25.35
235.879	28.19
236.096	24.58
236.313	23.35
236.53	28.05
236.747	29.41
236.964	25.97
237.181	29.35
237.397	29.61
237.614	22.8
237.831	23.63
238.048	28.52
238.264	27.21
238.481	29.78
238.698	31.53
238.915	27.03
239.131	27.18
239.348	24.31
239.565	24.65
239.781	24.12
239.998	25.65
240.215	25.09
240.431	21.76
240.648	20.96
240.865	21.56
241.081	19.34
241.298	20.34
241.514	19.89
241.731	19.95
241.947	19.37
242.164	20.11
242.38	19.15
242.597	18.22
242.814	17.84
243.03	17.15
243.246	17.08
243.463	17.32
243.679	18.16
243.896	16.65
244.112	17.52
244.329	16.67
244.545	15.69
244.762	17.03
244.978	17.82
245.194	18.59
245.411	18.86
245.627	18.23
245.843	17.46
246.06	15.88
246.276	16.81
246.492	15.31
246.709	14.91
246.925	14.91
247.141	14.34
247.357	13.77
247.574	13.28
247.79	13.23
248.006	12.16
248.222	12.18
248.439	12.15
248.655	12.24
248.871	12.81
249.087	12.98
249.303	12.24
249.519	13.23
249.736	14.01
249.952	13.81
250.168	14.97
250.384	16.76
250.6	17.18
250.816	16.89
251.032	15.64
251.248	15.21
251.464	15.95
251.68	16.16
251.896	15.83
252.112	17.49
252.328	18.64
252.544	18.11
252.76	18.83
252.976	19.02
253.192	19.78
253.408	20.1
253.624	22.16
253.84	21.42
254.056	23.33
254.272	20.48
254.487	18.75
254.703	16.03
254.919	16.01
255.135	13.03
255.351	12.14
255.567	12.9
255.782	14.85
255.998	11.84
256.214	12.67
256.43	9.6
256.646	13.67
256.861	13.23
257.077	14.29
257.293	11.93
257.508	11.26
257.724	13.51
257.94	12.41
258.155	10.41
258.371	12.03
258.587	11.3
258.802	11.64
259.018	11.35
259.234	10.95
259.449	11.01
259.665	10.87
259.88	11.82
260.096	10.79
260.312	10.1
260.527	10.55
260.743	10.89
260.958	11.32
261.174	10.73
261.389	10.75
261.605	10.86
261.82	11.16
262.036	12.27
262.251	12.55
262.466	12.18
262.682	14.15
262.897	13.7
263.113	11.95
263.328	11.43
263.543	12.71
263.759	11.44
263.974	12.51
264.189	12.71
264.405	11.01
264.62	10.5
264.835	12.56
265.051	13.3
265.266	15.06
265.481	16.1
265.696	17.36
265.912	16.33
266.127	16.1
266.342	14.58
266.557	14.42
266.773	15.09
266.988	15.38
267.203	15.16
267.418	12.67
267.633	11.76
267.848	11.92
268.064	11.05
268.279	12.57
268.494	11.86
268.709	12.56
268.924	12.61
269.139	12.95
269.354	12.17
269.569	10.58
269.784	11.97
269.999	12.02
270.214	10.75
270.429	11.39
270.644	9.56
270.859	10.68
271.074	10.53
271.289	10.31
271.504	10.16
271.719	10.71
271.934	10.35
272.149	9.59
272.363	10
272.578	9.98
272.793	9.05
273.008	9.64
273.223	8.96
273.438	8.03
273.653	8.11
273.867	7.45
274.082	6.68
274.297	8.23
274.512	9.65
274.726	8.5
274.941	9.54
275.156	10.49
275.371	11.52
275.585	11.99
275.8	13.48
276.015	12.55
276.229	12.83
276.444	13.97
276.659	13.83
276.873	13.32
277.088	14.81
277.302	14.05
277.517	15.26
277.732	15.59
277.946	15.54
278.161	15.65
278.375	16.95
278.59	16.63
278.804	16
279.019	15.55
279.233	15.62
279.448	15.03
279.662	14.18
279.877	12.86
280.091	11.58
280.306	11.24
280.52	11.22
280.735	9.65
280.949	9.18
281.163	9.4
281.378	8.37
281.592	8.41
281.806	9.86
282.021	9.5
282.235	9.09
282.449	9.12
282.664	9.44
282.878	8.8
283.092	9.89
283.307	9.69
283.521	9.81
283.735	10.07
283.949	10.3
284.164	9.36
284.378	11.13
284.592	11.17
284.806	11.82
285.02	11.73
285.234	11.36
285.449	10.66
285.663	11.37
285.877	11.24
286.091	11.39
286.305	11.36
286.519	10.65
286.733	9.69
286.947	9.72
287.161	9.47
287.375	10.11
287.589	10.91
287.803	11.13
288.017	10.75
288.231	10.73
288.445	11.23
288.659	10.85
288.873	10.18
289.087	10.42
289.301	10.94
289.515	10.53
289.729	9.43
289.943	9.76
290.157	9.63
290.371	11.44
290.584	10.62
290.798	11.82
291.012	13.06
291.226	13.08
291.44	13.49
291.654	14.09
291.867	14.81
292.081	14.58
292.295	14.83
292.509	15.25
292.722	14.34
292.936	14.88
293.15	14.15
293.364	13.25
293.577	14.31
293.791	14.08
294.005	13.27
294.218	12.57
294.432	13.29
294.645	11.86
294.859	11.44
295.073	11.3
295.286	11.92
295.5	11.36
295.713	11.5
295.927	11.68
296.14	11.85
296.354	11.21
296.568	11.03
296.781	11.72
296.994	12.38
297.208	12.46
297.421	12.6
297.635	11.52
297.848	11.19
298.062	10.47
298.275	10.42
298.489	10.53
298.702	11.25
298.915	12.01
299.129	11.55
299.342	11.54
299.555	11.01
299.769	11.43
299.982	12.38
300.195	12.6
300.409	12.92
300.622	13.18
300.835	13.48
301.048	13.22
301.262	12.93
301.475	12.21
301.688	12.6
301.901	13.53
302.115	13.04
302.328	13.8
302.541	13.57
302.754	14.08
302.967	13.79
303.18	13.46
303.393	13.93
303.607	13.34
303.82	13.82
304.033	12.8
304.246	13.27
304.459	13.06
304.672	11.84
304.885	12.78
305.098	12.93
305.311	13.03
305.524	13.13
305.737	12.39
305.95	13.27
306.163	13.25
306.376	13.57
306.589	13.97
306.802	13.25
307.015	14.16
307.228	14.74
307.44	14.3
307.653	14.29
307.866	12.93
308.079	13.52
308.292	13.57
308.505	13.85
308.718	13.6
308.93	12.08
309.143	13.07
309.356	12.77
309.569	11.81
309.781	12.29
309.994	12.38
310.207	13.73
310.42	13.22
310.632	12.75
310.845	13.09
311.058	12.43
311.27	13.46
311.483	12.85
311.696	13.03
311.908	13.04
312.121	13.28
312.333	12.77
312.546	12.24
312.759	13.25
312.971	12.73
313.184	13.11
313.396	13.97
313.609	14.21
313.821	14.59
314.034	14.88
314.246	15.42
314.459	14.86
314.671	14.95
314.884	14.38
315.096	13.07
315.309	13.08
315.521	12.96
315.733	12.22
315.946	10.73
316.158	9.37
316.371	8.34
316.583	8.21
316.795	7.9
317.008	9.2
317.22	10.49
317.432	9.72
317.644	10.64
317.857	9.55
318.069	10.36
318.281	11.59
318.494	13.16
318.706	14.43
318.918	14.08
319.13	14.28
319.342	14.02
319.555	13.73
319.767	15.38
319.979	15.16
320.191	15.79
320.403	15.7
320.615	16.2
320.827	16.61
321.039	15.54
321.252	15.73
321.464	14.53
321.676	14.24
321.888	13.66
322.1	13.25
322.312	11.52
322.524	10.61
322.736	10.77
322.948	9.12
323.16	8.23
323.372	9.5
323.584	9.26
323.796	8.72
324.007	9.16
324.219	10.17
324.431	9.96
324.643	11.37
324.855	12.22
325.067	12.72
325.279	13.27
325.491	13.65
325.702	12.4
325.914	12.63
326.126	14.37
326.338	14.72
326.55	13.11
326.761	13.37
326.973	13
327.185	13
327.396	12.3
327.608	12.52
327.82	12.98
328.032	13.35
328.243	12.31
328.455	13.28
328.666	12.01
328.878	13.54
329.09	12.52
329.301	12.36
329.513	12.83
329.725	13.31
329.936	12.12
330.148	11.28
330.359	11.24
330.571	11.68
330.782	10.15
330.994	10.99
331.205	10.69
331.417	11.68
331.628	13.08
331.84	13.05
332.051	13.49
332.262	15.27
332.474	14.77
332.685	15.76
332.897	15.86
333.108	16.96
333.319	16.75
333.531	17.24
333.742	17.66
333.953	16.31
334.165	15.77
334.376	16.09
334.587	15.71
334.799	16.57
335.01	15.72
335.221	15.79
335.432	15.52
335.644	15.08
335.855	14.81
336.066	15.11
336.277	15.97
336.488	16.01
336.7	15.41
336.911	16.07
337.122	15.72
337.333	16.79
337.544	17.95
337.755	17.64
337.966	18.54
338.177	18.2
338.388	17.76
338.599	17.75
338.811	17.77
339.022	18.15
339.233	17.35
339.444	18.16
339.655	16.88
339.866	16.8
340.076	17.39
340.287	17.42
340.498	17.86
340.709	18.01
340.92	17.09
341.131	16.6
341.342	16.74
341.553	16.47
341.764	15.87
341.975	16.88
342.185	16.22
342.396	15.19
342.607	15.04
342.818	15.28
343.029	15.55
343.239	16.6
343.45	17.32
343.661	16.96
343.872	17.55
344.082	17.66
344.293	17.05
344.504	17.58
344.714	17.4
344.925	16.65
345.136	16.9
345.346	16.99
345.557	16.81
345.768	16.29
345.978	16
346.189	15.91
346.399	14.94
346.61	15.57
346.821	15.26
347.031	16.04
347.242	16.45
347.452	16.31
347.663	15.43
347.873	15.33
348.084	15.59
348.294	16.44
348.504	16.59
348.715	17.79
348.925	17.67
349.136	17.51
349.346	17.5
349.557	17.87
349.767	17.62
349.977	17.9
350.188	18.27
350.398	18.53
350.608	18.17
350.819	17.98
351.029	18.22
351.239	17.72
351.449	17.19
351.66	17.47
351.87	17.37
352.08	17.08
352.29	17.24
352.501	16.57
352.711	16.17
352.921	16.06
353.131	15.61
353.341	15.17
353.552	14.67
353.762	15.45
353.972	14.97
354.182	14.69
354.392	14.04
354.602	14.04
354.812	14.19
355.022	14.84
355.232	14.8
355.442	15.31
355.652	15.52
355.862	15.58
356.072	15.6
356.282	15.43
356.492	15.46
356.702	15.73
356.912	15.44
357.122	15.14
357.332	14.33
357.542	14.46
357.752	14.12
357.962	13.41
358.171	13.76
358.381	14.19
358.591	14.15
358.801	13.72
359.011	14.43
359.221	14.61
359.43	14.92
359.64	15.58
359.85	16.05
360.06	15.9
360.269	16.54
360.479	15.89
360.689	15.08
360.899	14.98
361.108	15.06
361.318	14.97
361.528	14.63
361.737	14.42
361.947	13.72
362.156	13.3
362.366	13.24
362.576	12.92
362.785	13.44
362.995	13.49
363.204	13.5
363.414	13.49
363.623	12.93
363.833	12.91
364.042	12.73
364.252	13.1
364.461	12.83
364.671	12.79
364.88	13.3
365.09	12.96
365.299	12.57
365.509	11.79
365.718	11.67
365.927	11.67
366.137	12.04
366.346	11.97
366.555	11.89
366.765	12.19
366.974	12.3
367.183	11.64
367.393	11.34
367.602	11.72
367.811	12.77
368.021	13
368.23	13.29
368.439	12.82
368.648	13.37
368.857	13.84
369.067	13.41
369.276	13.03
369.485	13.13
369.694	13.75
369.903	13.92
370.112	13.68
370.321	13.65
370.531	13.54
370.74	13.46
370.949	13.35
371.158	12.97
371.367	13.52
371.576	13.65
371.785	13.48
371.994	13.18
372.203	13.09
372.412	13
372.621	13.12
372.83	12.61
373.039	13.03
373.248	12.75
373.457	12.49
373.666	11.76
373.874	11.58
374.083	12.01
374.292	11.81
374.501	11.84
374.71	11.57
374.919	11.64
375.128	11.91
375.336	11.48
375.545	11.67
375.754	11.4
375.963	11.19
376.171	11.43
376.38	11.55
376.589	11.85
376.798	11.57
377.006	11.9
377.215	12
377.424	12.11
377.632	12.36
377.841	12.48
378.05	12.74
378.258	13.21
378.467	13.23
378.675	12.99
378.884	12.86
379.093	13.05
379.301	12.67
379.51	12.32
379.718	12.16
379.927	12.19
380.135	11.89
380.344	12
380.552	11.65
380.761	11.88
380.969	11.55
381.177	11.49
381.386	11.17
381.594	11.31
381.803	11.37
382.011	11.5
382.219	11.14
382.428	10.68
382.636	10.63
382.845	10.87
383.053	10.35
383.261	10.34
383.469	10.45
383.678	10.95
383.886	11.01
384.094	10.73
384.302	10.47
384.511	10.74
384.719	11.27
384.927	10.84
385.135	10.94
385.343	11.17
385.552	11.32
385.76	11.02
385.968	10.67
386.176	10.51
386.384	10.28
386.592	10.31
386.8	9.85
387.008	9.82
387.216	10.18
387.424	10.08
387.633	10.31
387.841	10.22
388.049	10.32
388.257	10.16
388.465	10.25
388.672	10.76
388.88	10.92
389.088	11
389.296	10.97
389.504	11.14
389.712	11.3
389.92	10.98
390.128	10.85
390.336	11.03
390.544	11.31
390.751	10.93
390.959	10.67
391.167	10.56
391.375	10.9
391.583	10.58
391.79	10.24
391.998	9.91
392.206	10
392.414	10.06
392.621	9.88
392.829	9.87
393.037	9.78
393.244	9.6
393.452	9.45
393.66	9.27
393.867	9.81
394.075	9.98
394.283	9.93
394.49	9.71
394.698	9.74
394.905	9.63
395.113	9.49
395.32	10.07
395.528	10.26
395.735	10.43
395.943	10.39
396.15	9.84
396.358	9.82
396.565	9.78
396.773	10.12
396.98	10.2
397.188	10.11
397.395	10.31
397.602	9.93
397.81	9.74
398.017	9.81
398.225	9.85
398.432	10.12
398.639	9.95
398.847	9.94
399.054	9.69
399.261	9.49
399.468	9.71
399.676	9.21
399.883	9.22
400.09	9.39
400.297	9.36
400.505	9.15
400.712	8.93
400.919	9.12
401.126	9.45
401.333	9.43
401.54	9.52
401.748	9.49
401.955	9.73
402.162	9.93
402.369	9.95
402.576	9.84
402.783	10.08
402.99	10.38
403.197	10.25
403.404	9.89
403.611	9.86
403.818	9.74
404.025	9.7
404.232	9.58
404.439	9.46
404.646	9.29
404.853	9.2
405.06	9.16
405.267	8.79
405.474	8.66
405.681	8.66
405.887	8.7
406.094	8.65
406.301	8.7
406.508	8.79
406.715	8.93
406.922	9.01
407.128	9.01
407.335	9.01
407.542	9.12
407.749	9.33
407.955	9.55
408.162	9.58
408.369	9.72
408.575	9.62
408.782	9.45
408.989	9.2
409.195	9.14
409.402	9.29
409.609	9.11
409.815	9.05
410.022	9.12
410.228	9.04
410.435	8.74
410.642	8.53
410.848	8.68
411.055	8.62
411.261	8.83
411.468	9.02
411.674	8.84
411.881	8.94
412.087	9.23
412.294	9.28
412.5	8.94
412.706	9.14
412.913	9.08
413.119	8.74
413.326	8.83
413.532	8.76
413.738	8.5
413.945	8.56
414.151	8.43
414.357	8.38
414.564	7.95
414.77	8.34
414.976	8.32
415.182	8.58
415.389	8.77
415.595	8.65
415.801	8.69
416.007	8.85
416.214	9.03
416.42	9.12
416.626	8.85
416.832	8.96
417.038	8.78
417.244	8.84
417.45	8.69
417.657	8.77
417.863	9.05
418.069	9.19
418.275	9.15
418.481	8.93
418.687	8.97
418.893	9.08
419.099	9.08
419.305	9.22
419.511	9.19
419.717	9.19
419.923	9.11
420.129	8.98
420.335	8.82
420.541	8.81
420.746	8.9
420.952	8.91
421.158	8.89
421.364	8.87
421.57	8.94
421.776	8.91
421.982	8.89
422.187	8.81
422.393	8.84
422.599	8.79
422.805	8.83
423.01	8.95
423.216	8.91
423.422	8.89
423.628	8.91
423.833	8.81
424.039	8.83
424.245	8.86
424.45	8.94
424.656	8.99
424.862	9.08
425.067	9.08
425.273	8.93
425.478	8.97
425.684	8.9
425.889	9.03
426.095	9.05
426.301	9
426.506	8.99
426.712	9.13
426.917	8.95
427.123	8.98
427.328	8.96
427.533	8.92
427.739	8.94
427.944	9
428.15	8.78
428.355	8.9
428.561	8.85
428.766	8.87
428.971	8.66
429.177	8.94
429.382	8.89
429.587	8.9
429.793	8.89
429.998	8.78
430.203	8.95
430.408	8.97
430.614	8.75
430.819	8.95
431.024	9.14
431.229	9.13
431.434	9.06
431.64	9.01
431.845	9.05
432.05	9.09
432.255	8.89
432.46	8.63
432.665	8.68
432.87	8.64
433.076	8.54
433.281	8.46
433.486	8.46
433.691	8.2
433.896	8.02
434.101	8.01
434.306	8.15
434.511	8.15
434.716	8.36
434.921	8.36
435.126	8.34
435.331	8.34
435.535	8.34
435.74	8.28
435.945	8.55
436.15	8.71
436.355	8.64
436.56	8.54
436.765	8.78
436.97	8.63
437.174	8.59
437.379	8.77
437.584	8.91
437.789	8.87
437.993	9.02
438.198	9.01
438.403	9.1
438.608	9.07
438.812	8.98
439.017	8.98
439.222	9.05
439.426	8.98
439.631	8.93
439.836	8.74
440.04	8.75
440.245	8.76
440.45	8.75
440.654	8.69
440.859	8.61
441.063	8.69
441.268	8.61
441.472	8.54
441.677	8.6
441.881	8.47
442.086	8.53
442.29	8.5
442.495	8.5
442.699	8.56
442.904	8.46
443.108	8.59
443.312	8.56
443.517	8.54
443.721	8.55
443.925	8.57
444.13	8.62
444.334	8.68
444.538	8.58
444.743	8.39
444.947	8.17
445.151	8.25
445.356	8.13
445.56	8.13
445.764	8.1
445.968	8.18
446.173	8.15
446.377	8.36
446.581	8.31
446.785	8.36
446.989	8.46
447.193	8.63
447.398	8.59
447.602	8.53
447.806	8.64
448.01	8.74
448.214	8.74
448.418	8.73
448.622	8.64
448.826	8.69
449.03	8.89
449.234	8.97
449.438	8.77
449.642	8.88
449.846	9.1
450.05	9.01
450.254	8.93
450.458	9.01
450.662	8.95
450.866	8.75
451.069	8.64
451.273	8.43
451.477	8.3
451.681	8.38
451.885	8.19
452.089	8.26
452.292	8.27
452.496	8.31
452.7	8.26
452.904	8.36
453.107	8.48
453.311	8.63
453.515	8.56
453.719	8.36
453.922	8.35
454.126	8.44
454.33	8.3
454.533	8.2
454.737	8.12
454.94	8.08
455.144	8.1
455.348	7.96
455.551	7.9
455.755	7.84
455.958	8.09
456.162	8.08
456.365	8.21
456.569	8.22
456.772	8.1
456.976	8.15
457.179	8.18
457.383	8.07
457.586	8.29
457.79	8.24
457.993	8.37
458.196	8.15
