Data from LC_164_Reflection_3.txt Node
Date: Mon Nov 16 22:51:14 EST 2015
User: robert
Spectrometer: USB4E03001
Autoset integration time: false
Trigger mode: 4
Integration Time (sec): 1.000000E-1
Scans to average: 15
Electric dark correction enabled: true
Nonlinearity correction enabled: false
Boxcar width: 5
Stray light correction enabled: false
XAxis mode: Wavelengths
Stop averaging: false
Number of Pixels in Spectrum: 3648
>>>>>Begin Spectral Data<<<<<
177.566	4851.81
177.785	362.5
178.005	-3328.57
178.225	248.69
178.445	152.05
178.665	4.11
178.885	236.41
179.105	1062.62
179.324	1208.41
179.544	-252.92
179.764	-1351.24
179.984	-525.08
180.204	-410.8
180.423	-417.38
180.643	-557.35
180.863	-338.25
181.083	-286.46
181.302	-373.61
181.522	-295.95
181.742	-264.55
181.961	-432.24
182.181	-366.26
182.401	-486.45
182.621	-1914.95
182.84	-957.28
183.06	-620.98
183.279	-352.58
183.499	-284.45
183.719	-253.04
183.938	-246.39
184.158	-260.97
184.377	-145.23
184.597	-211.06
184.816	-144.43
185.036	-114.75
185.256	-62.6
185.475	-78.91
185.695	-152.72
185.914	-216.69
186.134	-324.64
186.353	-465.3
186.572	-654.16
186.792	-1404.19
187.011	-619.91
187.231	-602.19
187.45	-433.13
187.67	-1181.17
187.889	-3041.88
188.108	5161.39
188.328	-1343.27
188.547	-499.76
188.766	-834.32
188.986	-1088.51
189.205	-687.06
189.424	-457.05
189.644	-970.58
189.863	-938.81
190.082	-626.99
190.302	-1615.37
190.521	-786.76
190.74	757.27
190.959	385.98
191.178	619.27
191.398	551.95
191.617	491.18
191.836	390.26
192.055	1025.7
192.274	453.06
192.494	505.71
192.713	481.34
192.932	1166.54
193.151	884.54
193.37	1550.47
193.589	-971.55
193.808	-262.63
194.027	-271.94
194.246	-3173.46
194.465	634.7
194.685	1522.57
194.904	826.79
195.123	-1143.06
195.342	-755.61
195.561	-375.89
195.78	-519.97
195.999	22574.65
196.218	846.42
196.436	831.54
196.655	-2873.75
196.874	-1149.76
197.093	-1737.28
197.312	-1214.39
197.531	3234.98
197.75	1116.61
197.969	-3961.23
198.188	-930.49
198.407	-280.89
198.625	-307.72
198.844	-262.5
199.063	-290.68
199.282	-554.81
199.501	-337.81
199.719	-232.15
199.938	-158.85
200.157	-123.68
200.376	-118.81
200.594	-186.22
200.813	-378.79
201.032	-317.02
201.251	-296.06
201.469	-260.85
201.688	-183.02
201.907	-338.45
202.125	-556.8
202.344	20396.43
202.563	3861.79
202.781	670.8
203	2019.53
203.218	1407.59
203.437	1150.49
203.656	557.36
203.874	334.73
204.093	331.41
204.311	427.07
204.53	388.69
204.748	589.28
204.967	379.78
205.185	378.14
205.404	379.99
205.622	277.98
205.841	207.17
206.059	242.72
206.278	282.46
206.496	655.64
206.715	398.2
206.933	346.38
207.151	293.74
207.37	322.79
207.588	311.83
207.806	306.22
208.025	639.19
208.243	-1179.96
208.461	1789.54
208.68	-18458.82
208.898	752.47
209.116	790.91
209.335	807.71
209.553	771.8
209.771	8238.33
209.989	1859.07
210.208	3996.2
210.426	-6890.1
210.644	3802.98
210.862	-3432.17
211.081	1454.21
211.299	-682.02
211.517	2726.99
211.735	-544.99
211.953	-184214.29
212.171	-2587.95
212.39	-6944.14
212.608	-18310.87
212.826	715.83
213.044	509.38
213.262	385.07
213.48	2270.68
213.698	261.59
213.916	344.63
214.134	251.63
214.352	505.42
214.57	388.54
214.788	411.89
215.006	333.57
215.224	295.03
215.442	234.76
215.66	212.04
215.878	159.79
216.096	170.78
216.314	198.91
216.532	428.02
216.75	307.95
216.968	253.78
217.185	706.58
217.403	1302.88
217.621	-3601.65
217.839	-1137.55
218.057	-1391.68
218.275	2607.77
218.492	843.77
218.71	1357.23
218.928	418.91
219.146	430.98
219.363	382.81
219.581	269.56
219.799	212.46
220.017	192.32
220.234	178.15
220.452	162.16
220.67	192.57
220.887	190.23
221.105	222.13
221.323	172.21
221.54	203.54
221.758	257.15
221.976	294.41
222.193	292.56
222.411	224.38
222.629	230.77
222.846	252.44
223.064	245.07
223.281	200.28
223.499	183.62
223.716	186.4
223.934	136.86
224.151	131.68
224.369	111.32
224.586	114.42
224.804	114.88
225.021	80.3
225.239	66.16
225.456	70.76
225.674	82.69
225.891	65.64
226.108	74.13
226.326	81.86
226.543	73.82
226.76	69.42
226.978	60.46
227.195	70.02
227.413	66.1
227.63	57.99
227.847	51.25
228.064	45.28
228.282	38.75
228.499	32.56
228.716	24.99
228.934	20.16
229.151	21.51
229.368	20.81
229.585	17.93
229.802	18.18
230.02	17.71
230.237	19.79
230.454	21.39
230.671	23.79
230.888	26.83
231.105	28.23
231.323	30.94
231.54	33.33
231.757	34.66
231.974	35.89
232.191	32.65
232.408	39.43
232.625	32.96
232.842	27
233.059	28.99
233.276	27.51
233.493	34.77
233.71	36.54
233.927	37.36
234.144	38.68
234.361	34.37
234.578	41.34
234.795	36.99
235.012	40.74
235.229	43.21
235.446	44.53
235.663	41.94
235.879	40.99
236.096	38.95
236.313	36.25
236.53	35.28
236.747	38.06
236.964	35.67
237.181	38.27
237.397	35.97
237.614	38.23
237.831	32.83
238.048	34.09
238.264	35.25
238.481	36.59
238.698	36.37
238.915	33.95
239.131	35.77
239.348	36.78
239.565	34.69
239.781	35.53
239.998	31.9
240.215	31.45
240.431	29.25
240.648	26.52
240.865	24.91
241.081	22.68
241.298	22.29
241.514	19.83
241.731	16.7
241.947	17.79
242.164	17.1
242.38	16.28
242.597	16.03
242.814	17.16
243.03	16.93
243.246	17.96
243.463	19.37
243.679	20.9
243.896	19.53
244.112	21.83
244.329	21.6
244.545	21.56
244.762	22.77
244.978	23.75
245.194	21.38
245.411	21.12
245.627	20.84
245.843	20.59
246.06	18.86
246.276	19.56
246.492	17.45
246.709	17.1
246.925	16.17
247.141	15.36
247.357	15.22
247.574	15.94
247.79	16
248.006	14.88
248.222	14.34
248.439	14.08
248.655	14.54
248.871	16.36
249.087	15.79
249.303	16.26
249.519	16.81
249.736	16.5
249.952	15.43
250.168	17.63
250.384	17.95
250.6	18.72
250.816	18.79
251.032	16.9
251.248	14.93
251.464	16.42
251.68	16.95
251.896	17.44
252.112	17.98
252.328	19.31
252.544	18.82
252.76	19.9
252.976	18.8
253.192	20.66
253.408	21.7
253.624	24.52
253.84	22.94
254.056	24.66
254.272	25
254.487	28.36
254.703	28.15
254.919	27.06
255.135	26.58
255.351	27.55
255.567	27.03
255.782	30.53
255.998	27.33
256.214	29.82
256.43	26.95
256.646	28.54
256.861	23.72
257.077	21.56
257.293	18.37
257.508	18.68
257.724	20.29
257.94	19.53
258.155	17.76
258.371	16.4
258.587	14.66
258.802	15.18
259.018	14.36
259.234	14.59
259.449	15.32
259.665	14.99
259.88	15.24
260.096	14
260.312	13.09
260.527	12.83
260.743	13.25
260.958	13.48
261.174	13.05
261.389	13.59
261.605	13.8
261.82	14.21
262.036	15.24
262.251	15.5
262.466	15.89
262.682	17.6
262.897	16.74
263.113	16.84
263.328	18.02
263.543	18.32
263.759	17.37
263.974	17.63
264.189	15.88
264.405	15.89
264.62	16.08
264.835	17.3
265.051	18.24
265.266	21.08
265.481	20.85
265.696	21.06
265.912	22
266.127	20.91
266.342	19.49
266.557	19.27
266.773	18.49
266.988	17.57
267.203	17.87
267.418	15.09
267.633	13.32
267.848	14.74
268.064	13.56
268.279	12.94
268.494	12.31
268.709	12.76
268.924	13.49
269.139	15.1
269.354	14.01
269.569	11.71
269.784	13.2
269.999	14.85
270.214	12.58
270.429	13.48
270.644	13.13
270.859	12.3
271.074	12.21
271.289	12.29
271.504	11.77
271.719	12.27
271.934	14.06
272.149	13.7
272.363	13.06
272.578	12.69
272.793	11.96
273.008	11.41
273.223	12.55
273.438	12.08
273.653	11.62
273.867	11.29
274.082	11.64
274.297	11.28
274.512	13.25
274.726	12.67
274.941	14.91
275.156	15.08
275.371	16.01
275.585	16.66
275.8	18.23
276.015	18.73
276.229	17.87
276.444	17.68
276.659	16.66
276.873	15.19
277.088	15.31
277.302	14.3
277.517	15.89
277.732	17.63
277.946	16.54
278.161	17.33
278.375	17.09
278.59	17.98
278.804	19
279.019	20.18
279.233	20.56
279.448	20.14
279.662	19.64
279.877	18.92
280.091	18.05
280.306	18.03
280.52	16
280.735	14.52
280.949	14.51
281.163	13.38
281.378	12.43
281.592	12.3
281.806	13.55
282.021	13.22
282.235	12.95
282.449	12.88
282.664	13.3
282.878	13.25
283.092	15.33
283.307	15.06
283.521	15.54
283.735	15.48
283.949	15.76
284.164	15.1
284.378	15.38
284.592	14.93
284.806	14.3
285.02	13.91
285.234	14.05
285.449	13.23
285.663	13.04
285.877	12.76
286.091	12.94
286.305	12.41
286.519	12.42
286.733	12.05
286.947	12.07
287.161	11.91
287.375	12.76
287.589	13.24
287.803	13.21
288.017	13.14
288.231	12.19
288.445	12.24
288.659	12.06
288.873	11.55
289.087	12.29
289.301	12.07
289.515	12.89
289.729	11.88
289.943	11.87
290.157	11.93
290.371	13.98
290.584	14.93
290.798	16.19
291.012	17.23
291.226	17.03
291.44	17.36
291.654	17.81
291.867	17.74
292.081	17.91
292.295	18.39
292.509	18.52
292.722	17.34
292.936	17.73
293.15	17.95
293.364	16.88
293.577	17.78
293.791	17.48
294.005	17.58
294.218	16.94
294.432	17.15
294.645	17.27
294.859	17.1
295.073	15.74
295.286	14.63
295.5	12.96
295.713	13.34
295.927	13.36
296.14	13.12
296.354	13.35
296.568	13.84
296.781	13.87
296.994	13.36
297.208	13.59
297.421	14.58
297.635	15.34
297.848	15.86
298.062	14.9
298.275	15.36
298.489	15.92
298.702	15.61
298.915	15.75
299.129	16.27
299.342	16.53
299.555	16.6
299.769	16.71
299.982	16.66
300.195	16.51
300.409	18.49
300.622	17.76
300.835	18.64
301.048	18.89
301.262	19
301.475	18.73
301.688	19.38
301.901	19.56
302.115	20.31
302.328	20.4
302.541	19.83
302.754	20.45
302.967	20.98
303.18	20.23
303.393	20.07
303.607	19.29
303.82	19.92
304.033	19.56
304.246	19.51
304.459	18.81
304.672	19.09
304.885	20.41
305.098	19.11
305.311	18.01
305.524	18.17
305.737	18.56
305.95	19.51
306.163	18.92
306.376	19.17
306.589	19.13
306.802	18.97
307.015	18.67
307.228	18.43
307.44	18.43
307.653	19.58
307.866	18.17
308.079	19.56
308.292	19.59
308.505	20.34
308.718	19.47
308.93	19.81
309.143	19.81
309.356	19.72
309.569	19.3
309.781	19.82
309.994	19.13
310.207	20.37
310.42	18.73
310.632	17.89
310.845	17.52
311.058	17.48
311.27	17.4
311.483	17.69
311.696	17.55
311.908	17.81
312.121	17.19
312.333	18.89
312.546	18.3
312.759	18.78
312.971	18.95
313.184	20.08
313.396	20.14
313.609	19.94
313.821	19.78
314.034	20.91
314.246	20.59
314.459	21.66
314.671	21.4
314.884	21.78
315.096	20.68
315.309	20.63
315.521	20.74
315.733	20.33
315.946	19.68
316.158	18.9
316.371	18.7
316.583	19.46
316.795	18.11
317.008	17.28
317.22	17.89
317.432	18.79
317.644	19.08
317.857	17.05
318.069	17
318.281	17.98
318.494	18.05
318.706	18.74
318.918	18.21
319.13	18.82
319.342	18.98
319.555	18.04
319.767	19.22
319.979	19.99
320.191	21.2
320.403	22.14
320.615	22.89
320.827	24.86
321.039	24.19
321.252	25.08
321.464	25.55
321.676	25
321.888	24.68
322.1	24.32
322.312	22.24
322.524	20.91
322.736	21.34
322.948	19.97
323.16	18.35
323.372	18.01
323.584	16.78
323.796	16.21
324.007	16.02
324.219	16.57
324.431	16.71
324.643	17.8
324.855	18.5
325.067	18.88
325.279	19.31
325.491	19.43
325.702	19.11
325.914	20.2
326.126	21.44
326.338	23.23
326.55	22.97
326.761	22.74
326.973	23.64
327.185	24.81
327.396	24.49
327.608	25.22
327.82	25.32
328.032	26.24
328.243	25.74
328.455	25.85
328.666	25.16
328.878	25.74
329.09	27.07
329.301	26.92
329.513	26.01
329.725	26.54
329.936	26.46
330.148	26.73
330.359	26.85
330.571	27.79
330.782	27.72
330.994	28.42
331.205	28.96
331.417	27.98
331.628	27.85
331.84	27.87
332.051	28.02
332.262	28.32
332.474	28.75
332.685	29.42
332.897	28.69
333.108	28.63
333.319	26.93
333.531	27.01
333.742	27.71
333.953	27.38
334.165	27.24
334.376	26.87
334.587	26.44
334.799	26.36
335.01	25.51
335.221	26.08
335.432	25.91
335.644	26.35
335.855	25.86
336.066	26.03
336.277	26.13
336.488	26.75
336.7	26.81
336.911	27.41
337.122	27.82
337.333	28.82
337.544	29.12
337.755	29.7
337.966	30.23
338.177	30.73
338.388	30.24
338.599	31.91
338.811	32.15
339.022	32.32
339.233	32.5
339.444	31.68
339.655	30.13
339.866	30.06
340.076	30.65
340.287	30.74
340.498	30.99
340.709	30.83
340.92	30.05
341.131	29.7
341.342	29.74
341.553	28.81
341.764	29.63
341.975	30.17
342.185	30.03
342.396	28.88
342.607	29.04
342.818	28.82
343.029	28.9
343.239	28.3
343.45	28.45
343.661	27.84
343.872	28.09
344.082	28.07
344.293	28.95
344.504	29.3
344.714	28.57
344.925	28.15
345.136	28.3
345.346	27.49
345.557	28.15
345.768	27.53
345.978	27.84
346.189	28.59
346.399	28.17
346.61	27.88
346.821	27.37
347.031	28.24
347.242	27.7
347.452	27.2
347.663	28.05
347.873	27.6
348.084	28.06
348.294	28.06
348.504	27.58
348.715	28.29
348.925	27.72
349.136	28.01
349.346	27.39
349.557	27.98
349.767	28.31
349.977	27.83
350.188	28.32
350.398	28.41
350.608	28.35
350.819	28.12
351.029	27.94
351.239	28.28
351.449	27.37
351.66	28.19
351.87	28.17
352.08	27.92
352.29	27.88
352.501	27.02
352.711	27.22
352.921	27.36
353.131	27.22
353.341	27
353.552	26.29
353.762	26.93
353.972	26.28
354.182	26.9
354.392	26.68
354.602	27.55
354.812	27.57
355.022	27.29
355.232	27
355.442	27.22
355.652	27.27
355.862	27.86
356.072	28.23
356.282	27.89
356.492	27.71
356.702	27.85
356.912	27.56
357.122	27.75
357.332	27.97
357.542	27.87
357.752	27.5
357.962	27.01
358.171	26.79
358.381	26.73
358.591	27.1
358.801	26.41
359.011	26.76
359.221	26.53
359.43	27.16
359.64	26.81
359.85	26.99
360.06	27.55
360.269	27.89
360.479	27.64
360.689	26.89
360.899	26.74
361.108	26.83
361.318	26.61
361.528	26.26
361.737	25.71
361.947	25.51
362.156	25.39
362.366	25.16
362.576	25.19
362.785	25.32
362.995	25.37
363.204	25.55
363.414	25.63
363.623	25.71
363.833	26.11
364.042	25.89
364.252	26.15
364.461	25.94
364.671	25.48
364.88	25.8
365.09	26.16
365.299	26.89
365.509	26.39
365.718	26.3
365.927	25.71
366.137	25.87
366.346	25.94
366.555	25.54
366.765	26.22
366.974	26.29
367.183	25.88
367.393	24.86
367.602	23.66
367.811	23.68
368.021	23.75
368.23	23.88
368.439	23.2
368.648	22.96
368.857	23.33
369.067	22.97
369.276	22.91
369.485	22.96
369.694	23.57
369.903	24.63
370.112	24.33
370.321	24.02
370.531	23.93
370.74	23.88
370.949	24.06
371.158	23.8
371.367	23.71
371.576	24.22
371.785	24.15
371.994	24.05
372.203	23.86
372.412	24.21
372.621	24.36
372.83	24.73
373.039	25.08
373.248	25.09
373.457	25.12
373.666	24.63
373.874	23.98
374.083	23.9
374.292	23.9
374.501	23.57
374.71	23.44
374.919	23.64
375.128	23.2
375.336	23.18
375.545	23.24
375.754	23.28
375.963	23.45
376.171	23.69
376.38	23.29
376.589	23.2
376.798	22.96
377.006	23.03
377.215	23.18
377.424	23.08
377.632	23.16
377.841	23.03
378.05	22.99
378.258	23.04
378.467	23
378.675	23.08
378.884	22.85
379.093	23.13
379.301	22.75
379.51	22.53
379.718	22.19
379.927	22.02
380.135	21.5
380.344	21.71
380.552	21.43
380.761	21.87
380.969	21.75
381.177	21.57
381.386	21.02
381.594	21.15
381.803	20.77
382.011	21.22
382.219	20.73
382.428	20.56
382.636	19.87
382.845	20.65
383.053	20.21
383.261	20.37
383.469	20.53
383.678	20.96
383.886	20.89
384.094	20.62
384.302	20.81
384.511	21.02
384.719	21.44
384.927	21.21
385.135	20.64
385.343	20.69
385.552	20.52
385.76	20.23
385.968	20.08
386.176	20.11
386.384	20.24
386.592	19.68
386.8	19.68
387.008	19.78
387.216	20.33
387.424	20.1
387.633	19.78
387.841	19.74
388.049	20.05
388.257	20.2
388.465	20.21
388.672	20.27
388.88	20.35
389.088	20.27
389.296	20.15
389.504	20.09
389.712	20.3
389.92	20.19
390.128	19.91
390.336	19.6
390.544	19.7
390.751	19.17
390.959	19.31
391.167	19.5
391.375	19.54
391.583	19.35
391.79	19.02
391.998	18.89
392.206	19.02
392.414	19.12
392.621	19.23
392.829	18.95
393.037	19.19
393.244	18.89
393.452	18.92
393.66	19.08
393.867	19.32
394.075	19.5
394.283	19.33
394.49	19.16
394.698	19.18
394.905	19.18
395.113	18.98
395.32	19.03
395.528	18.84
395.735	18.83
395.943	18.34
396.15	17.81
396.358	17.58
396.565	17.44
396.773	17.69
396.98	17.41
397.188	17.3
397.395	17.67
397.602	17.64
397.81	17.71
398.017	17.72
398.225	17.87
398.432	18.19
398.639	18.37
398.847	18.67
399.054	18.31
399.261	18.45
399.468	18.39
399.676	18.21
399.883	18.29
400.09	18.54
400.297	18.49
400.505	18.34
400.712	18.04
400.919	18.1
401.126	17.98
401.333	18.2
401.54	18.1
401.748	18.05
401.955	18
402.162	18.09
402.369	18.1
402.576	18.1
402.783	18.13
402.99	18.11
403.197	17.78
403.404	17.52
403.611	17.41
403.818	17.54
404.025	17.57
404.232	17.43
404.439	17.13
404.646	16.77
404.853	16.37
405.06	16.4
405.267	16.42
405.474	16.6
405.681	16.69
405.887	16.49
406.094	16.32
406.301	16.53
406.508	16.62
406.715	16.64
406.922	16.8
407.128	16.96
407.335	16.97
407.542	17.14
407.749	16.99
407.955	17.19
408.162	17.22
408.369	17.34
408.575	16.92
408.782	16.98
408.989	17.08
409.195	16.93
409.402	16.95
409.609	17.11
409.815	17.43
410.022	17.52
410.228	17.42
410.435	17.61
410.642	17.37
410.848	17.77
411.055	17.44
411.261	17.5
411.468	17.67
411.674	17.51
411.881	17.28
412.087	17.04
412.294	16.92
412.5	16.78
412.706	16.78
412.913	16.95
413.119	16.64
413.326	16.8
413.532	16.7
413.738	16.39
413.945	16.62
414.151	16.55
414.357	16.47
414.564	16.49
414.77	16.7
414.976	16.43
415.182	16.69
415.389	16.7
415.595	16.52
415.801	16.52
416.007	16.92
416.214	16.96
416.42	17.03
416.626	17.01
416.832	17.08
417.038	16.88
417.244	17.05
417.45	16.88
417.657	17.04
417.863	17.21
418.069	17.27
418.275	17.23
418.481	17.04
418.687	17.08
418.893	16.91
419.099	16.85
419.305	16.98
419.511	16.85
419.717	16.77
419.923	16.52
420.129	16.47
420.335	16.41
420.541	16.31
420.746	16.35
420.952	16.26
421.158	16.33
421.364	16.34
421.57	16.25
421.776	16.28
421.982	16.26
422.187	16.15
422.393	16.13
422.599	16.02
422.805	16.14
423.01	16.14
423.216	16.03
423.422	16.04
423.628	16.06
423.833	15.99
424.039	16.1
424.245	16.12
424.45	16.38
424.656	16.34
424.862	16.3
425.067	16.29
425.273	16.2
425.478	16.38
425.684	16.39
425.889	16.45
426.095	16.59
426.301	16.59
426.506	16.64
426.712	16.61
426.917	16.61
427.123	16.79
427.328	16.63
427.533	16.74
427.739	16.66
427.944	16.64
428.15	16.57
428.355	16.54
428.561	16.33
428.766	16.33
428.971	16.37
429.177	16.51
429.382	16.69
429.587	16.78
429.793	16.77
429.998	16.94
430.203	16.78
430.408	16.71
430.614	16.69
430.819	16.74
431.024	16.8
431.229	16.62
431.434	16.61
431.64	16.44
431.845	16.42
432.05	16.47
432.255	16.37
432.46	16.27
432.665	16.19
432.87	16.21
433.076	16.27
433.281	16.32
433.486	16.33
433.691	16.18
433.896	15.99
434.101	15.91
434.306	15.89
434.511	15.84
434.716	16.14
434.921	16.33
435.126	16.2
435.331	16.2
435.535	16.02
435.74	16.1
435.945	16.42
436.15	16.63
436.355	16.84
436.56	16.9
436.765	16.96
436.97	16.76
437.174	16.63
437.379	16.82
437.584	16.82
437.789	16.86
437.993	16.85
438.198	16.76
438.403	16.68
438.608	16.6
438.812	16.45
439.017	16.5
439.222	16.43
439.426	16.4
439.631	16.38
439.836	16.3
440.04	16.5
440.245	16.44
440.45	16.35
440.654	16.42
440.859	16.24
441.063	16.25
441.268	16.11
441.472	16.37
441.677	16.35
441.881	16.22
442.086	16.24
442.29	15.99
442.495	15.99
442.699	16.02
442.904	15.97
443.108	16.26
443.312	16.4
443.517	16.53
443.721	16.38
443.925	16.39
444.13	16.48
444.334	16.5
444.538	16.6
444.743	16.54
444.947	16.48
445.151	16.42
445.356	16.27
445.56	16.15
445.764	16.09
445.968	16.12
446.173	16.14
446.377	16.16
446.581	16.1
446.785	16.03
446.989	16.14
447.193	16.13
447.398	16.12
447.602	16.09
447.806	16.13
448.01	16.21
448.214	16.17
448.418	16.12
448.622	16.18
448.826	16.17
449.03	16.24
449.234	16.25
449.438	16.24
449.642	16.23
449.846	16.34
450.05	16.32
450.254	16.15
450.458	16.29
450.662	16.33
450.866	16.15
451.069	16.22
451.273	16.22
451.477	16.08
451.681	16.12
451.885	16.03
452.089	16
452.292	16.01
452.496	16
