Data from LC_189_Reflection_2.txt Node
Date: Tue Nov 17 13:27:57 EST 2015
User: robert
Spectrometer: USB4E03001
Autoset integration time: false
Trigger mode: 4
Integration Time (sec): 1.000000E-1
Scans to average: 15
Electric dark correction enabled: true
Nonlinearity correction enabled: false
Boxcar width: 5
Stray light correction enabled: false
XAxis mode: Wavelengths
Stop averaging: false
Number of Pixels in Spectrum: 3648
>>>>>Begin Spectral Data<<<<<
177.566	143.22
177.785	268.28
178.005	-1366.79
178.225	417.48
178.445	-601.63
178.665	-207.53
178.885	163.43
179.105	-99.41
179.324	320.93
179.544	550.87
179.764	172.67
179.984	103.14
180.204	154.31
180.423	287.3
180.643	377.89
180.863	-1157.28
181.083	-1172.96
181.302	297.25
181.522	121.61
181.742	344.56
181.961	3462.75
182.181	-150.77
182.401	1.16
182.621	-49.82
182.84	-59.59
183.06	-284.53
183.279	592.15
183.499	-3033.61
183.719	-103.84
183.938	-25.54
184.158	-78.9
184.377	-119.07
184.597	-91.94
184.816	179.55
185.036	190.64
185.256	244.13
185.475	162.63
185.695	209.65
185.914	175.91
186.134	210.17
186.353	124.62
186.572	140.11
186.792	116.81
187.011	110.24
187.231	189.43
187.45	686.53
187.67	116.83
187.889	215.92
188.108	83.28
188.328	113.02
188.547	135.19
188.766	-300.38
188.986	461.19
189.205	151.07
189.424	174.09
189.644	202.18
189.863	148.5
190.082	170.9
190.302	183.58
190.521	321.83
190.74	5248.05
190.959	685.92
191.178	215.52
191.398	171.75
191.617	435.25
191.836	362.02
192.055	250.36
192.274	-343.47
192.494	-245.8
192.713	-235.44
192.932	36.71
193.151	352.14
193.37	2325.4
193.589	-265000
193.808	8073.03
194.027	-779.4
194.246	-373.15
194.465	1561.05
194.685	277.57
194.904	179.99
195.123	32645.83
195.342	926.4
195.561	303.46
195.78	248.93
195.999	285.28
196.218	180.79
196.436	175.22
196.655	123.33
196.874	126.53
197.093	146.78
197.312	114.91
197.531	104.63
197.75	90.02
197.969	91.25
198.188	95.82
198.407	74.88
198.625	94.46
198.844	113.37
199.063	102.17
199.282	122.02
199.501	90.25
199.719	152.98
199.938	156.43
200.157	196.06
200.376	486.71
200.594	262.91
200.813	207.22
201.032	242.71
201.251	292.54
201.469	4333.44
201.688	1207.99
201.907	-5952.97
202.125	1528.65
202.344	1504.77
202.563	1271.12
202.781	828.4
203	-957.06
203.218	-158.92
203.437	-247.14
203.656	-84.24
203.874	-113.37
204.093	-288.25
204.311	-129.2
204.53	5331.58
204.748	-91.9
204.967	1066.67
205.185	278.52
205.404	138.78
205.622	129.04
205.841	122.34
206.059	178.18
206.278	150.48
206.496	152.18
206.715	165.27
206.933	165.57
207.151	151.63
207.37	135.86
207.588	173.03
207.806	223.43
208.025	203.04
208.243	176.26
208.461	120.48
208.68	103.69
208.898	-4.58
209.116	47.13
209.335	503.76
209.553	-318.05
209.771	172.92
209.989	71.02
210.208	58.21
210.426	40.96
210.644	93.79
210.862	81.56
211.081	90.22
211.299	86.6
211.517	104.01
211.735	100.19
211.953	108.01
212.171	136.19
212.39	347.73
212.608	294.54
212.826	433.78
213.044	387.97
213.262	385.78
213.48	-17088.06
213.698	-810.66
213.916	396.32
214.134	-895.27
214.352	-233.44
214.57	-276.63
214.788	2401.25
215.006	834.06
215.224	674.18
215.442	432.67
215.66	482.82
215.878	262.94
216.096	119.27
216.314	105.85
216.532	56
216.75	62.62
216.968	46.52
217.185	62.14
217.403	104.28
217.621	106.65
217.839	127.41
218.057	145.5
218.275	141.65
218.492	156.29
218.71	170.66
218.928	209.09
219.146	212.42
219.363	238.47
219.581	171.54
219.799	166.55
220.017	137.77
220.234	102.1
220.452	70.12
220.67	77.4
220.887	93.09
221.105	85.95
221.323	73.45
221.54	60.44
221.758	53.58
221.976	63.68
222.193	51.32
222.411	69.63
222.629	78.73
222.846	85.2
223.064	71.61
223.281	66.54
223.499	66.79
223.716	69.99
223.934	82.1
224.151	81.12
224.369	63.55
224.586	72.48
224.804	62.73
225.021	69.09
225.239	77.01
225.456	74.35
225.674	68.83
225.891	74.31
226.108	86.33
226.326	86.26
226.543	75.2
226.76	77.34
226.978	68.4
227.195	66.95
227.413	58.54
227.63	52.73
227.847	57.44
228.064	52.49
228.282	43.59
228.499	41.77
228.716	37.45
228.934	37.49
229.151	33.72
229.368	29.77
229.585	28.97
229.802	30.96
230.02	30.55
230.237	28.45
230.454	28.22
230.671	32.39
230.888	27.93
231.105	29.98
231.323	27.97
231.54	31.38
231.757	36.38
231.974	39.54
232.191	33.01
232.408	33.48
232.625	31.58
232.842	35.24
233.059	33.97
233.276	36.71
233.493	32.81
233.71	37.4
233.927	35.77
234.144	35.25
234.361	36.49
234.578	43.23
234.795	38.72
235.012	40
235.229	36.78
235.446	33.28
235.663	36.88
235.879	42.17
236.096	40.88
236.313	45.96
236.53	44.11
236.747	38.23
236.964	33.25
237.181	37.21
237.397	36.65
237.614	36.85
237.831	42.21
238.048	38.98
238.264	36.32
238.481	35.19
238.698	25.85
238.915	32.56
239.131	38.3
239.348	40.96
239.565	37.39
239.781	37.49
239.998	34.28
240.215	30.72
240.431	28.06
240.648	24.79
240.865	25.65
241.081	26.29
241.298	21.57
241.514	18.47
241.731	17.76
241.947	16.24
242.164	14.79
242.38	15.7
242.597	17.08
242.814	15.64
243.03	15.12
243.246	14.92
243.463	14.07
243.679	12.34
243.896	13.16
244.112	10.52
244.329	12.4
244.545	13.08
244.762	12.3
244.978	9.16
245.194	13.39
245.411	15.8
245.627	16.08
245.843	15.36
246.06	15.6
246.276	11.67
246.492	13.69
246.709	14.22
246.925	14.74
247.141	15.23
247.357	15.46
247.574	14.82
247.79	13.45
248.006	13.24
248.222	15.8
248.439	17.06
248.655	18.46
248.871	18.52
249.087	17.34
249.303	17.73
249.519	17.38
249.736	17.92
249.952	17.27
250.168	20.84
250.384	20.39
250.6	18.94
250.816	16.35
251.032	16.45
251.248	14.73
251.464	16.6
251.68	14.82
251.896	15.5
252.112	12.4
252.328	14.36
252.544	12.48
252.76	11.3
252.976	10.02
253.192	12.33
253.408	13.61
253.624	15.05
253.84	15.79
254.056	16
254.272	16.96
254.487	21.58
254.703	22.38
254.919	22.96
255.135	26.86
255.351	23.91
255.567	20.12
255.782	15.87
255.998	14.31
256.214	14
256.43	12.3
256.646	10.09
256.861	7.03
257.077	6.41
257.293	8.55
257.508	7.66
257.724	9.78
257.94	9.88
258.155	10.97
258.371	13.71
258.587	10.52
258.802	10.17
259.018	8.9
259.234	10.38
259.449	10.85
259.665	10.13
259.88	9.41
260.096	10.45
260.312	10.74
260.527	10.62
260.743	9.65
260.958	10.75
261.174	11.68
261.389	12.96
261.605	12.91
261.82	11.94
262.036	12.3
262.251	12.5
262.466	10.81
262.682	12.33
262.897	12.68
263.113	11.18
263.328	10.95
263.543	11.05
263.759	10.9
263.974	11.7
264.189	11.91
264.405	12.47
264.62	13.51
264.835	15.13
265.051	13.25
265.266	15.18
265.481	18.08
265.696	18.31
265.912	18.15
266.127	16.81
266.342	14.48
266.557	13.27
266.773	11.81
266.988	11.55
267.203	11
267.418	12.38
267.633	11.31
267.848	9.87
268.064	7.4
268.279	5.56
268.494	6.44
268.709	7.16
268.924	9.23
269.139	10.44
269.354	10.52
269.569	10.27
269.784	9.21
269.999	8.6
270.214	8.88
270.429	11.73
270.644	11.46
270.859	11.49
271.074	11.21
271.289	10.81
271.504	9.07
271.719	8.11
271.934	7.64
272.149	7.04
272.363	7.95
272.578	8.84
272.793	7.33
273.008	8.3
273.223	7.87
273.438	7.81
273.653	8.02
273.867	9.64
274.082	9.89
274.297	10.79
274.512	11.89
274.726	12.05
274.941	11.27
275.156	12.9
275.371	12.56
275.585	14.22
275.8	14.86
276.015	15.07
276.229	13.75
276.444	14.53
276.659	14.83
276.873	12.71
277.088	12.07
277.302	10.6
277.517	9.68
277.732	10.23
277.946	8.9
278.161	10.01
278.375	10.51
278.59	11.54
278.804	11.97
279.019	11.72
279.233	13.07
279.448	13.42
279.662	16.51
279.877	16.89
280.091	15.88
280.306	15.95
280.52	14.8
280.735	14.33
280.949	12.92
281.163	13.24
281.378	13.78
281.592	12.92
281.806	12.03
282.021	10.02
282.235	10.53
282.449	11.12
282.664	12.55
282.878	13
283.092	11.93
283.307	13.21
283.521	12.39
283.735	10.99
283.949	11.32
284.164	11.61
284.378	11.01
284.592	10.88
284.806	10.64
285.02	8.44
285.234	8.49
285.449	7.98
285.663	7.68
285.877	8.01
286.091	8.04
286.305	9.27
286.519	8.68
286.733	9.12
286.947	8.6
287.161	9.23
287.375	10.02
287.589	9.18
287.803	10.45
288.017	10.17
288.231	10.8
288.445	11.02
288.659	9.86
288.873	10.31
289.087	10.89
289.301	11.26
289.515	11.12
289.729	12.12
289.943	12.04
290.157	10.78
290.371	10.77
290.584	10.64
290.798	10.87
291.012	11.04
291.226	12.27
291.44	12.03
291.654	11.88
291.867	11.94
292.081	10.13
292.295	10.07
292.509	10.13
292.722	10.53
292.936	10.41
293.15	10.51
293.364	10.09
293.577	9.12
293.791	8.68
294.005	7.96
294.218	8.15
294.432	9.4
294.645	9.8
294.859	10.96
295.073	10.39
295.286	9.78
295.5	9.03
295.713	8.96
295.927	8.69
296.14	9.99
296.354	10.61
296.568	10.61
296.781	10.75
296.994	11.58
297.208	11.6
297.421	12.03
297.635	12.93
297.848	13.13
298.062	13.92
298.275	13.83
298.489	13.3
298.702	14.15
298.915	14.24
299.129	13.84
299.342	13.58
299.555	13.12
299.769	13.37
299.982	12.77
300.195	12.05
300.409	11.4
300.622	11.27
300.835	10.89
301.048	9.71
301.262	8.78
301.475	8.84
301.688	8.27
301.901	8.91
302.115	8.9
302.328	8.79
302.541	9.25
302.754	9.43
302.967	10.63
303.18	11.56
303.393	11.45
303.607	12.3
303.82	13.23
304.033	12.41
304.246	11.02
304.459	10.21
304.672	10.36
304.885	11.59
305.098	11.48
305.311	11.93
305.524	11.2
305.737	12.45
305.95	13.92
306.163	11.99
306.376	13.44
306.589	14.16
306.802	14.19
307.015	14.43
307.228	15.16
307.44	15.15
307.653	14.07
307.866	14.28
308.079	13.3
308.292	11.38
308.505	12.76
308.718	12.37
308.93	12.64
309.143	13.39
309.356	12.53
309.569	12.05
309.781	12.15
309.994	11.61
310.207	11.81
310.42	10.44
310.632	10.55
310.845	10.41
311.058	10.23
311.27	9.08
311.483	8.61
311.696	9.29
311.908	9.36
312.121	8.9
312.333	9.54
312.546	9.61
312.759	10.86
312.971	11.39
313.184	11.88
313.396	11.97
313.609	13.79
313.821	15.13
314.034	15.51
314.246	15.74
314.459	16.22
314.671	15.49
314.884	15.19
315.096	14.59
315.309	13.72
315.521	13
315.733	13.42
315.946	12.92
316.158	11.58
316.371	10.66
316.583	10.63
316.795	10.9
317.008	12.02
317.22	11.68
317.432	12.58
317.644	12.87
317.857	12.05
318.069	12.45
318.281	13.27
318.494	14.15
318.706	14.47
318.918	13.86
319.13	15.19
319.342	14.5
319.555	13.89
319.767	13.8
319.979	13.92
320.191	15.07
320.403	14.46
320.615	13.49
320.827	12.68
321.039	13.77
321.252	14.24
321.464	13.08
321.676	13.5
321.888	14.19
322.1	14.6
322.312	14.26
322.524	14.56
322.736	15.4
322.948	15.81
323.16	15.32
323.372	14.82
323.584	15.18
323.796	15.99
324.007	15.97
324.219	16.46
324.431	16.69
324.643	17.24
324.855	17.64
325.067	17.45
325.279	17.47
325.491	19.09
325.702	18.3
325.914	17.58
326.126	16.48
326.338	17.74
326.55	17.16
326.761	16.6
326.973	16.07
327.185	15.52
327.396	15.65
327.608	15.47
327.82	14.4
328.032	14.44
328.243	13.91
328.455	13.89
328.666	12.87
328.878	13.12
329.09	12.72
329.301	13.01
329.513	12.68
329.725	11.7
329.936	12.18
330.148	13.54
330.359	14.05
330.571	13.92
330.782	13.95
330.994	12.56
331.205	12.21
331.417	13.16
331.628	12.77
331.84	14.21
332.051	14.9
332.262	14.34
332.474	12.87
332.685	13.03
332.897	14.73
333.108	14.52
333.319	15.36
333.531	14.79
333.742	13.18
333.953	12.16
334.165	11.16
334.376	11.3
334.587	10.43
334.799	10.93
335.01	11.16
335.221	9.94
335.432	10.02
335.644	10.5
335.855	11.07
336.066	12.2
336.277	13.93
336.488	13.69
336.7	13.7
336.911	14.48
337.122	13.89
337.333	12.99
337.544	13.15
337.755	13.22
337.966	12.99
338.177	12.58
338.388	11.83
338.599	11.31
338.811	10.61
339.022	9.86
339.233	8.95
339.444	8.48
339.655	9.76
339.866	9.87
340.076	9.47
340.287	9.68
340.498	9.95
340.709	10.79
340.92	9.84
341.131	10.47
341.342	11.03
341.553	12.3
341.764	12.26
341.975	12.05
342.185	12.24
342.396	13.05
342.607	12.43
342.818	13.58
343.029	12.66
343.239	13.61
343.45	13.37
343.661	13
343.872	12.84
344.082	13.24
344.293	12.97
344.504	14.4
344.714	13.38
344.925	13.48
345.136	12.2
345.346	12.14
345.557	12.05
345.768	12.86
345.978	12.69
346.189	12.88
346.399	12.88
346.61	12.71
346.821	10.84
347.031	11.34
347.242	10.34
347.452	11
347.663	10.98
347.873	10.54
348.084	9.45
348.294	9.97
348.504	9.14
348.715	9.73
348.925	10.1
349.136	10.49
349.346	10.48
349.557	11.26
349.767	10.67
349.977	10.48
350.188	11.43
350.398	12.09
350.608	11.71
350.819	11.43
351.029	11.05
351.239	11.07
351.449	10.74
351.66	11.11
351.87	11.33
352.08	12.25
352.29	13.29
352.501	12.66
352.711	12.73
352.921	12.46
353.131	13.21
353.341	13.06
353.552	12.23
353.762	12.55
353.972	12.09
354.182	12.81
354.392	12.42
354.602	12.5
354.812	12.08
355.022	11.56
355.232	11.27
355.442	10.92
355.652	10.91
355.862	11.41
356.072	11.26
356.282	11.01
356.492	9.78
356.702	9.47
356.912	9.71
357.122	10.23
357.332	9.89
357.542	9.94
357.752	9.68
357.962	9.53
358.171	9.18
358.381	8.99
358.591	9.23
358.801	9.5
359.011	9.49
359.221	9.16
359.43	9.56
359.64	9.23
359.85	9.38
360.06	9.69
360.269	9.29
360.479	8.76
360.689	8.64
360.899	8.28
361.108	8.33
361.318	8.05
361.528	7.69
361.737	7.09
361.947	7.84
362.156	8.1
362.366	7.92
362.576	8.03
362.785	8.68
362.995	8.64
363.204	8.78
363.414	8.33
363.623	8.38
363.833	8.47
364.042	8.5
364.252	7.82
364.461	7.51
364.671	7.46
364.88	7.71
365.09	7.69
365.299	8.05
365.509	8.15
365.718	9.14
365.927	9.33
366.137	9.98
366.346	10.46
366.555	10.74
366.765	10.8
366.974	10.79
367.183	10.48
367.393	10.21
367.602	9.94
367.811	9.99
368.021	9.27
368.23	9.85
368.439	8.98
368.648	8.52
368.857	8.6
369.067	8.58
369.276	9.03
369.485	9.41
369.694	9.09
369.903	9.8
370.112	9.7
370.321	10.04
370.531	8.77
370.74	8.38
370.949	8.1
371.158	8.47
371.367	7.96
371.576	7.88
371.785	7.71
371.994	8.1
372.203	7.6
372.412	7.75
372.621	7.59
372.83	8.23
373.039	8.79
373.248	9.29
373.457	8.73
373.666	8.91
373.874	8.65
374.083	8.61
374.292	8.53
374.501	8.4
374.71	8.41
374.919	8.56
375.128	8.53
375.336	8.34
375.545	7.99
375.754	7.67
375.963	7.31
376.171	7.67
376.38	8.14
376.589	8.26
376.798	7.87
377.006	7.7
377.215	8.07
377.424	8.16
377.632	7.96
377.841	8.06
378.05	8.36
378.258	8.74
378.467	8.35
378.675	7.79
378.884	7.83
379.093	7.96
379.301	8.01
379.51	7.36
379.718	6.93
379.927	7.55
380.135	7.33
380.344	7.46
380.552	7.14
380.761	6.89
380.969	7.47
381.177	7.06
381.386	6.67
381.594	6.44
381.803	6.4
382.011	6.7
382.219	6.39
382.428	6.84
382.636	6.92
382.845	6.95
383.053	7.43
383.261	6.85
383.469	6.86
383.678	7.6
383.886	7.35
384.094	7.11
384.302	7.34
384.511	7.38
384.719	7.32
384.927	7.38
385.135	7.74
385.343	7.71
385.552	7.66
385.76	7.89
385.968	8.03
386.176	8.29
386.384	8.41
386.592	7.93
386.8	8.21
387.008	7.85
387.216	7.71
387.424	7.65
387.633	7.35
387.841	7.17
388.049	7.53
388.257	7.11
388.465	7.23
388.672	7.72
388.88	7.68
389.088	7.31
389.296	7.72
389.504	8.11
389.712	8.36
389.92	8.66
390.128	9.24
390.336	8.88
390.544	8.98
390.751	8.66
390.959	8.3
391.167	8.44
391.375	8.32
391.583	8.11
391.79	7.71
391.998	7.52
392.206	7.35
392.414	6.82
392.621	6.9
392.829	6.53
393.037	6.57
393.244	6.33
393.452	6.42
393.66	6.29
393.867	6.15
394.075	6.11
394.283	6.14
394.49	6.09
394.698	6.25
394.905	6.01
395.113	6.23
395.32	6.37
395.528	6.91
395.735	7.14
395.943	7.17
396.15	7.23
396.358	7.25
396.565	6.89
396.773	6.73
396.98	6.94
397.188	7.17
397.395	7.37
397.602	7.49
397.81	7.46
398.017	7.2
398.225	7.5
398.432	7.43
398.639	7.34
398.847	7.65
399.054	7.65
399.261	7.43
399.468	7.06
399.676	7.05
399.883	6.82
400.09	6.38
400.297	6.51
400.505	6.37
400.712	6.48
400.919	6.64
401.126	6.68
401.333	6.87
401.54	6.9
401.748	7.03
401.955	6.94
402.162	7.02
402.369	7.31
402.576	7.23
402.783	7
402.99	6.94
403.197	6.75
403.404	6.51
403.611	6.32
403.818	6.17
404.025	5.99
404.232	5.88
404.439	5.9
404.646	5.64
404.853	5.62
405.06	5.73
405.267	5.55
405.474	5.4
405.681	5.31
405.887	5.42
406.094	5.74
406.301	6.03
406.508	5.91
406.715	5.79
406.922	5.95
407.128	5.95
407.335	5.96
407.542	6.1
407.749	6.25
407.955	6.47
408.162	6.67
408.369	6.93
408.575	6.87
408.782	6.84
408.989	6.92
409.195	7.16
409.402	7.05
409.609	7
409.815	6.77
410.022	6.8
410.228	6.58
410.435	6.26
410.642	5.79
410.848	5.71
411.055	6
411.261	5.92
411.468	5.93
411.674	5.99
411.881	6.02
412.087	6.4
412.294	6.49
412.5	6.56
412.706	6.78
412.913	6.68
413.119	6.8
413.326	6.64
413.532	6.72
413.738	6.43
413.945	6.18
414.151	6.24
414.357	6.29
414.564	6.23
414.77	6.09
414.976	6.25
415.182	6.44
415.389	6.15
415.595	6.17
415.801	6.09
416.007	6.14
416.214	6.07
416.42	5.76
416.626	5.44
416.832	5.4
417.038	5.49
417.244	5.16
417.45	5.19
417.657	5.16
417.863	5.11
418.069	5.04
418.275	4.75
418.481	4.96
418.687	5.02
418.893	5.19
419.099	5.16
419.305	5.34
419.511	5.39
419.717	5.24
419.923	5.22
420.129	5.18
420.335	5.27
420.541	5.31
420.746	5.24
420.952	5.29
421.158	5.23
421.364	5.24
421.57	5.13
421.776	5.05
421.982	5.08
422.187	5.14
422.393	5.14
422.599	5.05
422.805	5.09
423.01	5.09
423.216	5.16
423.422	5.27
423.628	5.22
423.833	5.2
424.039	5.07
424.245	5.07
424.45	5.05
424.656	5.06
424.862	5.04
425.067	5.06
425.273	5
425.478	4.93
425.684	4.64
425.889	4.7
426.095	4.73
426.301	4.9
426.506	4.98
426.712	4.94
426.917	4.95
427.123	5.11
427.328	5.15
427.533	5.28
427.739	5.22
427.944	5.36
428.15	5.26
428.355	5.18
428.561	5.37
428.766	5.2
428.971	5.27
429.177	5.51
429.382	5.45
429.587	5.49
429.793	5.32
429.998	5.37
430.203	5.34
430.408	5.34
430.614	5.2
430.819	4.99
431.024	4.99
431.229	5.02
431.434	4.85
431.64	4.95
431.845	4.96
432.05	5.08
432.255	5.1
432.46	5.16
432.665	5.25
432.87	5.24
433.076	5.17
433.281	5.29
433.486	5.26
433.691	5.25
433.896	5
434.101	4.88
434.306	4.92
434.511	4.88
434.716	4.88
434.921	4.84
435.126	4.95
435.331	5.01
435.535	4.96
435.74	5.17
435.945	5.08
436.15	5.26
436.355	5.44
436.56	5.34
436.765	5.48
436.97	5.43
437.174	5.29
437.379	5.37
437.584	5.58
437.789	5.53
437.993	5.27
438.198	5.3
438.403	5.19
438.608	5.05
438.812	5
439.017	4.84
439.222	4.85
439.426	4.96
439.631	4.83
439.836	4.65
440.04	4.61
440.245	4.63
440.45	4.44
440.654	4.43
440.859	4.27
441.063	4.42
441.268	4.42
441.472	4.43
441.677	4.49
441.881	4.53
442.086	4.53
442.29	4.49
442.495	4.6
442.699	4.8
442.904	4.83
443.108	4.96
443.312	4.9
443.517	5.03
443.721	5.03
443.925	4.89
444.13	4.86
444.334	4.78
444.538	4.75
444.743	4.57
444.947	4.53
445.151	4.39
445.356	4.49
445.56	4.47
445.764	4.35
445.968	4.31
446.173	4.32
446.377	4.2
446.581	4.27
446.785	4.33
446.989	4.32
447.193	4.34
447.398	4.56
447.602	4.66
447.806	4.63
448.01	4.52
448.214	4.61
448.418	4.65
448.622	4.74
448.826	4.8
449.03	4.87
449.234	4.92
449.438	4.78
449.642	4.68
449.846	4.46
450.05	4.36
450.254	4.4
450.458	4.31
450.662	4.27
450.866	4.26
451.069	4.33
451.273	4.12
451.477	4.15
451.681	4.35
451.885	4.42
452.089	4.3
452.292	4.35
452.496	4.39
452.7	4.34
452.904	4.43
453.107	4.61
453.311	4.45
453.515	4.5
453.719	4.58
453.922	4.54
454.126	4.37
454.33	4.61
454.533	4.7
454.737	4.75
454.94	4.62
455.144	4.57
455.348	4.47
455.551	4.48
455.755	4.75
455.958	4.61
456.162	4.5
456.365	4.53
456.569	4.26
456.772	4.16
456.976	4.24
457.179	4.44
457.383	4.33
457.586	4.47
457.79	4.55
457.993	4.59
458.196	4.62
458.4	4.81
458.603	5.04
458.807	5.1
459.01	5.2
459.213	5.18
459.417	5.11
459.62	5.16
459.823	4.99
460.026	4.91
460.23	4.86
460.433	4.87
460.636	4.69
460.839	4.5
461.042	4.49
461.246	4.37
461.449	4.41
461.652	4.42
461.855	4.49
462.058	4.47
462.261	4.52
462.464	4.3
462.668	4.12
462.871	4.21
