Data from LC_168_Reflection_1.txt Node
Date: Mon Nov 16 23:07:00 EST 2015
User: robert
Spectrometer: USB4E03001
Autoset integration time: false
Trigger mode: 4
Integration Time (sec): 1.000000E-1
Scans to average: 15
Electric dark correction enabled: true
Nonlinearity correction enabled: false
Boxcar width: 5
Stray light correction enabled: false
XAxis mode: Wavelengths
Stop averaging: false
Number of Pixels in Spectrum: 3648
>>>>>Begin Spectral Data<<<<<
177.566	2789.16
177.785	161.39
178.005	-2007.56
178.225	36.4
178.445	57.65
178.665	-255.14
178.885	159.1
179.105	593.46
179.324	1492.52
179.544	-195.92
179.764	-947.29
179.984	-271.03
180.204	-197.94
180.423	-276.17
180.643	-290.02
180.863	-249.73
181.083	-220.83
181.302	-270.84
181.522	-225.82
181.742	-190.58
181.961	-351.54
182.181	-284.93
182.401	-427.94
182.621	-1788.82
182.84	-797.57
183.06	-456.76
183.279	-257.8
183.499	-226.1
183.719	-158.76
183.938	-131.17
184.158	-69.41
184.377	-47.68
184.597	-91.66
184.816	-59.37
185.036	-28.17
185.256	-17.12
185.475	-52.75
185.695	-67.66
185.914	-99.49
186.134	-320.6
186.353	-418.22
186.572	-762.72
186.792	-1307.36
187.011	-577.98
187.231	-516.57
187.45	-337.95
187.67	-930.91
187.889	-2492.25
188.108	4560.13
188.328	-1138.6
188.547	-350.25
188.766	-726.69
188.986	-892.22
189.205	-473.38
189.424	-342.31
189.644	-1013.82
189.863	-1024.4
190.082	-725.61
190.302	-1585.26
190.521	-1030.26
190.74	940.69
190.959	420.65
191.178	635.58
191.398	607.54
191.617	577.7
191.836	489.65
192.055	1100.62
192.274	522.77
192.494	508.13
192.713	544.53
192.932	1095.5
193.151	1064.67
193.37	1988.62
193.589	-1117.37
193.808	-269.52
194.027	-352.95
194.246	-3263.41
194.465	635.74
194.685	1415.39
194.904	740.6
195.123	-1004.42
195.342	-618.36
195.561	-282.46
195.78	-473.82
195.999	20208.45
196.218	761.55
196.436	675.46
196.655	-2518.48
196.874	-970.58
197.093	-1601.3
197.312	-1111.51
197.531	2772.24
197.75	1075.4
197.969	-3395.04
198.188	-708.94
198.407	-173.01
198.625	-235.2
198.844	-178.32
199.063	-208.06
199.282	-357.97
199.501	-164.39
199.719	-150.57
199.938	-90.28
200.157	-89.3
200.376	-99.27
200.594	-161.3
200.813	-387.08
201.032	-256.53
201.251	-212.19
201.469	-192.9
201.688	-164.75
201.907	-307.05
202.125	-491.21
202.344	17452.38
202.563	2736.06
202.781	466.74
203	1324.21
203.218	1018.91
203.437	849.01
203.656	491.87
203.874	265.05
204.093	231.28
204.311	294.98
204.53	278.1
204.748	421.49
204.967	280.89
205.185	293.93
205.404	309.09
205.622	200.15
205.841	171.43
206.059	203.18
206.278	253.28
206.496	676.12
206.715	394.46
206.933	303.01
207.151	267.04
207.37	309.71
207.588	333.88
207.806	352.21
208.025	711.6
208.243	-1013.29
208.461	1373.24
208.68	-13347.06
208.898	564.49
209.116	673.2
209.335	704.59
209.553	691.76
209.771	6265.42
209.989	1173.13
210.208	2562.17
210.426	-4626.28
210.644	2991.06
210.862	-2457.21
211.081	1201.15
211.299	-536.14
211.517	1694.93
211.735	-460.76
211.953	-167828.57
212.171	-3068.67
212.39	-8815.32
212.608	-16467.39
212.826	791.47
213.044	532.27
213.262	443.82
213.48	2678.69
213.698	354.71
213.916	583.22
214.134	390.31
214.352	774.64
214.57	495.34
214.788	627.38
215.006	580.94
215.224	477.22
215.442	398.78
215.66	424.85
215.878	329.22
216.096	323.33
216.314	355.59
216.532	625.02
216.75	506.17
216.968	497.36
217.185	1099.76
217.403	1880.21
217.621	-5340.43
217.839	-1503.39
218.057	-1589.16
218.275	2898.63
218.492	922.97
218.71	1498.84
218.928	443.95
219.146	420.28
219.363	352.26
219.581	279.49
219.799	220.01
220.017	218.75
220.234	188.72
220.452	217.93
220.67	221.62
220.887	233.79
221.105	238.59
221.323	181.85
221.54	203.5
221.758	274.87
221.976	288.65
222.193	240.95
222.411	179.41
222.629	189.67
222.846	182.8
223.064	203.62
223.281	191.84
223.499	167.98
223.716	179.53
223.934	130.77
224.151	118.21
224.369	90.05
224.586	109.07
224.804	106.96
225.021	113.28
225.239	92.39
225.456	83.27
225.674	79.6
225.891	72.52
226.108	80.11
226.326	91.33
226.543	82.57
226.76	85
226.978	69.89
227.195	71.96
227.413	61.46
227.63	57.25
227.847	48.39
228.064	42.16
228.282	36.93
228.499	35.06
228.716	29.48
228.934	26.18
229.151	28.54
229.368	29.38
229.585	26.89
229.802	25.87
230.02	25.45
230.237	28.35
230.454	28.92
230.671	33.46
230.888	33.04
231.105	34.65
231.323	36.07
231.54	34.08
231.757	33.01
231.974	33.98
232.191	33.14
232.408	36.99
232.625	36.26
232.842	36.41
233.059	34.25
233.276	31.77
233.493	35.94
233.71	36.66
233.927	37.63
234.144	38.1
234.361	34.59
234.578	38.85
234.795	34.8
235.012	36.13
235.229	35.85
235.446	36.62
235.663	35.87
235.879	36.69
236.096	34.88
236.313	33.51
236.53	30.73
236.747	34.71
236.964	32.16
237.181	34.61
237.397	32.91
237.614	34.98
237.831	28.76
238.048	33.98
238.264	32.61
238.481	32.6
238.698	36.82
238.915	36.6
239.131	38.74
239.348	40.61
239.565	38.92
239.781	38.51
239.998	36.14
240.215	37.74
240.431	35.18
240.648	33.68
240.865	32.99
241.081	28.71
241.298	29
241.514	26.95
241.731	26.03
241.947	25.55
242.164	23.71
242.38	21.55
242.597	20.01
242.814	20.09
243.03	19.6
243.246	19.38
243.463	20.66
243.679	21.44
243.896	20.38
244.112	20.16
244.329	20
244.545	21.59
244.762	23.94
244.978	25.77
245.194	26.3
245.411	25.78
245.627	24.75
245.843	23.32
246.06	21.79
246.276	22.1
246.492	20.06
246.709	19.78
246.925	18.52
247.141	17.78
247.357	16.79
247.574	16.53
247.79	16.06
248.006	15.35
248.222	15.46
248.439	14.5
248.655	14.53
248.871	15.71
249.087	15.09
249.303	14.14
249.519	15.15
249.736	16.53
249.952	15.44
250.168	18.07
250.384	19.08
250.6	19.98
250.816	22.14
251.032	20.84
251.248	18.74
251.464	18.45
251.68	20.3
251.896	18.6
252.112	16.67
252.328	18.65
252.544	17.1
252.76	16.39
252.976	15.19
253.192	14.39
253.408	14.18
253.624	17.76
253.84	18.3
254.056	19.54
254.272	19.63
254.487	22.11
254.703	20.04
254.919	20.6
255.135	21.22
255.351	20.77
255.567	23.09
255.782	25.82
255.998	22.82
256.214	22.08
256.43	21.73
256.646	24.09
256.861	24.04
257.077	23.11
257.293	20.81
257.508	21.94
257.724	24.64
257.94	20.87
258.155	17.7
258.371	16.71
258.587	16.3
258.802	14.21
259.018	13.44
259.234	11.5
259.449	12.28
259.665	12.4
259.88	12.31
260.096	11.52
260.312	11.6
260.527	12.43
260.743	12.69
260.958	13.05
261.174	13.89
261.389	14.27
261.605	15.89
261.82	16.07
262.036	16.9
262.251	17.61
262.466	16.91
262.682	19.15
262.897	18.16
263.113	18.95
263.328	18.3
263.543	18.13
263.759	17.65
263.974	17.4
264.189	16.53
264.405	16.68
264.62	17.23
264.835	20.35
265.051	19.3
265.266	22.1
265.481	22.58
265.696	24.85
265.912	24.28
266.127	22.28
266.342	20.79
266.557	21.06
266.773	20.55
266.988	20.27
267.203	19.2
267.418	17.54
267.633	15.78
267.848	15.15
268.064	12.63
268.279	12.45
268.494	12.61
268.709	13.3
268.924	13.36
269.139	12.62
269.354	11.07
269.569	9.8
269.784	11.63
269.999	12.41
270.214	11.05
270.429	14.24
270.644	14.81
270.859	14.35
271.074	14.39
271.289	13.97
271.504	15.28
271.719	16.54
271.934	16.81
272.149	15.97
272.363	15.82
272.578	15.66
272.793	13.77
273.008	13.1
273.223	13.65
273.438	12.28
273.653	12.85
273.867	12.72
274.082	12.11
274.297	13.17
274.512	14.39
274.726	13.44
274.941	13.86
275.156	15.35
275.371	15.22
275.585	16.38
275.8	17.89
276.015	18.25
276.229	17
276.444	16.97
276.659	16.42
276.873	16
277.088	17.16
277.302	17.76
277.517	17.23
277.732	18.95
277.946	18.8
278.161	19.16
278.375	18.21
278.59	19.37
278.804	18.31
279.019	18.95
279.233	18.81
279.448	18.23
279.662	17.59
279.877	17.25
280.091	16.79
280.306	14.7
280.52	14.28
280.735	12.76
280.949	11.84
281.163	13.4
281.378	12.13
281.592	11.43
281.806	12.02
282.021	11.03
282.235	10.73
282.449	10.44
282.664	11.49
282.878	11.75
283.092	13.58
283.307	13.96
283.521	14.13
283.735	14.97
283.949	15.68
284.164	15.69
284.378	16.23
284.592	15.53
284.806	15.81
285.02	16.02
285.234	15.27
285.449	15.27
285.663	14.72
285.877	14.39
286.091	13.22
286.305	13.66
286.519	13.62
286.733	13.61
286.947	14.64
287.161	13.25
287.375	12.7
287.589	13.59
287.803	13.8
288.017	13.67
288.231	12.78
288.445	14.2
288.659	13.76
288.873	12.99
289.087	13.74
289.301	12.72
289.515	13.35
289.729	13.01
289.943	12.99
290.157	12.8
290.371	14.38
290.584	14.96
290.798	14.69
291.012	15.13
291.226	15.33
291.44	16.02
291.654	17.16
291.867	17.71
292.081	17.4
292.295	18.24
292.509	18.5
292.722	17.72
292.936	17.22
293.15	18.29
293.364	17.49
293.577	17.82
293.791	16.36
294.005	17.5
294.218	16.24
294.432	17.13
294.645	15.48
294.859	14.01
295.073	13.75
295.286	14.25
295.5	12.34
295.713	12.87
295.927	12.92
296.14	13.78
296.354	12.42
296.568	13.02
296.781	13.44
296.994	13.75
297.208	14.36
297.421	14.64
297.635	14.61
297.848	14.91
298.062	14.27
298.275	14.67
298.489	13.9
298.702	14.24
298.915	14.63
299.129	14.88
299.342	15.01
299.555	15.66
299.769	15.82
299.982	15.88
300.195	16.62
300.409	18.02
300.622	17.56
300.835	18.83
301.048	18.39
301.262	18.67
301.475	18.06
301.688	19.09
301.901	18.52
302.115	17.88
302.328	18.01
302.541	17.08
302.754	16.13
302.967	16.81
303.18	16.17
303.393	16.87
303.607	15.62
303.82	16.27
304.033	15.72
304.246	15.65
304.459	15.8
304.672	15.16
304.885	14.8
305.098	14.64
305.311	13.86
305.524	14.8
305.737	14.86
305.95	15.76
306.163	14.34
306.376	13.94
306.589	13.54
306.802	13.28
307.015	15.27
307.228	17.21
307.44	17.3
307.653	17
307.866	15.7
308.079	16.95
308.292	17.38
308.505	18.76
308.718	18.77
308.93	18.46
309.143	18.69
309.356	18.05
309.569	17.27
309.781	17.44
309.994	17.88
310.207	17.65
310.42	14.83
310.632	14.49
310.845	14.34
311.058	13.79
311.27	13.83
311.483	13.79
311.696	12.85
311.908	12.82
312.121	12.83
312.333	13.65
312.546	13.59
312.759	15.05
312.971	15.17
313.184	15.28
313.396	15.31
313.609	16.01
313.821	15.96
314.034	16.6
314.246	16.75
314.459	17.47
314.671	15.9
314.884	15.43
315.096	14.53
315.309	14.41
315.521	15.03
315.733	14.66
315.946	13.46
316.158	13.18
316.371	13.18
316.583	13.71
316.795	11.91
317.008	12.63
317.22	14.57
317.432	14.39
317.644	14.44
317.857	12.7
318.069	12.81
318.281	13.8
318.494	13.91
318.706	14.98
318.918	15.2
319.13	16.24
319.342	17.25
319.555	16.96
319.767	17.88
319.979	17.9
320.191	18.68
320.403	19.63
320.615	19.3
320.827	20.54
321.039	19.19
321.252	18.39
321.464	18.71
321.676	17.93
321.888	16.69
322.1	16.84
322.312	14.74
322.524	15.15
322.736	15.04
322.948	15.25
323.16	13.45
323.372	14.14
323.584	13.6
323.796	12.93
324.007	12.49
324.219	13.01
324.431	12.78
324.643	14.08
324.855	13.78
325.067	13.67
325.279	14.17
325.491	14.51
325.702	13.3
325.914	13.19
326.126	14.78
326.338	15.01
326.55	15.19
326.761	16.21
326.973	16.24
327.185	16.3
327.396	17.02
327.608	16.96
327.82	17.34
328.032	18.6
328.243	18.81
328.455	18.2
328.666	17.68
328.878	17.87
329.09	15.43
329.301	15.17
329.513	15.74
329.725	14.82
329.936	14.24
330.148	15.04
330.359	14.55
330.571	14.85
330.782	13.69
330.994	14.56
331.205	14.33
331.417	16.25
331.628	17.12
331.84	16.65
332.051	17.24
332.262	19.93
332.474	19.13
332.685	19.5
332.897	18.55
333.108	19.94
333.319	19.58
333.531	19.12
333.742	19.15
333.953	18.47
334.165	18.32
334.376	17.48
334.587	15.94
334.799	16.39
335.01	15.95
335.221	16.85
335.432	15.69
335.644	15.87
335.855	16.8
336.066	16.25
336.277	16.34
336.488	16.66
336.7	17.24
336.911	16.96
337.122	15.87
337.333	16.46
337.544	17.53
337.755	17.75
337.966	18.1
338.177	16.82
338.388	17.27
338.599	18.73
338.811	18.21
339.022	17.65
339.233	18.17
339.444	19.44
339.655	17.43
339.866	16.05
340.076	16.02
340.287	15.69
340.498	16.49
340.709	16.2
340.92	14.58
341.131	14.83
341.342	15.18
341.553	14.84
341.764	14.13
341.975	15.62
342.185	15.44
342.396	15.4
342.607	15.22
342.818	15.37
343.029	15.66
343.239	16.16
343.45	16.34
343.661	15.53
343.872	14.63
344.082	14.89
344.293	14.66
344.504	16.7
344.714	15.66
344.925	15.02
345.136	15.47
345.346	14.03
345.557	14.39
345.768	13.27
345.978	14.02
346.189	15.17
346.399	14.48
346.61	14.7
346.821	12.84
347.031	13.82
347.242	13.81
347.452	13.6
347.663	15.06
347.873	14.64
348.084	14.55
348.294	14.46
348.504	13.61
348.715	14.23
348.925	13.59
349.136	12.74
349.346	11.48
349.557	11.91
349.767	11.8
349.977	10.99
350.188	11.29
350.398	12.49
350.608	12.55
350.819	12.14
351.029	12.19
351.239	12.35
351.449	13.46
351.66	14.71
351.87	15.51
352.08	14.85
352.29	15.2
352.501	13.96
352.711	13.19
352.921	13.47
353.131	13.42
353.341	13.1
353.552	13.26
353.762	13.21
353.972	12.95
354.182	12.65
354.392	12.75
354.602	12.88
354.812	13.75
355.022	14.43
355.232	13.61
355.442	14.7
355.652	14.84
355.862	14.59
356.072	14.87
356.282	14.71
356.492	14.76
356.702	14.66
356.912	14.87
357.122	14.43
357.332	14.1
357.542	14.06
357.752	13.11
357.962	13.05
358.171	12.81
358.381	13.16
358.591	13.01
358.801	12.64
359.011	13.69
359.221	13.39
359.43	13.8
359.64	14.06
359.85	14.01
360.06	14.01
360.269	13.89
360.479	13.9
360.689	13.17
360.899	13.44
361.108	13.38
361.318	12.87
361.528	12.54
361.737	12.38
361.947	11.81
362.156	11.93
362.366	11.91
362.576	11.89
362.785	12.06
362.995	11.9
363.204	11.97
363.414	11.74
363.623	11.17
363.833	11.83
364.042	11.5
364.252	11.65
364.461	11.75
364.671	11.86
364.88	12.41
365.09	12.93
365.299	13.07
365.509	12.33
365.718	12.32
365.927	12.51
366.137	12.33
366.346	12.89
366.555	12.93
366.765	12.58
366.974	13.03
367.183	12.58
367.393	11.95
367.602	12.17
367.811	12.96
368.021	12.59
368.23	12.78
368.439	12.14
368.648	11.68
368.857	12.22
369.067	12.92
369.276	12.45
369.485	12.42
369.694	12.41
369.903	12.41
370.112	12
370.321	12.4
370.531	12.02
370.74	12.55
370.949	12.62
371.158	12.21
371.367	11.94
371.576	11.68
371.785	11.1
371.994	11.15
372.203	11.16
372.412	11.39
372.621	11.59
372.83	11.87
373.039	11.96
373.248	11.68
373.457	11.5
373.666	11.22
373.874	11.4
374.083	12.45
374.292	12.01
374.501	11.69
374.71	11.32
374.919	11.24
375.128	11.3
375.336	11.05
375.545	11.15
375.754	11.08
375.963	10.82
376.171	10.7
376.38	10.09
376.589	10.37
376.798	10.18
377.006	10.21
377.215	10.26
377.424	9.74
377.632	9.48
377.841	9.71
378.05	9.72
378.258	9.74
378.467	9.92
378.675	10.34
378.884	10.7
379.093	10.77
379.301	10.62
379.51	10.64
379.718	10.45
379.927	10.61
380.135	10.02
380.344	10.07
380.552	10.31
380.761	9.96
380.969	9.42
381.177	8.68
381.386	8.17
381.594	8.32
381.803	7.91
382.011	8.41
382.219	7.98
382.428	7.58
382.636	7.18
382.845	7.36
383.053	7.87
383.261	7.87
383.469	8.4
383.678	8.76
383.886	8.43
384.094	8.58
384.302	8.73
384.511	9.1
384.719	9.6
384.927	9.79
385.135	10.02
385.343	9.83
385.552	10.07
385.76	9.94
385.968	9.96
386.176	10.01
386.384	9.91
386.592	9.52
386.8	9.29
387.008	9.45
387.216	9.93
387.424	9.62
387.633	9.78
387.841	9.47
388.049	9.44
388.257	9.76
388.465	9.54
388.672	9.51
388.88	9.59
389.088	9.85
389.296	9.56
389.504	9.32
389.712	9.32
389.92	8.94
390.128	9.03
390.336	9
390.544	8.97
390.751	8.89
390.959	8.68
391.167	8.74
391.375	8.66
391.583	8.9
391.79	8.82
391.998	8.66
392.206	8.64
392.414	8.43
392.621	8.41
392.829	8.34
393.037	8.74
393.244	9.03
393.452	9.2
393.66	9.26
393.867	9.17
394.075	8.92
394.283	8.96
394.49	8.9
394.698	8.99
394.905	8.8
395.113	8.75
395.32	8.34
395.528	8.24
395.735	8.19
395.943	8.06
396.15	7.72
396.358	7.91
396.565	7.76
396.773	7.96
396.98	8.14
397.188	8.43
397.395	8.17
397.602	8.21
397.81	8.09
398.017	7.92
398.225	7.8
398.432	8.39
398.639	8.52
398.847	8.85
399.054	8.8
399.261	8.73
399.468	8.53
399.676	8.43
399.883	8.82
400.09	8.77
400.297	8.58
400.505	8.76
400.712	8.19
400.919	8.17
401.126	7.9
401.333	7.84
401.54	7.79
401.748	7.89
401.955	8.1
402.162	7.89
402.369	7.95
402.576	8.07
402.783	7.93
402.99	8.17
403.197	7.94
403.404	7.77
403.611	7.83
403.818	7.95
404.025	7.65
404.232	7.33
404.439	7.42
404.646	7.3
404.853	7.23
405.06	7.14
405.267	6.96
405.474	6.99
405.681	6.92
405.887	6.89
406.094	6.79
406.301	6.94
406.508	7.44
406.715	7.46
406.922	7.53
407.128	7.61
407.335	7.52
407.542	7.64
407.749	7.83
407.955	8.27
408.162	8.03
408.369	8.11
408.575	8.11
408.782	7.73
408.989	7.47
409.195	7.5
409.402	7.58
409.609	8.01
409.815	7.95
410.022	7.72
410.228	7.32
410.435	7.34
410.642	7.03
410.848	7.35
411.055	7.24
411.261	7.27
411.468	7.3
411.674	7.13
411.881	6.97
412.087	7.23
412.294	7.28
412.5	7.06
412.706	7.33
412.913	7.44
413.119	6.83
413.326	6.79
413.532	7.04
413.738	6.66
413.945	6.87
414.151	6.7
414.357	6.54
414.564	6.51
414.77	7
414.976	6.72
415.182	6.97
415.389	7.18
415.595	7.35
415.801	7.05
416.007	7.41
416.214	7.39
416.42	7.28
416.626	7.21
416.832	7.21
417.038	6.88
417.244	7.04
417.45	6.86
417.657	7.01
417.863	7.12
418.069	7.34
418.275	7.15
418.481	6.84
418.687	6.84
418.893	6.83
419.099	6.88
419.305	7.05
419.511	6.9
419.717	6.84
419.923	6.65
420.129	6.55
420.335	6.55
420.541	6.6
420.746	6.75
420.952	6.84
421.158	6.76
421.364	6.64
421.57	6.63
421.776	6.68
421.982	6.66
422.187	6.58
422.393	6.57
422.599	6.44
422.805	6.38
423.01	6.35
423.216	6.12
423.422	6.19
423.628	6.24
423.833	6.05
424.039	6.08
424.245	6.14
424.45	6.4
424.656	6.5
424.862	6.51
425.067	6.63
425.273	6.6
425.478	6.82
425.684	6.79
425.889	6.95
426.095	7.25
426.301	7.16
426.506	7.14
426.712	7.1
426.917	6.84
427.123	6.95
427.328	6.81
427.533	6.81
427.739	6.79
427.944	6.69
428.15	6.42
428.355	6.35
428.561	6.36
428.766	6.27
428.971	6.1
429.177	6.42
429.382	6.44
429.587	6.63
429.793	6.69
429.998	6.61
430.203	6.68
430.408	6.72
430.614	6.57
430.819	6.55
431.024	6.65
431.229	6.6
431.434	6.43
431.64	6.41
431.845	6.45
432.05	6.38
432.255	6.43
432.46	6.3
432.665	6.3
432.87	6.32
433.076	6.43
433.281	6.47
433.486	6.46
433.691	6.37
433.896	6.06
434.101	5.98
434.306	6.17
434.511	6.1
434.716	6.27
434.921	6.3
435.126	6.11
435.331	5.9
435.535	5.94
435.74	5.99
435.945	6.13
436.15	6.18
436.355	6.28
436.56	6.21
436.765	6.33
436.97	6.29
437.174	6.35
437.379	6.61
437.584	6.93
437.789	6.76
437.993	6.76
438.198	6.87
438.403	7.16
438.608	7.12
438.812	7.02
439.017	6.94
439.222	6.89
439.426	6.73
439.631	6.7
439.836	6.5
440.04	6.54
440.245	6.52
440.45	6.37
440.654	6.15
440.859	6.01
441.063	6.08
441.268	6.02
441.472	6.01
441.677	5.99
441.881	5.8
442.086	5.82
442.29	5.78
442.495	5.81
442.699	5.91
442.904	5.95
443.108	5.96
443.312	5.9
443.517	5.91
443.721	5.89
443.925	6.03
444.13	6.11
444.334	6.14
444.538	6.13
444.743	6.05
444.947	5.96
445.151	5.9
445.356	5.92
445.56	6
445.764	5.97
445.968	6
446.173	5.92
446.377	5.99
446.581	5.95
446.785	6
446.989	6.06
447.193	5.99
447.398	6.08
447.602	6.03
447.806	6.04
448.01	6.11
448.214	6.22
448.418	6.26
448.622	6.3
448.826	6.44
449.03	6.41
449.234	6.48
449.438	6.63
449.642	6.66
449.846	6.78
450.05	6.63
450.254	6.45
450.458	6.44
450.662	6.34
450.866	6.14
451.069	6.02
451.273	5.99
451.477	5.85
451.681	5.81
451.885	5.51
452.089	5.46
452.292	5.56
452.496	5.68
452.7	5.65
452.904	5.61
453.107	5.68
453.311	5.76
453.515	5.74
453.719	5.76
453.922	5.8
454.126	5.97
454.33	5.95
454.533	5.73
454.737	5.74
454.94	5.67
455.144	5.89
455.348	5.94
455.551	5.85
455.755	5.84
455.958	5.86
456.162	5.82
456.365	5.98
456.569	5.87
456.772	6.03
456.976	6.07
457.179	6.07
457.383	5.96
457.586	5.93
457.79	5.85
457.993	5.95
