Data from LC_166_Reflection_1.txt Node
Date: Mon Nov 16 23:01:04 EST 2015
User: robert
Spectrometer: USB4E03001
Autoset integration time: false
Trigger mode: 4
Integration Time (sec): 1.000000E-1
Scans to average: 15
Electric dark correction enabled: true
Nonlinearity correction enabled: false
Boxcar width: 5
Stray light correction enabled: false
XAxis mode: Wavelengths
Stop averaging: false
Number of Pixels in Spectrum: 3648
>>>>>Begin Spectral Data<<<<<
177.566	5173.49
177.785	419.9
178.005	-3922.69
178.225	236.14
178.445	392.21
178.665	-343.84
178.885	-117.37
179.105	928.04
179.324	2270.56
179.544	-291.79
179.764	-1602.2
179.984	-622.85
180.204	-491.54
180.423	-457.08
180.643	-603.86
180.863	-465.15
181.083	-429.15
181.302	-530.29
181.522	-374.52
181.742	-283.63
181.961	-512.82
182.181	-385.38
182.401	-544.8
182.621	-2297.74
182.84	-1092.49
183.06	-631.22
183.279	-362.48
183.499	-227.21
183.719	-160.72
183.938	-157.63
184.158	-171.66
184.377	-115.78
184.597	-208.76
184.816	-136.96
185.036	-66.97
185.256	-39.97
185.475	-44.95
185.695	-41.81
185.914	-67.42
186.134	-182.36
186.353	-303.25
186.572	-463.17
186.792	-656.95
187.011	-234.28
187.231	-177.53
187.45	-162.26
187.67	-562.74
187.889	-1829.38
188.108	3822.57
188.328	-902.98
188.547	-300.05
188.766	-433.76
188.986	-565.17
189.205	-315.38
189.424	-193.79
189.644	-753.12
189.863	-806.76
190.082	-399.7
190.302	-1068.36
190.521	-480.84
190.74	661.21
190.959	347.84
191.178	578.08
191.398	439.17
191.617	398.73
191.836	418.06
192.055	791.95
192.274	361.37
192.494	454.48
192.713	408.28
192.932	1019.65
193.151	719.32
193.37	1426.64
193.589	-933.07
193.808	-277.83
194.027	-432.8
194.246	-3641.34
194.465	819.99
194.685	1951.16
194.904	917.49
195.123	-1220.82
195.342	-759.52
195.561	-393.41
195.78	-548.33
195.999	25080.28
196.218	926.47
196.436	777.45
196.655	-2824.01
196.874	-941.84
197.093	-1228.24
197.312	-919.16
197.531	2550
197.75	652.74
197.969	-1640.43
198.188	-361.68
198.407	-67.54
198.625	-89.79
198.844	-66.08
199.063	-107.97
199.282	-250.97
199.501	-172.46
199.719	-135.98
199.938	-84.04
200.157	-102.75
200.376	-134.24
200.594	-214.29
200.813	-455.23
201.032	-299.28
201.251	-267.45
201.469	-226.15
201.688	-180.07
201.907	-357.73
202.125	-543.1
202.344	19511.9
202.563	3435.67
202.781	560.86
203	1754.91
203.218	1235.2
203.437	1047.53
203.656	506.36
203.874	281.53
204.093	279.47
204.311	356.05
204.53	339.28
204.748	547.93
204.967	385.79
205.185	417.85
205.404	399.4
205.622	262.32
205.841	238.35
206.059	284.52
206.278	352.08
206.496	796.5
206.715	407.29
206.933	315.64
207.151	274.23
207.37	290.77
207.588	248.76
207.806	237.24
208.025	531.43
208.243	-809.62
208.461	1299.55
208.68	-14434.12
208.898	639.9
209.116	668.94
209.335	732.82
209.553	752.44
209.771	7370.83
209.989	1811.31
210.208	3899.43
210.426	-6130.72
210.644	3111.75
210.862	-2848.81
211.081	1392.34
211.299	-640.54
211.517	2875
211.735	-698.75
211.953	-212414.29
212.171	-4478.61
212.39	-13688.29
212.608	-34556.52
212.826	1468.56
213.044	1151.09
213.262	806.52
213.48	4247.68
213.698	410.42
213.916	494.69
214.134	350.17
214.352	713.83
214.57	476.22
214.788	509.6
215.006	432.03
215.224	357.98
215.442	277.04
215.66	243.8
215.878	183.8
216.096	215.72
216.314	266.2
216.532	518.59
216.75	419.89
216.968	366.23
217.185	905.92
217.403	1602.35
217.621	-4366.43
217.839	-1312.92
218.057	-1594.71
218.275	2952.29
218.492	941.15
218.71	1457.59
218.928	410.07
219.146	432.87
219.363	326.47
219.581	236.28
219.799	187.11
220.017	192.3
220.234	167.66
220.452	184.49
220.67	211.36
220.887	217.93
221.105	247.03
221.323	173.9
221.54	143.97
221.758	190.07
221.976	203.04
222.193	197.59
222.411	139.88
222.629	144.86
222.846	148.81
223.064	153.55
223.281	133.41
223.499	109.74
223.716	133.53
223.934	108.35
224.151	107.97
224.369	100.86
224.586	93.72
224.804	96.89
225.021	107.18
225.239	84.01
225.456	83.2
225.674	94.51
225.891	90.67
226.108	96.64
226.326	96.79
226.543	86.89
226.76	75.06
226.978	63.79
227.195	67.9
227.413	54.13
227.63	52.59
227.847	46.22
228.064	42.67
228.282	36.83
228.499	30.21
228.716	27.59
228.934	22.09
229.151	23.07
229.368	24.19
229.585	23.18
229.802	24.3
230.02	22.78
230.237	24.82
230.454	23.24
230.671	23.89
230.888	24.5
231.105	26.23
231.323	28.51
231.54	31.14
231.757	33.03
231.974	31.6
232.191	30.67
232.408	36.66
232.625	32.79
232.842	34.51
233.059	37.8
233.276	35.76
233.493	34.85
233.71	36.71
233.927	34.5
234.144	34.55
234.361	29.29
234.578	31.28
234.795	27.19
235.012	31.96
235.229	32.51
235.446	32.6
235.663	34.22
235.879	36.56
236.096	36.28
236.313	36.98
236.53	34.57
236.747	39.78
236.964	39.13
237.181	39.46
237.397	37.38
237.614	33.88
237.831	30.84
238.048	30.07
238.264	30.6
238.481	24.89
238.698	24.16
238.915	25.2
239.131	23.89
239.348	21.96
239.565	24.74
239.781	25.7
239.998	26.77
240.215	27.93
240.431	26.79
240.648	24.34
240.865	26.09
241.081	24.51
241.298	24.35
241.514	26.3
241.731	25.54
241.947	23.67
242.164	22.51
242.38	20.72
242.597	20.61
242.814	20.28
243.03	19.13
243.246	20.03
243.463	20.39
243.679	21.32
243.896	18.68
244.112	20.7
244.329	20.74
244.545	20.03
244.762	21.1
244.978	21.81
245.194	21.74
245.411	22.72
245.627	21.22
245.843	20.72
246.06	18.94
246.276	19.32
246.492	17.22
246.709	17.44
246.925	16.25
247.141	15.99
247.357	15.05
247.574	14.75
247.79	14.74
248.006	13.87
248.222	13.84
248.439	14.39
248.655	14.07
248.871	14.74
249.087	14.3
249.303	15.12
249.519	16.02
249.736	17.15
249.952	18.12
250.168	20
250.384	21.19
250.6	22.22
250.816	21.21
251.032	20.01
251.248	18.5
251.464	18.64
251.68	17.79
251.896	17.01
252.112	16.14
252.328	16.89
252.544	15.86
252.76	15.97
252.976	14.81
253.192	13.26
253.408	14.79
253.624	17.61
253.84	17.09
254.056	19.32
254.272	18.04
254.487	20.7
254.703	18.44
254.919	16.25
255.135	15.91
255.351	15.09
255.567	17.4
255.782	18.24
255.998	15.91
256.214	16.4
256.43	14.29
256.646	16.91
256.861	15.37
257.077	17.49
257.293	17.41
257.508	18.7
257.724	20.65
257.94	18.79
258.155	16.05
258.371	15.03
258.587	14.25
258.802	12.58
259.018	12.59
259.234	10.9
259.449	10.28
259.665	9.6
259.88	10.65
260.096	10.27
260.312	9.7
260.527	10.36
260.743	11.03
260.958	12.02
261.174	13.08
261.389	13.17
261.605	14.16
261.82	14.8
262.036	16.31
262.251	15.8
262.466	15.7
262.682	19.03
262.897	20
263.113	19.81
263.328	18.9
263.543	18.23
263.759	17.53
263.974	17.52
264.189	17.53
264.405	17.29
264.62	18.14
264.835	19.56
265.051	17.02
265.266	17.45
265.481	17.29
265.696	18.58
265.912	18.73
266.127	18.47
266.342	17.59
266.557	18.33
266.773	18.65
266.988	16.74
267.203	16.7
267.418	15.57
267.633	14.47
267.848	15.04
268.064	13.15
268.279	13.48
268.494	12.46
268.709	12.8
268.924	12.55
269.139	13.63
269.354	14.71
269.569	13.76
269.784	14.22
269.999	13.82
270.214	12.64
270.429	15.27
270.644	15.05
270.859	15.75
271.074	15.92
271.289	14.92
271.504	13.64
271.719	13
271.934	13.19
272.149	13.12
272.363	14.09
272.578	13.6
272.793	12.4
273.008	12.01
273.223	11.48
273.438	11.11
273.653	11.4
273.867	11.69
274.082	11.76
274.297	12.48
274.512	13.34
274.726	11.91
274.941	12.86
275.156	13.21
275.371	13.68
275.585	15.49
275.8	17.07
276.015	17.16
276.229	17.42
276.444	17.35
276.659	16.61
276.873	17.53
277.088	18.84
277.302	19.18
277.517	18.67
277.732	20.64
277.946	19.73
278.161	19.72
278.375	19.19
278.59	19.16
278.804	17.99
279.019	17.85
279.233	16.64
279.448	16.75
279.662	15.92
279.877	16.54
280.091	14.24
280.306	13.77
280.52	12.63
280.735	12.15
280.949	11.19
281.163	12.55
281.378	10.23
281.592	10.59
281.806	10.44
282.021	9.25
282.235	9.04
282.449	9.65
282.664	10.4
282.878	10.37
283.092	11.57
283.307	10.89
283.521	10.48
283.735	11.61
283.949	11.71
284.164	11.18
284.378	12.76
284.592	11.04
284.806	10.83
285.02	10.68
285.234	10.92
285.449	10.15
285.663	10.98
285.877	10.88
286.091	12
286.305	12.25
286.519	11.19
286.733	9.67
286.947	10.2
287.161	10.24
287.375	10.35
287.589	11.22
287.803	11.74
288.017	11.31
288.231	10.82
288.445	10.13
288.659	9.88
288.873	11.29
289.087	12.03
289.301	12.29
289.515	11.64
289.729	10.64
289.943	9.27
290.157	9.14
290.371	10.89
290.584	12.02
290.798	12.39
291.012	12.18
291.226	11.97
291.44	13.28
291.654	13.9
291.867	14.4
292.081	14.88
292.295	15.78
292.509	15.79
292.722	15.03
292.936	14.48
293.15	15.18
293.364	15.25
293.577	16.21
293.791	14.15
294.005	15.35
294.218	14.95
294.432	15.39
294.645	15.25
294.859	14.87
295.073	14.05
295.286	14.57
295.5	13.63
295.713	13.84
295.927	13.31
296.14	13.93
296.354	12.38
296.568	12.19
296.781	11.72
296.994	12.13
297.208	12.07
297.421	12.37
297.635	11.38
297.848	10.99
298.062	10.42
298.275	9.61
298.489	9.38
298.702	9.79
298.915	10.35
299.129	11.21
299.342	10.01
299.555	10.71
299.769	10.41
299.982	11.05
300.195	11.97
300.409	13.11
300.622	14.01
300.835	15.47
301.048	15.23
301.262	14.98
301.475	14.46
301.688	15.92
301.901	15.47
302.115	15.68
302.328	16.42
302.541	15.86
302.754	15.87
302.967	16.65
303.18	16.21
303.393	16.25
303.607	15.88
303.82	16.01
304.033	14.83
304.246	15.63
304.459	15.74
304.672	15.08
304.885	16.02
305.098	14.27
305.311	12.27
305.524	12.77
305.737	13.19
305.95	15.09
306.163	14.45
306.376	15.56
306.589	15.39
306.802	14.99
307.015	16.67
307.228	16.42
307.44	17.37
307.653	19.29
307.866	17.75
308.079	18.8
308.292	18.08
308.505	18.69
308.718	18.67
308.93	17.78
309.143	18.27
309.356	16.49
309.569	16.14
309.781	17.08
309.994	17.17
310.207	17.68
310.42	16.1
310.632	15.21
310.845	15.08
311.058	14.34
311.27	14.75
311.483	14.66
311.696	14.35
311.908	14.52
312.121	13.91
312.333	14.07
312.546	13.98
312.759	13.91
312.971	13.99
313.184	14.49
313.396	14.27
313.609	15.27
313.821	14.82
314.034	15.93
314.246	16.3
314.459	16.01
314.671	15.94
314.884	16.08
315.096	15.56
315.309	15.9
315.521	15.92
315.733	16.5
315.946	13.92
316.158	14.16
316.371	14.53
316.583	14.89
316.795	14.91
317.008	14.72
317.22	15.5
317.432	16.14
317.644	16.25
317.857	15.35
318.069	15.21
318.281	16.31
318.494	15.96
318.706	15.05
318.918	13.87
319.13	14.43
319.342	14.39
319.555	14.04
319.767	14.93
319.979	14.65
320.191	15.88
320.403	16.35
320.615	16.98
320.827	18.04
321.039	17.61
321.252	17.99
321.464	18.4
321.676	18.34
321.888	16.8
322.1	17.55
322.312	16.16
322.524	14.26
322.736	13.57
322.948	12.8
323.16	11.62
323.372	12.25
323.584	11.95
323.796	10.36
324.007	9.55
324.219	10.45
324.431	9.74
324.643	9.86
324.855	10.3
325.067	10.12
325.279	9.99
325.491	10.31
325.702	9.97
325.914	9.94
326.126	11.34
326.338	12.1
326.55	12.01
326.761	12.47
326.973	13.5
327.185	13.97
327.396	14.34
327.608	15.14
327.82	15.45
328.032	15.49
328.243	14.91
328.455	15.18
328.666	14.83
328.878	15.04
329.09	13.83
329.301	13.75
329.513	12.79
329.725	12.26
329.936	12.23
330.148	12.99
330.359	12.2
330.571	13.13
330.782	12.19
330.994	13.55
331.205	13.8
331.417	13.97
331.628	13.32
331.84	14.02
332.051	14.77
332.262	15.18
332.474	13.33
332.685	14.98
332.897	14.91
333.108	15.33
333.319	12.62
333.531	11.31
333.742	12.23
333.953	12.01
334.165	11.56
334.376	10.85
334.587	10.17
334.799	10.96
335.01	9.72
335.221	9.37
335.432	8.51
335.644	9.18
335.855	9.89
336.066	10.7
336.277	10.71
336.488	11.15
336.7	10.82
336.911	11.03
337.122	10.97
337.333	11.82
337.544	12.26
337.755	13.18
337.966	13.06
338.177	13.1
338.388	11.76
338.599	12.29
338.811	11.5
339.022	11.73
339.233	10.92
339.444	11.31
339.655	9.38
339.866	9.1
340.076	8.97
340.287	10.02
340.498	10.4
340.709	10.25
340.92	9.53
341.131	10.71
341.342	10.62
341.553	11.11
341.764	11.05
341.975	12.91
342.185	12.45
342.396	11.84
342.607	11.46
342.818	10.72
343.029	10.99
343.239	11.6
343.45	11.23
343.661	10.6
343.872	9.77
344.082	9.51
344.293	9.36
344.504	11.15
344.714	10.57
344.925	9.49
345.136	8.88
345.346	8
345.557	8.19
345.768	7.76
345.978	7.77
346.189	9.12
346.399	8.27
346.61	8.25
346.821	7.07
347.031	8.61
347.242	8.61
347.452	9.88
347.663	10.47
347.873	11
348.084	10.78
348.294	11.33
348.504	9.82
348.715	10.8
348.925	9.98
349.136	9.22
349.346	7.87
349.557	8.83
349.767	9.1
349.977	9.39
350.188	8.52
350.398	9.53
350.608	9.88
350.819	10.2
351.029	9.64
351.239	10.11
351.449	10.01
351.66	10.43
351.87	11.05
352.08	9.64
352.29	9.56
352.501	9.02
352.711	8.55
352.921	8.81
353.131	8.41
353.341	8.51
353.552	8.1
353.762	8.67
353.972	8.33
354.182	8.37
354.392	8.63
354.602	7.93
354.812	8.45
355.022	9
355.232	8.54
355.442	9.48
355.652	9.31
355.862	9.69
356.072	9.48
356.282	9.19
356.492	8.68
356.702	8.61
356.912	9.36
357.122	9.7
357.332	9.02
357.542	8.81
357.752	8.59
357.962	8.68
358.171	8.63
358.381	9.22
358.591	9.34
358.801	8.85
359.011	9.27
359.221	8.93
359.43	9.06
359.64	9.36
359.85	9.47
360.06	9.67
360.269	10.06
360.479	9.71
360.689	8.92
360.899	9.47
361.108	9.79
361.318	9.8
361.528	9.75
361.737	9
361.947	8.38
362.156	8.72
362.366	8.51
362.576	8.08
362.785	8.31
362.995	8.36
363.204	8
363.414	8.22
363.623	8.08
363.833	8.42
364.042	8.74
364.252	9.04
364.461	9.03
364.671	9.15
364.88	9.5
365.09	9.6
365.299	10.3
365.509	10.23
365.718	9.41
365.927	9.56
366.137	9.36
366.346	9.36
366.555	9.43
366.765	8.91
366.974	8.71
367.183	8.57
367.393	7.72
367.602	6.94
367.811	7.24
368.021	7.26
368.23	7.11
368.439	6.47
368.648	6.65
368.857	6.84
369.067	7.19
369.276	7.01
369.485	7.62
369.694	8.25
369.903	9.15
370.112	9.03
370.321	9.67
370.531	9.62
370.74	10.02
370.949	9.75
371.158	9.5
371.367	9.46
371.576	9.5
371.785	8.9
371.994	9.16
372.203	8.7
372.412	8.78
372.621	8.55
372.83	8.92
373.039	8.92
373.248	8.16
373.457	8.61
373.666	8.06
373.874	7.98
374.083	8.43
374.292	7.9
374.501	7.37
374.71	6.97
374.919	7.1
375.128	6.68
375.336	6.75
375.545	7.74
375.754	6.62
375.963	6.49
376.171	6.39
376.38	5.98
376.589	6.46
376.798	6.4
377.006	6.41
377.215	6.91
377.424	6.6
377.632	6.71
377.841	6.54
378.05	7.28
378.258	7.74
378.467	8.12
378.675	8.25
378.884	8.15
379.093	8.44
379.301	8.36
379.51	7.94
379.718	8.19
379.927	8.27
380.135	8.15
380.344	7.97
380.552	8.04
380.761	8.06
380.969	8.18
381.177	8.22
381.386	7.61
381.594	7.42
381.803	7.02
382.011	6.85
382.219	6.25
382.428	5.75
382.636	5.55
382.845	5.52
383.053	5.34
383.261	4.48
383.469	4.67
383.678	5.46
383.886	5.57
384.094	5.61
384.302	5.99
384.511	6.31
384.719	6.48
384.927	6.34
385.135	6.35
385.343	6.28
385.552	6.58
385.76	5.84
385.968	5.39
386.176	5.25
386.384	5.18
386.592	4.87
386.8	4.82
387.008	5.22
387.216	5.64
387.424	5.44
387.633	5.59
387.841	6.01
388.049	6.33
388.257	6.48
388.465	6.72
388.672	6.87
388.88	6.9
389.088	6.84
389.296	6.6
389.504	6.6
389.712	6.74
389.92	6.24
390.128	5.84
390.336	5.85
390.544	6
390.751	5.39
390.959	5.46
391.167	5.32
391.375	5.44
391.583	5.35
391.79	5.16
391.998	4.87
392.206	5.32
392.414	5.29
392.621	5.28
392.829	5.29
393.037	5.68
393.244	5.56
393.452	5.78
393.66	5.8
393.867	5.88
394.075	5.86
394.283	6.18
394.49	5.89
394.698	6.2
394.905	6.16
395.113	6.03
395.32	6.33
395.528	6.49
395.735	6.53
395.943	6.42
396.15	6.47
396.358	6.56
396.565	6.17
396.773	6.62
396.98	6.37
397.188	6.38
397.395	6.57
397.602	6.11
397.81	5.95
398.017	6.21
398.225	6.24
398.432	6.4
398.639	6.37
398.847	6.61
399.054	6.3
399.261	6.07
399.468	6.22
399.676	6.13
399.883	6.47
400.09	6.46
400.297	6.06
400.505	5.96
400.712	5.63
400.919	5.78
401.126	5.95
401.333	5.91
401.54	6.37
401.748	6.23
401.955	6.11
402.162	6.11
402.369	6.26
402.576	6.12
402.783	6.28
402.99	6.37
403.197	6.17
403.404	5.88
403.611	5.95
403.818	5.71
404.025	5.72
404.232	5.68
404.439	5.51
404.646	5.23
404.853	5.16
405.06	5.08
405.267	5.03
405.474	5.07
405.681	4.98
405.887	4.93
406.094	5.26
406.301	5.43
406.508	5.36
406.715	5.49
406.922	5.68
407.128	6.01
407.335	6.07
407.542	5.87
407.749	6.01
407.955	6.45
408.162	6.33
408.369	6.2
408.575	6.03
408.782	6.07
408.989	5.93
409.195	5.66
409.402	5.7
409.609	5.91
409.815	6.19
410.022	6.07
410.228	5.74
410.435	5.98
410.642	5.69
410.848	5.9
411.055	5.74
411.261	5.92
411.468	6.3
411.674	5.87
411.881	5.48
412.087	5.75
412.294	5.67
412.5	5.41
412.706	5.28
412.913	5.27
413.119	4.83
413.326	4.81
413.532	4.71
413.738	4.44
413.945	4.66
414.151	4.59
414.357	4.35
414.564	4.12
414.77	4.36
414.976	4.27
415.182	4.47
415.389	4.53
415.595	4.59
415.801	4.65
416.007	4.72
416.214	4.74
416.42	4.81
416.626	4.68
416.832	4.87
417.038	4.98
417.244	5.09
417.45	5
417.657	5.24
417.863	5.42
418.069	5.57
418.275	5.59
418.481	5.58
418.687	5.5
418.893	5.44
419.099	5.27
419.305	5.29
419.511	5.18
419.717	5.14
419.923	4.9
420.129	4.79
420.335	4.65
420.541	4.6
420.746	4.62
420.952	4.69
421.158	4.65
421.364	4.65
421.57	4.62
421.776	4.64
421.982	4.61
422.187	4.57
422.393	4.53
422.599	4.35
422.805	4.34
423.01	4.22
423.216	3.99
423.422	4
423.628	4.18
423.833	4.09
424.039	4.24
424.245	4.3
424.45	4.53
424.656	4.63
424.862	4.69
425.067	4.71
425.273	4.71
425.478	4.98
425.684	5.11
425.889	5.14
426.095	5.22
426.301	5.1
426.506	5.13
426.712	5.13
426.917	5.01
427.123	5.16
427.328	5.23
427.533	5.41
427.739	5.42
427.944	5.47
428.15	5.3
428.355	5.35
428.561	5.24
428.766	5.18
428.971	5.12
429.177	5.2
429.382	5.27
429.587	5.25
429.793	5.14
429.998	5.11
430.203	5.01
430.408	5.2
430.614	5.32
430.819	5.27
431.024	5.43
431.229	5.38
431.434	5.48
431.64	5.2
431.845	5.27
432.05	5.22
432.255	5.2
432.46	5.04
432.665	4.73
432.87	4.5
433.076	4.56
433.281	4.4
433.486	4.39
433.691	4.08
433.896	3.98
434.101	3.97
434.306	4.07
434.511	3.97
434.716	4.01
434.921	4.27
435.126	4.25
435.331	4.16
435.535	3.99
435.74	4.01
435.945	4.2
436.15	4.46
436.355	4.44
436.56	4.38
436.765	4.47
436.97	4.35
437.174	4.21
437.379	4.3
437.584	4.46
437.789	4.6
437.993	4.45
438.198	4.46
438.403	4.49
438.608	4.44
438.812	4.29
439.017	4.16
439.222	4.18
439.426	4.18
439.631	4.19
439.836	4
440.04	4.18
440.245	4.24
440.45	4.26
440.654	4.18
440.859	4.03
441.063	4.1
441.268	4.08
441.472	4.06
441.677	4.18
441.881	4.07
442.086	4.11
442.29	3.84
442.495	3.79
442.699	3.88
442.904	3.88
443.108	3.99
443.312	3.93
443.517	4
443.721	4.03
443.925	3.98
444.13	4.02
444.334	3.97
444.538	4.03
444.743	4.1
444.947	3.93
445.151	3.81
445.356	3.8
445.56	3.87
445.764	3.77
445.968	3.75
446.173	3.67
446.377	3.67
446.581	3.68
446.785	3.69
446.989	3.6
447.193	3.63
447.398	3.66
447.602	3.7
447.806	3.72
448.01	3.93
448.214	4.09
448.418	4.06
448.622	4.13
448.826	4.28
449.03	4.37
449.234	4.41
449.438	4.4
449.642	4.48
449.846	4.47
450.05	4.46
450.254	4.32
450.458	4.39
450.662	4.44
450.866	4.26
451.069	4.05
451.273	4.05
451.477	3.94
451.681	4.03
451.885	3.9
452.089	3.87
452.292	3.83
452.496	3.84
452.7	3.65
452.904	3.75
453.107	3.9
453.311	4.01
453.515	3.95
453.719	3.93
453.922	3.92
454.126	3.88
454.33	3.85
454.533	3.74
454.737	3.61
454.94	3.6
455.144	3.43
455.348	3.32
455.551	3.38
455.755	3.16
455.958	3.3
456.162	3.21
456.365	3.38
456.569	3.28
456.772	3.24
456.976	3.44
457.179	3.52
457.383	3.45
457.586	3.64
457.79	3.51
457.993	3.74
458.196	3.6
458.4	3.66
458.603	3.51
458.807	3.62
459.01	3.85
459.213	3.71
459.417	3.62
459.62	3.72
459.823	3.62
460.026	3.62
460.23	3.59
460.433	3.77
460.636	3.74
460.839	3.81
