Data from LC_163_Reflection_2.txt Node
Date: Mon Nov 16 22:48:35 EST 2015
User: robert
Spectrometer: USB4E03001
Autoset integration time: false
Trigger mode: 4
Integration Time (sec): 1.000000E-1
Scans to average: 15
Electric dark correction enabled: true
Nonlinearity correction enabled: false
Boxcar width: 5
Stray light correction enabled: false
XAxis mode: Wavelengths
Stop averaging: false
Number of Pixels in Spectrum: 3648
>>>>>Begin Spectral Data<<<<<
177.566	50.6
177.785	92.91
178.005	40.34
178.225	45.14
178.445	-6.42
178.665	659.25
178.885	54.9
179.105	-236.45
179.324	-1190.19
179.544	66.39
179.764	-470.28
179.984	-144.42
180.204	-136.79
180.423	-121.5
180.643	-180.54
180.863	-154.17
181.083	-147.09
181.302	-256.21
181.522	-224.55
181.742	-231.98
181.961	-407.01
182.181	-308.26
182.401	-473.3
182.621	-1917.96
182.84	-876.59
183.06	-640.7
183.279	-410.53
183.499	-291.08
183.719	-235.9
183.938	-252.89
184.158	-234.15
184.377	-159.63
184.597	-239.63
184.816	-149.89
185.036	-109.63
185.256	-74.21
185.475	-105.19
185.695	-130.42
185.914	-180.52
186.134	-392.09
186.353	-448.5
186.572	-634.84
186.792	-981.53
187.011	-425.23
187.231	-405.75
187.45	-245.74
187.67	-761.57
187.889	-1870.5
188.108	3642.41
188.328	-935.15
188.547	-282.47
188.766	-494.09
188.986	-761.52
189.205	-475.29
189.424	-298.65
189.644	-958.17
189.863	-1140.98
190.082	-725.91
190.302	-1762.64
190.521	-891.69
190.74	947.43
190.959	459.61
191.178	707.59
191.398	626.87
191.617	511.04
191.836	425.4
192.055	861.33
192.274	480.8
192.494	512.48
192.713	487.42
192.932	1089.74
193.151	817.39
193.37	1305.35
193.589	-624.7
193.808	-136.33
194.027	-208.24
194.246	-2738.27
194.465	563.81
194.685	901.39
194.904	473.21
195.123	-460.41
195.342	-324.38
195.561	-189.83
195.78	-399.51
195.999	18677.46
196.218	749.42
196.436	727.47
196.655	-2532.82
196.874	-986.64
197.093	-1538.77
197.312	-1206
197.531	3373.76
197.75	1023.82
197.969	-3362.41
198.188	-561.15
198.407	-149.71
198.625	-150.47
198.844	-91.8
199.063	-100.63
199.282	-212.88
199.501	-127.05
199.719	-107.61
199.938	-95.66
200.157	-86.77
200.376	-62.27
200.594	-117.9
200.813	-303.45
201.032	-231.35
201.251	-205.67
201.469	-157.28
201.688	-100.1
201.907	-203.22
202.125	-288.34
202.344	8079.76
202.563	1672.71
202.781	410.5
203	1143.29
203.218	878.4
203.437	662.11
203.656	406.62
203.874	287.07
204.093	292.63
204.311	382.48
204.53	391.22
204.748	600.11
204.967	420.56
205.185	450.62
205.404	473.81
205.622	320.92
205.841	261.02
206.059	309.24
206.278	348.08
206.496	866.48
206.715	447.99
206.933	326.4
207.151	269.7
207.37	304.44
207.588	258.75
207.806	241.7
208.025	476.07
208.243	-770.04
208.461	1210.76
208.68	-13628.24
208.898	537.55
209.116	512.78
209.335	607.76
209.553	599.61
209.771	6402.92
209.989	1368.22
210.208	2760.84
210.426	-4339.59
210.644	2524.83
210.862	-2153.09
211.081	1053.22
211.299	-480.99
211.517	2409.42
211.735	-581.22
211.953	-221757.14
212.171	-3872.89
212.39	-10096.4
212.608	-28150
212.826	1307.66
213.044	909.61
213.262	608.14
213.48	3044.51
213.698	340.08
213.916	514.28
214.134	362.25
214.352	701.6
214.57	380.93
214.788	573.95
215.006	462.86
215.224	336.53
215.442	288.62
215.66	289.67
215.878	252.79
216.096	270.2
216.314	264.3
216.532	453.87
216.75	343.49
216.968	386.34
217.185	856.25
217.403	1570.13
217.621	-4407.33
217.839	-1231.55
218.057	-1542.61
218.275	2707.16
218.492	790.02
218.71	1218.35
218.928	380.39
219.146	343.46
219.363	268.07
219.581	186.21
219.799	152.35
220.017	152.31
220.234	138.09
220.452	144.36
220.67	149.9
220.887	138.12
221.105	174.04
221.323	131.95
221.54	153
221.758	211.28
221.976	236.7
222.193	202.62
222.411	131.27
222.629	152.17
222.846	150.67
223.064	171.49
223.281	167.38
223.499	159.66
223.716	161.49
223.934	131.42
224.151	124.44
224.369	91.82
224.586	86.64
224.804	86.74
225.021	73.45
225.239	59.04
225.456	42.71
225.674	38.71
225.891	6.21
226.108	21.44
226.326	29.46
226.543	32.7
226.76	41.87
226.978	41.36
227.195	54.17
227.413	44.37
227.63	40.48
227.847	36.22
228.064	27.85
228.282	30.99
228.499	29.54
228.716	24.71
228.934	21.04
229.151	21.62
229.368	23
229.585	19.25
229.802	21.27
230.02	20.73
230.237	23.89
230.454	27.63
230.671	29.99
230.888	29.77
231.105	32.25
231.323	34.52
231.54	36.97
231.757	35.43
231.974	35.3
232.191	37.88
232.408	42.66
232.625	38
232.842	37.63
233.059	39.51
233.276	37.33
233.493	33.92
233.71	33.54
233.927	35.53
234.144	38.78
234.361	36.53
234.578	36.29
234.795	36.7
235.012	35.51
235.229	35.02
235.446	29.48
235.663	31.8
235.879	36.9
236.096	38.26
236.313	35.68
236.53	35.01
236.747	41.97
236.964	37.85
237.181	40.49
237.397	42.3
237.614	42.6
237.831	43.13
238.048	42.02
238.264	38.75
238.481	35.43
238.698	35.85
238.915	36.94
239.131	34.13
239.348	34.17
239.565	30.05
239.781	31.05
239.998	28.62
240.215	28.24
240.431	24.96
240.648	25.29
240.865	26.51
241.081	23.41
241.298	22.36
241.514	22.7
241.731	20.72
241.947	21.31
242.164	20.43
242.38	19.46
242.597	19.34
242.814	20.29
243.03	19.4
243.246	18.28
243.463	18.64
243.679	18.2
243.896	16.98
244.112	18.47
244.329	16.44
244.545	16.95
244.762	18.1
244.978	19.4
245.194	17.99
245.411	18.52
245.627	19.87
245.843	19.35
246.06	18.79
246.276	18.85
246.492	18.71
246.709	19.23
246.925	18.27
247.141	18.9
247.357	17.93
247.574	18.4
247.79	17.91
248.006	17.23
248.222	17.45
248.439	17.47
248.655	17.88
248.871	17.7
249.087	17.68
249.303	16.98
249.519	16.28
249.736	17.62
249.952	16.51
250.168	17.62
250.384	17.69
250.6	17.89
250.816	19.2
251.032	16.38
251.248	14.71
251.464	13.15
251.68	14.1
251.896	13.34
252.112	11.62
252.328	13.81
252.544	14.63
252.76	16.18
252.976	15.41
253.192	14.73
253.408	15.49
253.624	20.31
253.84	20.24
254.056	23.31
254.272	23.5
254.487	25.49
254.703	24.25
254.919	23.1
255.135	21.34
255.351	22.87
255.567	23.64
255.782	28.05
255.998	23.31
256.214	25.21
256.43	21.98
256.646	24.25
256.861	24.26
257.077	24.76
257.293	22.79
257.508	22.47
257.724	24.25
257.94	23.34
258.155	19.24
258.371	19.27
258.587	18.12
258.802	18.75
259.018	18.12
259.234	16.77
259.449	15.68
259.665	15.1
259.88	15.23
260.096	13.85
260.312	12.39
260.527	13.37
260.743	13.61
260.958	13.75
261.174	12.83
261.389	13.09
261.605	13.13
261.82	13.9
262.036	14.92
262.251	15.52
262.466	15.98
262.682	18.33
262.897	16.89
263.113	16.32
263.328	17.29
263.543	18.76
263.759	17.65
263.974	19.76
264.189	19.17
264.405	18.95
264.62	19.08
264.835	19.54
265.051	19.23
265.266	22.99
265.481	23.27
265.696	24.08
265.912	22.95
266.127	22.22
266.342	19.83
266.557	19.61
266.773	19.2
266.988	19.21
267.203	18.93
267.418	17.99
267.633	15.88
267.848	14.97
268.064	13.3
268.279	13.49
268.494	12.49
268.709	13.11
268.924	13.02
269.139	13.94
269.354	12.61
269.569	12.03
269.784	12.73
269.999	13.32
270.214	14.31
270.429	14.41
270.644	14.11
270.859	12.59
271.074	12.88
271.289	12.56
271.504	11.72
271.719	11.77
271.934	12.01
272.149	11.57
272.363	10.55
272.578	9.48
272.793	9.38
273.008	9.24
273.223	11.3
273.438	9.92
273.653	9.89
273.867	10.29
274.082	9.8
274.297	9.91
274.512	11.48
274.726	12
274.941	12.24
275.156	13.06
275.371	13.37
275.585	13.13
275.8	14.45
276.015	14.79
276.229	14.82
276.444	15.85
276.659	16.31
276.873	15.21
277.088	15.6
277.302	15.85
277.517	16.52
277.732	16.38
277.946	16
278.161	16.4
278.375	16.78
278.59	16.26
278.804	16.78
279.019	16.97
279.233	16.18
279.448	16.44
279.662	15.92
279.877	14.53
280.091	13.96
280.306	13.8
280.52	12.88
280.735	11.77
280.949	12.49
281.163	12.25
281.378	10.84
281.592	10.76
281.806	10.49
282.021	10.7
282.235	12.19
282.449	13.17
282.664	12.91
282.878	12.62
283.092	13.52
283.307	12.77
283.521	12.73
283.735	13.72
283.949	14.27
284.164	14.77
284.378	14.93
284.592	12.63
284.806	11.73
285.02	12.05
285.234	11.63
285.449	11.36
285.663	11.22
285.877	11.33
286.091	10.9
286.305	10.89
286.519	10.58
286.733	9.74
286.947	10.39
287.161	11.16
287.375	11.79
287.589	12.67
287.803	13.71
288.017	14.27
288.231	13.33
288.445	13.96
288.659	14.43
288.873	13.84
289.087	14.94
289.301	14.65
289.515	14.35
289.729	12.96
289.943	12.83
290.157	11.6
290.371	12.64
290.584	12.78
290.798	13.87
291.012	13.8
291.226	13.52
291.44	13.92
291.654	14.64
291.867	14.72
292.081	15.38
292.295	16.56
292.509	17.88
292.722	17.19
292.936	17.58
293.15	17.01
293.364	16.95
293.577	17.22
293.791	17.06
294.005	18.55
294.218	18.06
294.432	18.51
294.645	17.54
294.859	16.71
295.073	16.31
295.286	16.58
295.5	15.79
295.713	15.86
295.927	16.4
296.14	16.46
296.354	14.84
296.568	14.99
296.781	14.76
296.994	14.79
297.208	14.47
297.421	14.41
297.635	14.24
297.848	13.73
298.062	13.52
298.275	14.17
298.489	14.15
298.702	15
298.915	15.38
299.129	15.74
299.342	16.55
299.555	16.78
299.769	17.27
299.982	17.16
300.195	17.9
300.409	17.93
300.622	16.99
300.835	18.52
301.048	17.58
301.262	17.33
301.475	17.15
301.688	17.82
301.901	18.31
302.115	18.57
302.328	19.18
302.541	18.16
302.754	19.41
302.967	19.73
303.18	18.1
303.393	18.07
303.607	17.37
303.82	17.79
304.033	16.33
304.246	16.15
304.459	15.93
304.672	15.3
304.885	17.06
305.098	15.72
305.311	14.79
305.524	15.48
305.737	16.1
305.95	18.25
306.163	16.99
306.376	16.24
306.589	15.99
306.802	15.53
307.015	16.59
307.228	16.08
307.44	16.06
307.653	16.07
307.866	14.59
308.079	16.52
308.292	16.26
308.505	17.26
308.718	17.83
308.93	18.01
309.143	18.96
309.356	18.52
309.569	18.82
309.781	19.73
309.994	20.51
310.207	20.74
310.42	18.11
310.632	16.78
310.845	16.9
311.058	17.05
311.27	17.61
311.483	17.44
311.696	17.11
311.908	16.47
312.121	15.84
312.333	16.11
312.546	16.51
312.759	17.29
312.971	18.07
313.184	18.22
313.396	18.31
313.609	18.8
313.821	18.27
314.034	18.62
314.246	19.8
314.459	19.92
314.671	20.12
314.884	19.32
315.096	18.46
315.309	18.76
315.521	18.91
315.733	17.72
315.946	15.45
316.158	15.2
316.371	15.83
316.583	16.02
316.795	15.3
317.008	15.79
317.22	17.06
317.432	17.68
317.644	16.95
317.857	16.12
318.069	16.93
318.281	18.38
318.494	18.62
318.706	18.76
318.918	18.11
319.13	18.97
319.342	18.21
319.555	18.41
319.767	19.52
319.979	20.35
320.191	21.38
320.403	21.85
320.615	21
320.827	22.86
321.039	22.51
321.252	21.87
321.464	21.51
321.676	21.91
321.888	20.72
322.1	20.95
322.312	19.51
322.524	17.87
322.736	18.02
322.948	18.09
323.16	16.7
323.372	16.52
323.584	16.04
323.796	16.45
324.007	15.93
324.219	16.11
324.431	15.73
324.643	15.54
324.855	16
325.067	15.31
325.279	15.48
325.491	15.01
325.702	14.09
325.914	14.52
326.126	14.4
326.338	14.83
326.55	15.31
326.761	15.53
326.973	16.38
327.185	17
327.396	17.25
327.608	17.7
327.82	18.31
328.032	19.51
328.243	19.53
328.455	20.42
328.666	19.52
328.878	19.8
329.09	18.82
329.301	18.11
329.513	17.66
329.725	17.64
329.936	17.28
330.148	17.48
330.359	16.85
330.571	16.87
330.782	15.9
330.994	17.06
331.205	16.82
331.417	17.16
331.628	18.45
331.84	18.92
332.051	18.86
332.262	19.68
332.474	19.13
332.685	19.73
332.897	19.56
333.108	20.23
333.319	18.77
333.531	18.51
333.742	18.56
333.953	17.12
334.165	16.63
334.376	16.37
334.587	15.35
334.799	15
335.01	14.6
335.221	13.98
335.432	13.76
335.644	13.43
335.855	13.51
336.066	14.95
336.277	15.61
336.488	16.29
336.7	16.23
336.911	16.77
337.122	16.58
337.333	16.8
337.544	18.68
337.755	18.92
337.966	19.61
338.177	19.93
338.388	18.91
338.599	19.48
338.811	18.88
339.022	18.63
339.233	18.63
339.444	18.83
339.655	16.81
339.866	15.59
340.076	15.44
340.287	15.18
340.498	14.89
340.709	14.43
340.92	13.42
341.131	13.87
341.342	14.46
341.553	14.38
341.764	14.68
341.975	16.32
342.185	16.12
342.396	15.4
342.607	16.03
342.818	16.17
343.029	16.56
343.239	16.71
343.45	16.97
343.661	16.44
343.872	16.24
344.082	16.07
344.293	16.49
344.504	16.41
344.714	15.35
344.925	15.23
345.136	15.15
345.346	14.11
345.557	14.43
345.768	13.83
345.978	13.91
346.189	14.28
346.399	14.3
346.61	14.15
346.821	14.52
347.031	15.84
347.242	15.4
347.452	15.76
347.663	16.45
347.873	16.6
348.084	16.8
348.294	17.61
348.504	16.78
348.715	17.05
348.925	15.99
349.136	14.81
349.346	13.93
349.557	14.4
349.767	14.43
349.977	14.63
350.188	14.86
350.398	14.88
350.608	14.15
350.819	14.14
351.029	13.54
351.239	13.84
351.449	14.81
351.66	16.16
351.87	16.51
352.08	16.25
352.29	16.41
352.501	15.4
352.711	15.17
352.921	15.52
353.131	15.93
353.341	16.46
353.552	16.96
353.762	16.78
353.972	16.05
354.182	15.7
354.392	14.93
354.602	14.16
354.812	14.45
355.022	14.24
355.232	13.58
355.442	13.62
355.652	13.66
355.862	13.15
356.072	13.66
356.282	13.29
356.492	13.21
356.702	13.07
356.912	13.33
357.122	13.51
357.332	13.45
357.542	13.65
357.752	13.53
357.962	13.17
358.171	12.91
358.381	13.11
358.591	13.05
358.801	13.04
359.011	13.68
359.221	13.74
359.43	14.21
359.64	14.75
359.85	15.09
360.06	15
360.269	15.44
360.479	15.47
360.689	14.52
360.899	14.77
361.108	14.69
361.318	14.66
361.528	14.36
361.737	13.51
361.947	12.81
362.156	12.58
362.366	12.47
362.576	12.32
362.785	12.26
362.995	12.25
363.204	12.2
363.414	11.76
363.623	11.17
363.833	11.63
364.042	11.78
364.252	12.04
364.461	12.02
364.671	11.84
364.88	11.97
365.09	12.53
365.299	13.05
365.509	12.61
365.718	12.38
365.927	13
366.137	12.6
366.346	13.34
366.555	13.2
366.765	13.3
366.974	13.79
367.183	12.99
367.393	12.24
367.602	11.79
367.811	11.74
368.021	11.41
368.23	10.7
368.439	10.51
368.648	9.9
368.857	10.51
369.067	10.33
369.276	9.98
369.485	10.63
369.694	11.36
369.903	11.7
370.112	12.07
370.321	12.58
370.531	12.56
370.74	12.88
370.949	12.78
371.158	12.09
371.367	12.2
371.576	11.87
371.785	11.24
371.994	10.78
372.203	10.82
372.412	10.96
372.621	11.01
372.83	11.2
373.039	11.07
373.248	10.95
373.457	11.35
373.666	10.71
373.874	10.95
374.083	11.77
374.292	11.62
374.501	10.86
374.71	10.32
374.919	10.3
375.128	9.93
375.336	10.01
375.545	10.41
375.754	9.93
375.963	10.35
376.171	10.07
376.38	9.69
376.589	9.99
376.798	10
377.006	10.2
377.215	10.33
377.424	10.54
377.632	10.52
377.841	10.34
378.05	10.71
378.258	10.51
378.467	10.7
378.675	10.83
378.884	10.86
379.093	11.26
379.301	11.07
379.51	10.97
379.718	10.85
379.927	11.09
380.135	10.28
380.344	9.94
380.552	9.75
380.761	9.91
380.969	9.62
381.177	8.97
381.386	8.42
381.594	8.41
381.803	8.23
382.011	8.29
382.219	7.48
382.428	7.61
382.636	7.27
382.845	7.62
383.053	7.34
383.261	7.12
383.469	7.81
383.678	8.27
383.886	8.48
384.094	8.54
384.302	8.75
384.511	9.45
384.719	9.66
384.927	10.01
385.135	9.94
385.343	10.13
385.552	10.27
385.76	9.9
385.968	9.61
386.176	9.38
386.384	9.36
386.592	8.81
386.8	8.34
387.008	8.68
387.216	8.65
387.424	8.69
387.633	8.41
387.841	8.25
388.049	8.37
388.257	8.46
388.465	8.4
388.672	8.35
388.88	8.7
389.088	8.71
389.296	8.61
389.504	8.9
389.712	8.86
389.92	8.58
390.128	8.73
390.336	8.52
390.544	9.09
390.751	8.92
390.959	9.12
391.167	9.27
391.375	9.5
391.583	9.26
391.79	8.57
391.998	8.48
392.206	8.94
392.414	8.73
392.621	8.66
392.829	8.37
393.037	8.31
393.244	8.31
393.452	8.19
393.66	7.92
393.867	8.17
394.075	8.42
394.283	8.39
394.49	8.18
394.698	8.28
394.905	8.37
395.113	8.21
395.32	8.47
395.528	8.3
395.735	8.06
395.943	8.09
396.15	7.81
396.358	7.98
396.565	7.82
396.773	8.02
396.98	7.95
397.188	7.74
397.395	7.83
397.602	7.83
397.81	7.57
398.017	7.88
398.225	7.79
398.432	8.06
398.639	7.86
398.847	7.96
399.054	7.62
399.261	7.54
399.468	7.83
399.676	7.6
399.883	7.52
400.09	7.84
400.297	7.89
400.505	7.9
400.712	7.57
400.919	7.73
401.126	7.88
401.333	8.03
401.54	8.07
401.748	8.02
401.955	8.02
402.162	8.07
402.369	7.82
402.576	7.65
402.783	7.86
402.99	8.05
403.197	7.88
403.404	7.49
403.611	7.28
403.818	7.49
404.025	7.34
404.232	7.24
404.439	7.02
404.646	6.91
404.853	6.56
405.06	6.5
405.267	6.19
405.474	6.18
405.681	6.2
405.887	6.22
406.094	6.18
406.301	6.26
406.508	6.45
406.715	6.72
406.922	6.69
407.128	6.87
407.335	6.65
407.542	6.82
407.749	7.16
407.955	7.5
408.162	7.55
408.369	7.57
408.575	7.44
408.782	7.2
408.989	7.07
409.195	7.16
409.402	7.4
409.609	7.67
409.815	7.87
410.022	7.75
410.228	7.57
410.435	7.7
410.642	7.36
410.848	7.68
411.055	7.81
411.261	7.69
411.468	7.73
411.674	7.46
411.881	7.44
412.087	7.55
412.294	7.5
412.5	7.3
412.706	7.17
412.913	7.48
413.119	7.36
413.326	7.03
413.532	7.52
413.738	7.3
413.945	7.56
414.151	7.39
414.357	7.2
414.564	7.22
414.77	7.23
414.976	7.02
415.182	7.05
415.389	6.87
415.595	7.03
415.801	6.64
416.007	6.91
416.214	6.8
416.42	6.79
416.626	6.59
416.832	6.56
417.038	6.55
417.244	6.67
417.45	6.4
417.657	6.49
417.863	6.58
418.069	6.67
418.275	6.68
418.481	6.67
418.687	6.65
418.893	6.64
419.099	6.55
419.305	6.69
419.511	6.65
419.717	6.7
419.923	6.56
420.129	6.61
420.335	6.62
420.541	6.56
420.746	6.5
420.952	6.53
421.158	6.61
421.364	6.63
421.57	6.66
421.776	6.68
421.982	6.58
422.187	6.54
422.393	6.42
422.599	6.28
422.805	6.26
423.01	6.28
423.216	6.14
423.422	6.03
423.628	6.06
423.833	5.94
424.039	5.93
424.245	6.01
424.45	6.17
424.656	6.17
424.862	6.21
425.067	6.36
425.273	6.31
425.478	6.45
425.684	6.55
425.889	6.64
426.095	6.66
426.301	6.7
426.506	6.79
426.712	6.77
426.917	6.84
427.123	6.93
427.328	6.77
427.533	6.81
427.739	6.7
427.944	6.6
428.15	6.35
428.355	6.26
428.561	6.28
428.766	6.1
428.971	6.11
429.177	6.14
429.382	6.22
429.587	6.38
429.793	6.39
429.998	6.5
430.203	6.51
430.408	6.59
430.614	6.75
430.819	6.73
431.024	6.87
431.229	6.75
431.434	6.8
431.64	6.6
431.845	6.56
432.05	6.57
432.255	6.56
432.46	6.46
432.665	6.51
432.87	6.5
433.076	6.41
433.281	6.45
433.486	6.36
433.691	6.07
433.896	5.95
434.101	5.94
434.306	6
434.511	6.04
434.716	6.19
434.921	6.26
435.126	6.18
435.331	6.15
435.535	6.08
435.74	6.26
435.945	6.53
436.15	6.67
436.355	6.64
436.56	6.66
436.765	6.68
436.97	6.58
437.174	6.4
437.379	6.45
437.584	6.58
437.789	6.51
437.993	6.47
438.198	6.41
438.403	6.52
438.608	6.52
438.812	6.35
439.017	6.31
439.222	6.23
439.426	6.25
439.631	6.36
439.836	6.25
440.04	6.31
440.245	6.32
440.45	6.36
440.654	6.25
440.859	6.14
441.063	6.21
441.268	6.11
441.472	6.14
441.677	6.09
441.881	5.86
442.086	5.86
442.29	5.77
442.495	5.83
442.699	5.8
442.904	5.84
443.108	5.87
443.312	5.89
443.517	5.99
443.721	6.07
443.925	6.1
444.13	6.21
444.334	6.17
444.538	6.21
444.743	6.07
444.947	6.16
445.151	6
445.356	6.02
445.56	5.86
445.764	5.78
445.968	5.76
446.173	5.76
446.377	5.77
446.581	5.86
446.785	5.91
446.989	5.9
447.193	5.79
447.398	5.89
447.602	5.85
447.806	6.06
448.01	6.33
448.214	6.42
448.418	6.44
448.622	6.52
448.826	6.52
449.03	6.58
449.234	6.65
449.438	6.58
449.642	6.6
449.846	6.76
450.05	6.67
450.254	6.27
450.458	6.37
450.662	6.44
450.866	6.35
451.069	6.1
451.273	5.99
451.477	5.87
451.681	5.94
451.885	5.85
452.089	5.75
452.292	5.73
452.496	5.9
452.7	5.7
452.904	5.64
453.107	5.62
453.311	5.98
453.515	6.09
453.719	6.1
453.922	6.08
454.126	6.16
454.33	6.09
454.533	6
454.737	5.82
454.94	5.76
455.144	5.67
455.348	5.58
455.551	5.4
455.755	5.18
455.958	5.25
456.162	5.22
456.365	5.24
456.569	5.22
456.772	5.31
456.976	5.47
457.179	5.48
457.383	5.46
457.586	5.68
457.79	5.76
457.993	5.76
458.196	5.64
458.4	5.75
458.603	5.75
