Data from LC_196_Reflection_3.txt Node
Date: Tue Nov 17 13:50:01 EST 2015
User: robert
Spectrometer: USB4E03001
Autoset integration time: false
Trigger mode: 4
Integration Time (sec): 1.000000E-1
Scans to average: 15
Electric dark correction enabled: true
Nonlinearity correction enabled: false
Boxcar width: 5
Stray light correction enabled: false
XAxis mode: Wavelengths
Stop averaging: false
Number of Pixels in Spectrum: 3648
>>>>>Begin Spectral Data<<<<<
177.566	112.5
177.785	201.52
178.005	-1069.4
178.225	229.35
178.445	-405.79
178.665	-154.12
178.885	151.92
179.105	-5.91
179.324	271.48
179.544	678.48
179.764	202.38
179.984	132.3
180.204	206.86
180.423	438.49
180.643	611.19
180.863	-2354.98
181.083	-3968.37
181.302	862.1
181.522	393.55
181.742	1258.3
181.961	14626.47
182.181	-741.98
182.401	-143.73
182.621	-383.66
182.84	-476.74
183.06	-1414.98
183.279	1653.86
183.499	-7096.64
183.719	-683.22
183.938	-248.76
184.158	-383.65
184.377	-550.15
184.597	-628.75
184.816	612.61
185.036	585.44
185.256	620.75
185.475	382.6
185.695	570.9
185.914	444.79
186.134	472.66
186.353	289.43
186.572	335.16
186.792	253.3
187.011	226.49
187.231	806.94
187.45	3111.29
187.67	614.92
187.889	678.94
188.108	445.24
188.328	435.63
188.547	469.35
188.766	-2148.85
188.986	1894.68
189.205	567.33
189.424	680.65
189.644	422.2
189.863	286.57
190.082	284.63
190.302	327.98
190.521	426.62
190.74	9712.99
190.959	1199.38
191.178	327.46
191.398	277.25
191.617	708.7
191.836	473.12
192.055	385.3
192.274	-899.21
192.494	-508.63
192.713	-1411.81
192.932	-728.17
193.151	1282.21
193.37	19677.78
193.589	-743350
193.808	20341.57
194.027	-2810.38
194.246	-1343.95
194.465	5780.39
194.685	689.02
194.904	488.77
195.123	79604.17
195.342	1889.4
195.561	590.01
195.78	434.32
195.999	522.29
196.218	314.37
196.436	296.71
196.655	220.69
196.874	244.13
197.093	251.57
197.312	228.6
197.531	192.71
197.75	167.33
197.969	180.33
198.188	194.06
198.407	186.8
198.625	215.85
198.844	197.03
199.063	161.48
199.282	175.77
199.501	164.39
199.719	210.78
199.938	255.16
200.157	330.22
200.376	1055.14
200.594	543.65
200.813	328.91
201.032	462.67
201.251	459.53
201.469	6401.86
201.688	2032.61
201.907	-8916.1
202.125	2756.89
202.344	2408.45
202.563	2211.97
202.781	1464.58
203	-1659.34
203.218	-346.09
203.437	-524.7
203.656	-350.86
203.874	-882.64
204.093	-1177.8
204.311	-1251.18
204.53	26352.63
204.748	-1092.97
204.967	4128.48
205.185	818.16
205.404	399.54
205.622	368.41
205.841	287.65
206.059	341.8
206.278	268.69
206.496	283.13
206.715	273.06
206.933	289.5
207.151	265.08
207.37	242.45
207.588	259.82
207.806	332.02
208.025	313.28
208.243	327.5
208.461	352.35
208.68	501.83
208.898	-696.95
209.116	-977.36
209.335	2333.86
209.553	-1586.62
209.771	795.77
209.989	300.77
210.208	362.16
210.426	357.71
210.644	315.87
210.862	244
211.081	187.42
211.299	129.86
211.517	153.9
211.735	146.14
211.953	151.73
212.171	169.56
212.39	440.03
212.608	446.58
212.826	589.45
213.044	560.58
213.262	487.55
213.48	-19356.72
213.698	-1029.62
213.916	515.51
214.134	-1050.5
214.352	-224.13
214.57	-289.96
214.788	2744.64
215.006	826.01
215.224	700.74
215.442	578.04
215.66	586.38
215.878	409.16
216.096	192.01
216.314	218.9
216.532	163.44
216.75	127.22
216.968	133.19
217.185	166.11
217.403	189.4
217.621	188.33
217.839	199
218.057	227.74
218.275	230.18
218.492	251.36
218.71	265.62
218.928	287.57
219.146	332.84
219.363	344.45
219.581	242.41
219.799	236.16
220.017	228.34
220.234	222.55
220.452	174.67
220.67	159.8
220.887	188.6
221.105	197.52
221.323	184.81
221.54	173.88
221.758	148.38
221.976	152.37
222.193	128.07
222.411	127.05
222.629	131.39
222.846	138.38
223.064	129.55
223.281	123.85
223.499	109.82
223.716	115.62
223.934	124.73
224.151	124.11
224.369	114.11
224.586	134.9
224.804	136.09
225.021	139.92
225.239	127.8
225.456	125.25
225.674	109.52
225.891	101.58
226.108	85.83
226.326	66.04
226.543	54.94
226.76	55.91
226.978	54.73
227.195	46.57
227.413	38.55
227.63	39.11
227.847	38.21
228.064	36.7
228.282	37.41
228.499	40.11
228.716	40.04
228.934	43.45
229.151	42.53
229.368	38.96
229.585	36.92
229.802	39.1
230.02	40.92
230.237	39.14
230.454	40
230.671	43.67
230.888	44.5
231.105	46.21
231.323	42.9
231.54	43.29
231.757	47.18
231.974	49.16
232.191	46.44
232.408	45.89
232.625	48.63
232.842	53.23
233.059	48.9
233.276	50.16
233.493	54.32
233.71	58.54
233.927	59.61
234.144	61.15
234.361	58.93
234.578	61.28
234.795	53.82
235.012	58.76
235.229	54.73
235.446	50.98
235.663	50.81
235.879	46.2
236.096	49.71
236.313	49.91
236.53	41.94
236.747	49.68
236.964	47.23
237.181	54.64
237.397	51.32
237.614	54.21
237.831	55.62
238.048	57.73
238.264	57.38
238.481	52.62
238.698	45.95
238.915	47.77
239.131	43.35
239.348	42.97
239.565	40.25
239.781	41.54
239.998	38.69
240.215	39.55
240.431	32.83
240.648	30.15
240.865	29.27
241.081	28.38
241.298	28.39
241.514	27.08
241.731	25.77
241.947	21
242.164	17.59
242.38	14.98
242.597	14.81
242.814	16.7
243.03	16.61
243.246	17.8
243.463	18.88
243.679	18.78
243.896	18.49
244.112	19.24
244.329	23.52
244.545	25.23
244.762	26.05
244.978	24.22
245.194	22.4
245.411	22.92
245.627	21.69
245.843	19.83
246.06	18.94
246.276	16.18
246.492	14.74
246.709	13.75
246.925	14.51
247.141	15.34
247.357	15.23
247.574	15.25
247.79	14.63
248.006	13.09
248.222	13.99
248.439	13.36
248.655	13.8
248.871	13.32
249.087	13.18
249.303	12.4
249.519	12.1
249.736	11.73
249.952	10.44
250.168	14.25
250.384	15.85
250.6	14.03
250.816	14.61
251.032	15.18
251.248	17.5
251.464	17.15
251.68	17.18
251.896	16.68
252.112	16.06
252.328	17.41
252.544	14.75
252.76	15.37
252.976	15.06
253.192	16.87
253.408	17.07
253.624	14.76
253.84	16.67
254.056	17.19
254.272	15.71
254.487	17.7
254.703	18.56
254.919	20.5
255.135	21.59
255.351	22.49
255.567	20.26
255.782	18.46
255.998	22.44
256.214	20.28
256.43	19.01
256.646	23.51
256.861	20.46
257.077	18.98
257.293	16.31
257.508	16.89
257.724	16.43
257.94	14.67
258.155	14.66
258.371	15.49
258.587	13.27
258.802	13.2
259.018	10.47
259.234	11.83
259.449	12.56
259.665	11.32
259.88	10.46
260.096	10.75
260.312	10.73
260.527	10.51
260.743	9.97
260.958	11
261.174	11.36
261.389	12.37
261.605	12.09
261.82	11.99
262.036	13.41
262.251	13.11
262.466	11.79
262.682	14.06
262.897	15.41
263.113	13.9
263.328	12.23
263.543	13.64
263.759	13.57
263.974	13.47
264.189	11.99
264.405	12.11
264.62	13.4
264.835	16.28
265.051	14.01
265.266	15.01
265.481	18.22
265.696	20.9
265.912	20.35
266.127	20.38
266.342	17.84
266.557	17.3
266.773	17.1
266.988	16.96
267.203	15.07
267.418	16.38
267.633	14.89
267.848	13.34
268.064	10.64
268.279	8.02
268.494	7.93
268.709	9.6
268.924	10.75
269.139	9.53
269.354	11.03
269.569	12.47
269.784	10.73
269.999	11.42
270.214	12.17
270.429	14.18
270.644	13.94
270.859	13.29
271.074	13.93
271.289	14.37
271.504	14.37
271.719	13.85
271.934	13.86
272.149	13.47
272.363	14.2
272.578	14.38
272.793	13.63
273.008	14.16
273.223	14.18
273.438	13.46
273.653	13.11
273.867	14.19
274.082	14.17
274.297	14.07
274.512	15.43
274.726	15.63
274.941	15.13
275.156	17.22
275.371	16.64
275.585	18.93
275.8	19.08
276.015	19.7
276.229	18.03
276.444	15.94
276.659	15.77
276.873	15.5
277.088	14.33
277.302	14.22
277.517	12.23
277.732	12.61
277.946	11.58
278.161	13.48
278.375	12.34
278.59	13.94
278.804	14.77
279.019	15.34
279.233	13.96
279.448	13.53
279.662	13.64
279.877	15.28
280.091	14.98
280.306	14.24
280.52	13.48
280.735	13.76
280.949	12.75
281.163	11.86
281.378	12.34
281.592	12.76
281.806	12.69
282.021	13.29
282.235	12.13
282.449	12.62
282.664	13.09
282.878	12.98
283.092	12.71
283.307	13.89
283.521	13.15
283.735	11.82
283.949	11.88
284.164	12.3
284.378	10.35
284.592	9.57
284.806	9.32
285.02	8.9
285.234	8.5
285.449	8.63
285.663	8.43
285.877	9.87
286.091	10.6
286.305	10.67
286.519	10.43
286.733	11.19
286.947	12.17
287.161	12.19
287.375	11.43
287.589	12
287.803	11.71
288.017	10.69
288.231	10.35
288.445	9.71
288.659	9.77
288.873	9.43
289.087	10.53
289.301	10.88
289.515	11.85
289.729	12.65
289.943	12.15
290.157	12.21
290.371	11.69
290.584	11.65
290.798	12.27
291.012	13.31
291.226	14.73
291.44	14.48
291.654	14.43
291.867	13.48
292.081	12.94
292.295	12.69
292.509	12.62
292.722	14.08
292.936	14.1
293.15	13.44
293.364	11.82
293.577	11.42
293.791	11.06
294.005	11.2
294.218	11.57
294.432	12.05
294.645	12.88
294.859	13.01
295.073	12.72
295.286	12.1
295.5	11.27
295.713	11.19
295.927	10.83
296.14	10.22
296.354	8.99
296.568	9.62
296.781	9.89
296.994	9.49
297.208	9.56
297.421	9.07
297.635	10.4
297.848	10.06
298.062	10.01
298.275	10.42
298.489	10.97
298.702	11.95
298.915	12.07
299.129	12.22
299.342	12.29
299.555	12.21
299.769	13.21
299.982	12.97
300.195	13.92
300.409	13.85
300.622	13.67
300.835	14.18
301.048	14.02
301.262	13.23
301.475	12.4
301.688	13.3
301.901	13.63
302.115	14.1
302.328	12.91
302.541	12.62
302.754	13.31
302.967	13.68
303.18	13.64
303.393	12.94
303.607	13.35
303.82	14.77
304.033	13.31
304.246	12.87
304.459	12.94
304.672	14.11
304.885	15.34
305.098	15.82
305.311	15.84
305.524	15.37
305.737	16.12
305.95	17.02
306.163	15.59
306.376	16.25
306.589	16.73
306.802	16.62
307.015	17.44
307.228	17.74
307.44	16.64
307.653	15.66
307.866	15.77
308.079	16.08
308.292	14.95
308.505	15.39
308.718	15.64
308.93	14.74
309.143	14.87
309.356	13.25
309.569	12.34
309.781	13.34
309.994	11.95
310.207	11.93
310.42	10.37
310.632	10.71
310.845	11.06
311.058	10.84
311.27	10.35
311.483	10.12
311.696	10.24
311.908	10.55
312.121	9.91
312.333	10.99
312.546	11.14
312.759	11.97
312.971	11.9
313.184	12.86
313.396	13.18
313.609	15.08
313.821	15.94
314.034	17.74
314.246	18.38
314.459	19.41
314.671	19.15
314.884	19.24
315.096	20.05
315.309	19.56
315.521	18.56
315.733	18.47
315.946	17.23
316.158	16.8
316.371	16.71
316.583	16.75
316.795	16.02
317.008	17.74
317.22	18.02
317.432	18.96
317.644	18.15
317.857	18.47
318.069	19.62
318.281	20.72
318.494	20
318.706	18.69
318.918	17.91
319.13	18.65
319.342	18.05
319.555	17.63
319.767	17.26
319.979	18.08
320.191	18.07
320.403	17.12
320.615	16.88
320.827	17.16
321.039	18.77
321.252	19.43
321.464	19.56
321.676	19.68
321.888	20.21
322.1	19.41
322.312	19.98
322.524	20.91
322.736	20.99
322.948	21.28
323.16	21.1
323.372	20.19
323.584	20.11
323.796	21.08
324.007	21.78
324.219	22.19
324.431	23.5
324.643	23.92
324.855	23.97
325.067	24.37
325.279	24.62
325.491	25.39
325.702	25.07
325.914	25.06
326.126	24.07
326.338	23.44
326.55	22.85
326.761	22.45
326.973	23.16
327.185	22.3
327.396	22.35
327.608	21.92
327.82	21.44
328.032	22.8
328.243	22.34
328.455	22.78
328.666	23.93
328.878	24.48
329.09	24.41
329.301	23.33
329.513	23.86
329.725	24.05
329.936	25.26
330.148	26.73
330.359	26.22
330.571	27.45
330.782	27.89
330.994	28.13
331.205	28.24
331.417	27.97
331.628	28.84
331.84	30.38
332.051	30.52
332.262	30.52
332.474	29.63
332.685	30.38
332.897	30.64
333.108	31.6
333.319	31.17
333.531	31.89
333.742	32.33
333.953	31.9
334.165	30.77
334.376	31.8
334.587	32.3
334.799	32.3
335.01	32.61
335.221	31.76
335.432	31.04
335.644	31.55
335.855	31.85
336.066	32.64
336.277	34.03
336.488	34.8
336.7	34.35
336.911	34.45
337.122	35.35
337.333	35.55
337.544	37.37
337.755	37.02
337.966	36.86
338.177	36.41
338.388	36.27
338.599	36
338.811	35.05
339.022	34.49
339.233	33.14
339.444	32.2
339.655	32.3
339.866	32.16
340.076	32.37
340.287	32.48
340.498	32.48
340.709	32.95
340.92	32.78
341.131	33.3
341.342	33
341.553	33.7
341.764	34.36
341.975	33.91
342.185	33.58
342.396	33.27
342.607	33.63
342.818	34.62
343.029	34.26
343.239	34.36
343.45	34.44
343.661	35.5
343.872	36.14
344.082	36.47
344.293	36.92
344.504	38.17
344.714	37.87
344.925	37.21
345.136	36.35
345.346	35.73
345.557	34.98
345.768	35.63
345.978	35.54
346.189	35.38
346.399	34.93
346.61	33.87
346.821	31.68
347.031	32.73
347.242	33.04
347.452	32.97
347.663	33.22
347.873	33.96
348.084	32.75
348.294	32.67
348.504	32.13
348.715	33.1
348.925	33.65
349.136	33.76
349.346	32.68
349.557	32.06
349.767	32.01
349.977	31.76
350.188	31.79
350.398	32.68
350.608	32.43
350.819	32.29
351.029	31.36
351.239	32.77
351.449	33.3
351.66	34.45
351.87	35.37
352.08	36.02
352.29	36.47
352.501	36.53
352.711	37.16
352.921	36.87
353.131	36.84
353.341	36.26
353.552	33.79
353.762	34.34
353.972	33.7
354.182	33.94
354.392	33.79
354.602	34.32
354.812	34.02
355.022	33.39
355.232	33.29
355.442	33.78
355.652	34.36
355.862	35.49
356.072	34.71
356.282	34.88
356.492	34.29
356.702	33.73
356.912	32.88
357.122	33.09
357.332	32.61
357.542	32.37
357.752	32.22
357.962	31.91
358.171	31.46
358.381	32.05
358.591	31.67
358.801	31.99
359.011	31.69
359.221	31.86
359.43	32.22
359.64	31.92
359.85	32
360.06	31.54
360.269	31.6
360.479	31.67
360.689	30.93
360.899	31.02
361.108	30.58
361.318	30.95
361.528	30.86
361.737	30.15
361.947	30.73
362.156	30.73
362.366	30.59
362.576	30.34
362.785	30.55
362.995	30.53
363.204	30.6
363.414	30.68
363.623	30.54
363.833	30.73
364.042	30.99
364.252	30.31
364.461	30.43
364.671	30.89
364.88	30.86
365.09	30.84
365.299	31.18
365.509	30.82
365.718	30.62
365.927	30.33
366.137	30.42
366.346	30.6
366.555	30.48
366.765	30.5
366.974	30.35
367.183	31.06
367.393	30.48
367.602	30.08
367.811	30.55
368.021	30.35
368.23	31.09
368.439	30.74
368.648	30.28
368.857	30.5
369.067	30.15
369.276	30.19
369.485	29.85
369.694	30.19
369.903	30.48
370.112	30.33
370.321	30.67
370.531	29.62
370.74	29.09
370.949	28.44
371.158	28.68
371.367	28.65
371.576	28.75
371.785	28.22
371.994	28.35
372.203	28
372.412	28.16
372.621	27.69
372.83	28.51
373.039	29.24
373.248	29.73
373.457	29.66
373.666	29.41
373.874	29.12
374.083	29.54
374.292	28.84
374.501	28.83
374.71	28.68
374.919	28.74
375.128	28.2
375.336	28.43
375.545	28.94
375.754	28.56
375.963	28.52
376.171	28.33
376.38	28.41
376.589	28.82
376.798	28.7
377.006	28.46
377.215	29
377.424	29.03
377.632	28.37
377.841	27.88
378.05	28.06
378.258	28.19
378.467	28.15
378.675	27.61
378.884	27.61
379.093	27.6
379.301	27.89
379.51	27.58
379.718	27.62
379.927	27.85
380.135	27.79
380.344	27.84
380.552	27.97
380.761	28.07
380.969	28.16
381.177	28.16
381.386	28.29
381.594	27.6
381.803	27.46
382.011	27.23
382.219	26.58
382.428	26.72
382.636	26.37
382.845	26.44
383.053	26.44
383.261	26.36
383.469	26.28
383.678	26.48
383.886	26.56
384.094	26.29
384.302	25.84
384.511	26.06
384.719	25.74
384.927	25.91
385.135	26.12
385.343	26.23
385.552	26.2
385.76	26.18
385.968	25.85
386.176	25.97
386.384	25.93
386.592	26.31
386.8	26.61
387.008	26.47
387.216	26.42
387.424	26.07
387.633	25.85
387.841	25.81
388.049	25.64
388.257	25.71
388.465	25.74
388.672	25.98
388.88	25.82
389.088	25.77
389.296	26.04
389.504	26.15
389.712	26.47
389.92	26.3
390.128	26.37
390.336	26.33
390.544	26.32
390.751	26.03
390.959	25.76
391.167	25.7
391.375	25.63
391.583	25.53
391.79	25.21
391.998	25.01
392.206	25.24
392.414	25.07
392.621	24.86
392.829	24.75
393.037	25.03
393.244	24.94
393.452	25.03
393.66	24.71
393.867	24.73
394.075	24.68
394.283	24.53
394.49	24.26
394.698	24.46
394.905	24.51
395.113	24.37
395.32	23.93
395.528	24.19
395.735	24.37
395.943	24.36
396.15	24.22
396.358	24.46
396.565	24.07
396.773	24.05
396.98	23.82
397.188	23.82
397.395	23.59
397.602	23.83
397.81	23.72
398.017	23.47
398.225	23.57
398.432	23.58
398.639	23.61
398.847	24.16
399.054	23.78
399.261	23.66
399.468	23.4
399.676	23.78
399.883	23.43
400.09	23.44
400.297	23.76
400.505	23.42
400.712	23.43
400.919	23.36
401.126	23.15
401.333	23.76
401.54	23.77
401.748	24.05
401.955	23.76
402.162	24.16
402.369	24.2
402.576	24.01
402.783	23.93
402.99	23.78
403.197	23.55
403.404	23.4
403.611	23.31
403.818	23.14
404.025	22.88
404.232	22.74
404.439	22.42
404.646	22.19
404.853	22.2
405.06	22.59
405.267	22.46
405.474	22.32
405.681	22.11
405.887	21.95
406.094	22.28
406.301	22.57
406.508	22.58
406.715	22.87
406.922	22.8
407.128	22.62
407.335	22.09
407.542	22.2
407.749	22.39
407.955	22.71
408.162	22.67
408.369	22.66
408.575	22.55
408.782	22.46
408.989	22.25
409.195	22.42
409.402	22.34
409.609	22.53
409.815	22.44
410.022	22.33
410.228	22.16
410.435	22.07
410.642	21.68
410.848	21.58
411.055	21.7
411.261	21.87
411.468	21.88
411.674	21.75
411.881	21.84
412.087	22.1
412.294	22.21
412.5	22.27
412.706	22.47
412.913	22.45
413.119	22.63
413.326	22.77
413.532	22.45
413.738	22.21
413.945	21.92
414.151	21.91
414.357	21.92
414.564	21.7
414.77	21.52
414.976	21.6
415.182	21.92
415.389	21.64
415.595	21.42
415.801	21.31
416.007	21.41
416.214	21.72
416.42	21.54
416.626	21.26
416.832	21.39
417.038	21.35
417.244	20.98
417.45	20.86
417.657	20.65
417.863	20.68
418.069	20.71
418.275	20.36
418.481	20.39
418.687	20.37
418.893	20.49
419.099	20.24
419.305	20.33
419.511	20.35
419.717	20.24
419.923	20.24
420.129	19.9
420.335	19.88
420.541	19.87
420.746	19.74
420.952	19.59
421.158	19.35
421.364	19.35
421.57	19.24
421.776	19.15
421.982	19.07
422.187	18.95
422.393	19.16
422.599	19.06
422.805	19.07
423.01	18.96
423.216	19.06
423.422	19.12
423.628	19.12
423.833	19.07
424.039	18.8
424.245	18.81
424.45	18.96
424.656	18.86
424.862	18.88
425.067	18.92
425.273	19.08
425.478	19.05
425.684	18.96
425.889	19.15
426.095	19.15
426.301	19.51
426.506	19.66
426.712	19.57
426.917	19.63
427.123	19.78
427.328	19.89
427.533	19.63
427.739	19.65
427.944	19.64
428.15	19.46
428.355	19.56
428.561	19.51
428.766	19.11
428.971	19.28
429.177	19.25
429.382	19.11
429.587	19.01
429.793	19.36
429.998	19.32
430.203	19.52
430.408	19.44
430.614	19.31
430.819	19.24
431.024	19.43
431.229	19.33
431.434	19.44
431.64	19.55
431.845	19.76
432.05	19.72
432.255	19.61
432.46	19.49
432.665	19.74
432.87	19.77
433.076	19.76
433.281	19.87
433.486	19.93
433.691	19.79
433.896	19.57
434.101	19.32
434.306	19.24
434.511	19.32
434.716	19.21
434.921	19
435.126	19.07
435.331	19.18
435.535	19.08
435.74	19.07
435.945	19.26
436.15	19.31
436.355	19.34
436.56	19.33
436.765	19.65
436.97	19.88
437.174	19.75
437.379	19.65
437.584	19.81
437.789	19.73
437.993	19.57
438.198	19.56
438.403	19.6
438.608	19.68
438.812	19.51
439.017	19.14
439.222	19.06
439.426	18.99
439.631	19.01
439.836	18.85
440.04	18.72
440.245	18.85
440.45	18.71
440.654	18.68
440.859	18.61
441.063	18.64
441.268	18.66
441.472	18.76
441.677	18.98
441.881	18.97
442.086	19.04
442.29	19.1
442.495	19.12
442.699	19.17
442.904	19.23
443.108	19.15
443.312	19.21
443.517	19.27
443.721	19.22
443.925	19.17
444.13	19.16
444.334	19.03
444.538	19.08
444.743	18.93
444.947	18.87
445.151	18.63
445.356	18.64
445.56	18.61
445.764	18.65
445.968	18.6
446.173	18.47
446.377	18.41
446.581	18.43
446.785	18.38
446.989	18.39
447.193	18.49
447.398	18.71
447.602	18.85
447.806	18.98
448.01	18.92
448.214	18.88
448.418	18.92
448.622	18.95
448.826	18.88
449.03	18.96
449.234	19.03
449.438	18.84
449.642	18.83
449.846	18.77
450.05	18.52
450.254	18.45
450.458	18.3
450.662	18.17
450.866	17.98
451.069	18.09
451.273	17.85
451.477	17.78
451.681	18.11
451.885	18.19
452.089	18.15
452.292	18.15
452.496	18.18
452.7	18.17
452.904	18.45
453.107	18.73
453.311	18.72
453.515	18.93
