Data from LC_221__Reflection_2.txt Node
Date: Thu Nov 19 13:44:48 EST 2015
User: robert
Spectrometer: USB4E03001
Autoset integration time: false
Trigger mode: 4
Integration Time (sec): 1.000000E-1
Scans to average: 15
Electric dark correction enabled: true
Nonlinearity correction enabled: false
Boxcar width: 5
Stray light correction enabled: false
XAxis mode: Wavelengths
Stop averaging: false
Number of Pixels in Spectrum: 3648
>>>>>Begin Spectral Data<<<<<
177.566	528.63
177.785	1191.83
178.005	1148.61
178.225	684.03
178.445	1430.66
178.665	-116000
178.885	211.86
179.105	880.2
179.324	-536.86
179.544	-1814.93
179.764	-690.06
179.984	-894.06
180.204	-809.41
180.423	-952.57
180.643	-5017.8
180.863	-3298.27
181.083	-650.51
181.302	-479.74
181.522	-425.99
181.742	-3094.18
181.961	5605.6
182.181	4267.15
182.401	582.09
182.621	621.25
182.84	985.94
183.06	2033.19
183.279	1873.8
183.499	1079.47
183.719	1029.43
183.938	614.44
184.158	1248.21
184.377	1387.4
184.597	1017.6
184.816	8160.91
185.036	37965.22
185.256	2451.71
185.475	1375.82
185.695	1306.31
185.914	873.63
186.134	629.45
186.353	579.2
186.572	437.82
186.792	532.3
187.011	4179.19
187.231	769.39
187.45	1075.21
187.67	2536.26
187.889	42048.48
188.108	1048.72
188.328	-5250.79
188.547	-705.61
188.766	-619.51
188.986	-894.93
189.205	-1116.55
189.424	1876.39
189.644	3055.18
189.863	1441.88
190.082	1562.1
190.302	6602.16
190.521	-734.69
190.74	-2414.19
190.959	-22280.99
191.178	28046.61
191.398	-11630.53
191.617	2474.38
191.836	8387.72
192.055	-2480.07
192.274	-899.8
192.494	-1630.39
192.713	-970.27
192.932	-593.69
193.151	-578.48
193.37	-933.99
193.589	-697.12
193.808	-546.35
194.027	-710.18
194.246	-1460.96
194.465	-1292.77
194.685	82445
194.904	1234.23
195.123	718.32
195.342	440.97
195.561	353.11
195.78	457.19
195.999	644.26
196.218	1242.9
196.436	1901.7
196.655	1185.39
196.874	856.96
197.093	734.19
197.312	2220.85
197.531	2190.29
197.75	4393.12
197.969	-1881.96
198.188	-2236.81
198.407	-14861
198.625	912.94
198.844	1390.25
199.063	3352.88
199.282	3255.16
199.501	-2079.34
199.719	-2887.83
199.938	-4656.63
200.157	4129.99
200.376	1299.86
200.594	750.44
200.813	761.58
201.032	502.19
201.251	632.03
201.469	1058.8
201.688	802.58
201.907	642.3
202.125	660.01
202.344	506.21
202.563	424.36
202.781	601.02
203	544.28
203.218	539.93
203.437	1487.26
203.656	893.98
203.874	581.45
204.093	660.69
204.311	623.27
204.53	537.14
204.748	582.19
204.967	673.48
205.185	435.04
205.404	536.9
205.622	704.01
205.841	474.07
206.059	448.67
206.278	570.26
206.496	649.6
206.715	1059.87
206.933	1483.19
207.151	-3291.62
207.37	-2520.33
207.588	-8479.61
207.806	5970.44
208.025	2147.85
208.243	-2919.47
208.461	-2684.79
208.68	-4956.15
208.898	8308.2
209.116	3200.45
209.335	6907.92
209.553	1958.19
209.771	5267.54
209.989	-4566.57
210.208	-3098.94
210.426	-1691.23
210.644	-2101.16
210.862	-956.13
211.081	-950.18
211.299	-477.04
211.517	-670.72
211.735	-786.64
211.953	-2004.28
212.171	1363.63
212.39	1819.82
212.608	2093.18
212.826	941.03
213.044	427.99
213.262	378.31
213.48	429.38
213.698	428.44
213.916	594.64
214.134	805.71
214.352	1410.53
214.57	-3629.36
214.788	1851.55
215.006	9772.63
215.224	-2818.34
215.442	-1073.97
215.66	-1106.28
215.878	2260.61
216.096	595.1
216.314	581.05
216.532	381.45
216.75	347.98
216.968	337.02
217.185	329.11
217.403	383.44
217.621	444.82
217.839	521.86
218.057	448.26
218.275	642.86
218.492	1187.81
218.71	587.49
218.928	525.52
219.146	518.54
219.363	767.46
219.581	785.84
219.799	1633.47
220.017	526.64
220.234	447.25
220.452	616.05
220.67	459.76
220.887	439.7
221.105	906.08
221.323	1107.94
221.54	963.19
221.758	559.9
221.976	518.69
222.193	388.01
222.411	438.9
222.629	461.28
222.846	504.69
223.064	446.67
223.281	433.63
223.499	398.21
223.716	428.64
223.934	373.13
224.151	448.04
224.369	435.47
224.586	404.69
224.804	428.47
225.021	324.92
225.239	265.71
225.456	288.16
225.674	236.8
225.891	207.65
226.108	191.19
226.326	187.12
226.543	152.94
226.76	136.33
226.978	134.69
227.195	128.18
227.413	106.64
227.63	94.61
227.847	81.86
228.064	76.35
228.282	70.78
228.499	68.1
228.716	61.52
228.934	60.59
229.151	62.31
229.368	59.4
229.585	56.58
229.802	63.95
230.02	63.66
230.237	61.94
230.454	61.31
230.671	64.11
230.888	65.88
231.105	71.16
231.323	80.19
231.54	78.16
231.757	82
231.974	86.35
232.191	82.37
232.408	87.39
232.625	94.05
232.842	101.66
233.059	100.28
233.276	105.05
233.493	107.3
233.71	98.42
233.927	101.99
234.144	96.73
234.361	90.75
234.578	94.08
234.795	77.98
235.012	77.56
235.229	66.74
235.446	75.46
235.663	71.18
235.879	70.5
236.096	75.13
236.313	77.29
236.53	73.43
236.747	83.13
236.964	80.8
237.181	94.03
237.397	93.47
237.614	100.71
237.831	94.5
238.048	102.34
238.264	98.16
238.481	89.09
238.698	86.28
238.915	88.09
239.131	68.52
239.348	73.57
239.565	63.32
239.781	66
239.998	62.89
240.215	62.7
240.431	54.58
240.648	53.53
240.865	49.12
241.081	48.24
241.298	43.56
241.514	44.84
241.731	41.23
241.947	37.25
242.164	33.84
242.38	31.77
242.597	29.12
242.814	31.23
243.03	29.86
243.246	32.31
243.463	30.97
243.679	35.44
243.896	36.61
244.112	37.98
244.329	42.29
244.545	45.59
244.762	45.56
244.978	49.35
245.194	46.46
245.411	46.27
245.627	41.19
245.843	39.02
246.06	33.83
246.276	33.22
246.492	30.44
246.709	28.27
246.925	26.12
247.141	26.33
247.357	24.06
247.574	25.61
247.79	25.64
248.006	25.31
248.222	24.56
248.439	25.32
248.655	23.83
248.871	24.68
249.087	24.99
249.303	25.24
249.519	26.75
249.736	29.26
249.952	26.37
250.168	29.88
250.384	35.61
250.6	37.79
250.816	39.3
251.032	40.89
251.248	38.98
251.464	39.67
251.68	38.79
251.896	35.7
252.112	34.73
252.328	34.67
252.544	31.92
252.76	28.94
252.976	31.61
253.192	30.95
253.408	30
253.624	35.21
253.84	35.17
254.056	39.39
254.272	42.97
254.487	45.41
254.703	47.07
254.919	48.36
255.135	49.73
255.351	45.58
255.567	50.06
255.782	50.47
255.998	46.7
256.214	49.02
256.43	44.76
256.646	48.69
256.861	46.76
257.077	48.27
257.293	48.23
257.508	46.14
257.724	43.67
257.94	38.08
258.155	38.27
258.371	35.59
258.587	32.66
258.802	30.34
259.018	25.88
259.234	23.62
259.449	21.13
259.665	19.23
259.88	19.02
260.096	18.37
260.312	18.13
260.527	17.33
260.743	16.69
260.958	16.49
261.174	16.95
261.389	18.61
261.605	19.37
261.82	19.41
262.036	20.46
262.251	21.15
262.466	22.22
262.682	23.73
262.897	25.15
263.113	26.27
263.328	27.91
263.543	30.75
263.759	30.56
263.974	31.07
264.189	31.88
264.405	33.98
264.62	34.72
264.835	34.07
265.051	36.11
265.266	36.64
265.481	37.62
265.696	38.89
265.912	34.92
266.127	32.73
266.342	31.28
266.557	30.21
266.773	26.13
266.988	26.06
267.203	26.03
267.418	23.7
267.633	23.52
267.848	23.08
268.064	20.86
268.279	21.06
268.494	20.97
268.709	22.66
268.924	23.69
269.139	25.38
269.354	27.15
269.569	28.73
269.784	28.84
269.999	28.15
270.214	27.92
270.429	31.31
270.644	31.61
270.859	31.16
271.074	30.58
271.289	31.05
271.504	31.11
271.719	28.44
271.934	26.67
272.149	26.56
272.363	25.69
272.578	24.54
272.793	20.09
273.008	19.04
273.223	18.5
273.438	18.62
273.653	19.2
273.867	18.77
274.082	19.88
274.297	21.62
274.512	22.06
274.726	22.23
274.941	23.91
275.156	27.48
275.371	28.52
275.585	31.94
275.8	31.32
276.015	28.95
276.229	30.62
276.444	29.89
276.659	30.12
276.873	30.73
277.088	31.97
277.302	30.73
277.517	28.59
277.732	30.33
277.946	29.2
278.161	31.22
278.375	32.38
278.59	30.64
278.804	29.62
279.019	30.59
279.233	29.82
279.448	27.97
279.662	27.44
279.877	27.08
280.091	24.97
280.306	23.27
280.52	21.25
280.735	19.95
280.949	20.58
281.163	22.29
281.378	19.46
281.592	20.25
281.806	21.53
282.021	23.25
282.235	24.71
282.449	25.85
282.664	25.68
282.878	25.3
283.092	26.65
283.307	26.81
283.521	24.89
283.735	26.14
283.949	26.22
284.164	25.01
284.378	23.59
284.592	23.01
284.806	21.85
285.02	22.02
285.234	22.19
285.449	22.64
285.663	23.56
285.877	24.27
286.091	24.01
286.305	23.89
286.519	23.79
286.733	22.74
286.947	23.37
287.161	23.37
287.375	22.43
287.589	22.74
287.803	21.26
288.017	21.56
288.231	21.48
288.445	20.87
288.659	20.97
288.873	21.92
289.087	24.42
289.301	24.33
289.515	24.13
289.729	24.44
289.943	25.01
290.157	25.99
290.371	24.99
290.584	24.29
290.798	25.22
291.012	25.23
291.226	24.86
291.44	24.16
291.654	23.78
291.867	24.92
292.081	23.81
292.295	24.51
292.509	23.72
292.722	23.6
292.936	25.11
293.15	24.97
293.364	24.51
293.577	22.96
293.791	23.67
294.005	24.3
294.218	21.67
294.432	23.35
294.645	22.04
294.859	21.52
295.073	20.88
295.286	21.64
295.5	20.14
295.713	19.62
295.927	20.24
296.14	19.24
296.354	18.24
296.568	18.6
296.781	18.28
296.994	17.58
297.208	17.23
297.421	17.29
297.635	16.04
297.848	16.26
298.062	15.85
298.275	15.85
298.489	16.6
298.702	17.39
298.915	17.46
299.129	19.29
299.342	20.12
299.555	22.73
299.769	24
299.982	24.94
300.195	26.31
300.409	27.06
300.622	28.67
300.835	28.44
301.048	28.4
301.262	29.36
301.475	27.79
301.688	28.29
301.901	26.91
302.115	26.47
302.328	26.45
302.541	25.58
302.754	25.91
302.967	25.16
303.18	24.92
303.393	25.18
303.607	25.99
303.82	27.27
304.033	26.58
304.246	27.44
304.459	28.75
304.672	28.66
304.885	28.79
305.098	28.94
305.311	29.24
305.524	30.21
305.737	30.54
305.95	30.32
306.163	27.6
306.376	27.58
306.589	26.36
306.802	25.21
307.015	25.11
307.228	26.18
307.44	25.08
307.653	24.43
307.866	24.84
308.079	25.06
308.292	24.45
308.505	26.33
308.718	27.01
308.93	27.05
309.143	26.24
309.356	26.32
309.569	25.43
309.781	26.28
309.994	26.7
310.207	25.29
310.42	24.25
310.632	24.44
310.845	22.8
311.058	22.19
311.27	21.33
311.483	21.81
311.696	21.09
311.908	20.84
312.121	21.17
312.333	22.45
312.546	22.29
312.759	21.99
312.971	22.51
313.184	25.87
313.396	25.97
313.609	26
313.821	25.03
314.034	26.57
314.246	27.89
314.459	26.9
314.671	25.21
314.884	26.12
315.096	27.58
315.309	27.1
315.521	25.8
315.733	26.37
315.946	26.55
316.158	27.95
316.371	27.39
316.583	26.13
316.795	25.49
317.008	25.36
317.22	24.8
317.432	23.46
317.644	24.45
317.857	23.5
318.069	22.6
318.281	25.42
318.494	24.8
318.706	25.52
318.918	25.8
319.13	27.95
319.342	27.36
319.555	26.97
319.767	27.33
319.979	26.74
320.191	26.39
320.403	27.41
320.615	24.29
320.827	25.07
321.039	25.97
321.252	26.98
321.464	25.95
321.676	27.71
321.888	27.65
322.1	25.93
322.312	24.42
322.524	26.16
322.736	24.92
322.948	27.25
323.16	26.36
323.372	24.67
323.584	23.7
323.796	24.27
324.007	22.45
324.219	24.24
324.431	25.89
324.643	26.36
324.855	25.44
325.067	25.37
325.279	24.44
325.491	24.23
325.702	24.4
325.914	24.38
326.126	23.83
326.338	23.71
326.55	22.74
326.761	23.73
326.973	23.75
327.185	25.09
327.396	26.3
327.608	26.39
327.82	26.65
328.032	26.33
328.243	26.43
328.455	26.93
328.666	28.35
328.878	28.81
329.09	27.2
329.301	28.1
329.513	26.88
329.725	26.86
329.936	26.58
330.148	27.51
330.359	29.49
330.571	30.62
330.782	29.67
330.994	30.7
331.205	29.76
331.417	29.58
331.628	28.95
331.84	29.49
332.051	28.63
332.262	28.74
332.474	26.93
332.685	26.11
332.897	25.1
333.108	25.12
333.319	24
333.531	25.6
333.742	27.25
333.953	26.89
334.165	26.08
334.376	27.02
334.587	26.3
334.799	26.57
335.01	25.73
335.221	25.49
335.432	24.92
335.644	24.24
335.855	23.65
336.066	23.85
336.277	23.91
336.488	22.89
336.7	22.61
336.911	23.23
337.122	23.62
337.333	24.02
337.544	25.04
337.755	25.67
337.966	25.53
338.177	24.1
338.388	22.35
338.599	22.77
338.811	23.65
339.022	23.62
339.233	24
339.444	24.39
339.655	23.88
339.866	22.84
340.076	22.68
340.287	23.76
340.498	24.77
340.709	24.87
340.92	24.09
341.131	25.01
341.342	24.59
341.553	23.85
341.764	23.47
341.975	23.92
342.185	24.04
342.396	24.19
342.607	23.98
342.818	23.96
343.029	23.83
343.239	24.62
343.45	22.9
343.661	22.81
343.872	23.02
344.082	23.18
344.293	22.85
344.504	23.85
344.714	23.62
344.925	23.44
345.136	22.62
345.346	23.42
345.557	23.43
345.768	24.08
345.978	24.17
346.189	24.98
346.399	24.66
346.61	24.45
346.821	23.46
347.031	24.22
347.242	23.52
347.452	24.08
347.663	24.08
347.873	25.22
348.084	25.39
348.294	25.83
348.504	24.88
348.715	25.49
348.925	25.76
349.136	24.64
349.346	22.95
349.557	23.53
349.767	23.28
349.977	23.13
350.188	22.32
350.398	22.49
350.608	21.91
350.819	22.05
351.029	21.49
351.239	22.37
351.449	23.17
351.66	24.87
351.87	24.75
352.08	24.21
352.29	23.6
352.501	22.13
352.711	23.03
352.921	23.01
353.131	22.28
353.341	21.55
353.552	20.58
353.762	20.38
353.972	19.82
354.182	21.04
354.392	22.32
354.602	22.52
354.812	24
355.022	22.62
355.232	22.67
355.442	23.46
355.652	23.09
355.862	22.85
356.072	23.55
356.282	22.81
356.492	20.96
356.702	19.75
356.912	19.76
357.122	19.35
357.332	19.06
357.542	18.85
357.752	18.77
357.962	19.48
358.171	19.33
358.381	19.47
358.591	19.12
358.801	20.21
359.011	20.85
359.221	20.54
359.43	20.29
359.64	20.41
359.85	20.47
360.06	19.66
360.269	19.79
360.479	20.01
360.689	19.19
360.899	19.5
361.108	19.03
361.318	19.09
361.528	18.24
361.737	17.69
361.947	17.7
362.156	17.36
362.366	17.48
362.576	17.27
362.785	16.87
362.995	17.14
363.204	17.03
363.414	17.24
363.623	16.72
363.833	17.58
364.042	17.93
364.252	18.23
364.461	18.34
364.671	18.35
364.88	18.2
365.09	19.19
365.299	19.2
365.509	19.4
365.718	19.54
365.927	19.55
366.137	19.93
366.346	19.43
366.555	18.57
366.765	18.9
366.974	19.25
367.183	19.36
367.393	18.08
367.602	18
367.811	18.02
368.021	17.21
368.23	17.31
368.439	16.5
368.648	17.06
368.857	17.65
369.067	17.51
369.276	16.9
369.485	17.04
369.694	17
369.903	16.28
370.112	16.69
370.321	16.24
370.531	16.14
370.74	16.13
370.949	15.46
371.158	15.15
371.367	14.31
371.576	14.69
371.785	14.35
371.994	14.79
372.203	14.81
372.412	14.36
372.621	14.95
372.83	15.15
373.039	15.56
373.248	15.84
373.457	15.87
373.666	16.29
373.874	16.08
374.083	15.78
374.292	15.55
374.501	15.21
374.71	15.21
374.919	14.72
375.128	14.83
375.336	14.9
375.545	15.18
375.754	15.48
375.963	15.36
376.171	15.63
376.38	16.29
376.589	16.2
376.798	16.46
377.006	16.58
377.215	17.29
377.424	16.62
377.632	16.38
377.841	15.98
378.05	16.38
378.258	16.59
378.467	16.28
378.675	15.45
378.884	16.16
379.093	16.56
379.301	16.63
379.51	16.37
379.718	16.62
379.927	16.85
380.135	16.87
380.344	15.92
380.552	15.89
380.761	16.09
380.969	16.44
381.177	15.51
381.386	16.01
381.594	15.39
381.803	14.7
382.011	15.07
382.219	15.16
382.428	14.91
382.636	15.02
382.845	14.98
383.053	14.84
383.261	14.5
383.469	14.57
383.678	13.97
383.886	13.71
384.094	14.03
384.302	13.32
384.511	12.96
384.719	12.75
384.927	12.88
385.135	12.79
385.343	12.55
385.552	13.11
385.76	13.03
385.968	12.81
386.176	13.2
386.384	12.79
386.592	13.23
386.8	13.18
387.008	13.18
387.216	13.12
387.424	13.2
387.633	13.04
387.841	12.32
388.049	12.84
388.257	12.49
388.465	12.15
388.672	12.96
388.88	12.98
389.088	12.6
389.296	12.57
389.504	12.6
389.712	12.75
389.92	12.74
390.128	13
390.336	12.45
390.544	12.74
390.751	13.07
390.959	12.58
391.167	12.24
391.375	12.36
391.583	12.34
391.79	12.18
391.998	11.83
392.206	12.13
392.414	11.89
392.621	11.77
392.829	11.64
393.037	11.42
393.244	11.51
393.452	11.46
393.66	11.63
393.867	11.67
394.075	11.5
394.283	11.78
394.49	11.64
394.698	12.02
394.905	12.17
395.113	12.23
395.32	12.29
395.528	12.2
395.735	12.31
395.943	12.04
396.15	12.03
396.358	12.17
396.565	12.02
396.773	11.88
396.98	11.57
397.188	11.48
397.395	11.39
397.602	11.44
397.81	11.24
398.017	11.31
398.225	11.1
398.432	11.21
398.639	11.17
398.847	11.52
399.054	11.78
399.261	11.45
399.468	11.38
399.676	11.49
399.883	11.41
400.09	11.51
400.297	11.84
400.505	12.19
400.712	12.38
400.919	12.56
401.126	12.09
401.333	11.98
401.54	12.34
401.748	12.47
401.955	12.5
402.162	12.34
402.369	12.19
402.576	11.78
402.783	11.53
402.99	11.49
403.197	11.38
403.404	11.5
403.611	11.6
403.818	11.88
404.025	11.76
404.232	11.51
404.439	11.59
404.646	11.48
404.853	11.55
405.06	11.69
405.267	11.58
405.474	11.52
405.681	11.36
405.887	11.16
406.094	11.22
406.301	11.72
406.508	12.09
406.715	12.56
406.922	12.89
407.128	12.61
407.335	12.44
407.542	12.49
407.749	12.38
407.955	12.6
408.162	12.22
408.369	11.98
408.575	11.51
408.782	11.13
408.989	10.71
409.195	10.37
409.402	10.78
409.609	10.94
409.815	10.84
410.022	10.81
410.228	10.66
410.435	11.24
410.642	10.81
410.848	11.1
411.055	11.1
411.261	11.24
411.468	11.17
411.674	10.95
411.881	10.76
412.087	10.4
412.294	10.53
412.5	10.1
412.706	9.81
412.913	10.52
413.119	10.26
413.326	10.46
413.532	10.37
413.738	10.63
413.945	10.24
414.151	10.61
414.357	11.06
414.564	11.06
414.77	11.06
414.976	10.96
415.182	11.07
415.389	11.14
415.595	10.7
415.801	10.69
416.007	10.55
416.214	10.87
416.42	10.51
416.626	10.36
416.832	10.49
417.038	10.66
417.244	10.82
417.45	10.4
417.657	10.25
417.863	10.51
418.069	10.22
418.275	10.2
418.481	9.92
418.687	10.01
418.893	10.03
419.099	9.78
419.305	9.77
419.511	9.62
419.717	9.5
419.923	9.35
420.129	9.13
420.335	9.23
420.541	9.25
420.746	9.36
420.952	9.3
421.158	9.14
421.364	9.1
421.57	8.98
421.776	8.95
421.982	8.99
422.187	9.07
422.393	9.02
422.599	9.01
422.805	9.02
423.01	8.96
423.216	9
423.422	9
423.628	9.07
423.833	9.14
424.039	9.32
424.245	9.45
424.45	9.39
424.656	9.52
424.862	9.34
425.067	9.35
425.273	9.38
425.478	9.27
425.684	9.33
425.889	9.39
426.095	9.36
426.301	9.25
426.506	9.14
426.712	9.08
426.917	9.2
427.123	9.26
427.328	9.22
427.533	9.42
427.739	9.63
427.944	9.76
428.15	9.71
428.355	9.8
428.561	9.84
428.766	9.74
428.971	9.91
429.177	9.71
429.382	10.16
429.587	10.31
429.793	10.24
429.998	10.04
430.203	10.09
430.408	10.05
430.614	10.05
430.819	9.95
431.024	10.03
431.229	10.15
431.434	10.55
431.64	10.27
431.845	10.46
432.05	10.57
432.255	10.61
432.46	10.58
432.665	10.54
432.87	10.5
433.076	10.55
433.281	10.47
433.486	10.4
433.691	10.16
433.896	10.09
434.101	9.74
434.306	9.53
434.511	9.53
434.716	9.41
434.921	9.43
435.126	9.59
435.331	9.54
435.535	9.48
435.74	9.49
435.945	9.49
436.15	9.67
436.355	9.99
436.56	10.17
436.765	10.43
436.97	10.46
437.174	10.48
437.379	10.38
437.584	10.47
437.789	10.31
437.993	10.39
438.198	10.38
438.403	10.2
438.608	9.96
438.812	9.65
439.017	9.35
439.222	9.4
439.426	9.34
439.631	9.25
439.836	9.15
440.04	9.34
440.245	9.27
440.45	9.16
440.654	9.2
440.859	9.26
441.063	9.24
441.268	9.33
441.472	9.39
441.677	9.54
441.881	9.67
442.086	9.81
442.29	9.79
442.495	9.75
442.699	9.84
442.904	9.72
443.108	9.66
443.312	9.82
443.517	9.88
443.721	9.62
443.925	9.45
444.13	9.29
444.334	9.08
444.538	9
444.743	9.05
444.947	8.89
445.151	8.96
445.356	9.01
445.56	9.04
445.764	8.97
445.968	9
446.173	9.04
446.377	8.86
446.581	8.89
446.785	8.96
446.989	8.88
447.193	8.91
447.398	8.92
447.602	8.81
447.806	8.88
448.01	8.92
448.214	9.1
448.418	9.17
448.622	9.43
448.826	9.46
449.03	9.41
449.234	9.38
449.438	9.37
449.642	9.3
449.846	9.65
450.05	9.57
450.254	9.43
450.458	9.26
450.662	9.35
450.866	9.2
451.069	9.16
451.273	9.07
451.477	9.22
451.681	9.4
451.885	9.61
452.089	9.4
452.292	9.28
452.496	9.19
452.7	9.15
452.904	8.89
453.107	9.14
453.311	9.18
453.515	9.38
453.719	9.23
453.922	9.25
454.126	9.03
