Data from LC_250_Reflection_2.txt Node
Date: Thu Nov 19 23:01:44 EST 2015
User: robert
Spectrometer: USB4E03001
Autoset integration time: false
Trigger mode: 4
Integration Time (sec): 1.000000E-1
Scans to average: 15
Electric dark correction enabled: true
Nonlinearity correction enabled: false
Boxcar width: 5
Stray light correction enabled: false
XAxis mode: Wavelengths
Stop averaging: false
Number of Pixels in Spectrum: 3648
>>>>>Begin Spectral Data<<<<<
177.566	-34.76
177.785	-11
178.005	36.95
178.225	54.76
178.445	68.13
178.665	43.12
178.885	59.99
179.105	561.31
179.324	312.77
179.544	68.02
179.764	99.68
179.984	77.93
180.204	127
180.423	80.52
180.643	62.2
180.863	67.89
181.083	123.06
181.302	126.81
181.522	132.8
181.742	139.94
181.961	172.18
182.181	203.54
182.401	267.5
182.621	263.49
182.84	424.71
183.06	292.44
183.279	222.16
183.499	179.99
183.719	282.6
183.938	-476.77
184.158	479.96
184.377	16.42
184.597	-175.24
184.816	3101.89
185.036	187.43
185.256	-902.22
185.475	39.52
185.695	7.56
185.914	-54.2
186.134	18.19
186.353	19.64
186.572	24.22
186.792	-141.71
187.011	93.57
187.231	103.92
187.45	-36.64
187.67	83.16
187.889	67.04
188.108	38.25
188.328	10.7
188.547	-21.08
188.766	-73.75
188.986	32.5
189.205	-304.9
189.424	-9.76
189.644	39.65
189.863	37.29
190.082	55.54
190.302	74.71
190.521	65.47
190.74	55.91
190.959	61.58
191.178	52.45
191.398	78.86
191.617	110.13
191.836	388.32
192.055	167.87
192.274	205.95
192.494	155.09
192.713	83.47
192.932	85.08
193.151	88.42
193.37	77.17
193.589	106.85
193.808	81.16
194.027	92.38
194.246	92.95
194.465	92.05
194.685	82.9
194.904	82.82
195.123	54.95
195.342	75.33
195.561	75.5
195.78	67.63
195.999	66.07
196.218	62.28
196.436	42.47
196.655	32.79
196.874	34.15
197.093	64.26
197.312	43.41
197.531	79.62
197.75	65.77
197.969	58.53
198.188	44.69
198.407	40.1
198.625	12.67
198.844	5.43
199.063	-427.85
199.282	29.31
199.501	31.68
199.719	95.77
199.938	102.17
200.157	137.16
200.376	119.95
200.594	244.05
200.813	-80.13
201.032	440.58
201.251	555.82
201.469	206.06
201.688	159.28
201.907	229.47
202.125	1180.15
202.344	314.79
202.563	322.93
202.781	292.34
203	157.43
203.218	110.35
203.437	77.14
203.656	81.23
203.874	129.01
204.093	77.6
204.311	36.27
204.53	31.32
204.748	40.35
204.967	68.36
205.185	50.13
205.404	50.31
205.622	136.58
205.841	119.13
206.059	170.04
206.278	161.65
206.496	208.78
206.715	304.05
206.933	296.85
207.151	187.53
207.37	205.09
207.588	256.02
207.806	226.63
208.025	185.6
208.243	172.48
208.461	184.3
208.68	110.74
208.898	99.2
209.116	32.89
209.335	50.61
209.553	3.79
209.771	-1868.91
209.989	240.07
210.208	-122.36
210.426	-38.74
210.644	238.21
210.862	147.58
211.081	201.87
211.299	190.84
211.517	212.75
211.735	171.18
211.953	131.6
212.171	106
212.39	99.11
212.608	107.72
212.826	121.31
213.044	111.47
213.262	125.13
213.48	85.22
213.698	87.54
213.916	73.19
214.134	-5.36
214.352	24.24
214.57	144.2
214.788	538.8
215.006	296.43
215.224	202.27
215.442	515.62
215.66	150.75
215.878	278.46
216.096	242.37
216.314	271.35
216.532	765.11
216.75	1300.17
216.968	-92.46
217.185	44.56
217.403	33.01
217.621	553.01
217.839	-12.12
218.057	13.66
218.275	49.66
218.492	31.92
218.71	5
218.928	-17.96
219.146	-47.1
219.363	-0.45
219.581	0.24
219.799	9.01
220.017	20.29
220.234	16.49
220.452	22.7
220.67	-5.23
220.887	29.07
221.105	60.33
221.323	45.35
221.54	58.17
221.758	72.23
221.976	45.98
222.193	31.75
222.411	24.51
222.629	23.57
222.846	16.22
223.064	26.58
223.281	20.42
223.499	4.2
223.716	13.41
223.934	-0.23
224.151	-1.91
224.369	4.17
224.586	11.68
224.804	29.04
225.021	38.93
225.239	34.86
225.456	17.6
225.674	15.71
225.891	21.81
226.108	20.28
226.326	21.44
226.543	22.5
226.76	16.36
226.978	7.04
227.195	-4.28
227.413	-10.15
227.63	-4.78
227.847	4.94
228.064	7.43
228.282	8.17
228.499	9.16
228.716	11.45
228.934	9.99
229.151	11.9
229.368	10.58
229.585	12.46
229.802	13.83
230.02	15.06
230.237	13.94
230.454	12.32
230.671	11.4
230.888	10.67
231.105	9.33
231.323	10.47
231.54	5.8
231.757	8.81
231.974	6.22
232.191	7.37
232.408	7.06
232.625	7.15
232.842	14.31
233.059	18.01
233.276	23.87
233.493	24.83
233.71	25.17
233.927	35
234.144	35.44
234.361	32.8
234.578	30.46
234.795	26.08
235.012	25.46
235.229	19.81
235.446	18.97
235.663	10.97
235.879	8.7
236.096	6.02
236.313	-3.69
236.53	-1.49
236.747	2.29
236.964	3.62
237.181	0.92
237.397	5.59
237.614	5.29
237.831	3.65
238.048	7.85
238.264	7.63
238.481	7.91
238.698	13.34
238.915	18.5
239.131	13.43
239.348	10.35
239.565	16.14
239.781	15.01
239.998	13.91
240.215	14.01
240.431	12.69
240.648	12.96
240.865	12.9
241.081	11.71
241.298	8.44
241.514	10.39
241.731	12.17
241.947	12.42
242.164	11.77
242.38	12.31
242.597	11.2
242.814	11.3
243.03	11.03
243.246	13.01
243.463	12.29
243.679	12.26
243.896	13.96
244.112	12.6
244.329	11.39
244.545	13.09
244.762	13.09
244.978	13.09
245.194	14.09
245.411	15.57
245.627	13.38
245.843	13.42
246.06	14.71
246.276	12.52
246.492	13.95
246.709	14
246.925	12.64
247.141	12.41
247.357	12.86
247.574	12.77
247.79	12.4
248.006	12.85
248.222	13.33
248.439	13.13
248.655	13.66
248.871	13.43
249.087	13.23
249.303	13.39
249.519	12.68
249.736	13.33
249.952	13.38
250.168	13.13
250.384	12.3
250.6	12.08
250.816	11.58
251.032	11.45
251.248	10.05
251.464	10.31
251.68	10.83
251.896	10.93
252.112	9.61
252.328	10.29
252.544	9.58
252.76	10.3
252.976	10.79
253.192	10.66
253.408	10.6
253.624	11.17
253.84	10.91
254.056	9.78
254.272	10.89
254.487	9.75
254.703	8.48
254.919	9.45
255.135	9.06
255.351	8.7
255.567	7.82
255.782	6.77
255.998	7.49
256.214	6.43
256.43	7.02
256.646	8.82
256.861	12.01
257.077	12.91
257.293	13.34
257.508	13.54
257.724	12.66
257.94	12.98
258.155	13.12
258.371	12.6
258.587	13.15
258.802	13.14
259.018	12.46
259.234	11.11
259.449	10.32
259.665	9.92
259.88	9.16
260.096	9.15
260.312	8.71
260.527	8.42
260.743	8.27
260.958	7.9
261.174	7.97
261.389	7.35
261.605	8.21
261.82	7.62
262.036	7.7
262.251	7.95
262.466	7.88
262.682	8.27
262.897	9.72
263.113	10.15
263.328	11.93
263.543	13.08
263.759	14.26
263.974	14.58
264.189	14.93
264.405	15.01
264.62	15.77
264.835	16.45
265.051	15.97
265.266	15.16
265.481	15.61
265.696	13.41
265.912	10.77
266.127	10.48
266.342	9.19
266.557	10.44
266.773	10.07
266.988	9.06
267.203	8.54
267.418	8.74
267.633	7.53
267.848	6.37
268.064	6.32
268.279	6.67
268.494	7.41
268.709	6.19
268.924	4.26
269.139	3.95
269.354	4
269.569	2.96
269.784	3.39
269.999	4.21
270.214	4.75
270.429	4.85
270.644	5.39
270.859	4.96
271.074	6.32
271.289	7.53
271.504	7.71
271.719	8.57
271.934	9.26
272.149	8.69
272.363	8.58
272.578	8.69
272.793	9.17
273.008	8.86
273.223	8.93
273.438	9.62
273.653	9.62
273.867	9.25
274.082	9.21
274.297	9.1
274.512	9.7
274.726	10.46
274.941	9.99
275.156	8.95
275.371	9.93
275.585	9.77
275.8	8.23
276.015	8.9
276.229	10.27
276.444	10.94
276.659	10.67
276.873	9.65
277.088	9.24
277.302	10.16
277.517	10.33
277.732	10.37
277.946	10.85
278.161	11.37
278.375	10.91
278.59	10.23
278.804	8.97
279.019	9.3
279.233	9.39
279.448	9.7
279.662	10.15
279.877	9.36
280.091	9.03
280.306	8.37
280.52	9.08
280.735	9.5
280.949	9.23
281.163	9.65
281.378	9.89
281.592	11.05
281.806	10.25
282.021	9.1
282.235	10.4
282.449	10.23
282.664	10.14
282.878	9.56
283.092	9.23
283.307	9.8
283.521	9.02
283.735	8.16
283.949	7.48
284.164	8.19
284.378	8.46
284.592	7.69
284.806	7.42
285.02	8.2
285.234	9.37
285.449	8.29
285.663	7.8
285.877	8.49
286.091	8.99
286.305	9.13
286.519	9.45
286.733	9.86
286.947	10.89
287.161	10.09
287.375	9.83
287.589	8.15
287.803	8.9
288.017	9.66
288.231	9.39
288.445	9.37
288.659	9.63
288.873	8.7
289.087	6.9
289.301	6.63
289.515	8.1
289.729	7.56
289.943	8.51
290.157	9.32
290.371	8.95
290.584	8.96
290.798	8.95
291.012	8.22
291.226	8.71
291.44	11.3
291.654	10.06
291.867	10.26
292.081	10.44
292.295	10.54
292.509	9.73
292.722	9.89
292.936	9.52
293.15	9.41
293.364	10.65
293.577	10.64
293.791	9.28
294.005	10.77
294.218	10.92
294.432	11.66
294.645	11.33
294.859	11.75
295.073	10.81
295.286	10.94
295.5	10.93
295.713	10.03
295.927	10.2
296.14	9.79
296.354	9.2
296.568	8.93
296.781	8.45
296.994	8.55
297.208	8.41
297.421	9.2
297.635	9.48
297.848	9.94
298.062	10.43
298.275	10.08
298.489	10.87
298.702	11.55
298.915	11.38
299.129	11.74
299.342	11.33
299.555	11.31
299.769	10.7
299.982	10.75
300.195	10.44
300.409	10.33
300.622	9.73
300.835	9.73
301.048	9.88
301.262	9.1
301.475	8.19
301.688	8.61
301.901	8.02
302.115	7.84
302.328	8.03
302.541	7.08
302.754	7.22
302.967	8.44
303.18	7.45
303.393	6.55
303.607	7.7
303.82	8.85
304.033	8.94
304.246	10.23
304.459	11.25
304.672	12
304.885	13.02
305.098	12.27
305.311	11.95
305.524	13.04
305.737	13.44
305.95	13.42
306.163	12.42
306.376	12.23
306.589	11.8
306.802	10.73
307.015	9.54
307.228	9.87
307.44	10.67
307.653	10.93
307.866	10.34
308.079	10.95
308.292	9.86
308.505	10.02
308.718	10.24
308.93	9.66
309.143	10.34
309.356	10.42
309.569	10.11
309.781	10.02
309.994	9.77
310.207	9.75
310.42	10.02
310.632	9.84
310.845	9.89
311.058	10.09
311.27	10.47
311.483	10.4
311.696	10.49
311.908	10.41
312.121	10.12
312.333	10.06
312.546	9.96
312.759	10.02
312.971	10.85
313.184	10.75
313.396	10.38
313.609	10.84
313.821	10.45
314.034	10.07
314.246	9.58
314.459	10.82
314.671	11.35
314.884	10.73
315.096	9.43
315.309	9.38
315.521	10.38
315.733	10.7
315.946	11
316.158	12.25
316.371	11.27
316.583	11.51
316.795	9.8
317.008	9.3
317.22	9.91
317.432	11.4
317.644	11.8
317.857	10.61
318.069	9.66
318.281	8.53
318.494	8.15
318.706	9.2
318.918	8.19
319.13	8.53
319.342	6.65
319.555	6.71
319.767	5.63
319.979	5.08
320.191	5.75
320.403	5.97
320.615	6.69
320.827	6.35
321.039	5.11
321.252	6.82
321.464	7.38
321.676	8.83
321.888	7.56
322.1	8.15
322.312	7.91
322.524	8.6
322.736	8.44
322.948	8.73
323.16	8.76
323.372	9.53
323.584	9.84
323.796	8.11
324.007	8.68
324.219	10.04
324.431	9.29
324.643	8.94
324.855	8.25
325.067	9.28
325.279	8.24
325.491	8.54
325.702	8.93
325.914	8.28
326.126	10.65
326.338	10.64
326.55	10.27
326.761	10.27
326.973	11.34
327.185	11.65
327.396	11.55
327.608	12.1
327.82	11.96
328.032	11.71
328.243	11.87
328.455	10.57
328.666	10.18
328.878	10.09
329.09	10.82
329.301	10.77
329.513	11.01
329.725	10.54
329.936	10.46
330.148	11.2
330.359	11.1
330.571	10.79
330.782	11.3
330.994	11.1
331.205	11.01
331.417	10.92
331.628	11.14
331.84	10.7
332.051	10.81
332.262	11.9
332.474	11.41
332.685	12.34
332.897	12.92
333.108	12.71
333.319	13.08
333.531	13.7
333.742	13.26
333.953	13.34
334.165	14.14
334.376	13.88
334.587	13.37
334.799	12.89
335.01	12.19
335.221	12.14
335.432	12.15
335.644	12.31
335.855	11.17
336.066	11.81
336.277	10.85
336.488	9.93
336.7	9.79
336.911	9.65
337.122	10.25
337.333	10.92
337.544	10.66
337.755	10
337.966	10.07
338.177	10.17
338.388	10.34
338.599	10.39
338.811	11.18
339.022	11.36
339.233	10.35
339.444	10.64
339.655	10.29
339.866	9.99
340.076	11.48
340.287	11.48
340.498	12.05
340.709	11.91
340.92	12.18
341.131	11.07
341.342	11
341.553	12.59
341.764	11.72
341.975	11.97
342.185	12
342.396	10.8
342.607	11.04
342.818	10.37
343.029	10.02
343.239	10.17
343.45	10.1
343.661	9.74
343.872	8.87
344.082	9.23
344.293	9.4
344.504	10.09
344.714	10.83
344.925	10.42
345.136	10.95
345.346	9.66
345.557	9.18
345.768	9.57
345.978	10.05
346.189	9.46
346.399	9.23
346.61	8.61
346.821	8.41
347.031	7.8
347.242	8.04
347.452	8.39
347.663	9.21
347.873	9.91
348.084	10.48
348.294	10.17
348.504	10.78
348.715	11.44
348.925	11.93
349.136	11.82
349.346	11.75
349.557	11.43
349.767	11.2
349.977	12.12
350.188	11.43
350.398	10.73
350.608	10.68
350.819	10.97
351.029	10.32
351.239	10.04
351.449	9.31
351.66	9.91
351.87	10.57
352.08	10.19
352.29	9.89
352.501	9.77
352.711	10
352.921	10.59
353.131	9.66
353.341	8.94
353.552	9.17
353.762	9.28
353.972	8.98
354.182	8.24
354.392	8.37
354.602	7.48
354.812	7.61
355.022	6.69
355.232	6.45
355.442	6.49
355.652	6.51
355.862	6.08
356.072	6.48
356.282	7.2
356.492	6.96
356.702	6.78
356.912	7.03
357.122	7.32
357.332	8.42
357.542	8.25
357.752	8.5
357.962	9.42
358.171	9.52
358.381	9.77
358.591	9.2
358.801	9.17
359.011	9.58
359.221	9.55
359.43	9.56
359.64	8.93
359.85	9.37
360.06	9.69
360.269	9.54
360.479	9.16
360.689	8.85
360.899	8.65
361.108	8.87
361.318	8.98
361.528	8.86
361.737	9.06
361.947	9.29
362.156	8.73
362.366	8.67
362.576	8.36
362.785	8.27
362.995	8.08
363.204	8.29
363.414	8.13
363.623	7.68
363.833	7.84
364.042	7.71
364.252	7.81
364.461	7.91
364.671	7.23
364.88	7.69
365.09	8.05
365.299	8.64
365.509	8.83
365.718	8.93
365.927	9.37
366.137	9.68
366.346	9.84
366.555	9.48
366.765	9.64
366.974	10.13
367.183	9.85
367.393	9.27
367.602	9.55
367.811	9.6
368.021	10.09
368.23	9.01
368.439	8.73
368.648	8.38
368.857	8.38
369.067	8.27
369.276	8.43
369.485	7.88
369.694	8.24
369.903	7.23
370.112	6.71
370.321	6.26
370.531	7
370.74	6.78
370.949	6.61
371.158	7.16
371.367	7.12
371.576	7.1
371.785	7.36
371.994	7.41
372.203	7.65
372.412	7.84
372.621	7.86
372.83	7.77
373.039	7.78
373.248	7.98
373.457	7.87
373.666	8.21
373.874	8.28
374.083	8.34
374.292	8.04
374.501	7.85
374.71	8.21
374.919	7.85
375.128	7.91
375.336	7.97
375.545	7.8
375.754	7.06
375.963	6.66
376.171	6.13
376.38	6.04
376.589	6.07
376.798	5.54
377.006	4.96
377.215	5.51
377.424	5.62
377.632	5.8
377.841	5.62
378.05	6.34
378.258	6.33
378.467	6.35
378.675	6.7
378.884	7.21
379.093	7.71
379.301	7.94
379.51	7.51
379.718	7.31
379.927	7.37
380.135	7.87
380.344	7.42
380.552	7.75
380.761	7.85
380.969	7.57
381.177	6.95
381.386	6.75
381.594	6.55
381.803	6.45
382.011	6.45
382.219	6.44
382.428	6.45
382.636	6.31
382.845	6.21
383.053	6.01
383.261	5.71
383.469	6.15
383.678	6.22
383.886	6.21
384.094	6.6
384.302	6.76
384.511	6.44
384.719	6.21
384.927	6.44
385.135	6.38
385.343	6.28
385.552	6.52
385.76	6.55
385.968	6.83
386.176	7.09
386.384	6.75
386.592	6.86
386.8	6.78
387.008	6.4
387.216	6.14
387.424	6.05
387.633	6.6
387.841	6.39
388.049	6.22
388.257	5.8
388.465	5.47
388.672	5.7
388.88	5.48
389.088	5.52
389.296	5.8
389.504	5.66
389.712	5.76
389.92	5.48
390.128	5.5
390.336	5.47
390.544	5.69
390.751	5.68
390.959	5.44
391.167	5.4
391.375	5.36
391.583	5.06
391.79	5.22
391.998	5.48
392.206	5.55
392.414	5.64
392.621	5.45
392.829	5.46
393.037	5.71
393.244	5.86
393.452	5.83
393.66	5.93
393.867	6.24
394.075	6.49
394.283	6.07
394.49	5.9
394.698	6
394.905	6.1
395.113	6.09
395.32	5.98
395.528	5.89
395.735	6.23
395.943	6.16
396.15	5.59
396.358	5.25
396.565	5.5
396.773	5.45
396.98	5.45
397.188	5.61
397.395	5.64
397.602	5.51
397.81	5.59
398.017	5.11
398.225	5.32
398.432	5.69
398.639	5.55
398.847	5.09
399.054	5.26
399.261	5.17
399.468	5.07
399.676	5.06
399.883	4.97
400.09	4.97
400.297	5.28
400.505	5.19
400.712	5.35
400.919	5.7
401.126	6.05
401.333	6.33
401.54	6.44
401.748	6.7
401.955	6.75
402.162	6.87
402.369	6.9
402.576	6.89
402.783	6.64
402.99	6.6
403.197	6.71
403.404	6.57
403.611	6.46
403.818	6.28
404.025	6.09
404.232	5.87
404.439	5.95
404.646	5.8
404.853	5.65
405.06	5.92
405.267	6.07
405.474	5.82
405.681	5.86
405.887	5.78
406.094	5.86
406.301	5.88
406.508	6.06
406.715	5.75
406.922	5.58
407.128	5.26
407.335	5.11
407.542	5.15
407.749	5.26
407.955	5.4
408.162	5.61
408.369	5.44
408.575	5.65
408.782	5.38
408.989	5.78
409.195	5.76
409.402	6.27
409.609	6.25
409.815	6.03
410.022	6.04
410.228	5.87
410.435	5.49
410.642	5.78
410.848	5.49
411.055	5.82
411.261	5.69
411.468	5.87
411.674	5.52
411.881	5.84
412.087	5.87
412.294	5.66
412.5	5.8
412.706	5.84
412.913	5.74
413.119	5.84
413.326	5.48
413.532	5.27
413.738	5.2
413.945	5.32
414.151	5.1
414.357	5.3
414.564	5.37
414.77	5.31
414.976	5.48
415.182	5.31
415.389	5.4
415.595	5.56
415.801	5.68
416.007	5.76
416.214	5.87
416.42	5.67
416.626	5.24
416.832	5.47
417.038	5.41
417.244	5.35
417.45	5.42
417.657	5.46
417.863	5.72
418.069	5.8
418.275	5.97
418.481	5.88
418.687	6
418.893	6.24
419.099	6.04
419.305	6.02
419.511	6.04
419.717	5.96
419.923	5.83
420.129	5.56
420.335	5.48
420.541	5.32
420.746	5.18
420.952	5.28
421.158	5.26
421.364	5.29
421.57	5.37
421.776	5.39
421.982	5.47
422.187	5.53
422.393	5.59
422.599	5.51
422.805	5.49
423.01	5.58
423.216	5.44
423.422	5.39
423.628	5.35
423.833	5.27
424.039	5.17
424.245	5.13
424.45	5.18
424.656	5.3
424.862	5.47
425.067	5.41
425.273	5.47
425.478	5.56
425.684	5.61
425.889	5.78
426.095	5.78
426.301	5.7
426.506	5.83
426.712	5.67
426.917	5.7
427.123	5.67
427.328	5.79
427.533	5.84
427.739	5.89
427.944	5.82
428.15	5.74
428.355	5.62
428.561	5.63
428.766	5.6
428.971	5.7
429.177	5.52
429.382	5.57
429.587	5.68
429.793	5.63
429.998	5.23
430.203	5.1
430.408	5.09
430.614	5.27
430.819	5.32
431.024	5.29
431.229	5.17
431.434	5.02
431.64	4.83
431.845	4.84
432.05	4.92
432.255	5.21
432.46	5.41
432.665	5.47
432.87	5.59
433.076	5.71
433.281	5.59
433.486	5.76
433.691	5.83
433.896	5.84
434.101	5.79
434.306	5.72
434.511	5.74
434.716	5.7
434.921	5.65
435.126	5.59
435.331	5.52
435.535	5.6
435.74	5.48
435.945	5.65
436.15	5.7
436.355	5.91
436.56	5.84
436.765	5.93
436.97	5.96
437.174	5.93
437.379	5.87
437.584	5.82
437.789	5.9
437.993	5.83
438.198	5.67
438.403	5.54
438.608	5.45
438.812	5.51
439.017	5.37
439.222	5.34
439.426	5.2
439.631	5.18
439.836	5.33
440.04	5.25
440.245	5.39
440.45	5.46
440.654	5.6
440.859	5.6
441.063	5.65
441.268	5.66
441.472	5.76
441.677	5.8
441.881	5.83
442.086	5.67
442.29	5.66
442.495	5.56
442.699	5.66
442.904	5.77
443.108	5.7
443.312	5.59
443.517	5.53
443.721	5.5
443.925	5.73
444.13	5.84
444.334	5.91
444.538	5.97
444.743	5.93
444.947	5.74
445.151	5.59
445.356	5.68
445.56	5.77
445.764	5.72
445.968	5.73
446.173	5.54
446.377	5.42
446.581	5.42
446.785	5.35
446.989	5.4
447.193	5.4
447.398	5.31
447.602	5.21
447.806	5.12
448.01	5.13
448.214	5.12
448.418	5.12
448.622	5.09
448.826	5.15
449.03	5.32
449.234	5.25
449.438	5.33
449.642	5.39
449.846	5.35
450.05	5.49
450.254	5.61
450.458	5.62
450.662	5.74
450.866	5.78
451.069	5.74
451.273	5.56
451.477	5.64
451.681	5.42
451.885	5.46
452.089	5.57
452.292	5.38
452.496	5.28
452.7	5.12
452.904	5.03
453.107	5.01
453.311	5.27
453.515	5.3
453.719	5.4
453.922	5.56
454.126	5.45
454.33	5.31
454.533	5.29
454.737	5.38
454.94	5.41
455.144	5.49
455.348	5.54
455.551	5.3
455.755	5.15
455.958	5.22
456.162	5.12
456.365	5.2
456.569	5.33
456.772	5.42
456.976	5.63
457.179	5.69
457.383	5.57
457.586	5.58
457.79	5.52
457.993	5.55
458.196	5.37
458.4	5.59
458.603	5.62
458.807	5.63
459.01	5.67
459.213	5.51
459.417	5.53
459.62	5.58
459.823	5.57
460.026	5.45
460.23	5.48
460.433	5.34
460.636	5.23
460.839	5.25
461.042	5.36
461.246	5.25
461.449	5.22
461.652	5.15
461.855	5.1
462.058	5.05
462.261	5.16
462.464	5.16
462.668	5.39
462.871	5.51
463.074	5.41
463.277	5.05
463.48	5.13
463.683	5.25
463.886	5.26
464.089	5.22
464.292	5.27
464.495	5.36
464.698	5.32
464.901	5.32
465.104	5.39
465.306	5.5
465.509	5.74
465.712	5.68
465.915	5.55
466.118	5.56
466.321	5.67
466.524	5.81
466.726	5.65
466.929	5.71
467.132	5.72
467.335	5.59
467.538	5.37
