Data from LC_220__Reflection_1.txt Node
Date: Thu Nov 19 13:38:20 EST 2015
User: robert
Spectrometer: USB4E03001
Autoset integration time: false
Trigger mode: 4
Integration Time (sec): 1.000000E-1
Scans to average: 15
Electric dark correction enabled: true
Nonlinearity correction enabled: false
Boxcar width: 5
Stray light correction enabled: false
XAxis mode: Wavelengths
Stop averaging: false
Number of Pixels in Spectrum: 3648
>>>>>Begin Spectral Data<<<<<
177.566	593.97
177.785	1159.7
178.005	988.01
178.225	525.18
178.445	1429.63
178.665	-298100
178.885	243.83
179.105	1170.65
179.324	-709.39
179.544	-2033.87
179.764	-729.36
179.984	-951.52
180.204	-757.7
180.423	-799.49
180.643	-3945.1
180.863	-3448.36
181.083	-938.69
181.302	-625.57
181.522	-572.02
181.742	-3799.21
181.961	7442.18
182.181	5819.42
182.401	704.65
182.621	808.27
182.84	1268.6
183.06	2807.42
183.279	2409.02
183.499	1086.93
183.719	973.07
183.938	487.32
184.158	1028.6
184.377	1097.65
184.597	749.86
184.816	6290.17
185.036	25430.43
185.256	1661.29
185.475	797.63
185.695	770.69
185.914	588.86
186.134	454.2
186.353	446.92
186.572	330.18
186.792	406.52
187.011	3405.59
187.231	635.21
187.45	938.08
187.67	2177.67
187.889	36866.67
188.108	1005.49
188.328	-4747.04
188.547	-657.72
188.766	-546.8
188.986	-827.56
189.205	-1036.12
189.424	1535.85
189.644	2811.41
189.863	1306.37
190.082	1425.95
190.302	6421.1
190.521	-609.21
190.74	-2139.94
190.959	-17940.85
191.178	24663.56
191.398	-9755.44
191.617	1977.62
191.836	7459.85
192.055	-1995.54
192.274	-731.71
192.494	-1335.9
192.713	-800.5
192.932	-458.19
193.151	-409.22
193.37	-709.44
193.589	-558.79
193.808	-446.79
194.027	-580.16
194.246	-1042.65
194.465	-931.92
194.685	55987.5
194.904	915.19
195.123	522.97
195.342	343.47
195.561	289.15
195.78	364.59
195.999	531.38
196.218	968.09
196.436	1545.96
196.655	1047.68
196.874	764.63
197.093	687.45
197.312	2117.65
197.531	2182.72
197.75	4240.94
197.969	-1703.25
198.188	-1963.72
198.407	-11713.51
198.625	745.88
198.844	1178.17
199.063	2878.26
199.282	2825.37
199.501	-1828.53
199.719	-2304.68
199.938	-3605.73
200.157	3594.09
200.376	1221.67
200.594	761.07
200.813	806.86
201.032	509.75
201.251	589.24
201.469	957.45
201.688	676.32
201.907	499.61
202.125	466.34
202.344	345.34
202.563	268.49
202.781	368.66
203	310.13
203.218	294.69
203.437	873.92
203.656	555.02
203.874	385.76
204.093	412.92
204.311	419.52
204.53	413.33
204.748	470.35
204.967	636.76
205.185	442.2
205.404	583.39
205.622	786.1
205.841	497.92
206.059	487.16
206.278	512.51
206.496	658.75
206.715	1084.3
206.933	1391.1
207.151	-3010.31
207.37	-2037.24
207.588	-6796.14
207.806	5059.5
208.025	1844.39
208.243	-2532.83
208.461	-2301.83
208.68	-5320.92
208.898	8029.37
209.116	3122.49
209.335	6614.85
209.553	1859.12
209.771	4997.38
209.989	-4049.66
210.208	-2675.94
210.426	-1575.66
210.644	-1803.43
210.862	-837.29
211.081	-812.8
211.299	-442.31
211.517	-596.72
211.735	-756.34
211.953	-1787.96
212.171	1239.86
212.39	1751.83
212.608	1951.47
212.826	924.99
213.044	442.01
213.262	381.41
213.48	400.08
213.698	377.97
213.916	498.27
214.134	597.61
214.352	1228.02
214.57	-2979.22
214.788	1493.73
215.006	7561.31
215.224	-1730.29
215.442	-613.95
215.66	-633.92
215.878	1444.79
216.096	423.31
216.314	474.71
216.532	329.83
216.75	283.75
216.968	276.95
217.185	271.13
217.403	320.46
217.621	376.09
217.839	448.86
218.057	381.31
218.275	549.21
218.492	924.28
218.71	440.2
218.928	406.96
219.146	404.41
219.363	606.07
219.581	622.46
219.799	1290.96
220.017	448.81
220.234	391.86
220.452	544.05
220.67	372.74
220.887	377.99
221.105	797.21
221.323	848.84
221.54	653.56
221.758	384.32
221.976	351.04
222.193	256.22
222.411	270.14
222.629	277.67
222.846	320.28
223.064	294.11
223.281	293.1
223.499	250.33
223.716	303.26
223.934	287.45
224.151	328.53
224.369	308.64
224.586	307.15
224.804	328.61
225.021	251.46
225.239	204.23
225.456	206.46
225.674	176.16
225.891	164.88
226.108	149.7
226.326	145.4
226.543	125.54
226.76	121.95
226.978	116.98
227.195	112.18
227.413	99.83
227.63	89.86
227.847	86.66
228.064	82.16
228.282	77.46
228.499	72.51
228.716	65.43
228.934	63.87
229.151	61.91
229.368	58.22
229.585	54.05
229.802	57.88
230.02	57.3
230.237	52.61
230.454	52.76
230.671	53.91
230.888	52.13
231.105	56.75
231.323	60.69
231.54	62.56
231.757	64.07
231.974	70.35
232.191	66.52
232.408	70.43
232.625	78.87
232.842	78.91
233.059	77.54
233.276	83.11
233.493	82.25
233.71	75.96
233.927	74.31
234.144	80.27
234.361	73.16
234.578	76.72
234.795	73.37
235.012	70.05
235.229	64.83
235.446	61.22
235.663	59.18
235.879	61.37
236.096	68.86
236.313	73.04
236.53	65.27
236.747	74.04
236.964	72.45
237.181	71.95
237.397	78.07
237.614	80.23
237.831	83.36
238.048	90.26
238.264	88.38
238.481	83.69
238.698	82.01
238.915	84.09
239.131	72.22
239.348	72.41
239.565	68.84
239.781	63.62
239.998	64.05
240.215	63.25
240.431	56.53
240.648	53.06
240.865	44.12
241.081	42.2
241.298	40.71
241.514	39.68
241.731	37.2
241.947	33.83
242.164	30.5
242.38	28.78
242.597	27.7
242.814	29.36
243.03	27.48
243.246	30.59
243.463	30.5
243.679	32.9
243.896	33.23
244.112	33.66
244.329	34.39
244.545	38.65
244.762	40.27
244.978	39.81
245.194	37.89
245.411	39.36
245.627	36.27
245.843	32.95
246.06	27.99
246.276	27.54
246.492	26.4
246.709	26.18
246.925	24.73
247.141	24.14
247.357	23.33
247.574	23.77
247.79	23.65
248.006	23.01
248.222	22.33
248.439	23.51
248.655	22.9
248.871	23.78
249.087	24.18
249.303	24.66
249.519	25.03
249.736	26.3
249.952	25.12
250.168	27
250.384	29.62
250.6	32.9
250.816	35.16
251.032	36.02
251.248	34.7
251.464	35.95
251.68	31.8
251.896	29.93
252.112	29.53
252.328	27.04
252.544	27.56
252.76	26.19
252.976	25.41
253.192	22.99
253.408	22.34
253.624	25.51
253.84	25.49
254.056	32.72
254.272	34.85
254.487	39.08
254.703	42.81
254.919	42.31
255.135	44.27
255.351	42.39
255.567	46.47
255.782	47.66
255.998	42.82
256.214	43.15
256.43	39.14
256.646	41.2
256.861	35.25
257.077	36.2
257.293	36.35
257.508	38.15
257.724	37.55
257.94	33.46
258.155	32.54
258.371	32.03
258.587	29.81
258.802	26.82
259.018	23.9
259.234	22.86
259.449	20.4
259.665	18.75
259.88	17.85
260.096	16.89
260.312	16.53
260.527	16.33
260.743	15.92
260.958	15.19
261.174	16.04
261.389	17.79
261.605	18.22
261.82	19.33
262.036	20.16
262.251	20.67
262.466	22.12
262.682	23.62
262.897	24.48
263.113	25.53
263.328	27.6
263.543	28.72
263.759	27.12
263.974	27.2
264.189	26.77
264.405	27.92
264.62	27.06
264.835	28.91
265.051	30.42
265.266	30.5
265.481	31.12
265.696	32.66
265.912	31.86
266.127	31.24
266.342	29.72
266.557	31.14
266.773	28.41
266.988	28.74
267.203	26.82
267.418	25.76
267.633	24.86
267.848	24.04
268.064	22.88
268.279	21.55
268.494	22.35
268.709	23.99
268.924	24.78
269.139	25.91
269.354	26.85
269.569	26.68
269.784	25.74
269.999	27.36
270.214	27.14
270.429	28.09
270.644	28.55
270.859	27.55
271.074	27.22
271.289	25
271.504	25.19
271.719	23.7
271.934	23.17
272.149	23.12
272.363	21.51
272.578	21.71
272.793	19.52
273.008	19.87
273.223	18.33
273.438	18.16
273.653	19.61
273.867	18.27
274.082	18.72
274.297	18.65
274.512	19.12
274.726	18.62
274.941	17.47
275.156	19.73
275.371	20.02
275.585	23.04
275.8	23.17
276.015	20.53
276.229	23.2
276.444	23.91
276.659	25.79
276.873	27.3
277.088	28.79
277.302	28.93
277.517	27.65
277.732	26.83
277.946	25.63
278.161	27.71
278.375	28.89
278.59	26.4
278.804	24.35
279.019	24.41
279.233	23.1
279.448	21.84
279.662	22.29
279.877	20.87
280.091	19.43
280.306	18.52
280.52	15.53
280.735	14.67
280.949	15.22
281.163	16.84
281.378	15.58
281.592	13.91
281.806	14.61
282.021	14.73
282.235	15.16
282.449	17.83
282.664	16.65
282.878	16.98
283.092	18.8
283.307	19.41
283.521	18.28
283.735	18.31
283.949	19.24
284.164	18.51
284.378	17.69
284.592	17.36
284.806	14.83
285.02	16.03
285.234	15.72
285.449	15.91
285.663	16.17
285.877	16.48
286.091	16.71
286.305	18.04
286.519	19.21
286.733	19.25
286.947	19.89
287.161	20.15
287.375	20.53
287.589	21.38
287.803	20.8
288.017	21.58
288.231	20.83
288.445	20.64
288.659	19.46
288.873	18.91
289.087	20.92
289.301	21.27
289.515	21.75
289.729	20.53
289.943	20.69
290.157	21.29
290.371	19.35
290.584	19.69
290.798	20.63
291.012	21.36
291.226	21.6
291.44	20.87
291.654	20.8
291.867	21.17
292.081	22.45
292.295	23.12
292.509	21.26
292.722	22.54
292.936	23.15
293.15	22.3
293.364	21.75
293.577	20.68
293.791	19.68
294.005	20.71
294.218	19.8
294.432	18.03
294.645	17.43
294.859	18.61
295.073	19.83
295.286	20.51
295.5	20.66
295.713	19.94
295.927	19.6
296.14	19.61
296.354	18.72
296.568	19.36
296.781	20.6
296.994	19.78
297.208	19.11
297.421	17.89
297.635	16.95
297.848	16.22
298.062	15.68
298.275	15.49
298.489	16.36
298.702	16.36
298.915	15.09
299.129	15.92
299.342	17.36
299.555	19.12
299.769	19.58
299.982	22.06
300.195	23.27
300.409	25.36
300.622	26.84
300.835	27.99
301.048	27.83
301.262	29.51
301.475	28.36
301.688	27.21
301.901	25.6
302.115	25.29
302.328	23.62
302.541	23.11
302.754	23.54
302.967	23.22
303.18	21.31
303.393	23.01
303.607	21.7
303.82	22.11
304.033	23.95
304.246	25.59
304.459	26.14
304.672	25.55
304.885	25.87
305.098	24.04
305.311	24.07
305.524	24.37
305.737	23.86
305.95	25.54
306.163	24.75
306.376	22.72
306.589	21.56
306.802	21.09
307.015	22.35
307.228	22.71
307.44	23.01
307.653	22.15
307.866	22.2
308.079	21.81
308.292	21.2
308.505	22.19
308.718	22.33
308.93	22.59
309.143	22.94
309.356	21.64
309.569	21.58
309.781	22.61
309.994	23.63
310.207	22.13
310.42	21.34
310.632	21.21
310.845	20.3
311.058	20.14
311.27	19.91
311.483	19.97
311.696	19.96
311.908	19.45
312.121	18.54
312.333	19.23
312.546	20.16
312.759	20.13
312.971	19.9
313.184	21.27
313.396	21.62
313.609	21.09
313.821	21.05
314.034	21.81
314.246	22.37
314.459	22.6
314.671	21.95
314.884	21.75
315.096	22.98
315.309	23.5
315.521	22.7
315.733	23.31
315.946	22.86
316.158	23.42
316.371	23.06
316.583	23.05
316.795	22.85
317.008	22.24
317.22	22.62
317.432	22.15
317.644	22.51
317.857	22.77
318.069	21.93
318.281	24.25
318.494	23.09
318.706	24.18
318.918	25.46
319.13	24.93
319.342	24.56
319.555	24.13
319.767	24.55
319.979	24.12
320.191	23.65
320.403	24.35
320.615	21.81
320.827	23.31
321.039	22.88
321.252	21.76
321.464	23.17
321.676	24.62
321.888	24.19
322.1	23.54
322.312	23.1
322.524	23.96
322.736	21.36
322.948	22.83
323.16	21.9
323.372	21.15
323.584	21.68
323.796	21.29
324.007	20.02
324.219	21.16
324.431	21.46
324.643	21.52
324.855	20.67
325.067	21.41
325.279	20.95
325.491	20.15
325.702	20.6
325.914	20.14
326.126	20.96
326.338	20.31
326.55	19.96
326.761	20.15
326.973	19.77
327.185	20.82
327.396	22.13
327.608	22.48
327.82	23.04
328.032	22.36
328.243	23.49
328.455	22.4
328.666	24.19
328.878	24.65
329.09	23.64
329.301	24.14
329.513	23.44
329.725	23.22
329.936	22.31
330.148	23.4
330.359	24.48
330.571	24.96
330.782	25.21
330.994	24.78
331.205	24.88
331.417	24.9
331.628	23.83
331.84	23.86
332.051	24.12
332.262	25.39
332.474	24.02
332.685	24.2
332.897	22.51
333.108	22.38
333.319	21.49
333.531	21.45
333.742	21.55
333.953	22.34
334.165	21.98
334.376	21.83
334.587	20.96
334.799	21.53
335.01	20.46
335.221	21.4
335.432	20.62
335.644	21.26
335.855	21.05
336.066	22.25
336.277	22.9
336.488	21.99
336.7	21.46
336.911	22.13
337.122	21.77
337.333	22.69
337.544	21.74
337.755	22.47
337.966	22.22
338.177	21.47
338.388	20.36
338.599	20.62
338.811	21.71
339.022	21.93
339.233	22.46
339.444	22.62
339.655	22.35
339.866	23.17
340.076	23.21
340.287	23.08
340.498	23.22
340.709	23.18
340.92	22.22
341.131	21.94
341.342	22.29
341.553	20.94
341.764	21.01
341.975	21.14
342.185	20.54
342.396	20.27
342.607	20.71
342.818	21.03
343.029	20.68
343.239	20.36
343.45	20.27
343.661	20
343.872	19.87
344.082	20.22
344.293	19.19
344.504	19.8
344.714	20.44
344.925	20.22
345.136	19.22
345.346	19.73
345.557	19.97
345.768	20.75
345.978	20.8
346.189	21.67
346.399	21.11
346.61	21.53
346.821	20.93
347.031	21.24
347.242	21.03
347.452	22.01
347.663	21.71
347.873	22.63
348.084	20.87
348.294	21.18
348.504	20.81
348.715	21.54
348.925	21.75
349.136	21.46
349.346	20.12
349.557	20.22
349.767	19.63
349.977	19.7
350.188	19.42
350.398	20.6
350.608	20.38
350.819	20.37
351.029	19.43
351.239	19.6
351.449	19.17
351.66	19.87
351.87	20.1
352.08	20.31
352.29	20.61
352.501	19.72
352.711	20.92
352.921	20.62
353.131	20.61
353.341	20.35
353.552	19.61
353.762	19.37
353.972	19.05
354.182	19.23
354.392	19.89
354.602	20.08
354.812	20.54
355.022	18.8
355.232	19.01
355.442	18.94
355.652	18.92
355.862	19.33
356.072	20.62
356.282	19.98
356.492	19.76
356.702	18.76
356.912	18.83
357.122	18.79
357.332	18.74
357.542	18.5
357.752	18.45
357.962	18.5
358.171	18.16
358.381	17.44
358.591	17.21
358.801	17.08
359.011	17.19
359.221	16.84
359.43	17.16
359.64	16.66
359.85	16.67
360.06	15.89
360.269	15.89
360.479	16.22
360.689	16.1
360.899	16.11
361.108	16.07
361.318	16.41
361.528	16.43
361.737	15.85
361.947	16.16
362.156	16.06
362.366	16.28
362.576	16.27
362.785	16.04
362.995	16.52
363.204	17.06
363.414	17.2
363.623	17.1
363.833	17.2
364.042	17.51
364.252	17.49
364.461	17.57
364.671	18.03
364.88	17.87
365.09	18.45
365.299	18.44
365.509	18.3
365.718	17.91
365.927	17.71
366.137	17.87
366.346	16.87
366.555	16.85
366.765	16.9
366.974	16.82
367.183	17.31
367.393	16.44
367.602	15.97
367.811	16.06
368.021	15.86
368.23	15.74
368.439	15.31
368.648	15.95
368.857	16.59
369.067	16.52
369.276	16
369.485	16.11
369.694	15.97
369.903	15.68
370.112	15.58
370.321	15.71
370.531	15.87
370.74	15.28
370.949	14.7
371.158	14.39
371.367	13.72
371.576	14.2
371.785	13.71
371.994	14.17
372.203	14.27
372.412	14.34
372.621	14.58
372.83	14.86
373.039	15.51
373.248	15.92
373.457	16.19
373.666	16.58
373.874	15.72
374.083	15.57
374.292	15.02
374.501	14.37
374.71	14.34
374.919	13.71
375.128	13.38
375.336	13.18
375.545	13.48
375.754	12.75
375.963	12.55
376.171	13.04
376.38	13.6
376.589	13.48
376.798	13.89
377.006	14.23
377.215	14.62
377.424	14.42
377.632	14.5
377.841	13.6
378.05	14.25
378.258	14.48
378.467	14.49
378.675	14.3
378.884	14.91
379.093	14.97
379.301	14.58
379.51	14.15
379.718	13.95
379.927	13.97
380.135	14.69
380.344	14.28
380.552	14.28
380.761	14.38
380.969	14.3
381.177	13.96
381.386	14.33
381.594	13.95
381.803	13.95
382.011	14.45
382.219	14.29
382.428	14.31
382.636	14.43
382.845	14.11
383.053	14.03
383.261	13.53
383.469	13.37
383.678	12.66
383.886	12.46
384.094	12.84
384.302	12.38
384.511	12.11
384.719	11.57
384.927	11.47
385.135	11.86
385.343	11.63
385.552	12.07
385.76	12.17
385.968	12.65
386.176	12.6
386.384	12.13
386.592	12.57
386.8	13.08
387.008	13.33
387.216	13.2
387.424	13.24
387.633	13.37
387.841	13.04
388.049	13.13
388.257	12.58
388.465	12.68
388.672	13.13
388.88	12.98
389.088	12.38
389.296	12.19
389.504	11.75
389.712	11.74
389.92	11.38
390.128	11.31
390.336	10.89
390.544	11.19
390.751	11.31
390.959	10.96
391.167	10.83
391.375	11.14
391.583	10.95
391.79	11.37
391.998	11.01
392.206	11.28
392.414	11.18
392.621	11.29
392.829	11.07
393.037	10.89
393.244	10.82
393.452	10.75
393.66	10.57
393.867	10.78
394.075	10.43
394.283	10.47
394.49	10.19
394.698	10.54
394.905	10.49
395.113	10.7
395.32	10.82
395.528	11.16
395.735	11.13
395.943	11.12
396.15	10.99
396.358	11.31
396.565	11.22
396.773	11.06
396.98	11.01
397.188	10.75
397.395	10.52
397.602	10.75
397.81	10.52
398.017	10.69
398.225	10.56
398.432	10.75
398.639	10.38
398.847	10.42
399.054	10.53
399.261	10.32
399.468	10.67
399.676	10.64
399.883	10.47
400.09	10.38
400.297	10.52
400.505	10.47
400.712	10.5
400.919	10.75
401.126	10.74
401.333	10.95
401.54	10.92
401.748	10.74
401.955	10.84
402.162	10.66
402.369	10.49
402.576	10.25
402.783	9.9
402.99	9.86
403.197	9.71
403.404	9.86
403.611	9.91
403.818	10.11
404.025	9.93
404.232	9.82
404.439	9.92
404.646	9.79
404.853	9.66
405.06	9.87
405.267	9.77
405.474	9.95
405.681	9.71
405.887	9.41
406.094	9.24
406.301	9.84
406.508	9.93
406.715	10.12
406.922	10.41
407.128	10.56
407.335	10.59
407.542	10.75
407.749	10.48
407.955	10.85
408.162	10.75
408.369	10.72
408.575	10.22
408.782	9.97
408.989	9.55
409.195	9.46
409.402	9.48
409.609	9.77
409.815	9.64
410.022	9.61
410.228	9.4
410.435	9.82
410.642	9.47
410.848	9.7
411.055	9.84
411.261	10.29
411.468	10.13
411.674	9.78
411.881	9.48
412.087	9.33
412.294	9.42
412.5	9.19
412.706	9.17
412.913	9.87
413.119	9.81
413.326	9.97
413.532	9.73
413.738	9.93
413.945	9.84
414.151	9.92
414.357	9.75
414.564	9.65
414.77	9.57
414.976	9.31
415.182	9.27
415.389	9.12
415.595	8.66
415.801	8.59
416.007	8.64
416.214	8.91
416.42	8.68
416.626	8.89
416.832	8.85
417.038	8.98
417.244	9.08
417.45	8.54
417.657	8.45
417.863	8.57
418.069	8.63
418.275	8.59
418.481	8.51
418.687	8.67
418.893	8.59
419.099	8.55
419.305	8.54
419.511	8.51
419.717	8.73
419.923	8.68
420.129	8.59
420.335	8.46
420.541	8.31
420.746	8.26
420.952	8.14
421.158	8.07
421.364	8.1
421.57	7.97
421.776	7.92
421.982	7.89
422.187	7.99
422.393	7.99
422.599	7.98
422.805	8.02
423.01	7.96
423.216	8.18
423.422	8.19
423.628	8.2
423.833	8.25
424.039	8.24
424.245	8.23
424.45	8.09
424.656	8.17
424.862	8.12
425.067	8.21
425.273	8.22
425.478	8.21
425.684	8.36
425.889	8.46
426.095	8.47
426.301	8.49
426.506	8.51
426.712	8.55
426.917	8.63
427.123	8.6
427.328	8.51
427.533	8.77
427.739	8.62
427.944	8.57
428.15	8.46
428.355	8.38
428.561	8.4
428.766	8.37
428.971	8.56
429.177	8.43
429.382	8.68
429.587	8.75
429.793	8.54
429.998	8.46
430.203	8.44
430.408	8.49
430.614	8.6
430.819	8.59
431.024	8.52
431.229	8.62
431.434	8.79
431.64	8.83
431.845	9.08
432.05	9.1
432.255	9.18
432.46	9.18
432.665	9.01
432.87	9.02
433.076	9.06
433.281	9.06
433.486	8.92
433.691	8.8
433.896	8.65
434.101	8.33
434.306	8.37
434.511	8.19
434.716	7.99
434.921	8.12
435.126	8.2
435.331	8.02
435.535	7.83
435.74	7.96
435.945	7.91
436.15	8.07
436.355	8.14
436.56	8.01
436.765	8.28
436.97	8.41
437.174	8.44
437.379	8.45
437.584	8.72
437.789	8.93
437.993	8.9
438.198	8.8
438.403	8.6
438.608	8.49
438.812	8.5
439.017	8.4
439.222	8.4
439.426	8.36
439.631	8.17
439.836	8.03
440.04	7.98
440.245	7.93
440.45	7.94
440.654	7.98
440.859	8.06
441.063	8.02
441.268	7.99
441.472	8.04
441.677	8.09
441.881	8.23
442.086	8.27
442.29	8.38
442.495	8.32
442.699	8.56
442.904	8.49
443.108	8.52
443.312	8.62
443.517	8.71
443.721	8.56
443.925	8.44
444.13	8.38
444.334	8.2
444.538	8.04
444.743	8.12
444.947	7.89
445.151	7.9
445.356	7.96
445.56	7.97
445.764	7.77
445.968	7.66
446.173	7.71
446.377	7.58
446.581	7.69
446.785	7.76
446.989	7.73
447.193	7.81
447.398	7.93
447.602	7.93
447.806	7.97
448.01	8.11
448.214	8.44
448.418	8.44
448.622	8.7
448.826	8.76
449.03	8.77
449.234	8.82
449.438	8.8
449.642	8.7
449.846	8.71
450.05	8.6
450.254	8.55
450.458	8.36
450.662	8.36
450.866	8.2
451.069	8.09
451.273	7.98
451.477	7.94
451.681	8.02
451.885	8.04
452.089	8.05
452.292	8.06
452.496	8.14
452.7	8.25
452.904	8.06
453.107	8.1
453.311	8.2
453.515	8.41
453.719	8.47
453.922	8.42
454.126	8.33
454.33	8.25
454.533	8.22
454.737	8.17
454.94	8.01
455.144	8.03
455.348	7.99
