Data from LC_273_Reflection_1.txt Node
Date: Sat Nov 21 12:16:15 EST 2015
User: robert
Spectrometer: USB4E03001
Autoset integration time: false
Trigger mode: 4
Integration Time (sec): 1.000000E-1
Scans to average: 15
Electric dark correction enabled: true
Nonlinearity correction enabled: false
Boxcar width: 5
Stray light correction enabled: false
XAxis mode: Wavelengths
Stop averaging: false
Number of Pixels in Spectrum: 3648
>>>>>Begin Spectral Data<<<<<
177.566	-107.3
177.785	-180.14
178.005	-472.03
178.225	211.67
178.445	487.53
178.665	1169.41
178.885	-622.68
179.105	310.35
179.324	183.29
179.544	268.63
179.764	1129.22
179.984	144.06
180.204	206.43
180.423	158.46
180.643	150.71
180.863	185.73
181.083	184.89
181.302	203.44
181.522	167.86
181.742	165.38
181.961	140.05
182.181	104.76
182.401	193.73
182.621	141.64
182.84	144.51
183.06	127.54
183.279	102.58
183.499	118.31
183.719	92.44
183.938	94.83
184.158	108.95
184.377	100.99
184.597	104.01
184.816	96.76
185.036	122.09
185.256	130.79
185.475	116.16
185.695	120.53
185.914	112.33
186.134	126.25
186.353	131.07
186.572	119.15
186.792	121.62
187.011	122.31
187.231	125.35
187.45	114.79
187.67	122.84
187.889	134.07
188.108	178.46
188.328	220.76
188.547	247.65
188.766	238.53
188.986	251.61
189.205	371.72
189.424	673.24
189.644	509.4
189.863	-184.62
190.082	-182.85
190.302	286.32
190.521	-9.89
190.74	35.4
190.959	23.76
191.178	25.03
191.398	18.46
191.617	55.59
191.836	89.98
192.055	94.57
192.274	76.62
192.494	88.29
192.713	82.73
192.932	133.53
193.151	114.03
193.37	106.33
193.589	108.55
193.808	164.46
194.027	147.19
194.246	130.18
194.465	126.78
194.685	135.14
194.904	132.89
195.123	144.26
195.342	158.83
195.561	184.32
195.78	132.01
195.999	158.92
196.218	121.7
196.436	142.97
196.655	138.86
196.874	105.76
197.093	137.03
197.312	154.05
197.531	182.37
197.75	131.94
197.969	109.73
198.188	122.73
198.407	112.31
198.625	124.62
198.844	111.71
199.063	106.41
199.282	120.15
199.501	108.59
199.719	101.44
199.938	86
200.157	93.79
200.376	99.16
200.594	131.18
200.813	128.97
201.032	141.67
201.251	122.51
201.469	147.58
201.688	197.18
201.907	202.96
202.125	156.16
202.344	138.32
202.563	152.01
202.781	157.83
203	171.08
203.218	138.89
203.437	223.53
203.656	424.78
203.874	417.53
204.093	148.25
204.311	101.91
204.53	187.53
204.748	201.37
204.967	292.78
205.185	202.19
205.404	172.42
205.622	492.19
205.841	289.97
206.059	248.68
206.278	266.38
206.496	304.37
206.715	748.27
206.933	441.07
207.151	349.06
207.37	191.71
207.588	342.83
207.806	359.82
208.025	209.24
208.243	199.74
208.461	175.94
208.68	174.06
208.898	211.48
209.116	133.5
209.335	155.83
209.553	193.02
209.771	242.93
209.989	187.43
210.208	193.86
210.426	248.24
210.644	299.5
210.862	459.52
211.081	281.46
211.299	171.15
211.517	232.05
211.735	186.81
211.953	129.02
212.171	108.48
212.39	129.83
212.608	102.86
212.826	99.81
213.044	76.64
213.262	77.39
213.48	82.76
213.698	80.34
213.916	71.72
214.134	63.52
214.352	76.88
214.57	82.51
214.788	74.76
215.006	83.49
215.224	69.6
215.442	63.36
215.66	98.4
215.878	106.26
216.096	152.61
216.314	149.57
216.532	155.28
216.75	150.74
216.968	179.09
217.185	146.47
217.403	166.22
217.621	174.6
217.839	155.98
218.057	137.71
218.275	115.79
218.492	77.93
218.71	77.17
218.928	106.87
219.146	97.9
219.363	107.36
219.581	211.99
219.799	146.1
220.017	118.35
220.234	145.55
220.452	129.98
220.67	154.61
220.887	179.84
221.105	160.99
221.323	135.11
221.54	134.49
221.758	109.86
221.976	97.78
222.193	112.04
222.411	124.18
222.629	103.83
222.846	118.34
223.064	90.4
223.281	84.94
223.499	85.53
223.716	99.35
223.934	91.99
224.151	90.7
224.369	78.53
224.586	65.79
224.804	66.46
225.021	69.28
225.239	67.59
225.456	76.05
225.674	68.34
225.891	61.44
226.108	52.05
226.326	52.79
226.543	50.36
226.76	47.02
226.978	48.38
227.195	35.59
227.413	35.11
227.63	33.44
227.847	33.44
228.064	31.45
228.282	26.28
228.499	26.96
228.716	26.17
228.934	25.55
229.151	27.07
229.368	25.76
229.585	28.61
229.802	30.32
230.02	28.25
230.237	27.29
230.454	28.83
230.671	32.91
230.888	35.3
231.105	33.69
231.323	34.51
231.54	37.3
231.757	36.85
231.974	40.43
232.191	36.02
232.408	36.97
232.625	39.43
232.842	41.53
233.059	42.33
233.276	41.98
233.493	49.4
233.71	48.72
233.927	43.48
234.144	45.17
234.361	41.11
234.578	44.55
234.795	49.18
235.012	46.98
235.229	45.82
235.446	40.85
235.663	37.36
235.879	33.03
236.096	32.37
236.313	37.44
236.53	38.09
236.747	39.87
236.964	35.92
237.181	37.62
237.397	36.24
237.614	33.6
237.831	37.46
238.048	37.96
238.264	36.92
238.481	32.02
238.698	31.39
238.915	27.27
239.131	22.34
239.348	23.38
239.565	18.34
239.781	22.04
239.998	24.42
240.215	20.68
240.431	19.16
240.648	19.93
240.865	24.92
241.081	20.36
241.298	22.4
241.514	24.71
241.731	23.02
241.947	21.69
242.164	19.45
242.38	15.84
242.597	16.29
242.814	17.24
243.03	16.17
243.246	16.12
243.463	17.06
243.679	16.21
243.896	15.14
244.112	16.34
244.329	16.38
244.545	15.76
244.762	19.27
244.978	20.29
245.194	19.11
245.411	20.34
245.627	17.85
245.843	16.19
246.06	15.67
246.276	14.56
246.492	13.53
246.709	13.01
246.925	13.41
247.141	12.77
247.357	12.48
247.574	12.5
247.79	12.03
248.006	12.48
248.222	12.27
248.439	13.15
248.655	13.64
248.871	14.38
249.087	15.2
249.303	15.65
249.519	16.79
249.736	18.28
249.952	19.55
250.168	22.49
250.384	24.13
250.6	25.9
250.816	24.6
251.032	24.64
251.248	24.46
251.464	24.66
251.68	23.33
251.896	22.96
252.112	22.17
252.328	21.76
252.544	21.23
252.76	19.7
252.976	19.37
253.192	19.88
253.408	20.11
253.624	22.21
253.84	22.47
254.056	23.3
254.272	21.22
254.487	20.96
254.703	20.55
254.919	17.75
255.135	18.84
255.351	17.65
255.567	15.7
255.782	13.93
255.998	10.97
256.214	10.58
256.43	13.45
256.646	14.83
256.861	12.34
257.077	13.89
257.293	16.29
257.508	15
257.724	15.83
257.94	18.1
258.155	18.21
258.371	17.33
258.587	15.61
258.802	13.63
259.018	12.93
259.234	13.32
259.449	12.46
259.665	11.64
259.88	12.11
260.096	11.99
260.312	11.54
260.527	11.36
260.743	11.47
260.958	11.91
261.174	11.52
261.389	12.11
261.605	12.13
261.82	11.98
262.036	12.55
262.251	12.3
262.466	12.67
262.682	11.19
262.897	11.11
263.113	11.91
263.328	12.81
263.543	14.55
263.759	13.46
263.974	14.75
264.189	16.16
264.405	17.4
264.62	19.59
264.835	20.4
265.051	21.71
265.266	22.83
265.481	20.46
265.696	19.05
265.912	17.96
266.127	18.44
266.342	18.11
266.557	16.94
266.773	14.81
266.988	13.42
267.203	11.53
267.418	12.06
267.633	11.67
267.848	12.28
268.064	12.15
268.279	13.5
268.494	13.74
268.709	13.57
268.924	13.91
269.139	13.37
269.354	11.99
269.569	11.75
269.784	12.58
269.999	11.55
270.214	13.02
270.429	13.92
270.644	12.22
270.859	10.98
271.074	10.45
271.289	9.57
271.504	10.42
271.719	10.2
271.934	11.73
272.149	10.4
272.363	11
272.578	9.37
272.793	9.14
273.008	10.92
273.223	12.02
273.438	12.86
273.653	14.38
273.867	15.03
274.082	16.39
274.297	15.07
274.512	14.93
274.726	15.14
274.941	15.62
275.156	16.24
275.371	14.53
275.585	15.08
275.8	13.84
276.015	12.53
276.229	11.02
276.444	11.46
276.659	12.75
276.873	13.39
277.088	13.97
277.302	14.69
277.517	13.4
277.732	13.73
277.946	13.73
278.161	15.04
278.375	16.01
278.59	16.78
278.804	16.17
279.019	15.8
279.233	16.1
279.448	15.55
279.662	14.56
279.877	14.51
280.091	14.68
280.306	13.3
280.52	11.88
280.735	11.8
280.949	10.82
281.163	10.4
281.378	9.73
281.592	8.61
281.806	8.61
282.021	9.52
282.235	10.34
282.449	10.43
282.664	10.69
282.878	11.14
283.092	11.51
283.307	12.04
283.521	11.93
283.735	12.42
283.949	13.69
284.164	12.37
284.378	11.93
284.592	10.54
284.806	10.87
285.02	10.54
285.234	10.96
285.449	9.94
285.663	10.42
285.877	10.95
286.091	11.06
286.305	10.59
286.519	11.46
286.733	11.93
286.947	13.59
287.161	12.92
287.375	13.12
287.589	12.56
287.803	12.59
288.017	12.51
288.231	11.77
288.445	11.62
288.659	11.71
288.873	12.26
289.087	11.85
289.301	10.19
289.515	10.24
289.729	10.83
289.943	11.2
290.157	11.67
290.371	12.08
290.584	13.28
290.798	13.18
291.012	12.99
291.226	13.08
291.44	13.07
291.654	13.64
291.867	14.17
292.081	14.1
292.295	14.44
292.509	14.97
292.722	14.87
292.936	14.82
293.15	15.05
293.364	15.88
293.577	15.25
293.791	16.14
294.005	15.56
294.218	14.98
294.432	14.83
294.645	14.33
294.859	13.11
295.073	12.19
295.286	11.34
295.5	12.19
295.713	11.58
295.927	11.41
296.14	11.52
296.354	12.23
296.568	12.74
296.781	12.16
296.994	12.54
297.208	12.98
297.421	13.77
297.635	13.95
297.848	12.65
298.062	12.94
298.275	13.54
298.489	12.81
298.702	12.87
298.915	12.34
299.129	12.83
299.342	12.5
299.555	12.94
299.769	12.86
299.982	13.61
300.195	14.97
300.409	15.4
300.622	14.98
300.835	15.9
301.048	16.65
301.262	17.43
301.475	17.4
301.688	17.55
301.901	18.24
302.115	17.81
302.328	17.14
302.541	17.29
302.754	16.15
302.967	16.37
303.18	16.02
303.393	15.2
303.607	14.2
303.82	14.62
304.033	14.49
304.246	13.94
304.459	14.64
304.672	14.86
304.885	15.22
305.098	16.7
305.311	16.59
305.524	15.98
305.737	15.89
305.95	15.64
306.163	15.2
306.376	15.88
306.589	15.74
306.802	14.44
307.015	13.88
307.228	14.18
307.44	13.33
307.653	14.52
307.866	15.22
308.079	15.76
308.292	15.82
308.505	16.96
308.718	17
308.93	17.36
309.143	16.39
309.356	15.33
309.569	13.78
309.781	14.45
309.994	13.45
310.207	13.13
310.42	11.8
310.632	11.61
310.845	10.51
311.058	9.8
311.27	9.56
311.483	11.19
311.696	12.22
311.908	12.65
312.121	11.68
312.333	12.47
312.546	13.17
312.759	14.39
312.971	15.39
313.184	16.88
313.396	16.56
313.609	16.29
313.821	16.06
314.034	16.86
314.246	17.85
314.459	18.48
314.671	17.59
314.884	17.38
315.096	17.18
315.309	15.95
315.521	14.73
315.733	16.05
315.946	16.65
316.158	15.23
316.371	15.42
316.583	14.36
316.795	14.6
317.008	14.64
317.22	13.67
317.432	14.58
317.644	16.18
317.857	16.72
318.069	16.04
318.281	15.74
318.494	17.55
318.706	16.96
318.918	17.08
319.13	17.48
319.342	18.05
319.555	17.31
319.767	16.99
319.979	17.11
320.191	17.27
320.403	18.39
320.615	17.06
320.827	17.15
321.039	16.98
321.252	17.86
321.464	17.1
321.676	16.19
321.888	17.75
322.1	16.84
322.312	16.54
322.524	15.62
322.736	15.97
322.948	18.96
323.16	19.06
323.372	20.27
323.584	20.85
323.796	22.61
324.007	23.5
324.219	23.54
324.431	24.46
324.643	25.04
324.855	25.79
325.067	26.63
325.279	26.05
325.491	26.82
325.702	26.79
325.914	27.59
326.126	26.37
326.338	26.01
326.55	26.86
326.761	27.04
326.973	27.05
327.185	28.44
327.396	27.15
327.608	27.35
327.82	27.57
328.032	27.95
328.243	27.57
328.455	27.88
328.666	29.73
328.878	30.47
329.09	31.44
329.301	34
329.513	34.19
329.725	35.87
329.936	36.36
330.148	36.03
330.359	36.98
330.571	38.16
330.782	39.18
330.994	39.15
331.205	39.67
331.417	39.89
331.628	39.12
331.84	39.91
332.051	40.66
332.262	41.54
332.474	42.25
332.685	41.8
332.897	41.22
333.108	40.96
333.319	41.49
333.531	41.35
333.742	41.67
333.953	41.91
334.165	41.31
334.376	40.6
334.587	40.83
334.799	41.86
335.01	42.49
335.221	43.13
335.432	44.39
335.644	44.24
335.855	44.91
336.066	45.37
336.277	45.82
336.488	45.78
336.7	44.98
336.911	44.06
337.122	43.73
337.333	44.15
337.544	44.01
337.755	44.14
337.966	44.23
338.177	43.77
338.388	43.35
338.599	43.2
338.811	42.89
339.022	43.37
339.233	43.41
339.444	43.11
339.655	42.47
339.866	42.93
340.076	42.54
340.287	42.96
340.498	43.24
340.709	43.15
340.92	43.28
341.131	43.79
341.342	43.9
341.553	45.45
341.764	45.12
341.975	44.67
342.185	43.55
342.396	43.67
342.607	43.53
342.818	43.34
343.029	43.96
343.239	44.04
343.45	44.14
343.661	44.95
343.872	44.03
344.082	45.03
344.293	45.44
344.504	45.82
344.714	45.79
344.925	45.88
345.136	45.81
345.346	45.7
345.557	44.85
345.768	44.79
345.978	44.67
346.189	44.46
346.399	43.56
346.61	43.59
346.821	43.74
347.031	43.76
347.242	43.6
347.452	43.92
347.663	43.45
347.873	44.36
348.084	44.71
348.294	44.58
348.504	45.12
348.715	45.24
348.925	45.26
349.136	45.51
349.346	45.82
349.557	45.14
349.767	45.9
349.977	45.9
350.188	45.54
350.398	45.05
350.608	44.8
350.819	44.91
351.029	44.73
351.239	44.82
351.449	44.92
351.66	44.84
351.87	45.58
352.08	44.56
352.29	44.37
352.501	43.66
352.711	44.52
352.921	44.33
353.131	43.59
353.341	43.72
353.552	43.56
353.762	42.83
353.972	42.5
354.182	42.43
354.392	42.72
354.602	43.17
354.812	43.4
355.022	42.59
355.232	42.59
355.442	42.86
355.652	42.88
355.862	42.81
356.072	42.73
356.282	42.95
356.492	42.67
356.702	42.02
356.912	41.37
357.122	41.86
357.332	41.37
357.542	41.25
357.752	41.1
357.962	41.35
358.171	40.85
358.381	40.89
358.591	40.22
358.801	39.81
359.011	40.14
359.221	40.02
359.43	39.62
359.64	40
359.85	39.93
360.06	39.78
360.269	39.95
360.479	39.93
360.689	39.16
360.899	39.35
361.108	39.1
361.318	38.91
361.528	39.08
361.737	39.15
361.947	39.1
362.156	39.18
362.366	39.52
362.576	38.87
362.785	38.59
362.995	39.09
363.204	38.78
363.414	39.23
363.623	39.37
363.833	39.13
364.042	39.21
364.252	39.05
364.461	38.38
364.671	38.28
364.88	38.73
365.09	39.22
365.299	39.22
365.509	39.52
365.718	39.16
365.927	39.16
366.137	38.93
366.346	38.61
366.555	38.04
366.765	38.34
366.974	37.85
367.183	37.33
367.393	37.16
367.602	37.5
367.811	37.23
368.021	37.31
368.23	36.91
368.439	37.11
368.648	36.99
368.857	37.31
369.067	36.82
369.276	36.86
369.485	37.37
369.694	37.46
369.903	36.69
370.112	36.45
370.321	36.5
370.531	36.2
370.74	35.98
370.949	35.95
371.158	35.91
371.367	35.83
371.576	35.23
371.785	34.4
371.994	34.23
372.203	34.26
372.412	34.67
372.621	34.47
372.83	34.25
373.039	33.88
373.248	33.71
373.457	33.65
373.666	33.66
373.874	33.73
374.083	34.16
374.292	34.09
374.501	33.72
374.71	33.21
374.919	32.82
375.128	33.44
375.336	33.78
375.545	33.65
375.754	33.26
375.963	33.17
376.171	33.11
376.38	32.41
376.589	31.69
376.798	31.65
377.006	31.51
377.215	31.63
377.424	31.26
377.632	31.26
377.841	30.74
378.05	30.86
378.258	30.83
378.467	30.65
378.675	30.95
378.884	31.09
379.093	30.93
379.301	30.78
379.51	30.89
379.718	30.7
379.927	30.89
380.135	31.17
380.344	31.12
380.552	31.22
380.761	31.3
380.969	31.21
381.177	31.05
381.386	30.59
381.594	30.65
381.803	30.17
382.011	29.85
382.219	29.18
382.428	28.97
382.636	28.44
382.845	28.48
383.053	28.28
383.261	28
383.469	28.24
383.678	28.78
383.886	28.93
384.094	28.85
384.302	28.61
384.511	28.51
384.719	28.14
384.927	28.44
385.135	28.3
385.343	28.11
385.552	28.36
385.76	28.22
385.968	28.23
386.176	27.86
386.384	27.87
386.592	27.86
386.8	27.85
387.008	27.96
387.216	28.03
387.424	28.09
387.633	27.95
387.841	27.42
388.049	27.38
388.257	27.43
388.465	27.33
388.672	27.06
388.88	26.8
389.088	26.67
389.296	26.3
389.504	25.97
389.712	25.63
389.92	25.59
390.128	25.49
390.336	25.12
390.544	24.88
390.751	24.82
390.959	24.76
391.167	24.86
391.375	24.98
391.583	24.86
391.79	24.39
391.998	24.39
392.206	24.43
392.414	24.23
392.621	24.39
392.829	24.05
393.037	23.94
393.244	23.93
393.452	23.71
393.66	23.65
393.867	23.88
394.075	24.24
394.283	24.04
394.49	23.98
394.698	24.05
394.905	23.92
395.113	23.93
395.32	23.74
395.528	23.75
395.735	23.69
395.943	23.34
396.15	23.36
396.358	23.08
396.565	22.87
396.773	22.8
396.98	22.91
397.188	22.79
397.395	22.55
397.602	22.34
397.81	22.22
398.017	22.25
398.225	22.4
398.432	22.54
398.639	22.43
398.847	22.37
399.054	22.43
399.261	22.38
399.468	22.22
399.676	22.45
399.883	22.74
400.09	22.76
400.297	22.96
400.505	22.66
400.712	22.34
400.919	22.32
401.126	22.49
401.333	22.16
401.54	21.82
401.748	21.97
401.955	21.99
402.162	22.15
402.369	22.01
402.576	21.44
402.783	21.45
402.99	21.16
403.197	21.41
403.404	21.33
403.611	21.34
403.818	21.22
404.025	21.18
404.232	21.04
404.439	20.79
404.646	20.82
404.853	21.35
405.06	21.33
405.267	21.75
405.474	21.74
405.681	21.92
405.887	21.96
406.094	22.15
406.301	22.02
406.508	22.01
406.715	22
406.922	21.74
407.128	21.58
407.335	21.75
407.542	21.64
407.749	21.54
407.955	21.3
408.162	21.31
408.369	21.64
408.575	21.87
408.782	21.83
408.989	22.1
409.195	22.41
409.402	22.29
409.609	22.05
409.815	21.61
410.022	21.48
410.228	21.58
410.435	21.6
410.642	20.99
410.848	20.98
411.055	21.13
411.261	20.79
411.468	20.55
411.674	20.34
411.881	20.12
412.087	20.32
412.294	20.56
412.5	20.45
412.706	20.46
412.913	21.14
413.119	20.9
413.326	20.71
413.532	20.77
413.738	20.98
413.945	21.19
414.151	21.41
414.357	21.29
414.564	21.27
414.77	21.48
414.976	21.44
415.182	21.06
415.389	21.1
415.595	21.13
415.801	21.14
416.007	20.96
416.214	20.93
416.42	20.88
416.626	21.08
416.832	20.8
417.038	20.58
417.244	20.54
417.45	20.73
417.657	20.63
417.863	20.73
418.069	20.79
418.275	21
418.481	20.83
418.687	20.74
418.893	20.43
419.099	20.43
419.305	20.42
419.511	20.39
419.717	20.16
419.923	20.16
420.129	20.04
420.335	19.94
420.541	19.69
420.746	19.77
420.952	19.89
421.158	19.94
421.364	19.92
421.57	19.83
421.776	19.77
421.982	19.79
422.187	19.76
422.393	19.6
422.599	19.53
422.805	19.52
423.01	19.53
423.216	19.55
423.422	19.52
423.628	19.59
423.833	19.58
424.039	19.6
424.245	19.5
424.45	19.5
424.656	19.46
424.862	19.46
425.067	19.45
425.273	19.42
425.478	19.35
425.684	19.34
425.889	19.25
426.095	19.38
426.301	19.34
426.506	19.32
426.712	19.07
426.917	19.19
427.123	19.27
427.328	19.41
427.533	19.38
427.739	19.4
427.944	19.53
428.15	19.44
428.355	19.39
428.561	19.42
428.766	19.46
428.971	19.81
429.177	20.05
429.382	20.07
429.587	20.07
429.793	20.15
429.998	20.22
430.203	20.19
430.408	20.18
430.614	20
430.819	19.91
431.024	19.87
431.229	19.8
431.434	19.66
431.64	19.55
431.845	19.5
432.05	19.5
432.255	19.35
432.46	19.26
432.665	19.26
432.87	19.25
433.076	19.37
433.281	19.39
433.486	19.35
433.691	19.5
433.896	19.38
434.101	19.38
434.306	19.28
434.511	19.14
434.716	19.18
434.921	19.16
435.126	19.32
435.331	19.37
435.535	19.38
435.74	19.39
435.945	19.05
436.15	19.14
436.355	19.22
436.56	19.25
436.765	19.54
436.97	19.66
437.174	19.84
437.379	19.87
437.584	19.88
437.789	19.94
437.993	19.9
438.198	20
438.403	20.08
438.608	19.99
438.812	19.8
439.017	19.76
439.222	19.74
439.426	19.62
439.631	19.65
439.836	19.57
440.04	19.58
440.245	19.59
440.45	19.6
440.654	19.5
440.859	19.29
441.063	19.3
441.268	19.19
441.472	19.21
441.677	19.31
441.881	19.33
442.086	19.16
442.29	19.13
442.495	19.2
442.699	19.15
442.904	19.13
443.108	19.21
443.312	19.32
443.517	19.38
443.721	19.2
443.925	19.02
444.13	18.7
444.334	18.83
444.538	18.72
444.743	18.58
444.947	18.58
445.151	18.43
445.356	18.46
445.56	18.44
445.764	18.24
445.968	18.29
446.173	18.27
446.377	18.38
446.581	18.3
446.785	18.27
446.989	18.26
447.193	18.26
447.398	18.37
447.602	18.36
447.806	18.22
448.01	18.32
448.214	18.16
448.418	18.13
448.622	17.98
448.826	17.87
449.03	17.86
449.234	17.91
449.438	17.74
449.642	17.49
449.846	17.59
450.05	17.56
450.254	17.43
450.458	17.33
450.662	17.39
450.866	17.42
451.069	17.44
451.273	17.43
451.477	17.24
451.681	17.31
451.885	17.38
452.089	17.2
452.292	17.52
452.496	17.52
452.7	17.62
452.904	17.53
453.107	17.49
453.311	17.51
453.515	17.4
453.719	17.62
453.922	17.69
454.126	17.59
454.33	17.66
454.533	17.38
454.737	17.41
454.94	17.47
