Data from LC_270_Reflection_2.txt Node
Date: Sat Nov 21 12:08:33 EST 2015
User: robert
Spectrometer: USB4E03001
Autoset integration time: false
Trigger mode: 4
Integration Time (sec): 1.000000E-1
Scans to average: 15
Electric dark correction enabled: true
Nonlinearity correction enabled: false
Boxcar width: 5
Stray light correction enabled: false
XAxis mode: Wavelengths
Stop averaging: false
Number of Pixels in Spectrum: 3648
>>>>>Begin Spectral Data<<<<<
177.566	75.16
177.785	87.84
178.005	209.59
178.225	-32.24
178.445	-185.28
178.665	-1012.94
178.885	813.92
179.105	72.98
179.324	41.23
179.544	42.12
179.764	508.37
179.984	20.41
180.204	11.39
180.423	14.01
180.643	30.21
180.863	50.4
181.083	29.75
181.302	42.41
181.522	105.73
181.742	127.95
181.961	129.15
182.181	104.56
182.401	235.79
182.621	198.92
182.84	242.69
183.06	205.3
183.279	151.36
183.499	127.45
183.719	109.37
183.938	94.46
184.158	100.49
184.377	98.98
184.597	104.17
184.816	94.5
185.036	104.24
185.256	95.92
185.475	100.4
185.695	110.26
185.914	125.73
186.134	135.56
186.353	130.82
186.572	126.98
186.792	130.76
187.011	129.83
187.231	143.63
187.45	140.68
187.67	160.84
187.889	137.29
188.108	172.85
188.328	183.77
188.547	219.69
188.766	245.55
188.986	242.52
189.205	321.92
189.424	305.87
189.644	99.62
189.863	96.98
190.082	265.04
190.302	297.33
190.521	45.79
190.74	94.82
190.959	55.54
191.178	43.62
191.398	47.66
191.617	49.85
191.836	79.99
192.055	64.71
192.274	55.13
192.494	66.26
192.713	29.61
192.932	41.81
193.151	29.29
193.37	49.06
193.589	49.61
193.808	81.24
194.027	75.8
194.246	61.99
194.465	80.13
194.685	84.08
194.904	81.9
195.123	115.94
195.342	152.74
195.561	178.35
195.78	170.36
195.999	220.68
196.218	172.49
196.436	211.95
196.655	216.8
196.874	206.03
197.093	257.81
197.312	305.63
197.531	289.28
197.75	215.2
197.969	188.66
198.188	206.24
198.407	189.99
198.625	187.66
198.844	183.65
199.063	176.04
199.282	174.42
199.501	156.35
199.719	132.72
199.938	102.73
200.157	89.17
200.376	110.11
200.594	103.43
200.813	110.63
201.032	125.98
201.251	122.32
201.469	138.31
201.688	177.98
201.907	192.26
202.125	142.11
202.344	152.63
202.563	184.59
202.781	160.38
203	173.09
203.218	151.49
203.437	233.93
203.656	273.98
203.874	311.54
204.093	109.5
204.311	83.22
204.53	179.65
204.748	146.79
204.967	170.3
205.185	125.55
205.404	105.26
205.622	252.09
205.841	155.42
206.059	174.83
206.278	198.82
206.496	276.48
206.715	532.65
206.933	318.45
207.151	281.4
207.37	185.54
207.588	229.63
207.806	232.4
208.025	129.09
208.243	115.42
208.461	110.53
208.68	129.89
208.898	166.2
209.116	124.02
209.335	129.82
209.553	130.93
209.771	145.65
209.989	174.73
210.208	206.31
210.426	276.09
210.644	284.77
210.862	365.56
211.081	259.4
211.299	122.15
211.517	166.49
211.735	158.95
211.953	115.2
212.171	113.11
212.39	109
212.608	91.54
212.826	96.78
213.044	92.75
213.262	89.3
213.48	78.97
213.698	81.37
213.916	68.41
214.134	69.71
214.352	77.35
214.57	79.47
214.788	70.4
215.006	77.29
215.224	62.86
215.442	68.16
215.66	92.46
215.878	99.48
216.096	119.94
216.314	137.42
216.532	142.22
216.75	141.54
216.968	153.91
217.185	148.61
217.403	147.64
217.621	160.34
217.839	156.7
218.057	142.8
218.275	121.3
218.492	90.02
218.71	80.88
218.928	89.78
219.146	89.12
219.363	97.22
219.581	137.45
219.799	123.52
220.017	87.3
220.234	90.69
220.452	86.62
220.67	92.73
220.887	116.81
221.105	103.31
221.323	114.03
221.54	92.62
221.758	74.19
221.976	67.07
222.193	59.78
222.411	72.92
222.629	64.29
222.846	72.12
223.064	73.85
223.281	72.22
223.499	79.49
223.716	78.2
223.934	81.12
224.151	83.89
224.369	76.71
224.586	86.21
224.804	77.78
225.021	93.79
225.239	84.96
225.456	84.02
225.674	71.11
225.891	65.41
226.108	59.83
226.326	62.44
226.543	60.05
226.76	59.68
226.978	52.57
227.195	45.21
227.413	36.5
227.63	38.38
227.847	38.13
228.064	38.04
228.282	32.25
228.499	29.96
228.716	28.26
228.934	24.8
229.151	21.35
229.368	19.41
229.585	20.06
229.802	21.39
230.02	20.4
230.237	19.84
230.454	20.45
230.671	21.43
230.888	22.36
231.105	20.57
231.323	24.36
231.54	30.96
231.757	32.09
231.974	37.08
232.191	33.19
232.408	34.06
232.625	27.7
232.842	26
233.059	27.52
233.276	24.84
233.493	33.61
233.71	35.17
233.927	32
234.144	34.07
234.361	30.61
234.578	33.88
234.795	32.14
235.012	36.8
235.229	38.16
235.446	36.25
235.663	33.98
235.879	26.39
236.096	22.39
236.313	26.76
236.53	27.42
236.747	28.66
236.964	26.88
237.181	28.08
237.397	24.75
237.614	23.27
237.831	25.54
238.048	27.63
238.264	29.16
238.481	28.04
238.698	29.48
238.915	25.99
239.131	22.89
239.348	26.59
239.565	26.26
239.781	29.22
239.998	28.36
240.215	26.15
240.431	24.52
240.648	26.18
240.865	25.61
241.081	20.45
241.298	20.03
241.514	22.51
241.731	19.6
241.947	17.74
242.164	18.21
242.38	17.19
242.597	17.65
242.814	16.73
243.03	17.45
243.246	18.32
243.463	18.56
243.679	20.28
243.896	19.41
244.112	20.83
244.329	22.21
244.545	20.12
244.762	23.07
244.978	23.11
245.194	24.03
245.411	22.32
245.627	21.12
245.843	19.16
246.06	15.29
246.276	14.42
246.492	13.86
246.709	12.33
246.925	13.2
247.141	12.51
247.357	12.09
247.574	11.53
247.79	10.94
248.006	11
248.222	10.81
248.439	12.21
248.655	12.66
248.871	13.4
249.087	14.39
249.303	14.3
249.519	13.49
249.736	14.64
249.952	14.26
250.168	14.31
250.384	13.45
250.6	14.94
250.816	15.68
251.032	15.58
251.248	14.97
251.464	15.3
251.68	15.02
251.896	15.99
252.112	15.62
252.328	15.38
252.544	16.71
252.76	16.43
252.976	17.38
253.192	16.33
253.408	16.64
253.624	15.39
253.84	15.78
254.056	16.76
254.272	15.55
254.487	15.67
254.703	18.14
254.919	17.66
255.135	16.75
255.351	14.26
255.567	13.37
255.782	13.6
255.998	15
256.214	12.73
256.43	12.38
256.646	14.01
256.861	10.88
257.077	12.59
257.293	13.4
257.508	12.8
257.724	12.88
257.94	14.32
258.155	12.8
258.371	12.05
258.587	12.58
258.802	11.51
259.018	11.37
259.234	12.39
259.449	11.06
259.665	10.49
259.88	11.83
260.096	12.16
260.312	12.58
260.527	12.85
260.743	12.54
260.958	12.41
261.174	11.95
261.389	12.55
261.605	12.84
261.82	13.4
262.036	13.68
262.251	12.34
262.466	11.84
262.682	10.44
262.897	9.48
263.113	11.48
263.328	11.59
263.543	12.98
263.759	11.97
263.974	12.5
264.189	14.72
264.405	15.49
264.62	18.03
264.835	19.93
265.051	19.52
265.266	22.13
265.481	20.86
265.696	20.87
265.912	21.23
266.127	19.6
266.342	19.12
266.557	17.69
266.773	16.56
266.988	15.38
267.203	12.66
267.418	13.24
267.633	11.41
267.848	10.77
268.064	9.71
268.279	9.55
268.494	10.89
268.709	11.24
268.924	10.54
269.139	11.2
269.354	10.84
269.569	11.96
269.784	11.54
269.999	11.04
270.214	12.29
270.429	14.13
270.644	13.14
270.859	11.79
271.074	10.74
271.289	10.56
271.504	10.56
271.719	10.32
271.934	11.19
272.149	10.26
272.363	11.08
272.578	9.78
272.793	9.05
273.008	10.6
273.223	11.04
273.438	11.5
273.653	12.63
273.867	12.42
274.082	13.65
274.297	12.65
274.512	12.94
274.726	12.82
274.941	13.87
275.156	14.82
275.371	13.84
275.585	14.56
275.8	14.11
276.015	12.63
276.229	12.99
276.444	12.92
276.659	13.47
276.873	14.73
277.088	14.86
277.302	15.57
277.517	14.37
277.732	14.25
277.946	13.73
278.161	13.39
278.375	12.91
278.59	12.86
278.804	11.9
279.019	11.54
279.233	9.76
279.448	9.82
279.662	9.08
279.877	8.24
280.091	7.9
280.306	7.48
280.52	7.53
280.735	9.89
280.949	8.66
281.163	10.66
281.378	10.6
281.592	11.15
281.806	11.1
282.021	11.03
282.235	11.62
282.449	11.45
282.664	11.02
282.878	10.57
283.092	10.84
283.307	11.34
283.521	10
283.735	9.65
283.949	9.58
284.164	8.51
284.378	8.41
284.592	7.72
284.806	8.26
285.02	8.97
285.234	9.78
285.449	7.79
285.663	8.36
285.877	8.32
286.091	8.88
286.305	9.3
286.519	11.02
286.733	11.49
286.947	12.38
287.161	12.49
287.375	12.49
287.589	13.13
287.803	14.05
288.017	13.57
288.231	12.86
288.445	12.58
288.659	12.07
288.873	10.97
289.087	10.46
289.301	10.44
289.515	11
289.729	11.31
289.943	10.74
290.157	11.08
290.371	11.03
290.584	12.17
290.798	12.64
291.012	13.23
291.226	13.52
291.44	12.85
291.654	13.57
291.867	13.28
292.081	13.75
292.295	13.81
292.509	14.34
292.722	14.62
292.936	14.58
293.15	14.15
293.364	14.41
293.577	13.42
293.791	14.28
294.005	13.18
294.218	12.81
294.432	11.77
294.645	13.25
294.859	12.83
295.073	12.41
295.286	12.15
295.5	13.26
295.713	13.03
295.927	13.44
296.14	13.71
296.354	13.62
296.568	14.28
296.781	14.82
296.994	13.91
297.208	13.38
297.421	14.44
297.635	14.17
297.848	13.66
298.062	14.06
298.275	14.38
298.489	14.01
298.702	14.63
298.915	14.3
299.129	14.16
299.342	13.91
299.555	15.03
299.769	14.74
299.982	15.5
300.195	15.36
300.409	15.04
300.622	16.05
300.835	17.17
301.048	17.42
301.262	17.33
301.475	18.01
301.688	18.19
301.901	17.12
302.115	16.56
302.328	16.96
302.541	16.05
302.754	16.22
302.967	15.68
303.18	15.57
303.393	15.97
303.607	15.39
303.82	14.03
304.033	13.61
304.246	14.12
304.459	15.44
304.672	14.92
304.885	16.22
305.098	16.6
305.311	15.77
305.524	14.72
305.737	14.24
305.95	14.32
306.163	14.82
306.376	15.44
306.589	14.83
306.802	13.73
307.015	12.37
307.228	12.12
307.44	11.09
307.653	13.06
307.866	13.61
308.079	13.27
308.292	12.61
308.505	12.41
308.718	12.57
308.93	13.28
309.143	12.39
309.356	12.61
309.569	12.16
309.781	12.72
309.994	11.16
310.207	10.78
310.42	10.36
310.632	11.09
310.845	11.51
311.058	11.18
311.27	11.06
311.483	12.48
311.696	12.84
311.908	13.11
312.121	12.51
312.333	13.06
312.546	13.28
312.759	14.27
312.971	14.35
313.184	15.19
313.396	15.33
313.609	15.07
313.821	13.81
314.034	14.8
314.246	15.56
314.459	16.65
314.671	15.25
314.884	15.92
315.096	16.44
315.309	15.84
315.521	15.28
315.733	15.29
315.946	15.73
316.158	15.07
316.371	15.41
316.583	15.67
316.795	14.91
317.008	16.29
317.22	15.44
317.432	15.49
317.644	16.54
317.857	15.8
318.069	15.12
318.281	14.06
318.494	14.98
318.706	13.77
318.918	13.16
319.13	12.98
319.342	13.24
319.555	13.49
319.767	12.26
319.979	11.61
320.191	12.18
320.403	13.4
320.615	13.34
320.827	13.54
321.039	13.65
321.252	12.32
321.464	11.92
321.676	10.39
321.888	10.8
322.1	10.63
322.312	10.9
322.524	10.18
322.736	10.11
322.948	11.65
323.16	11.59
323.372	12.12
323.584	13.76
323.796	14.79
324.007	15.65
324.219	15.45
324.431	16.64
324.643	17.28
324.855	16.96
325.067	16.64
325.279	16.38
325.491	15.99
325.702	15.47
325.914	15.21
326.126	14.76
326.338	13.7
326.55	13.51
326.761	12.78
326.973	12.54
327.185	13.4
327.396	13.08
327.608	12.18
327.82	13.06
328.032	12.82
328.243	11.81
328.455	12.25
328.666	13.95
328.878	15.02
329.09	14.49
329.301	14.72
329.513	14.59
329.725	15.01
329.936	15.4
330.148	14.47
330.359	15.29
330.571	16.16
330.782	16.12
330.994	15.2
331.205	14.31
331.417	14.47
331.628	14.1
331.84	14.24
332.051	14.03
332.262	13.76
332.474	14.11
332.685	14.54
332.897	14.69
333.108	13.56
333.319	13.83
333.531	13.62
333.742	13.26
333.953	13.35
334.165	13.8
334.376	13.16
334.587	14.52
334.799	15.32
335.01	14.66
335.221	15.02
335.432	15.52
335.644	15.46
335.855	15.72
336.066	16.78
336.277	16.95
336.488	15.61
336.7	15.93
336.911	15.46
337.122	14.94
337.333	15.33
337.544	14.67
337.755	14.7
337.966	14.73
338.177	14.54
338.388	14.06
338.599	13.98
338.811	14.73
339.022	14.76
339.233	13.88
339.444	13.85
339.655	12.98
339.866	13.65
340.076	13.9
340.287	14.32
340.498	14.5
340.709	14.88
340.92	15.45
341.131	15.97
341.342	16.27
341.553	17.61
341.764	17.39
341.975	18.26
342.185	17.18
342.396	17.51
342.607	17.3
342.818	17.17
343.029	17
343.239	16.9
343.45	15.52
343.661	15.52
343.872	14.5
344.082	15.29
344.293	14.37
344.504	14.49
344.714	13.8
344.925	13.38
345.136	13.48
345.346	13.59
345.557	12.67
345.768	12.89
345.978	12.01
346.189	11.87
346.399	11.16
346.61	11.81
346.821	12.11
347.031	11.7
347.242	11.69
347.452	11.61
347.663	10.95
347.873	11.2
348.084	11.57
348.294	12.01
348.504	12.54
348.715	12.47
348.925	12.38
349.136	11.98
349.346	13
349.557	12.64
349.767	11.94
349.977	12.07
350.188	12.76
350.398	13.1
350.608	13.5
350.819	13.84
351.029	14.04
351.239	14.6
351.449	14.86
351.66	14.88
351.87	16.22
352.08	17.11
352.29	17.16
352.501	15.94
352.711	15.92
352.921	15.72
353.131	15.2
353.341	15.44
353.552	14.31
353.762	13.78
353.972	13.18
354.182	12.93
354.392	12.59
354.602	12.35
354.812	12.9
355.022	12.26
355.232	12.17
355.442	12
355.652	11.93
355.862	12.36
356.072	12.74
356.282	12.79
356.492	11.99
356.702	11.96
356.912	11.88
357.122	12.21
357.332	12.26
357.542	11.95
357.752	12.15
357.962	12.07
358.171	12.17
358.381	12.67
358.591	12.72
358.801	13.36
359.011	13.5
359.221	13.35
359.43	13.01
359.64	13.41
359.85	13.86
360.06	13.41
360.269	13.57
360.479	13.64
360.689	12.5
360.899	12.39
361.108	11.77
361.318	11.52
361.528	12.14
361.737	11.8
361.947	11.7
362.156	11.57
362.366	11.88
362.576	11.41
362.785	11
362.995	11.74
363.204	11.46
363.414	11.51
363.623	12.24
363.833	11.75
364.042	11.96
364.252	11.52
364.461	11.12
364.671	10.94
364.88	11.06
365.09	10.54
365.299	10.17
365.509	10.29
365.718	10.35
365.927	9.67
366.137	9.06
366.346	9.11
366.555	9.4
366.765	9.83
366.974	9.95
367.183	9.63
367.393	10.06
367.602	10.38
367.811	10.36
368.021	10.68
368.23	10.67
368.439	11.03
368.648	10.49
368.857	10.3
369.067	9.91
369.276	9.88
369.485	10.19
369.694	10.12
369.903	9.67
370.112	10.5
370.321	10.19
370.531	9.6
370.74	10.05
370.949	10.39
371.158	10.49
371.367	10.92
371.576	10.73
371.785	10.94
371.994	11.45
372.203	11.7
372.412	11.11
372.621	11.06
372.83	11.49
373.039	11.34
373.248	11.19
373.457	11.32
373.666	11.12
373.874	10.69
374.083	10.82
374.292	10.41
374.501	10.54
374.71	10.17
374.919	10.15
375.128	10.37
375.336	10.45
375.545	10.59
375.754	10.17
375.963	10
376.171	10.2
376.38	9.78
376.589	9.58
376.798	9.28
377.006	9.68
377.215	9.61
377.424	9.16
377.632	9
377.841	8.96
378.05	9.14
378.258	9.35
378.467	9.58
378.675	9.34
378.884	9.31
379.093	9.02
379.301	8.93
379.51	8.99
379.718	9.25
379.927	9.38
380.135	9.17
380.344	9.4
380.552	8.88
380.761	8.91
380.969	9.23
381.177	9.35
381.386	9.31
381.594	9.2
381.803	9.1
382.011	9
382.219	8.84
382.428	8.97
382.636	8.5
382.845	9.09
383.053	9.12
383.261	9.17
383.469	8.95
383.678	9.17
383.886	8.97
384.094	8.73
384.302	8.23
384.511	8.41
384.719	8.25
384.927	8.56
385.135	8.56
385.343	8.51
385.552	8.38
385.76	8.69
385.968	8.76
386.176	8.85
386.384	9.2
386.592	9.43
386.8	9.1
387.008	9.26
387.216	9.39
387.424	9.05
387.633	8.66
387.841	8.5
388.049	8.24
388.257	8.21
388.465	8.09
388.672	8.03
388.88	7.88
389.088	7.53
389.296	7.26
389.504	7.05
389.712	6.93
389.92	7.28
390.128	7.21
390.336	7.48
390.544	7.39
390.751	7.56
390.959	7.49
391.167	7.76
391.375	8.08
391.583	8.31
391.79	8.36
391.998	8.71
392.206	8.63
392.414	8.49
392.621	8.08
392.829	7.98
393.037	8.01
393.244	7.98
393.452	7.87
393.66	7.91
393.867	7.97
394.075	8.09
394.283	7.78
394.49	7.64
394.698	8.01
394.905	8.28
395.113	8.59
395.32	8.51
395.528	8.65
395.735	8.58
395.943	8.56
396.15	8.61
396.358	8.19
396.565	8.13
396.773	8.35
396.98	8.46
397.188	8.37
397.395	7.98
397.602	7.84
397.81	7.78
398.017	7.74
398.225	7.78
398.432	7.78
398.639	7.93
398.847	8.06
399.054	7.79
399.261	7.73
399.468	8.01
399.676	8.44
399.883	8.56
400.09	8.72
400.297	9.08
400.505	9.17
400.712	8.66
400.919	8.59
401.126	8.78
401.333	8.96
401.54	8.92
401.748	8.55
401.955	8.32
402.162	8.49
402.369	8.17
402.576	8.03
402.783	7.74
402.99	7.67
403.197	7.89
403.404	7.64
403.611	7.65
403.818	7.29
404.025	7.32
404.232	7.33
404.439	7.03
404.646	7
404.853	6.88
405.06	6.78
405.267	7.33
405.474	7.2
405.681	7.29
405.887	7.09
406.094	7.36
406.301	7.3
406.508	7.25
406.715	7.16
406.922	7.12
407.128	7.33
407.335	7.49
407.542	7.48
407.749	7.48
407.955	7.57
408.162	7.6
408.369	7.84
408.575	7.99
408.782	8.09
408.989	8.28
409.195	8.4
409.402	8.3
409.609	8.54
409.815	7.98
410.022	7.88
410.228	7.8
410.435	7.83
410.642	7.39
410.848	7.42
411.055	7.19
411.261	7.02
411.468	7.11
411.674	6.96
411.881	6.8
412.087	7.06
412.294	7.48
412.5	7.24
412.706	7.37
412.913	7.44
413.119	7.52
413.326	7.71
413.532	7.9
413.738	7.99
413.945	8.15
414.151	8.01
414.357	7.87
414.564	7.72
414.77	8.12
414.976	8.09
415.182	7.99
415.389	7.97
415.595	7.91
415.801	8
416.007	7.65
416.214	7.64
416.42	7.56
416.626	7.8
416.832	7.39
417.038	7.19
417.244	7.2
417.45	7.29
417.657	7.32
417.863	7.21
418.069	7.17
418.275	7.34
418.481	7.27
418.687	7.31
418.893	7.11
419.099	7.13
419.305	7.11
419.511	7.11
419.717	7
419.923	6.86
420.129	6.95
420.335	6.85
420.541	6.77
420.746	6.6
420.952	6.65
421.158	6.65
421.364	6.76
421.57	6.76
421.776	6.72
421.982	6.81
422.187	6.89
422.393	6.79
422.599	6.73
422.805	6.83
423.01	7
423.216	6.98
423.422	7.12
423.628	7.1
423.833	7.11
424.039	7.02
424.245	6.91
424.45	6.93
424.656	6.92
424.862	7.16
425.067	7.07
425.273	7.05
425.478	7.05
425.684	7.07
425.889	7.13
426.095	7.09
426.301	7.19
426.506	7.28
426.712	7.09
426.917	7.04
427.123	6.79
427.328	6.8
427.533	6.87
427.739	6.86
427.944	6.81
428.15	6.59
428.355	6.74
428.561	6.82
428.766	6.9
428.971	6.99
429.177	7.22
429.382	7.47
429.587	7.36
429.793	7.27
429.998	7.4
430.203	7.2
430.408	7.44
430.614	7.34
430.819	7.14
431.024	7.05
431.229	7.24
431.434	7.16
431.64	6.87
431.845	6.95
432.05	7.04
432.255	6.9
432.46	6.85
432.665	6.68
432.87	6.72
433.076	6.75
433.281	6.73
433.486	6.58
433.691	6.71
433.896	6.86
434.101	6.79
434.306	6.59
434.511	6.56
434.716	6.56
434.921	6.41
435.126	6.49
435.331	6.62
435.535	6.68
435.74	6.56
435.945	6.29
436.15	6.12
436.355	6.18
436.56	6.27
436.765	6.28
436.97	6.35
437.174	6.59
437.379	6.56
437.584	6.59
437.789	6.56
437.993	6.77
438.198	6.75
438.403	6.76
438.608	6.8
438.812	6.84
439.017	6.82
439.222	6.87
439.426	6.8
439.631	6.8
439.836	6.7
440.04	6.76
440.245	6.66
440.45	6.72
440.654	6.71
440.859	6.56
441.063	6.58
441.268	6.64
441.472	6.6
441.677	6.61
441.881	6.57
442.086	6.55
442.29	6.56
442.495	6.64
442.699	6.67
442.904	6.72
443.108	6.61
443.312	6.53
443.517	6.51
443.721	6.66
443.925	6.49
444.13	6.44
444.334	6.45
444.538	6.37
444.743	6.32
444.947	6.23
445.151	6.09
445.356	6.28
445.56	6.36
445.764	6.27
445.968	6.17
446.173	6.32
446.377	6.42
446.581	6.47
446.785	6.38
446.989	6.37
447.193	6.55
447.398	6.75
447.602	6.74
447.806	6.67
448.01	6.69
448.214	6.68
448.418	6.59
448.622	6.41
448.826	6.31
449.03	6.43
449.234	6.36
449.438	6.24
449.642	6.01
449.846	6.14
450.05	6.24
450.254	6.34
450.458	6.25
450.662	6.55
450.866	6.56
451.069	6.58
451.273	6.42
451.477	6.39
451.681	6.27
451.885	6.36
452.089	6.24
452.292	6.26
452.496	6.16
452.7	6.18
452.904	5.83
453.107	5.83
453.311	5.82
453.515	5.89
453.719	6.03
453.922	6.13
454.126	6.09
454.33	6.1
454.533	5.85
454.737	5.85
454.94	6.02
455.144	6.36
455.348	6.37
455.551	6.43
455.755	6.46
455.958	6.47
456.162	6.61
456.365	6.7
456.569	6.87
456.772	6.89
456.976	6.83
457.179	6.66
457.383	6.45
457.586	6.46
457.79	6.48
457.993	6.45
458.196	6.53
458.4	6.41
458.603	6.37
458.807	6.2
459.01	6.26
459.213	6.39
459.417	6.39
459.62	6.46
459.823	6.38
460.026	6.31
460.23	6.25
460.433	6.05
460.636	6.02
460.839	6.03
461.042	6.17
461.246	6.11
461.449	6.14
461.652	6.14
461.855	6.09
462.058	6.37
