Data from LC_276_Reflection_1.txt Node
Date: Sat Nov 21 12:26:06 EST 2015
User: robert
Spectrometer: USB4E03001
Autoset integration time: false
Trigger mode: 4
Integration Time (sec): 1.000000E-1
Scans to average: 15
Electric dark correction enabled: true
Nonlinearity correction enabled: false
Boxcar width: 5
Stray light correction enabled: false
XAxis mode: Wavelengths
Stop averaging: false
Number of Pixels in Spectrum: 3648
>>>>>Begin Spectral Data<<<<<
177.566	35.52
177.785	-25.06
178.005	-21.79
178.225	68.23
178.445	317.38
178.665	458.24
178.885	-488.66
179.105	44.44
179.324	83.26
179.544	210.46
179.764	871.98
179.984	131.09
180.204	164.02
180.423	150.04
180.643	142.8
180.863	260.09
181.083	276.08
181.302	289.48
181.522	263.73
181.742	292.48
181.961	231.64
182.181	209.13
182.401	414.88
182.621	358.27
182.84	354.76
183.06	305.07
183.279	215.78
183.499	209.69
183.719	201.22
183.938	194.73
184.158	208.96
184.377	208.01
184.597	212.58
184.816	195.52
185.036	211.22
185.256	216.18
185.475	195.41
185.695	191.73
185.914	182.46
186.134	179.52
186.353	203.83
186.572	213.53
186.792	206
187.011	196.39
187.231	216.01
187.45	209.38
187.67	235.36
187.889	260.87
188.108	379.59
188.328	468.21
188.547	523.79
188.766	541.41
188.986	559.47
189.205	1026.67
189.424	2082.1
189.644	1338.61
189.863	-927.58
190.082	-1771.6
190.302	3156.13
190.521	422.34
190.74	408.35
190.959	481.47
191.178	409.74
191.398	220.97
191.617	232.1
191.836	248.59
192.055	264.34
192.274	165.36
192.494	162.18
192.713	149.91
192.932	159.67
193.151	168.02
193.37	152.58
193.589	157.43
193.808	225.56
194.027	211.61
194.246	193.15
194.465	170.44
194.685	199.13
194.904	195.61
195.123	235.96
195.342	310.31
195.561	343.23
195.78	300.2
195.999	364.93
196.218	339.38
196.436	442.26
196.655	473.78
196.874	428.75
197.093	434.69
197.312	474.57
197.531	385.73
197.75	284.67
197.969	231.05
198.188	261.88
198.407	247.09
198.625	227.27
198.844	202.28
199.063	193.63
199.282	195.91
199.501	212.23
199.719	228.68
199.938	260.01
200.157	264.35
200.376	270.96
200.594	256.23
200.813	232.33
201.032	251.97
201.251	230.59
201.469	283.75
201.688	435.19
201.907	391.67
202.125	258.72
202.344	251.37
202.563	295.59
202.781	357.29
203	392.16
203.218	381.1
203.437	674.58
203.656	1285.2
203.874	1264.85
204.093	546.84
204.311	459.96
204.53	762.6
204.748	671.07
204.967	624.56
205.185	423.38
205.404	418.5
205.622	885.31
205.841	585.47
206.059	412.25
206.278	371.53
206.496	401.54
206.715	802.85
206.933	502.83
207.151	449.08
207.37	339.65
207.588	521.67
207.806	449.01
208.025	289.46
208.243	262.85
208.461	260.85
208.68	278.57
208.898	317.37
209.116	233.08
209.335	239.66
209.553	270.87
209.771	348.26
209.989	312.16
210.208	379.25
210.426	452.47
210.644	458.58
210.862	775.33
211.081	636.25
211.299	344.34
211.517	377.81
211.735	372.35
211.953	320.54
212.171	252.88
212.39	263.36
212.608	220.55
212.826	228.51
213.044	229.02
213.262	195.3
213.48	188
213.698	196.58
213.916	246.2
214.134	208.61
214.352	200.67
214.57	184.61
214.788	181.96
215.006	187.46
215.224	179.08
215.442	177.88
215.66	202.22
215.878	211.82
216.096	238.92
216.314	211.66
216.532	208.88
216.75	205.47
216.968	227.99
217.185	177.74
217.403	219.94
217.621	248.16
217.839	224.95
218.057	230.3
218.275	213.44
218.492	184.5
218.71	182.35
218.928	217.64
219.146	231.62
219.363	225.5
219.581	465.34
219.799	309.85
220.017	205.47
220.234	244.56
220.452	205.95
220.67	188.11
220.887	237.53
221.105	222.16
221.323	247.29
221.54	228.44
221.758	196.99
221.976	151.38
222.193	167.77
222.411	164.35
222.629	110.99
222.846	120.46
223.064	121.5
223.281	112.6
223.499	106.65
223.716	93.72
223.934	114.45
224.151	126.85
224.369	137.83
224.586	128.76
224.804	119
225.021	165.3
225.239	156.56
225.456	150.08
225.674	128.16
225.891	117.1
226.108	111.35
226.326	101.18
226.543	91.01
226.76	86.51
226.978	79.54
227.195	79.52
227.413	67.77
227.63	59.8
227.847	57.37
228.064	52.9
228.282	49.45
228.499	45.76
228.716	42.62
228.934	41.41
229.151	38.67
229.368	33.77
229.585	31.4
229.802	32.17
230.02	32.83
230.237	34.05
230.454	34.51
230.671	33.17
230.888	35.01
231.105	35.05
231.323	38.78
231.54	42.17
231.757	48.49
231.974	56.31
232.191	57.42
232.408	57.72
232.625	56.03
232.842	57.5
233.059	62.24
233.276	64.83
233.493	66.38
233.71	61.53
233.927	55.86
234.144	57.1
234.361	52.01
234.578	49.33
234.795	50.01
235.012	49.76
235.229	45.53
235.446	42.87
235.663	40.21
235.879	37.75
236.096	38.75
236.313	45.02
236.53	45.94
236.747	48.85
236.964	45.33
237.181	44.65
237.397	43.51
237.614	50.95
237.831	48.68
238.048	45.49
238.264	42.67
238.481	37.98
238.698	36.49
238.915	32.42
239.131	25.12
239.348	30.13
239.565	31.66
239.781	31.29
239.998	28.79
240.215	27.97
240.431	24.81
240.648	25.19
240.865	25.58
241.081	20.55
241.298	19.25
241.514	23.59
241.731	23.07
241.947	21.71
242.164	22.29
242.38	20.31
242.597	21.34
242.814	22.65
243.03	22.91
243.246	24.44
243.463	25.69
243.679	28.01
243.896	26.33
244.112	27.89
244.329	29.61
244.545	29.62
244.762	33.25
244.978	33.84
245.194	31.88
245.411	32.24
245.627	29.01
245.843	26.36
246.06	22.68
246.276	21.33
246.492	19.38
246.709	17.09
246.925	16.14
247.141	15.81
247.357	14.98
247.574	15.19
247.79	14.43
248.006	14.18
248.222	13.56
248.439	14.06
248.655	15.06
248.871	15.87
249.087	16.25
249.303	16.94
249.519	17.31
249.736	18.74
249.952	19.98
250.168	22.91
250.384	24.36
250.6	28.45
250.816	29.66
251.032	29.04
251.248	28.34
251.464	29.26
251.68	27.91
251.896	26.71
252.112	25.31
252.328	23.77
252.544	22.73
252.76	21.88
252.976	20.61
253.192	19.41
253.408	19.36
253.624	19.07
253.84	19.76
254.056	19.53
254.272	19.2
254.487	21.19
254.703	22.4
254.919	21.5
255.135	22.93
255.351	24.92
255.567	22.4
255.782	22.86
255.998	22.04
256.214	19.47
256.43	21.16
256.646	22.12
256.861	20.07
257.077	19.84
257.293	21.3
257.508	21.21
257.724	20.86
257.94	24.85
258.155	24.04
258.371	23.29
258.587	21.97
258.802	20.92
259.018	18.31
259.234	17.93
259.449	17
259.665	15.65
259.88	15.62
260.096	15.18
260.312	13.75
260.527	13.08
260.743	12.9
260.958	13.64
261.174	13.28
261.389	14.28
261.605	14.89
261.82	15.41
262.036	15.76
262.251	14.79
262.466	15.36
262.682	16.32
262.897	16.07
263.113	18.25
263.328	19.74
263.543	22.17
263.759	21.92
263.974	22.24
264.189	23.2
264.405	24.78
264.62	26.78
264.835	26.05
265.051	25.9
265.266	28.72
265.481	26.62
265.696	26.09
265.912	23.75
266.127	23.15
266.342	21.75
266.557	20.7
266.773	19.27
266.988	18.85
267.203	17.84
267.418	18.25
267.633	17.14
267.848	17.07
268.064	15.13
268.279	15.34
268.494	16.54
268.709	17.25
268.924	17.06
269.139	17.26
269.354	16.24
269.569	15.66
269.784	15.22
269.999	14.46
270.214	14.67
270.429	15.98
270.644	14.03
270.859	12.97
271.074	11.86
271.289	11.47
271.504	11.76
271.719	10.6
271.934	11.7
272.149	11.01
272.363	11.35
272.578	9.82
272.793	8.7
273.008	10.85
273.223	11.02
273.438	11.65
273.653	13.25
273.867	13.22
274.082	14.85
274.297	14.26
274.512	15.84
274.726	16.33
274.941	17.77
275.156	19.73
275.371	18.97
275.585	20.53
275.8	19.61
276.015	17.86
276.229	17.02
276.444	17.73
276.659	19.14
276.873	18.43
277.088	19.1
277.302	20.01
277.517	18.74
277.732	17.97
277.946	16.76
278.161	17.9
278.375	19.03
278.59	20.9
278.804	18.88
279.019	17.62
279.233	17.27
279.448	15.31
279.662	14.48
279.877	13.68
280.091	14.6
280.306	13.89
280.52	13.59
280.735	13.74
280.949	12.32
281.163	13.38
281.378	13.6
281.592	12.04
281.806	13.66
282.021	13.59
282.235	14.71
282.449	14.67
282.664	14.38
282.878	13.74
283.092	14.09
283.307	14.25
283.521	14.28
283.735	13.85
283.949	15.15
284.164	13.61
284.378	13.66
284.592	12.68
284.806	12.55
285.02	12.28
285.234	12.1
285.449	11.17
285.663	11.05
285.877	11.09
286.091	11.96
286.305	12.06
286.519	13.2
286.733	13.32
286.947	13.66
287.161	14.22
287.375	15.36
287.589	16.77
287.803	17.18
288.017	17.51
288.231	17.31
288.445	16.5
288.659	16.53
288.873	16.17
289.087	15.76
289.301	15.23
289.515	14.74
289.729	14.24
289.943	14.05
290.157	13.62
290.371	13.78
290.584	14.44
290.798	14.8
291.012	14.82
291.226	14.75
291.44	15.35
291.654	16.52
291.867	16.92
292.081	17.23
292.295	16.84
292.509	17.6
292.722	18.33
292.936	18.77
293.15	18.39
293.364	18.01
293.577	17.52
293.791	18.11
294.005	17.69
294.218	16.69
294.432	16.71
294.645	17.19
294.859	16.82
295.073	15.86
295.286	15.02
295.5	15.58
295.713	15.76
295.927	16.2
296.14	15.59
296.354	15.32
296.568	15.9
296.781	15.58
296.994	15.51
297.208	15.23
297.421	15.55
297.635	15.98
297.848	15.44
298.062	15.62
298.275	15.53
298.489	15.33
298.702	15.16
298.915	14.72
299.129	15.21
299.342	14.25
299.555	15.12
299.769	15.42
299.982	14.98
300.195	16.38
300.409	17.27
300.622	17.01
300.835	17.45
301.048	18.63
301.262	18.58
301.475	18.32
301.688	19.18
301.901	18.48
302.115	18.03
302.328	18.61
302.541	17.72
302.754	16.82
302.967	17.84
303.18	17.72
303.393	17.11
303.607	17.7
303.82	17.5
304.033	16.46
304.246	16.89
304.459	16.82
304.672	17.01
304.885	17.97
305.098	18.31
305.311	17.82
305.524	17.29
305.737	17.42
305.95	17.11
306.163	16.54
306.376	17.21
306.589	17.4
306.802	17.07
307.015	16.87
307.228	16.12
307.44	16.32
307.653	17.89
307.866	18.65
308.079	18.3
308.292	18.03
308.505	19.38
308.718	20.49
308.93	19.56
309.143	18.52
309.356	17.87
309.569	17.11
309.781	17.14
309.994	15.56
310.207	15.01
310.42	14.71
310.632	14.48
310.845	14.25
311.058	13.55
311.27	13.83
311.483	15.36
311.696	14.91
311.908	15.45
312.121	14.39
312.333	15.59
312.546	16.6
312.759	17.51
312.971	18.46
313.184	19.71
313.396	20.31
313.609	20.33
313.821	20.52
314.034	21.95
314.246	22.47
314.459	24.29
314.671	23.46
314.884	22.68
315.096	22.38
315.309	21.32
315.521	19.59
315.733	18.9
315.946	18.83
316.158	18.76
316.371	19.43
316.583	19.39
316.795	18.72
317.008	18.45
317.22	18.91
317.432	19.61
317.644	21.36
317.857	22.1
318.069	21.83
318.281	22.7
318.494	22.94
318.706	22.67
318.918	21.63
319.13	21.63
319.342	21.43
319.555	20.76
319.767	20.69
319.979	20.06
320.191	20.46
320.403	22.1
320.615	21.14
320.827	21.35
321.039	20.44
321.252	21.25
321.464	20.67
321.676	20.75
321.888	22.11
322.1	22.29
322.312	22.3
322.524	21.15
322.736	20.37
322.948	22.98
323.16	22.1
323.372	22.74
323.584	22.86
323.796	23.2
324.007	23.89
324.219	23.73
324.431	23.35
324.643	23.93
324.855	23.93
325.067	24.52
325.279	22.77
325.491	23.85
325.702	23.96
325.914	24.95
326.126	25.46
326.338	25.18
326.55	25.72
326.761	25.97
326.973	26.19
327.185	28.01
327.396	27.87
327.608	28.27
327.82	28.58
328.032	28.34
328.243	28.23
328.455	28.44
328.666	29.46
328.878	30.55
329.09	30.77
329.301	31.91
329.513	30.68
329.725	32.51
329.936	33.35
330.148	32.61
330.359	34.4
330.571	35.1
330.782	35.97
330.994	36.76
331.205	36.07
331.417	37.44
331.628	37.77
331.84	38.82
332.051	38.8
332.262	39.35
332.474	40.54
332.685	40.46
332.897	40.04
333.108	40.02
333.319	40.16
333.531	41.2
333.742	41.2
333.953	40.84
334.165	41.22
334.376	40.59
334.587	41.95
334.799	42.39
335.01	43.37
335.221	44.55
335.432	45.44
335.644	45.39
335.855	45.24
336.066	46.31
336.277	46.76
336.488	46.69
336.7	46.2
336.911	45.85
337.122	46.18
337.333	46.05
337.544	45.49
337.755	46
337.966	45.94
338.177	45.46
338.388	44.95
338.599	45.13
338.811	45.46
339.022	45.72
339.233	45.25
339.444	44.59
339.655	44.53
339.866	44.88
340.076	43.87
340.287	43.93
340.498	44.34
340.709	43.78
340.92	43.63
341.131	43.63
341.342	44.09
341.553	44.22
341.764	44.46
341.975	44.3
342.185	43.51
342.396	44.13
342.607	44
342.818	44.75
343.029	44.97
343.239	45.25
343.45	44.08
343.661	44.5
343.872	43.92
344.082	44.41
344.293	43.91
344.504	44.89
344.714	44.57
344.925	44.76
345.136	44.01
345.346	44.71
345.557	44.09
345.768	45.13
345.978	44.62
346.189	44.99
346.399	44.67
346.61	45.15
346.821	44.92
347.031	44.63
347.242	45.16
347.452	45.68
347.663	45.15
347.873	45.68
348.084	45.17
348.294	45.27
348.504	45.35
348.715	45.59
348.925	45.21
349.136	44.45
349.346	45.19
349.557	44.05
349.767	44.26
349.977	44.07
350.188	42.84
350.398	43.25
350.608	43.18
350.819	43.23
351.029	42.16
351.239	42.51
351.449	43.16
351.66	43.2
351.87	44.21
352.08	43.29
352.29	42.45
352.501	43.22
352.711	43.02
352.921	43.05
353.131	42.79
353.341	42.57
353.552	42.22
353.762	41.63
353.972	40.89
354.182	40.84
354.392	42.08
354.602	42.58
354.812	43.29
355.022	43.48
355.232	43.62
355.442	43.89
355.652	44.51
355.862	44.4
356.072	44.14
356.282	44.38
356.492	43.6
356.702	42.52
356.912	42.62
357.122	42.15
357.332	41.72
357.542	41.18
357.752	40.96
357.962	40.79
358.171	40.46
358.381	40.93
358.591	40.77
358.801	41.25
359.011	40.97
359.221	40.44
359.43	40.17
359.64	40.34
359.85	40.45
360.06	40.14
360.269	40.19
360.479	39.86
360.689	39.73
360.899	39.83
361.108	39.02
361.318	38.8
361.528	39.07
361.737	39.3
361.947	39.66
362.156	39.58
362.366	40.06
362.576	39.96
362.785	40.08
362.995	40.49
363.204	40.03
363.414	40.43
363.623	41.19
363.833	40.61
364.042	40.25
364.252	39.32
364.461	39.44
364.671	38.95
364.88	39.06
365.09	39.57
365.299	39.36
365.509	38.93
365.718	38.6
365.927	38.34
366.137	38.55
366.346	38.61
366.555	38.96
366.765	38.84
366.974	38.43
367.183	38.18
367.393	38.32
367.602	38.13
367.811	39.26
368.021	39.28
368.23	38.89
368.439	38.41
368.648	38.08
368.857	37.77
369.067	37.52
369.276	37.9
369.485	37.83
369.694	37.09
369.903	36.78
370.112	35.93
370.321	36.1
370.531	35.55
370.74	36.3
370.949	36.32
371.158	36.52
371.367	36.45
371.576	36.18
371.785	36
371.994	35.98
372.203	35.67
372.412	35.91
372.621	35.59
372.83	36.05
373.039	35.88
373.248	35.73
373.457	35.24
373.666	35.15
373.874	34.62
374.083	34.6
374.292	34.61
374.501	34.68
374.71	34.1
374.919	34.31
375.128	34.03
375.336	33.71
375.545	33.8
375.754	33.91
375.963	33.65
376.171	33.79
376.38	33.87
376.589	33.78
376.798	33.27
377.006	33.73
377.215	33.47
377.424	33.42
377.632	33.31
377.841	32.98
378.05	32.64
378.258	32.55
378.467	32.38
378.675	31.99
378.884	31.44
379.093	31.75
379.301	31.16
379.51	31.26
379.718	31.54
379.927	31.9
380.135	31.8
380.344	31.89
380.552	31.45
380.761	31.56
380.969	31.63
381.177	31.81
381.386	31.63
381.594	31.34
381.803	30.85
382.011	30.55
382.219	29.8
382.428	29.81
382.636	29.63
382.845	30.41
383.053	30.32
383.261	30.4
383.469	30.06
383.678	29.99
383.886	29.99
384.094	29.75
384.302	29.02
384.511	28.98
384.719	28.58
384.927	28.83
385.135	28.64
385.343	28.72
385.552	28.6
385.76	28.85
385.968	28.58
386.176	28.59
386.384	28.56
386.592	28.59
386.8	28.46
387.008	28.56
387.216	28.61
387.424	28.38
387.633	27.8
387.841	27.05
388.049	26.61
388.257	26.79
388.465	26.79
388.672	26.86
388.88	26.7
389.088	26.4
389.296	26.22
389.504	25.54
389.712	25.21
389.92	25.16
390.128	25.48
390.336	25.39
390.544	25.09
390.751	25.05
390.959	25.09
391.167	25.09
391.375	25.2
391.583	25.25
391.79	25.07
391.998	25.18
392.206	25.38
392.414	25.04
392.621	25.11
392.829	24.84
393.037	24.57
393.244	24.38
393.452	24.18
393.66	24.29
393.867	24.36
394.075	24.81
394.283	24.48
394.49	24.38
394.698	24.58
394.905	24.54
395.113	24.5
395.32	24.45
395.528	24.34
395.735	24.43
395.943	24.09
396.15	24.03
396.358	23.53
396.565	23.42
396.773	23.43
396.98	23.39
397.188	23.33
397.395	23.41
397.602	23.64
397.81	23.54
398.017	23.59
398.225	23.7
398.432	23.65
398.639	23.71
398.847	23.82
399.054	23.61
399.261	23.59
399.468	23.57
399.676	23.86
399.883	23.74
400.09	24.24
400.297	24.19
400.505	24.35
400.712	24.01
400.919	24.17
401.126	24.23
401.333	24.28
401.54	24.38
401.748	24.28
401.955	24.18
402.162	24.38
402.369	24
402.576	23.69
402.783	23.48
402.99	23.42
403.197	23.21
403.404	23.39
403.611	23.53
403.818	23.29
404.025	23.27
404.232	22.98
404.439	22.76
404.646	22.56
404.853	22.91
405.06	22.91
405.267	23.25
405.474	23.21
405.681	22.97
405.887	22.63
406.094	22.66
406.301	22.65
406.508	22.89
406.715	22.87
406.922	22.97
407.128	23.05
407.335	22.86
407.542	22.83
407.749	22.95
407.955	23.07
408.162	23.27
408.369	23.29
408.575	23.39
408.782	23.27
408.989	23.35
409.195	23.5
409.402	23.56
409.609	23.77
409.815	23.48
410.022	23.53
410.228	23.52
410.435	23.68
410.642	23.64
410.848	23.73
411.055	23.83
411.261	23.88
411.468	23.89
411.674	23.71
411.881	23.5
412.087	23.79
412.294	24.04
412.5	24.03
412.706	23.69
412.913	23.85
413.119	23.76
413.326	23.6
413.532	23.43
413.738	23.43
413.945	23.35
414.151	23.55
414.357	23.34
414.564	23.4
414.77	23.56
414.976	23.67
415.182	23.63
415.389	23.69
415.595	23.67
415.801	23.55
416.007	23.5
416.214	23.7
416.42	23.71
416.626	24.01
416.832	23.77
417.038	23.73
417.244	23.72
417.45	23.76
417.657	23.64
417.863	23.82
418.069	23.94
418.275	23.96
418.481	23.83
418.687	23.76
418.893	23.32
419.099	23.19
419.305	23.14
419.511	23.12
419.717	23.08
419.923	23.02
420.129	23.05
420.335	23.1
420.541	23.04
420.746	22.99
420.952	23.05
421.158	23.11
421.364	23.24
421.57	23.14
421.776	23.15
421.982	23.19
422.187	23.32
422.393	23.14
422.599	23.01
422.805	23.12
423.01	23.22
423.216	23.15
423.422	23.17
423.628	23.16
423.833	23.22
424.039	23.32
424.245	23.34
424.45	23.33
424.656	23.3
424.862	23.42
425.067	23.28
425.273	23.19
425.478	23.21
425.684	23.29
425.889	23.33
426.095	23.39
426.301	23.26
426.506	23.19
426.712	23.07
426.917	23.05
427.123	22.99
427.328	23.16
427.533	23.34
427.739	23.38
427.944	23.28
428.15	23.06
428.355	23.05
428.561	23.15
428.766	23.13
428.971	23.26
429.177	23.57
429.382	23.76
429.587	23.57
429.793	23.47
429.998	23.73
430.203	23.67
430.408	23.75
430.614	23.57
430.819	23.55
431.024	23.47
431.229	23.38
431.434	23.36
431.64	23.11
431.845	23.27
432.05	23.29
432.255	22.91
432.46	22.92
432.665	22.96
432.87	23.02
433.076	22.95
433.281	22.96
433.486	23.02
433.691	23.07
433.896	23.07
434.101	22.92
434.306	22.82
434.511	22.9
434.716	23.04
434.921	22.91
435.126	23.04
435.331	23.09
435.535	23.14
435.74	23.06
435.945	22.95
436.15	23.04
436.355	23.16
436.56	23.35
436.765	23.56
436.97	23.6
437.174	23.87
437.379	23.78
437.584	23.9
437.789	23.92
437.993	23.98
438.198	23.98
438.403	23.9
438.608	23.84
438.812	23.73
439.017	23.6
439.222	23.65
439.426	23.47
439.631	23.59
439.836	23.52
440.04	23.4
440.245	23.45
440.45	23.44
440.654	23.36
440.859	23.38
441.063	23.34
441.268	23.34
441.472	23.32
441.677	23.42
441.881	23.37
442.086	23.31
442.29	23.46
442.495	23.4
442.699	23.41
442.904	23.59
443.108	23.53
443.312	23.54
443.517	23.61
443.721	23.53
443.925	23.37
444.13	23.25
444.334	23.35
444.538	23.26
444.743	23.25
444.947	23.12
445.151	22.98
445.356	22.89
445.56	22.86
445.764	22.74
445.968	22.62
446.173	22.66
446.377	22.51
446.581	22.4
446.785	22.32
446.989	22.3
447.193	22.37
447.398	22.39
447.602	22.33
447.806	22.37
448.01	22.25
448.214	22.3
448.418	22.15
448.622	22.36
448.826	22.26
449.03	22.22
449.234	22.16
449.438	22.11
449.642	21.97
449.846	22.09
450.05	22.08
450.254	22.13
450.458	22.08
450.662	22.33
450.866	22.2
451.069	22.42
451.273	22.52
451.477	22.35
451.681	22.28
451.885	22.24
452.089	22.25
452.292	22.28
452.496	22.36
452.7	22.39
452.904	22.18
453.107	22.08
453.311	22.02
453.515	21.9
453.719	22.04
453.922	22.17
454.126	22.12
