Data from LC_276_Reflection_3.txt Node
Date: Sat Nov 21 12:26:17 EST 2015
User: robert
Spectrometer: USB4E03001
Autoset integration time: false
Trigger mode: 4
Integration Time (sec): 1.000000E-1
Scans to average: 15
Electric dark correction enabled: true
Nonlinearity correction enabled: false
Boxcar width: 5
Stray light correction enabled: false
XAxis mode: Wavelengths
Stop averaging: false
Number of Pixels in Spectrum: 3648
>>>>>Begin Spectral Data<<<<<
177.566	-10.42
177.785	-46.86
178.005	161.79
178.225	-9.19
178.445	-435.79
178.665	-1067.65
178.885	902.06
179.105	161.87
179.324	111.83
179.544	165.62
179.764	655.38
179.984	97.48
180.204	124.68
180.423	94.27
180.643	99.34
180.863	97.16
181.083	146.54
181.302	159.03
181.522	191.01
181.742	198.25
181.961	165.69
182.181	150.84
182.401	317.9
182.621	234.16
182.84	229.74
183.06	190.62
183.279	158.51
183.499	141.9
183.719	136.77
183.938	124.08
184.158	132.15
184.377	130.07
184.597	158.3
184.816	144.23
185.036	159.7
185.256	175.75
185.475	143.45
185.695	155.58
185.914	144.43
186.134	152.18
186.353	175.46
186.572	174.65
186.792	158.19
187.011	127.16
187.231	132.68
187.45	144.91
187.67	149.29
187.889	190.89
188.108	252.25
188.328	320.68
188.547	327.56
188.766	304.32
188.986	337.01
189.205	591.9
189.424	1317.04
189.644	810.85
189.863	-280.27
190.082	-396.72
190.302	596.07
190.521	76.18
190.74	79.17
190.959	123.64
191.178	144.98
191.398	93.95
191.617	133.09
191.836	134.51
192.055	137.47
192.274	134.41
192.494	144.32
192.713	149.03
192.932	174.84
193.151	164.82
193.37	136.66
193.589	136.68
193.808	180.3
194.027	156.74
194.246	154.56
194.465	143.13
194.685	133.01
194.904	117.24
195.123	119.8
195.342	150.1
195.561	172.82
195.78	141.55
195.999	155.84
196.218	130.13
196.436	166.94
196.655	152.57
196.874	151.21
197.093	164.42
197.312	195.94
197.531	219.46
197.75	148.79
197.969	130.3
198.188	163.37
198.407	167.86
198.625	164.57
198.844	157.2
199.063	164.09
199.282	154.95
199.501	175.09
199.719	170.94
199.938	160.08
200.157	146.85
200.376	134.63
200.594	118.44
200.813	95.12
201.032	122.12
201.251	88.89
201.469	71.51
201.688	112.16
201.907	106.88
202.125	107.38
202.344	121.43
202.563	163.32
202.781	187.41
203	191.07
203.218	192.59
203.437	308.74
203.656	638.78
203.874	750.74
204.093	376.78
204.311	294.09
204.53	398.23
204.748	291.53
204.967	270.98
205.185	192.47
205.404	201.66
205.622	461.29
205.841	334.27
206.059	240.71
206.278	199.94
206.496	229.08
206.715	577.61
206.933	393.53
207.151	401.77
207.37	300.18
207.588	421.18
207.806	332.74
208.025	187.81
208.243	141.93
208.461	149.31
208.68	155.11
208.898	189.42
209.116	107.45
209.335	111.2
209.553	89.72
209.771	87.99
209.989	112.39
210.208	169.84
210.426	243.67
210.644	307.37
210.862	396.04
211.081	327.5
211.299	166.23
211.517	224.83
211.735	203.52
211.953	195.79
212.171	166.68
212.39	159.58
212.608	115.36
212.826	110.22
213.044	112
213.262	105.91
213.48	111.04
213.698	113.93
213.916	143.25
214.134	128.85
214.352	132.29
214.57	133.79
214.788	142.47
215.006	168.53
215.224	164.88
215.442	160.88
215.66	193.29
215.878	198.47
216.096	245.15
216.314	212.39
216.532	217.45
216.75	215.89
216.968	238.6
217.185	198.68
217.403	225.27
217.621	229.83
217.839	195.32
218.057	188.85
218.275	179.59
218.492	141.34
218.71	147.49
218.928	180.47
219.146	167.13
219.363	173.07
219.581	267.21
219.799	171.16
220.017	118.42
220.234	143.35
220.452	135.23
220.67	122.92
220.887	154.67
221.105	135.25
221.323	122.64
221.54	122.06
221.758	92.53
221.976	87.13
222.193	103.41
222.411	111.86
222.629	104.26
222.846	116.71
223.064	118.56
223.281	107.9
223.499	115.58
223.716	101.46
223.934	80.19
224.151	98.16
224.369	106.81
224.586	94.79
224.804	95.94
225.021	115.38
225.239	101.01
225.456	84.29
225.674	75.95
225.891	66.81
226.108	70.91
226.326	84.43
226.543	71.78
226.76	68.14
226.978	62.16
227.195	52.07
227.413	41.19
227.63	42.88
227.847	45.4
228.064	41.65
228.282	37.57
228.499	35.56
228.716	33.58
228.934	33.52
229.151	31.32
229.368	29.31
229.585	31.27
229.802	33.39
230.02	30.08
230.237	29.17
230.454	29.98
230.671	31.8
230.888	30.17
231.105	29.44
231.323	28.38
231.54	28.83
231.757	30.65
231.974	27.54
232.191	20.45
232.408	24.7
232.625	24.3
232.842	25.54
233.059	26.73
233.276	33.11
233.493	38.65
233.71	44.03
233.927	41.57
234.144	40.12
234.361	43.93
234.578	46.53
234.795	45.91
235.012	45.88
235.229	46.88
235.446	42.46
235.663	39.74
235.879	34.55
236.096	33.3
236.313	35.11
236.53	35.8
236.747	37.57
236.964	35.7
237.181	35.22
237.397	36.13
237.614	35.51
237.831	36.56
238.048	35.87
238.264	33.06
238.481	26.61
238.698	27.95
238.915	26.14
239.131	18.74
239.348	19.89
239.565	19.81
239.781	21.72
239.998	22.34
240.215	25.13
240.431	21.33
240.648	26.65
240.865	26.69
241.081	22.78
241.298	22.27
241.514	24.82
241.731	23.33
241.947	23.31
242.164	23.58
242.38	21.23
242.597	21.54
242.814	21.59
243.03	20.46
243.246	20.16
243.463	20.33
243.679	21.93
243.896	20.95
244.112	23.12
244.329	24.52
244.545	22.32
244.762	24.63
244.978	23.45
245.194	23.8
245.411	22.48
245.627	22.58
245.843	21.69
246.06	18.11
246.276	17.28
246.492	17
246.709	15.01
246.925	15.15
247.141	13.86
247.357	12.93
247.574	13.02
247.79	12.69
248.006	13
248.222	12.82
248.439	14.22
248.655	14.74
248.871	14.24
249.087	14.81
249.303	14.99
249.519	15.82
249.736	17.36
249.952	18.44
250.168	19.62
250.384	20.02
250.6	22.74
250.816	22.71
251.032	23.38
251.248	22.26
251.464	21.53
251.68	21.05
251.896	21.37
252.112	21.02
252.328	18.64
252.544	18.49
252.76	19.13
252.976	17.78
253.192	17.39
253.408	17.54
253.624	19.63
253.84	22.1
254.056	22.58
254.272	21.86
254.487	23.29
254.703	24.35
254.919	24.5
255.135	23.24
255.351	22.61
255.567	22.11
255.782	17.98
255.998	17.15
256.214	12.38
256.43	14.23
256.646	13.74
256.861	13.04
257.077	14.87
257.293	15.55
257.508	15.98
257.724	16.38
257.94	16.35
258.155	17
258.371	15.73
258.587	16.33
258.802	15.23
259.018	13.48
259.234	13.14
259.449	12.4
259.665	11.93
259.88	11.66
260.096	11.62
260.312	12.35
260.527	12.8
260.743	12.72
260.958	12.65
261.174	11.61
261.389	13.28
261.605	14.3
261.82	14.89
262.036	16.27
262.251	16.73
262.466	18.33
262.682	17.64
262.897	16.64
263.113	17.58
263.328	19.02
263.543	20.92
263.759	20.78
263.974	20.56
264.189	22.36
264.405	22.03
264.62	24.1
264.835	23.05
265.051	22.54
265.266	24.84
265.481	23.54
265.696	23.42
265.912	22.2
266.127	21.32
266.342	19.82
266.557	17.4
266.773	15.71
266.988	13.26
267.203	12.34
267.418	13.16
267.633	12.68
267.848	12.31
268.064	11.12
268.279	12.56
268.494	12.56
268.709	13.15
268.924	14.35
269.139	15.48
269.354	15.83
269.569	15.48
269.784	15.44
269.999	15.15
270.214	16.68
270.429	17.53
270.644	16.69
270.859	17.46
271.074	16.21
271.289	14.69
271.504	14.7
271.719	13.62
271.934	14.85
272.149	14.21
272.363	14.16
272.578	12.96
272.793	12.4
273.008	12.97
273.223	12.18
273.438	12.63
273.653	14.21
273.867	14.31
274.082	15.76
274.297	14.12
274.512	14.02
274.726	13.38
274.941	13.9
275.156	14.23
275.371	13.6
275.585	14.99
275.8	13.3
276.015	11.69
276.229	10.89
276.444	10.97
276.659	12.34
276.873	13.09
277.088	13.22
277.302	13.71
277.517	13.09
277.732	13.11
277.946	12.34
278.161	14.03
278.375	14.04
278.59	15.26
278.804	14.13
279.019	14.9
279.233	15.01
279.448	15.34
279.662	15.02
279.877	14.94
280.091	14.94
280.306	13.41
280.52	12.76
280.735	13.68
280.949	11.12
281.163	12.01
281.378	11.06
281.592	10.33
281.806	10.97
282.021	10.85
282.235	10.25
282.449	10.31
282.664	10.48
282.878	10.85
283.092	11.17
283.307	12.59
283.521	12.91
283.735	13.25
283.949	13.88
284.164	13.19
284.378	12.9
284.592	12.61
284.806	12.76
285.02	14.06
285.234	13.97
285.449	12.37
285.663	12.99
285.877	12.44
286.091	12.51
286.305	11.35
286.519	11.58
286.733	11.68
286.947	12.51
287.161	12.61
287.375	11.58
287.589	11.97
287.803	13.18
288.017	12.62
288.231	12.21
288.445	11.77
288.659	13.36
288.873	13.74
289.087	14.75
289.301	14.52
289.515	14.53
289.729	15.06
289.943	15.15
290.157	14.46
290.371	14.56
290.584	15.22
290.798	15.53
291.012	15.06
291.226	14.55
291.44	13.26
291.654	13.59
291.867	13.41
292.081	13.62
292.295	13.4
292.509	14.73
292.722	14.96
292.936	15.14
293.15	14.88
293.364	15.35
293.577	14.65
293.791	15.79
294.005	15.34
294.218	14.63
294.432	13.93
294.645	14.97
294.859	14.32
295.073	12.76
295.286	12.53
295.5	12.62
295.713	12.13
295.927	12.92
296.14	12.36
296.354	12.2
296.568	12.77
296.781	12.93
296.994	12.55
297.208	12.16
297.421	13.07
297.635	13.01
297.848	12.7
298.062	12.78
298.275	12.65
298.489	12.72
298.702	13.13
298.915	12.5
299.129	12.64
299.342	12.49
299.555	13.25
299.769	13.83
299.982	14.12
300.195	14.85
300.409	14.97
300.622	15.43
300.835	16.07
301.048	16.49
301.262	16.97
301.475	17.67
301.688	17.46
301.901	18.21
302.115	17.25
302.328	17.43
302.541	16.87
302.754	17.33
302.967	18.19
303.18	17.43
303.393	17.33
303.607	16.87
303.82	16.29
304.033	15.24
304.246	14.58
304.459	15.66
304.672	15.92
304.885	17.35
305.098	17.6
305.311	16.56
305.524	16.12
305.737	15.17
305.95	16.04
306.163	15.9
306.376	16.47
306.589	15.61
306.802	14.11
307.015	12.82
307.228	11.94
307.44	11.03
307.653	13.05
307.866	14.17
308.079	14.93
308.292	14.98
308.505	15.7
308.718	16.51
308.93	17.31
309.143	16.91
309.356	16.61
309.569	16.52
309.781	17.27
309.994	15.69
310.207	15.87
310.42	16.08
310.632	15.41
310.845	14.5
311.058	13.65
311.27	12.8
311.483	14.21
311.696	14.79
311.908	15.42
312.121	15.07
312.333	15.76
312.546	15.7
312.759	15.36
312.971	15.84
313.184	17.6
313.396	18.32
313.609	18.56
313.821	17.96
314.034	18.25
314.246	17.99
314.459	18.29
314.671	16.45
314.884	16.41
315.096	16.9
315.309	17.08
315.521	16.42
315.733	16.79
315.946	17.52
316.158	17.11
316.371	17.32
316.583	16.82
316.795	17.22
317.008	19.3
317.22	18.87
317.432	19.68
317.644	20.22
317.857	19.66
318.069	18.57
318.281	18.6
318.494	19.07
318.706	19.22
318.918	19.98
319.13	19.27
319.342	19.13
319.555	19.05
319.767	18.03
319.979	17.93
320.191	19.15
320.403	20.92
320.615	21.11
320.827	21.78
321.039	21.94
321.252	21.91
321.464	21.98
321.676	20.82
321.888	21.32
322.1	22.35
322.312	22.29
322.524	21.3
322.736	20.65
322.948	21.81
323.16	22.02
323.372	21.69
323.584	22.33
323.796	22.13
324.007	23.36
324.219	24.85
324.431	24.67
324.643	25.28
324.855	26.07
325.067	26.93
325.279	26.58
325.491	26.22
325.702	26.95
325.914	27.58
326.126	28.72
326.338	28.87
326.55	28.39
326.761	28.7
326.973	29.34
327.185	29.46
327.396	28.81
327.608	29.46
327.82	31.13
328.032	31.61
328.243	31.22
328.455	31.36
328.666	32.19
328.878	33.77
329.09	34.24
329.301	34.91
329.513	35.01
329.725	36.02
329.936	35.73
330.148	35.17
330.359	36.58
330.571	37.13
330.782	38.12
330.994	38.21
331.205	38.34
331.417	40.09
331.628	40.1
331.84	41.92
332.051	43.79
332.262	44.49
332.474	45.08
332.685	44.77
332.897	45.33
333.108	45
333.319	45.59
333.531	45.16
333.742	44.45
333.953	45.24
334.165	44.64
334.376	43.79
334.587	44.65
334.799	45.67
335.01	46.85
335.221	46.52
335.432	47.07
335.644	47.1
335.855	48.51
336.066	49.2
336.277	49.22
336.488	49.57
336.7	49.32
336.911	49.59
337.122	49.59
337.333	49.48
337.544	50.19
337.755	50.64
337.966	50.69
338.177	49.83
338.388	49.54
338.599	49.43
338.811	49.78
339.022	50.46
339.233	49.49
339.444	48.72
339.655	48.81
339.866	48.47
340.076	48.57
340.287	49.03
340.498	49.06
340.709	49.06
340.92	48.95
341.131	49.35
341.342	48.86
341.553	49.89
341.764	49.74
341.975	49.13
342.185	48.5
342.396	48.49
342.607	48.5
342.818	48.92
343.029	49.3
343.239	49.84
343.45	48.65
343.661	49.14
343.872	48.48
344.082	49.48
344.293	50.02
344.504	50.82
344.714	50.49
344.925	50.16
345.136	49.89
345.346	50.32
345.557	49.74
345.768	49.73
345.978	49.5
346.189	49.73
346.399	48.74
346.61	48.75
346.821	48.64
347.031	47.93
347.242	48.62
347.452	48.55
347.663	48.44
347.873	48.84
348.084	48.85
348.294	49.02
348.504	48.79
348.715	49.27
348.925	48.22
349.136	48.01
349.346	48.43
349.557	47.97
349.767	48.29
349.977	47.43
350.188	46.99
350.398	47.27
350.608	46.85
350.819	47.02
351.029	47.09
351.239	48.22
351.449	48.42
351.66	49.48
351.87	49.05
352.08	49.25
352.29	49.61
352.501	49.16
352.711	49.06
352.921	49.32
353.131	48.72
353.341	47.67
353.552	46.81
353.762	47.13
353.972	46.32
354.182	46.88
354.392	46.08
354.602	46
354.812	46.81
355.022	46.61
355.232	46.43
355.442	46.71
355.652	47.66
355.862	47.63
356.072	47.06
356.282	47.39
356.492	46.64
356.702	46.56
356.912	46.32
357.122	45.88
357.332	45.33
357.542	45.13
357.752	45.06
357.962	44.98
358.171	44.47
358.381	44.78
358.591	44.2
358.801	44.43
359.011	44.39
359.221	43.89
359.43	43.79
359.64	44.79
359.85	44.97
360.06	44.91
360.269	44.91
360.479	44.79
360.689	43.97
360.899	44.14
361.108	43.91
361.318	43.86
361.528	44.24
361.737	44.67
361.947	44.59
362.156	44.65
362.366	44.89
362.576	44.63
362.785	44.63
362.995	44.96
363.204	45.04
363.414	44.71
363.623	45.08
363.833	44.76
364.042	44.76
364.252	44.25
364.461	44.1
364.671	43.94
364.88	43.81
365.09	44.2
365.299	44.27
365.509	43.89
365.718	44.15
365.927	44.28
366.137	44.28
366.346	43.46
366.555	43.5
366.765	43.29
366.974	43.3
367.183	43.23
367.393	43.27
367.602	43.67
367.811	43.96
368.021	43.77
368.23	43.04
368.439	42.73
368.648	42.41
368.857	42.35
369.067	41.58
369.276	41.88
369.485	41.84
369.694	41.72
369.903	40.91
370.112	40.42
370.321	40.4
370.531	39.88
370.74	39.5
370.949	39.42
371.158	39.36
371.367	40.18
371.576	39.56
371.785	39.21
371.994	39.01
372.203	38.99
372.412	38.95
372.621	38.92
372.83	39.24
373.039	39.85
373.248	39.91
373.457	39.48
373.666	39.06
373.874	38.59
374.083	38.63
374.292	38.78
374.501	38.63
374.71	38.39
374.919	38.12
375.128	38.57
375.336	38.33
375.545	38.55
375.754	38.35
375.963	37.89
376.171	37.7
376.38	37.63
376.589	36.88
376.798	36.69
377.006	36.52
377.215	36.62
377.424	35.79
377.632	35.45
377.841	34.96
378.05	35.22
378.258	35.39
378.467	35.51
378.675	35.44
378.884	35.74
379.093	35.49
379.301	35.44
379.51	35.18
379.718	35.32
379.927	35.28
380.135	35.5
380.344	35.13
380.552	34.48
380.761	34.54
380.969	34.36
381.177	33.96
381.386	34.12
381.594	33.83
381.803	33.44
382.011	33.04
382.219	32.85
382.428	32.38
382.636	32.06
382.845	32.36
383.053	32.12
383.261	31.93
383.469	32.08
383.678	31.91
383.886	31.71
384.094	31.63
384.302	31.32
384.511	31.32
384.719	31.21
384.927	31.07
385.135	31.21
385.343	31.07
385.552	30.93
385.76	30.76
385.968	30.69
386.176	30.86
386.384	30.92
386.592	30.96
386.8	30.68
387.008	30.7
387.216	30.85
387.424	30.71
387.633	30.38
387.841	30.34
388.049	29.79
388.257	29.76
388.465	29.6
388.672	29.57
388.88	29.74
389.088	29.64
389.296	29.34
389.504	29.06
389.712	28.8
389.92	28.94
390.128	28.8
390.336	29.1
390.544	28.72
390.751	28.6
390.959	28.47
391.167	28.02
391.375	27.88
391.583	27.82
391.79	27.84
391.998	27.68
392.206	27.53
392.414	27.05
392.621	26.75
392.829	26.79
393.037	26.86
393.244	26.86
393.452	26.85
393.66	27.13
393.867	27.13
394.075	27.44
394.283	27.46
394.49	27.34
394.698	27.63
394.905	27.57
395.113	27.26
395.32	27.12
395.528	26.9
395.735	26.9
395.943	26.68
396.15	26.74
396.358	26.05
396.565	25.7
396.773	25.69
396.98	25.79
397.188	25.83
397.395	25.84
397.602	25.72
397.81	25.72
398.017	25.5
398.225	25.47
398.432	25.49
398.639	25.6
398.847	25.82
399.054	25.77
399.261	25.66
399.468	25.65
399.676	25.68
399.883	25.4
400.09	25.6
400.297	25.94
400.505	25.84
400.712	25.5
400.919	25.38
401.126	25.31
401.333	25.39
401.54	24.93
401.748	24.84
401.955	25.02
402.162	25.02
402.369	24.47
402.576	24.15
402.783	24.05
402.99	23.87
403.197	23.98
403.404	24.03
403.611	23.91
403.818	24.4
404.025	24.17
404.232	23.99
404.439	24.07
404.646	24.29
404.853	24.45
405.06	24.53
405.267	24.8
405.474	24.68
405.681	24.51
405.887	24.38
406.094	24.22
406.301	24.44
406.508	24.56
406.715	24.54
406.922	24.42
407.128	24.36
407.335	24.27
407.542	24.18
407.749	24.2
407.955	24.04
408.162	24.09
408.369	24.32
408.575	24.26
408.782	24.11
408.989	24.36
409.195	24.39
409.402	24.4
409.609	24.31
409.815	24.09
410.022	24.28
410.228	24.51
410.435	24.56
410.642	24.23
410.848	24.42
411.055	24.31
411.261	23.92
411.468	23.7
411.674	23.43
411.881	23.35
412.087	23.74
412.294	23.61
412.5	23.43
412.706	23.26
412.913	23.48
413.119	23.26
413.326	23.48
413.532	23.67
413.738	23.97
413.945	24
414.151	24.16
414.357	23.81
414.564	23.9
414.77	24.04
414.976	24.07
415.182	23.89
415.389	24.17
415.595	24.21
415.801	24.38
416.007	24.13
416.214	24.34
416.42	24.33
416.626	24.58
416.832	24.42
417.038	24.39
417.244	24.33
417.45	24.34
417.657	24.17
417.863	24.15
418.069	24.06
418.275	24.02
418.481	23.9
418.687	23.87
418.893	23.62
419.099	23.52
419.305	23.51
419.511	23.45
419.717	23.42
419.923	23.28
420.129	23.14
420.335	22.96
420.541	22.96
420.746	22.77
420.952	22.65
421.158	22.58
421.364	22.61
421.57	22.57
421.776	22.61
421.982	22.54
422.187	22.56
422.393	22.39
422.599	22.3
422.805	22.36
423.01	22.42
423.216	22.45
423.422	22.46
423.628	22.42
423.833	22.28
424.039	22.33
424.245	22.21
424.45	22.2
424.656	22.21
424.862	22.45
425.067	22.32
425.273	22.34
425.478	22.4
425.684	22.37
425.889	22.35
426.095	22.37
426.301	22.26
426.506	22.29
426.712	22.14
426.917	22.2
427.123	21.88
427.328	22.01
427.533	22.15
427.739	22.02
427.944	22.05
428.15	22.05
428.355	22.26
428.561	22.3
428.766	22.37
428.971	22.46
429.177	22.46
429.382	22.69
429.587	22.67
429.793	22.53
429.998	22.71
430.203	22.7
430.408	22.66
430.614	22.4
430.819	22.37
431.024	22.32
431.229	22.31
431.434	22.29
431.64	22.05
431.845	22.07
432.05	22.25
432.255	22.05
432.46	22.11
432.665	22.12
432.87	22.11
433.076	22.2
433.281	22.27
433.486	22.17
433.691	22.22
433.896	22.37
434.101	22.23
434.306	22.03
434.511	22.04
434.716	21.99
434.921	21.91
435.126	21.99
435.331	22.02
435.535	22
435.74	21.95
435.945	21.93
436.15	21.78
436.355	22.06
436.56	22.31
436.765	22.41
436.97	22.56
437.174	22.64
437.379	22.68
437.584	22.6
437.789	22.54
437.993	22.75
438.198	22.7
438.403	22.77
438.608	22.68
438.812	22.38
439.017	22.33
439.222	22.37
439.426	22.34
439.631	22.46
439.836	22.3
440.04	22.24
440.245	22.24
440.45	22.13
440.654	22.1
440.859	21.96
441.063	21.97
441.268	21.91
441.472	21.88
441.677	21.89
441.881	21.69
442.086	21.68
442.29	21.85
442.495	21.82
442.699	21.99
442.904	21.9
443.108	21.98
443.312	22.04
443.517	22.11
443.721	21.92
443.925	21.67
444.13	21.65
444.334	21.65
444.538	21.58
444.743	21.44
444.947	21.44
445.151	21.51
445.356	21.41
445.56	21.43
445.764	21.35
445.968	21.3
446.173	21.43
446.377	21.46
446.581	21.61
446.785	21.57
446.989	21.58
447.193	21.52
447.398	21.6
447.602	21.49
447.806	21.46
448.01	21.51
448.214	21.51
448.418	21.52
448.622	21.52
448.826	21.42
449.03	21.29
449.234	21.25
449.438	21.18
449.642	20.87
449.846	21.11
450.05	21.12
450.254	21.01
450.458	20.96
450.662	20.97
450.866	20.86
451.069	20.77
451.273	20.68
451.477	20.58
451.681	20.48
451.885	20.68
452.089	20.52
452.292	20.59
452.496	20.46
452.7	20.46
452.904	20.45
453.107	20.51
453.311	20.5
453.515	20.71
453.719	20.79
453.922	20.89
454.126	20.69
454.33	20.78
