Data from LC_266_Reflection_1.txt Node
Date: Sat Nov 21 11:54:05 EST 2015
User: robert
Spectrometer: USB4E03001
Autoset integration time: false
Trigger mode: 4
Integration Time (sec): 1.000000E-1
Scans to average: 15
Electric dark correction enabled: true
Nonlinearity correction enabled: false
Boxcar width: 5
Stray light correction enabled: false
XAxis mode: Wavelengths
Stop averaging: false
Number of Pixels in Spectrum: 3648
>>>>>Begin Spectral Data<<<<<
177.566	185.39
177.785	149.54
178.005	252.85
178.225	85.1
178.445	250.51
178.665	115.88
178.885	-517.01
179.105	-79.04
179.324	54.06
179.544	128.77
179.764	510.76
179.984	65.26
180.204	68.85
180.423	83.68
180.643	101.21
180.863	135.58
181.083	123.06
181.302	136.32
181.522	150.57
181.742	136.16
181.961	106.59
182.181	81.41
182.401	138.25
182.621	116.79
182.84	126.58
183.06	108.98
183.279	87.74
183.499	93.17
183.719	87.76
183.938	70.28
184.158	80.18
184.377	69.03
184.597	72.13
184.816	77.19
185.036	75.93
185.256	73.16
185.475	65.74
185.695	58.33
185.914	56.15
186.134	55.38
186.353	53.7
186.572	67.44
186.792	65.26
187.011	72.96
187.231	74.29
187.45	76.97
187.67	68.55
187.889	80.24
188.108	100.78
188.328	106.82
188.547	109.87
188.766	86.64
188.986	39.24
189.205	-62.91
189.424	-351.78
189.644	-310.98
189.863	350.59
190.082	714.15
190.302	-1165.41
190.521	-155.94
190.74	-128.52
190.959	-123.81
191.178	-88.34
191.398	-35.75
191.617	-25.37
191.836	-43.26
192.055	-31.93
192.274	-28.39
192.494	-19.31
192.713	-20.11
192.932	-9.54
193.151	-11.13
193.37	-3.07
193.589	-0.41
193.808	-17.18
194.027	8.11
194.246	18.1
194.465	11.55
194.685	32.03
194.904	38.95
195.123	30.05
195.342	20.78
195.561	33.47
195.78	3.28
195.999	6.89
196.218	26.94
196.436	7.03
196.655	-4.42
196.874	26.14
197.093	45.77
197.312	29.51
197.531	91.65
197.75	80.72
197.969	71.74
198.188	92.05
198.407	88.92
198.625	72.17
198.844	92.4
199.063	91.5
199.282	88.74
199.501	84.53
199.719	96.12
199.938	81.76
200.157	63.72
200.376	40.67
200.594	26.33
200.813	15.88
201.032	17.3
201.251	-2.21
201.469	-18.99
201.688	-23.89
201.907	-49.49
202.125	-17.88
202.344	-30.02
202.563	-39.63
202.781	-31.02
203	-13.74
203.218	-0.4
203.437	-15.08
203.656	27.66
203.874	89.45
204.093	2.67
204.311	40.11
204.53	71.05
204.748	6.42
204.967	63.69
205.185	44.85
205.404	36.59
205.622	182.41
205.841	102.92
206.059	50.6
206.278	3.19
206.496	0.81
206.715	-132.88
206.933	-38.71
207.151	10.11
207.37	-24.41
207.588	-81.4
207.806	-58.67
208.025	-78.51
208.243	-43.3
208.461	-33.55
208.68	29.93
208.898	72.27
209.116	70.79
209.335	46.28
209.553	40.8
209.771	32.99
209.989	42.77
210.208	35.03
210.426	43.16
210.644	28.74
210.862	43.57
211.081	-91.66
211.299	-46.37
211.517	-6.91
211.735	-4.65
211.953	20.29
212.171	23.42
212.39	41.33
212.608	36.34
212.826	33.8
213.044	42.2
213.262	32.22
213.48	51.12
213.698	48.95
213.916	34.88
214.134	44.96
214.352	45.07
214.57	53.93
214.788	50.84
215.006	54
215.224	55.62
215.442	33.21
215.66	30.63
215.878	17.32
216.096	22.08
216.314	43.61
216.532	34.11
216.75	35.82
216.968	20.92
217.185	35.75
217.403	23.34
217.621	19.51
217.839	31.7
218.057	34.08
218.275	4.6
218.492	-2.62
218.71	-21.89
218.928	-6.76
219.146	-27.01
219.363	-1.2
219.581	-30.25
219.799	5.35
220.017	25.27
220.234	37.54
220.452	18.73
220.67	43.35
220.887	44.14
221.105	52.95
221.323	36.02
221.54	47.59
221.758	32.87
221.976	29.57
222.193	26.23
222.411	30.09
222.629	21.48
222.846	37.79
223.064	38.25
223.281	42.41
223.499	35.22
223.716	38.18
223.934	34.02
224.151	38.83
224.369	16
224.586	12.09
224.804	11.92
225.021	10.54
225.239	2.39
225.456	13.14
225.674	9.47
225.891	20.89
226.108	26.59
226.326	31.25
226.543	22.36
226.76	24.39
226.978	25.52
227.195	16.39
227.413	15.86
227.63	22.78
227.847	16.89
228.064	16.26
228.282	9.13
228.499	9
228.716	7.98
228.934	9.38
229.151	11.22
229.368	10.64
229.585	13.56
229.802	16.21
230.02	11.3
230.237	10.63
230.454	10.24
230.671	12.42
230.888	11.11
231.105	9.14
231.323	8.7
231.54	7.61
231.757	6.75
231.974	5.81
232.191	-0.26
232.408	7.27
232.625	6.97
232.842	7.74
233.059	10.68
233.276	12.54
233.493	20.18
233.71	24.23
233.927	20.94
234.144	23.99
234.361	25.11
234.578	27.09
234.795	24.44
235.012	24.22
235.229	26.18
235.446	23.55
235.663	20.5
235.879	14.63
236.096	10.86
236.313	17.18
236.53	12.47
236.747	6.85
236.964	1.67
237.181	1.24
237.397	2.16
237.614	-0.91
237.831	-1.26
238.048	0.26
238.264	3.74
238.481	7.04
238.698	4.11
238.915	9.22
239.131	9.1
239.348	11.07
239.565	11.19
239.781	9.84
239.998	11.35
240.215	11.25
240.431	6.27
240.648	3.8
240.865	4.2
241.081	2.39
241.298	4.38
241.514	9.02
241.731	11.38
241.947	11.18
242.164	13.62
242.38	11.94
242.597	12.08
242.814	13.03
243.03	13.26
243.246	12.04
243.463	11.57
243.679	11.87
243.896	10.04
244.112	8.89
244.329	10.38
244.545	8.84
244.762	10.61
244.978	10.72
245.194	10.48
245.411	11.78
245.627	12.24
245.843	11.62
246.06	10.01
246.276	11.25
246.492	11.13
246.709	10.92
246.925	11
247.141	11.03
247.357	10.89
247.574	11.18
247.79	10.85
248.006	10.75
248.222	10.41
248.439	10.91
248.655	10.96
248.871	11.54
249.087	10.55
249.303	10.45
249.519	9.59
249.736	10.91
249.952	10.87
250.168	10
250.384	10.33
250.6	13.06
250.816	11.77
251.032	10.43
251.248	9.46
251.464	9.26
251.68	9.11
251.896	9.66
252.112	8.57
252.328	7.65
252.544	9.21
252.76	9.24
252.976	10
253.192	10.06
253.408	11.16
253.624	11.31
253.84	11.85
254.056	10.61
254.272	9.02
254.487	9.07
254.703	11.13
254.919	11.21
255.135	10.67
255.351	8.57
255.567	8.63
255.782	5.17
255.998	4.49
256.214	3.34
256.43	7.2
256.646	8.11
256.861	5.21
257.077	6.24
257.293	6.2
257.508	7.01
257.724	8.2
257.94	9.46
258.155	10.76
258.371	10.19
258.587	10.07
258.802	9.38
259.018	9.42
259.234	10.63
259.449	10.2
259.665	9.58
259.88	9.76
260.096	9.6
260.312	9.32
260.527	9.02
260.743	9.23
260.958	9.08
261.174	8.01
261.389	8.02
261.605	7.52
261.82	7
262.036	7.68
262.251	6.07
262.466	5.68
262.682	5.59
262.897	4.56
263.113	4.44
263.328	5.17
263.543	6.66
263.759	5.62
263.974	7.04
264.189	8.86
264.405	9.47
264.62	10.44
264.835	9.81
265.051	8.13
265.266	10.93
265.481	11.17
265.696	10.98
265.912	10.81
266.127	12.24
266.342	10.73
266.557	9.52
266.773	7.27
266.988	6.78
267.203	7.2
267.418	7.46
267.633	6.4
267.848	6.14
268.064	6.04
268.279	6.8
268.494	6.34
268.709	6.27
268.924	5.63
269.139	6.09
269.354	6.21
269.569	5.95
269.784	6.72
269.999	6.09
270.214	6.34
270.429	7.09
270.644	5.61
270.859	5.76
271.074	5.74
271.289	6.24
271.504	6.39
271.719	5.74
271.934	6.32
272.149	5.47
272.363	5.81
272.578	5.57
272.793	5.14
273.008	6.44
273.223	6.79
273.438	7.36
273.653	8.12
273.867	9.27
274.082	10.9
274.297	10.19
274.512	11.11
274.726	12.07
274.941	12.33
275.156	13.46
275.371	12.48
275.585	12.37
275.8	11.6
276.015	10.98
276.229	10.1
276.444	10.34
276.659	10.15
276.873	10.51
277.088	10.57
277.302	10.36
277.517	10.42
277.732	11.16
277.946	10.95
278.161	10.97
278.375	10.7
278.59	11.16
278.804	9.61
279.019	9.64
279.233	9.52
279.448	7.2
279.662	7.54
279.877	5.16
280.091	5.17
280.306	4.48
280.52	4.21
280.735	5.1
280.949	3.98
281.163	3.85
281.378	3.62
281.592	3.12
281.806	5.43
282.021	6.42
282.235	7.15
282.449	6.25
282.664	6.13
282.878	6.87
283.092	6.68
283.307	7.36
283.521	8.2
283.735	8.37
283.949	8.62
284.164	6.82
284.378	5.69
284.592	5.78
284.806	7.03
285.02	7.15
285.234	6.72
285.449	5.78
285.663	6.03
285.877	5.97
286.091	7.09
286.305	7.34
286.519	7.63
286.733	7.54
286.947	7.54
287.161	7.52
287.375	8.13
287.589	8.45
287.803	9.08
288.017	8.53
288.231	8.34
288.445	7.95
288.659	7.73
288.873	8.41
289.087	8.96
289.301	9.61
289.515	9.09
289.729	10
289.943	10.01
290.157	9.78
290.371	10.39
290.584	10.59
290.798	10.41
291.012	9.95
291.226	9.64
291.44	9.55
291.654	9.61
291.867	9.28
292.081	8.81
292.295	9.65
292.509	10.56
292.722	10.07
292.936	9.8
293.15	9.45
293.364	9.21
293.577	9.36
293.791	9.68
294.005	9.24
294.218	9.27
294.432	8.41
294.645	8.35
294.859	7.76
295.073	6.78
295.286	7.76
295.5	8.57
295.713	8.79
295.927	8.51
296.14	8.96
296.354	8.86
296.568	9.88
296.781	9.93
296.994	10.02
297.208	9.89
297.421	10.9
297.635	10.58
297.848	9.64
298.062	10.23
298.275	10.87
298.489	10.47
298.702	10.26
298.915	9.35
299.129	9.93
299.342	9.07
299.555	9.29
299.769	9.34
299.982	9.61
300.195	10.76
300.409	10.24
300.622	9.18
300.835	9.12
301.048	10.15
301.262	9.93
301.475	10.22
301.688	10.95
301.901	11.31
302.115	10.37
302.328	10.21
302.541	9.54
302.754	10.09
302.967	10.66
303.18	11.27
303.393	11.12
303.607	11.94
303.82	10.9
304.033	10.72
304.246	11.39
304.459	12.9
304.672	12.98
304.885	13.93
305.098	14.41
305.311	14.23
305.524	13.67
305.737	13.45
305.95	12.97
306.163	13.25
306.376	13.72
306.589	11.97
306.802	11.01
307.015	10.04
307.228	9.45
307.44	8.47
307.653	10.43
307.866	10.9
308.079	9.6
308.292	9.52
308.505	11.21
308.718	10.67
308.93	11.94
309.143	10.83
309.356	11.27
309.569	10.64
309.781	11.26
309.994	10.07
310.207	9.59
310.42	10.37
310.632	10.74
310.845	9.09
311.058	8.74
311.27	9.37
311.483	11.1
311.696	11.11
311.908	11.67
312.121	11.23
312.333	11.49
312.546	11.7
312.759	12.16
312.971	11.94
313.184	13.04
313.396	13.08
313.609	11.24
313.821	10.72
314.034	11.68
314.246	12.31
314.459	12.85
314.671	13.13
314.884	13.27
315.096	13.79
315.309	13.15
315.521	12.62
315.733	13.02
315.946	13.42
316.158	11.97
316.371	12.27
316.583	12.3
316.795	11.89
317.008	12.29
317.22	11.75
317.432	11.11
317.644	12.87
317.857	12.28
318.069	12.03
318.281	12.43
318.494	13.34
318.706	12.39
318.918	11.54
319.13	10.84
319.342	10.58
319.555	11.04
319.767	11.14
319.979	9.91
320.191	10.67
320.403	10.93
320.615	10.99
320.827	10.8
321.039	10.19
321.252	10.45
321.464	9.67
321.676	8.14
321.888	7.49
322.1	7.71
322.312	7.8
322.524	7.42
322.736	7.26
322.948	8.27
323.16	9.12
323.372	9.45
323.584	9.65
323.796	11.32
324.007	12.05
324.219	11.58
324.431	11.22
324.643	11.83
324.855	12.02
325.067	12.37
325.279	11.87
325.491	11.2
325.702	11.35
325.914	11.69
326.126	11.53
326.338	10.41
326.55	11.37
326.761	11.25
326.973	11.48
327.185	10.66
327.396	10.29
327.608	9.09
327.82	9.56
328.032	9.41
328.243	8.2
328.455	8.71
328.666	9.91
328.878	10.16
329.09	10.53
329.301	10.56
329.513	11.25
329.725	12
329.936	13.93
330.148	14
330.359	14.71
330.571	14.89
330.782	14.43
330.994	14.48
331.205	14.83
331.417	14.89
331.628	14.87
331.84	14.67
332.051	14.01
332.262	13.62
332.474	14.37
332.685	14.47
332.897	15.11
333.108	14.55
333.319	14.56
333.531	13.28
333.742	13.11
333.953	12.86
334.165	13.48
334.376	13.41
334.587	13.55
334.799	13.34
335.01	12.8
335.221	13.01
335.432	13.15
335.644	13.69
335.855	15.02
336.066	15.59
336.277	15.85
336.488	15.25
336.7	15.19
336.911	15.11
337.122	15.31
337.333	15.87
337.544	16.05
337.755	16.83
337.966	16.53
338.177	16.12
338.388	15.43
338.599	14.57
338.811	15.13
339.022	15.18
339.233	14.88
339.444	14.04
339.655	13.28
339.866	12.85
340.076	12.38
340.287	12.46
340.498	12.41
340.709	12.24
340.92	13.34
341.131	13.04
341.342	13.03
341.553	13.65
341.764	13.13
341.975	12.68
342.185	11.38
342.396	11.67
342.607	11.84
342.818	11.88
343.029	12.19
343.239	12.86
343.45	12.94
343.661	13.09
343.872	11.97
344.082	12.61
344.293	12.83
344.504	14.13
344.714	13.67
344.925	13.27
345.136	13.19
345.346	13.19
345.557	12.54
345.768	12.49
345.978	12.3
346.189	12.42
346.399	12.28
346.61	13.11
346.821	12.75
347.031	12.18
347.242	12.15
347.452	12.08
347.663	12.65
347.873	12.49
348.084	13.25
348.294	12.75
348.504	12.87
348.715	13.17
348.925	12.49
349.136	13.28
349.346	13.63
349.557	13.2
349.767	13.81
349.977	12.78
350.188	12.38
350.398	11.53
350.608	11.61
350.819	12.2
351.029	12.08
351.239	12.39
351.449	12.17
351.66	12.55
351.87	13.47
352.08	13.31
352.29	14.01
352.501	13.65
352.711	13.83
352.921	14.33
353.131	13.86
353.341	13.9
353.552	13.89
353.762	13.16
353.972	13.59
354.182	14.13
354.392	13.47
354.602	13.03
354.812	13.9
355.022	13.6
355.232	13.91
355.442	13.31
355.652	13.51
355.862	13.4
356.072	13.65
356.282	13.19
356.492	12.06
356.702	12.25
356.912	11.99
357.122	11.47
357.332	11.21
357.542	10.69
357.752	11.21
357.962	11.04
358.171	11.11
358.381	11.54
358.591	11.53
358.801	11.93
359.011	12.24
359.221	12.33
359.43	12.61
359.64	13.16
359.85	13.11
360.06	12.82
360.269	13.26
360.479	13.38
360.689	12.3
360.899	12.19
361.108	12.08
361.318	11.64
361.528	11.87
361.737	11.5
361.947	11.64
362.156	12.01
362.366	12.24
362.576	11.36
362.785	11.29
362.995	12.09
363.204	11.7
363.414	11.49
363.623	11.84
363.833	11.43
364.042	11.77
364.252	11.28
364.461	11.13
364.671	10.68
364.88	11.06
365.09	10.53
365.299	10.19
365.509	10.35
365.718	10.61
365.927	11.14
366.137	10.69
366.346	10.85
366.555	10.79
366.765	11.02
366.974	11.33
367.183	11.34
367.393	11.78
367.602	12.33
367.811	12.27
368.021	11.92
368.23	11.33
368.439	12.16
368.648	11.88
368.857	11.87
369.067	11.22
369.276	11.31
369.485	11.36
369.694	11.06
369.903	9.86
370.112	10.07
370.321	10.07
370.531	9.09
370.74	8.98
370.949	8.75
371.158	8.98
371.367	9.06
371.576	8.94
371.785	8.83
371.994	8.96
372.203	9.22
372.412	9.34
372.621	9.5
372.83	10.19
373.039	9.86
373.248	9.59
373.457	9.49
373.666	9.5
373.874	9.26
374.083	9.64
374.292	9.45
374.501	9.5
374.71	9.04
374.919	8.64
375.128	8.81
375.336	9.32
375.545	9.86
375.754	10.11
375.963	10.43
376.171	10.75
376.38	9.98
376.589	9.82
376.798	9.95
377.006	10.32
377.215	10.66
377.424	10.46
377.632	10.29
377.841	10.16
378.05	9.94
378.258	9.52
378.467	9.28
378.675	9.79
378.884	9.72
379.093	9.66
379.301	9.64
379.51	9.75
379.718	10.09
379.927	10.14
380.135	10.05
380.344	10.41
380.552	9.99
380.761	10.23
380.969	10.39
381.177	10.57
381.386	9.92
381.594	9.72
381.803	9.46
382.011	9.18
382.219	9.16
382.428	9.14
382.636	8.44
382.845	8.96
383.053	9.06
383.261	8.61
383.469	8.59
383.678	9.51
383.886	9.8
384.094	9.74
384.302	9.65
384.511	9.7
384.719	9.43
384.927	9.83
385.135	10.05
385.343	9.7
385.552	9.67
385.76	9.91
385.968	9.86
386.176	9.68
386.384	9.52
386.592	9.39
386.8	9.11
387.008	9.39
387.216	9.17
387.424	8.72
387.633	8.54
387.841	8.55
388.049	8.17
388.257	8.14
388.465	7.86
388.672	8
388.88	7.78
389.088	7.68
389.296	7.62
389.504	7.42
389.712	7.44
389.92	7.52
390.128	7.43
390.336	7.46
390.544	7.29
390.751	7.65
390.959	7.64
391.167	7.93
391.375	8.12
391.583	8
391.79	8.12
391.998	8.11
392.206	8.44
392.414	8.27
392.621	8.32
392.829	8.12
393.037	7.89
393.244	7.92
393.452	7.81
393.66	8.1
393.867	8.25
394.075	8.61
394.283	8.57
394.49	8.35
394.698	8.8
394.905	8.87
395.113	8.93
395.32	9.02
395.528	8.94
395.735	8.82
395.943	8.43
396.15	8.44
396.358	7.94
396.565	8.05
396.773	8.16
396.98	8.1
397.188	8.12
397.395	8.21
397.602	8.19
397.81	8.29
398.017	8.18
398.225	8.3
398.432	8.09
398.639	8.17
398.847	8.27
399.054	8.2
399.261	8.09
399.468	7.94
399.676	8
399.883	7.98
400.09	7.78
400.297	7.79
400.505	7.56
400.712	7.37
400.919	7.42
401.126	7.51
401.333	7.41
401.54	7.31
401.748	7.13
401.955	7.02
402.162	7.1
402.369	7.15
402.576	6.92
402.783	6.97
402.99	7.13
403.197	6.92
403.404	6.89
403.611	7.17
403.818	7.2
404.025	7.35
404.232	7.4
404.439	7.38
404.646	7.32
404.853	7.82
405.06	7.88
405.267	8.24
405.474	8.53
405.681	8.49
405.887	8.25
406.094	8.27
406.301	8.24
406.508	7.94
406.715	7.66
406.922	7.66
407.128	7.5
407.335	7.4
407.542	7.39
407.749	7.4
407.955	7.44
408.162	7.28
408.369	7.37
408.575	7.59
408.782	7.56
408.989	7.83
409.195	7.91
409.402	7.99
409.609	8.1
409.815	7.64
410.022	7.57
410.228	7.51
410.435	7.74
410.642	7.67
410.848	7.84
411.055	8.13
411.261	7.86
411.468	8
411.674	7.85
411.881	7.57
412.087	8.05
412.294	8.31
412.5	8.22
412.706	8.05
412.913	7.93
413.119	7.74
413.326	7.84
413.532	7.97
413.738	7.89
413.945	8.01
414.151	8.16
414.357	7.78
414.564	7.72
414.77	7.99
414.976	7.89
415.182	8.1
415.389	8.12
415.595	8.18
415.801	8.14
416.007	8.09
416.214	8.06
416.42	8.28
416.626	8.49
416.832	8.32
417.038	8.11
417.244	8.39
417.45	8.28
417.657	8.09
417.863	7.97
418.069	8.12
418.275	8.21
418.481	8.18
418.687	8.02
418.893	7.83
419.099	7.79
419.305	7.83
419.511	7.82
419.717	7.82
419.923	7.87
420.129	7.97
420.335	7.8
420.541	7.66
420.746	7.6
420.952	7.63
421.158	7.68
421.364	7.8
421.57	7.7
421.776	7.74
421.982	7.67
422.187	7.62
422.393	7.48
422.599	7.55
422.805	7.73
423.01	7.86
423.216	7.85
423.422	7.84
423.628	7.8
423.833	7.83
424.039	7.78
424.245	7.89
424.45	8.08
424.656	8.12
424.862	8.17
425.067	8
425.273	7.84
425.478	7.9
425.684	7.95
425.889	7.96
426.095	7.9
426.301	7.88
426.506	7.82
426.712	7.51
426.917	7.42
427.123	7.34
427.328	7.45
427.533	7.57
427.739	7.53
427.944	7.56
428.15	7.44
428.355	7.67
428.561	7.71
428.766	7.68
428.971	7.99
429.177	8.2
429.382	8.49
429.587	8.36
429.793	8.43
429.998	8.46
430.203	8.4
430.408	8.56
430.614	8.35
430.819	8.32
431.024	8.35
431.229	8.18
431.434	7.87
431.64	7.6
431.845	7.67
432.05	7.69
432.255	7.66
432.46	7.61
432.665	7.32
432.87	7.35
433.076	7.3
433.281	7.24
433.486	7.22
433.691	7.51
433.896	7.47
434.101	7.46
434.306	7.37
434.511	7.2
434.716	7.13
434.921	7.05
435.126	7.15
435.331	7.19
435.535	7.13
435.74	6.96
435.945	6.77
436.15	6.63
436.355	6.67
436.56	6.7
436.765	6.84
436.97	6.91
437.174	7.23
437.379	7.23
437.584	7.09
437.789	7.2
437.993	7.43
438.198	7.46
438.403	7.6
438.608	7.59
438.812	7.44
439.017	7.45
439.222	7.63
439.426	7.57
439.631	7.58
439.836	7.67
440.04	7.63
440.245	7.63
440.45	7.72
440.654	7.64
440.859	7.58
441.063	7.68
441.268	7.71
441.472	7.52
441.677	7.55
441.881	7.57
442.086	7.44
442.29	7.56
442.495	7.57
442.699	7.52
442.904	7.56
443.108	7.52
443.312	7.52
443.517	7.59
443.721	7.73
443.925	7.53
444.13	7.41
444.334	7.49
444.538	7.26
444.743	7.23
444.947	7.19
445.151	7.28
445.356	7.3
445.56	7.37
445.764	7.23
445.968	7.1
446.173	7.22
446.377	7.2
446.581	7.21
446.785	7.22
446.989	7.12
447.193	7.12
447.398	7.15
447.602	7.08
447.806	6.96
448.01	6.93
448.214	6.95
448.418	6.88
448.622	6.89
448.826	6.85
449.03	6.91
449.234	6.92
449.438	6.84
449.642	6.71
449.846	6.79
450.05	6.85
450.254	6.94
450.458	6.84
450.662	6.92
450.866	6.88
451.069	7.02
451.273	6.97
451.477	6.97
451.681	6.96
451.885	7.06
452.089	7.12
452.292	7.22
452.496	7.29
452.7	7.39
452.904	7.28
453.107	7.28
453.311	7.17
453.515	7.14
453.719	7.17
453.922	7.37
454.126	7.11
454.33	7.13
454.533	6.92
454.737	6.8
454.94	6.76
455.144	6.93
455.348	6.82
455.551	6.83
455.755	7.08
455.958	7.15
456.162	7.15
456.365	7.33
456.569	7.36
456.772	7.34
456.976	7.32
457.179	7.38
457.383	7.24
457.586	7.24
457.79	7.21
457.993	7.18
458.196	7.21
458.4	7.14
458.603	7.21
458.807	7.12
459.01	7.22
459.213	7.24
459.417	7.22
459.62	7.19
459.823	7.22
460.026	7.32
460.23	7.16
460.433	7.06
460.636	6.95
460.839	6.88
461.042	6.99
461.246	6.87
461.449	6.92
461.652	6.87
461.855	6.88
462.058	7.02
462.261	6.94
462.464	7.11
462.668	7.05
462.871	7.13
463.074	7.17
463.277	7.14
463.48	7.25
463.683	7.18
463.886	7.17
464.089	7.14
464.292	6.92
464.495	6.77
464.698	6.74
464.901	6.92
465.104	7.15
465.306	7.19
465.509	7.09
465.712	7.11
465.915	7.14
