Data from LC_236_Reflection_2.txt Node
Date: Thu Nov 19 22:08:01 EST 2015
User: robert
Spectrometer: USB4E03001
Autoset integration time: false
Trigger mode: 4
Integration Time (sec): 1.000000E-1
Scans to average: 15
Electric dark correction enabled: true
Nonlinearity correction enabled: false
Boxcar width: 5
Stray light correction enabled: false
XAxis mode: Wavelengths
Stop averaging: false
Number of Pixels in Spectrum: 3648
>>>>>Begin Spectral Data<<<<<
177.566	4.5
177.785	7.76
178.005	52.25
178.225	30.36
178.445	27.41
178.665	10.4
178.885	100.07
179.105	406.55
179.324	203.57
179.544	12.59
179.764	-20.97
179.984	22.54
180.204	34.23
180.423	29.18
180.643	63.99
180.863	48.88
181.083	47.35
181.302	24.23
181.522	62.41
181.742	67.6
181.961	92.92
182.181	149.6
182.401	172.72
182.621	174.75
182.84	239.8
183.06	197.88
183.279	205.07
183.499	209.73
183.719	506.58
183.938	1020.2
184.158	-615.72
184.377	-723.72
184.597	378.32
184.816	-3066.98
185.036	1.72
185.256	448.33
185.475	81.71
185.695	114.13
185.914	140.19
186.134	140.07
186.353	185.86
186.572	135.27
186.792	266.05
187.011	-1817.27
187.231	-507.33
187.45	-1130.09
187.67	-90.98
187.889	-73.91
188.108	-47.36
188.328	-51.67
188.547	-336
188.766	-526.47
188.986	-665.32
189.205	10209.8
189.424	303.1
189.644	302.96
189.863	189.78
190.082	148.23
190.302	201.64
190.521	173.55
190.74	149.19
190.959	137.78
191.178	117.41
191.398	89.06
191.617	21.01
191.836	-34
192.055	-54.61
192.274	-87.58
192.494	-136.01
192.713	-29.44
192.932	-7.82
193.151	3.88
193.37	11.09
193.589	26.11
193.808	51.84
194.027	66.96
194.246	64.02
194.465	82.1
194.685	78.73
194.904	76.91
195.123	93.94
195.342	101.58
195.561	83.83
195.78	72.71
195.999	69.42
196.218	85.05
196.436	76.65
196.655	79.6
196.874	81.69
197.093	80.36
197.312	131.87
197.531	160.17
197.75	268.05
197.969	320.12
198.188	-914.96
198.407	-248.53
198.625	-343.36
198.844	-259.95
199.063	-1664.67
199.282	-150.8
199.501	-227.6
199.719	-322.84
199.938	-52.56
200.157	-109.68
200.376	-140.22
200.594	584.52
200.813	5.96
201.032	189.13
201.251	198.95
201.469	-71.95
201.688	46.25
201.907	61.79
202.125	182.55
202.344	86.2
202.563	106.44
202.781	97.64
203	88.93
203.218	121.83
203.437	59.46
203.656	97.15
203.874	171.26
204.093	158.68
204.311	60.22
204.53	33.24
204.748	30.78
204.967	16
205.185	-15.85
205.404	-32.87
205.622	-48.31
205.841	44.06
206.059	15.22
206.278	-57
206.496	-45.1
206.715	0.04
206.933	54.22
207.151	81.93
207.37	193.32
207.588	105.65
207.806	126.58
208.025	115.27
208.243	-9.64
208.461	-81.18
208.68	145.99
208.898	155.8
209.116	70.92
209.335	117.69
209.553	331.98
209.771	-962.18
209.989	352.45
210.208	19.87
210.426	262.13
210.644	108.69
210.862	84.13
211.081	67.6
211.299	13.25
211.517	53.32
211.735	22.58
211.953	16.05
212.171	11.83
212.39	36.34
212.608	47.01
212.826	68.67
213.044	67.55
213.262	65.35
213.48	48.24
213.698	90.45
213.916	124.28
214.134	143.59
214.352	217.5
214.57	313.76
214.788	499.86
215.006	364.47
215.224	142.48
215.442	150.41
215.66	38.65
215.878	-69.13
216.096	-187.69
216.314	-376.22
216.532	-463.34
216.75	-1055.54
216.968	302.09
217.185	1013.97
217.403	1935.76
217.621	3716.87
217.839	-242.22
218.057	-126.8
218.275	6.57
218.492	-5.51
218.71	1.54
218.928	-18.52
219.146	-37.52
219.363	-6.7
219.581	-13.68
219.799	-5.15
220.017	44.17
220.234	60.4
220.452	54.28
220.67	64.28
220.887	44.29
221.105	48.24
221.323	53.92
221.54	51.66
221.758	50.89
221.976	42.03
222.193	47.44
222.411	13.22
222.629	6.35
222.846	4.78
223.064	1.33
223.281	2.34
223.499	4.29
223.716	6.58
223.934	14.51
224.151	16.41
224.369	16.61
224.586	4.59
224.804	13.87
225.021	15.07
225.239	17.7
225.456	9.3
225.674	12.2
225.891	9.04
226.108	12.45
226.326	3.86
226.543	7.5
226.76	16.61
226.978	22.58
227.195	27.69
227.413	17.74
227.63	5.44
227.847	8.67
228.064	9.16
228.282	11.37
228.499	11.43
228.716	12.9
228.934	12.43
229.151	12.11
229.368	11.09
229.585	11.22
229.802	12.16
230.02	16.21
230.237	16.33
230.454	16.31
230.671	12.34
230.888	11.36
231.105	8.19
231.323	8.17
231.54	7.08
231.757	7.05
231.974	5.08
232.191	5.93
232.408	1.21
232.625	-2.46
232.842	-0.31
233.059	5.36
233.276	9.99
233.493	17.37
233.71	17.43
233.927	19.16
234.144	19.62
234.361	15.08
234.578	12.79
234.795	16.67
235.012	22.2
235.229	19.81
235.446	21.59
235.663	16.54
235.879	15.97
236.096	12.76
236.313	9.84
236.53	11.89
236.747	14.61
236.964	18.32
237.181	14.64
237.397	12.18
237.614	10.74
237.831	13.27
238.048	17.83
238.264	11.79
238.481	14.73
238.698	13.56
238.915	13.73
239.131	14.91
239.348	14.15
239.565	16.42
239.781	14.32
239.998	13.1
240.215	8.38
240.431	7.24
240.648	9.2
240.865	7.92
241.081	8.51
241.298	9.05
241.514	9.94
241.731	9.19
241.947	10.01
242.164	9.96
242.38	10.83
242.597	11.96
242.814	13.8
243.03	13.51
243.246	13.78
243.463	12.89
243.679	11.54
243.896	10.92
244.112	11.77
244.329	10.19
244.545	9.45
244.762	9.37
244.978	8.03
245.194	4.6
245.411	4.12
245.627	4.26
245.843	5.53
246.06	8.32
246.276	7.88
246.492	7.69
246.709	8.52
246.925	8.9
247.141	8.73
247.357	9.52
247.574	9.59
247.79	9.95
248.006	11.04
248.222	10.98
248.439	10.33
248.655	11.01
248.871	10.88
249.087	10.23
249.303	10.46
249.519	10.44
249.736	9.85
249.952	9.8
250.168	9.34
250.384	7.46
250.6	8.55
250.816	8.71
251.032	9.18
251.248	9.12
251.464	8.79
251.68	8.54
251.896	8.41
252.112	6.85
252.328	8.1
252.544	7.57
252.76	8.35
252.976	8.81
253.192	8.38
253.408	7.81
253.624	8.54
253.84	9.05
254.056	8.41
254.272	8.24
254.487	9.17
254.703	8.65
254.919	7.15
255.135	5.32
255.351	2.32
255.567	3.44
255.782	1.98
255.998	4.87
256.214	5.92
256.43	7.16
256.646	10.15
256.861	10.69
257.077	9.38
257.293	11.27
257.508	13.42
257.724	13.16
257.94	11.33
258.155	12.38
258.371	10.66
258.587	9.72
258.802	9.41
259.018	9.53
259.234	9.51
259.449	9.3
259.665	8.55
259.88	7.63
260.096	7.96
260.312	7.37
260.527	6.51
260.743	6.49
260.958	7.25
261.174	7.5
261.389	7.17
261.605	7.56
261.82	7.43
262.036	7.49
262.251	6.98
262.466	6.94
262.682	7.09
262.897	8.3
263.113	7.81
263.328	7.61
263.543	7.41
263.759	6.76
263.974	5.92
264.189	7.84
264.405	8.97
264.62	10.49
264.835	10.63
265.051	11.58
265.266	12.45
265.481	11.85
265.696	11.37
265.912	9.97
266.127	10.14
266.342	10.15
266.557	8.74
266.773	8.03
266.988	6.89
267.203	6.14
267.418	6.06
267.633	5.54
267.848	6.66
268.064	6.53
268.279	6.87
268.494	7.05
268.709	6.97
268.924	6.34
269.139	6.95
269.354	7.38
269.569	8.08
269.784	8.13
269.999	7.23
270.214	7.24
270.429	6.45
270.644	6.73
270.859	6.7
271.074	6.07
271.289	6.8
271.504	7.05
271.719	7.66
271.934	7.61
272.149	7.45
272.363	7.88
272.578	7.79
272.793	8.28
273.008	7.86
273.223	7.57
273.438	8.06
273.653	8.21
273.867	7.41
274.082	7.02
274.297	6.55
274.512	7.11
274.726	7.03
274.941	6.57
275.156	5.54
275.371	5.17
275.585	4.79
275.8	4.45
276.015	4.4
276.229	6.05
276.444	6.25
276.659	7.31
276.873	6.32
277.088	8.08
277.302	7.38
277.517	8.76
277.732	10.07
277.946	9.96
278.161	9.86
278.375	9.67
278.59	8.24
278.804	7.81
279.019	7.72
279.233	8.95
279.448	8.38
279.662	9.14
279.877	8.37
280.091	7.31
280.306	7.5
280.52	8.41
280.735	8.86
280.949	8.76
281.163	8.62
281.378	8.32
281.592	9.27
281.806	8.83
282.021	9.6
282.235	9.4
282.449	9.89
282.664	10.36
282.878	10.11
283.092	9.9
283.307	10.37
283.521	10.04
283.735	10.19
283.949	9.62
284.164	9.33
284.378	8.34
284.592	8.26
284.806	7.99
285.02	7.78
285.234	8.03
285.449	7.72
285.663	7.65
285.877	8.09
286.091	7.43
286.305	6.86
286.519	7.07
286.733	7.23
286.947	7.92
287.161	7.59
287.375	7.37
287.589	6.73
287.803	6.12
288.017	6.51
288.231	6.31
288.445	5.73
288.659	5.22
288.873	4.03
289.087	3.45
289.301	3.57
289.515	3.08
289.729	2.91
289.943	3.11
290.157	4.45
290.371	3.5
290.584	3.18
290.798	4.46
291.012	4.12
291.226	4.87
291.44	6.31
291.654	5.67
291.867	6.89
292.081	7.29
292.295	7.85
292.509	6.85
292.722	7.83
292.936	8.36
293.15	7.1
293.364	8.81
293.577	8.25
293.791	6.81
294.005	6.79
294.218	7.51
294.432	6.78
294.645	6.12
294.859	6.25
295.073	5.81
295.286	6.01
295.5	6.79
295.713	6.52
295.927	7.11
296.14	7.68
296.354	7.28
296.568	6.52
296.781	6.63
296.994	7.04
297.208	7.57
297.421	8.18
297.635	8.15
297.848	8.32
298.062	8.92
298.275	8.77
298.489	8.44
298.702	9.58
298.915	9.93
299.129	10.66
299.342	10.13
299.555	9.31
299.769	8.38
299.982	8.1
300.195	8.17
300.409	7.05
300.622	6.51
300.835	7.37
301.048	6.42
301.262	6.36
301.475	5.37
301.688	4.18
301.901	4.96
302.115	5.29
302.328	5.85
302.541	4.54
302.754	3.91
302.967	4.23
303.18	3.62
303.393	3.68
303.607	3.53
303.82	4.56
304.033	6.33
304.246	7.28
304.459	7.76
304.672	7.83
304.885	8.81
305.098	9.42
305.311	10.22
305.524	10.98
305.737	11.8
305.95	11.22
306.163	10.52
306.376	10.31
306.589	9.59
306.802	9.02
307.015	8.12
307.228	8.01
307.44	8.36
307.653	8.54
307.866	7.61
308.079	7.83
308.292	8.11
308.505	8.13
308.718	7.62
308.93	7.32
309.143	6.74
309.356	7.21
309.569	7.7
309.781	8.4
309.994	6.87
310.207	6.37
310.42	6.58
310.632	6.24
310.845	6.52
311.058	7.14
311.27	7.02
311.483	7.37
311.696	7.25
311.908	7.74
312.121	6.89
312.333	7.68
312.546	7.83
312.759	7.41
312.971	8.48
313.184	7.78
313.396	8.02
313.609	8.24
313.821	8.78
314.034	8.9
314.246	7.49
314.459	7.1
314.671	7.06
314.884	7.82
315.096	7.48
315.309	7.13
315.521	8.27
315.733	8.03
315.946	8.85
316.158	9.7
316.371	8.65
316.583	9.33
316.795	7.98
317.008	7.94
317.22	6.98
317.432	6.78
317.644	6.84
317.857	5.17
318.069	5.03
318.281	3.54
318.494	3.27
318.706	3.45
318.918	2.6
319.13	3.82
319.342	3.08
319.555	2.96
319.767	3.34
319.979	2.96
320.191	4.32
320.403	4.66
320.615	5.14
320.827	4.16
321.039	3.13
321.252	3.89
321.464	3.87
321.676	4.46
321.888	4.8
322.1	4.73
322.312	5.13
322.524	5.5
322.736	5.24
322.948	6.63
323.16	7.27
323.372	8.54
323.584	7.79
323.796	7.24
324.007	7.52
324.219	8.22
324.431	8.4
324.643	8.21
324.855	7.98
325.067	8.23
325.279	8.23
325.491	8.52
325.702	8.92
325.914	9.08
326.126	10.95
326.338	11.15
326.55	10.64
326.761	10.45
326.973	10.76
327.185	11.19
327.396	11.48
327.608	10.77
327.82	10.86
328.032	11.52
328.243	12.04
328.455	11.1
328.666	11.31
328.878	11.97
329.09	12.88
329.301	13.27
329.513	13.64
329.725	13.34
329.936	13.64
330.148	13.12
330.359	12.78
330.571	12.59
330.782	14.06
330.994	14.79
331.205	15.33
331.417	14.56
331.628	14.43
331.84	13.65
332.051	14.17
332.262	14.65
332.474	15.04
332.685	15.61
332.897	16.48
333.108	15.67
333.319	15.14
333.531	14.05
333.742	14.72
333.953	15.44
334.165	15.23
334.376	14.93
334.587	14.38
334.799	14.16
335.01	13.06
335.221	12.79
335.432	13.52
335.644	14.03
335.855	14.34
336.066	14.74
336.277	13.73
336.488	14.38
336.7	13.73
336.911	13.49
337.122	13.49
337.333	14.5
337.544	13.85
337.755	12.96
337.966	11.64
338.177	11.25
338.388	10.35
338.599	10.97
338.811	11.15
339.022	11.58
339.233	11.98
339.444	12.52
339.655	12.73
339.866	13.39
340.076	14.25
340.287	15.14
340.498	15.33
340.709	15.73
340.92	14.98
341.131	14.98
341.342	15.01
341.553	15.05
341.764	14.43
341.975	13.72
342.185	14.16
342.396	13.38
342.607	13.98
342.818	14.13
343.029	14.68
343.239	14.94
343.45	14.5
343.661	14.46
343.872	14.18
344.082	14.45
344.293	15.17
344.504	15.3
344.714	15.16
344.925	14.54
345.136	14.61
345.346	14.06
345.557	14.03
345.768	14.54
345.978	15.02
346.189	14.33
346.399	14.25
346.61	13.41
346.821	12.9
347.031	13.34
347.242	13.81
347.452	14.57
347.663	14
347.873	14.57
348.084	14.29
348.294	13.9
348.504	14.95
348.715	15.62
348.925	16.62
349.136	16.54
349.346	16.12
349.557	16.1
349.767	15.69
349.977	16.1
350.188	15.42
350.398	15.36
350.608	15.73
350.819	15.46
351.029	14.63
351.239	13.86
351.449	13.79
351.66	14.01
351.87	13.74
352.08	13.59
352.29	14.24
352.501	14.52
352.711	14.6
352.921	14
353.131	13.79
353.341	13.5
353.552	14.03
353.762	14.07
353.972	14.74
354.182	14.59
354.392	14.98
354.602	13.83
354.812	13.41
355.022	12.84
355.232	13.77
355.442	14.6
355.652	14.77
355.862	14.65
356.072	14.96
356.282	15.25
356.492	15.13
356.702	15.12
356.912	15.53
357.122	15.7
357.332	16.57
357.542	15.45
357.752	14.97
357.962	15.1
358.171	15.11
358.381	14.81
358.591	13.71
358.801	13.99
359.011	14.07
359.221	14.02
359.43	13.9
359.64	13.63
359.85	14.34
360.06	14.57
360.269	14.58
360.479	14.6
360.689	14.32
360.899	14.39
361.108	14.42
361.318	14.32
361.528	14.32
361.737	14.73
361.947	14.23
362.156	14.17
362.366	14.45
362.576	14.49
362.785	14.05
362.995	14.16
363.204	14.39
363.414	13.71
363.623	13.46
363.833	13.51
364.042	13.57
364.252	14.27
364.461	14.09
364.671	13.79
364.88	14
365.09	14.38
365.299	14.56
365.509	14.59
365.718	15.56
365.927	15.5
366.137	15.52
366.346	15.24
366.555	14.76
366.765	14.98
366.974	14.88
367.183	14.5
367.393	14.16
367.602	14.65
367.811	15.17
368.021	14.46
368.23	13.64
368.439	13.44
368.648	13.22
368.857	13.72
369.067	13.75
369.276	13.78
369.485	13.43
369.694	13.52
369.903	12.82
370.112	12.67
370.321	12.79
370.531	13.69
370.74	13.28
370.949	13.49
371.158	13.18
371.367	13.2
371.576	12.63
371.785	13.31
371.994	13.09
372.203	13.18
372.412	13.39
372.621	13.73
372.83	13.73
373.039	13.84
373.248	14.24
373.457	13.97
373.666	14.26
373.874	14.75
374.083	14.02
374.292	14.75
374.501	14.63
374.71	14.21
374.919	13.93
375.128	14.31
375.336	14.27
375.545	13.76
375.754	13.98
375.963	13.56
376.171	13.31
376.38	13.53
376.589	12.74
376.798	12.65
377.006	12.42
377.215	12.41
377.424	11.89
377.632	12.43
377.841	12.59
378.05	12.8
378.258	12.65
378.467	12.56
378.675	12.38
378.884	13.06
379.093	13.4
379.301	13.56
379.51	13.53
379.718	13.91
379.927	13.64
380.135	13.55
380.344	13.58
380.552	13.68
380.761	13.71
380.969	14.01
381.177	13.54
381.386	13.41
381.594	13.57
381.803	13.82
382.011	13.34
382.219	13.39
382.428	13.41
382.636	12.97
382.845	12.92
383.053	12.77
383.261	12.79
383.469	13.22
383.678	13.4
383.886	13.25
384.094	13.29
384.302	13.8
384.511	13.65
384.719	13.3
384.927	13.64
385.135	14.05
385.343	14.4
385.552	14.53
385.76	14.16
385.968	13.94
386.176	13.82
386.384	13.49
386.592	12.89
386.8	12.79
387.008	12.72
387.216	12.45
387.424	12.09
387.633	12.15
387.841	12.02
388.049	12.43
388.257	12.67
388.465	12.63
388.672	12.72
388.88	12.89
389.088	13.05
389.296	13.43
389.504	13.43
389.712	13.67
389.92	13.31
390.128	13.36
390.336	12.9
390.544	13.06
390.751	13.27
390.959	13.04
391.167	13.36
391.375	13.19
391.583	12.77
391.79	12.68
391.998	12.74
392.206	12.86
392.414	12.97
392.621	13.08
392.829	12.76
393.037	12.82
393.244	12.87
393.452	12.55
393.66	12.59
393.867	12.79
394.075	12.99
394.283	12.54
394.49	12.57
394.698	12.43
394.905	12.64
395.113	12.82
395.32	12.56
395.528	12.83
395.735	13.16
395.943	13.19
396.15	12.95
396.358	12.83
396.565	13.15
396.773	13.09
396.98	13.06
397.188	12.7
397.395	12.39
397.602	12.5
397.81	12.3
398.017	12.2
398.225	12.27
398.432	12.46
398.639	12.35
398.847	12.24
399.054	12.4
399.261	12.26
399.468	12.55
399.676	12.77
399.883	12.73
400.09	12.76
400.297	12.72
400.505	12.85
400.712	13.29
400.919	13.54
401.126	13.67
401.333	13.66
401.54	13.82
401.748	13.78
401.955	13.83
402.162	14.01
402.369	14.3
402.576	14.56
402.783	14.45
402.99	14.22
403.197	14.13
403.404	13.89
403.611	13.77
403.818	13.95
404.025	13.93
404.232	13.7
404.439	13.7
404.646	13.66
404.853	13.61
405.06	13.57
405.267	13.94
405.474	13.84
405.681	13.97
405.887	14.21
406.094	13.89
406.301	14.01
406.508	14.17
406.715	14.07
406.922	13.77
407.128	13.4
407.335	13.52
407.542	13.31
407.749	13.45
407.955	13.36
408.162	13.27
408.369	13.57
408.575	13.51
408.782	13.42
408.989	13.48
409.195	13.62
409.402	13.7
409.609	13.62
409.815	13.28
410.022	13.24
410.228	13.61
410.435	13.63
410.642	13.4
410.848	13.31
411.055	13.4
411.261	13.37
411.468	13.35
411.674	13.41
411.881	13.65
412.087	13.93
412.294	13.91
412.5	13.63
412.706	13.27
412.913	13.19
413.119	13.23
413.326	13.03
413.532	13.2
413.738	13.14
413.945	13.17
414.151	13.19
414.357	13.12
414.564	13.2
414.77	13.29
414.976	13.73
415.182	13.9
415.389	13.81
415.595	13.63
415.801	13.45
416.007	13.44
416.214	13.5
416.42	13.26
416.626	13.38
416.832	13.42
417.038	13.41
417.244	13.23
417.45	13.35
417.657	13.57
417.863	13.95
418.069	14.1
418.275	14.24
418.481	14.29
418.687	14.4
418.893	14.46
419.099	14.45
419.305	14.45
419.511	14.47
419.717	14.33
419.923	14.29
420.129	14.18
420.335	14.02
420.541	13.94
420.746	13.86
420.952	13.88
421.158	13.8
421.364	13.75
421.57	13.66
421.776	13.72
421.982	13.68
422.187	13.62
422.393	13.58
422.599	13.54
422.805	13.58
423.01	13.59
423.216	13.55
423.422	13.43
423.628	13.43
423.833	13.42
424.039	13.3
424.245	13.36
424.45	13.43
424.656	13.5
424.862	13.66
425.067	13.59
425.273	13.62
425.478	13.56
425.684	13.72
425.889	13.77
426.095	13.77
426.301	13.69
426.506	13.75
426.712	13.56
426.917	13.63
427.123	13.57
427.328	13.57
427.533	13.42
427.739	13.52
427.944	13.28
428.15	13.09
428.355	13.04
428.561	13.11
428.766	13.1
428.971	13.2
429.177	13.1
429.382	13.08
429.587	13.21
429.793	13.17
429.998	12.96
430.203	13.06
430.408	13.11
430.614	13.36
430.819	13.3
431.024	13.28
431.229	13.06
431.434	12.89
431.64	12.66
431.845	12.69
432.05	13.02
432.255	12.84
432.46	12.77
432.665	12.88
432.87	12.8
433.076	13.1
433.281	13.13
433.486	13.31
433.691	13.35
433.896	13.51
434.101	13.3
434.306	13.15
434.511	13.36
434.716	13.47
434.921	13.44
435.126	13.53
435.331	13.24
435.535	13.18
435.74	13.19
435.945	13.42
436.15	13.49
436.355	13.76
436.56	13.7
436.765	13.86
436.97	13.88
437.174	13.89
437.379	13.81
437.584	13.83
437.789	13.93
437.993	13.79
438.198	13.54
438.403	13.45
438.608	13.35
438.812	13.28
439.017	13.11
439.222	13.11
439.426	13.01
439.631	12.97
439.836	13.17
440.04	13.21
440.245	13.38
440.45	13.44
440.654	13.49
440.859	13.44
441.063	13.63
441.268	13.69
441.472	13.59
441.677	13.64
441.881	13.69
442.086	13.39
442.29	13.35
442.495	13.23
442.699	13.3
442.904	13.28
443.108	13.38
443.312	13.22
443.517	13.25
443.721	13.4
443.925	13.49
444.13	13.53
444.334	13.76
444.538	13.77
444.743	13.74
444.947	13.68
445.151	13.6
445.356	13.6
445.56	13.68
445.764	13.71
445.968	13.76
446.173	13.78
446.377	13.74
446.581	13.66
446.785	13.57
446.989	13.68
447.193	13.66
447.398	13.57
447.602	13.55
447.806	13.47
448.01	13.3
448.214	13.2
448.418	13.1
448.622	13.09
448.826	13.12
449.03	13.1
449.234	12.94
449.438	12.96
449.642	12.92
449.846	12.96
450.05	12.86
450.254	12.92
450.458	12.79
450.662	12.7
450.866	12.59
451.069	12.57
451.273	12.63
451.477	12.7
451.681	12.7
451.885	12.81
452.089	12.65
452.292	12.64
452.496	12.63
452.7	12.55
452.904	12.48
453.107	12.51
453.311	12.6
453.515	12.27
453.719	12.41
453.922	12.38
454.126	12.3
454.33	12.3
454.533	12.27
454.737	12.26
454.94	12.47
455.144	12.67
455.348	12.71
455.551	12.66
455.755	13.05
455.958	12.77
456.162	12.72
456.365	12.71
456.569	12.76
456.772	12.82
456.976	12.98
457.179	12.95
457.383	12.88
457.586	12.83
457.79	12.9
457.993	12.76
458.196	12.88
458.4	12.95
458.603	13.16
458.807	13.23
459.01	13.2
459.213	13.2
459.417	13.21
459.62	13.17
459.823	13.24
460.026	13.11
460.23	13.14
460.433	13.09
460.636	13.08
