Data from LC_212__Reflection_3.txt Node
Date: Thu Nov 19 12:37:25 EST 2015
User: robert
Spectrometer: USB4E03001
Autoset integration time: false
Trigger mode: 4
Integration Time (sec): 1.000000E-1
Scans to average: 15
Electric dark correction enabled: true
Nonlinearity correction enabled: false
Boxcar width: 5
Stray light correction enabled: false
XAxis mode: Wavelengths
Stop averaging: false
Number of Pixels in Spectrum: 3648
>>>>>Begin Spectral Data<<<<<
177.566	644.15
177.785	-772.87
178.005	264.1
178.225	127.66
178.445	92.65
178.665	102.26
178.885	16.54
179.105	-219.23
179.324	-98.32
179.544	-203.38
179.764	188.51
179.984	726.63
180.204	499.08
180.423	176.92
180.643	143.23
180.863	118.09
181.083	131.63
181.302	146.8
181.522	153.39
181.742	46.51
181.961	18.83
182.181	20
182.401	29.01
182.621	8.06
182.84	25.3
183.06	24.08
183.279	18.63
183.499	22.84
183.719	15.36
183.938	35.42
184.158	132.82
184.377	188.16
184.597	325.36
184.816	-207.77
185.036	-184.28
185.256	-87.95
185.475	-4.53
185.695	8.86
185.914	8.32
186.134	-39.26
186.353	-36.35
186.572	-177.57
186.792	-172.15
187.011	873.16
187.231	550.55
187.45	312.51
187.67	138.13
187.889	214.96
188.108	983.96
188.328	237.93
188.547	-2.62
188.766	-49.76
188.986	50.03
189.205	68.51
189.424	43.91
189.644	32.24
189.863	66.08
190.082	15.67
190.302	18.31
190.521	57.39
190.74	14.63
190.959	-468.23
191.178	-192.31
191.398	-118.09
191.617	-264.39
191.836	-130.27
192.055	33.56
192.274	-50.68
192.494	-10.33
192.713	-19.99
192.932	-10.44
193.151	86.64
193.37	85.52
193.589	-33.58
193.808	107.07
194.027	-53.85
194.246	146.62
194.465	64.75
194.685	290.11
194.904	-52.65
195.123	-265.75
195.342	-80.17
195.561	34.75
195.78	78.4
195.999	-316.33
196.218	490.6
196.436	-6030.77
196.655	678.72
196.874	135.61
197.093	170.9
197.312	128.38
197.531	451.24
197.75	804.04
197.969	230.14
198.188	-1896.15
198.407	13.7
198.625	43.59
198.844	30.19
199.063	106.79
199.282	89.37
199.501	65.45
199.719	74.02
199.938	102.74
200.157	59.58
200.376	49.75
200.594	33.63
200.813	54.02
201.032	69.8
201.251	128.82
201.469	38.99
201.688	93.75
201.907	142.25
202.125	102.99
202.344	80.28
202.563	105.28
202.781	112.85
203	144.41
203.218	129.16
203.437	185.58
203.656	242.33
203.874	1068.78
204.093	409.42
204.311	-461.91
204.53	-64.05
204.748	-40.14
204.967	-30.06
205.185	-25.77
205.404	-22.26
205.622	-23.68
205.841	-77.43
206.059	-325.37
206.278	-6456.8
206.496	-621.73
206.715	-3206.92
206.933	319.54
207.151	122.53
207.37	130.15
207.588	221.33
207.806	160.87
208.025	176.63
208.243	197.21
208.461	374.23
208.68	455.42
208.898	150.55
209.116	-6809.62
209.335	370.87
209.553	-283.18
209.771	-166.69
209.989	-445.04
210.208	-206.51
210.426	-543.57
210.644	502.66
210.862	388.82
211.081	642.69
211.299	338.32
211.517	304.01
211.735	6142.31
211.953	436.38
212.171	219.78
212.39	176.92
212.608	114.3
212.826	137.15
213.044	301.67
213.262	272.93
213.48	182.16
213.698	312.28
213.916	191.36
214.134	196.74
214.352	227.3
214.57	247.68
214.788	440.13
215.006	-4064.9
215.224	-242.71
215.442	-99.1
215.66	-58.7
215.878	-103.35
216.096	-111.91
216.314	-118.39
216.532	-124.83
216.75	-84.48
216.968	-47.4
217.185	-39.85
217.403	-10.47
217.621	-90.79
217.839	-61.36
218.057	-64.89
218.275	-2.01
218.492	9.01
218.71	21.34
218.928	22.72
219.146	17.42
219.363	10.72
219.581	4.54
219.799	-17.97
220.017	1.1
220.234	-21.47
220.452	-7.49
220.67	-159.17
220.887	-82.56
221.105	-9.46
221.323	43.05
221.54	70.92
221.758	59.32
221.976	17.22
222.193	38.02
222.411	48.34
222.629	39.05
222.846	41.76
223.064	39.4
223.281	25.34
223.499	5.8
223.716	-17.73
223.934	-56.99
224.151	-57.06
224.369	-57.69
224.586	-43.14
224.804	-263.19
225.021	-165.46
225.239	-179.32
225.456	-147.6
225.674	-114.12
225.891	-27.99
226.108	0.6
226.326	13.95
226.543	1.41
226.76	1.54
226.978	-32.81
227.195	-0.24
227.413	-1.11
227.63	-7.58
227.847	-2.11
228.064	4.95
228.282	6.35
228.499	-3.1
228.716	-0.55
228.934	0.33
229.151	3.41
229.368	4.45
229.585	0.31
229.802	-0.18
230.02	3.59
230.237	1.79
230.454	0.17
230.671	-4.01
230.888	-1.23
231.105	-0.08
231.323	2.1
231.54	2.52
231.757	1.35
231.974	4.81
232.191	15.08
232.408	14.52
232.625	11.3
232.842	12.75
233.059	16.39
233.276	18.51
233.493	11.01
233.71	13.49
233.927	3.91
234.144	6.51
234.361	4.55
234.578	-1.75
234.795	-6.84
235.012	-2.63
235.229	-7.68
235.446	-4.6
235.663	-9.8
235.879	-0.04
236.096	-0.25
236.313	0.38
236.53	-0.01
236.747	1.56
236.964	-0.11
237.181	7.33
237.397	4.44
237.614	15.52
237.831	11.9
238.048	13.09
238.264	4.82
238.481	11.99
238.698	21.18
238.915	22.15
239.131	16.59
239.348	18.25
239.565	17.6
239.781	17.52
239.998	14.55
240.215	17.51
240.431	18.64
240.648	18.2
240.865	18.32
241.081	17.29
241.298	15.95
241.514	17.99
241.731	18.29
241.947	17.35
242.164	16.03
242.38	14.6
242.597	12.11
242.814	11.53
243.03	10.13
243.246	7.04
243.463	5.86
243.679	7.8
243.896	9.57
244.112	9.34
244.329	7.88
244.545	11.77
244.762	10.71
244.978	12.7
245.194	12.98
245.411	13.41
245.627	16.75
245.843	17.93
246.06	13.62
246.276	10.33
246.492	9.68
246.709	9.43
246.925	7.63
247.141	7.76
247.357	7.92
247.574	8.51
247.79	8.97
248.006	7.72
248.222	6.57
248.439	7.49
248.655	7.98
248.871	7.62
249.087	7.86
249.303	7.55
249.519	7.22
249.736	6.63
249.952	6.03
250.168	7.14
250.384	6.13
250.6	6.29
250.816	6.4
251.032	4.58
251.248	3.76
251.464	4.54
251.68	6.74
251.896	8.98
252.112	7.99
252.328	6.34
252.544	4.83
252.76	6.54
252.976	6.72
253.192	5.54
253.408	7.75
253.624	7.67
253.84	6.59
254.056	6.57
254.272	5.48
254.487	5.99
254.703	5.65
254.919	6.03
255.135	4.95
255.351	3.92
255.567	2.2
255.782	1.74
255.998	-2.02
256.214	-3.54
256.43	-4.42
256.646	-4.78
256.861	-5.09
257.077	-3.46
257.293	-3.54
257.508	-3.32
257.724	-0.89
257.94	1.54
258.155	1.3
258.371	3.95
258.587	3.3
258.802	4.92
259.018	5.62
259.234	6.45
259.449	6.75
259.665	7.25
259.88	7.65
260.096	6.82
260.312	6.01
260.527	5.54
260.743	5.81
260.958	7.07
261.174	5.67
261.389	5.28
261.605	5.26
261.82	4.59
262.036	2.52
262.251	2.26
262.466	2.23
262.682	2.42
262.897	2.25
263.113	2.56
263.328	1.36
263.543	1.07
263.759	1.87
263.974	0.05
264.189	-0.86
264.405	1.13
264.62	1.15
264.835	2.56
265.051	2.95
265.266	4.27
265.481	1.15
265.696	0.99
265.912	2.13
266.127	1.98
266.342	2.16
266.557	2.73
266.773	4.4
266.988	3.45
267.203	2.92
267.418	2.77
267.633	2.34
267.848	3.09
268.064	2.61
268.279	2.29
268.494	2.67
268.709	4.42
268.924	5.51
269.139	4.27
269.354	3.95
269.569	3.22
269.784	2.89
269.999	4.05
270.214	5.03
270.429	8.07
270.644	8.79
270.859	8.08
271.074	6.23
271.289	5.67
271.504	5.92
271.719	6.58
271.934	5.99
272.149	5.42
272.363	4.7
272.578	4.32
272.793	2.54
273.008	3.6
273.223	3.33
273.438	4.2
273.653	3.97
273.867	4.57
274.082	4.77
274.297	6.75
274.512	7.87
274.726	9.19
274.941	10.74
275.156	10.85
275.371	10.58
275.585	10.72
275.8	9.48
276.015	10.75
276.229	9.95
276.444	10.71
276.659	8.82
276.873	6.48
277.088	4.49
277.302	3.82
277.517	4
277.732	2.39
277.946	2.64
278.161	2.97
278.375	0.84
278.59	0.1
278.804	-0.71
279.019	1.58
279.233	4.37
279.448	4.97
279.662	5.74
279.877	5.42
280.091	5.32
280.306	5.98
280.52	6.07
280.735	6.17
280.949	7.81
281.163	6.75
281.378	4.8
281.592	5.17
281.806	5.62
282.021	4.56
282.235	4.56
282.449	4.84
282.664	3.4
282.878	4.25
283.092	5.69
283.307	5.65
283.521	5.4
283.735	6.01
283.949	5.99
284.164	6.33
284.378	5.39
284.592	6.13
284.806	7.31
285.02	7.56
285.234	6.36
285.449	5.62
285.663	5.03
285.877	5.43
286.091	6.18
286.305	5.8
286.519	5.28
286.733	5.54
286.947	5.02
287.161	3.75
287.375	4.26
287.589	5.43
287.803	4.92
288.017	5.08
288.231	5.05
288.445	4.43
288.659	3.94
288.873	4.63
289.087	4.7
289.301	4.31
289.515	3.35
289.729	3.87
289.943	3.91
290.157	5.48
290.371	6.1
290.584	6.61
290.798	6.99
291.012	7.74
291.226	6.81
291.44	6.9
291.654	6.6
291.867	7.84
292.081	6.58
292.295	5.5
292.509	6.09
292.722	6.21
292.936	6.52
293.15	7.67
293.364	6.98
293.577	6.77
293.791	7.49
294.005	8.85
294.218	9.56
294.432	11.24
294.645	12.32
294.859	9.97
295.073	7.95
295.286	7.6
295.5	6.63
295.713	7.79
295.927	8.37
296.14	7.23
296.354	6.66
296.568	5.58
296.781	4.82
296.994	4.06
297.208	4.34
297.421	5.63
297.635	6.09
297.848	6.1
298.062	5.92
298.275	6.38
298.489	7.01
298.702	7
298.915	7.36
299.129	8.29
299.342	8.85
299.555	10.37
299.769	10.29
299.982	9.87
300.195	9.79
300.409	8.65
300.622	8.35
300.835	8.04
301.048	9.44
301.262	10.42
301.475	8.52
301.688	8.53
301.901	7.69
302.115	7.74
302.328	8.14
302.541	8.33
302.754	9.97
302.967	9.34
303.18	11.43
303.393	9.47
303.607	9.5
303.82	12.11
304.033	12.23
304.246	13.13
304.459	13.3
304.672	13.32
304.885	11.97
305.098	10.61
305.311	11.48
305.524	10.48
305.737	11.2
305.95	10.87
306.163	8.72
306.376	9.33
306.589	8.23
306.802	6.41
307.015	5.92
307.228	6.43
307.44	6.96
307.653	7.04
307.866	7.1
308.079	7.41
308.292	8.32
308.505	8.64
308.718	8.67
308.93	9.21
309.143	10.07
309.356	9.54
309.569	10.63
309.781	10.92
309.994	10.48
310.207	10.39
310.42	10.3
310.632	9.79
310.845	10.37
311.058	9.45
311.27	9.59
311.483	10.12
311.696	10.43
311.908	10.34
312.121	9.76
312.333	10.4
312.546	9.11
312.759	9.06
312.971	8.81
313.184	7.99
313.396	8.43
313.609	7.8
313.821	7.31
314.034	6.92
314.246	6.29
314.459	7.63
314.671	6.77
314.884	7.89
315.096	7.12
315.309	6.94
315.521	7.3
315.733	8.7
315.946	8.65
316.158	9.02
316.371	9.85
316.583	10.67
316.795	10.21
317.008	10.26
317.22	10.39
317.432	10.64
317.644	10.59
317.857	11.51
318.069	11.04
318.281	11.66
318.494	10.51
318.706	10.64
318.918	10.34
319.13	9.94
319.342	10.14
319.555	10.43
319.767	10.41
319.979	11.3
320.191	11.66
320.403	11.83
320.615	10.49
320.827	11.12
321.039	9.96
321.252	9.67
321.464	9.19
321.676	9.13
321.888	7.97
322.1	7.59
322.312	7.91
322.524	7.35
322.736	6.87
322.948	7.41
323.16	7.71
323.372	9.7
323.584	9.86
323.796	9.89
324.007	9.42
324.219	11.03
324.431	12.36
324.643	12.36
324.855	12.29
325.067	12.71
325.279	13.42
325.491	14.13
325.702	13.83
325.914	13.18
326.126	14.19
326.338	14.58
326.55	14.66
326.761	15.19
326.973	15.8
327.185	16.33
327.396	17.03
327.608	16.92
327.82	18.01
328.032	18.57
328.243	21.35
328.455	20.95
328.666	23.36
328.878	23.86
329.09	23.08
329.301	23.42
329.513	23.92
329.725	23.1
329.936	23.14
330.148	23.5
330.359	23.57
330.571	22.7
330.782	24.51
330.994	23.64
331.205	23.5
331.417	24.72
331.628	24.3
331.84	24.51
332.051	25.33
332.262	26.34
332.474	26.14
332.685	27.19
332.897	27.02
333.108	26.34
333.319	26.45
333.531	26.23
333.742	27.29
333.953	27.62
334.165	27.51
334.376	27.08
334.587	27.4
334.799	27.53
335.01	26.69
335.221	27.22
335.432	27.93
335.644	28.48
335.855	29.71
336.066	28.64
336.277	28.19
336.488	29.14
336.7	29.74
336.911	29.91
337.122	29.55
337.333	29.57
337.544	29.76
337.755	30
337.966	29.76
338.177	29
338.388	30.37
338.599	30.95
338.811	30.69
339.022	30.95
339.233	31.1
339.444	30.78
339.655	30.82
339.866	30.49
340.076	30.35
340.287	30.84
340.498	31
340.709	30.44
340.92	30.58
341.131	29.93
341.342	30.34
341.553	30.44
341.764	31
341.975	31.32
342.185	31.12
342.396	31.01
342.607	30.31
342.818	30.79
343.029	30.48
343.239	30.32
343.45	30.43
343.661	29.83
343.872	29.69
344.082	29.71
344.293	29.47
344.504	31.67
344.714	31.33
344.925	31.81
345.136	31.48
345.346	31.78
345.557	32.6
345.768	33.15
345.978	33.87
346.189	33.87
346.399	33.57
346.61	33.38
346.821	31.81
347.031	32.55
347.242	32.04
347.452	32.47
347.663	32.33
347.873	32.38
348.084	31.85
348.294	31.2
348.504	31.2
348.715	32.45
348.925	32.52
349.136	32.19
349.346	31.76
349.557	31.69
349.767	31.67
349.977	31.49
350.188	30.35
350.398	29.69
350.608	29.33
350.819	28.82
351.029	27.15
351.239	27.26
351.449	27.38
351.66	27.27
351.87	27.61
352.08	27.15
352.29	27.74
352.501	27.64
352.711	28.74
352.921	28.57
353.131	28.88
353.341	29.84
353.552	29.57
353.762	29.33
353.972	29.3
354.182	29.07
354.392	28.65
354.602	28.73
354.812	29.63
355.022	29.72
355.232	30.34
355.442	31.09
355.652	31.25
355.862	30.74
356.072	30.63
356.282	30.66
356.492	30.2
356.702	30.71
356.912	30.49
357.122	29.89
357.332	30.28
357.542	30.11
357.752	29.59
357.962	28.77
358.171	29.47
358.381	29.77
358.591	29.68
358.801	30.6
359.011	30.3
359.221	30.2
359.43	30.64
359.64	30.41
359.85	30.6
360.06	31.03
360.269	31.65
360.479	31.87
360.689	32.13
360.899	32.3
361.108	32.2
361.318	32.47
361.528	31.69
361.737	31.34
361.947	31.08
362.156	30.82
362.366	30.19
362.576	30.08
362.785	29.7
362.995	29.59
363.204	29.37
363.414	28.82
363.623	28.32
363.833	28.77
364.042	28.97
364.252	28.74
364.461	28.87
364.671	28.72
364.88	28.34
365.09	28.55
365.299	28.03
365.509	27.58
365.718	27.58
365.927	28.16
366.137	27.93
366.346	26.81
366.555	26.37
366.765	25.81
366.974	26.43
367.183	26.66
367.393	25.96
367.602	26.5
367.811	27.13
368.021	26.93
368.23	26.08
368.439	25.79
368.648	26.74
368.857	27.59
369.067	27.42
369.276	27.05
369.485	26.55
369.694	27.09
369.903	26.57
370.112	26.46
370.321	26.47
370.531	27.24
370.74	27.87
370.949	28.04
371.158	27.7
371.367	28
371.576	27.27
371.785	26.89
371.994	26.75
372.203	26.99
372.412	26.65
372.621	26.81
372.83	26.62
373.039	26.28
373.248	26.2
373.457	26.29
373.666	26.12
373.874	26.7
374.083	27.35
374.292	27.54
374.501	27.26
374.71	27.2
374.919	27.02
375.128	26.33
375.336	26.22
375.545	25.82
375.754	25.66
375.963	25.63
376.171	25.35
376.38	25.3
376.589	24.99
376.798	24.85
377.006	25.42
377.215	25.48
377.424	25.55
377.632	25.77
377.841	25.8
378.05	25.73
378.258	25.95
378.467	26
378.675	25.52
378.884	26.02
379.093	25.93
379.301	25.42
379.51	24.94
379.718	25.17
379.927	24.86
380.135	24.89
380.344	24.43
380.552	24.6
380.761	24.51
380.969	24.78
381.177	23.91
381.386	23.54
381.594	23.05
381.803	23.63
382.011	23.59
382.219	23.82
382.428	23.45
382.636	23.64
382.845	23.26
383.053	23.29
383.261	23.55
383.469	24.08
383.678	24.31
383.886	24.19
384.094	23.83
384.302	23.48
384.511	23
384.719	23.32
384.927	22.92
385.135	22.82
385.343	22.97
385.552	22.49
385.76	21.97
385.968	21.82
386.176	22.02
386.384	21.87
386.592	22.09
386.8	22.14
387.008	22.12
387.216	22.26
387.424	22.51
387.633	22.01
387.841	21.77
388.049	21.93
388.257	21.76
388.465	21.75
388.672	21.9
388.88	21.51
389.088	21.23
389.296	20.87
389.504	20.9
389.712	20.77
389.92	21.04
390.128	20.76
390.336	20.78
390.544	20.95
390.751	20.91
390.959	21.11
391.167	21.62
391.375	21.87
391.583	21.83
391.79	21.94
391.998	21.7
392.206	21.4
392.414	21.62
392.621	21.52
392.829	21.65
393.037	21.56
393.244	21.45
393.452	21.19
393.66	21.04
393.867	21.04
394.075	20.61
394.283	20.68
394.49	20.59
394.698	21.1
394.905	20.94
395.113	20.58
395.32	20.33
395.528	19.92
395.735	19.61
395.943	19.35
396.15	19.23
396.358	19.44
396.565	19.26
396.773	19.4
396.98	18.75
397.188	18.83
397.395	18.73
397.602	18.62
397.81	18.63
398.017	18.81
398.225	19.26
398.432	19.37
398.639	19.34
398.847	19.19
399.054	19.01
399.261	19.4
399.468	19.15
399.676	19.42
399.883	19.66
400.09	19.67
400.297	19.7
400.505	19.39
400.712	19.42
400.919	19.04
401.126	19.24
401.333	19.55
401.54	19.12
401.748	19.34
401.955	19.28
402.162	19.3
402.369	19.15
402.576	19.18
402.783	19.18
402.99	18.77
403.197	19.04
403.404	18.66
403.611	18.6
403.818	18.81
404.025	18.67
404.232	18.39
404.439	18.4
404.646	18.43
404.853	18.4
405.06	18.31
405.267	18.61
405.474	18.74
405.681	19.04
405.887	18.67
406.094	18.52
406.301	18.47
406.508	18.56
406.715	18.66
406.922	18.77
407.128	18.37
407.335	18.37
407.542	18.32
407.749	18.39
407.955	18.18
408.162	18.27
408.369	18.46
408.575	18.56
408.782	18.52
408.989	18.32
409.195	18.28
409.402	18.42
409.609	18.33
409.815	18.27
410.022	17.89
410.228	18.08
410.435	17.98
410.642	17.9
410.848	17.86
411.055	17.65
411.261	17.79
411.468	17.8
411.674	17.95
411.881	18.19
412.087	18.36
412.294	18.68
412.5	18.68
412.706	18.86
412.913	18.62
413.119	18.61
413.326	19.13
413.532	18.92
413.738	19.01
413.945	18.75
414.151	18.78
414.357	18.55
414.564	18.26
414.77	18.33
414.976	18.24
415.182	18.48
415.389	18.41
415.595	18.1
415.801	18.27
416.007	18.07
416.214	18.19
416.42	17.98
416.626	17.81
416.832	17.77
417.038	17.49
417.244	17.7
417.45	17.63
417.657	17.58
417.863	17.74
418.069	17.78
418.275	17.94
418.481	17.91
418.687	18.04
418.893	18.11
419.099	18.14
419.305	18.21
419.511	18.03
419.717	17.95
419.923	18.09
420.129	17.88
420.335	17.71
420.541	17.53
420.746	17.56
420.952	17.56
421.158	17.59
421.364	17.59
421.57	17.49
421.776	17.54
421.982	17.59
422.187	17.37
422.393	17.36
422.599	17.27
422.805	17.44
423.01	17.3
423.216	17.19
423.422	17.16
423.628	17.18
423.833	17.17
424.039	17.23
424.245	17.23
424.45	17.35
424.656	17.57
424.862	17.66
425.067	17.53
425.273	17.53
425.478	17.62
425.684	17.62
425.889	17.55
426.095	17.67
426.301	17.67
426.506	17.7
426.712	17.7
426.917	17.45
427.123	17.48
427.328	17.53
427.533	17.68
427.739	17.61
427.944	17.57
428.15	17.63
428.355	17.62
428.561	17.42
428.766	17.29
428.971	17.26
429.177	17.49
429.382	17.51
429.587	17.49
429.793	17.62
429.998	17.62
430.203	17.4
430.408	17.38
430.614	17.35
430.819	17.4
431.024	17.52
431.229	17.53
431.434	17.45
431.64	17.31
431.845	17.27
432.05	17.14
432.255	17.12
432.46	17.34
432.665	17.24
432.87	17.21
433.076	17.18
433.281	16.97
433.486	17.14
433.691	17.14
433.896	17.15
434.101	17.11
434.306	17.12
434.511	17.03
434.716	16.96
434.921	16.95
435.126	16.96
435.331	17.05
435.535	16.95
435.74	16.88
435.945	16.83
436.15	16.96
436.355	17.27
436.56	17.11
436.765	17.28
436.97	17.45
437.174	17.42
437.379	17.4
437.584	17.62
437.789	17.74
437.993	17.8
438.198	17.94
438.403	18.05
438.608	17.9
438.812	18.04
439.017	17.95
439.222	17.87
439.426	17.83
439.631	17.81
439.836	17.62
440.04	17.68
440.245	17.58
440.45	17.3
440.654	17.25
440.859	17.17
441.063	17.08
441.268	17.11
441.472	17.14
441.677	17.14
441.881	17.09
442.086	17.11
442.29	17.19
442.495	17.22
442.699	17.38
442.904	17.26
443.108	17.2
443.312	17.2
443.517	17.08
443.721	16.96
443.925	17.06
444.13	17.11
444.334	17.06
444.538	16.96
444.743	16.87
444.947	16.85
445.151	16.79
445.356	16.97
445.56	17.03
445.764	17.19
445.968	17.29
446.173	17.25
446.377	17.19
446.581	17.19
446.785	17.17
446.989	17.08
447.193	16.99
447.398	17.09
447.602	16.96
447.806	16.97
448.01	16.87
448.214	16.81
448.418	16.77
448.622	16.75
448.826	16.75
449.03	16.79
449.234	16.8
449.438	16.83
449.642	16.69
449.846	16.85
450.05	16.69
450.254	16.47
450.458	16.38
450.662	16.38
450.866	16.49
451.069	16.72
451.273	16.71
451.477	16.64
451.681	16.82
451.885	16.93
452.089	16.83
452.292	17
452.496	17.26
452.7	17.24
452.904	17.21
453.107	17.19
453.311	16.92
453.515	16.83
453.719	16.86
453.922	16.94
454.126	16.67
454.33	16.53
454.533	16.46
454.737	16.27
454.94	16.4
455.144	16.47
455.348	16.35
455.551	16.54
455.755	16.36
455.958	16.35
456.162	16.27
456.365	16.25
456.569	16.37
456.772	16.39
456.976	16.45
457.179	16.32
457.383	16.44
457.586	16.46
457.79	16.19
457.993	16.61
458.196	16.7
458.4	16.63
458.603	16.84
458.807	16.75
459.01	16.75
459.213	16.74
