Data from LC_251_Reflection_3.txt Node
Date: Thu Nov 19 23:04:33 EST 2015
User: robert
Spectrometer: USB4E03001
Autoset integration time: false
Trigger mode: 4
Integration Time (sec): 1.000000E-1
Scans to average: 15
Electric dark correction enabled: true
Nonlinearity correction enabled: false
Boxcar width: 5
Stray light correction enabled: false
XAxis mode: Wavelengths
Stop averaging: false
Number of Pixels in Spectrum: 3648
>>>>>Begin Spectral Data<<<<<
177.566	30.65
177.785	1.38
178.005	43.03
178.225	51.04
178.445	71.56
178.665	58.41
178.885	51.61
179.105	-357.74
179.324	-192.17
179.544	-230.19
179.764	-50.43
179.984	13.77
180.204	68.69
180.423	-6.73
180.643	5.55
180.863	1.16
181.083	-48.49
181.302	14.77
181.522	33.37
181.742	37.61
181.961	83.55
182.181	70.32
182.401	57.01
182.621	50.31
182.84	33.1
183.06	44.77
183.279	3.68
183.499	86.39
183.719	-55.67
183.938	-334.68
184.158	297.45
184.377	539.6
184.597	-239.79
184.816	2335.85
185.036	208.32
185.256	-1960.56
185.475	-70.21
185.695	6.35
185.914	-37.22
186.134	-44.59
186.353	25.54
186.572	33.55
186.792	78.58
187.011	-728.51
187.231	-162.86
187.45	-574.77
187.67	-46.59
187.889	-24.12
188.108	4.47
188.328	-3.61
188.547	-61.08
188.766	-203.13
188.986	-243.33
189.205	4250.98
189.424	194.51
189.644	230.31
189.863	135.85
190.082	92.85
190.302	114.2
190.521	129.54
190.74	144.25
190.959	162.42
191.178	117.48
191.398	122.89
191.617	115.99
191.836	362.99
192.055	85.42
192.274	133.22
192.494	154.04
192.713	95.04
192.932	72.32
193.151	67.42
193.37	64.77
193.589	77.42
193.808	71.65
194.027	73.61
194.246	60.53
194.465	60.83
194.685	43.54
194.904	27.94
195.123	25.16
195.342	20.85
195.561	34.83
195.78	43.09
195.999	43.72
196.218	40.26
196.436	29.66
196.655	24.06
196.874	35.41
197.093	52.95
197.312	90.28
197.531	71.18
197.75	121.92
197.969	149.09
198.188	-294.98
198.407	-105.94
198.625	-142.62
198.844	-87.56
199.063	-1029.16
199.282	-13.15
199.501	-64.83
199.719	17.3
199.938	45.96
200.157	177.39
200.376	294.96
200.594	-1011.61
200.813	-698.68
201.032	53.48
201.251	-82.35
201.469	-414.72
201.688	3.02
201.907	-16.89
202.125	193.17
202.344	141.91
202.563	268.92
202.781	251.45
203	223.8
203.218	173.05
203.437	208.97
203.656	242.18
203.874	374.72
204.093	505.86
204.311	177.14
204.53	157.65
204.748	94.84
204.967	54.64
205.185	45.38
205.404	-1.48
205.622	-6.58
205.841	-10.16
206.059	-53.02
206.278	-25.35
206.496	18.65
206.715	8.79
206.933	-11.45
207.151	135.01
207.37	235.74
207.588	276.87
207.806	256.76
208.025	201.93
208.243	318.73
208.461	397.31
208.68	290.84
208.898	147.41
209.116	32.69
209.335	-25.8
209.553	-405.61
209.771	2353.78
209.989	-398.6
210.208	533.3
210.426	631.44
210.644	-124.95
210.862	-26.99
211.081	-34.95
211.299	20.26
211.517	71.69
211.735	81.35
211.953	65.8
212.171	62.52
212.39	64.9
212.608	67.82
212.826	85.42
213.044	103.71
213.262	88.5
213.48	91.19
213.698	52.33
213.916	83.61
214.134	46.36
214.352	35.72
214.57	89.47
214.788	389.02
215.006	279.72
215.224	139.43
215.442	108.82
215.66	68.73
215.878	47.65
216.096	-16.51
216.314	-101.57
216.532	-28.03
216.75	44.8
216.968	140.96
217.185	672.28
217.403	1252.65
217.621	2430.12
217.839	-139.14
218.057	-45.34
218.275	32.05
218.492	42.88
218.71	30.13
218.928	9.55
219.146	-38.39
219.363	2.86
219.581	5.8
219.799	5.95
220.017	15.82
220.234	21.83
220.452	30.56
220.67	27.98
220.887	40.83
221.105	59.38
221.323	63.52
221.54	92.77
221.758	88.29
221.976	58.5
222.193	59.93
222.411	47.86
222.629	42.2
222.846	34.82
223.064	37.42
223.281	32.86
223.499	19.38
223.716	20.1
223.934	5.32
224.151	9.43
224.369	13.14
224.586	11.71
224.804	28.25
225.021	37.69
225.239	43.23
225.456	22.66
225.674	12.83
225.891	13.08
226.108	19.26
226.326	9.91
226.543	9.13
226.76	-3.36
226.978	0.99
227.195	-1.9
227.413	-7.83
227.63	-10.51
227.847	-1.71
228.064	3.52
228.282	6.91
228.499	7.52
228.716	7.43
228.934	5.94
229.151	8.18
229.368	5.45
229.585	4.91
229.802	4.12
230.02	2.39
230.237	0.13
230.454	-1.28
230.671	-4.51
230.888	-5.08
231.105	-6.65
231.323	-4.65
231.54	-5.79
231.757	-8.22
231.974	-5.87
232.191	-4.02
232.408	0.27
232.625	2.52
232.842	4.4
233.059	9.87
233.276	13.01
233.493	15.06
233.71	12.85
233.927	13.13
234.144	20.5
234.361	12.78
234.578	10.05
234.795	10.67
235.012	8.83
235.229	4.9
235.446	7.79
235.663	1.09
235.879	0.09
236.096	-1.94
236.313	-2.35
236.53	-2.84
236.747	-2.51
236.964	-0.64
237.181	-9.07
237.397	-5.89
237.614	-4.55
237.831	-6.03
238.048	1.27
238.264	-0.37
238.481	3.52
238.698	5.25
238.915	5.9
239.131	4.55
239.348	4.86
239.565	8.81
239.781	10.84
239.998	11.64
240.215	8.14
240.431	5.09
240.648	8.4
240.865	6.33
241.081	6.05
241.298	4.92
241.514	6.37
241.731	6.66
241.947	7.46
242.164	4.94
242.38	5.01
242.597	5.91
242.814	5.68
243.03	5.45
243.246	5.77
243.463	4.71
243.679	4.89
243.896	5.81
244.112	5.35
244.329	6.11
244.545	8.2
244.762	7.76
244.978	5.93
245.194	6.87
245.411	6.64
245.627	6.73
245.843	7.65
246.06	8.86
246.276	7.43
246.492	7.64
246.709	7.15
246.925	6.7
247.141	6.64
247.357	6.73
247.574	7.03
247.79	6.23
248.006	6.63
248.222	6.32
248.439	5.72
248.655	6.27
248.871	6.55
249.087	5.72
249.303	5.04
249.519	4.38
249.736	5.27
249.952	4.49
250.168	4.9
250.384	4.31
250.6	5.72
250.816	5.38
251.032	4.74
251.248	5.18
251.464	5.45
251.68	5.92
251.896	7.33
252.112	6.37
252.328	6.04
252.544	6.16
252.76	6.76
252.976	6.72
253.192	6.51
253.408	6.38
253.624	6.06
253.84	5.34
254.056	6.2
254.272	4.7
254.487	4.63
254.703	5.85
254.919	5.37
255.135	4.18
255.351	4.07
255.567	5.47
255.782	3.77
255.998	4.26
256.214	7.44
256.43	4.78
256.646	6.7
256.861	6.08
257.077	4.59
257.293	4.89
257.508	5.26
257.724	5.37
257.94	5.41
258.155	7.86
258.371	7.4
258.587	5.33
258.802	5.69
259.018	5.76
259.234	6.18
259.449	6.61
259.665	6.24
259.88	5.82
260.096	5.53
260.312	4.67
260.527	3.86
260.743	3.66
260.958	4.16
261.174	4.62
261.389	4.5
261.605	4.9
261.82	3.69
262.036	3.59
262.251	3.26
262.466	3.44
262.682	4.19
262.897	5.18
263.113	5.49
263.328	6.73
263.543	6.22
263.759	5.96
263.974	6.63
264.189	8.3
264.405	9.13
264.62	10.59
264.835	10.19
265.051	9.77
265.266	10.01
265.481	9.48
265.696	9.21
265.912	8.77
266.127	9.9
266.342	7.23
266.557	7.15
266.773	6.34
266.988	5.71
267.203	5.69
267.418	6.83
267.633	6.1
267.848	5.58
268.064	4.14
268.279	4.09
268.494	3.21
268.709	3.45
268.924	2.82
269.139	3.43
269.354	3.21
269.569	2.64
269.784	1.76
269.999	1.57
270.214	2.39
270.429	2.58
270.644	2.11
270.859	1.15
271.074	0.71
271.289	1.73
271.504	2.48
271.719	3.12
271.934	3.23
272.149	3.04
272.363	3.7
272.578	3.69
272.793	3.58
273.008	3.82
273.223	4.97
273.438	6.13
273.653	5.81
273.867	4.67
274.082	4.33
274.297	3.84
274.512	4.16
274.726	4.1
274.941	3.61
275.156	2.97
275.371	3.76
275.585	3.38
275.8	2.19
276.015	2.36
276.229	3.09
276.444	3.57
276.659	4.19
276.873	4.21
277.088	4.67
277.302	4.89
277.517	5.75
277.732	6.03
277.946	5.6
278.161	7.43
278.375	7.3
278.59	6.79
278.804	6.68
279.019	6.5
279.233	5.77
279.448	4.2
279.662	4.5
279.877	3.73
280.091	3.66
280.306	3.54
280.52	2.54
280.735	2.63
280.949	2.83
281.163	2.63
281.378	3.39
281.592	4.19
281.806	5.5
282.021	6.06
282.235	6.45
282.449	5.47
282.664	5.57
282.878	5.55
283.092	5.27
283.307	5.82
283.521	5.27
283.735	5.01
283.949	4.8
284.164	3.61
284.378	3.14
284.592	2.46
284.806	3.19
285.02	3.26
285.234	3.85
285.449	3.17
285.663	3.3
285.877	4.25
286.091	3.71
286.305	3.88
286.519	4.25
286.733	4.52
286.947	5.46
287.161	4.51
287.375	4.7
287.589	3.03
287.803	4.12
288.017	4.12
288.231	3.63
288.445	4.09
288.659	3.68
288.873	2.98
289.087	1
289.301	1.92
289.515	2.42
289.729	2.41
289.943	3.48
290.157	3.76
290.371	3.01
290.584	2.64
290.798	2.67
291.012	2.97
291.226	3.35
291.44	5.41
291.654	3.94
291.867	4.69
292.081	4.49
292.295	4.82
292.509	4.27
292.722	4.98
292.936	4.92
293.15	4.31
293.364	4.71
293.577	5.74
293.791	4.56
294.005	4.69
294.218	4.56
294.432	3.84
294.645	4.01
294.859	4.31
295.073	3.88
295.286	4.55
295.5	5.16
295.713	4.76
295.927	4.23
296.14	4.57
296.354	4.44
296.568	4.58
296.781	5.25
296.994	5.02
297.208	4.65
297.421	5.25
297.635	5.34
297.848	5.24
298.062	6.02
298.275	5.83
298.489	6.44
298.702	7.09
298.915	7.13
299.129	7.45
299.342	7.28
299.555	7.57
299.769	6.78
299.982	6.45
300.195	6.63
300.409	5.92
300.622	5.45
300.835	4.92
301.048	5.62
301.262	5.08
301.475	4.57
301.688	3.99
301.901	3.94
302.115	4.23
302.328	4.6
302.541	4.23
302.754	4.02
302.967	5.56
303.18	5.11
303.393	4.3
303.607	4.72
303.82	4.96
304.033	6.17
304.246	6.45
304.459	6.95
304.672	6.97
304.885	6.93
305.098	7.12
305.311	5.91
305.524	6.46
305.737	5.61
305.95	5.85
306.163	4.6
306.376	4.21
306.589	4.49
306.802	3.29
307.015	3.17
307.228	4.01
307.44	4.07
307.653	4.95
307.866	5.46
308.079	6.81
308.292	6.89
308.505	8.08
308.718	7.62
308.93	6.25
309.143	6.62
309.356	6.41
309.569	6
309.781	6.04
309.994	5.4
310.207	4.71
310.42	5.13
310.632	5.61
310.845	5.6
311.058	6.35
311.27	6.34
311.483	6.72
311.696	7.12
311.908	7.5
312.121	6.78
312.333	7.43
312.546	7.28
312.759	6.3
312.971	5.78
313.184	5.33
313.396	5.29
313.609	6.2
313.821	6.84
314.034	7.09
314.246	6.9
314.459	8.45
314.671	8.44
314.884	9.03
315.096	9.89
315.309	9.51
315.521	9.7
315.733	9.37
315.946	9.4
316.158	8.73
316.371	7.61
316.583	7.55
316.795	5.43
317.008	4.83
317.22	4.35
317.432	4.43
317.644	5.31
317.857	4.27
318.069	3.62
318.281	3.35
318.494	3.61
318.706	3.56
318.918	3.79
319.13	5.66
319.342	5.62
319.555	5.5
319.767	4.39
319.979	2.84
320.191	4.49
320.403	5.97
320.615	5.85
320.827	5.53
321.039	4.66
321.252	4.63
321.464	4.57
321.676	4.82
321.888	4.18
322.1	5.21
322.312	5.69
322.524	6.08
322.736	5.69
322.948	6.75
323.16	7.01
323.372	7.88
323.584	8.21
323.796	8.44
324.007	9.26
324.219	10.9
324.431	10.74
324.643	10.95
324.855	10.37
325.067	10.7
325.279	10.66
325.491	11.31
325.702	12.09
325.914	11.51
326.126	11.54
326.338	11.67
326.55	11.13
326.761	10.77
326.973	11.02
327.185	11.66
327.396	12.5
327.608	12.72
327.82	12.85
328.032	13.27
328.243	14.35
328.455	14.51
328.666	14.45
328.878	14.75
329.09	15.8
329.301	16.82
329.513	17.64
329.725	15.72
329.936	15.07
330.148	15.1
330.359	15.27
330.571	14.7
330.782	13.97
330.994	14.36
331.205	14.74
331.417	14.87
331.628	14.32
331.84	14.14
332.051	15.8
332.262	16.98
332.474	17.46
332.685	17.97
332.897	18.77
333.108	19.8
333.319	20.37
333.531	20.28
333.742	20.15
333.953	21.21
334.165	22.11
334.376	21.6
334.587	21.2
334.799	21.25
335.01	20.27
335.221	19.85
335.432	20.78
335.644	20.17
335.855	20.17
336.066	20.65
336.277	19.87
336.488	18.73
336.7	18.66
336.911	18.37
337.122	18.6
337.333	19.42
337.544	19.62
337.755	18.92
337.966	18.11
338.177	18.66
338.388	18.77
338.599	19.19
338.811	19.57
339.022	19.73
339.233	19.71
339.444	19.67
339.655	19.78
339.866	19.71
340.076	19.59
340.287	20.73
340.498	20.36
340.709	20.23
340.92	20.14
341.131	20.5
341.342	20.86
341.553	21.66
341.764	20.89
341.975	20.55
342.185	20.73
342.396	20.41
342.607	19.72
342.818	19.22
343.029	19.45
343.239	19.04
343.45	18.41
343.661	18.57
343.872	17.84
344.082	17.9
344.293	17.9
344.504	18.3
344.714	18.9
344.925	19.52
345.136	19.8
345.346	18.33
345.557	18.44
345.768	18.37
345.978	17.7
346.189	17.87
346.399	18.09
346.61	17.96
346.821	17.28
347.031	17.23
347.242	17.51
347.452	17.91
347.663	18.69
347.873	19.5
348.084	20.41
348.294	20.94
348.504	21.34
348.715	21.79
348.925	22.03
349.136	22.21
349.346	21.67
349.557	21.5
349.767	21.54
349.977	21.91
350.188	21.01
350.398	20.68
350.608	20.81
350.819	21.5
351.029	21.02
351.239	21.02
351.449	20.89
351.66	20.94
351.87	20.7
352.08	20.32
352.29	20.74
352.501	20.41
352.711	20.23
352.921	20.15
353.131	18.79
353.341	18.25
353.552	17.7
353.762	17.5
353.972	18.53
354.182	18.06
354.392	17.96
354.602	17
354.812	17.68
355.022	17.39
355.232	17.69
355.442	18.14
355.652	18.64
355.862	18.84
356.072	19.25
356.282	19
356.492	19.12
356.702	19.44
356.912	20.18
357.122	20.07
357.332	20.43
357.542	20.01
357.752	19.79
357.962	20.22
358.171	20.56
358.381	20.82
358.591	20.41
358.801	20.91
359.011	21.18
359.221	20.72
359.43	20.68
359.64	20.53
359.85	20.41
360.06	21.25
360.269	20.97
360.479	20.79
360.689	20.62
360.899	20.32
361.108	20
361.318	19.48
361.528	19.7
361.737	19.98
361.947	19.94
362.156	19.74
362.366	19.51
362.576	19.37
362.785	19.25
362.995	18.87
363.204	19.21
363.414	19.44
363.623	19.39
363.833	19.48
364.042	19.19
364.252	19
364.461	19.27
364.671	18.84
364.88	19.47
365.09	19.42
365.299	19.53
365.509	19.22
365.718	18.85
365.927	19.28
366.137	19.03
366.346	19.15
366.555	19.15
366.765	19.19
366.974	18.94
367.183	18.27
367.393	17.95
367.602	18.5
367.811	19.24
368.021	19.49
368.23	18.68
368.439	18.71
368.648	18.31
368.857	18.55
369.067	18.56
369.276	19.19
369.485	19.17
369.694	19.61
369.903	19.06
370.112	18.32
370.321	17.94
370.531	18.17
370.74	17.74
370.949	17.94
371.158	17.59
371.367	17.77
371.576	17.12
371.785	17.07
371.994	16.94
372.203	16.97
372.412	17.18
372.621	17
372.83	17.57
373.039	18.18
373.248	18.09
373.457	18.65
373.666	18.51
373.874	18.85
374.083	18.54
374.292	18.55
374.501	18.88
374.71	18.86
374.919	19.19
375.128	18.88
375.336	18.95
375.545	19.06
375.754	18.57
375.963	18.44
376.171	17.87
376.38	18.15
376.589	17.9
376.798	17.63
377.006	17.45
377.215	17.61
377.424	17.5
377.632	17.25
377.841	17.25
378.05	17.61
378.258	17.46
378.467	17.86
378.675	17.45
378.884	17.5
379.093	17.76
379.301	17.91
379.51	17.78
379.718	17.79
379.927	17.57
380.135	17.44
380.344	16.88
380.552	17.23
380.761	17.17
380.969	17.45
381.177	17.32
381.386	17.16
381.594	17.24
381.803	17.01
382.011	16.81
382.219	17.04
382.428	16.99
382.636	17.41
382.845	17.3
383.053	17.27
383.261	17.06
383.469	17.48
383.678	17.04
383.886	16.84
384.094	17.12
384.302	17.19
384.511	16.71
384.719	16.58
384.927	16.61
385.135	16.53
385.343	16.56
385.552	16.68
385.76	16.54
385.968	17
386.176	17.09
386.384	16.82
386.592	16.91
386.8	17.32
387.008	17.17
387.216	16.8
387.424	16.9
387.633	17.23
387.841	17.21
388.049	17.03
388.257	16.81
388.465	16.67
388.672	16.66
388.88	16.55
389.088	16.19
389.296	16.5
389.504	16.63
389.712	16.11
389.92	15.85
390.128	15.93
390.336	16.11
390.544	15.94
390.751	15.89
390.959	15.87
391.167	16.23
391.375	16.25
391.583	15.92
391.79	15.85
391.998	16.15
392.206	16.21
392.414	16.28
392.621	16.33
392.829	16.57
393.037	16.77
393.244	16.89
393.452	16.67
393.66	16.63
393.867	16.71
394.075	16.64
394.283	16.39
394.49	16.23
394.698	16.25
394.905	16.1
395.113	16.09
395.32	15.95
395.528	15.95
395.735	16.16
395.943	16.36
396.15	16.49
396.358	16.68
396.565	16.86
396.773	16.93
396.98	16.93
397.188	17.1
397.395	16.83
397.602	16.84
397.81	16.62
398.017	16.03
398.225	16.09
398.432	16.07
398.639	15.88
398.847	16.08
399.054	16.08
399.261	15.89
399.468	15.74
399.676	16.26
399.883	16.31
400.09	16.4
400.297	16.85
400.505	16.82
400.712	16.99
400.919	17.14
401.126	17.17
401.333	17.25
401.54	17.51
401.748	17.77
401.955	17.2
402.162	17.26
402.369	17.36
402.576	17.34
402.783	17.32
402.99	17.16
403.197	17.32
403.404	17.23
403.611	17.19
403.818	17.27
404.025	17.18
404.232	17.22
404.439	17.28
404.646	17.27
404.853	17.17
405.06	16.98
405.267	17.18
405.474	16.9
405.681	17.01
405.887	17.22
406.094	16.86
406.301	16.81
406.508	16.97
406.715	16.74
406.922	16.57
407.128	16.54
407.335	16.79
407.542	16.78
407.749	16.78
407.955	16.66
408.162	16.41
408.369	16.66
408.575	16.73
408.782	16.74
408.989	16.79
409.195	16.67
409.402	16.8
409.609	16.63
409.815	16.34
410.022	16.5
410.228	16.44
410.435	16.48
410.642	16.55
410.848	16.33
411.055	16.17
411.261	16.27
411.468	16.43
411.674	16.48
411.881	16.69
412.087	16.62
412.294	16.51
412.5	16.22
412.706	16.05
412.913	15.92
413.119	16.01
413.326	16.07
413.532	15.97
413.738	15.9
413.945	15.75
414.151	15.8
414.357	15.91
414.564	15.99
414.77	16.26
414.976	16.22
415.182	16.08
415.389	16.07
415.595	15.94
415.801	15.95
416.007	15.98
416.214	15.95
416.42	15.75
416.626	15.65
416.832	15.6
417.038	15.52
417.244	15.5
417.45	15.66
417.657	15.74
417.863	16.07
418.069	16.01
418.275	16.14
418.481	16.18
418.687	16.1
418.893	16.31
419.099	16.33
419.305	16.49
419.511	16.56
419.717	16.45
419.923	16.37
420.129	16.27
420.335	16.16
420.541	16.11
420.746	15.94
420.952	16.08
421.158	15.9
421.364	15.76
421.57	15.55
421.776	15.53
421.982	15.45
422.187	15.49
422.393	15.32
422.599	15.4
422.805	15.34
423.01	15.28
423.216	15.1
423.422	15.13
423.628	15.28
423.833	15.38
424.039	15.26
424.245	15.34
424.45	15.38
424.656	15.53
424.862	15.54
425.067	15.46
425.273	15.63
425.478	15.63
425.684	15.74
425.889	15.78
426.095	15.75
426.301	15.84
426.506	15.96
426.712	15.77
426.917	15.73
427.123	15.66
427.328	15.69
427.533	15.76
427.739	15.88
427.944	15.83
428.15	15.58
428.355	15.45
428.561	15.44
428.766	15.36
428.971	15.49
429.177	15.4
429.382	15.49
429.587	15.6
429.793	15.42
429.998	15.5
430.203	15.32
430.408	15.49
430.614	15.71
430.819	15.66
431.024	15.71
431.229	15.66
431.434	15.61
431.64	15.48
431.845	15.52
432.05	15.53
432.255	15.33
432.46	15.48
432.665	15.37
432.87	15.22
433.076	15.17
433.281	14.97
433.486	15.02
433.691	15
433.896	15.09
434.101	15.01
434.306	14.93
434.511	14.91
434.716	14.87
434.921	14.96
435.126	15.2
435.331	15.3
435.535	15.39
435.74	15.36
435.945	15.38
436.15	15.16
436.355	15.22
436.56	15.23
436.765	15.29
436.97	15.27
437.174	15.26
437.379	14.92
437.584	14.68
437.789	14.73
437.993	14.75
438.198	14.7
438.403	14.66
438.608	14.67
438.812	14.82
439.017	14.77
439.222	14.79
439.426	14.62
439.631	14.66
439.836	14.96
440.04	15
440.245	15.03
440.45	15.07
440.654	15.25
440.859	15.23
441.063	15.26
441.268	15.44
441.472	15.42
441.677	15.5
441.881	15.6
442.086	15.37
442.29	15.37
442.495	15.1
442.699	15.23
442.904	15.26
443.108	15.34
443.312	15.18
443.517	14.87
443.721	14.97
443.925	15.22
444.13	15.3
444.334	15.48
444.538	15.43
444.743	15.56
444.947	15.47
445.151	15.41
445.356	15.4
445.56	15.47
445.764	15.67
445.968	15.68
446.173	15.57
446.377	15.48
446.581	15.44
446.785	15.38
446.989	15.45
447.193	15.38
447.398	15.3
447.602	15.2
447.806	15.21
448.01	15.07
448.214	15.04
448.418	14.9
448.622	14.67
448.826	14.79
449.03	14.82
449.234	14.75
449.438	14.71
449.642	14.8
449.846	14.62
450.05	14.61
450.254	14.69
450.458	14.5
450.662	14.47
450.866	14.67
451.069	14.48
451.273	14.36
451.477	14.35
451.681	14.35
451.885	14.25
452.089	14.61
452.292	14.5
452.496	14.48
452.7	14.48
452.904	14.56
453.107	14.61
453.311	14.66
453.515	14.61
453.719	14.74
453.922	14.83
454.126	14.77
454.33	14.58
454.533	14.52
454.737	14.45
454.94	14.49
455.144	14.37
455.348	14.43
455.551	14.5
455.755	14.58
455.958	14.42
456.162	14.39
456.365	14.62
456.569	14.66
456.772	14.87
456.976	14.86
457.179	14.93
457.383	14.99
457.586	14.94
457.79	14.77
457.993	14.7
458.196	14.65
458.4	14.72
458.603	14.67
458.807	14.65
459.01	14.56
459.213	14.72
459.417	14.63
459.62	14.61
459.823	14.65
460.026	14.61
460.23	14.62
460.433	14.66
460.636	14.51
460.839	14.49
461.042	14.63
461.246	14.61
461.449	14.45
461.652	14.44
