Data from LC_270_Reflection_1.txt Node
Date: Sat Nov 21 12:08:26 EST 2015
User: robert
Spectrometer: USB4E03001
Autoset integration time: false
Trigger mode: 4
Integration Time (sec): 1.000000E-1
Scans to average: 15
Electric dark correction enabled: true
Nonlinearity correction enabled: false
Boxcar width: 5
Stray light correction enabled: false
XAxis mode: Wavelengths
Stop averaging: false
Number of Pixels in Spectrum: 3648
>>>>>Begin Spectral Data<<<<<
177.566	115.86
177.785	52.85
178.005	322.76
178.225	-81.98
178.445	-270.14
178.665	-1071.18
178.885	54.12
179.105	-237.88
179.324	-64.54
179.544	-111.96
179.764	259.1
179.984	49.17
180.204	57.63
180.423	8.07
180.643	29.09
180.863	20.3
181.083	0.7
181.302	33.35
181.522	60.39
181.742	39.04
181.961	43.27
182.181	18.84
182.401	11.1
182.621	39.62
182.84	87.05
183.06	66.63
183.279	73.91
183.499	85.93
183.719	72.09
183.938	73.87
184.158	83.33
184.377	90.74
184.597	95.34
184.816	75.68
185.036	75.75
185.256	76.36
185.475	59.73
185.695	61.63
185.914	56.69
186.134	58.84
186.353	45.23
186.572	54.33
186.792	53.94
187.011	57.85
187.231	61.74
187.45	61.78
187.67	61
187.889	67.32
188.108	81.44
188.328	105.21
188.547	98.43
188.766	110.81
188.986	97.54
189.205	-3.45
189.424	-226.37
189.644	-66.37
189.863	197.85
190.082	554.26
190.302	-563.99
190.521	-102.1
190.74	-86.17
190.959	-92.09
191.178	-2.85
191.398	40.43
191.617	65.52
191.836	59.84
192.055	63.82
192.274	47.58
192.494	72.62
192.713	58.78
192.932	86.82
193.151	65.96
193.37	68.36
193.589	52.61
193.808	45.62
194.027	51.25
194.246	70.89
194.465	69.63
194.685	80.17
194.904	65.57
195.123	69.42
195.342	50.02
195.561	69.23
195.78	45.06
195.999	60.21
196.218	55.56
196.436	62.43
196.655	28.31
196.874	65.61
197.093	104.24
197.312	131.47
197.531	179.2
197.75	161.96
197.969	136.69
198.188	163.53
198.407	147.31
198.625	155.65
198.844	140.63
199.063	139.47
199.282	122.64
199.501	122.97
199.719	111.63
199.938	93.95
200.157	93.79
200.376	110.91
200.594	96.97
200.813	95.17
201.032	99.9
201.251	91.48
201.469	110.84
201.688	138.2
201.907	129.78
202.125	116.18
202.344	110.75
202.563	146.4
202.781	129.12
203	154.28
203.218	163.39
203.437	261.64
203.656	566.14
203.874	584.89
204.093	317.27
204.311	271.9
204.53	339.14
204.748	288.77
204.967	253.44
205.185	193.21
205.404	186.99
205.622	337.86
205.841	225.25
206.059	148.15
206.278	119.72
206.496	97.76
206.715	119.5
206.933	251.62
207.151	202.76
207.37	123.37
207.588	113.34
207.806	104.77
208.025	75.02
208.243	94.38
208.461	97.26
208.68	91.66
208.898	123.67
209.116	90.5
209.335	55.32
209.553	65.24
209.771	103.45
209.989	127.23
210.208	126.02
210.426	144.81
210.644	87.88
210.862	28.97
211.081	41.83
211.299	15.39
211.517	29.41
211.735	24.39
211.953	18.77
212.171	23.18
212.39	32.16
212.608	35.82
212.826	40.28
213.044	44.98
213.262	51.54
213.48	52.71
213.698	65.74
213.916	67.16
214.134	76.11
214.352	83.58
214.57	84.69
214.788	86.09
215.006	103.6
215.224	97.22
215.442	108.1
215.66	127.67
215.878	112.97
216.096	130.51
216.314	124.96
216.532	117.85
216.75	96.83
216.968	68.29
217.185	57.65
217.403	52.97
217.621	47.23
217.839	58.4
218.057	47.08
218.275	44.43
218.492	20.93
218.71	-5.27
218.928	-2.24
219.146	-0.99
219.363	18.97
219.581	-2.27
219.799	29
220.017	49.19
220.234	25.62
220.452	31.83
220.67	44.64
220.887	69.4
221.105	92.31
221.323	88.44
221.54	100.9
221.758	87.55
221.976	82.86
222.193	85.8
222.411	98.1
222.629	78.83
222.846	80.01
223.064	79.34
223.281	65.2
223.499	51.04
223.716	55.89
223.934	44.13
224.151	48.88
224.369	30.42
224.586	19.53
224.804	18.16
225.021	32.53
225.239	36.06
225.456	33.41
225.674	31.25
225.891	43.48
226.108	38.73
226.326	50.43
226.543	41.11
226.76	44.61
226.978	42.14
227.195	33.52
227.413	26.15
227.63	28.56
227.847	28.91
228.064	26.52
228.282	19.47
228.499	18.86
228.716	16.34
228.934	17.37
229.151	17.65
229.368	17.53
229.585	19.96
229.802	20.77
230.02	19.49
230.237	19.16
230.454	21.98
230.671	22.84
230.888	24.62
231.105	23.58
231.323	24.68
231.54	23.54
231.757	25.64
231.974	24.71
232.191	23.31
232.408	26.78
232.625	26.26
232.842	18.08
233.059	16.71
233.276	17.51
233.493	24.39
233.71	25.61
233.927	27.08
234.144	25.94
234.361	22.81
234.578	24.25
234.795	23.42
235.012	21.3
235.229	24.57
235.446	22.64
235.663	19.8
235.879	14.66
236.096	11.85
236.313	13.51
236.53	12.65
236.747	12.96
236.964	9.17
237.181	5.23
237.397	6.27
237.614	4.31
237.831	8.61
238.048	12.28
238.264	11.84
238.481	7.12
238.698	7.2
238.915	8.05
239.131	4.77
239.348	7.95
239.565	9.2
239.781	14.44
239.998	14.24
240.215	14.75
240.431	8.49
240.648	7.73
240.865	9.47
241.081	5.1
241.298	3.89
241.514	11.14
241.731	11.26
241.947	12.67
242.164	12.1
242.38	12.36
242.597	13.3
242.814	15.15
243.03	15.57
243.246	17.07
243.463	19.05
243.679	20.41
243.896	18.73
244.112	21.09
244.329	20.9
244.545	19.56
244.762	20.59
244.978	18.49
245.194	16.44
245.411	16.07
245.627	15.58
245.843	13.81
246.06	12.89
246.276	10.34
246.492	9.47
246.709	9.22
246.925	9.67
247.141	8.95
247.357	8.85
247.574	8.78
247.79	8.59
248.006	8.02
248.222	7.7
248.439	7.76
248.655	9.25
248.871	9.3
249.087	9.18
249.303	8.48
249.519	9.24
249.736	9.73
249.952	10.43
250.168	12.08
250.384	13.19
250.6	14.68
250.816	15.74
251.032	16.03
251.248	15.7
251.464	15.85
251.68	18.06
251.896	17.28
252.112	17.61
252.328	18.29
252.544	17.79
252.76	17.24
252.976	18.81
253.192	18.28
253.408	18.15
253.624	17.46
253.84	17.87
254.056	16.15
254.272	15.08
254.487	16.09
254.703	15.3
254.919	13.14
255.135	13.18
255.351	11.29
255.567	11.87
255.782	11.82
255.998	14.43
256.214	13.15
256.43	14.46
256.646	16.97
256.861	13.31
257.077	13.64
257.293	14.77
257.508	13.24
257.724	12.37
257.94	11.98
258.155	10.4
258.371	9.99
258.587	10.08
258.802	10.49
259.018	9.91
259.234	10.28
259.449	10.06
259.665	9.84
259.88	10.54
260.096	10.36
260.312	11.32
260.527	12
260.743	11.88
260.958	11.83
261.174	10.14
261.389	10.1
261.605	10.39
261.82	10.24
262.036	10.51
262.251	10.06
262.466	9.98
262.682	8.37
262.897	7.17
263.113	7.01
263.328	7.6
263.543	10.75
263.759	10.83
263.974	11.75
264.189	12.38
264.405	13.31
264.62	14.35
264.835	15.13
265.051	14.44
265.266	17.09
265.481	16.09
265.696	16.08
265.912	15.21
266.127	13.77
266.342	12.02
266.557	12.3
266.773	11.96
266.988	11.82
267.203	10.93
267.418	10.77
267.633	9.6
267.848	9.57
268.064	8.28
268.279	9.39
268.494	11.17
268.709	12.09
268.924	11.87
269.139	11.25
269.354	12.03
269.569	12.89
269.784	13.88
269.999	13.18
270.214	12.96
270.429	13.94
270.644	12.8
270.859	11.75
271.074	10.72
271.289	10.32
271.504	10.45
271.719	8.97
271.934	10.36
272.149	10.15
272.363	10.02
272.578	9.62
272.793	9.47
273.008	10.61
273.223	11.25
273.438	12.35
273.653	13.48
273.867	13.62
274.082	14.39
274.297	12.58
274.512	11.71
274.726	13.13
274.941	14.13
275.156	15.25
275.371	14.19
275.585	14.57
275.8	13.75
276.015	12.92
276.229	12.58
276.444	12.85
276.659	13.23
276.873	14.45
277.088	13.46
277.302	14
277.517	12.11
277.732	11.92
277.946	11.39
278.161	10.37
278.375	9.53
278.59	9.54
278.804	9.73
279.019	10
279.233	10.66
279.448	9.64
279.662	8.63
279.877	8.99
280.091	9.42
280.306	8.49
280.52	9.81
280.735	10.82
280.949	10.81
281.163	9.74
281.378	8.54
281.592	6.72
281.806	8.01
282.021	7.71
282.235	8.74
282.449	8.58
282.664	8.7
282.878	8.07
283.092	8.76
283.307	9.81
283.521	9.78
283.735	10.69
283.949	11.25
284.164	9.62
284.378	10.17
284.592	8.88
284.806	8.67
285.02	8.45
285.234	9.32
285.449	7.88
285.663	7.5
285.877	7.87
286.091	7.73
286.305	8.22
286.519	9.98
286.733	9.69
286.947	10.56
287.161	10.43
287.375	10.9
287.589	10.67
287.803	11.66
288.017	11.19
288.231	10.71
288.445	11.11
288.659	11.13
288.873	10.86
289.087	11.09
289.301	11.09
289.515	11.49
289.729	12.25
289.943	11.52
290.157	10.99
290.371	11.07
290.584	11.61
290.798	11.47
291.012	11.67
291.226	11.52
291.44	11.6
291.654	11.88
291.867	11.74
292.081	11.55
292.295	11.89
292.509	12.21
292.722	12.58
292.936	12.9
293.15	12.63
293.364	11.77
293.577	10.67
293.791	11.18
294.005	11.17
294.218	10.97
294.432	10.36
294.645	11.49
294.859	11.9
295.073	11.28
295.286	11.16
295.5	12.66
295.713	12.71
295.927	12.62
296.14	13.18
296.354	12.24
296.568	12.47
296.781	12.44
296.994	12.8
297.208	11.95
297.421	12.53
297.635	12.31
297.848	11.22
298.062	11.61
298.275	12.32
298.489	11.33
298.702	11.69
298.915	11.13
299.129	11.32
299.342	10.61
299.555	11.36
299.769	11.71
299.982	12.73
300.195	13.26
300.409	12.1
300.622	12.09
300.835	12.56
301.048	13.22
301.262	14.15
301.475	15.22
301.688	14.61
301.901	14.37
302.115	13.11
302.328	13.27
302.541	12.22
302.754	12.98
302.967	13.03
303.18	13.76
303.393	13.53
303.607	13.62
303.82	12.89
304.033	12.75
304.246	13.67
304.459	14.71
304.672	14.49
304.885	15.6
305.098	16.28
305.311	15.61
305.524	14.62
305.737	14.68
305.95	13.98
306.163	13.24
306.376	14.09
306.589	12.71
306.802	11.54
307.015	10.35
307.228	9.83
307.44	9.43
307.653	11.09
307.866	11.41
308.079	10.7
308.292	10.79
308.505	10.62
308.718	10.47
308.93	11
309.143	10.63
309.356	10.4
309.569	10.44
309.781	10.76
309.994	9.38
310.207	9.5
310.42	9.88
310.632	9.99
310.845	10.38
311.058	10.05
311.27	10.05
311.483	11.39
311.696	11.34
311.908	11.67
312.121	11.38
312.333	12.55
312.546	12.56
312.759	12.73
312.971	12.98
313.184	14.43
313.396	15.12
313.609	14.98
313.821	14.38
314.034	15.58
314.246	15.69
314.459	15.99
314.671	15.11
314.884	15.03
315.096	14.33
315.309	14.21
315.521	12.31
315.733	12.04
315.946	12.88
316.158	12.07
316.371	11.98
316.583	11.86
316.795	11.42
317.008	11.61
317.22	11.26
317.432	12
317.644	12.2
317.857	12.31
318.069	11.8
318.281	11.11
318.494	13.03
318.706	12.44
318.918	12.11
319.13	11.74
319.342	12.13
319.555	11.69
319.767	11.4
319.979	10.62
320.191	11.57
320.403	12.01
320.615	11.52
320.827	10.96
321.039	11.05
321.252	11.16
321.464	11.5
321.676	9.5
321.888	10.37
322.1	10.24
322.312	10.6
322.524	8.88
322.736	8.67
322.948	10.59
323.16	9.91
323.372	10.15
323.584	10.42
323.796	11
324.007	12.12
324.219	11.61
324.431	11.79
324.643	11.83
324.855	12.41
325.067	13.05
325.279	12.45
325.491	12.33
325.702	12.09
325.914	11.98
326.126	11.43
326.338	10.28
326.55	10.63
326.761	10.06
326.973	10.32
327.185	11.4
327.396	10.1
327.608	9.71
327.82	9.81
328.032	10.12
328.243	9.64
328.455	9.87
328.666	12.04
328.878	13.2
329.09	13.4
329.301	15.52
329.513	14.43
329.725	15.49
329.936	15.64
330.148	15.87
330.359	16.35
330.571	17.38
330.782	17.88
330.994	17.39
331.205	16.19
331.417	17.35
331.628	15.86
331.84	17.13
332.051	17.58
332.262	18.22
332.474	18.93
332.685	18.29
332.897	17.96
333.108	16.87
333.319	16.65
333.531	16.92
333.742	16.54
333.953	15.56
334.165	15.29
334.376	14.78
334.587	14.53
334.799	14.09
335.01	14.13
335.221	14.53
335.432	14.84
335.644	14.96
335.855	15.74
336.066	15.59
336.277	16.97
336.488	15.58
336.7	15.26
336.911	14.98
337.122	15.62
337.333	15.87
337.544	16.29
337.755	17.08
337.966	17.13
338.177	16.71
338.388	17.14
338.599	16
338.811	17.7
339.022	17.89
339.233	17.64
339.444	16.99
339.655	17.22
339.866	16.68
340.076	15.43
340.287	15.89
340.498	15.71
340.709	15.12
340.92	15.84
341.131	15.33
341.342	15.59
341.553	16.33
341.764	16.68
341.975	16.33
342.185	15.57
342.396	16.07
342.607	15.55
342.818	15.71
343.029	16
343.239	15.88
343.45	14.26
343.661	14.37
343.872	13.54
344.082	14.25
344.293	14.25
344.504	14.98
344.714	14.73
344.925	14.88
345.136	14.26
345.346	14.11
345.557	13.94
345.768	14.78
345.978	14.42
346.189	14.77
346.399	13.34
346.61	13.51
346.821	13.51
347.031	13.41
347.242	13.25
347.452	14.12
347.663	14.54
347.873	14.61
348.084	15.04
348.294	15
348.504	14.74
348.715	15.25
348.925	15.53
349.136	15.96
349.346	16.91
349.557	16.71
349.767	16.32
349.977	15.59
350.188	15.79
350.398	15.44
350.608	14.97
350.819	15.45
351.029	15.38
351.239	14.6
351.449	14.04
351.66	14.21
351.87	14.89
352.08	15.36
352.29	15.57
352.501	14.87
352.711	15.75
352.921	15.83
353.131	15.84
353.341	15.34
353.552	15.03
353.762	14.52
353.972	13.93
354.182	13.45
354.392	13.63
354.602	13.88
354.812	14.29
355.022	13.84
355.232	14.33
355.442	13.9
355.652	14.26
355.862	14.79
356.072	14.68
356.282	14.33
356.492	14.13
356.702	13.04
356.912	12.88
357.122	13.12
357.332	12.41
357.542	12.19
357.752	12.17
357.962	12.25
358.171	11.96
358.381	12.35
358.591	12.26
358.801	12.96
359.011	13.28
359.221	12.92
359.43	12.68
359.64	13.32
359.85	13.34
360.06	13.46
360.269	14.03
360.479	14.19
360.689	13.41
360.899	13.87
361.108	13.06
361.318	12.77
361.528	13.11
361.737	13.14
361.947	13.25
362.156	13.06
362.366	13.18
362.576	12.47
362.785	12.49
362.995	13.33
363.204	12.76
363.414	12.89
363.623	13.4
363.833	13.39
364.042	13.16
364.252	12.8
364.461	12.87
364.671	12.18
364.88	12.34
365.09	12.12
365.299	11.77
365.509	11.44
365.718	11.92
365.927	12.15
366.137	11.84
366.346	12.66
366.555	12.45
366.765	12.94
366.974	13.69
367.183	13.71
367.393	14.05
367.602	14.57
367.811	15.49
368.021	15.71
368.23	15.61
368.439	15.33
368.648	14.31
368.857	14.32
369.067	14.01
369.276	14.1
369.485	14.05
369.694	13.76
369.903	13.04
370.112	13.01
370.321	12.36
370.531	11.9
370.74	11.93
370.949	12.33
371.158	12.53
371.367	12.86
371.576	12.61
371.785	12.71
371.994	12.71
372.203	12.49
372.412	12.34
372.621	12.47
372.83	12.48
373.039	12.75
373.248	12.48
373.457	12.48
373.666	11.82
373.874	10.96
374.083	11.05
374.292	10.92
374.501	10.89
374.71	10.54
374.919	10.54
375.128	10.73
375.336	10.68
375.545	11.04
375.754	11.07
375.963	11.56
376.171	12.31
376.38	12.02
376.589	11.9
376.798	11.69
377.006	11.83
377.215	11.44
377.424	11.1
377.632	11.44
377.841	11.03
378.05	10.94
378.258	10.58
378.467	10.4
378.675	10.39
378.884	10.41
379.093	10.85
379.301	11.01
379.51	11.39
379.718	11.65
379.927	11.43
380.135	11.56
380.344	11.64
380.552	11.06
380.761	10.92
380.969	11.04
381.177	11.28
381.386	10.51
381.594	10.31
381.803	10.14
382.011	10
382.219	9.71
382.428	9.44
382.636	9.14
382.845	10.05
383.053	10.34
383.261	10.17
383.469	9.83
383.678	10.39
383.886	10.37
384.094	9.74
384.302	9.52
384.511	9.73
384.719	9.86
384.927	9.97
385.135	10.06
385.343	10.35
385.552	10.33
385.76	10.55
385.968	10.81
386.176	10.71
386.384	11.13
386.592	11.3
386.8	11.09
387.008	11.01
387.216	11.03
387.424	10.79
387.633	10.12
387.841	9.96
388.049	9.89
388.257	9.62
388.465	9.64
388.672	9.52
388.88	9.22
389.088	8.89
389.296	9.06
389.504	9.12
389.712	9.06
389.92	8.96
390.128	9.13
390.336	9.22
390.544	9.1
390.751	9.09
390.959	9.26
391.167	9.48
391.375	9.7
391.583	9.44
391.79	9.16
391.998	9.21
392.206	9.69
392.414	9.42
392.621	9.29
392.829	9.12
393.037	9.2
393.244	9.04
393.452	8.99
393.66	9.29
393.867	9.64
394.075	10.08
394.283	9.82
394.49	9.46
394.698	9.7
394.905	9.79
395.113	10.04
395.32	9.82
395.528	9.81
395.735	9.79
395.943	9.52
396.15	9.38
396.358	8.91
396.565	8.94
396.773	9.24
396.98	9.31
397.188	9.07
397.395	8.97
397.602	9.23
397.81	9.36
398.017	9.4
398.225	9.49
398.432	9.49
398.639	9.66
398.847	9.82
399.054	9.94
399.261	9.84
399.468	10.24
399.676	10.31
399.883	10.01
400.09	9.91
400.297	9.79
400.505	9.55
400.712	9.36
400.919	9.17
401.126	9.2
401.333	8.68
401.54	8.72
401.748	8.54
401.955	8.57
402.162	8.92
402.369	9.08
402.576	9.22
402.783	9.39
402.99	9.23
403.197	9.53
403.404	9.5
403.611	9.67
403.818	9.54
404.025	9.23
404.232	9.14
404.439	8.85
404.646	8.67
404.853	8.79
405.06	8.74
405.267	9.06
405.474	8.91
405.681	9.05
405.887	9.05
406.094	9.08
406.301	9.27
406.508	9.08
406.715	9.13
406.922	9.18
407.128	8.95
407.335	8.81
407.542	8.84
407.749	8.79
407.955	8.44
408.162	8.14
408.369	8.18
408.575	8.24
408.782	8.47
408.989	8.66
409.195	8.57
409.402	8.82
409.609	8.84
409.815	8.47
410.022	8.67
410.228	8.91
410.435	9.16
410.642	9.12
410.848	8.98
411.055	8.91
411.261	8.69
411.468	8.64
411.674	8.41
411.881	8.61
412.087	8.68
412.294	8.85
412.5	8.59
412.706	8.62
412.913	8.58
413.119	8.81
413.326	8.97
413.532	9.25
413.738	9.06
413.945	9.27
414.151	9.11
414.357	9.2
414.564	9.01
414.77	9.41
414.976	9.27
415.182	9.47
415.389	9.34
415.595	9.4
415.801	9.12
416.007	9.41
416.214	9.22
416.42	9.25
416.626	9.33
416.832	9.09
417.038	8.85
417.244	9.01
417.45	8.9
417.657	8.74
417.863	8.61
418.069	8.76
418.275	8.77
418.481	8.71
418.687	8.74
418.893	8.52
419.099	8.38
419.305	8.4
419.511	8.4
419.717	8.38
419.923	8.43
420.129	8.47
420.335	8.5
420.541	8.37
420.746	8.38
420.952	8.36
421.158	8.52
421.364	8.77
421.57	8.84
421.776	8.8
421.982	8.88
422.187	8.94
422.393	8.9
422.599	8.83
422.805	8.97
423.01	9.06
423.216	9.14
423.422	9.11
423.628	9.12
423.833	9.06
424.039	9.02
424.245	8.92
424.45	9.02
424.656	9.03
424.862	9.01
425.067	9
425.273	8.9
425.478	8.86
425.684	8.95
425.889	8.96
426.095	9
426.301	9.1
426.506	9.1
426.712	8.92
426.917	8.92
427.123	8.94
427.328	8.86
427.533	8.96
427.739	9.07
427.944	8.8
428.15	8.65
428.355	8.73
428.561	8.72
428.766	8.68
428.971	8.59
429.177	8.78
429.382	9.08
429.587	9.1
429.793	9.16
429.998	9.14
430.203	9.25
430.408	9.29
430.614	8.91
430.819	8.79
431.024	8.98
431.229	8.98
431.434	8.89
431.64	8.57
431.845	8.72
432.05	8.59
432.255	8.53
432.46	8.46
432.665	8.35
432.87	8.36
433.076	8.45
433.281	8.37
433.486	8.34
433.691	8.41
433.896	8.37
434.101	8.25
434.306	8.33
434.511	8.18
434.716	8.22
434.921	8.14
435.126	8.26
435.331	8.25
435.535	8.2
435.74	8.31
435.945	8
436.15	7.95
436.355	8.09
436.56	8.14
436.765	8.27
436.97	8.4
437.174	8.68
437.379	8.77
437.584	8.83
437.789	8.86
437.993	8.91
438.198	9.07
438.403	9.22
438.608	9.35
438.812	9.13
439.017	9.16
439.222	9.09
439.426	8.99
439.631	9.04
439.836	9.01
440.04	9.02
440.245	8.97
440.45	9.01
440.654	8.9
440.859	8.72
441.063	8.89
441.268	8.84
441.472	8.89
441.677	8.9
441.881	9.01
442.086	8.89
442.29	9.02
442.495	8.97
442.699	8.98
442.904	9.13
443.108	9.02
443.312	9.03
443.517	9.14
443.721	9.21
443.925	9.1
444.13	8.86
444.334	8.88
444.538	8.65
444.743	8.72
444.947	8.7
445.151	8.62
445.356	8.75
445.56	8.71
445.764	8.54
445.968	8.31
446.173	8.43
446.377	8.6
446.581	8.7
446.785	8.71
446.989	8.69
447.193	8.73
447.398	8.81
447.602	8.77
447.806	8.77
448.01	8.9
448.214	9.04
448.418	8.91
448.622	8.77
448.826	8.53
449.03	8.55
449.234	8.58
449.438	8.52
449.642	8.39
449.846	8.36
450.05	8.32
450.254	8.33
450.458	8.13
450.662	8.33
450.866	8.19
451.069	8.46
451.273	8.43
451.477	8.33
451.681	8.34
451.885	8.3
452.089	8.28
452.292	8.29
452.496	8.31
452.7	8.59
452.904	8.49
453.107	8.64
453.311	8.61
453.515	8.51
453.719	8.49
453.922	8.6
454.126	8.58
454.33	8.62
454.533	8.52
454.737	8.43
454.94	8.43
455.144	8.56
455.348	8.45
455.551	8.43
455.755	8.68
455.958	8.86
456.162	8.74
456.365	8.79
456.569	9.05
456.772	8.99
456.976	8.86
457.179	8.7
457.383	8.47
457.586	8.42
457.79	8.41
457.993	8.35
458.196	8.45
458.4	8.38
458.603	8.41
458.807	8.21
459.01	8.36
459.213	8.44
459.417	8.4
459.62	8.55
459.823	8.63
460.026	8.68
460.23	8.66
460.433	8.45
460.636	8.4
460.839	8.5
461.042	8.6
461.246	8.46
461.449	8.58
461.652	8.57
461.855	8.43
462.058	8.51
462.261	8.35
462.464	8.36
462.668	8.47
