Data from LC_246_Reflection_3.txt Node
Date: Thu Nov 19 22:49:51 EST 2015
User: robert
Spectrometer: USB4E03001
Autoset integration time: false
Trigger mode: 4
Integration Time (sec): 1.000000E-1
Scans to average: 15
Electric dark correction enabled: true
Nonlinearity correction enabled: false
Boxcar width: 5
Stray light correction enabled: false
XAxis mode: Wavelengths
Stop averaging: false
Number of Pixels in Spectrum: 3648
>>>>>Begin Spectral Data<<<<<
177.566	-88.31
177.785	-20.13
178.005	8.64
178.225	-6.83
178.445	27.03
178.665	15.74
178.885	55.91
179.105	341.07
179.324	196.2
179.544	138.72
179.764	155.72
179.984	175.15
180.204	302.82
180.423	191.5
180.643	170.51
180.863	110.09
181.083	177.17
181.302	103.68
181.522	77.89
181.742	98.54
181.961	109.05
182.181	126.21
182.401	164.84
182.621	129.3
182.84	281.12
183.06	183.23
183.279	128.95
183.499	73.65
183.719	250.04
183.938	797.31
184.158	106.88
184.377	-178.28
184.597	96.63
184.816	96.23
185.036	-20.07
185.256	593.33
185.475	213.67
185.695	232.37
185.914	265.1
186.134	367.91
186.353	261.86
186.572	280.43
186.792	506.52
187.011	-2658.23
187.231	-1008.01
187.45	-948.04
187.67	-49.65
187.889	-15.14
188.108	34.28
188.328	25.1
188.547	-107.6
188.766	-119.39
188.986	-109.46
189.205	4335.29
189.424	236.42
189.644	245.09
189.863	156.04
190.082	117.76
190.302	149.9
190.521	176.49
190.74	191.43
190.959	192.86
191.178	165.51
191.398	171.26
191.617	157.08
191.836	480.3
192.055	80.35
192.274	141.94
192.494	141.48
192.713	67.68
192.932	49.85
193.151	48.15
193.37	44.35
193.589	61.63
193.808	67.96
194.027	66.62
194.246	67.75
194.465	68.33
194.685	57.66
194.904	58.99
195.123	75.19
195.342	63.68
195.561	59.45
195.78	56.8
195.999	57.35
196.218	57.76
196.436	45.92
196.655	31.97
196.874	40.42
197.093	31.74
197.312	11.61
197.531	-4
197.75	54.6
197.969	66.2
198.188	117.52
198.407	68.63
198.625	125.24
198.844	33.95
199.063	-568.97
199.282	-63.5
199.501	-102.01
199.719	-284.16
199.938	-106.41
200.157	-277.01
200.376	-411.36
200.594	2445.83
200.813	1997.79
201.032	1418.58
201.251	1257.78
201.469	404.24
201.688	167.22
201.907	270.08
202.125	782.55
202.344	215.83
202.563	257.66
202.781	141.27
203	33.93
203.218	15.16
203.437	-41.7
203.656	-44.13
203.874	143.72
204.093	88.94
204.311	15.48
204.53	15.94
204.748	-0.17
204.967	16.74
205.185	19.76
205.404	13.63
205.622	46.02
205.841	97.13
206.059	152.97
206.278	63.02
206.496	116.6
206.715	164.65
206.933	132.37
207.151	102.72
207.37	54.04
207.588	18.18
207.806	101.36
208.025	67.41
208.243	-127.12
208.461	-352.25
208.68	-197.29
208.898	-85.51
209.116	-107.02
209.335	-95.21
209.553	-761.85
209.771	478.99
209.989	132.36
210.208	88.39
210.426	150.99
210.644	112.47
210.862	113.67
211.081	143.68
211.299	61.97
211.517	89.85
211.735	59.61
211.953	71.83
212.171	53.76
212.39	35.08
212.608	56.82
212.826	72.78
213.044	85.91
213.262	69.07
213.48	35.22
213.698	76.59
213.916	83.76
214.134	82.95
214.352	139.26
214.57	129.72
214.788	603.78
215.006	422.75
215.224	243.98
215.442	531.54
215.66	199.78
215.878	242.71
216.096	176.27
216.314	267.54
216.532	254.45
216.75	656.88
216.968	-5.7
217.185	230.58
217.403	857.76
217.621	354.22
217.839	-110.94
218.057	-28
218.275	31.05
218.492	27.94
218.71	-0.75
218.928	-22.55
219.146	-52.58
219.363	4.45
219.581	-23.96
219.799	-13.79
220.017	-34.98
220.234	-11.56
220.452	-4.06
220.67	-12.61
220.887	9.33
221.105	46.59
221.323	48.18
221.54	54.79
221.758	62.21
221.976	57.13
222.193	56.59
222.411	53.02
222.629	33.79
222.846	32.75
223.064	36.07
223.281	23.97
223.499	9.4
223.716	26.72
223.934	15.93
224.151	6.76
224.369	20.42
224.586	11.01
224.804	20.05
225.021	36.26
225.239	37.78
225.456	21.22
225.674	34.79
225.891	47.84
226.108	53.74
226.326	36.01
226.543	35.74
226.76	21.68
226.978	23.41
227.195	27.11
227.413	16.94
227.63	6.42
227.847	12.01
228.064	11.53
228.282	9.46
228.499	7.92
228.716	13.77
228.934	12.42
229.151	12.83
229.368	10.99
229.585	10.74
229.802	9.99
230.02	10.4
230.237	11.86
230.454	9.76
230.671	6.12
230.888	4.97
231.105	1.3
231.323	6.44
231.54	3.67
231.757	5.62
231.974	5.85
232.191	7.95
232.408	10.53
232.625	11.13
232.842	13.05
233.059	20.75
233.276	22.86
233.493	24.85
233.71	21.02
233.927	25.02
234.144	26.71
234.361	20.89
234.578	21.55
234.795	20.66
235.012	19.21
235.229	14.21
235.446	12.32
235.663	8.16
235.879	10.37
236.096	4.27
236.313	1.04
236.53	0.58
236.747	0.68
236.964	2.14
237.181	2.34
237.397	-2.48
237.614	2.13
237.831	4.49
238.048	9.1
238.264	6.82
238.481	9.94
238.698	11.91
238.915	15.41
239.131	14.31
239.348	12.9
239.565	16.36
239.781	20.15
239.998	22.86
240.215	19.03
240.431	16.29
240.648	15.93
240.865	15.93
241.081	16.12
241.298	14.36
241.514	16.56
241.731	16.01
241.947	14.41
242.164	13.08
242.38	12.41
242.597	12.53
242.814	12.99
243.03	12.89
243.246	14.74
243.463	14
243.679	12.57
243.896	11.55
244.112	10.26
244.329	9.5
244.545	10.64
244.762	9.67
244.978	10.34
245.194	10.94
245.411	11.24
245.627	8.76
245.843	8.6
246.06	10.55
246.276	10.73
246.492	11.24
246.709	12.09
246.925	11.74
247.141	11.3
247.357	11.4
247.574	10.92
247.79	11.21
248.006	11.37
248.222	10.94
248.439	10.82
248.655	10.61
248.871	10.33
249.087	9.17
249.303	8.57
249.519	9.12
249.736	7.87
249.952	7.42
250.168	5.24
250.384	4.67
250.6	6.78
250.816	6.39
251.032	6.45
251.248	8.39
251.464	9.9
251.68	10.58
251.896	10.7
252.112	10.63
252.328	11.47
252.544	11.91
252.76	11.7
252.976	11.73
253.192	11.09
253.408	11.27
253.624	10.51
253.84	8.83
254.056	8
254.272	6.91
254.487	7.09
254.703	5.11
254.919	5.26
255.135	6.89
255.351	7.14
255.567	8.5
255.782	7.41
255.998	8.65
256.214	11.72
256.43	10.33
256.646	12.36
256.861	13.21
257.077	14.26
257.293	15.19
257.508	14.99
257.724	13.53
257.94	13.84
258.155	14.16
258.371	13.71
258.587	12.03
258.802	11.47
259.018	11.15
259.234	11.19
259.449	10.94
259.665	9.83
259.88	9.24
260.096	8.81
260.312	7.76
260.527	7.54
260.743	7.42
260.958	7.26
261.174	7.65
261.389	7.04
261.605	6.83
261.82	6.21
262.036	6.34
262.251	5.78
262.466	5.99
262.682	6.88
262.897	7.65
263.113	6.69
263.328	8.21
263.543	8.17
263.759	7.24
263.974	7.52
264.189	8.78
264.405	8.82
264.62	10.51
264.835	11.31
265.051	11.25
265.266	10.41
265.481	12.27
265.696	10.08
265.912	9.41
266.127	11.1
266.342	10.46
266.557	10.6
266.773	10.82
266.988	9.32
267.203	7.95
267.418	7.76
267.633	7.84
267.848	6.16
268.064	7.55
268.279	7.3
268.494	6.76
268.709	6.56
268.924	5.69
269.139	6.24
269.354	6
269.569	5.73
269.784	5.8
269.999	5.41
270.214	6.61
270.429	6.2
270.644	6.31
270.859	6.14
271.074	4.73
271.289	5.93
271.504	5.98
271.719	6.4
271.934	7.18
272.149	7.11
272.363	7.92
272.578	8.09
272.793	8.41
273.008	8.42
273.223	8.75
273.438	10.3
273.653	8.78
273.867	8.44
274.082	8.23
274.297	9.1
274.512	8.76
274.726	8.67
274.941	7.06
275.156	5.74
275.371	5.81
275.585	5.72
275.8	4.76
276.015	5.94
276.229	6.08
276.444	6.93
276.659	5.29
276.873	6.05
277.088	6.93
277.302	7.72
277.517	8.82
277.732	9.62
277.946	9.59
278.161	9.58
278.375	9.47
278.59	8.87
278.804	8.64
279.019	9.25
279.233	9.31
279.448	8.31
279.662	9.13
279.877	7.76
280.091	7.54
280.306	7.31
280.52	7.23
280.735	7.92
280.949	8.61
281.163	8.36
281.378	8.98
281.592	9.06
281.806	9.4
282.021	9.83
282.235	9.7
282.449	9.49
282.664	9.82
282.878	9.84
283.092	8.81
283.307	9.01
283.521	8.79
283.735	7.96
283.949	7.23
284.164	6.59
284.378	5.53
284.592	5.43
284.806	5.04
285.02	5.25
285.234	5.79
285.449	6.09
285.663	5.95
285.877	7.03
286.091	7.61
286.305	8.01
286.519	8.15
286.733	8.68
286.947	10.07
287.161	9.8
287.375	9.79
287.589	9.03
287.803	8.18
288.017	8.52
288.231	7.83
288.445	7.52
288.659	7.74
288.873	6.84
289.087	5.91
289.301	5.69
289.515	5.81
289.729	5.57
289.943	5.76
290.157	7.39
290.371	7.62
290.584	7.35
290.798	7.12
291.012	7.22
291.226	7.76
291.44	8.97
291.654	8.84
291.867	10.17
292.081	10.02
292.295	11.33
292.509	10.86
292.722	10.81
292.936	10.22
293.15	10.33
293.364	10.78
293.577	11.79
293.791	11.28
294.005	10.89
294.218	9.93
294.432	10.1
294.645	9.77
294.859	9.95
295.073	9.03
295.286	9.55
295.5	9.66
295.713	9.43
295.927	8.62
296.14	8.53
296.354	8.35
296.568	9.34
296.781	9.03
296.994	9.25
297.208	8.47
297.421	9.37
297.635	10.29
297.848	10.21
298.062	10.58
298.275	11.03
298.489	11.39
298.702	12.54
298.915	12.4
299.129	12.67
299.342	12.49
299.555	13.13
299.769	12.82
299.982	12.3
300.195	12.81
300.409	12.2
300.622	11.4
300.835	11.15
301.048	10.51
301.262	10
301.475	10.16
301.688	10.19
301.901	10.29
302.115	10.09
302.328	10.15
302.541	9.66
302.754	10.57
302.967	12.43
303.18	12.01
303.393	11.68
303.607	12
303.82	11.91
304.033	11.46
304.246	12.34
304.459	12.69
304.672	12.96
304.885	13.61
305.098	12.69
305.311	11.42
305.524	11.85
305.737	11.79
305.95	12.24
306.163	11.69
306.376	12.39
306.589	12.46
306.802	11.37
307.015	10.05
307.228	10.13
307.44	10.49
307.653	10.9
307.866	11.61
308.079	12.49
308.292	12.32
308.505	13.22
308.718	12.35
308.93	11.36
309.143	12.12
309.356	12.28
309.569	12.17
309.781	11.84
309.994	11.32
310.207	10.42
310.42	10.47
310.632	10.08
310.845	10.37
311.058	11.34
311.27	11.62
311.483	11.52
311.696	11.96
311.908	12.23
312.121	12.45
312.333	12.28
312.546	12.66
312.759	11.98
312.971	12.16
313.184	11.62
313.396	10.87
313.609	10.84
313.821	11.19
314.034	11.78
314.246	10.76
314.459	11.42
314.671	12.22
314.884	12.9
315.096	13.58
315.309	13.45
315.521	13.19
315.733	12.66
315.946	12.84
316.158	13.06
316.371	11.78
316.583	12.73
316.795	11.46
317.008	10.44
317.22	9.35
317.432	9.04
317.644	9.94
317.857	9.2
318.069	9.29
318.281	9.09
318.494	9.86
318.706	10.58
318.918	9.7
319.13	10.95
319.342	11.34
319.555	11.82
319.767	12.43
319.979	11.6
320.191	13.71
320.403	14.93
320.615	15.06
320.827	14.42
321.039	13.7
321.252	13.85
321.464	13.13
321.676	13.53
321.888	12.98
322.1	12.57
322.312	12.99
322.524	13.47
322.736	13.03
322.948	13.62
323.16	13.12
323.372	13.55
323.584	13.5
323.796	12.93
324.007	13.38
324.219	14.3
324.431	13.84
324.643	13.92
324.855	13.09
325.067	13.39
325.279	13.2
325.491	14.19
325.702	15.04
325.914	14.72
326.126	16.76
326.338	17.44
326.55	17.6
326.761	18.09
326.973	18.63
327.185	18.89
327.396	18.42
327.608	19.07
327.82	18.45
328.032	18.5
328.243	20.71
328.455	20.17
328.666	19.47
328.878	19.8
329.09	20.49
329.301	21.32
329.513	22.31
329.725	23.61
329.936	23.74
330.148	24.85
330.359	25.75
330.571	25.23
330.782	24.66
330.994	25.38
331.205	25.67
331.417	26.05
331.628	25.82
331.84	25.26
332.051	25.9
332.262	26.41
332.474	26.69
332.685	27.19
332.897	27.43
333.108	27.94
333.319	28.9
333.531	29.13
333.742	29.5
333.953	30.08
334.165	30.85
334.376	30.41
334.587	30.21
334.799	30.24
335.01	29.85
335.221	30.87
335.432	31.75
335.644	31.54
335.855	31.11
336.066	30.7
336.277	30.15
336.488	29.88
336.7	29.58
336.911	28.54
337.122	28.8
337.333	29.42
337.544	28.58
337.755	28.18
337.966	27.7
338.177	28.1
338.388	28.44
338.599	28.6
338.811	28.83
339.022	29.35
339.233	29.99
339.444	30.86
339.655	30.62
339.866	31.22
340.076	31.03
340.287	31.35
340.498	31.25
340.709	31.3
340.92	31.04
341.131	31.37
341.342	31.71
341.553	32.7
341.764	31.46
341.975	31.32
342.185	31.2
342.396	31.49
342.607	31.57
342.818	30.92
343.029	31.19
343.239	30.87
343.45	30.21
343.661	30.05
343.872	29.52
344.082	29.59
344.293	29.37
344.504	29.01
344.714	29.29
344.925	29.55
345.136	30.13
345.346	29.22
345.557	29.66
345.768	30.36
345.978	30.29
346.189	30.08
346.399	30.53
346.61	30.27
346.821	30.38
347.031	30.19
347.242	30.44
347.452	30.89
347.663	31.19
347.873	31.8
348.084	31.33
348.294	31.39
348.504	31.95
348.715	32.2
348.925	32.66
349.136	32.7
349.346	32.2
349.557	32.16
349.767	31.77
349.977	32.17
350.188	31.35
350.398	30.72
350.608	30.62
350.819	30.54
351.029	30.08
351.239	30.48
351.449	29.94
351.66	30.25
351.87	29.75
352.08	29.48
352.29	29.55
352.501	29.53
352.711	30.17
352.921	30.55
353.131	29.93
353.341	29.51
353.552	28.79
353.762	28.85
353.972	29.29
354.182	29.64
354.392	30.25
354.602	29.77
354.812	29.72
355.022	29.2
355.232	29.06
355.442	29.8
355.652	29.55
355.862	28.99
356.072	29.2
356.282	29.25
356.492	28.71
356.702	29.06
356.912	29.07
357.122	29.35
357.332	29.47
357.542	29.61
357.752	28.8
357.962	29.1
358.171	29.53
358.381	29.61
358.591	29.12
358.801	29.28
359.011	29.18
359.221	29.48
359.43	29.13
359.64	29.23
359.85	28.99
360.06	29.31
360.269	29.5
360.479	29.83
360.689	29.83
360.899	29.88
361.108	30.1
361.318	29.47
361.528	29.24
361.737	29.66
361.947	29.44
362.156	29.19
362.366	29.04
362.576	29.01
362.785	28.72
362.995	28.58
363.204	28.33
363.414	28.04
363.623	28.06
363.833	28.4
364.042	28.24
364.252	28.64
364.461	28.19
364.671	28.02
364.88	28.07
365.09	28.25
365.299	27.96
365.509	28.64
365.718	28.31
365.927	28.64
366.137	28.12
366.346	28
366.555	27.78
366.765	28.26
366.974	28.7
367.183	28.56
367.393	27.9
367.602	28.19
367.811	28.07
368.021	28.58
368.23	27.82
368.439	27.84
368.648	27.47
368.857	27.54
369.067	27.3
369.276	27.82
369.485	27.58
369.694	27.6
369.903	27.55
370.112	26.81
370.321	26.23
370.531	26.16
370.74	25.69
370.949	25.83
371.158	25.88
371.367	26.15
371.576	24.97
371.785	25.14
371.994	24.91
372.203	24.78
372.412	25.34
372.621	25.47
372.83	25.54
373.039	26.07
373.248	26.12
373.457	25.77
373.666	25.61
373.874	25.68
374.083	25.42
374.292	26.03
374.501	25.92
374.71	25.68
374.919	25.59
375.128	25.8
375.336	24.98
375.545	24.83
375.754	24.8
375.963	24.57
376.171	24.52
376.38	24.7
376.589	24.25
376.798	23.94
377.006	23.32
377.215	23.28
377.424	22.53
377.632	22.96
377.841	22.93
378.05	23.27
378.258	23.34
378.467	23.39
378.675	23.09
378.884	23.51
379.093	23.76
379.301	24.06
379.51	24.13
379.718	24.74
379.927	24.91
380.135	24.84
380.344	24.32
380.552	24.38
380.761	24.58
380.969	24.52
381.177	24.16
381.386	23.78
381.594	23.76
381.803	23.12
382.011	23.05
382.219	22.97
382.428	22.72
382.636	22.69
382.845	22.45
383.053	21.9
383.261	21.41
383.469	21.6
383.678	21.7
383.886	21.68
384.094	22.35
384.302	22.37
384.511	21.78
384.719	21.77
384.927	21.46
385.135	21.36
385.343	21.42
385.552	21.51
385.76	20.84
385.968	20.7
386.176	20.61
386.384	20.09
386.592	20.06
386.8	20.21
387.008	19.75
387.216	20.09
387.424	19.9
387.633	20.09
387.841	20.18
388.049	20.4
388.257	20.28
388.465	19.97
388.672	19.97
388.88	19.72
389.088	19.64
389.296	19.97
389.504	19.75
389.712	19.79
389.92	19.6
390.128	19.46
390.336	19.34
390.544	19.44
390.751	19.44
390.959	19.31
391.167	19.3
391.375	19.33
391.583	19.09
391.79	18.9
391.998	18.94
392.206	18.79
392.414	18.77
392.621	18.69
392.829	18.61
393.037	18.68
393.244	18.9
393.452	18.87
393.66	18.72
393.867	18.92
394.075	19.17
394.283	18.85
394.49	18.97
394.698	18.84
394.905	18.64
395.113	18.52
395.32	18.59
395.528	18.4
395.735	18.5
395.943	18.51
396.15	18.37
396.358	18.02
396.565	18.37
396.773	18.18
396.98	18.32
397.188	18.54
397.395	18.4
397.602	18.15
397.81	17.91
398.017	17.59
398.225	17.59
398.432	17.5
398.639	17.39
398.847	17.14
399.054	16.92
399.261	16.53
399.468	16.62
399.676	16.74
399.883	16.64
400.09	16.78
400.297	16.94
400.505	17.05
400.712	16.98
400.919	17.07
401.126	17.09
401.333	17.31
401.54	17.59
401.748	17.62
401.955	17.56
402.162	17.71
402.369	17.61
402.576	17.38
402.783	17.53
402.99	17.5
403.197	17.42
403.404	17.29
403.611	17.22
403.818	17.09
404.025	16.85
404.232	16.75
404.439	16.85
404.646	16.81
404.853	16.86
405.06	16.31
405.267	16.49
405.474	16.61
405.681	16.37
405.887	16.47
406.094	16.54
406.301	16.77
406.508	16.88
406.715	16.49
406.922	16.25
407.128	15.95
407.335	16.19
407.542	15.99
407.749	15.92
407.955	16.02
408.162	15.96
408.369	15.89
408.575	15.56
408.782	15.32
408.989	15.27
409.195	15.39
409.402	15.52
409.609	15.37
409.815	15.23
410.022	15.14
410.228	15.35
410.435	15.24
410.642	14.99
410.848	14.88
411.055	15.01
411.261	15.13
411.468	15.21
411.674	15.24
411.881	15.51
412.087	15.44
412.294	15.21
412.5	15.08
412.706	14.85
412.913	15.23
413.119	15.18
413.326	15.08
413.532	15.06
413.738	14.78
413.945	14.69
414.151	14.65
414.357	14.7
414.564	14.91
414.77	14.56
414.976	14.64
415.182	14.48
415.389	14.45
415.595	14.37
415.801	14.36
416.007	14.48
416.214	14.47
416.42	14.32
416.626	14.21
416.832	14.3
417.038	14.54
417.244	14.43
417.45	14.49
417.657	14.68
417.863	14.81
418.069	14.71
418.275	14.74
418.481	14.79
418.687	14.77
418.893	14.91
419.099	14.85
419.305	14.86
419.511	14.99
419.717	14.92
419.923	14.8
420.129	14.59
420.335	14.52
420.541	14.44
420.746	14.37
420.952	14.31
421.158	14.28
421.364	14.19
421.57	13.98
421.776	13.88
421.982	13.75
422.187	13.77
422.393	13.75
422.599	13.82
422.805	13.76
423.01	13.62
423.216	13.53
423.422	13.36
423.628	13.28
423.833	13.32
424.039	13.25
424.245	13.2
424.45	13.19
424.656	13.29
424.862	13.25
425.067	13.12
425.273	13.23
425.478	13.28
425.684	13.33
425.889	13.46
426.095	13.55
426.301	13.51
426.506	13.68
426.712	13.55
426.917	13.55
427.123	13.52
427.328	13.64
427.533	13.7
427.739	13.88
427.944	13.81
428.15	13.63
428.355	13.32
428.561	13.38
428.766	13.2
428.971	13.22
429.177	13.19
429.382	13.26
429.587	13.45
429.793	13.42
429.998	13.09
430.203	13.11
430.408	13.14
430.614	13.47
430.819	13.29
431.024	13.26
431.229	13.09
431.434	12.89
431.64	12.65
431.845	12.54
432.05	12.48
432.255	12.42
432.46	12.38
432.665	12.48
432.87	12.44
433.076	12.58
433.281	12.66
433.486	12.86
433.691	12.93
433.896	13.04
434.101	12.85
434.306	12.74
434.511	12.72
434.716	12.84
434.921	12.74
435.126	12.85
435.331	12.86
435.535	12.8
435.74	12.64
435.945	12.61
436.15	12.55
436.355	12.91
436.56	12.96
436.765	13.21
436.97	13.16
437.174	13.23
437.379	13.04
437.584	13.02
437.789	13.03
437.993	13.15
438.198	13.13
438.403	12.99
438.608	12.87
438.812	12.92
439.017	12.74
439.222	12.76
439.426	12.68
439.631	12.68
439.836	12.68
440.04	12.63
440.245	12.55
440.45	12.63
440.654	12.83
440.859	12.75
441.063	12.76
441.268	12.91
441.472	12.81
441.677	12.78
441.881	12.9
442.086	12.84
442.29	12.88
442.495	12.97
442.699	13.03
442.904	12.99
443.108	13.04
443.312	12.85
443.517	12.66
443.721	12.85
443.925	12.92
444.13	12.84
444.334	13
444.538	13.02
444.743	13.04
444.947	12.97
445.151	12.9
445.356	12.98
445.56	13.01
445.764	13.09
445.968	13.08
446.173	13.06
446.377	12.95
446.581	12.85
446.785	12.86
446.989	12.75
447.193	12.67
447.398	12.56
447.602	12.44
447.806	12.45
448.01	12.28
448.214	12.24
448.418	12.1
448.622	12.02
448.826	12.18
449.03	12.21
449.234	12.14
449.438	12.2
449.642	12.23
449.846	12.18
450.05	12.35
450.254	12.56
450.458	12.34
450.662	12.45
450.866	12.48
451.069	12.21
451.273	11.94
451.477	11.99
451.681	11.91
451.885	12.14
452.089	12.24
452.292	12.12
452.496	12.04
452.7	12.12
452.904	11.99
453.107	12.09
453.311	12.37
453.515	12.5
453.719	12.59
453.922	12.64
454.126	12.44
454.33	12.49
454.533	12.43
454.737	12.4
454.94	12.36
455.144	12.5
455.348	12.42
455.551	12.11
455.755	12.01
455.958	12.06
456.162	11.96
456.365	12
456.569	11.91
456.772	11.97
456.976	12.11
457.179	12.24
457.383	12.26
457.586	12.4
457.79	12.56
457.993	12.53
458.196	12.29
458.4	12.43
