Data from LC_266_Reflection_3.txt Node
Date: Sat Nov 21 11:54:19 EST 2015
User: robert
Spectrometer: USB4E03001
Autoset integration time: false
Trigger mode: 4
Integration Time (sec): 1.000000E-1
Scans to average: 15
Electric dark correction enabled: true
Nonlinearity correction enabled: false
Boxcar width: 5
Stray light correction enabled: false
XAxis mode: Wavelengths
Stop averaging: false
Number of Pixels in Spectrum: 3648
>>>>>Begin Spectral Data<<<<<
177.566	232.4
177.785	229
178.005	561.95
178.225	-117.97
178.445	-139.06
178.665	-791.76
178.885	184.54
179.105	-345.45
179.324	-83.03
179.544	-162.28
179.764	-318.46
179.984	-5.98
180.204	-17.52
180.423	-3.02
180.643	13.93
180.863	31.32
181.083	18.9
181.302	48.42
181.522	80.86
181.742	83.07
181.961	84.07
182.181	79
182.401	112.57
182.621	121.73
182.84	122.69
183.06	104.61
183.279	96.99
183.499	79.73
183.719	56.99
183.938	55.81
184.158	55.71
184.377	61.01
184.597	63.31
184.816	62.03
185.036	49.43
185.256	63.23
185.475	47.97
185.695	45.08
185.914	59.61
186.134	54.56
186.353	70.37
186.572	72.57
186.792	72.11
187.011	65.37
187.231	67.17
187.45	84.24
187.67	84.19
187.889	101.09
188.108	115.53
188.328	110.69
188.547	140.38
188.766	117.34
188.986	104.35
189.205	-24.12
189.424	-220.79
189.644	-153.75
189.863	402.1
190.082	696.25
190.302	-1119.03
190.521	-97.76
190.74	-25.66
190.959	-32.43
191.178	-22.26
191.398	24.24
191.617	56.58
191.836	80.46
192.055	84.73
192.274	90.13
192.494	87.91
192.713	82.43
192.932	88.15
193.151	52.36
193.37	51.54
193.589	46.18
193.808	30.34
194.027	30.73
194.246	19.33
194.465	27.72
194.685	29.52
194.904	16.84
195.123	28.52
195.342	20.87
195.561	44.69
195.78	23.81
195.999	8.89
196.218	39.58
196.436	46.29
196.655	34.55
196.874	39.89
197.093	15.3
197.312	33.87
197.531	51.76
197.75	53.97
197.969	38.61
198.188	49.35
198.407	49.57
198.625	37.77
198.844	43.85
199.063	51.56
199.282	35.78
199.501	32.8
199.719	34.14
199.938	44.33
200.157	48.1
200.376	65.41
200.594	65.88
200.813	66.41
201.032	80.34
201.251	60.97
201.469	65.42
201.688	103.55
201.907	110.33
202.125	94.48
202.344	82.02
202.563	106.37
202.781	107.91
203	130.43
203.218	113.74
203.437	157.02
203.656	319.86
203.874	299.24
204.093	152.31
204.311	153.44
204.53	187.69
204.748	121.24
204.967	116.65
205.185	73.2
205.404	74.22
205.622	175.21
205.841	111.64
206.059	95.34
206.278	78.33
206.496	32.16
206.715	-2.71
206.933	22.18
207.151	80.78
207.37	57.62
207.588	69.81
207.806	69.89
208.025	41.77
208.243	47.84
208.461	29.83
208.68	73.73
208.898	97.38
209.116	64.13
209.335	61.43
209.553	59.69
209.771	42.99
209.989	84.01
210.208	66.93
210.426	95.19
210.644	68.72
210.862	105.7
211.081	-55.78
211.299	27.65
211.517	54.88
211.735	26.8
211.953	14.68
212.171	23.66
212.39	12.58
212.608	3.44
212.826	20.75
213.044	25.2
213.262	42.15
213.48	51.27
213.698	50.19
213.916	39.16
214.134	51.67
214.352	47.95
214.57	58.08
214.788	63.22
215.006	68.33
215.224	55.19
215.442	44.8
215.66	50.87
215.878	47.81
216.096	43.44
216.314	61.03
216.532	53.67
216.75	68.95
216.968	59.89
217.185	49.21
217.403	71
217.621	56.03
217.839	69.6
218.057	62.78
218.275	52.74
218.492	33.9
218.71	42.09
218.928	56.92
219.146	38.88
219.363	33.83
219.581	45.07
219.799	12.2
220.017	44.07
220.234	54.71
220.452	35.95
220.67	56.99
220.887	52.82
221.105	48.67
221.323	27.87
221.54	22.04
221.758	18.28
221.976	11.98
222.193	10.17
222.411	10.6
222.629	3
222.846	-6.74
223.064	-13.82
223.281	5.4
223.499	-6.96
223.716	14.77
223.934	24.64
224.151	36.19
224.369	26.59
224.586	18.56
224.804	19.66
225.021	27.02
225.239	40.75
225.456	37.41
225.674	30.56
225.891	36.09
226.108	37.1
226.326	29.6
226.543	26.97
226.76	27.29
226.978	28.58
227.195	23.58
227.413	19.59
227.63	20.69
227.847	21.12
228.064	20.76
228.282	18.74
228.499	15.6
228.716	17.36
228.934	14.76
229.151	15.77
229.368	17.07
229.585	17.97
229.802	18.57
230.02	15.61
230.237	15.92
230.454	17.33
230.671	16.07
230.888	17.12
231.105	16.2
231.323	17.65
231.54	15.38
231.757	14.76
231.974	14.16
232.191	12.5
232.408	17.45
232.625	18.7
232.842	18.82
233.059	18.07
233.276	24.73
233.493	29.07
233.71	31.35
233.927	32.35
234.144	33.38
234.361	33.68
234.578	32.84
234.795	29.82
235.012	26.55
235.229	26.15
235.446	25.56
235.663	17.36
235.879	11.67
236.096	8
236.313	11.83
236.53	7.31
236.747	5.81
236.964	5.96
237.181	8.16
237.397	7.53
237.614	0.82
237.831	0.59
238.048	5.67
238.264	8.36
238.481	4.98
238.698	7.88
238.915	10.92
239.131	6.49
239.348	4.66
239.565	3.7
239.781	7.93
239.998	11.45
240.215	9.22
240.431	5.77
240.648	7.25
240.865	8.17
241.081	4.02
241.298	3.7
241.514	8.79
241.731	8.01
241.947	8.53
242.164	8.87
242.38	9.64
242.597	11.27
242.814	10.94
243.03	11.92
243.246	11.87
243.463	12.66
243.679	13.85
243.896	12.38
244.112	15.21
244.329	15.51
244.545	14.25
244.762	15.01
244.978	13.43
245.194	13.56
245.411	11.73
245.627	12.2
245.843	9.49
246.06	9.56
246.276	7.81
246.492	8.18
246.709	7.4
246.925	8.16
247.141	7.81
247.357	7.99
247.574	7.75
247.79	7.29
248.006	8.2
248.222	8.34
248.439	7.81
248.655	9.73
248.871	9.64
249.087	10.57
249.303	10.69
249.519	10.59
249.736	11.16
249.952	13.17
250.168	14.78
250.384	14.97
250.6	16.51
250.816	18.46
251.032	17.65
251.248	16.93
251.464	16.11
251.68	15.55
251.896	15.84
252.112	14.71
252.328	13.25
252.544	13.67
252.76	13.48
252.976	13.73
253.192	13.27
253.408	13.31
253.624	12.76
253.84	13.2
254.056	13
254.272	10.86
254.487	12.79
254.703	14.16
254.919	13.18
255.135	12.49
255.351	12.71
255.567	10.03
255.782	7.2
255.998	8.62
256.214	6.94
256.43	8.06
256.646	9.77
256.861	11.14
257.077	12.53
257.293	13.16
257.508	13.46
257.724	14.99
257.94	16.83
258.155	16.36
258.371	15.85
258.587	15.97
258.802	14.43
259.018	13.29
259.234	11.77
259.449	10.7
259.665	10
259.88	9.29
260.096	8.36
260.312	9.06
260.527	9.11
260.743	8.31
260.958	7.86
261.174	7.56
261.389	8.01
261.605	8.11
261.82	7.98
262.036	8.56
262.251	8.04
262.466	8.57
262.682	6
262.897	5.9
263.113	7.93
263.328	10.75
263.543	12.37
263.759	12.46
263.974	13.74
264.189	15.36
264.405	16.42
264.62	18.93
264.835	18.91
265.051	19.25
265.266	19.6
265.481	18.33
265.696	16.72
265.912	15.99
266.127	15.34
266.342	14.46
266.557	12.98
266.773	10.96
266.988	10.49
267.203	10.36
267.418	10.13
267.633	9.86
267.848	9.02
268.064	7.73
268.279	7.57
268.494	7.71
268.709	8.48
268.924	8.95
269.139	9.1
269.354	8.67
269.569	8.01
269.784	8.8
269.999	7.63
270.214	8.96
270.429	9.41
270.644	8.79
270.859	7.92
271.074	6.15
271.289	4.91
271.504	4.95
271.719	4.28
271.934	5.26
272.149	5.04
272.363	5.26
272.578	4.24
272.793	3.99
273.008	5.15
273.223	5.72
273.438	6.32
273.653	8.43
273.867	9.13
274.082	9.98
274.297	8.45
274.512	7.94
274.726	8.92
274.941	9.35
275.156	10.05
275.371	9.22
275.585	10.39
275.8	9.77
276.015	7.92
276.229	6.18
276.444	6.4
276.659	7.68
276.873	9.25
277.088	10.46
277.302	10.74
277.517	10.18
277.732	9.52
277.946	8.58
278.161	8.98
278.375	8.62
278.59	10.99
278.804	9.94
279.019	8.62
279.233	7.9
279.448	5.98
279.662	5.93
279.877	5.37
280.091	6.39
280.306	6.66
280.52	7.06
280.735	7.86
280.949	6.56
281.163	6.96
281.378	6.42
281.592	6.4
281.806	7.47
282.021	6.91
282.235	7.37
282.449	7.97
282.664	7.48
282.878	7.58
283.092	8.34
283.307	8.27
283.521	8.94
283.735	9.89
283.949	9.78
284.164	7.65
284.378	8.01
284.592	7.37
284.806	7
285.02	7.29
285.234	7.3
285.449	6.52
285.663	7.07
285.877	7.01
286.091	7.35
286.305	6.87
286.519	7.77
286.733	7.77
286.947	8.54
287.161	8.49
287.375	8.45
287.589	8.43
287.803	8.61
288.017	7.97
288.231	7.79
288.445	7.25
288.659	8.08
288.873	8.46
289.087	8.98
289.301	8.4
289.515	8.48
289.729	9.2
289.943	9.42
290.157	9.36
290.371	10.76
290.584	10.68
290.798	11.23
291.012	11.33
291.226	10.99
291.44	10.36
291.654	10.84
291.867	9.89
292.081	9.71
292.295	10
292.509	11.12
292.722	10.5
292.936	9.79
293.15	9.45
293.364	9.23
293.577	9.58
293.791	10.53
294.005	9.3
294.218	10.21
294.432	10.02
294.645	10.3
294.859	9.16
295.073	8.13
295.286	9.76
295.5	9.61
295.713	8.98
295.927	9.73
296.14	9.6
296.354	10.68
296.568	10.93
296.781	10.99
296.994	10.93
297.208	10.88
297.421	11.49
297.635	10.75
297.848	10.9
298.062	11.72
298.275	11.54
298.489	11.35
298.702	11.44
298.915	10.73
299.129	10.6
299.342	9.97
299.555	9.78
299.769	10.53
299.982	11.2
300.195	11.68
300.409	11.44
300.622	11.97
300.835	11.97
301.048	12.33
301.262	13.41
301.475	13.47
301.688	13.71
301.901	14.16
302.115	12.64
302.328	11.71
302.541	10.83
302.754	10.55
302.967	10.19
303.18	9.7
303.393	9.83
303.607	9.08
303.82	9.44
304.033	9.13
304.246	9.6
304.459	11.05
304.672	12.09
304.885	13.55
305.098	14.36
305.311	13.55
305.524	14.34
305.737	13.88
305.95	13.52
306.163	13.28
306.376	13.13
306.589	12.51
306.802	11.44
307.015	10.27
307.228	10.06
307.44	9.39
307.653	11.39
307.866	11.85
308.079	11.77
308.292	12.21
308.505	12.35
308.718	13.2
308.93	13.69
309.143	12.95
309.356	12.92
309.569	11.75
309.781	12.62
309.994	11.64
310.207	11.17
310.42	11.54
310.632	11.39
310.845	11.64
311.058	11.76
311.27	12.22
311.483	13.7
311.696	13.87
311.908	14.46
312.121	12.86
312.333	13.03
312.546	13.27
312.759	12.8
312.971	13.19
313.184	12.88
313.396	12.62
313.609	11.89
313.821	9.9
314.034	10.88
314.246	11.35
314.459	12.43
314.671	11.65
314.884	11.65
315.096	12.4
315.309	11.93
315.521	11.44
315.733	11.28
315.946	12.11
316.158	12.68
316.371	11.95
316.583	12.36
316.795	12.59
317.008	13.69
317.22	13
317.432	12.78
317.644	14.48
317.857	15.28
318.069	14.04
318.281	13.31
318.494	14.21
318.706	14.6
318.918	13.38
319.13	13.08
319.342	13.01
319.555	12.87
319.767	13.86
319.979	13.58
320.191	13.17
320.403	14.86
320.615	14.36
320.827	13.58
321.039	11.72
321.252	12.41
321.464	11.99
321.676	10.26
321.888	11.18
322.1	10.27
322.312	9.32
322.524	9.23
322.736	9.92
322.948	11.39
323.16	12.2
323.372	13.87
323.584	14.53
323.796	15.1
324.007	16.46
324.219	16.11
324.431	16.67
324.643	17.21
324.855	16.86
325.067	16.13
325.279	15.96
325.491	15.83
325.702	15.95
325.914	15.53
326.126	15.43
326.338	14.03
326.55	14.38
326.761	13.31
326.973	13.45
327.185	14.11
327.396	14.27
327.608	13.86
327.82	14.85
328.032	14.18
328.243	13.47
328.455	13.86
328.666	15.88
328.878	17.19
329.09	17.76
329.301	18.5
329.513	18.6
329.725	18.47
329.936	19.07
330.148	19.03
330.359	20.16
330.571	21.61
330.782	22.63
330.994	23.49
331.205	23.78
331.417	24.45
331.628	24
331.84	24.31
332.051	25.22
332.262	24.73
332.474	24.46
332.685	24.28
332.897	23.89
333.108	22.54
333.319	22.44
333.531	22.17
333.742	23.04
333.953	22.88
334.165	23.04
334.376	21.99
334.587	23.22
334.799	23.83
335.01	24.85
335.221	25.88
335.432	27.14
335.644	26.37
335.855	26.16
336.066	25.64
336.277	26.56
336.488	26.39
336.7	26.8
336.911	26.62
337.122	26.42
337.333	26.02
337.544	25.8
337.755	25.64
337.966	25.88
338.177	25.49
338.388	25.21
338.599	25.41
338.811	26.43
339.022	26.53
339.233	25.79
339.444	24.98
339.655	25.12
339.866	24.75
340.076	24.63
340.287	24.55
340.498	25.16
340.709	24.62
340.92	24.25
341.131	24.25
341.342	24.73
341.553	25.66
341.764	25.69
341.975	25.92
342.185	25.73
342.396	26.2
342.607	27.27
342.818	27.25
343.029	28.12
343.239	27.99
343.45	27.22
343.661	27.7
343.872	26.79
344.082	27.54
344.293	27.17
344.504	27.45
344.714	27.05
344.925	25.85
345.136	26.17
345.346	26.68
345.557	26.31
345.768	26.55
345.978	26.08
346.189	26.09
346.399	25.78
346.61	26.21
346.821	25.49
347.031	24.56
347.242	24.66
347.452	24.04
347.663	23.81
347.873	23.77
348.084	24.11
348.294	23.97
348.504	23.83
348.715	23.94
348.925	23.27
349.136	24
349.346	25.52
349.557	25.82
349.767	26.37
349.977	26.21
350.188	26.48
350.398	25.95
350.608	26.2
350.819	26.76
351.029	26.63
351.239	26.48
351.449	26.21
351.66	25.65
351.87	25.92
352.08	26.16
352.29	25.79
352.501	26.01
352.711	25.97
352.921	25.81
353.131	26.02
353.341	26.2
353.552	26.64
353.762	26.5
353.972	26.98
354.182	27.54
354.392	26.52
354.602	26.81
354.812	26.86
355.022	26.64
355.232	26.74
355.442	26.4
355.652	26.61
355.862	26.28
356.072	26.71
356.282	26.44
356.492	25.56
356.702	25.81
356.912	25.57
357.122	25.7
357.332	25.65
357.542	25.07
357.752	25.16
357.962	24.98
358.171	25
358.381	24.6
358.591	24.4
358.801	24.81
359.011	25.13
359.221	24.79
359.43	24.56
359.64	25.1
359.85	25.44
360.06	25.47
360.269	25.76
360.479	25.64
360.689	25.28
360.899	25.08
361.108	24.91
361.318	24.1
361.528	24.59
361.737	24.69
361.947	24.21
362.156	24.09
362.366	24.01
362.576	23.45
362.785	23.7
362.995	24.1
363.204	24.34
363.414	23.89
363.623	24.58
363.833	24.07
364.042	23.91
364.252	24
364.461	24.17
364.671	24.31
364.88	24.44
365.09	23.69
365.299	23.42
365.509	22.76
365.718	22.85
365.927	23.07
366.137	22.92
366.346	22.75
366.555	22.56
366.765	22.27
366.974	22.13
367.183	21.83
367.393	22.29
367.602	23.18
367.811	23.56
368.021	23.57
368.23	23.17
368.439	23.24
368.648	22.95
368.857	23.22
369.067	22.88
369.276	23.02
369.485	23.32
369.694	23.42
369.903	22.32
370.112	22.75
370.321	22.69
370.531	22.4
370.74	22.47
370.949	22.76
371.158	22.64
371.367	23.08
371.576	22.7
371.785	22.84
371.994	22.63
372.203	22.98
372.412	22.52
372.621	22.5
372.83	22.61
373.039	22.69
373.248	22.54
373.457	22.24
373.666	22.01
373.874	21.29
374.083	20.92
374.292	20.92
374.501	20.77
374.71	20.3
374.919	19.85
375.128	20.04
375.336	19.81
375.545	20.22
375.754	20.7
375.963	20.54
376.171	21.26
376.38	21.17
376.589	20.66
376.798	20.38
377.006	20.58
377.215	21.08
377.424	20.77
377.632	20.6
377.841	20.01
378.05	19.85
378.258	20.1
378.467	19.82
378.675	19.87
378.884	19.95
379.093	20.01
379.301	20.38
379.51	20.04
379.718	20.19
379.927	20.62
380.135	20.81
380.344	20.74
380.552	20.25
380.761	20.25
380.969	20.37
381.177	20.55
381.386	20.22
381.594	20.01
381.803	19.68
382.011	19.82
382.219	19.42
382.428	19.13
382.636	18.85
382.845	19.19
383.053	18.97
383.261	18.55
383.469	18.17
383.678	18.28
383.886	18.11
384.094	17.88
384.302	17.33
384.511	17.24
384.719	17.02
384.927	16.95
385.135	16.83
385.343	16.91
385.552	17.06
385.76	17.42
385.968	17.6
386.176	17.44
386.384	18.02
386.592	17.76
386.8	17.67
387.008	17.83
387.216	18.13
387.424	18.26
387.633	18.1
387.841	17.86
388.049	17.71
388.257	17.68
388.465	17.62
388.672	17.65
388.88	17.7
389.088	17.5
389.296	17.32
389.504	16.96
389.712	16.53
389.92	16.39
390.128	16.37
390.336	16.18
390.544	15.99
390.751	16.14
390.959	16.11
391.167	16.18
391.375	16.37
391.583	16
391.79	16
391.998	16.15
392.206	16.4
392.414	16.25
392.621	16.07
392.829	15.75
393.037	15.61
393.244	15.42
393.452	15.43
393.66	15.71
393.867	16.26
394.075	16.35
394.283	15.94
394.49	15.9
394.698	15.93
394.905	16.2
395.113	16.4
395.32	16.59
395.528	16.4
395.735	16.32
395.943	15.97
396.15	15.81
396.358	15.38
396.565	15.81
396.773	15.81
396.98	15.77
397.188	15.55
397.395	15.55
397.602	15.31
397.81	15.32
398.017	15.14
398.225	15.13
398.432	15.19
398.639	15.26
398.847	15.25
399.054	15.16
399.261	15.16
399.468	15.44
399.676	15.59
399.883	15.52
400.09	15.67
400.297	15.89
400.505	15.59
400.712	15.42
400.919	15.26
401.126	15.15
401.333	14.99
401.54	15.25
401.748	14.96
401.955	14.87
402.162	14.98
402.369	14.77
402.576	14.42
402.783	14.72
402.99	14.5
403.197	14.56
403.404	14.37
403.611	14.33
403.818	13.96
404.025	13.91
404.232	13.88
404.439	13.71
404.646	13.51
404.853	14.04
405.06	13.95
405.267	14.14
405.474	14.06
405.681	13.96
405.887	13.84
406.094	14.04
406.301	14.05
406.508	13.94
406.715	13.85
406.922	13.91
407.128	13.68
407.335	13.75
407.542	13.96
407.749	14.27
407.955	14.27
408.162	14.27
408.369	14.28
408.575	14.43
408.782	14.34
408.989	14.51
409.195	14.4
409.402	14.3
409.609	14.32
409.815	13.77
410.022	13.66
410.228	13.88
410.435	14.09
410.642	14
410.848	14.06
411.055	14.03
411.261	13.72
411.468	13.79
411.674	13.79
411.881	13.65
412.087	13.86
412.294	14.02
412.5	13.9
412.706	13.77
412.913	13.69
413.119	13.42
413.326	13.57
413.532	13.62
413.738	13.72
413.945	13.89
414.151	13.64
414.357	13.55
414.564	13.41
414.77	13.75
414.976	13.76
415.182	13.75
415.389	13.93
415.595	13.77
415.801	13.78
416.007	13.77
416.214	13.51
416.42	13.54
416.626	13.68
416.832	13.55
417.038	13.36
417.244	13.34
417.45	13.39
417.657	13.23
417.863	13.27
418.069	13.61
418.275	13.66
418.481	13.76
418.687	13.71
418.893	13.49
419.099	13.52
419.305	13.45
419.511	13.39
419.717	13.31
419.923	13.16
420.129	13.25
420.335	13.03
420.541	12.92
420.746	12.73
420.952	12.87
421.158	12.92
421.364	12.95
421.57	12.85
421.776	12.9
421.982	12.93
422.187	12.92
422.393	12.73
422.599	12.61
422.805	12.6
423.01	12.73
423.216	12.67
423.422	12.72
423.628	12.69
423.833	12.71
424.039	12.65
424.245	12.55
424.45	12.72
424.656	12.73
424.862	12.81
425.067	12.82
425.273	12.65
425.478	12.64
425.684	12.57
425.889	12.5
426.095	12.45
426.301	12.52
426.506	12.61
426.712	12.39
426.917	12.29
427.123	12.32
427.328	12.37
427.533	12.56
427.739	12.53
427.944	12.64
428.15	12.66
428.355	12.79
428.561	12.8
428.766	12.7
428.971	12.66
429.177	13
429.382	12.96
429.587	12.7
429.793	12.59
429.998	12.69
430.203	12.37
430.408	12.34
430.614	12.14
430.819	12.15
431.024	12.16
431.229	12.29
431.434	12.05
431.64	11.87
431.845	11.91
432.05	11.89
432.255	11.73
432.46	11.96
432.665	11.87
432.87	12.02
433.076	11.82
433.281	11.69
433.486	11.66
433.691	11.74
433.896	11.72
434.101	11.72
434.306	11.71
434.511	11.74
434.716	11.46
434.921	11.42
435.126	11.39
435.331	11.51
435.535	11.55
435.74	11.55
435.945	11.56
436.15	11.7
436.355	11.75
436.56	11.87
436.765	11.94
436.97	12.03
437.174	12.19
437.379	12.32
437.584	12.27
437.789	12.25
437.993	12.35
438.198	12.31
438.403	12.24
438.608	12.3
438.812	12.15
439.017	12.16
439.222	12.23
439.426	12.25
439.631	12.18
439.836	12.25
440.04	12.37
440.245	12.37
440.45	12.36
440.654	12.3
440.859	12.22
441.063	12.23
441.268	12.14
441.472	12.13
441.677	12.05
441.881	12
442.086	11.89
442.29	11.91
442.495	11.78
442.699	11.72
442.904	11.77
443.108	11.71
443.312	11.74
443.517	11.86
443.721	11.9
443.925	11.86
444.13	11.73
444.334	11.75
444.538	11.64
444.743	11.72
444.947	11.81
445.151	11.84
445.356	11.81
445.56	11.84
445.764	11.67
445.968	11.66
446.173	11.73
446.377	11.73
446.581	11.68
446.785	11.61
446.989	11.59
447.193	11.57
447.398	11.58
447.602	11.59
447.806	11.47
448.01	11.53
448.214	11.51
448.418	11.36
448.622	11.25
448.826	11.19
449.03	11.25
449.234	11.28
449.438	11.19
449.642	10.97
449.846	11.04
450.05	11.1
450.254	11.19
450.458	10.93
450.662	11.25
450.866	11.4
451.069	11.42
451.273	11.49
451.477	11.33
451.681	11.28
451.885	11.5
452.089	11.45
452.292	11.58
452.496	11.43
452.7	11.71
452.904	11.45
453.107	11.39
453.311	11.49
453.515	11.3
453.719	11.38
453.922	11.57
454.126	11.47
454.33	11.55
454.533	11.39
454.737	11.49
454.94	11.49
455.144	11.59
455.348	11.68
455.551	11.57
455.755	11.8
455.958	11.75
456.162	11.72
456.365	11.63
456.569	11.66
456.772	11.64
456.976	11.5
457.179	11.37
457.383	11.32
457.586	11.2
457.79	11.26
457.993	11.2
458.196	11.23
458.4	11.12
458.603	11.23
458.807	11.24
459.01	11.36
459.213	11.45
459.417	11.48
459.62	11.51
