Data from LC_209__Reflection_1.txt Node
Date: Thu Nov 19 12:09:11 EST 2015
User: robert
Spectrometer: USB4E03001
Autoset integration time: false
Trigger mode: 4
Integration Time (sec): 1.000000E-1
Scans to average: 15
Electric dark correction enabled: true
Nonlinearity correction enabled: false
Boxcar width: 5
Stray light correction enabled: false
XAxis mode: Wavelengths
Stop averaging: false
Number of Pixels in Spectrum: 3648
>>>>>Begin Spectral Data<<<<<
177.566	-309.03
177.785	378.54
178.005	-78.54
178.225	54.39
178.445	15.47
178.665	-42.07
178.885	-233.27
179.105	-108.24
179.324	24.68
179.544	284.62
179.764	113.77
179.984	-78.7
180.204	-68.2
180.423	-63.58
180.643	20.29
180.863	3.97
181.083	4.62
181.302	-20.95
181.522	31.68
181.742	38.26
181.961	19.78
182.181	8.84
182.401	23.21
182.621	32
182.84	64.81
183.06	51.56
183.279	105.48
183.499	68.89
183.719	74.48
183.938	84.08
184.158	189.76
184.377	206.75
184.597	502.14
184.816	-452.96
185.036	-243.03
185.256	-157.82
185.475	-72.53
185.695	-41.48
185.914	-13.66
186.134	-22.77
186.353	-3.53
186.572	-144.9
186.792	-123.73
187.011	462.36
187.231	357.58
187.45	215.72
187.67	117.58
187.889	96.89
188.108	-461.98
188.328	-69.65
188.547	-54.85
188.766	336.11
188.986	164.98
189.205	137.11
189.424	80.97
189.644	127.14
189.863	213.87
190.082	159.04
190.302	48.25
190.521	-9.25
190.74	-23.98
190.959	-298.49
191.178	-217.68
191.398	-103.12
191.617	-608.55
191.836	-491.32
192.055	-114.42
192.274	-82.5
192.494	5.16
192.713	-15.85
192.932	-40.66
193.151	-53.32
193.37	-8.89
193.589	-64.94
193.808	318.24
194.027	46.31
194.246	154.52
194.465	-53.27
194.685	504.95
194.904	5.81
195.123	-558.79
195.342	-184.92
195.561	-207.55
195.78	-1144.97
195.999	-479.53
196.218	638.03
196.436	-2284.62
196.655	585.64
196.874	101.77
197.093	181.57
197.312	195.56
197.531	404.38
197.75	1059.23
197.969	241.58
198.188	-3326.92
198.407	-125.42
198.625	26.9
198.844	-27.84
199.063	36.09
199.282	22.15
199.501	20.28
199.719	44.91
199.938	31.45
200.157	-14.39
200.376	0.96
200.594	-23.29
200.813	-51.03
201.032	-67.97
201.251	101.55
201.469	8.74
201.688	97.57
201.907	100.1
202.125	72.42
202.344	103.86
202.563	98.85
202.781	94.13
203	121.19
203.218	120.77
203.437	93.88
203.656	-54.27
203.874	156.79
204.093	92.48
204.311	-44.95
204.53	-14.4
204.748	15.51
204.967	6.37
205.185	12.49
205.404	6.03
205.622	28.17
205.841	-14.26
206.059	-96.09
206.278	-1279.29
206.496	52.14
206.715	1273.46
206.933	-63.38
207.151	7.87
207.37	-12.22
207.588	-21.17
207.806	-39.33
208.025	10.51
208.243	-78.54
208.461	-442.12
208.68	-662.94
208.898	-40.18
209.116	-2182.69
209.335	168.61
209.553	-119.84
209.771	-115.81
209.989	-363.02
210.208	-235.43
210.426	-343.51
210.644	375.94
210.862	272.19
211.081	652.53
211.299	316.89
211.517	242.59
211.735	5391.35
211.953	130.01
212.171	73.09
212.39	73.25
212.608	45.65
212.826	15.84
213.044	76.54
213.262	42.51
213.48	44.23
213.698	48.32
213.916	45.38
214.134	44.53
214.352	79.49
214.57	73.26
214.788	20.49
215.006	1223.08
215.224	106.95
215.442	103.74
215.66	31.74
215.878	78.42
216.096	42.64
216.314	40.02
216.532	69.58
216.75	50.17
216.968	83.92
217.185	76.68
217.403	38.72
217.621	-0.52
217.839	42.89
218.057	76.21
218.275	68.77
218.492	99.11
218.71	80.7
218.928	76.73
219.146	74.24
219.363	44.42
219.581	58.48
219.799	71.24
220.017	101.69
220.234	115.95
220.452	130
220.67	184.04
220.887	127.47
221.105	112.23
221.323	68.75
221.54	72.86
221.758	100.41
221.976	68.74
222.193	75.38
222.411	70.64
222.629	54.19
222.846	58.42
223.064	56.39
223.281	53.78
223.499	66.38
223.716	92.25
223.934	87.79
224.151	65.14
224.369	65.09
224.586	74.58
224.804	53.85
225.021	86.41
225.239	68.71
225.456	52.42
225.674	6.54
225.891	17.22
226.108	14.49
226.326	36.31
226.543	29.01
226.76	7.67
226.978	-20.83
227.195	-4.58
227.413	-8.62
227.63	-8.14
227.847	-0.88
228.064	6.63
228.282	7.46
228.499	8.11
228.716	7.38
228.934	10.01
229.151	14.37
229.368	13.17
229.585	16.04
229.802	13.34
230.02	15.12
230.237	16.52
230.454	17.51
230.671	15.41
230.888	13.79
231.105	16.77
231.323	17.83
231.54	18.89
231.757	23.58
231.974	20.14
232.191	24.4
232.408	26.57
232.625	30.06
232.842	29.85
233.059	29.91
233.276	36.83
233.493	35.77
233.71	37.58
233.927	31.47
234.144	28.66
234.361	30.17
234.578	26.41
234.795	25.19
235.012	22.29
235.229	12.88
235.446	14.99
235.663	4.96
235.879	8.54
236.096	9.47
236.313	10.55
236.53	7.15
236.747	9.06
236.964	15.86
237.181	17.73
237.397	10.22
237.614	15.72
237.831	13.51
238.048	24.37
238.264	17.38
238.481	15.94
238.698	17.99
238.915	25.23
239.131	15.71
239.348	10.94
239.565	12.75
239.781	16.13
239.998	22.83
240.215	25.81
240.431	22.23
240.648	22.74
240.865	23.67
241.081	22.38
241.298	19.45
241.514	21.37
241.731	21.6
241.947	21.47
242.164	19.4
242.38	17.93
242.597	14.4
242.814	14.83
243.03	13.37
243.246	11.51
243.463	11.94
243.679	12.56
243.896	11.63
244.112	11.95
244.329	9.81
244.545	11.95
244.762	10.67
244.978	13.32
245.194	13.38
245.411	12.52
245.627	14.18
245.843	14.63
246.06	12.95
246.276	13.43
246.492	13.32
246.709	12.87
246.925	13.24
247.141	13.05
247.357	12.91
247.574	12.69
247.79	13.89
248.006	12.93
248.222	12.85
248.439	13.36
248.655	12.98
248.871	12.49
249.087	12.7
249.303	12.05
249.519	12.25
249.736	11.99
249.952	11.19
250.168	9.68
250.384	10.07
250.6	10.07
250.816	11.59
251.032	11.67
251.248	11.27
251.464	13.2
251.68	15.49
251.896	14.68
252.112	15.55
252.328	16.12
252.544	17.64
252.76	18.06
252.976	18.17
253.192	16.65
253.408	17.67
253.624	19.13
253.84	17.46
254.056	16.64
254.272	18.1
254.487	15.46
254.703	15.6
254.919	14.92
255.135	16
255.351	11.66
255.567	10.92
255.782	9.36
255.998	6.62
256.214	6.27
256.43	6.92
256.646	8.82
256.861	8.8
257.077	7.66
257.293	5.1
257.508	5.36
257.724	10.17
257.94	11.1
258.155	10.94
258.371	11.8
258.587	11.4
258.802	10.79
259.018	9.9
259.234	11.16
259.449	11.61
259.665	12.24
259.88	12.76
260.096	11.92
260.312	12.11
260.527	11.86
260.743	12.23
260.958	12.33
261.174	11.89
261.389	11.59
261.605	12.21
261.82	11.91
262.036	11.41
262.251	10.56
262.466	11.06
262.682	10.84
262.897	12.57
263.113	11.82
263.328	12.29
263.543	12.04
263.759	13.72
263.974	12.28
264.189	12.55
264.405	12.38
264.62	12.87
264.835	10.84
265.051	9.52
265.266	8.62
265.481	9.21
265.696	8.49
265.912	10.34
266.127	10.26
266.342	12.04
266.557	12.64
266.773	13.35
266.988	12.01
267.203	12.91
267.418	12.58
267.633	13.16
267.848	12.96
268.064	13.64
268.279	12.57
268.494	11.62
268.709	11.57
268.924	11.63
269.139	11.33
269.354	11.43
269.569	11.04
269.784	10.31
269.999	8.49
270.214	8.55
270.429	8.63
270.644	8.25
270.859	8.31
271.074	7
271.289	7.67
271.504	8.04
271.719	8.52
271.934	9.09
272.149	10.99
272.363	12.12
272.578	11.21
272.793	11.54
273.008	13.48
273.223	13.39
273.438	14.35
273.653	13.1
273.867	14.03
274.082	14.28
274.297	14.56
274.512	13.7
274.726	14.01
274.941	15.86
275.156	15.5
275.371	14.84
275.585	15.47
275.8	13.9
276.015	14.19
276.229	12.31
276.444	12.21
276.659	10.85
276.873	8.56
277.088	6.47
277.302	6.29
277.517	7.1
277.732	6.03
277.946	5.8
278.161	6.89
278.375	7.22
278.59	7.14
278.804	7.6
279.019	8.79
279.233	10.47
279.448	10.78
279.662	9.21
279.877	7.95
280.091	9.14
280.306	10.22
280.52	9.71
280.735	10.98
280.949	12.41
281.163	11.82
281.378	10.88
281.592	12.59
281.806	13.36
282.021	14.1
282.235	14.61
282.449	13.48
282.664	12.44
282.878	12.78
283.092	12.28
283.307	11.78
283.521	12.25
283.735	12.34
283.949	11.7
284.164	12.05
284.378	11.59
284.592	12.29
284.806	13.35
285.02	12.35
285.234	11.96
285.449	11.93
285.663	11.84
285.877	11.66
286.091	12.24
286.305	12.09
286.519	11.68
286.733	10.66
286.947	10.04
287.161	8.01
287.375	8.98
287.589	8.22
287.803	7.34
288.017	8.02
288.231	7.3
288.445	6.9
288.659	7.23
288.873	7.26
289.087	10.04
289.301	10.26
289.515	11.99
289.729	12.6
289.943	13.26
290.157	14.17
290.371	14.03
290.584	15.09
290.798	15.06
291.012	15.19
291.226	14.3
291.44	12.75
291.654	11.65
291.867	11.73
292.081	11.84
292.295	11.63
292.509	11.88
292.722	11.04
292.936	11.63
293.15	13.57
293.364	11.72
293.577	13.07
293.791	14.25
294.005	15.32
294.218	14.85
294.432	14.8
294.645	15.9
294.859	14.85
295.073	14.43
295.286	12.93
295.5	11.04
295.713	12.62
295.927	12.59
296.14	12.06
296.354	12.62
296.568	11.72
296.781	11.37
296.994	10.35
297.208	9.87
297.421	10.61
297.635	11.56
297.848	12.23
298.062	12.43
298.275	12.96
298.489	12.62
298.702	11.77
298.915	12.84
299.129	13.12
299.342	13.33
299.555	15.66
299.769	15.61
299.982	15.09
300.195	15.47
300.409	14.51
300.622	14.52
300.835	15.4
301.048	17.03
301.262	16.74
301.475	17.09
301.688	17.1
301.901	15.08
302.115	15.61
302.328	15.96
302.541	15.69
302.754	16.13
302.967	15.51
303.18	16.26
303.393	15.09
303.607	15.49
303.82	15.73
304.033	15.85
304.246	17.44
304.459	17.85
304.672	18.35
304.885	17.38
305.098	17.33
305.311	18.4
305.524	17.44
305.737	18.31
305.95	18.63
306.163	16.69
306.376	17.23
306.589	15.15
306.802	13.99
307.015	13.78
307.228	14.23
307.44	13.82
307.653	13.05
307.866	12.71
308.079	11.47
308.292	11.41
308.505	13.15
308.718	13.79
308.93	14.36
309.143	14.91
309.356	14.54
309.569	15.58
309.781	16.75
309.994	16.58
310.207	17.13
310.42	17.25
310.632	16.55
310.845	16.65
311.058	15.66
311.27	16.39
311.483	16.2
311.696	16.24
311.908	15.79
312.121	14.26
312.333	13.98
312.546	13.17
312.759	13.18
312.971	14.2
313.184	12.97
313.396	13.25
313.609	13.2
313.821	13.32
314.034	11.95
314.246	11.47
314.459	12.73
314.671	13.29
314.884	13.07
315.096	12.86
315.309	11.17
315.521	12.08
315.733	12.14
315.946	12.07
316.158	12.41
316.371	13.96
316.583	14.62
316.795	13.83
317.008	13.31
317.22	12.88
317.432	12.4
317.644	13.2
317.857	13.42
318.069	14.03
318.281	13.31
318.494	12.4
318.706	11.94
318.918	11.23
319.13	11.13
319.342	11.93
319.555	13.54
319.767	13.52
319.979	13.39
320.191	13.82
320.403	14.45
320.615	13.3
320.827	13.23
321.039	12.69
321.252	12.47
321.464	12.3
321.676	11.89
321.888	10.57
322.1	10.57
322.312	10.52
322.524	9.84
322.736	8.75
322.948	9.93
323.16	9.66
323.372	11.08
323.584	10.77
323.796	10.39
324.007	10.22
324.219	10.91
324.431	11.87
324.643	12.55
324.855	12.14
325.067	11.34
325.279	11.09
325.491	11.5
325.702	10.53
325.914	10.29
326.126	11.28
326.338	10.2
326.55	10.01
326.761	10.56
326.973	9.94
327.185	10.37
327.396	11.57
327.608	10.65
327.82	11.34
328.032	11.26
328.243	12.64
328.455	11.19
328.666	13.61
328.878	14.26
329.09	12.54
329.301	12.08
329.513	12.12
329.725	11.89
329.936	12.27
330.148	12.68
330.359	13.8
330.571	14.3
330.782	16.61
330.994	15.21
331.205	14.74
331.417	14.35
331.628	14.05
331.84	13.8
332.051	14.77
332.262	15.1
332.474	14.38
332.685	14.79
332.897	13.14
333.108	12.29
333.319	12.6
333.531	11.88
333.742	12.69
333.953	13.79
334.165	13.97
334.376	13.04
334.587	14.36
334.799	13.44
335.01	12.05
335.221	13.22
335.432	13.58
335.644	13.1
335.855	14.03
336.066	14.29
336.277	13.86
336.488	13.91
336.7	13.52
336.911	12.89
337.122	13.12
337.333	13.14
337.544	12.14
337.755	12.32
337.966	12.68
338.177	12.23
338.388	12.52
338.599	13.45
338.811	13.61
339.022	13.6
339.233	13.19
339.444	13.39
339.655	12.95
339.866	13.24
340.076	13.01
340.287	13.45
340.498	13.14
340.709	13.63
340.92	13.27
341.131	12.37
341.342	12.22
341.553	11.6
341.764	11.73
341.975	12.75
342.185	12.34
342.396	11.37
342.607	10.79
342.818	11.1
343.029	9.78
343.239	9.53
343.45	10.26
343.661	10.45
343.872	10.08
344.082	9.15
344.293	9.54
344.504	10.37
344.714	11.65
344.925	11.66
345.136	12.01
345.346	12.44
345.557	12.5
345.768	11.83
345.978	11.77
346.189	12.45
346.399	13.03
346.61	12.53
346.821	12.54
347.031	11.47
347.242	10.93
347.452	11.14
347.663	10.99
347.873	11.48
348.084	12.68
348.294	12.88
348.504	12.97
348.715	13.52
348.925	13.31
349.136	12.69
349.346	13.24
349.557	13.5
349.767	13.01
349.977	13.13
350.188	12.02
350.398	10.85
350.608	10.53
350.819	10.21
351.029	9.04
351.239	8.15
351.449	8.8
351.66	8.86
351.87	8.94
352.08	8.67
352.29	8.88
352.501	9.21
352.711	9.45
352.921	8.92
353.131	9.77
353.341	11.02
353.552	12
353.762	11.75
353.972	11.61
354.182	12.61
354.392	12.5
354.602	12.14
354.812	12.16
355.022	11.71
355.232	12.91
355.442	12.62
355.652	11.86
355.862	11.13
356.072	10.5
356.282	10.28
356.492	8.48
356.702	9.23
356.912	9.44
357.122	8.98
357.332	9.63
357.542	8.92
357.752	8.99
357.962	9
358.171	10.07
358.381	9.82
358.591	9.82
358.801	10.64
359.011	9.89
359.221	9.35
359.43	9.91
359.64	10.18
359.85	10.85
360.06	10.5
360.269	10.57
360.479	10.46
360.689	10.94
360.899	10.3
361.108	11.01
361.318	11.21
361.528	11.14
361.737	11.53
361.947	11.48
362.156	10.7
362.366	10.35
362.576	10.66
362.785	9.54
362.995	9.71
363.204	10.32
363.414	9.51
363.623	9.88
363.833	10.13
364.042	9.43
364.252	9.31
364.461	10.21
364.671	11.02
364.88	10.35
365.09	10.9
365.299	10.4
365.509	9.94
365.718	9.64
365.927	9.83
366.137	9.57
366.346	8.8
366.555	7.91
366.765	6.93
366.974	6.32
367.183	7.05
367.393	7.06
367.602	6.52
367.811	6.39
368.021	6.48
368.23	5.32
368.439	5.25
368.648	6
368.857	6.96
369.067	7.58
369.276	8.06
369.485	7.12
369.694	7.5
369.903	8.37
370.112	8.9
370.321	9.16
370.531	9.9
370.74	10.29
370.949	10.51
371.158	9.97
371.367	9.73
371.576	9.26
371.785	9.22
371.994	8.56
372.203	8.01
372.412	7.88
372.621	7.7
372.83	7.33
373.039	7.16
373.248	6.93
373.457	6.84
373.666	6.23
373.874	5.93
374.083	5.91
374.292	6.98
374.501	6.72
374.71	6.9
374.919	6.73
375.128	6.62
375.336	6.66
375.545	7.07
375.754	7.35
375.963	7.86
376.171	7.95
376.38	8.31
376.589	7.84
376.798	8.15
377.006	8.15
377.215	8.38
377.424	8.35
377.632	8.23
377.841	7.97
378.05	7.92
378.258	7.7
378.467	7.69
378.675	7.75
378.884	7.71
379.093	8.1
379.301	7.78
379.51	7.51
379.718	7.72
379.927	7.72
380.135	7.85
380.344	7.85
380.552	7.78
380.761	7.71
380.969	7.59
381.177	7.32
381.386	7.63
381.594	7.93
381.803	8.18
382.011	8.42
382.219	8.6
382.428	8.27
382.636	8.05
382.845	7.86
383.053	8.02
383.261	8.07
383.469	8.03
383.678	7.3
383.886	6.98
384.094	6.58
384.302	6.07
384.511	5.82
384.719	5.61
384.927	5.25
385.135	5.49
385.343	5.86
385.552	5.61
385.76	5.71
385.968	6.09
386.176	6.4
386.384	6.55
386.592	6.43
386.8	6.18
387.008	6.38
387.216	6.76
387.424	7.39
387.633	7.26
387.841	7.32
388.049	7.42
388.257	7.14
388.465	7.11
388.672	7.38
388.88	7.47
389.088	7.63
389.296	7.54
389.504	7.74
389.712	6.99
389.92	6.9
390.128	6.72
390.336	6.51
390.544	6.76
390.751	6.54
390.959	6.24
391.167	6.54
391.375	6.74
391.583	6.88
391.79	6.82
391.998	6.99
392.206	7.02
392.414	7.18
392.621	7.23
392.829	7.14
393.037	7.53
393.244	7.55
393.452	7.31
393.66	7.08
393.867	7.01
394.075	6.98
394.283	6.84
394.49	6.61
394.698	6.85
394.905	6.48
395.113	6.19
395.32	5.72
395.528	5.78
395.735	5.8
395.943	6.19
396.15	5.96
396.358	5.78
396.565	5.97
396.773	6.17
396.98	6.1
397.188	6.64
397.395	6.77
397.602	6.53
397.81	6.58
398.017	6.61
398.225	6.52
398.432	6.96
398.639	6.69
398.847	6.62
399.054	6.31
399.261	6.22
399.468	5.88
399.676	5.96
399.883	6.08
400.09	6.13
400.297	6.08
400.505	5.69
400.712	5.54
400.919	5.62
401.126	5.63
401.333	6.17
401.54	6.15
401.748	6.26
401.955	6.15
402.162	6.33
402.369	6.36
402.576	6.44
402.783	6.7
402.99	6.29
403.197	6.49
403.404	6.37
403.611	6.02
403.818	5.88
404.025	5.67
404.232	5.73
404.439	5.74
404.646	5.79
404.853	5.77
405.06	5.65
405.267	6.04
405.474	6.01
405.681	5.94
405.887	6.05
406.094	6.05
406.301	6.22
406.508	6.13
406.715	6.08
406.922	5.88
407.128	5.59
407.335	5.61
407.542	5.56
407.749	5.66
407.955	5.91
408.162	5.8
408.369	5.81
408.575	5.83
408.782	5.89
408.989	5.92
409.195	5.8
409.402	6.02
409.609	6.28
409.815	6.33
410.022	6.23
410.228	6.23
410.435	5.99
410.642	6.11
410.848	6.02
411.055	5.85
411.261	5.82
411.468	6.15
411.674	6.34
411.881	6.19
412.087	6.23
412.294	6.31
412.5	6.25
412.706	6.32
412.913	6.06
413.119	6.2
413.326	6.44
413.532	6.58
413.738	6.3
413.945	6.01
414.151	5.72
414.357	5.54
414.564	5.48
414.77	5.44
414.976	5.54
415.182	5.91
415.389	5.97
415.595	5.8
415.801	5.61
416.007	5.62
416.214	5.58
416.42	5.74
416.626	5.61
416.832	5.55
417.038	5.62
417.244	5.81
417.45	5.63
417.657	5.61
417.863	5.74
418.069	5.81
418.275	6.01
418.481	6
418.687	6.28
418.893	6.27
419.099	6.28
419.305	6.43
419.511	6.16
419.717	6.15
419.923	6.19
420.129	6.05
420.335	5.97
420.541	5.82
420.746	5.98
420.952	5.87
421.158	5.9
421.364	5.88
421.57	5.69
421.776	5.83
421.982	5.88
422.187	5.72
422.393	5.8
422.599	5.73
422.805	5.74
423.01	5.56
423.216	5.43
423.422	5.5
423.628	5.55
423.833	5.67
424.039	5.66
424.245	5.63
424.45	5.68
424.656	5.77
424.862	5.84
425.067	5.82
425.273	5.89
425.478	5.89
425.684	5.95
425.889	5.95
426.095	5.91
426.301	5.93
426.506	5.99
426.712	6.13
426.917	5.92
427.123	6.07
427.328	6.14
427.533	6.32
427.739	6.42
427.944	6.33
428.15	6.2
428.355	6.27
428.561	6.17
428.766	6.11
428.971	6.02
429.177	6.1
429.382	5.89
429.587	5.74
429.793	5.64
429.998	5.44
430.203	5.32
430.408	5.35
430.614	5.11
430.819	5.3
431.024	5.31
431.229	5.34
431.434	5.51
431.64	5.37
431.845	5.64
432.05	5.68
432.255	5.74
432.46	5.89
432.665	5.98
432.87	6.25
433.076	6.25
433.281	6.23
433.486	6.48
433.691	6.46
433.896	6.67
434.101	6.47
434.306	6.48
434.511	6.38
434.716	6.24
434.921	6.24
435.126	6.09
435.331	6.11
435.535	5.98
435.74	5.73
435.945	5.82
436.15	5.95
436.355	6.02
436.56	5.82
436.765	5.96
436.97	6.19
437.174	6.29
437.379	6.23
437.584	6.18
437.789	6.31
437.993	6.44
438.198	6.32
438.403	6.28
438.608	6.39
438.812	6.43
439.017	6.55
439.222	6.46
439.426	6.22
439.631	6.12
439.836	6.09
440.04	6.04
440.245	5.93
440.45	5.95
440.654	5.92
440.859	5.81
441.063	5.95
441.268	5.81
441.472	5.7
441.677	5.77
441.881	5.94
442.086	5.91
442.29	5.98
442.495	6.04
442.699	6.04
442.904	5.94
443.108	5.95
443.312	5.85
443.517	5.93
443.721	6.07
443.925	6.18
444.13	6.29
444.334	6.18
444.538	6.03
444.743	6.03
444.947	6.04
445.151	5.97
445.356	5.9
445.56	5.96
445.764	5.96
445.968	5.97
446.173	6.05
446.377	5.89
446.581	6
446.785	6.06
446.989	6.04
447.193	5.97
447.398	6.08
447.602	6.14
447.806	6.09
448.01	6.09
448.214	6.1
448.418	5.96
448.622	5.87
448.826	5.79
449.03	5.79
449.234	5.71
449.438	5.65
449.642	5.61
449.846	5.66
450.05	5.69
450.254	5.68
450.458	5.55
450.662	5.5
450.866	5.58
451.069	5.73
451.273	5.68
451.477	5.53
451.681	5.55
451.885	5.5
452.089	5.54
452.292	5.53
452.496	5.67
452.7	5.67
452.904	5.59
453.107	5.76
453.311	5.71
453.515	5.81
453.719	6.02
453.922	6.11
454.126	6.11
454.33	6.01
454.533	5.98
454.737	5.94
454.94	6.11
455.144	6.27
455.348	6.28
455.551	6.28
455.755	6.09
455.958	6.02
456.162	5.98
456.365	6.08
456.569	6.21
456.772	6.14
456.976	5.81
457.179	5.72
457.383	5.79
457.586	5.57
457.79	5.54
457.993	5.7
458.196	5.68
458.4	5.74
458.603	5.74
458.807	5.67
459.01	5.72
459.213	5.82
459.417	5.75
459.62	5.64
459.823	5.8
460.026	5.88
460.23	5.85
460.433	5.91
460.636	5.94
460.839	5.85
461.042	5.85
461.246	5.84
461.449	5.84
461.652	5.85
461.855	5.79
462.058	5.73
462.261	5.72
462.464	5.72
462.668	5.71
462.871	5.65
