Data from 2937891_Reflection_1.txt Node
Date: Wed Jul 15 14:23:17 EDT 2015
User: robert
Spectrometer: USB4E03001
Autoset integration time: false
Trigger mode: 4
Integration Time (sec): 1.000000E-1
Scans to average: 10
Electric dark correction enabled: true
Nonlinearity correction enabled: false
Boxcar width: 5
Stray light correction enabled: false
XAxis mode: Wavelengths
Stop averaging: false
Number of Pixels in Spectrum: 3648
>>>>>Begin Spectral Data<<<<<
177.566	13704.44
177.785	-922.82
178.005	-132.82
178.225	-131.06
178.445	-311.56
178.665	-116.39
178.885	392.86
179.105	-1421.13
179.324	-542.49
179.544	-4412.5
179.764	950.77
179.984	-364.25
180.204	-172.27
180.423	-41.95
180.643	-35.93
180.863	-25.37
181.083	-47.48
181.302	-42.87
181.522	-17.02
181.742	-28.85
181.961	-26.25
182.181	-22.85
182.401	-25.77
182.621	-2.26
182.84	-22.21
183.06	-32.35
183.279	-16.71
183.499	-6.87
183.719	-6.73
183.938	1.5
184.158	1.53
184.377	-0.42
184.597	2.24
184.816	6
185.036	-4.44
185.256	2.65
185.475	1.25
185.695	-15.06
185.914	-0.38
186.134	0.53
186.353	-19.14
186.572	-8.83
186.792	-21.3
187.011	-35.13
187.231	-112.19
187.45	-124.25
187.67	-143.88
187.889	-48.6
188.108	-72.59
188.328	-55.15
188.547	-76.89
188.766	-59.25
188.986	-52.29
189.205	-28.74
189.424	4.51
189.644	32.72
189.863	13.22
190.082	16.21
190.302	24.52
190.521	39.45
190.74	20.17
190.959	20.9
191.178	11.57
191.398	-15.09
191.617	-59.41
191.836	-161.92
192.055	-159.89
192.274	-64.25
192.494	-69.25
192.713	-122.79
192.932	-180.05
193.151	-211.95
193.37	-115.66
193.589	-58.19
193.808	-35.43
194.027	-2.47
194.246	17.82
194.465	33.69
194.685	24.87
194.904	73.09
195.123	40.48
195.342	-16.5
195.561	1.19
195.78	-26.27
195.999	-33.36
196.218	-35.37
196.436	-33.66
196.655	-25.56
196.874	-76.95
197.093	-42.62
197.312	-35.87
197.531	-7.86
197.75	-1.89
197.969	-3.86
198.188	16.8
198.407	10.73
198.625	4.4
198.844	22.92
199.063	22.27
199.282	29.58
199.501	23.9
199.719	1.06
199.938	-50.95
200.157	-102.97
200.376	-93.23
200.594	-220.67
200.813	-84.32
201.032	-118.36
201.251	-119.94
201.469	-1064.34
201.688	-4134.75
201.907	2446.18
202.125	2992.86
202.344	682.84
202.563	508.88
202.781	622.6
203	639.88
203.218	653.39
203.437	-323.87
203.656	272650
203.874	-192.49
204.093	-266.09
204.311	-144.29
204.53	-233.69
204.748	-21.18
204.967	23.82
205.185	39.49
205.404	35.77
205.622	30.34
205.841	-1.2
206.059	9.95
206.278	17.78
206.496	-2.93
206.715	17.73
206.933	36.97
207.151	65.04
207.37	32.44
207.588	40.21
207.806	28.97
208.025	20.34
208.243	31.25
208.461	-2.88
208.68	11.57
208.898	19.08
209.116	-17.87
209.335	-31.06
209.553	-33.86
209.771	-88.54
209.989	-74.39
210.208	-77.79
210.426	-536.7
210.644	-795.76
210.862	-527.89
211.081	-762.25
211.299	-538.54
211.517	-104.09
211.735	-126.84
211.953	-515.88
212.171	-364.74
212.39	-916.78
212.608	-171.63
212.826	-102.92
213.044	-92.02
213.262	-61.14
213.48	-284.75
213.698	-372.79
213.916	-419.88
214.134	-127.31
214.352	-77.55
214.57	-119.02
214.788	-67.16
215.006	-94.75
215.224	-269.43
215.442	-369.37
215.66	-207.05
215.878	-103.95
216.096	-171.3
216.314	-1608.42
216.532	681.2
216.75	264.51
216.968	297.74
217.185	219.49
217.403	265.07
217.621	87.91
217.839	132.44
218.057	10.46
218.275	249.92
218.492	401.46
218.71	178.29
218.928	179.42
219.146	160.5
219.363	448.1
219.581	179.76
219.799	117.27
220.017	18.2
220.234	-139.54
220.452	-339.97
220.67	185.56
220.887	617.07
221.105	-86.37
221.323	-106.35
221.54	-97.79
221.758	-15.27
221.976	0.97
222.193	39.32
222.411	63.49
222.629	90.18
222.846	81.8
223.064	51.1
223.281	36.99
223.499	-37.3
223.716	-192.45
223.934	-24.28
224.151	38.92
224.369	28.6
224.586	30.54
224.804	40.5
225.021	42.93
225.239	31.93
225.456	25.87
225.674	11.92
225.891	25.69
226.108	34.61
226.326	25.14
226.543	18.86
226.76	35.26
226.978	37.45
227.195	27.27
227.413	22.96
227.63	26.48
227.847	23.6
228.064	25.25
228.282	23.14
228.499	22.09
228.716	24.84
228.934	23.17
229.151	20.17
229.368	19.75
229.585	16.56
229.802	14.9
230.02	9
230.237	10.24
230.454	9.11
230.671	8.5
230.888	7.9
231.105	7.66
231.323	7.73
231.54	3.58
231.757	-3.53
231.974	2.55
232.191	-2.21
232.408	9.48
232.625	6.23
232.842	10.16
233.059	2.32
233.276	4.1
233.493	-10.6
233.71	-10.13
233.927	-0.69
234.144	0.25
234.361	-5.24
234.578	-0.02
234.795	-6.03
235.012	-3.93
235.229	-5.29
235.446	2.75
235.663	6.61
235.879	17
236.096	12.83
236.313	6.42
236.53	8.69
236.747	10.71
236.964	14.46
237.181	18.94
237.397	11.28
237.614	17.55
237.831	15.15
238.048	10.85
238.264	4.49
238.481	5.44
238.698	11.13
238.915	9.72
239.131	10.98
239.348	9.62
239.565	5.09
239.781	11.25
239.998	11.7
240.215	10.2
240.431	8.41
240.648	7.61
240.865	9.38
241.081	11.12
241.298	10.89
241.514	12.92
241.731	12.83
241.947	14.82
242.164	13.52
242.38	11.71
242.597	12.01
242.814	12.4
243.03	11.46
243.246	12.84
243.463	12.11
243.679	13.16
243.896	12.41
244.112	12.07
244.329	9.82
244.545	8.89
244.762	10.44
244.978	10.6
245.194	13.32
245.411	15.18
245.627	11.73
245.843	11.06
246.06	10.87
246.276	10.28
246.492	9.23
246.709	11.15
246.925	12.1
247.141	12.79
247.357	12.81
247.574	12.3
247.79	12.11
248.006	12.58
248.222	12.44
248.439	11.94
248.655	13.19
248.871	14.17
249.087	13.66
249.303	13.67
249.519	9.37
249.736	11.27
249.952	9.64
250.168	9.05
250.384	9.11
250.6	11.66
250.816	12.84
251.032	10.32
251.248	10.55
251.464	10.03
251.68	10
251.896	12.89
252.112	11.56
252.328	12.49
252.544	13.15
252.76	12.41
252.976	9.86
253.192	10.26
253.408	11.95
253.624	13.49
253.84	14.59
254.056	13.19
254.272	13.17
254.487	10.18
254.703	11.19
254.919	12.51
255.135	11.79
255.351	11.85
255.567	9.5
255.782	6.61
255.998	0.45
256.214	-3.7
256.43	-1.75
256.646	1.14
256.861	2.09
257.077	2.07
257.293	0.25
257.508	3.57
257.724	3.91
257.94	4.05
258.155	4.32
258.371	6.1
258.587	9.4
258.802	9.73
259.018	10.73
259.234	12.55
259.449	12.25
259.665	11.78
259.88	10.77
260.096	11.27
260.312	11.59
260.527	12.13
260.743	12.28
260.958	11.51
261.174	11.59
261.389	11.04
261.605	9.86
261.82	9.05
262.036	9.8
262.251	10.46
262.466	9.8
262.682	10
262.897	11.27
263.113	12.67
263.328	13.49
263.543	12.85
263.759	13.29
263.974	12.58
264.189	12.81
264.405	11.45
264.62	10.92
264.835	11.81
265.051	8.75
265.266	8.02
265.481	7.85
265.696	9.45
265.912	9.9
266.127	8.61
266.342	8.61
266.557	8.28
266.773	8.66
266.988	8.66
267.203	8.19
267.418	10.78
267.633	9.37
267.848	9
268.064	7.47
268.279	7.93
268.494	7.51
268.709	7.73
268.924	8.48
269.139	9.44
269.354	10.38
269.569	7.99
269.784	7.43
269.999	8.98
270.214	8.69
270.429	6.97
270.644	4.98
270.859	6.3
271.074	6
271.289	7.04
271.504	7.06
271.719	7.15
271.934	9.07
272.149	8.66
272.363	7.17
272.578	7.3
272.793	8.47
273.008	10.4
273.223	10.43
273.438	11.26
273.653	11.64
273.867	10.5
274.082	10.49
274.297	10.78
274.512	11.14
274.726	11.09
274.941	11.36
275.156	10.7
275.371	10
275.585	10.46
275.8	11.06
276.015	9.56
276.229	10.22
276.444	7.88
276.659	6.88
276.873	5.74
277.088	5.71
277.302	5.21
277.517	6.65
277.732	6.6
277.946	5.21
278.161	5.79
278.375	5.44
278.59	6.24
278.804	7.03
279.019	7.6
279.233	8.47
279.448	9.23
279.662	10.27
279.877	10.12
280.091	10.02
280.306	9.66
280.52	9.05
280.735	11.14
280.949	9.71
281.163	10.22
281.378	9.86
281.592	11.44
281.806	10.38
282.021	8.13
282.235	7.03
282.449	7.38
282.664	8.76
282.878	8.02
283.092	7.07
283.307	9.01
283.521	8.92
283.735	9.76
283.949	8.91
284.164	10.64
284.378	10.63
284.592	10.54
284.806	9.53
285.02	8.86
285.234	9.03
285.449	8.65
285.663	7.75
285.877	7.75
286.091	7.54
286.305	8.28
286.519	7.44
286.733	7.78
286.947	9.4
287.161	10.22
287.375	9.33
287.589	7.39
287.803	6.09
288.017	6.33
288.231	4.74
288.445	6.07
288.659	4.61
288.873	5.77
289.087	4.29
289.301	3.91
289.515	3.68
289.729	4.75
289.943	7.9
290.157	9.72
290.371	9.01
290.584	10.78
290.798	10.16
291.012	10.08
291.226	9.77
291.44	12.53
291.654	12.68
291.867	12.13
292.081	12.94
292.295	11.65
292.509	10.29
292.722	9.96
292.936	10.04
293.15	9.35
293.364	9.11
293.577	8.66
293.791	8.6
294.005	8.81
294.218	9.2
294.432	8.31
294.645	8.4
294.859	7.97
295.073	8.88
295.286	9.05
295.5	8.39
295.713	8.81
295.927	9.07
296.14	8.11
296.354	7.02
296.568	7.71
296.781	7.89
296.994	8.4
297.208	9.7
297.421	9.55
297.635	9.62
297.848	10
298.062	9.59
298.275	8.9
298.489	9.35
298.702	10.31
298.915	9.75
299.129	9.82
299.342	9.44
299.555	8.85
299.769	8.33
299.982	9.31
300.195	10.23
300.409	11.13
300.622	12.24
300.835	12.14
301.048	10.5
301.262	11.39
301.475	11.49
301.688	11.69
301.901	12.26
302.115	12.12
302.328	10.54
302.541	8.73
302.754	8.84
302.967	8.3
303.18	7.15
303.393	7.25
303.607	7.17
303.82	7.14
304.033	7.82
304.246	7.14
304.459	8.37
304.672	9.18
304.885	10.75
305.098	10.31
305.311	10.52
305.524	11.12
305.737	12.55
305.95	12.58
306.163	11.87
306.376	12.88
306.589	12.6
306.802	13.24
307.015	12.37
307.228	11.56
307.44	12
307.653	11.66
307.866	10.36
308.079	10.72
308.292	10.41
308.505	13.07
308.718	11.48
308.93	12.02
309.143	10.33
309.356	11.49
309.569	11.08
309.781	11.91
309.994	13.55
310.207	14.49
310.42	14.08
310.632	13.7
310.845	12.42
311.058	12.01
311.27	12.35
311.483	12.93
311.696	12.79
311.908	13.55
312.121	11.94
312.333	10.67
312.546	11.41
312.759	11.34
312.971	11.46
313.184	11.9
313.396	13.03
313.609	12.93
313.821	14.67
314.034	13.16
314.246	13.49
314.459	14.73
314.671	15.39
314.884	14.19
315.096	13.73
315.309	14.28
315.521	13.33
315.733	11.15
315.946	11.34
316.158	9.06
316.371	10.05
316.583	8.25
316.795	8.64
317.008	7.41
317.22	8.62
317.432	9.25
317.644	9.15
317.857	9.57
318.069	10.71
318.281	9.09
318.494	11.56
318.706	12.33
318.918	12.85
319.13	12.13
319.342	12.58
319.555	12.8
319.767	12.16
319.979	12.27
320.191	11.7
320.403	13.03
320.615	15.38
320.827	12.3
321.039	13.41
321.252	13.6
321.464	13.63
321.676	13.13
321.888	11.81
322.1	13.9
322.312	13.63
322.524	15.1
322.736	13.25
322.948	11.86
323.16	11.9
323.372	10.28
323.584	9.92
323.796	10.2
324.007	10.33
324.219	11.29
324.431	9.83
324.643	9
324.855	6.39
325.067	6.58
325.279	6.27
325.491	6.94
325.702	6.03
325.914	7.46
326.126	5.93
326.338	7.43
326.55	7.01
326.761	7.56
326.973	7.99
327.185	9.1
327.396	9.96
327.608	11.49
327.82	13.03
328.032	13.66
328.243	12.9
328.455	15.66
328.666	14.44
328.878	15.2
329.09	13.44
329.301	14.45
329.513	15.82
329.725	15.4
329.936	15.26
330.148	14.73
330.359	16.33
330.571	16.12
330.782	15.82
330.994	15.7
331.205	15.64
331.417	17.46
331.628	16.72
331.84	16.07
332.051	17.03
332.262	18.34
332.474	17.1
332.685	15.8
332.897	15.72
333.108	14.88
333.319	15.54
333.531	15.69
333.742	16.42
333.953	16.27
334.165	15.87
334.376	14.74
334.587	13
334.799	14.77
335.01	15.39
335.221	14.8
335.432	14.43
335.644	14.13
335.855	13.46
336.066	11.99
336.277	11.76
336.488	12.58
336.7	12.91
336.911	13.37
337.122	11.88
337.333	10.83
337.544	12.27
337.755	12.95
337.966	12.24
338.177	13.17
338.388	14.62
338.599	15.34
338.811	13.97
339.022	13.66
339.233	13.39
339.444	14.57
339.655	15.4
339.866	14.55
340.076	14
340.287	14.32
340.498	14.67
340.709	12.23
340.92	11.88
341.131	13.22
341.342	14.04
341.553	14.58
341.764	14.06
341.975	14.44
342.185	14.01
342.396	14.63
342.607	15.12
342.818	14.61
343.029	16.62
343.239	17.67
343.45	17.69
343.661	17.63
343.872	16.01
344.082	15.31
344.293	15.35
344.504	16.42
344.714	16.09
344.925	16.5
345.136	16.67
345.346	16.15
345.557	15.73
345.768	16.17
345.978	14.99
346.189	16.42
346.399	16.5
346.61	15.5
346.821	14.91
347.031	15.24
347.242	14.15
347.452	13.37
347.663	13.68
347.873	13.49
348.084	11.93
348.294	13.33
348.504	12.23
348.715	13.01
348.925	14.36
349.136	14.63
349.346	14.63
349.557	14.92
349.767	14.96
349.977	14.5
350.188	13.85
350.398	14.89
350.608	14.17
350.819	15.13
351.029	14.99
351.239	14.59
351.449	14.52
351.66	13.49
351.87	13.6
352.08	13.29
352.29	13.13
352.501	13.99
352.711	12.96
352.921	13
353.131	12.36
353.341	12.4
353.552	11.8
353.762	11.97
353.972	12.61
354.182	12.81
354.392	13.6
354.602	13.96
354.812	13.27
355.022	14.68
355.232	13.97
355.442	14.11
355.652	13.67
355.862	13.6
356.072	12.47
356.282	12.04
356.492	12
356.702	10.99
356.912	11.32
357.122	11.96
357.332	11.47
357.542	12.22
357.752	12.17
357.962	12.65
358.171	12.81
358.381	13.04
358.591	13.54
358.801	13.21
359.011	13.66
359.221	13.11
359.43	12.65
359.64	12.67
359.85	12
360.06	11.85
360.269	11.48
360.479	11.78
360.689	11.97
360.899	12.04
361.108	12.49
361.318	12.29
361.528	11.87
361.737	12.22
361.947	11.49
362.156	12.1
362.366	12.08
362.576	12.44
362.785	12.3
362.995	12.66
363.204	12.12
363.414	11.64
363.623	12.59
363.833	12.52
364.042	12.63
364.252	13.52
364.461	13.46
364.671	13.07
364.88	12.45
365.09	12.2
365.299	12.06
365.509	12.84
365.718	13.66
365.927	13.02
366.137	13.6
366.346	13
366.555	12.53
366.765	12.61
366.974	12.85
367.183	12.99
367.393	13.03
367.602	12.74
367.811	12.19
368.021	11.14
368.23	11.1
368.439	10.85
368.648	11.21
368.857	11.09
369.067	10.8
369.276	11.55
369.485	11.23
369.694	11.07
369.903	10.81
370.112	10.99
370.321	11.4
370.531	11.58
370.74	12.01
370.949	11.96
371.158	11.9
371.367	12.02
371.576	10.76
371.785	11.08
371.994	10.62
372.203	11.34
372.412	10.83
372.621	11.06
372.83	11.1
373.039	10.55
373.248	11.08
373.457	10.33
373.666	10.64
373.874	11.27
374.083	11.48
374.292	11.72
374.501	11.95
374.71	12
374.919	12.27
375.128	11.36
375.336	11.54
375.545	11.08
375.754	11.63
375.963	11.12
376.171	11.05
376.38	10.81
376.589	11.7
376.798	10.51
377.006	10.4
377.215	10.21
377.424	10.73
377.632	10.71
377.841	10.3
378.05	11.22
378.258	11.24
378.467	11.43
378.675	11.22
378.884	10.32
379.093	10.89
379.301	11.14
379.51	10.93
379.718	10.41
379.927	10.26
380.135	10.62
380.344	9.63
380.552	9.19
380.761	9.14
380.969	9.18
381.177	8.71
381.386	8.73
381.594	8.94
381.803	8.94
382.011	9.38
382.219	9.25
382.428	8.65
382.636	8.61
382.845	9.44
383.053	8.99
383.261	9.4
383.469	9.78
383.678	9.51
383.886	9.75
384.094	9.2
384.302	8.77
384.511	8.37
384.719	8.41
384.927	8.32
385.135	7.76
385.343	7.94
385.552	7.35
385.76	7.91
385.968	8.22
386.176	7.73
386.384	7.71
386.592	7.87
386.8	8.45
387.008	8.67
387.216	8.56
387.424	8.66
387.633	8.46
387.841	8.52
388.049	8.04
388.257	7.28
388.465	7.81
388.672	8.15
388.88	8.23
389.088	8.04
389.296	7.67
389.504	7.62
389.712	7.91
389.92	7.59
390.128	7.5
390.336	7.4
390.544	8.28
390.751	7.66
390.959	7.79
391.167	7.53
391.375	7.69
391.583	7.98
391.79	8.42
391.998	8.09
392.206	8.28
392.414	8.52
392.621	8.62
392.829	8.42
393.037	8.46
393.244	8.4
393.452	8.33
393.66	8.01
393.867	7.99
394.075	7.67
394.283	7.69
394.49	7.92
394.698	7.94
394.905	8.05
395.113	7.93
395.32	7.7
395.528	7.5
395.735	7.66
395.943	7.56
396.15	7.61
396.358	7.67
396.565	7.49
396.773	7.72
396.98	7.35
397.188	7.18
397.395	6.94
397.602	7.34
397.81	7.04
398.017	7.07
398.225	7.06
398.432	6.89
398.639	7.05
398.847	6.97
399.054	6.51
399.261	6.49
399.468	6.2
399.676	6.51
399.883	6.28
400.09	6.07
400.297	6.48
400.505	6.81
400.712	6.86
400.919	6.94
401.126	6.8
401.333	6.74
401.54	7.02
401.748	7.36
401.955	7.02
402.162	7.07
402.369	7.61
402.576	7.34
402.783	7.15
402.99	7.03
403.197	6.77
403.404	6.92
403.611	7.01
403.818	6.71
404.025	6.46
404.232	6.84
404.439	7.01
404.646	7.12
404.853	7.05
405.06	7.31
405.267	7.38
405.474	7.12
405.681	7.12
405.887	7.12
406.094	7.36
406.301	7.29
406.508	6.93
406.715	6.69
406.922	6.7
407.128	6.33
407.335	5.8
407.542	5.45
407.749	5.94
407.955	5.98
408.162	6.02
408.369	5.84
408.575	6.12
408.782	5.89
408.989	5.86
409.195	5.3
409.402	5.6
409.609	5.9
409.815	6.14
410.022	6.13
410.228	6.43
410.435	6.21
410.642	6.13
410.848	6.17
411.055	6.45
411.261	6.32
411.468	6.38
411.674	6.45
411.881	6.24
412.087	6.38
412.294	6.04
412.5	5.6
412.706	6.04
412.913	6.37
413.119	6.09
413.326	6.11
413.532	6.34
413.738	6.63
413.945	6.4
414.151	6.47
414.357	6.33
414.564	6.58
414.77	6.68
414.976	6.47
415.182	6.17
415.389	6.59
415.595	6.46
415.801	6.26
416.007	6.35
416.214	6.26
416.42	6.26
416.626	6.31
416.832	5.83
417.038	5.84
417.244	5.69
417.45	5.84
417.657	5.69
417.863	5.86
418.069	5.75
418.275	5.69
418.481	5.93
418.687	5.86
418.893	6.02
419.099	6.27
419.305	6.3
419.511	6.29
419.717	6.42
419.923	6.47
420.129	6.47
420.335	6.67
420.541	6.63
420.746	6.65
420.952	6.9
421.158	6.78
421.364	6.77
421.57	6.92
421.776	7.04
421.982	6.83
422.187	6.7
422.393	6.47
422.599	6.42
422.805	6.49
423.01	6.34
423.216	6.25
423.422	6.2
423.628	6.22
423.833	6.1
424.039	6.15
424.245	6.39
424.45	6.4
424.656	6.6
424.862	6.52
425.067	6.48
425.273	6.53
425.478	6.46
425.684	6.44
425.889	6.39
426.095	6.33
426.301	6.27
426.506	6.11
426.712	6.1
426.917	6.13
427.123	6.3
427.328	6.42
427.533	6.3
427.739	6.37
427.944	6.26
428.15	6.32
428.355	6.33
428.561	6.17
428.766	6.04
428.971	6.08
429.177	5.96
429.382	5.77
429.587	5.51
429.793	5.58
429.998	5.47
430.203	5.85
430.408	5.78
430.614	5.87
430.819	5.99
431.024	5.94
431.229	5.96
431.434	6.02
431.64	6.2
431.845	6.27
432.05	6.42
432.255	6.42
432.46	6.32
432.665	6.67
432.87	6.63
433.076	6.79
433.281	6.83
433.486	6.83
433.691	6.83
433.896	6.56
434.101	6.58
434.306	6.58
434.511	6.52
434.716	6.69
434.921	6.59
435.126	6.51
435.331	6.38
435.535	6.46
435.74	6.49
435.945	6.49
436.15	6.88
436.355	7.03
436.56	6.87
436.765	6.98
436.97	6.73
437.174	6.62
437.379	6.64
437.584	6.58
437.789	6.49
437.993	6.57
438.198	6.44
438.403	6.12
438.608	5.95
438.812	5.99
439.017	6.1
439.222	6.02
439.426	6.03
439.631	6
439.836	5.95
440.04	5.88
440.245	5.77
440.45	5.76
440.654	5.87
440.859	5.91
441.063	6.05
441.268	5.86
441.472	5.85
441.677	5.87
441.881	5.92
442.086	5.99
442.29	6.06
442.495	6.12
442.699	6.19
442.904	6.29
443.108	6.3
443.312	6.21
443.517	6.29
443.721	6.2
443.925	6.15
444.13	6.29
444.334	6.27
444.538	6.31
444.743	6.42
444.947	6.48
445.151	6.21
445.356	6.21
445.56	6.33
445.764	6.36
445.968	6.5
446.173	6.5
446.377	6.41
446.581	6.45
446.785	6.37
446.989	6.25
447.193	6.27
447.398	6.58
447.602	6.52
447.806	6.39
448.01	6.38
448.214	6.29
448.418	6.24
448.622	6.07
448.826	5.97
449.03	5.96
449.234	6.1
449.438	6.15
449.642	5.87
449.846	6
450.05	5.93
450.254	5.89
450.458	5.93
450.662	5.86
450.866	6.03
451.069	6.04
451.273	6.08
451.477	5.96
451.681	5.76
451.885	5.8
452.089	5.72
452.292	5.5
452.496	5.46
452.7	5.53
452.904	5.54
453.107	5.58
453.311	5.53
453.515	5.55
453.719	5.61
453.922	5.68
454.126	5.68
454.33	5.64
454.533	5.91
454.737	5.96
454.94	5.99
455.144	6.21
455.348	6.15
455.551	6.18
455.755	6.15
455.958	6.08
456.162	5.9
456.365	5.88
456.569	5.94
456.772	5.99
456.976	6.04
457.179	5.88
457.383	5.75
457.586	5.97
457.79	5.99
457.993	5.97
458.196	5.87
458.4	6.1
458.603	6.15
458.807	6
459.01	5.78
459.213	5.87
459.417	5.99
459.62	6.06
459.823	6
460.026	5.95
460.23	5.91
460.433	5.76
460.636	5.64
460.839	5.6
461.042	5.72
461.246	5.74
461.449	5.76
461.652	5.79
461.855	5.71
462.058	5.47
462.261	5.49
462.464	5.54
462.668	5.71
462.871	5.59
463.074	5.68
463.277	5.57
463.48	5.87
463.683	5.68
463.886	5.63
