Data from 2937895_Reflection_1.txt Node
Date: Wed Jul 15 13:53:43 EDT 2015
User: robert
Spectrometer: USB4E03001
Autoset integration time: false
Trigger mode: 4
Integration Time (sec): 1.000000E-1
Scans to average: 10
Electric dark correction enabled: true
Nonlinearity correction enabled: false
Boxcar width: 5
Stray light correction enabled: false
XAxis mode: Wavelengths
Stop averaging: false
Number of Pixels in Spectrum: 3648
>>>>>Begin Spectral Data<<<<<
177.566	-201.77
177.785	-571.2
178.005	-761.15
178.225	-54.75
178.445	14.38
178.665	-173.56
178.885	49.78
179.105	25
179.324	16.63
179.544	-13
179.764	-90.43
179.984	-157.95
180.204	-229.65
180.423	-217.25
180.643	-166.83
180.863	-118.67
181.083	-231.29
181.302	-626.83
181.522	-243.63
181.742	5451.89
181.961	685.89
182.181	1329.15
182.401	296.78
182.621	291.7
182.84	281.52
183.06	425.89
183.279	261.5
183.499	418.59
183.719	1682.91
183.938	-374.16
184.158	-112.71
184.377	-26.14
184.597	-48.99
184.816	-32.13
185.036	-37.02
185.256	-56.22
185.475	-45.49
185.695	-23.84
185.914	-19.9
186.134	-37.48
186.353	-316.72
186.572	-202.66
186.792	-142.56
187.011	-104.35
187.231	-69.17
187.45	-216.77
187.67	-114.73
187.889	-205.62
188.108	-101.62
188.328	-103.68
188.547	-78.33
188.766	-86.75
188.986	-34.11
189.205	-105.97
189.424	-115.02
189.644	-311.57
189.863	-392.63
190.082	1481.3
190.302	-751.41
190.521	332.89
190.74	168.49
190.959	216.37
191.178	811.83
191.398	444.74
191.617	809.31
191.836	-812.12
192.055	-76
192.274	-39.7
192.494	-43.06
192.713	-96.71
192.932	-62.14
193.151	-60.62
193.37	-45.67
193.589	2.21
193.808	-6.62
194.027	-74.5
194.246	405.15
194.465	2261.19
194.685	1413
194.904	396.85
195.123	178.27
195.342	124.02
195.561	225.49
195.78	140.79
195.999	110.91
196.218	121.16
196.436	166.32
196.655	-29622.22
196.874	166.9
197.093	200.56
197.312	-73.23
197.531	-114.16
197.75	-68.77
197.969	-216.41
198.188	-223.33
198.407	-109.44
198.625	-10.61
198.844	8.56
199.063	-47.05
199.282	-49.21
199.501	75.14
199.719	285.34
199.938	42.44
200.157	144.01
200.376	-10.48
200.594	-312.24
200.813	162.26
201.032	170.71
201.251	124.69
201.469	-362.98
201.688	-546.45
201.907	-794.3
202.125	565.05
202.344	1204.72
202.563	339.46
202.781	363.37
203	1139.92
203.218	2414.71
203.437	-907.74
203.656	359.18
203.874	315.61
204.093	301.1
204.311	191.1
204.53	341.8
204.748	282.76
204.967	-3383.19
205.185	-221.5
205.404	2280.6
205.622	-106.98
205.841	-118.87
206.059	-43.7
206.278	-962.62
206.496	-143.05
206.715	-127.08
206.933	-66.25
207.151	-1095.15
207.37	39923.53
207.588	-1468.47
207.806	805.2
208.025	597.02
208.243	211.73
208.461	489.93
208.68	-386.43
208.898	-120.67
209.116	-77.65
209.335	-2.1
209.553	-1.34
209.771	-11.58
209.989	-56.34
210.208	-25.67
210.426	-18.11
210.644	-2.24
210.862	-7.76
211.081	-6.36
211.299	-73.86
211.517	-30.62
211.735	-49.35
211.953	-10.52
212.171	-46.14
212.39	-42.69
212.608	-50.89
212.826	-80.85
213.044	-68.19
213.262	-80.68
213.48	-90.4
213.698	-8.39
213.916	1.79
214.134	-0.93
214.352	-19.8
214.57	38.18
214.788	64.14
215.006	50.18
215.224	10.19
215.442	20.16
215.66	39.95
215.878	44.2
216.096	87.23
216.314	102
216.532	59.14
216.75	87.23
216.968	83.79
217.185	65.83
217.403	108.46
217.621	475.21
217.839	-57.26
218.057	59.03
218.275	-43.18
218.492	-483.01
218.71	-257.27
218.928	-500.85
219.146	763.77
219.363	858.66
219.581	-11133.33
219.799	-230.74
220.017	-364.68
220.234	-158.21
220.452	-104.61
220.67	-219.52
220.887	-153.81
221.105	-4709.46
221.323	361.59
221.54	141.14
221.758	229.98
221.976	420.2
222.193	126.56
222.411	168.91
222.629	218.94
222.846	165.78
223.064	170.42
223.281	97.01
223.499	98.38
223.716	144.85
223.934	139.46
224.151	132.52
224.369	293.13
224.586	349.14
224.804	317.78
225.021	197.8
225.239	182.58
225.456	162.45
225.674	157.39
225.891	150.24
226.108	41.95
226.326	34.94
226.543	18.26
226.76	20.3
226.978	1.74
227.195	2.17
227.413	-6.71
227.63	-3.09
227.847	7.24
228.064	8.49
228.282	8.3
228.499	14.81
228.716	19.87
228.934	17.75
229.151	19.66
229.368	22.14
229.585	20.67
229.802	25.42
230.02	25.29
230.237	22.1
230.454	20.53
230.671	22.43
230.888	23.29
231.105	15.19
231.323	21.69
231.54	21.4
231.757	26.69
231.974	30.63
232.191	23.33
232.408	22
232.625	27.06
232.842	29.86
233.059	35.32
233.276	30.85
233.493	41.55
233.71	41.43
233.927	35.59
234.144	29.7
234.361	23.38
234.578	30.57
234.795	35.83
235.012	26.62
235.229	28.93
235.446	30.12
235.663	34.35
235.879	34.5
236.096	31.27
236.313	29.91
236.53	24.59
236.747	26.24
236.964	29.01
237.181	27.88
237.397	36.8
237.614	35.57
237.831	37.5
238.048	40.8
238.264	40.43
238.481	34.19
238.698	34.2
238.915	38.23
239.131	33.76
239.348	31.58
239.565	31.29
239.781	30.02
239.998	31.65
240.215	29.67
240.431	26.69
240.648	28.05
240.865	33.09
241.081	32.71
241.298	29.21
241.514	28.99
241.731	25.04
241.947	22.87
242.164	18.9
242.38	18.69
242.597	17.67
242.814	16.31
243.03	15.27
243.246	13.57
243.463	12.1
243.679	13.49
243.896	16.4
244.112	17.77
244.329	19.11
244.545	23.05
244.762	22.36
244.978	23.5
245.194	23.89
245.411	24.46
245.627	23.18
245.843	21.88
246.06	17.14
246.276	13.28
246.492	13.25
246.709	11.78
246.925	13.61
247.141	14.19
247.357	12.17
247.574	12.07
247.79	11.53
248.006	12.91
248.222	14.03
248.439	16.31
248.655	16.6
248.871	15.69
249.087	18.36
249.303	17.31
249.519	16.6
249.736	18.17
249.952	17.52
250.168	17.52
250.384	14.52
250.6	13.19
250.816	11.21
251.032	10.1
251.248	13.51
251.464	13.7
251.68	13.27
251.896	12.24
252.112	10.08
252.328	11.57
252.544	13.28
252.76	12.87
252.976	13.68
253.192	14.82
253.408	15.58
253.624	16.78
253.84	16.03
254.056	14.84
254.272	15.93
254.487	21.53
254.703	19.76
254.919	17.16
255.135	21.5
255.351	20.3
255.567	19.89
255.782	21.46
255.998	18.12
256.214	13.15
256.43	11.07
256.646	14.54
256.861	9.09
257.077	7.88
257.293	9.9
257.508	7.78
257.724	9.96
257.94	8.41
258.155	8.32
258.371	9.27
258.587	9.74
258.802	11.44
259.018	10.58
259.234	11.84
259.449	12.24
259.665	12.15
259.88	11.74
260.096	10.58
260.312	10.92
260.527	9.75
260.743	9.33
260.958	9.21
261.174	8.14
261.389	8.3
261.605	7.43
261.82	8.3
262.036	7.78
262.251	8.28
262.466	8.94
262.682	7.16
262.897	8.21
263.113	8.42
263.328	10.24
263.543	11.05
263.759	8.66
263.974	7.82
264.189	4.95
264.405	4.36
264.62	5.07
264.835	5.56
265.051	7.33
265.266	6.58
265.481	6.52
265.696	6.46
265.912	7.45
266.127	9.45
266.342	10.46
266.557	11.5
266.773	8.61
266.988	6.99
267.203	7.5
267.418	7.81
267.633	11.27
267.848	9.78
268.064	9.69
268.279	8.64
268.494	7.5
268.709	6.42
268.924	5.23
269.139	8.56
269.354	9.74
269.569	9.62
269.784	8.65
269.999	6.08
270.214	7.66
270.429	6.84
270.644	6.97
270.859	8.3
271.074	10.22
271.289	11.96
271.504	12.36
271.719	11.59
271.934	10.94
272.149	10.49
272.363	10.95
272.578	11.2
272.793	11.38
273.008	11.74
273.223	10.54
273.438	10.53
273.653	9.6
273.867	7.65
274.082	7.86
274.297	8.17
274.512	8.3
274.726	8.51
274.941	7.8
275.156	8.51
275.371	11.63
275.585	12.87
275.8	11.73
276.015	13.23
276.229	13.99
276.444	13.39
276.659	12.71
276.873	15.43
277.088	16.37
277.302	16.53
277.517	16.68
277.732	14.57
277.946	12.14
278.161	13.44
278.375	11.56
278.59	11.46
278.804	13.22
279.019	13.01
279.233	13.62
279.448	12.71
279.662	12.98
279.877	9.41
280.091	11.18
280.306	13.32
280.52	12.87
280.735	14.59
280.949	14.5
281.163	12.25
281.378	13.95
281.592	12.05
281.806	12.49
282.021	12.94
282.235	14.23
282.449	14.94
282.664	15.61
282.878	15.43
283.092	13.91
283.307	13.66
283.521	15.35
283.735	15.67
283.949	15.64
284.164	15.94
284.378	14.07
284.592	14.93
284.806	12.19
285.02	13.46
285.234	13.27
285.449	13.17
285.663	14.27
285.877	13.67
286.091	12.88
286.305	13.78
286.519	14.5
286.733	15.57
286.947	14.93
287.161	16.99
287.375	16.63
287.589	17.43
287.803	18.53
288.017	17.89
288.231	17.55
288.445	16.27
288.659	15.51
288.873	15
289.087	14.19
289.301	14.89
289.515	12.05
289.729	10.88
289.943	8.69
290.157	9.78
290.371	9.46
290.584	10.89
290.798	13.72
291.012	14.91
291.226	13.94
291.44	16.11
291.654	16.92
291.867	18
292.081	16.61
292.295	18.51
292.509	15.97
292.722	17.48
292.936	17.44
293.15	14.13
293.364	11.85
293.577	10.29
293.791	10.31
294.005	10.44
294.218	10.12
294.432	11.46
294.645	10.29
294.859	11.97
295.073	10.75
295.286	9.24
295.5	9.6
295.713	10.34
295.927	11.21
296.14	10.84
296.354	9.5
296.568	9.87
296.781	10.31
296.994	10.73
297.208	9.91
297.421	9.74
297.635	10.36
297.848	11.82
298.062	13.56
298.275	14.01
298.489	12.43
298.702	12.98
298.915	12.49
299.129	12.92
299.342	13.29
299.555	14.22
299.769	16.32
299.982	15.07
300.195	15.21
300.409	12.18
300.622	13.02
300.835	14.32
301.048	14.56
301.262	15.76
301.475	15.56
301.688	16.07
301.901	15.27
302.115	14.74
302.328	15.73
302.541	15.53
302.754	15.46
302.967	14.86
303.18	14.72
303.393	14.39
303.607	15.28
303.82	16.27
304.033	16.9
304.246	16.95
304.459	16.68
304.672	18.28
304.885	16.57
305.098	17.16
305.311	17.46
305.524	18.93
305.737	18.6
305.95	17.09
306.163	15.05
306.376	15.29
306.589	17.33
306.802	15.1
307.015	13.81
307.228	15.17
307.44	14.81
307.653	15.06
307.866	13.89
308.079	16.53
308.292	18.04
308.505	18.28
308.718	17.51
308.93	18.06
309.143	19.95
309.356	20.12
309.569	19.28
309.781	19.45
309.994	19.58
310.207	19.48
310.42	18.02
310.632	17.76
310.845	17.49
311.058	18.63
311.27	18.26
311.483	17.27
311.696	17.25
311.908	17.78
312.121	18.12
312.333	17.29
312.546	16.67
312.759	16.43
312.971	17.44
313.184	18.59
313.396	17.98
313.609	17.25
313.821	18.81
314.034	17.33
314.246	18
314.459	19.88
314.671	21.98
314.884	22.68
315.096	22.89
315.309	22.81
315.521	21.59
315.733	21.59
315.946	20.87
316.158	19.4
316.371	20.47
316.583	20.33
316.795	18.76
317.008	18.32
317.22	19.34
317.432	21.08
317.644	18.19
317.857	15.56
318.069	13.44
318.281	12.86
318.494	14.13
318.706	16.23
318.918	16.9
319.13	15.3
319.342	12.46
319.555	12.78
319.767	10.15
319.979	11.37
320.191	14.05
320.403	14.89
320.615	15.22
320.827	14.78
321.039	12.75
321.252	10.25
321.464	12.01
321.676	14.71
321.888	12.46
322.1	13.98
322.312	14.89
322.524	14.74
322.736	14.76
322.948	14.92
323.16	13.16
323.372	15.34
323.584	16.6
323.796	16.77
324.007	17.22
324.219	18.17
324.431	16.75
324.643	16.54
324.855	17.79
325.067	18.04
325.279	18.45
325.491	20.87
325.702	20.1
325.914	19.23
326.126	20.1
326.338	18.69
326.55	18.55
326.761	20.89
326.973	21.06
327.185	19.71
327.396	19.48
327.608	19.11
327.82	18.06
328.032	17.56
328.243	18.99
328.455	17.26
328.666	17.55
328.878	17.51
329.09	16.53
329.301	16.14
329.513	18.2
329.725	18.16
329.936	18.15
330.148	20.17
330.359	19.6
330.571	18.27
330.782	19.43
330.994	20.03
331.205	21.86
331.417	22.8
331.628	22.92
331.84	22.06
332.051	24.44
332.262	25.83
332.474	25.97
332.685	26.6
332.897	28.22
333.108	27.54
333.319	28.04
333.531	26.33
333.742	25.52
333.953	24.96
334.165	24.67
334.376	23.68
334.587	23.5
334.799	22.43
335.01	24.3
335.221	22.12
335.432	22.49
335.644	21.72
335.855	23.7
336.066	25.24
336.277	25.73
336.488	27.66
336.7	27.45
336.911	27.54
337.122	27.36
337.333	25.61
337.544	27.13
337.755	27.06
337.966	27.2
338.177	26.92
338.388	25.42
338.599	26.38
338.811	26.03
339.022	25.27
339.233	24.34
339.444	24.38
339.655	23.44
339.866	23.65
340.076	23.95
340.287	24.13
340.498	23.99
340.709	24.05
340.92	22.97
341.131	21.72
341.342	21.53
341.553	22.48
341.764	22.46
341.975	24.05
342.185	24.14
342.396	23.12
342.607	23.77
342.818	23.57
343.029	24.05
343.239	25.96
343.45	25.63
343.661	25.9
343.872	24.73
344.082	24.93
344.293	23.61
344.504	22.7
344.714	24.06
344.925	24.14
345.136	22.81
345.346	22.57
345.557	21.32
345.768	21.41
345.978	21.54
346.189	23.16
346.399	22.38
346.61	24.88
346.821	25.05
347.031	25.4
347.242	24.32
347.452	24.42
347.663	23.39
347.873	22.35
348.084	23.59
348.294	23.27
348.504	22.68
348.715	22.76
348.925	20.16
349.136	21.17
349.346	20
349.557	20.83
349.767	21.83
349.977	23.51
350.188	25
350.398	23.37
350.608	24.89
350.819	24.4
351.029	24.89
351.239	26.01
351.449	26.17
351.66	24.65
351.87	22.57
352.08	21.64
352.29	20.68
352.501	20.4
352.711	22.71
352.921	20.81
353.131	20.24
353.341	19.39
353.552	18.88
353.762	17.71
353.972	19.26
354.182	20.42
354.392	20.34
354.602	20.47
354.812	20
355.022	16.74
355.232	17.96
355.442	17.78
355.652	18.75
355.862	18.86
356.072	19.97
356.282	19.88
356.492	19.49
356.702	19.91
356.912	19.82
357.122	19.79
357.332	20.83
357.542	20.44
357.752	21.32
357.962	20.61
358.171	20.91
358.381	20.31
358.591	19.08
358.801	19.91
359.011	20.02
359.221	20.77
359.43	20.92
359.64	21.24
359.85	21.62
360.06	21.75
360.269	21.55
360.479	21.01
360.689	20.73
360.899	22.63
361.108	21.86
361.318	22.3
361.528	21.76
361.737	21.54
361.947	20.61
362.156	20.48
362.366	20.38
362.576	20.81
362.785	21
362.995	21.02
363.204	19.9
363.414	20.33
363.623	20.15
363.833	19.73
364.042	19.56
364.252	19.08
364.461	18.47
364.671	17.93
364.88	18.29
365.09	18.65
365.299	18.7
365.509	19.15
365.718	18.7
365.927	18.49
366.137	18.57
366.346	18.85
366.555	19.71
366.765	19.22
366.974	19.61
367.183	18.73
367.393	18.5
367.602	18.79
367.811	18.32
368.021	17.86
368.23	17.29
368.439	17.97
368.648	17.61
368.857	17.72
369.067	18.46
369.276	17.9
369.485	18.09
369.694	17.13
369.903	16.63
370.112	16.73
370.321	17.25
370.531	17.76
370.74	17.01
370.949	17.3
371.158	17.1
371.367	17.28
371.576	17.28
371.785	16.9
371.994	17.12
372.203	17.45
372.412	18.38
372.621	18.72
372.83	18.23
373.039	18.13
373.248	18.68
373.457	18.57
373.666	18.2
373.874	18.75
374.083	19.05
374.292	19.27
374.501	18.68
374.71	17.25
374.919	16.81
375.128	17.44
375.336	17.95
375.545	17.76
375.754	17.97
375.963	18.26
376.171	17.08
376.38	17.41
376.589	18.22
376.798	18.98
377.006	19.39
377.215	19.06
377.424	18.53
377.632	18.62
377.841	18.48
378.05	17.99
378.258	17.91
378.467	18.6
378.675	18.99
378.884	18.6
379.093	17.65
379.301	16.99
379.51	17.13
379.718	17.58
379.927	16.84
380.135	16.05
380.344	16.58
380.552	16.59
380.761	16.58
380.969	15.4
381.177	14.89
381.386	15.2
381.594	15.17
381.803	15.1
382.011	14.25
382.219	14.61
382.428	15.06
382.636	14.67
382.845	14.73
383.053	14.47
383.261	14.67
383.469	14.87
383.678	14.77
383.886	14.69
384.094	14.73
384.302	14.91
384.511	14.39
384.719	14.69
384.927	14.6
385.135	14.53
385.343	14.4
385.552	14.83
385.76	14.41
385.968	13.88
386.176	14.28
386.384	14.49
386.592	14.62
386.8	14.84
387.008	14.55
387.216	15.11
387.424	14.91
387.633	14.68
387.841	14.37
388.049	14.12
388.257	13.94
388.465	13.53
388.672	13.54
388.88	13.46
389.088	13.62
389.296	13.44
389.504	12.94
389.712	12.92
389.92	12.69
390.128	12.71
390.336	12.81
390.544	12.99
390.751	12.98
390.959	12.36
391.167	12.03
391.375	11.86
391.583	11.96
391.79	12.05
391.998	11.57
392.206	11.9
392.414	11.65
392.621	11.58
392.829	11.53
393.037	11.41
393.244	11.68
393.452	12.01
393.66	11.51
393.867	10.79
394.075	10.62
394.283	10.45
394.49	10.38
394.698	10.38
394.905	10.4
395.113	10.51
395.32	10.65
395.528	10.53
395.735	10.05
395.943	10.41
396.15	10.58
396.358	10.25
396.565	10.42
396.773	10.1
396.98	10.26
397.188	10.08
397.395	9.93
397.602	10.03
397.81	9.89
398.017	10.02
398.225	9.87
398.432	9.65
398.639	9.79
398.847	9.92
399.054	10.36
399.261	10.38
399.468	10.47
399.676	10.4
399.883	10.22
400.09	10.22
400.297	10.33
400.505	10.39
400.712	10.69
400.919	10.91
401.126	11.01
401.333	10.7
401.54	10.58
401.748	10.5
401.955	10.53
402.162	10.66
402.369	10.8
402.576	10.37
402.783	10.28
402.99	10.06
403.197	10.24
403.404	10.47
403.611	10.38
403.818	10.36
404.025	10.52
404.232	10.87
404.439	10.73
404.646	10.74
404.853	10.99
405.06	11.07
405.267	11.39
405.474	11.03
405.681	10.89
405.887	10.74
406.094	10.81
406.301	10.68
406.508	10.13
406.715	10.16
406.922	10.1
407.128	10.06
407.335	9.81
407.542	9.84
407.749	9.87
407.955	9.68
408.162	9.76
408.369	9.53
408.575	9.26
408.782	9.49
408.989	9.22
409.195	9.08
409.402	8.82
409.609	8.67
409.815	8.34
410.022	8.31
410.228	8.38
410.435	8.44
410.642	8.19
410.848	8.81
411.055	8.79
411.261	9.07
411.468	9.07
411.674	9.41
411.881	9.66
412.087	9.44
412.294	9.45
412.5	9.34
412.706	9.34
412.913	9.42
413.119	8.87
413.326	8.87
413.532	8.68
413.738	8.85
413.945	8.83
414.151	8.62
414.357	9.01
414.564	9.07
414.77	9.29
414.976	9.39
415.182	9.55
415.389	9.63
415.595	9.48
415.801	9.37
416.007	9.18
416.214	8.95
416.42	8.97
416.626	8.98
416.832	9.1
417.038	8.85
417.244	8.6
417.45	8.4
417.657	8.46
417.863	8.47
418.069	8.73
418.275	8.86
418.481	9.02
418.687	9.07
418.893	8.99
419.099	8.73
419.305	8.81
419.511	8.98
419.717	9.02
419.923	9.11
420.129	9.11
420.335	8.98
420.541	8.95
420.746	8.93
420.952	8.88
421.158	8.83
421.364	9.09
421.57	8.98
421.776	9.01
421.982	9.16
422.187	8.99
422.393	8.98
422.599	9.02
422.805	8.98
423.01	8.85
423.216	8.86
423.422	8.61
423.628	8.4
423.833	8.4
424.039	8.31
424.245	8.13
424.45	8.18
424.656	8.24
424.862	8.28
425.067	8.22
425.273	8.24
425.478	8.31
425.684	8.63
425.889	8.65
426.095	8.68
426.301	8.69
426.506	8.75
426.712	8.75
426.917	8.76
427.123	8.6
427.328	8.55
427.533	8.16
427.739	8.09
427.944	8.1
428.15	8.04
428.355	7.89
428.561	7.88
428.766	7.7
428.971	7.74
429.177	7.65
429.382	7.77
429.587	7.85
429.793	8.19
429.998	8.2
430.203	8.07
430.408	8.17
430.614	8.49
430.819	8.29
431.024	8.51
431.229	8.45
431.434	8.22
431.64	8.08
431.845	8.22
432.05	8.24
432.255	8.16
432.46	8.26
432.665	8.2
432.87	7.97
433.076	7.93
433.281	7.83
433.486	8.01
433.691	8.12
433.896	8.08
434.101	7.97
434.306	8.22
434.511	8.22
434.716	7.88
434.921	7.73
435.126	7.82
435.331	7.93
435.535	8.04
435.74	7.83
435.945	7.85
436.15	7.86
436.355	7.72
436.56	7.5
436.765	7.49
436.97	7.66
437.174	7.74
437.379	7.75
437.584	7.9
437.789	7.9
437.993	8.13
438.198	8.17
438.403	8.17
438.608	8.1
438.812	8.01
439.017	7.98
439.222	7.93
439.426	7.78
439.631	7.75
439.836	7.51
440.04	7.35
440.245	7.29
440.45	7.24
440.654	7.29
440.859	7.59
441.063	7.49
441.268	7.63
441.472	7.75
441.677	7.82
441.881	7.66
442.086	7.65
442.29	7.91
442.495	7.77
442.699	7.75
442.904	7.6
443.108	7.21
443.312	7.22
443.517	7.07
443.721	7.17
443.925	7.22
444.13	7.42
444.334	7.77
444.538	7.54
444.743	7.53
444.947	7.5
445.151	7.67
445.356	8.02
445.56	8.31
445.764	8.06
445.968	7.82
446.173	7.9
446.377	7.74
446.581	7.5
446.785	7.56
446.989	7.65
447.193	7.53
447.398	7.35
447.602	7.13
447.806	6.98
448.01	7.1
448.214	7.07
448.418	6.92
448.622	6.91
448.826	7.01
449.03	6.9
449.234	6.77
449.438	6.87
449.642	7.23
449.846	7.34
450.05	7.34
450.254	7.67
450.458	7.74
450.662	7.85
450.866	7.8
451.069	7.79
451.273	7.75
451.477	7.97
451.681	7.97
451.885	7.63
452.089	7.52
452.292	7.52
452.496	7.29
452.7	7.33
452.904	7.34
453.107	7.4
453.311	7.23
453.515	7.15
453.719	7.09
453.922	7.25
454.126	7.55
454.33	7.48
454.533	7.5
454.737	7.27
454.94	7.23
455.144	7.05
455.348	7.02
455.551	7.06
455.755	7.21
455.958	7.15
456.162	7.17
456.365	6.69
456.569	6.75
456.772	6.55
456.976	6.93
457.179	6.96
457.383	7.09
457.586	7.23
457.79	7.53
457.993	7.55
458.196	7.35
458.4	7.27
458.603	7.73
