Data from 2937898_Reflection_1.txt Node
Date: Wed Jul 15 13:46:37 EDT 2015
User: robert
Spectrometer: USB4E03001
Autoset integration time: false
Trigger mode: 4
Integration Time (sec): 1.000000E-1
Scans to average: 10
Electric dark correction enabled: true
Nonlinearity correction enabled: false
Boxcar width: 5
Stray light correction enabled: false
XAxis mode: Wavelengths
Stop averaging: false
Number of Pixels in Spectrum: 3648
>>>>>Begin Spectral Data<<<<<
177.566	42.23
177.785	3.81
178.005	23.39
178.225	39.79
178.445	102.25
178.665	107.09
178.885	152.42
179.105	109.42
179.324	91.44
179.544	48.61
179.764	-8.79
179.984	-99.33
180.204	-248.69
180.423	-161.25
180.643	-195.4
180.863	-239.93
181.083	-349.85
181.302	-113.92
181.522	-141.94
181.742	-43.51
181.961	-55.58
182.181	-505.41
182.401	-270.75
182.621	-1313.51
182.84	338.12
183.06	-1462.61
183.279	572.52
183.499	172.26
183.719	131
183.938	-816.41
184.158	76.57
184.377	103.32
184.597	-119.9
184.816	84.16
185.036	36.77
185.256	75.13
185.475	237.88
185.695	138.93
185.914	176.86
186.134	157.14
186.353	358.8
186.572	431.15
186.792	656.02
187.011	515.23
187.231	648.45
187.45	331.29
187.67	311.61
187.889	285.2
188.108	14252.08
188.328	243.27
188.547	216.82
188.766	260.31
188.986	268.65
189.205	207.81
189.424	177.95
189.644	375.77
189.863	356.13
190.082	823.05
190.302	493.75
190.521	33.13
190.74	150.72
190.959	355.94
191.178	42.42
191.398	51.7
191.617	66.35
191.836	-30.04
192.055	58.96
192.274	44.43
192.494	29.63
192.713	25.93
192.932	17.94
193.151	14.44
193.37	11.88
193.589	6.86
193.808	1.59
194.027	-38.05
194.246	-44.24
194.465	-219.86
194.685	-436.44
194.904	2492.67
195.123	437.32
195.342	305.98
195.561	385.44
195.78	203.32
195.999	152.07
196.218	101.93
196.436	53.4
196.655	-26.11
196.874	-48.18
197.093	-10.25
197.312	-1871.05
197.531	-158.58
197.75	-145.81
197.969	-145.24
198.188	-105.15
198.407	-63.77
198.625	-125.86
198.844	103.7
199.063	51.66
199.282	16.97
199.501	72.91
199.719	2281.25
199.938	283.83
200.157	2340.54
200.376	6677.78
200.594	612.1
200.813	-108.75
201.032	-88.13
201.251	274.24
201.469	-135.59
201.688	-66.82
201.907	-69.24
202.125	-69.83
202.344	-17.24
202.563	2.33
202.781	4.17
203	2.79
203.218	9.16
203.437	-0.5
203.656	-0.26
203.874	22.72
204.093	34.17
204.311	90.75
204.53	-54.37
204.748	21.34
204.967	125.35
205.185	-473.86
205.404	114.79
205.622	-34.72
205.841	58.76
206.059	115.03
206.278	29.04
206.496	-121.89
206.715	1438.82
206.933	-240.18
207.151	-4.92
207.37	-15.62
207.588	293.17
207.806	322.22
208.025	-226.82
208.243	-28.34
208.461	80.6
208.68	40.98
208.898	297.14
209.116	-414.63
209.335	-411.99
209.553	-119.65
209.771	-177.61
209.989	-403.93
210.208	963.35
210.426	-1442.61
210.644	-2503.14
210.862	-130.6
211.081	-166.21
211.299	27.17
211.517	114.26
211.735	115.83
211.953	-30.44
212.171	-165.95
212.39	-37125
212.608	102.57
212.826	-199.26
213.044	-88.85
213.262	191
213.48	-34.31
213.698	41
213.916	19.86
214.134	-11.14
214.352	14.83
214.57	9.12
214.788	27.34
215.006	13.38
215.224	-19.99
215.442	-35.14
215.66	15.55
215.878	16.86
216.096	-97.8
216.314	-242.24
216.532	-44.95
216.75	-69.18
216.968	-122.39
217.185	-314.39
217.403	-86.86
217.621	-46.96
217.839	-48.77
218.057	-205.64
218.275	-309.74
218.492	-85.7
218.71	-125.94
218.928	-352.47
219.146	-1085.45
219.363	-472.52
219.581	-831.41
219.799	72111.11
220.017	1506.67
220.234	-1383.71
220.452	-354.6
220.67	-92.44
220.887	-43.7
221.105	-9.36
221.323	-116.11
221.54	-72.23
221.758	8.8
221.976	39.88
222.193	31.42
222.411	98.52
222.629	52.93
222.846	55.08
223.064	48.82
223.281	45.04
223.499	42.22
223.716	48.48
223.934	59.44
224.151	60.79
224.369	52.82
224.586	42.87
224.804	30.84
225.021	43.96
225.239	40.09
225.456	8.98
225.674	-0.66
225.891	11.95
226.108	12.31
226.326	10.49
226.543	2.76
226.76	-3.95
226.978	-4.25
227.195	6.5
227.413	-11.64
227.63	-14.84
227.847	0.81
228.064	0.37
228.282	-3.15
228.499	3.09
228.716	4.73
228.934	7.54
229.151	11.87
229.368	12.62
229.585	9.49
229.802	11.79
230.02	14.19
230.237	14.77
230.454	15.34
230.671	14.88
230.888	16.33
231.105	13.61
231.323	9.19
231.54	8.42
231.757	3.43
231.974	9.43
232.191	10.35
232.408	4.93
232.625	3.75
232.842	8.08
233.059	5.45
233.276	-4.87
233.493	-2.77
233.71	1.92
233.927	1.69
234.144	5.87
234.361	2.25
234.578	-1.75
234.795	4.53
235.012	4.75
235.229	10.53
235.446	10.42
235.663	10.89
235.879	8.43
236.096	5.25
236.313	-0.91
236.53	1.55
236.747	4.15
236.964	5.03
237.181	2.36
237.397	4.87
237.614	0.57
237.831	7.01
238.048	7.78
238.264	10.03
238.481	14.51
238.698	16.57
238.915	12.97
239.131	23.79
239.348	20.68
239.565	22.93
239.781	19.3
239.998	17.29
240.215	13.25
240.431	19.94
240.648	21.75
240.865	18.92
241.081	19.82
241.298	18.57
241.514	15.21
241.731	18.18
241.947	16.27
242.164	17.5
242.38	17.94
242.597	20.84
242.814	18.19
243.03	17.15
243.246	18.02
243.463	16.87
243.679	18.9
243.896	18.89
244.112	16.62
244.329	15.23
244.545	13.54
244.762	11.45
244.978	7.24
245.194	7.14
245.411	9.81
245.627	10.6
245.843	10.35
246.06	9.83
246.276	9.42
246.492	10.52
246.709	12.52
246.925	12.37
247.141	13.15
247.357	12.75
247.574	12.2
247.79	12.3
248.006	12.22
248.222	14.02
248.439	12.66
248.655	12.85
248.871	13.89
249.087	13.05
249.303	12.36
249.519	11.68
249.736	12.59
249.952	12.32
250.168	9.8
250.384	9.51
250.6	4.94
250.816	5.92
251.032	4.31
251.248	4.43
251.464	5
251.68	8.33
251.896	9.04
252.112	8.96
252.328	12.42
252.544	14.53
252.76	12.31
252.976	12.58
253.192	12.98
253.408	12.56
253.624	11.46
253.84	11.52
254.056	10.75
254.272	10.19
254.487	8.67
254.703	6.82
254.919	5.06
255.135	9.47
255.351	10.4
255.567	10.59
255.782	13.58
255.998	12.59
256.214	10.52
256.43	8.57
256.646	11.56
256.861	12.7
257.077	9.49
257.293	6.41
257.508	5.02
257.724	5.42
257.94	7.19
258.155	5.45
258.371	6.89
258.587	8.45
258.802	9.52
259.018	9.52
259.234	10.72
259.449	11.7
259.665	11.7
259.88	12.11
260.096	12.61
260.312	11.68
260.527	11.8
260.743	11.12
260.958	10.51
261.174	10.33
261.389	9.44
261.605	7.47
261.82	7.1
262.036	7.49
262.251	6.84
262.466	6.04
262.682	7.17
262.897	7.81
263.113	8.43
263.328	8.75
263.543	6.78
263.759	6.53
263.974	8.65
264.189	6.19
264.405	5.66
264.62	6.11
264.835	6.84
265.051	6.01
265.266	6.45
265.481	7.45
265.696	8.59
265.912	10.42
266.127	11.36
266.342	12.13
266.557	13.3
266.773	12.94
266.988	13.17
267.203	13.06
267.418	14.43
267.633	13.32
267.848	13.48
268.064	12.46
268.279	13.31
268.494	11.85
268.709	11.43
268.924	12.3
269.139	12.1
269.354	11.1
269.569	9.63
269.784	8.89
269.999	8.52
270.214	6.57
270.429	6.63
270.644	6.9
270.859	9.4
271.074	9.46
271.289	7.78
271.504	8.36
271.719	7.49
271.934	8.15
272.149	6.92
272.363	8.23
272.578	9.07
272.793	9.67
273.008	7.56
273.223	5.25
273.438	5.97
273.653	5.54
273.867	4.37
274.082	6.36
274.297	6.51
274.512	7.93
274.726	6.88
274.941	7.67
275.156	6.51
275.371	7.68
275.585	9.7
275.8	8.34
276.015	9.62
276.229	11.91
276.444	9.27
276.659	8.59
276.873	7.73
277.088	5.97
277.302	5.62
277.517	8.15
277.732	9.77
277.946	8.42
278.161	7.2
278.375	5.72
278.59	4.39
278.804	4.85
279.019	6.04
279.233	6.68
279.448	8.91
279.662	8.95
279.877	6.95
280.091	5.14
280.306	6.51
280.52	9.03
280.735	9.37
280.949	10.36
281.163	10.67
281.378	10.66
281.592	11.09
281.806	10.81
282.021	9.58
282.235	10.6
282.449	10.65
282.664	11.03
282.878	10.12
283.092	11.75
283.307	10.79
283.521	11.48
283.735	10.65
283.949	9.31
284.164	10.82
284.378	11.32
284.592	11.12
284.806	12.09
285.02	10
285.234	9.56
285.449	8.26
285.663	8.63
285.877	7.25
286.091	7.5
286.305	8.7
286.519	8.06
286.733	8.99
286.947	8.06
287.161	8.4
287.375	10.54
287.589	11.99
287.803	12.06
288.017	10.39
288.231	11.74
288.445	12.88
288.659	12.36
288.873	10.66
289.087	10.56
289.301	9.87
289.515	9.53
289.729	7.67
289.943	7.1
290.157	8.49
290.371	11.86
290.584	11.2
290.798	9.29
291.012	9.25
291.226	9.93
291.44	8.31
291.654	8.87
291.867	6.96
292.081	7.76
292.295	7.51
292.509	7.14
292.722	4.8
292.936	6.23
293.15	6.88
293.364	7.06
293.577	7.99
293.791	10.06
294.005	10.57
294.218	13.02
294.432	13.62
294.645	13.32
294.859	12.35
295.073	12.73
295.286	12.34
295.5	13.61
295.713	12.62
295.927	13.82
296.14	12.66
296.354	12.71
296.568	12.18
296.781	11.61
296.994	12.08
297.208	12.45
297.421	13.09
297.635	12.83
297.848	11.17
298.062	11.31
298.275	8.56
298.489	9.08
298.702	8.64
298.915	8.75
299.129	8.78
299.342	9.31
299.555	8.6
299.769	6.78
299.982	7.42
300.195	9.89
300.409	10.16
300.622	12.09
300.835	11.94
301.048	12.9
301.262	12.56
301.475	11.08
301.688	8.73
301.901	10.37
302.115	10.26
302.328	9.75
302.541	7.48
302.754	8.5
302.967	8.68
303.18	7.48
303.393	7.98
303.607	5.97
303.82	6.96
304.033	8.66
304.246	7.36
304.459	8.86
304.672	8.55
304.885	8.62
305.098	8.86
305.311	9.61
305.524	9.37
305.737	9.86
305.95	13.75
306.163	14.24
306.376	13.61
306.589	13.56
306.802	13.03
307.015	13.18
307.228	14.25
307.44	13.64
307.653	12.96
307.866	13.62
308.079	13.36
308.292	12.47
308.505	12.58
308.718	13.55
308.93	12.63
309.143	12.32
309.356	12.14
309.569	11.51
309.781	11.36
309.994	10.68
310.207	10.9
310.42	9.58
310.632	9.74
310.845	9.12
311.058	8.75
311.27	10.23
311.483	10.47
311.696	11.1
311.908	10.09
312.121	9.53
312.333	11.24
312.546	11.08
312.759	11.5
312.971	11.24
313.184	11.5
313.396	10.74
313.609	8.6
313.821	7.81
314.034	6.23
314.246	7.55
314.459	7.82
314.671	6.56
314.884	6.27
315.096	4.85
315.309	3.88
315.521	5.01
315.733	5.03
315.946	6.92
316.158	8.61
316.371	7.23
316.583	6.02
316.795	7.11
317.008	6.48
317.22	7.47
317.432	8.24
317.644	7.65
317.857	5.9
318.069	5.18
318.281	4.9
318.494	4.81
318.706	5.75
318.918	7.02
319.13	7.25
319.342	7.07
319.555	5.68
319.767	8.1
319.979	7.54
320.191	9.75
320.403	11.26
320.615	12.79
320.827	11.56
321.039	13.85
321.252	13.95
321.464	12.83
321.676	13.29
321.888	13.98
322.1	13.89
322.312	15.66
322.524	15.52
322.736	14.43
322.948	12.17
323.16	11.62
323.372	11.23
323.584	10.67
323.796	11.08
324.007	10.83
324.219	11.86
324.431	11.25
324.643	10.16
324.855	8.43
325.067	9.18
325.279	11.24
325.491	11.13
325.702	10.19
325.914	10.45
326.126	10.42
326.338	9.45
326.55	7.33
326.761	7.05
326.973	7.98
327.185	10.26
327.396	10.18
327.608	6.8
327.82	7.58
328.032	7.2
328.243	7.33
328.455	7.36
328.666	10.41
328.878	11.48
329.09	12.49
329.301	10.83
329.513	9.62
329.725	10.39
329.936	12.95
330.148	13.9
330.359	14.81
330.571	16.52
330.782	16.61
330.994	15.73
331.205	16.6
331.417	16.1
331.628	18.23
331.84	19.23
332.051	19.32
332.262	19.75
332.474	18.47
332.685	18.35
332.897	18.02
333.108	17.82
333.319	16.71
333.531	16.26
333.742	16.2
333.953	15.58
334.165	14.89
334.376	12.91
334.587	12.88
334.799	12.31
335.01	12.24
335.221	9.93
335.432	9.59
335.644	10.76
335.855	9.82
336.066	8.72
336.277	9.05
336.488	9.06
336.7	10.08
336.911	8.94
337.122	9.84
337.333	9.95
337.544	10.86
337.755	11.24
337.966	10.75
338.177	11.34
338.388	12.33
338.599	12.5
338.811	12.78
339.022	12.73
339.233	13.11
339.444	13.54
339.655	13.94
339.866	14.63
340.076	13.37
340.287	13.67
340.498	14.85
340.709	13.45
340.92	12.96
341.131	11.21
341.342	11.48
341.553	11.65
341.764	11.08
341.975	10.33
342.185	9.25
342.396	10.38
342.607	10.77
342.818	9.44
343.029	10.26
343.239	10.59
343.45	11.1
343.661	11.22
343.872	10.96
344.082	10.98
344.293	10.58
344.504	12.77
344.714	13.53
344.925	12.01
345.136	12.32
345.346	12.68
345.557	12.89
345.768	13.29
345.978	12.47
346.189	13.04
346.399	12.76
346.61	14.69
346.821	13
347.031	11.59
347.242	11.89
347.452	11.58
347.663	11.1
347.873	10.13
348.084	9.76
348.294	9.62
348.504	8.58
348.715	8.56
348.925	6.69
349.136	7.68
349.346	9.09
349.557	9.55
349.767	9.62
349.977	9.97
350.188	11.02
350.398	12.32
350.608	12.75
350.819	12.78
351.029	13.01
351.239	13.96
351.449	13.21
351.66	11.58
351.87	11.54
352.08	10.74
352.29	11.83
352.501	10.59
352.711	10.09
352.921	10.68
353.131	10.58
353.341	9.73
353.552	9.21
353.762	9.08
353.972	10.8
354.182	10.73
354.392	11.93
354.602	11.1
354.812	11.85
355.022	11.15
355.232	9.53
355.442	11.18
355.652	11.64
355.862	11.6
356.072	11.97
356.282	11.21
356.492	10.09
356.702	10.59
356.912	10.49
357.122	9.57
357.332	9.22
357.542	9.89
357.752	8.86
357.962	8.93
358.171	8.74
358.381	8.41
358.591	8.98
358.801	9.88
359.011	9.42
359.221	8.93
359.43	9.18
359.64	10.08
359.85	9.51
360.06	8.63
360.269	8.27
360.479	8.65
360.689	9.46
360.899	9.15
361.108	9.26
361.318	9.94
361.528	9.77
361.737	10.46
361.947	9.82
362.156	10.45
362.366	11.32
362.576	11.59
362.785	11.02
362.995	11.15
363.204	11.33
363.414	11.59
363.623	11.46
363.833	11.71
364.042	11.29
364.252	12.08
364.461	11.86
364.671	11.71
364.88	12.4
365.09	13.24
365.299	11.8
365.509	12.33
365.718	11.9
365.927	11.44
366.137	11.72
366.346	11.79
366.555	10.86
366.765	11.18
366.974	11.09
367.183	11.05
367.393	10.59
367.602	11.66
367.811	11.09
368.021	11.39
368.23	10.79
368.439	10.2
368.648	9.97
368.857	10.04
369.067	10.12
369.276	9.9
369.485	9.38
369.694	9.46
369.903	8.83
370.112	8.58
370.321	7.79
370.531	7.77
370.74	8.14
370.949	8.29
371.158	8.44
371.367	8.14
371.576	8.71
371.785	8.07
371.994	8.58
372.203	8.99
372.412	9.43
372.621	9.75
372.83	9.91
373.039	9.99
373.248	9.43
373.457	9.7
373.666	9.47
373.874	9.85
374.083	10.44
374.292	9.67
374.501	9.66
374.71	8.52
374.919	8.03
375.128	8.82
375.336	8.7
375.545	8.59
375.754	8.81
375.963	8.19
376.171	7.64
376.38	8.4
376.589	8.11
376.798	7.62
377.006	8.91
377.215	9.34
377.424	8.83
377.632	8.6
377.841	8.71
378.05	8.16
378.258	9.06
378.467	8.91
378.675	8.11
378.884	8.34
379.093	8.48
379.301	7.29
379.51	7.28
379.718	7.6
379.927	8.34
380.135	7.97
380.344	7.77
380.552	7.96
380.761	8.2
380.969	7.85
381.177	8.44
381.386	8.25
381.594	8.69
381.803	8.39
382.011	7.85
382.219	7.53
382.428	7.82
382.636	7.8
382.845	7.3
383.053	7.03
383.261	7.69
383.469	7.15
383.678	7.67
383.886	7.13
384.094	7.17
384.302	6.93
384.511	5.95
384.719	6.27
384.927	6.49
385.135	6.52
385.343	6.46
385.552	5.94
385.76	6.21
385.968	6.13
386.176	6.48
386.384	6.53
386.592	6.43
386.8	7.02
387.008	6.68
387.216	6.76
387.424	6.42
387.633	6.63
387.841	6.65
388.049	6.47
388.257	5.98
388.465	6.18
388.672	6.69
388.88	6.54
389.088	6.08
389.296	6.28
389.504	5.61
389.712	5.61
389.92	5.28
390.128	5.01
390.336	4.53
390.544	4.95
390.751	4.28
390.959	3.83
391.167	4.36
391.375	4.67
391.583	4.5
391.79	5.08
391.998	5.22
392.206	4.94
392.414	5.1
392.621	5.37
392.829	5.33
393.037	5.55
393.244	5.28
393.452	5.16
393.66	5.11
393.867	4.9
394.075	4.79
394.283	4.93
394.49	5.38
394.698	5.36
394.905	5.32
395.113	4.87
395.32	5.2
395.528	5.4
395.735	5.37
395.943	5.49
396.15	5.75
396.358	5.56
396.565	5.1
396.773	4.95
396.98	5.03
397.188	5.48
397.395	5.62
397.602	5.17
397.81	5.32
398.017	5.38
398.225	5.52
398.432	5.67
398.639	5.9
398.847	6.35
399.054	6.33
399.261	6.37
399.468	5.7
399.676	5.7
399.883	5.81
400.09	5.73
400.297	5.37
400.505	5.67
400.712	5.5
400.919	5.7
401.126	5.37
401.333	5.29
401.54	5.3
401.748	5.7
401.955	5.21
402.162	5.21
402.369	5.02
402.576	5.16
402.783	4.56
402.99	4.75
403.197	4.1
403.404	4.13
403.611	3.89
403.818	3.79
404.025	3.71
404.232	4.15
404.439	4.17
404.646	4.25
404.853	4.44
405.06	4.38
405.267	4.53
405.474	5.1
405.681	5.28
405.887	5.79
406.094	5.87
406.301	5.88
406.508	6.13
406.715	6.23
406.922	6.3
407.128	5.93
407.335	6.23
407.542	6.14
407.749	6.18
407.955	6.06
408.162	5.98
408.369	5.71
408.575	5.59
408.782	5.37
408.989	5.3
409.195	4.89
409.402	5.15
409.609	4.86
409.815	4.75
410.022	4.44
410.228	4.26
410.435	3.94
410.642	4.03
410.848	4.32
411.055	4.34
411.261	4.36
411.468	4.39
411.674	4.02
411.881	3.88
412.087	3.75
412.294	3.84
412.5	3.89
412.706	4.22
412.913	4.29
413.119	4.42
413.326	3.93
413.532	3.78
413.738	4.04
413.945	4.42
414.151	4.61
414.357	4.57
414.564	4.48
414.77	4.29
414.976	4.15
415.182	4.25
415.389	4.11
415.595	4.22
415.801	4.17
416.007	3.96
416.214	3.72
416.42	3.73
416.626	3.92
416.832	4.07
417.038	4.21
417.244	4.06
417.45	4.07
417.657	4.19
417.863	4.16
418.069	4.34
418.275	4.47
418.481	4.31
418.687	4.35
418.893	4.19
419.099	4.01
419.305	4.27
419.511	4.3
419.717	4.09
419.923	3.95
420.129	4.09
420.335	3.96
420.541	3.93
420.746	4.11
420.952	4.24
421.158	4.22
421.364	4.33
421.57	4.09
421.776	4.1
421.982	4.37
422.187	4.45
422.393	4.51
422.599	4.56
422.805	4.63
423.01	4.66
423.216	4.55
423.422	4.55
423.628	4.51
423.833	4.59
424.039	4.68
424.245	4.37
424.45	4.32
424.656	4.28
424.862	4.33
425.067	4.3
425.273	4.2
425.478	4.09
425.684	4.16
425.889	4.17
426.095	4.18
426.301	4.03
426.506	4.21
426.712	4.13
426.917	4.07
427.123	3.94
427.328	3.99
427.533	4.14
427.739	4.41
427.944	4.33
428.15	4.28
428.355	4.2
428.561	4.32
428.766	4.28
428.971	4.18
429.177	4.38
429.382	4.47
429.587	4.44
429.793	4.41
429.998	4.21
430.203	4.09
430.408	4.14
430.614	4
430.819	4.04
431.024	4.05
431.229	4.3
431.434	4.14
431.64	3.93
431.845	3.88
432.05	3.82
432.255	3.88
432.46	4.08
432.665	4.13
432.87	4.16
433.076	4.08
433.281	4.01
433.486	4.09
433.691	4.23
433.896	4.32
434.101	4.33
434.306	4.36
434.511	4.18
434.716	4.08
434.921	3.9
435.126	4.1
435.331	4.08
435.535	4.1
435.74	3.85
435.945	3.75
436.15	3.8
436.355	3.69
436.56	3.91
436.765	4.02
436.97	4.03
437.174	3.96
437.379	3.88
437.584	3.98
437.789	4.02
437.993	3.94
438.198	3.83
438.403	3.86
438.608	3.97
438.812	3.81
439.017	3.78
439.222	3.79
439.426	3.88
439.631	3.98
439.836	3.9
440.04	3.91
440.245	4.08
440.45	4.06
440.654	4.08
440.859	4.08
441.063	4.02
441.268	4.12
441.472	3.95
441.677	4.1
441.881	3.93
442.086	4.06
442.29	4.05
442.495	4.02
442.699	4.08
442.904	4.1
443.108	4.1
443.312	4.11
443.517	3.89
443.721	4.03
443.925	3.66
444.13	3.75
444.334	3.68
444.538	3.7
444.743	3.62
444.947	3.65
445.151	3.5
445.356	3.55
445.56	3.48
445.764	3.64
445.968	3.64
446.173	3.68
446.377	3.72
446.581	3.63
446.785	3.67
446.989	3.8
447.193	3.81
447.398	3.86
447.602	3.9
447.806	4.01
448.01	4.14
448.214	4.16
448.418	4.26
448.622	4.16
448.826	4.32
449.03	4.25
449.234	4.13
449.438	4.18
449.642	4.13
449.846	3.91
450.05	3.79
450.254	3.71
450.458	3.76
450.662	3.87
450.866	3.82
451.069	3.61
451.273	3.57
451.477	3.61
451.681	3.52
451.885	3.65
452.089	3.73
452.292	3.92
452.496	3.81
452.7	3.84
452.904	3.87
453.107	3.94
453.311	4.04
453.515	4.15
453.719	4.2
453.922	4.29
454.126	4.28
454.33	4.04
454.533	3.97
454.737	3.95
454.94	3.95
455.144	4.03
455.348	3.93
455.551	3.83
455.755	3.65
455.958	3.47
456.162	3.24
456.365	3.35
456.569	3.75
456.772	3.86
456.976	3.79
457.179	3.7
457.383	3.44
457.586	3.57
457.79	3.77
457.993	3.79
458.196	4.01
458.4	4.29
458.603	4.12
458.807	3.99
459.01	3.96
459.213	4.11
459.417	4.12
459.62	4.08
459.823	4.05
460.026	3.9
460.23	3.95
460.433	3.8
460.636	3.68
460.839	3.72
461.042	3.81
461.246	3.72
461.449	3.73
461.652	3.71
461.855	3.88
462.058	3.87
462.261	3.79
462.464	3.75
462.668	3.87
462.871	3.74
463.074	3.67
463.277	3.55
463.48	3.49
463.683	3.33
463.886	3.25
464.089	3.23
464.292	3.4
464.495	3.63
464.698	3.67
464.901	3.54
