Data from 2937893_Reflection_2.txt Node
Date: Wed Jul 15 14:00:11 EDT 2015
User: robert
Spectrometer: USB4E03001
Autoset integration time: false
Trigger mode: 4
Integration Time (sec): 1.000000E-1
Scans to average: 10
Electric dark correction enabled: true
Nonlinearity correction enabled: false
Boxcar width: 5
Stray light correction enabled: false
XAxis mode: Wavelengths
Stop averaging: false
Number of Pixels in Spectrum: 3648
>>>>>Begin Spectral Data<<<<<
177.566	638.58
177.785	205.47
178.005	781.84
178.225	-313.68
178.445	495.96
178.665	231.2
178.885	728.57
179.105	32.48
179.324	100.03
179.544	117.86
179.764	171.05
179.984	175.38
180.204	122.01
180.423	167.42
180.643	222.69
180.863	171.7
181.083	148.76
181.302	177.87
181.522	214.74
181.742	463.98
181.961	-73.61
182.181	189.54
182.401	95.4
182.621	14.03
182.84	266.99
183.06	123.36
183.279	423.74
183.499	589.5
183.719	-46.93
183.938	15.17
184.158	-2.02
184.377	35.5
184.597	71.83
184.816	26.33
185.036	-26.99
185.256	1.48
185.475	10.12
185.695	17.29
185.914	21.01
186.134	50.42
186.353	17.24
186.572	7.24
186.792	-12.58
187.011	-73.3
187.231	38.15
187.45	79.47
187.67	68.36
187.889	124.67
188.108	107.05
188.328	98.43
188.547	-15.01
188.766	9.26
188.986	-31.04
189.205	6.73
189.424	-17.6
189.644	-31.99
189.863	-37.4
190.082	-23.16
190.302	-19.41
190.521	-26.21
190.74	-32.85
190.959	-60.42
191.178	-46.08
191.398	-1.93
191.617	-5.99
191.836	4.13
192.055	11.62
192.274	90.31
192.494	131.47
192.713	113.52
192.932	129.1
193.151	125.71
193.37	100.01
193.589	103.74
193.808	101.45
194.027	85.28
194.246	156.71
194.465	180.96
194.685	174.93
194.904	158.37
195.123	166.32
195.342	143.18
195.561	90.27
195.78	105.56
195.999	81.3
196.218	62.04
196.436	34.96
196.655	49.14
196.874	24.66
197.093	20.34
197.312	22.68
197.531	-1.04
197.75	0.66
197.969	17.52
198.188	5.02
198.407	9.52
198.625	28.81
198.844	36.42
199.063	-5.55
199.282	4.62
199.501	-7.21
199.719	-70.4
199.938	-61.79
200.157	-16.6
200.376	17.16
200.594	37.72
200.813	24.52
201.032	-12.39
201.251	-19.89
201.469	14.3
201.688	43.35
201.907	41.29
202.125	59.48
202.344	59.76
202.563	54.31
202.781	39.34
203	31.99
203.218	30.79
203.437	26.43
203.656	29.36
203.874	11.57
204.093	-29.38
204.311	-85.1
204.53	-103.67
204.748	-17.09
204.967	-86.1
205.185	-14.73
205.404	254.86
205.622	496.13
205.841	131.92
206.059	177.57
206.278	2309.3
206.496	271.14
206.715	-296.66
206.933	203.32
207.151	220.86
207.37	-5.89
207.588	-349.56
207.806	85.3
208.025	75.55
208.243	83.79
208.461	119.9
208.68	61.29
208.898	52.43
209.116	48.45
209.335	67.03
209.553	45.55
209.771	56.73
209.989	46.79
210.208	36.29
210.426	36.59
210.644	26.38
210.862	57.93
211.081	49.78
211.299	59.95
211.517	40.68
211.735	43.96
211.953	64.08
212.171	37.63
212.39	38.36
212.608	31.63
212.826	35.04
213.044	31.66
213.262	-8.96
213.48	-4.54
213.698	-2.14
213.916	7.07
214.134	-2.48
214.352	-32.43
214.57	-3.47
214.788	-27.94
215.006	-76.27
215.224	-68.3
215.442	-81.37
215.66	-43.73
215.878	-39.77
216.096	-69.28
216.314	-78
216.532	-35.34
216.75	-12.63
216.968	-13.92
217.185	-32.21
217.403	-16.33
217.621	17.66
217.839	29.52
218.057	10.98
218.275	28.18
218.492	10.1
218.71	0.28
218.928	-8.51
219.146	-29.28
219.363	-15.7
219.581	14.85
219.799	15.13
220.017	-7.33
220.234	-9.68
220.452	-1.7
220.67	8.11
220.887	34.09
221.105	38.89
221.323	40.01
221.54	35.36
221.758	31.25
221.976	34.21
222.193	31.33
222.411	32.06
222.629	27.37
222.846	45.34
223.064	35.94
223.281	30.4
223.499	15.5
223.716	21.32
223.934	25.93
224.151	20.62
224.369	15.37
224.586	26.8
224.804	28.63
225.021	28.6
225.239	14.94
225.456	24.25
225.674	27.34
225.891	39.87
226.108	27.1
226.326	31.18
226.543	31.68
226.76	31.54
226.978	29.65
227.195	23.32
227.413	18.71
227.63	18.16
227.847	13.44
228.064	12.98
228.282	13
228.499	12.79
228.716	9.76
228.934	7.81
229.151	10.71
229.368	10.4
229.585	14.05
229.802	14.47
230.02	14.41
230.237	15.16
230.454	13.33
230.671	13.72
230.888	15.92
231.105	19.17
231.323	22.96
231.54	22.45
231.757	20.05
231.974	15.95
232.191	18.59
232.408	16.27
232.625	16.17
232.842	19.44
233.059	18.78
233.276	19.49
233.493	14.53
233.71	11.18
233.927	3.74
234.144	3.64
234.361	6.78
234.578	13.19
234.795	16.55
235.012	21.83
235.229	15.86
235.446	18.7
235.663	21.22
235.879	22.35
236.096	21.37
236.313	21.8
236.53	24.68
236.747	15.46
236.964	4.96
237.181	8.35
237.397	-0.5
237.614	2.43
237.831	-0.86
238.048	-4.68
238.264	-0.67
238.481	3.04
238.698	6.42
238.915	12.43
239.131	12.85
239.348	14.79
239.565	12.78
239.781	13.61
239.998	10.92
240.215	11.44
240.431	9.17
240.648	7.38
240.865	5.8
241.081	5.14
241.298	4.03
241.514	9.4
241.731	10.75
241.947	9.81
242.164	10.44
242.38	15.03
242.597	14.09
242.814	16.08
243.03	17.03
243.246	17.05
243.463	15.33
243.679	17.39
243.896	16.89
244.112	16.53
244.329	18.59
244.545	19.38
244.762	15.62
244.978	15.69
245.194	16.25
245.411	15.13
245.627	15.25
245.843	18.66
246.06	16.96
246.276	15.9
246.492	14.57
246.709	14.64
246.925	14.06
247.141	14.15
247.357	14.75
247.574	14.32
247.79	14.21
248.006	13.22
248.222	12.76
248.439	11.29
248.655	11.54
248.871	12.46
249.087	10.74
249.303	10.81
249.519	9.99
249.736	9.3
249.952	7.47
250.168	8.26
250.384	10.81
250.6	10.94
250.816	12.93
251.032	12.9
251.248	14.12
251.464	16.56
251.68	15.09
251.896	16.38
252.112	15.53
252.328	16.79
252.544	16.5
252.76	16.52
252.976	13.91
253.192	13.85
253.408	14.05
253.624	15
253.84	12.96
254.056	16.25
254.272	17.26
254.487	20.33
254.703	20.91
254.919	19.18
255.135	19.29
255.351	18.07
255.567	15.67
255.782	16.41
255.998	10.64
256.214	14.67
256.43	12.44
256.646	12.8
256.861	11.71
257.077	12.04
257.293	10.73
257.508	12.18
257.724	13.34
257.94	14.07
258.155	14.17
258.371	13.95
258.587	13.71
258.802	13.97
259.018	12.87
259.234	12.19
259.449	12.28
259.665	12.88
259.88	11.95
260.096	12.38
260.312	12.37
260.527	11.84
260.743	12.69
260.958	11.8
261.174	11.75
261.389	11.88
261.605	12.49
261.82	11.67
262.036	12.07
262.251	11.24
262.466	10.55
262.682	10.92
262.897	10.44
263.113	10.32
263.328	9.24
263.543	8.53
263.759	8
263.974	5.21
264.189	6.2
264.405	2.41
264.62	5.31
264.835	6.61
265.051	6.78
265.266	6.99
265.481	6.53
265.696	8.65
265.912	7.18
266.127	6.73
266.342	6.87
266.557	8.4
266.773	8.96
266.988	8
267.203	10.37
267.418	9.08
267.633	8.69
267.848	8.51
268.064	9.71
268.279	11.64
268.494	11.68
268.709	12
268.924	10.36
269.139	11.1
269.354	10.78
269.569	9.01
269.784	10.34
269.999	13.07
270.214	13.06
270.429	11.6
270.644	10.66
270.859	10.78
271.074	10.57
271.289	12.02
271.504	13.01
271.719	14.22
271.934	14.21
272.149	13.93
272.363	12.8
272.578	13.25
272.793	14.63
273.008	15.53
273.223	16.79
273.438	17.14
273.653	16.63
273.867	15.9
274.082	15.86
274.297	16.17
274.512	14.96
274.726	13.73
274.941	11.97
275.156	10.47
275.371	9.38
275.585	6.61
275.8	6.67
276.015	5.23
276.229	5.35
276.444	5.42
276.659	3.51
276.873	4.59
277.088	7.15
277.302	6.93
277.517	7.35
277.732	6.78
277.946	8.88
278.161	10.12
278.375	12.38
278.59	11.52
278.804	10.14
279.019	13.3
279.233	14.21
279.448	12.1
279.662	12.33
279.877	12.87
280.091	11.26
280.306	10.64
280.52	8.73
280.735	8.29
280.949	10.47
281.163	10.05
281.378	9.23
281.592	8.08
281.806	9.32
282.021	9.17
282.235	10.28
282.449	13.04
282.664	12.57
282.878	14.96
283.092	15.8
283.307	15.49
283.521	16.09
283.735	16.09
283.949	16.42
284.164	15.1
284.378	15.62
284.592	14.02
284.806	13.36
285.02	14.02
285.234	11.99
285.449	10.97
285.663	10.25
285.877	10.23
286.091	9.5
286.305	10.68
286.519	11.3
286.733	10.95
286.947	11.3
287.161	11.11
287.375	11.47
287.589	12.21
287.803	12.85
288.017	12.86
288.231	13
288.445	13.23
288.659	12.57
288.873	12.39
289.087	12.19
289.301	13.78
289.515	14.46
289.729	14.23
289.943	14.56
290.157	14.15
290.371	14.65
290.584	14.15
290.798	13.66
291.012	13.11
291.226	14.13
291.44	14.52
291.654	13.13
291.867	12.18
292.081	11.84
292.295	11.86
292.509	11.67
292.722	11.93
292.936	13.56
293.15	14.38
293.364	15.71
293.577	13.94
293.791	15.23
294.005	15.63
294.218	16.26
294.432	15.73
294.645	15.38
294.859	15.71
295.073	15.54
295.286	14.93
295.5	15.49
295.713	15.18
295.927	14.86
296.14	14.06
296.354	14.38
296.568	14.98
296.781	16.02
296.994	16.72
297.208	16.36
297.421	16.86
297.635	16.22
297.848	16.71
298.062	15.01
298.275	16.11
298.489	16.86
298.702	16.18
298.915	16.08
299.129	15.46
299.342	15.49
299.555	15.07
299.769	13.95
299.982	14.76
300.195	15.13
300.409	15.9
300.622	16.28
300.835	16.18
301.048	16.36
301.262	17.39
301.475	18.25
301.688	16.17
301.901	16.2
302.115	16.15
302.328	16.64
302.541	14.61
302.754	15.74
302.967	14.88
303.18	15.51
303.393	15.48
303.607	14.77
303.82	13.69
304.033	15.25
304.246	16.18
304.459	17.38
304.672	18.14
304.885	18.86
305.098	17.51
305.311	17.46
305.524	16.52
305.737	15.17
305.95	15.41
306.163	14.63
306.376	13.47
306.589	12.54
306.802	10.49
307.015	9.98
307.228	9.4
307.44	10.74
307.653	10.54
307.866	8.53
308.079	10.91
308.292	9.84
308.505	10.55
308.718	11.67
308.93	12.15
309.143	14.49
309.356	13.37
309.569	15.09
309.781	16.13
309.994	17.1
310.207	18.67
310.42	18.04
310.632	17.45
310.845	17.25
311.058	17.74
311.27	17.93
311.483	16.65
311.696	16.69
311.908	15.66
312.121	13.86
312.333	13.3
312.546	12.77
312.759	12.73
312.971	13.77
313.184	15.26
313.396	14.35
313.609	15.22
313.821	15.27
314.034	14.68
314.246	13.02
314.459	14.71
314.671	15.05
314.884	15.76
315.096	15.24
315.309	14.25
315.521	13.43
315.733	13.33
315.946	12.1
316.158	12.33
316.371	13.66
316.583	15.35
316.795	17.01
317.008	16.02
317.22	14.64
317.432	14.13
317.644	16.05
317.857	14.87
318.069	15.12
318.281	16.49
318.494	17.19
318.706	15.44
318.918	15.17
319.13	12.88
319.342	13.05
319.555	13.86
319.767	12.99
319.979	9.63
320.191	11.2
320.403	10.72
320.615	11.03
320.827	9.86
321.039	10.09
321.252	9
321.464	8.99
321.676	9.14
321.888	8.67
322.1	10.3
322.312	11.3
322.524	10.49
322.736	10.32
322.948	8.2
323.16	9.46
323.372	9.89
323.584	11.53
323.796	10.01
324.007	9.16
324.219	7.38
324.431	7.25
324.643	7.77
324.855	8.15
325.067	8.69
325.279	8.92
325.491	8.77
325.702	8.82
325.914	7.96
326.126	9.66
326.338	10.77
326.55	13.31
326.761	12.91
326.973	12.6
327.185	13.21
327.396	13.22
327.608	13.85
327.82	13.87
328.032	14.77
328.243	16.86
328.455	16.5
328.666	16.42
328.878	16.58
329.09	16.03
329.301	15.3
329.513	16.1
329.725	16.26
329.936	12.83
330.148	11.11
330.359	11.06
330.571	9.43
330.782	9.88
330.994	10.45
331.205	9.79
331.417	9.69
331.628	10.4
331.84	9.24
332.051	8.99
332.262	12.57
332.474	14.38
332.685	14.03
332.897	13.45
333.108	13.03
333.319	12.47
333.531	13.93
333.742	14.67
333.953	14.9
334.165	14.8
334.376	13.97
334.587	13.59
334.799	12.55
335.01	12.09
335.221	11.67
335.432	12.73
335.644	12.59
335.855	10.62
336.066	10.7
336.277	10.32
336.488	9.74
336.7	10.19
336.911	9.17
337.122	8.63
337.333	9.28
337.544	9.3
337.755	8.05
337.966	8.64
338.177	9.37
338.388	10.11
338.599	10.97
338.811	11.03
339.022	10.76
339.233	10.91
339.444	10.86
339.655	12.16
339.866	12.11
340.076	12.47
340.287	11.81
340.498	11.3
340.709	10.13
340.92	10.4
341.131	10.72
341.342	12.22
341.553	12.2
341.764	11.54
341.975	9.34
342.185	8.82
342.396	8.95
342.607	9.9
342.818	10
343.029	10.91
343.239	9.84
343.45	8.99
343.661	8.82
343.872	9.64
344.082	11.86
344.293	12.38
344.504	13.88
344.714	13.84
344.925	12.79
345.136	12.46
345.346	11.88
345.557	12.1
345.768	12.23
345.978	13.01
346.189	13.28
346.399	11.37
346.61	10.76
346.821	9.43
347.031	9.4
347.242	10.61
347.452	11.52
347.663	12.69
347.873	13.43
348.084	13.4
348.294	12.5
348.504	13.4
348.715	12.89
348.925	13
349.136	12.3
349.346	11.28
349.557	9.62
349.767	8.82
349.977	7.93
350.188	7.93
350.398	8.2
350.608	7.08
350.819	4.42
351.029	5
351.239	6.64
351.449	8.1
351.66	8.38
351.87	9.77
352.08	9.74
352.29	9.67
352.501	9.24
352.711	9.64
352.921	9.76
353.131	11.64
353.341	12.69
353.552	11.12
353.762	11.27
353.972	12.12
354.182	10.88
354.392	11.99
354.602	11.26
354.812	10.56
355.022	10.37
355.232	10.28
355.442	9.92
355.652	10.53
355.862	9.92
356.072	8.72
356.282	8.14
356.492	8.16
356.702	7.7
356.912	8.4
357.122	8.6
357.332	8.22
357.542	8.65
357.752	7.82
357.962	7.91
358.171	8.88
358.381	9.31
358.591	9.01
358.801	9.42
359.011	9.01
359.221	8.99
359.43	9.58
359.64	9.77
359.85	8.48
360.06	9.17
360.269	8.56
360.479	8.59
360.689	8.36
360.899	9.05
361.108	9.11
361.318	10
361.528	10.5
361.737	10.03
361.947	10.2
362.156	10.96
362.366	11.1
362.576	10.99
362.785	10.61
362.995	10.74
363.204	10.54
363.414	10.68
363.623	9.78
363.833	9.28
364.042	8.74
364.252	8.53
364.461	8.89
364.671	9.24
364.88	8.9
365.09	9.92
365.299	10.61
365.509	10.3
365.718	9.87
365.927	10.67
366.137	10.34
366.346	11.23
366.555	10.73
366.765	10.77
366.974	10.22
367.183	9.93
367.393	9.95
367.602	9.45
367.811	9.48
368.021	10.08
368.23	9.24
368.439	9.58
368.648	9.44
368.857	9.2
369.067	9.16
369.276	8.98
369.485	9.16
369.694	9.18
369.903	9.67
370.112	10.17
370.321	10.01
370.531	10.23
370.74	10.55
370.949	10.35
371.158	10.54
371.367	10.43
371.576	10.39
371.785	10.36
371.994	9.36
372.203	8.82
372.412	8.82
372.621	9.29
372.83	9.49
373.039	8.99
373.248	8.67
373.457	9.07
373.666	8.83
373.874	8.28
374.083	8.66
374.292	8.7
374.501	8.71
374.71	7.88
374.919	7.62
375.128	7.31
375.336	6.24
375.545	6.58
375.754	6.66
375.963	6.36
376.171	6.69
376.38	6.24
376.589	6.22
376.798	6.36
377.006	6.78
377.215	6.38
377.424	6.35
377.632	7.27
377.841	7.48
378.05	7.17
378.258	7.61
378.467	7.75
378.675	8.07
378.884	8.25
379.093	8.47
379.301	8.58
379.51	8.4
379.718	8.48
379.927	8.99
380.135	8.73
380.344	8.79
380.552	8.6
380.761	8.89
380.969	8.66
381.177	8.62
381.386	8.26
381.594	8.23
381.803	8.14
382.011	8.41
382.219	7.58
382.428	7.61
382.636	7.52
382.845	7.37
383.053	7.04
383.261	7.05
383.469	6.88
383.678	6.44
383.886	6.24
384.094	6.49
384.302	5.21
384.511	5.25
384.719	5.02
384.927	5.08
385.135	4.64
385.343	3.68
385.552	3.28
385.76	3
385.968	3.11
386.176	3.2
386.384	2.41
386.592	3.33
386.8	3.46
387.008	3.62
387.216	3.08
387.424	2.98
387.633	3.89
387.841	4.24
388.049	4.32
388.257	4.18
388.465	3.75
388.672	4.21
388.88	3.66
389.088	3.76
389.296	3.8
389.504	3.96
389.712	4.12
389.92	3.64
390.128	3.86
390.336	4.24
390.544	4.39
390.751	4.41
390.959	4.33
391.167	4.79
391.375	4.66
391.583	4.39
391.79	4.66
391.998	5.03
392.206	5.34
392.414	4.96
392.621	4.55
392.829	4.71
393.037	5.1
393.244	5.07
393.452	4.86
393.66	4.81
393.867	4.97
394.075	5.06
394.283	4.83
394.49	4.71
394.698	4.72
394.905	4.92
395.113	4.45
395.32	4.5
395.528	4.47
395.735	4.69
395.943	4.7
396.15	4.54
396.358	4.3
396.565	4.27
396.773	4.33
396.98	4.38
397.188	4.65
397.395	5.12
397.602	4.91
397.81	5.13
398.017	5.13
398.225	5.32
398.432	5.47
398.639	5.46
398.847	5.51
399.054	5.42
399.261	5.7
399.468	5.48
399.676	5.25
399.883	5.1
400.09	5.08
400.297	4.84
400.505	4.36
400.712	4.05
400.919	4.07
401.126	3.99
401.333	4.12
401.54	3.38
401.748	3.13
401.955	3.13
402.162	3.13
402.369	3
402.576	3.14
402.783	3.34
402.99	3.46
403.197	3.25
403.404	3.27
403.611	3.05
403.818	3.47
404.025	3.72
404.232	3.87
404.439	3.87
404.646	3.9
404.853	3.67
405.06	3.76
405.267	3.56
405.474	3.56
405.681	3.44
405.887	3.59
406.094	3.49
406.301	3.33
406.508	3.29
406.715	3.53
406.922	3.35
407.128	3.47
407.335	3.44
407.542	3.62
407.749	3.69
407.955	3.3
408.162	3.13
408.369	3.17
408.575	3.28
408.782	3.1
408.989	2.71
409.195	2.67
409.402	2.59
409.609	2.64
409.815	2.93
410.022	2.77
410.228	3.15
410.435	3.14
410.642	2.83
410.848	2.45
411.055	2.48
411.261	2.76
411.468	3.01
411.674	3.14
411.881	3.18
412.087	2.91
412.294	3.25
412.5	3.18
412.706	3.26
412.913	3.46
413.119	3.79
413.326	3.64
413.532	3.6
413.738	3.72
413.945	3.6
414.151	3.54
414.357	3.75
414.564	3.38
414.77	3.3
414.976	3.23
415.182	3.53
415.389	3.31
415.595	3.48
415.801	3.23
416.007	2.86
416.214	3.07
416.42	3.17
416.626	3.07
416.832	3.44
417.038	3.29
417.244	3.48
417.45	3.33
417.657	3.62
417.863	3.54
418.069	3.54
418.275	3.78
418.481	3.63
418.687	3.67
418.893	3.66
419.099	3.51
419.305	3.66
419.511	3.76
419.717	3.67
419.923	3.58
420.129	3.64
420.335	3.72
420.541	3.64
420.746	3.7
420.952	3.56
421.158	3.61
421.364	3.63
421.57	3.63
421.776	3.43
421.982	3.56
422.187	3.55
422.393	3.67
422.599	3.69
422.805	3.71
423.01	3.6
423.216	3.75
423.422	3.8
423.628	3.67
423.833	3.79
424.039	3.76
424.245	3.63
424.45	3.65
424.656	3.57
424.862	3.54
425.067	3.56
425.273	3.58
425.478	3.41
425.684	3.39
425.889	3.48
426.095	3.45
426.301	3.44
426.506	3.54
426.712	3.49
426.917	3.3
427.123	3.48
427.328	3.31
427.533	3.37
427.739	3.42
427.944	3.47
428.15	3.44
428.355	3.46
428.561	3.45
428.766	3.39
428.971	3.49
429.177	3.59
429.382	3.47
429.587	3.65
429.793	3.82
429.998	3.83
430.203	3.64
430.408	3.92
430.614	3.98
430.819	3.98
431.024	3.88
431.229	3.75
431.434	3.9
431.64	3.77
431.845	3.7
432.05	3.57
432.255	3.56
432.46	3.62
432.665	3.51
432.87	3.57
433.076	3.58
433.281	3.57
433.486	3.6
433.691	3.72
433.896	3.61
434.101	3.64
434.306	3.51
434.511	3.42
434.716	3.28
434.921	3.11
435.126	2.99
435.331	3.25
435.535	3.38
435.74	3.37
435.945	3.08
436.15	3.37
436.355	3.67
436.56	3.88
436.765	3.82
436.97	3.97
437.174	4.03
437.379	3.94
437.584	3.91
437.789	4.08
437.993	4.22
438.198	4.15
438.403	4.15
438.608	3.93
438.812	3.72
439.017	3.78
439.222	3.79
439.426	3.89
439.631	3.77
439.836	3.55
440.04	3.34
440.245	3.27
440.45	3.33
440.654	3.23
440.859	3.15
441.063	3.22
441.268	3.21
441.472	3.03
441.677	2.96
441.881	2.99
442.086	2.98
442.29	3.07
442.495	3.06
442.699	3.07
442.904	2.92
443.108	2.83
443.312	2.73
443.517	2.76
443.721	2.82
443.925	2.83
444.13	3.07
444.334	3.03
444.538	3.04
444.743	2.97
444.947	3.1
445.151	3.24
445.356	3.43
445.56	3.54
445.764	3.51
445.968	3.56
446.173	3.59
446.377	3.55
446.581	3.64
446.785	3.66
446.989	3.62
447.193	3.53
447.398	3.57
447.602	3.4
447.806	3.37
448.01	3.51
448.214	3.38
448.418	3.37
448.622	3.33
448.826	3.22
449.03	3.04
449.234	3.1
449.438	3.14
449.642	3.09
449.846	3.32
450.05	3.17
450.254	3.08
450.458	3.26
450.662	3.36
450.866	3.24
451.069	3.54
451.273	3.5
451.477	3.55
451.681	3.4
451.885	3.32
452.089	3.15
452.292	3.21
452.496	3.21
452.7	3.03
452.904	2.7
453.107	2.77
453.311	2.6
453.515	2.78
453.719	2.86
453.922	2.98
454.126	2.92
454.33	2.91
454.533	3
454.737	2.94
454.94	3.19
455.144	3.4
455.348	3.34
455.551	3.39
455.755	3.42
455.958	3.24
456.162	3.14
456.365	3.37
456.569	3.4
456.772	3.31
456.976	3.36
457.179	3.29
457.383	3.35
457.586	3.34
457.79	3.21
457.993	3.15
458.196	3.21
458.4	3.25
458.603	3.12
458.807	3.06
459.01	3.21
459.213	3.17
459.417	3.07
459.62	3
459.823	3.16
460.026	3.14
460.23	3.18
460.433	3.14
460.636	3.13
460.839	3.13
461.042	3.29
461.246	3.08
461.449	3.14
461.652	3.19
461.855	3.31
462.058	3.01
462.261	2.98
462.464	2.99
462.668	2.89
462.871	2.84
463.074	2.7
463.277	2.75
463.48	2.86
463.683	2.82
463.886	2.96
464.089	2.72
464.292	2.75
464.495	2.89
464.698	2.83
464.901	2.88
465.104	2.9
465.306	3.02
