Data from 2937898_Reflection_3.txt Node
Date: Wed Jul 15 13:47:14 EDT 2015
User: robert
Spectrometer: USB4E03001
Autoset integration time: false
Trigger mode: 4
Integration Time (sec): 1.000000E-1
Scans to average: 10
Electric dark correction enabled: true
Nonlinearity correction enabled: false
Boxcar width: 5
Stray light correction enabled: false
XAxis mode: Wavelengths
Stop averaging: false
Number of Pixels in Spectrum: 3648
>>>>>Begin Spectral Data<<<<<
177.566	113.9
177.785	155.52
178.005	160.44
178.225	167.15
178.445	177.72
178.665	-763.12
178.885	17.05
179.105	179.87
179.324	182.42
179.544	344.13
179.764	157.78
179.984	247.99
180.204	393.46
180.423	389.03
180.643	341.88
180.863	395.88
181.083	560.76
181.302	326.47
181.522	360.13
181.742	136.3
181.961	101.69
182.181	2467.57
182.401	239
182.621	3047.3
182.84	-56.64
183.06	398.26
183.279	-68.13
183.499	22.66
183.719	87.34
183.938	-683.2
184.158	-5.9
184.377	-40.55
184.597	280.86
184.816	128.25
185.036	83.51
185.256	91.78
185.475	180.87
185.695	111.81
185.914	125.69
186.134	153.88
186.353	494.36
186.572	347.78
186.792	479.51
187.011	354.3
187.231	532.2
187.45	219.24
187.67	191.27
187.889	212.93
188.108	12010.42
188.328	210.13
188.547	194.53
188.766	219.15
188.986	260.5
189.205	241.86
189.424	230.39
189.644	375.93
189.863	570.76
190.082	1957.94
190.302	2008.2
190.521	293.39
190.74	536.58
190.959	1207.46
191.178	431.15
191.398	594.86
191.617	802.65
191.836	-501.06
192.055	-233.76
192.274	-65.88
192.494	-160.3
192.713	-91.17
192.932	-62.06
193.151	-68.72
193.37	-58.77
193.589	-26.38
193.808	-69.07
194.027	-111.33
194.246	-114.57
194.465	-285.39
194.685	-535.28
194.904	3052.36
195.123	613.62
195.342	312.6
195.561	507.5
195.78	298.6
195.999	171.31
196.218	100.61
196.436	110
196.655	197.6
196.874	324.67
197.093	192.64
197.312	2663.82
197.531	181.04
197.75	235.25
197.969	454.87
198.188	672.55
198.407	273.74
198.625	782.7
198.844	250.98
199.063	171.97
199.282	135.31
199.501	324.96
199.719	7487.5
199.938	615.19
200.157	5700
200.376	24188.89
200.594	773.06
200.813	-86.17
201.032	-44.29
201.251	262.03
201.469	-32.7
201.688	13.23
201.907	21.93
202.125	55.92
202.344	38.96
202.563	30.39
202.781	34.02
203	41.46
203.218	21.72
203.437	-16.72
203.656	-11.9
203.874	-2.64
204.093	-199.03
204.311	-33.81
204.53	177.79
204.748	157
204.967	73.99
205.185	-834.47
205.404	816.04
205.622	289.45
205.841	209.49
206.059	-322.27
206.278	-182.24
206.496	-85.5
206.715	3348.03
206.933	-842.88
207.151	-288.28
207.37	-330.4
207.588	862.18
207.806	3492.06
208.025	-783.84
208.243	490.43
208.461	375.77
208.68	370
208.898	-203.49
209.116	408.58
209.335	564.76
209.553	121.08
209.771	140.14
209.989	263.99
210.208	-364.83
210.426	695.49
210.644	1473.3
210.862	390.71
211.081	282.74
211.299	217.82
211.517	-734.74
211.735	-164.5
211.953	-467.14
212.171	-403.74
212.39	-86275
212.608	240.73
212.826	-243.68
213.044	-19.6
213.262	32.08
213.48	-151.06
213.698	15.44
213.916	33.27
214.134	30.52
214.352	76.43
214.57	99.78
214.788	81.45
215.006	67.37
215.224	115.3
215.442	80.23
215.66	45.82
215.878	23.21
216.096	4.61
216.314	-38.5
216.532	31.97
216.75	-15.18
216.968	-138.22
217.185	-342.84
217.403	-141.19
217.621	-129.76
217.839	-175.06
218.057	-241.87
218.275	-336.05
218.492	-171.72
218.71	-262.62
218.928	-615.48
219.146	-1580
219.363	-625.94
219.581	-880.8
219.799	103777.78
220.017	2027.21
220.234	-2003.51
220.452	-737.99
220.67	-386.07
220.887	-195.02
221.105	-73.44
221.323	-243.76
221.54	-267.89
221.758	-108.62
221.976	-146.89
222.193	-269.9
222.411	-51.28
222.629	-55.45
222.846	-16.93
223.064	19.65
223.281	7.43
223.499	-9.01
223.716	0.81
223.934	28.04
224.151	32.25
224.369	25.61
224.586	24.36
224.804	22.54
225.021	23.57
225.239	-1.6
225.456	3.96
225.674	-14.71
225.891	-16.78
226.108	-38.47
226.326	-35.45
226.543	-48.84
226.76	-40.45
226.978	-18.45
227.195	-17.69
227.413	-19.38
227.63	-22.18
227.847	-24.1
228.064	-17.05
228.282	-16.4
228.499	-8.38
228.716	-2.79
228.934	-0.09
229.151	3.4
229.368	2.29
229.585	1.49
229.802	1.44
230.02	5.52
230.237	9.24
230.454	11.57
230.671	9.78
230.888	13.52
231.105	7.74
231.323	6.72
231.54	1.13
231.757	-6.32
231.974	-3.51
232.191	0.74
232.408	1.61
232.625	-0.47
232.842	3.95
233.059	0.07
233.276	-13.18
233.493	-9.18
233.71	-7.7
233.927	-0.69
234.144	8.34
234.361	7.65
234.578	-4.73
234.795	-4.43
235.012	-7.28
235.229	-10.93
235.446	-6.02
235.663	-1.03
235.879	-2.79
236.096	-4.72
236.313	-12.75
236.53	-11.85
236.747	-12.38
236.964	-5.06
237.181	-12.6
237.397	-8.59
237.614	-12.51
237.831	-5.9
238.048	-6.74
238.264	-9.54
238.481	-1.26
238.698	-6.16
238.915	-13.85
239.131	-8.26
239.348	-8.83
239.565	-2.02
239.781	-14.01
239.998	-10.94
240.215	-15.18
240.431	-11.3
240.648	-5.46
240.865	-9.98
241.081	-3.92
241.298	-2.27
241.514	-2.41
241.731	2.45
241.947	2.45
242.164	4.89
242.38	7.1
242.597	8.92
242.814	6.45
243.03	4.97
243.246	6
243.463	5.45
243.679	7.35
243.896	6.68
244.112	2.76
244.329	0.93
244.545	1.35
244.762	-0.95
244.978	-1.95
245.194	-3.7
245.411	-3.28
245.627	-2.25
245.843	-1.45
246.06	-3.41
246.276	-1.95
246.492	0.21
246.709	1.41
246.925	2.63
247.141	3.24
247.357	3.41
247.574	5.16
247.79	5.91
248.006	7.04
248.222	7.78
248.439	7.76
248.655	8.01
248.871	9.3
249.087	9.04
249.303	8.06
249.519	7.61
249.736	6.91
249.952	5.49
250.168	4.62
250.384	2.02
250.6	1.34
250.816	2.49
251.032	1.46
251.248	0.12
251.464	1.29
251.68	2.41
251.896	2.36
252.112	3.61
252.328	5.26
252.544	6.02
252.76	4.49
252.976	3.65
253.192	2.48
253.408	1.03
253.624	0.91
253.84	0.76
254.056	0.22
254.272	-0.2
254.487	1.02
254.703	-1.8
254.919	-4
255.135	0.85
255.351	1.65
255.567	1.78
255.782	1.56
255.998	-4.48
256.214	-6.56
256.43	-6.14
256.646	-4.48
256.861	-3.86
257.077	-4.68
257.293	-5.19
257.508	-9.19
257.724	-8.71
257.94	-4.37
258.155	-3.05
258.371	1.5
258.587	3.19
258.802	3.64
259.018	3.89
259.234	3.51
259.449	4.81
259.665	5.11
259.88	5.82
260.096	5.86
260.312	5.21
260.527	5.2
260.743	4.32
260.958	4.22
261.174	4.37
261.389	4.19
261.605	3.19
261.82	2.27
262.036	2.46
262.251	1.6
262.466	1.15
262.682	1.83
262.897	3.33
263.113	3.09
263.328	3.21
263.543	1.92
263.759	0.22
263.974	-0.14
264.189	-0.43
264.405	-0.03
264.62	1.2
264.835	3.99
265.051	2.05
265.266	0.47
265.481	1.33
265.696	1.47
265.912	1.89
266.127	2.44
266.342	3.76
266.557	4.53
266.773	3.18
266.988	3.19
267.203	2.21
267.418	2.77
267.633	2.76
267.848	3.43
268.064	3.6
268.279	3.89
268.494	4.53
268.709	4.47
268.924	4.78
269.139	5.62
269.354	4.54
269.569	4.16
269.784	4.57
269.999	3.76
270.214	3.55
270.429	3.65
270.644	4.75
270.859	5.06
271.074	5.88
271.289	5.55
271.504	5.38
271.719	5.97
271.934	5.85
272.149	4.96
272.363	4.76
272.578	4.37
272.793	3.86
273.008	2.12
273.223	1.33
273.438	1.77
273.653	1.58
273.867	0.9
274.082	1.01
274.297	1.33
274.512	2.82
274.726	3.77
274.941	4.34
275.156	3.4
275.371	3.97
275.585	4.31
275.8	2.86
276.015	3.11
276.229	4.2
276.444	3.12
276.659	1.61
276.873	0.23
277.088	0.41
277.302	0.02
277.517	2.15
277.732	2.57
277.946	2.42
278.161	3.03
278.375	1.94
278.59	1.94
278.804	3.01
279.019	3.49
279.233	2.9
279.448	3.57
279.662	2.97
279.877	0.73
280.091	-0.1
280.306	0.28
280.52	0.9
280.735	1.46
280.949	0.88
281.163	-0.72
281.378	-0.69
281.592	1.24
281.806	1
282.021	0.93
282.235	3.11
282.449	2.87
282.664	2.32
282.878	2.7
283.092	3.29
283.307	3.59
283.521	4.62
283.735	4.89
283.949	4.3
284.164	5.5
284.378	6
284.592	4.47
284.806	5.72
285.02	4.06
285.234	2.07
285.449	0.92
285.663	1.33
285.877	0.77
286.091	0.83
286.305	1.29
286.519	0.6
286.733	1.4
286.947	2.13
287.161	0.66
287.375	2.79
287.589	3.83
287.803	6.06
288.017	3.84
288.231	4.03
288.445	4.07
288.659	3.68
288.873	2.65
289.087	2
289.301	1.28
289.515	3.21
289.729	1.97
289.943	0.79
290.157	0.5
290.371	3.99
290.584	4.1
290.798	3.23
291.012	2.24
291.226	2.51
291.44	0.57
291.654	-0.27
291.867	-2.38
292.081	-1.44
292.295	-0.59
292.509	-0.85
292.722	-3.16
292.936	-1.89
293.15	-1.62
293.364	-0.29
293.577	-0.25
293.791	2.21
294.005	3.75
294.218	5.08
294.432	5.72
294.645	6
294.859	4.96
295.073	4.62
295.286	4.46
295.5	6.38
295.713	6.46
295.927	8.13
296.14	7.3
296.354	8.57
296.568	8.42
296.781	8.52
296.994	8.99
297.208	9.59
297.421	10.71
297.635	10.53
297.848	8.88
298.062	8.05
298.275	5.39
298.489	5.52
298.702	4.79
298.915	4.56
299.129	4.09
299.342	3.61
299.555	2.44
299.769	0.42
299.982	0.77
300.195	2.92
300.409	3.55
300.622	4.86
300.835	5.61
301.048	5.79
301.262	6.45
301.475	6.25
301.688	6.05
301.901	6.8
302.115	7.67
302.328	8.54
302.541	6.59
302.754	7.64
302.967	8.97
303.18	7.94
303.393	7.87
303.607	5.17
303.82	5.49
304.033	5.81
304.246	4.69
304.459	6.56
304.672	5.12
304.885	5.2
305.098	4.58
305.311	4.34
305.524	6.11
305.737	5.63
305.95	8.72
306.163	8.56
306.376	8.73
306.589	9.82
306.802	8.59
307.015	9.46
307.228	10.8
307.44	10.54
307.653	11.43
307.866	10.97
308.079	10.66
308.292	11.34
308.505	12.02
308.718	12.65
308.93	11.15
309.143	10.23
309.356	9.39
309.569	7.91
309.781	8.43
309.994	8.25
310.207	8.04
310.42	8.61
310.632	7.43
310.845	7.03
311.058	7.65
311.27	9.02
311.483	10.55
311.696	10.2
311.908	10.29
312.121	9.91
312.333	9.69
312.546	10.8
312.759	10.17
312.971	10.57
313.184	10.53
313.396	7.58
313.609	7.96
313.821	7.34
314.034	7.83
314.246	8.16
314.459	8.72
314.671	8.59
314.884	7.05
315.096	7.25
315.309	8.66
315.521	7.73
315.733	9.5
315.946	9.37
316.158	9.67
316.371	8.82
316.583	8.49
316.795	9.23
317.008	8.64
317.22	9.34
317.432	9.54
317.644	8.33
317.857	9.04
318.069	8.36
318.281	9.04
318.494	9
318.706	8.96
318.918	11.78
319.13	13.03
319.342	12.28
319.555	12.69
319.767	12.65
319.979	11.06
320.191	12.67
320.403	13.47
320.615	14.05
320.827	14.03
321.039	14.53
321.252	12.79
321.464	10.25
321.676	10.61
321.888	9.34
322.1	9.69
322.312	11.59
322.524	11.2
322.736	12.46
322.948	10.02
323.16	10.02
323.372	10.19
323.584	10.32
323.796	11.02
324.007	12.72
324.219	14.63
324.431	16.15
324.643	15.18
324.855	14.57
325.067	14.68
325.279	16.24
325.491	15.59
325.702	16.59
325.914	16.65
326.126	16.97
326.338	16.57
326.55	16.32
326.761	16.53
326.973	17.54
327.185	18.72
327.396	18.69
327.608	16.92
327.82	19.16
328.032	20.58
328.243	20.86
328.455	21.5
328.666	22.07
328.878	21.97
329.09	21.91
329.301	22.45
329.513	23.07
329.725	24.36
329.936	27.1
330.148	26.26
330.359	24.63
330.571	26.16
330.782	26.69
330.994	27.38
331.205	28.59
331.417	27.66
331.628	28.83
331.84	29.22
332.051	28.14
332.262	27.31
332.474	27.53
332.685	29.21
332.897	29.65
333.108	30.52
333.319	30.11
333.531	30.1
333.742	30.17
333.953	29.47
334.165	30.31
334.376	29.87
334.587	31.5
334.799	31.97
335.01	31.83
335.221	30.68
335.432	30.15
335.644	31.12
335.855	30.9
336.066	31.25
336.277	32.9
336.488	32.66
336.7	33.82
336.911	33.17
337.122	32.6
337.333	32.55
337.544	33.02
337.755	33.04
337.966	32.7
338.177	33.08
338.388	32.98
338.599	32.31
338.811	31.7
339.022	31.57
339.233	31.32
339.444	31.32
339.655	31.45
339.866	31.24
340.076	31.22
340.287	31.03
340.498	30.46
340.709	30.39
340.92	30.36
341.131	29.06
341.342	30.23
341.553	31.11
341.764	32.11
341.975	33.01
342.185	33.55
342.396	33.23
342.607	33.11
342.818	33.18
343.029	33.84
343.239	33.87
343.45	35.35
343.661	35.25
343.872	34.72
344.082	34.38
344.293	32.74
344.504	34.03
344.714	34.71
344.925	34.84
345.136	35.42
345.346	34.38
345.557	34.78
345.768	35.06
345.978	33.56
346.189	34.04
346.399	34.54
346.61	36.24
346.821	35
347.031	34.73
347.242	34.84
347.452	33.67
347.663	35.25
347.873	35.08
348.084	35.26
348.294	35.21
348.504	35.5
348.715	35.45
348.925	35.07
349.136	35.11
349.346	34.82
349.557	35.54
349.767	36.77
349.977	35.84
350.188	36.05
350.398	36.04
350.608	37.55
350.819	35.73
351.029	35.91
351.239	35.15
351.449	35.24
351.66	35.17
351.87	34.55
352.08	33.91
352.29	36.33
352.501	36.91
352.711	36.67
352.921	36.82
353.131	37.53
353.341	36.54
353.552	36.83
353.762	37.5
353.972	37.82
354.182	38.21
354.392	38.04
354.602	36.63
354.812	35.68
355.022	35.49
355.232	33.67
355.442	35.01
355.652	36.35
355.862	37.16
356.072	36.8
356.282	36.94
356.492	36.41
356.702	37.19
356.912	37.27
357.122	37.42
357.332	37.71
357.542	38.86
357.752	37.76
357.962	37.26
358.171	36.45
358.381	36.47
358.591	36.66
358.801	37.2
359.011	37.33
359.221	36.84
359.43	36.53
359.64	36.56
359.85	36.09
360.06	35.77
360.269	34.45
360.479	34.97
360.689	35.47
360.899	35.52
361.108	34.98
361.318	34.78
361.528	35.16
361.737	35.7
361.947	35.31
362.156	35.35
362.366	36.26
362.576	37.16
362.785	36.65
362.995	36.93
363.204	37.24
363.414	38.07
363.623	38.48
363.833	38.67
364.042	38.19
364.252	38.88
364.461	38.7
364.671	38.3
364.88	38.4
365.09	38.7
365.299	38.43
365.509	38.64
365.718	37.81
365.927	36.8
366.137	37.38
366.346	37.16
366.555	36.72
366.765	37.59
366.974	38.16
367.183	38.72
367.393	37.95
367.602	37.95
367.811	37.55
368.021	37.68
368.23	37.48
368.439	36.64
368.648	37.35
368.857	37.49
369.067	36.88
369.276	36.28
369.485	35.54
369.694	36.64
369.903	35.96
370.112	35.99
370.321	35.22
370.531	36.04
370.74	35.47
370.949	35.42
371.158	34.76
371.367	35.13
371.576	35.66
371.785	35.08
371.994	35.11
372.203	36.12
372.412	35.91
372.621	36.02
372.83	35.26
373.039	35.95
373.248	35.12
373.457	35.74
373.666	35.5
373.874	35.78
374.083	36.43
374.292	36.11
374.501	35.2
374.71	34.42
374.919	34.11
375.128	34.5
375.336	33.99
375.545	33.63
375.754	33.11
375.963	32.56
376.171	32.26
376.38	31.68
376.589	31.06
376.798	30.62
377.006	31.48
377.215	31.84
377.424	32.01
377.632	32.12
377.841	32.54
378.05	32.88
378.258	33.47
378.467	32.85
378.675	33.53
378.884	33.97
379.093	33.86
379.301	33.28
379.51	33.45
379.718	33.07
379.927	33.57
380.135	33.07
380.344	32.07
380.552	31.95
380.761	32.15
380.969	31.84
381.177	32.33
381.386	32.43
381.594	32.24
381.803	32.24
382.011	32.24
382.219	32.09
382.428	32.43
382.636	32.28
382.845	31.61
383.053	31.34
383.261	30.86
383.469	30.41
383.678	30.69
383.886	30.7
384.094	30.83
384.302	30.37
384.511	29.35
384.719	29.1
384.927	29.33
385.135	29.6
385.343	29.6
385.552	29.04
385.76	28.99
385.968	28.7
386.176	28.58
386.384	28.23
386.592	28.31
386.8	28.46
387.008	28.77
387.216	28.95
387.424	28.53
387.633	28.57
387.841	28.86
388.049	28.74
388.257	28.39
388.465	28.31
388.672	28.67
388.88	28.99
389.088	29
389.296	28.75
389.504	28.65
389.712	28.89
389.92	28.88
390.128	28.97
390.336	29.24
390.544	29.68
390.751	29.8
390.959	29.48
391.167	29.95
391.375	29.87
391.583	29.68
391.79	29.88
391.998	29.67
392.206	29.36
392.414	29.36
392.621	28.77
392.829	28.45
393.037	28.23
393.244	28.08
393.452	27.66
393.66	27.62
393.867	27.53
394.075	27.43
394.283	27.82
394.49	27.92
394.698	28.23
394.905	28.56
395.113	28.46
395.32	28.59
395.528	28.7
395.735	28.8
395.943	28.92
396.15	29.36
396.358	29.39
396.565	29.1
396.773	29.14
396.98	29.11
397.188	29.24
397.395	29.56
397.602	29.5
397.81	29.8
398.017	29.52
398.225	29.53
398.432	29.48
398.639	29.47
398.847	29.83
399.054	29.91
399.261	30.01
399.468	30.08
399.676	30.02
399.883	29.97
400.09	29.75
400.297	29.84
400.505	29.97
400.712	29.84
400.919	29.63
401.126	29.3
401.333	29.36
401.54	29.44
401.748	29.22
401.955	29.14
402.162	29.21
402.369	29.23
402.576	29.5
402.783	29.39
402.99	29.6
403.197	29.62
403.404	29.85
403.611	29.48
403.818	29.29
404.025	29.32
404.232	29.43
404.439	29.51
404.646	29.57
404.853	29.44
405.06	29.59
405.267	29.61
405.474	29.88
405.681	29.83
405.887	30.23
406.094	30.43
406.301	30.67
406.508	30.75
406.715	30.98
406.922	30.91
407.128	30.77
407.335	30.74
407.542	31.02
407.749	31.24
407.955	31.18
408.162	31.27
408.369	31.06
408.575	30.74
408.782	30.64
408.989	30.37
409.195	30.13
409.402	30.43
409.609	30.51
409.815	30.27
410.022	29.99
410.228	30.1
410.435	29.79
410.642	29.89
410.848	29.85
411.055	30.06
411.261	30
411.468	30.25
411.674	29.76
411.881	29.67
412.087	29.48
412.294	29.53
412.5	29.46
412.706	29.56
412.913	29.45
413.119	29.53
413.326	29.21
413.532	29.27
413.738	29.24
413.945	29.55
414.151	29.36
414.357	29.39
414.564	29.51
414.77	29.26
414.976	29.35
415.182	29.34
415.389	29.37
415.595	29.05
415.801	29.22
416.007	29.08
416.214	28.76
416.42	28.66
416.626	28.59
416.832	28.32
417.038	28.52
417.244	28.72
417.45	28.64
417.657	28.63
417.863	28.7
418.069	28.63
418.275	28.72
418.481	28.74
418.687	28.94
418.893	28.86
419.099	28.89
419.305	28.74
419.511	28.6
419.717	28.66
419.923	28.54
420.129	28.66
420.335	28.6
420.541	28.48
420.746	28.47
420.952	28.4
421.158	28.42
421.364	28.42
421.57	28.42
421.776	28.4
421.982	28.41
422.187	28.52
422.393	28.43
422.599	28.32
422.805	28.34
423.01	28.6
423.216	28.56
423.422	28.53
423.628	28.54
423.833	28.61
424.039	28.51
424.245	28.26
424.45	28.09
424.656	28.1
424.862	28.12
425.067	28.11
425.273	27.87
425.478	27.78
425.684	27.65
425.889	27.6
426.095	27.56
426.301	27.41
426.506	27.43
426.712	27.36
426.917	27.29
427.123	27.26
427.328	27.28
427.533	27.17
427.739	27.2
427.944	27.33
428.15	27.3
428.355	27.09
428.561	27.19
428.766	27.37
428.971	27.23
429.177	27.27
429.382	27.15
429.587	27.16
429.793	27.19
429.998	27.28
430.203	26.99
430.408	26.69
430.614	26.78
430.819	26.81
431.024	26.76
431.229	26.8
431.434	26.65
431.64	26.64
431.845	26.37
432.05	26.54
432.255	26.66
432.46	26.99
432.665	27.24
432.87	27.21
433.076	27.21
433.281	27.12
433.486	27.25
433.691	27.46
433.896	27.58
434.101	27.86
434.306	27.87
434.511	27.69
434.716	27.68
434.921	27.55
435.126	27.65
435.331	27.76
435.535	27.75
435.74	27.75
435.945	27.63
436.15	27.41
436.355	27.22
436.56	27.03
436.765	27.04
436.97	27.13
437.174	27.05
437.379	26.98
437.584	26.75
437.789	26.86
437.993	26.82
438.198	26.85
438.403	27.03
438.608	26.93
438.812	27.06
439.017	27.12
439.222	27.07
439.426	27.18
439.631	27.24
439.836	27.37
440.04	27.24
440.245	27.14
440.45	27.15
440.654	27.22
440.859	27.23
441.063	27.09
441.268	27.03
441.472	26.92
441.677	26.97
441.881	26.81
442.086	26.73
442.29	26.84
442.495	27.06
442.699	27.07
442.904	26.93
443.108	27
443.312	27.13
443.517	27.1
443.721	27.03
443.925	26.91
444.13	27.05
444.334	26.99
444.538	27.02
444.743	26.8
444.947	26.7
445.151	26.63
445.356	26.67
445.56	26.58
445.764	26.7
445.968	26.79
446.173	26.77
446.377	26.7
446.581	26.7
446.785	26.61
446.989	26.74
447.193	26.86
447.398	26.93
447.602	26.83
447.806	26.86
448.01	26.75
448.214	26.62
448.418	26.64
448.622	26.58
448.826	26.68
449.03	26.68
449.234	26.54
449.438	26.33
449.642	26.24
449.846	26.25
450.05	26.1
450.254	26.16
450.458	26.24
450.662	26.12
450.866	26.03
451.069	25.87
451.273	25.74
451.477	25.89
451.681	25.88
451.885	26.06
452.089	26.01
452.292	26.09
452.496	26.03
452.7	26.12
452.904	26.25
453.107	26.3
453.311	26.33
453.515	26.28
453.719	26.32
453.922	26.3
454.126	26.24
454.33	26.06
454.533	26.17
454.737	26.11
454.94	25.93
455.144	26.02
455.348	25.95
455.551	25.94
455.755	25.99
455.958	25.7
456.162	25.78
456.365	25.69
456.569	25.84
456.772	25.68
456.976	25.68
457.179	25.62
457.383	25.5
457.586	25.51
457.79	25.73
457.993	25.77
458.196	25.95
458.4	25.84
458.603	25.85
