Data from 2937890_Reflection_2.txt Node
Date: Wed Jul 15 14:20:45 EDT 2015
User: robert
Spectrometer: USB4E03001
Autoset integration time: false
Trigger mode: 4
Integration Time (sec): 1.000000E-1
Scans to average: 10
Electric dark correction enabled: true
Nonlinearity correction enabled: false
Boxcar width: 5
Stray light correction enabled: false
XAxis mode: Wavelengths
Stop averaging: false
Number of Pixels in Spectrum: 3648
>>>>>Begin Spectral Data<<<<<
177.566	106.95
177.785	10.15
178.005	66.29
178.225	71.22
178.445	64.42
178.665	59.95
178.885	372.19
179.105	140.77
179.324	117.55
179.544	77.84
179.764	73.07
179.984	91.06
180.204	100.07
180.423	111.55
180.643	124.53
180.863	120.7
181.083	104.7
181.302	138.62
181.522	144.13
181.742	166.95
181.961	308.97
182.181	1421.86
182.401	-1436.8
182.621	-277.88
182.84	-593.62
183.06	-989.75
183.279	324.95
183.499	-46.46
183.719	217.36
183.938	289.04
184.158	372.29
184.377	170.33
184.597	131.78
184.816	88.86
185.036	119.16
185.256	141.56
185.475	183.16
185.695	997.53
185.914	430.19
186.134	-3319.29
186.353	-362.09
186.572	1464.31
186.792	-1768.68
187.011	572.87
187.231	778.86
187.45	3194.94
187.67	1132.5
187.889	708.32
188.108	2204.17
188.328	518.17
188.547	135.87
188.766	111.02
188.986	107.59
189.205	116.27
189.424	151.19
189.644	116.68
189.863	68.85
190.082	74.52
190.302	74.81
190.521	129.61
190.74	203.6
190.959	231.59
191.178	234.65
191.398	213.91
191.617	215.1
191.836	-186.02
192.055	-24.53
192.274	-243.42
192.494	-104.5
192.713	-67.93
192.932	-115.32
193.151	-155.59
193.37	-91.74
193.589	-64.44
193.808	-29.94
194.027	-370.02
194.246	724.67
194.465	249.4
194.685	182.31
194.904	159.14
195.123	164.69
195.342	96.24
195.561	87.31
195.78	2.27
195.999	0.1
196.218	-2.49
196.436	-152.9
196.655	-452.58
196.874	-372.98
197.093	-282.86
197.312	168.04
197.531	131.45
197.75	424.69
197.969	29.52
198.188	-393.2
198.407	-132.58
198.625	-128.16
198.844	6.65
199.063	63.86
199.282	201.26
199.501	26.97
199.719	-281.74
199.938	129.59
200.157	143.97
200.376	145.22
200.594	-242.7
200.813	-902.4
201.032	-225.04
201.251	-343.79
201.469	825.93
201.688	113.07
201.907	90.43
202.125	56.7
202.344	26.15
202.563	38.27
202.781	21.89
203	12
203.218	35.83
203.437	42.81
203.656	35.41
203.874	36.75
204.093	32.97
204.311	33.46
204.53	25.3
204.748	37.99
204.967	35.93
205.185	46.85
205.404	56
205.622	48.04
205.841	49.18
206.059	80.69
206.278	77.61
206.496	108.43
206.715	114.6
206.933	118.13
207.151	137.72
207.37	181.19
207.588	158.92
207.806	193.2
208.025	192.99
208.243	215.89
208.461	189.46
208.68	323.69
208.898	170.76
209.116	190.39
209.335	104.81
209.553	136.86
209.771	151.85
209.989	186.63
210.208	254.97
210.426	-366.59
210.644	2.58
210.862	-311.26
211.081	138.53
211.299	76.31
211.517	71.36
211.735	77.28
211.953	77.34
212.171	82.94
212.39	84.81
212.608	46.66
212.826	73.05
213.044	67.63
213.262	84.28
213.48	117.65
213.698	121.29
213.916	59.67
214.134	34.79
214.352	510.06
214.57	-171.98
214.788	347.19
215.006	140.03
215.224	174.58
215.442	188.58
215.66	351.41
215.878	-211.39
216.096	-95.12
216.314	-50.87
216.532	30.54
216.75	62.71
216.968	73.51
217.185	83.12
217.403	78.23
217.621	64.98
217.839	64.53
218.057	63.72
218.275	51.78
218.492	75.07
218.71	80.69
218.928	91.56
219.146	53.87
219.363	43.27
219.581	82.02
219.799	93.11
220.017	92.42
220.234	81.24
220.452	106.38
220.67	79.39
220.887	104.76
221.105	170.76
221.323	229.64
221.54	164.03
221.758	85.55
221.976	5.28
222.193	11.81
222.411	13.02
222.629	-44.39
222.846	-65.46
223.064	-404.2
223.281	-35.4
223.499	-49.28
223.716	-80.74
223.934	-124.81
224.151	12.43
224.369	80.79
224.586	-34.43
224.804	29.33
225.021	-2293.88
225.239	-658.72
225.456	235.56
225.674	95.87
225.891	65.17
226.108	45.48
226.326	35.54
226.543	30.35
226.76	-15.64
226.978	-7.35
227.195	-13.7
227.413	-12.31
227.63	-6.75
227.847	0.29
228.064	2.37
228.282	12.26
228.499	10.33
228.716	11.98
228.934	13.29
229.151	15.99
229.368	17.28
229.585	17.88
229.802	22.67
230.02	20.9
230.237	16.96
230.454	13.38
230.671	11.2
230.888	17.37
231.105	18.46
231.323	19.2
231.54	28.06
231.757	24.77
231.974	23.69
232.191	20.94
232.408	27.71
232.625	34.92
232.842	37.34
233.059	42.97
233.276	43.22
233.493	34.71
233.71	33.99
233.927	21.39
234.144	29.67
234.361	32.34
234.578	36.97
234.795	38.69
235.012	33.56
235.229	35.42
235.446	35.14
235.663	34.98
235.879	38.63
236.096	33.56
236.313	39.25
236.53	40.72
236.747	40.02
236.964	31.06
237.181	33.99
237.397	41.39
237.614	40.53
237.831	35.24
238.048	29.61
238.264	27.99
238.481	31.58
238.698	33.65
238.915	31.42
239.131	26.2
239.348	35.67
239.565	32.77
239.781	30.17
239.998	31.44
240.215	31.09
240.431	28.7
240.648	23.09
240.865	24.1
241.081	22.45
241.298	17.77
241.514	21.27
241.731	18.06
241.947	16.58
242.164	14.13
242.38	13.52
242.597	15.21
242.814	19.33
243.03	20.8
243.246	18.99
243.463	18.17
243.679	21.1
243.896	17.61
244.112	18.12
244.329	19.73
244.545	23.14
244.762	23.22
244.978	22.19
245.194	20.03
245.411	21.24
245.627	21.99
245.843	21.47
246.06	19.47
246.276	20.94
246.492	21.27
246.709	19.32
246.925	18.33
247.141	19.04
247.357	19.16
247.574	19.48
247.79	19.42
248.006	20.21
248.222	20.45
248.439	21.08
248.655	22.25
248.871	21.54
249.087	22
249.303	20.79
249.519	20.63
249.736	19.81
249.952	18.76
250.168	17.11
250.384	13.14
250.6	11.54
250.816	11.4
251.032	8.62
251.248	8.6
251.464	8.88
251.68	11.65
251.896	11.74
252.112	11.44
252.328	11.14
252.544	11.46
252.76	14.29
252.976	15.29
253.192	14
253.408	11.28
253.624	12.96
253.84	14.17
254.056	12.49
254.272	12.24
254.487	14.58
254.703	16.06
254.919	16.33
255.135	14.95
255.351	12.83
255.567	13.3
255.782	14.02
255.998	10.76
256.214	9.36
256.43	11.65
256.646	10.09
256.861	10.88
257.077	8.66
257.293	8.21
257.508	10.6
257.724	12.93
257.94	12.72
258.155	15.22
258.371	14.01
258.587	14.45
258.802	14.24
259.018	14.19
259.234	14.07
259.449	14.44
259.665	14.53
259.88	13.81
260.096	13.62
260.312	13.99
260.527	14.1
260.743	14.64
260.958	14.67
261.174	14.93
261.389	14.48
261.605	14.79
261.82	14.64
262.036	15.74
262.251	16.09
262.466	16.34
262.682	17.21
262.897	16.25
263.113	16.32
263.328	15.52
263.543	18.04
263.759	18.39
263.974	16.45
264.189	17.02
264.405	14.37
264.62	15.81
264.835	17.04
265.051	17.02
265.266	18.89
265.481	19.6
265.696	20.26
265.912	15.97
266.127	16.28
266.342	16.77
266.557	16.82
266.773	18.22
266.988	15.52
267.203	14.44
267.418	13.22
267.633	11.89
267.848	11.52
268.064	10.4
268.279	11.45
268.494	13.21
268.709	11.69
268.924	11.88
269.139	11.73
269.354	13.4
269.569	13.85
269.784	13.13
269.999	13.72
270.214	12.06
270.429	11.74
270.644	12.23
270.859	9.9
271.074	10.1
271.289	10.28
271.504	10.27
271.719	8.48
271.934	7.75
272.149	8.31
272.363	8.46
272.578	9.43
272.793	10.48
273.008	11.62
273.223	12.8
273.438	12.68
273.653	12.79
273.867	11.54
274.082	11.42
274.297	12.43
274.512	12.4
274.726	13.4
274.941	14.92
275.156	14.93
275.371	13.26
275.585	13.06
275.8	12.52
276.015	12.46
276.229	13.94
276.444	15.21
276.659	15.43
276.873	14.9
277.088	13.2
277.302	13.41
277.517	13.08
277.732	14.2
277.946	15.69
278.161	17.75
278.375	18.04
278.59	17.82
278.804	17.8
279.019	18.57
279.233	19.24
279.448	19.66
279.662	18.35
279.877	18.81
280.091	16.46
280.306	15.11
280.52	14.82
280.735	15.93
280.949	14.44
281.163	14.17
281.378	12.48
281.592	14.15
281.806	14.35
282.021	13.97
282.235	13.97
282.449	16.09
282.664	15.7
282.878	16.55
283.092	14.09
283.307	15.8
283.521	15.38
283.735	15.07
283.949	12.25
284.164	11.21
284.378	12.24
284.592	12.45
284.806	10.42
285.02	12.28
285.234	11.09
285.449	12.19
285.663	11.42
285.877	11.52
286.091	11.38
286.305	11.45
286.519	11.29
286.733	10.58
286.947	10.62
287.161	10.65
287.375	9.02
287.589	9.22
287.803	8.88
288.017	9.28
288.231	10
288.445	10.41
288.659	11.74
288.873	12.97
289.087	12.19
289.301	11.88
289.515	13.05
289.729	11.56
289.943	11.57
290.157	11.45
290.371	10.88
290.584	10.56
290.798	10.5
291.012	10.66
291.226	10.22
291.44	12.48
291.654	12.03
291.867	11.87
292.081	12.16
292.295	11.73
292.509	10.81
292.722	12.35
292.936	12.17
293.15	12.28
293.364	10.9
293.577	10.21
293.791	8.8
294.005	10.61
294.218	7.96
294.432	9.66
294.645	11.36
294.859	12.85
295.073	13.13
295.286	12.42
295.5	12.73
295.713	14.43
295.927	15.33
296.14	15.42
296.354	15.18
296.568	16.16
296.781	15.27
296.994	14.31
297.208	13.48
297.421	13.06
297.635	13.1
297.848	13.79
298.062	13.31
298.275	13.15
298.489	12.35
298.702	12.16
298.915	12.9
299.129	13.88
299.342	15.48
299.555	16.12
299.769	15.38
299.982	16.41
300.195	15.99
300.409	16.34
300.622	16.4
300.835	16.87
301.048	16.83
301.262	16.06
301.475	17.64
301.688	16.87
301.901	17.54
302.115	18.39
302.328	18.16
302.541	17.43
302.754	16.99
302.967	17.36
303.18	16.51
303.393	15.72
303.607	15.79
303.82	13.54
304.033	12.71
304.246	12.14
304.459	11.28
304.672	10.85
304.885	9.83
305.098	11.19
305.311	12.17
305.524	10.98
305.737	9.5
305.95	9.56
306.163	10.9
306.376	10.71
306.589	11.13
306.802	10.94
307.015	11.86
307.228	14.44
307.44	12.68
307.653	11.85
307.866	12.56
308.079	13.6
308.292	12.58
308.505	11.05
308.718	11.91
308.93	11.01
309.143	10.96
309.356	10.35
309.569	9.01
309.781	10.13
309.994	11
310.207	12.63
310.42	13.35
310.632	14.05
310.845	14.95
311.058	15.35
311.27	16.1
311.483	16.65
311.696	16.89
311.908	16.48
312.121	15.37
312.333	14.33
312.546	14.15
312.759	14.87
312.971	15.58
313.184	14.65
313.396	12.91
313.609	11.7
313.821	12.52
314.034	13.95
314.246	15.46
314.459	16.06
314.671	16.48
314.884	16.13
315.096	15.2
315.309	14.93
315.521	15.83
315.733	16.96
315.946	19.17
316.158	18.67
316.371	16.97
316.583	15.76
316.795	16.37
317.008	15.38
317.22	15.51
317.432	17.37
317.644	17.77
317.857	17.81
318.069	15.73
318.281	15.84
318.494	15.57
318.706	17.22
318.918	17.88
319.13	18.29
319.342	18.25
319.555	20.82
319.767	18.43
319.979	18.42
320.191	19.52
320.403	21.41
320.615	19.79
320.827	20.34
321.039	17.91
321.252	18.65
321.464	17.28
321.676	18.23
321.888	16.24
322.1	16.21
322.312	14.72
322.524	13.02
322.736	12.93
322.948	13
323.16	11.82
323.372	12.35
323.584	11.54
323.796	12.51
324.007	11.65
324.219	12.01
324.431	11.44
324.643	13.08
324.855	13.56
325.067	13.99
325.279	14.01
325.491	15.66
325.702	16.97
325.914	17.53
326.126	17.23
326.338	16.57
326.55	15.25
326.761	15.84
326.973	14.48
327.185	13.98
327.396	14.57
327.608	15.06
327.82	14.08
328.032	13.69
328.243	15.25
328.455	16.06
328.666	17.48
328.878	19.17
329.09	19.11
329.301	18.38
329.513	19.73
329.725	18.41
329.936	17.64
330.148	17.13
330.359	16.1
330.571	14.2
330.782	13.85
330.994	13.3
331.205	11.82
331.417	11.85
331.628	12.32
331.84	11.31
332.051	10.72
332.262	10.64
332.474	10.18
332.685	10.7
332.897	10.34
333.108	9.86
333.319	9.06
333.531	10.17
333.742	10.24
333.953	11.45
334.165	13
334.376	14.12
334.587	13.52
334.799	13.74
335.01	14.09
335.221	13.72
335.432	14.5
335.644	14.58
335.855	13
336.066	12.32
336.277	11.65
336.488	10.33
336.7	10.04
336.911	10.89
337.122	12.25
337.333	11.31
337.544	12.48
337.755	12.49
337.966	12.28
338.177	13.24
338.388	13.64
338.599	13.73
338.811	14.6
339.022	16.01
339.233	16.19
339.444	14.98
339.655	15.36
339.866	15.55
340.076	14.94
340.287	17.01
340.498	16.71
340.709	16.92
340.92	17.31
341.131	16.26
341.342	14.85
341.553	13.97
341.764	14.36
341.975	15.57
342.185	14.6
342.396	15.28
342.607	14.59
342.818	14.94
343.029	14.16
343.239	14.44
343.45	13.84
343.661	14.23
343.872	15.19
344.082	14.72
344.293	14.08
344.504	15.52
344.714	13.58
344.925	13.73
345.136	14.27
345.346	15.06
345.557	14.26
345.768	14.81
345.978	13.52
346.189	12.75
346.399	12.79
346.61	12.93
346.821	11.09
347.031	12.44
347.242	11.38
347.452	9.89
347.663	10.11
347.873	10.53
348.084	9.44
348.294	10.12
348.504	10.61
348.715	11.49
348.925	11.04
349.136	11.72
349.346	11.01
349.557	10.89
349.767	11.23
349.977	10.58
350.188	9.76
350.398	10.12
350.608	11.79
350.819	10.23
351.029	9.52
351.239	9.69
351.449	10.02
351.66	10.67
351.87	11.14
352.08	11.16
352.29	11.42
352.501	12.94
352.711	13.72
352.921	12.34
353.131	13.83
353.341	14.21
353.552	14.51
353.762	14.59
353.972	15.82
354.182	15.73
354.392	16.74
354.602	16.65
354.812	16.55
355.022	16.9
355.232	16.73
355.442	16.49
355.652	15.61
355.862	15.96
356.072	15.59
356.282	13.9
356.492	13.78
356.702	12.12
356.912	12.42
357.122	12.63
357.332	11.75
357.542	12.49
357.752	12.52
357.962	12.97
358.171	12.26
358.381	12.16
358.591	13.19
358.801	12.86
359.011	13.68
359.221	13.7
359.43	13.11
359.64	14.05
359.85	14.32
360.06	13.88
360.269	13.95
360.479	14.55
360.689	14.41
360.899	14.69
361.108	15.29
361.318	15.54
361.528	14.95
361.737	14.59
361.947	14.3
362.156	14.13
362.366	14.36
362.576	14.78
362.785	14.85
362.995	15.56
363.204	14.53
363.414	14.34
363.623	14.28
363.833	14.59
364.042	14.65
364.252	14.38
364.461	13.42
364.671	14.25
364.88	13.8
365.09	13.81
365.299	13.19
365.509	13.53
365.718	14.26
365.927	14.04
366.137	13.85
366.346	14.07
366.555	14.5
366.765	14.76
366.974	13.66
367.183	14.03
367.393	13.3
367.602	14.02
367.811	14.08
368.021	12.94
368.23	12.79
368.439	12.63
368.648	12.66
368.857	12.03
369.067	12.26
369.276	12.47
369.485	12.62
369.694	13.16
369.903	12.25
370.112	11.94
370.321	12.32
370.531	13.35
370.74	13.84
370.949	14.07
371.158	14.07
371.367	14.66
371.576	15.18
371.785	14.44
371.994	13.74
372.203	13.9
372.412	13.8
372.621	13.49
372.83	12.71
373.039	11.46
373.248	11.22
373.457	10.62
373.666	10.21
373.874	9.81
374.083	9.96
374.292	10.59
374.501	9.51
374.71	8.89
374.919	8.52
375.128	8.2
375.336	9.78
375.545	9.91
375.754	10.17
375.963	9.51
376.171	9.03
376.38	8.55
376.589	8.43
376.798	8.74
377.006	9.72
377.215	10
377.424	10.2
377.632	10.16
377.841	9.34
378.05	9.71
378.258	9.16
378.467	9.3
378.675	9.25
378.884	8.64
379.093	9.05
379.301	8.86
379.51	9.5
379.718	9.91
379.927	9.54
380.135	10.02
380.344	9.69
380.552	10.23
380.761	10.59
380.969	9.94
381.177	10.41
381.386	9.81
381.594	9.34
381.803	8.35
382.011	7.66
382.219	6.83
382.428	7.15
382.636	7.28
382.845	7.42
383.053	7.23
383.261	7.47
383.469	7.3
383.678	7.79
383.886	7.71
384.094	8.06
384.302	7.81
384.511	8.06
384.719	7.76
384.927	7.82
385.135	7.52
385.343	7.26
385.552	7.88
385.76	7.61
385.968	7.55
386.176	7.79
386.384	8.01
386.592	8.45
386.8	9.07
387.008	8.78
387.216	8.81
387.424	9.12
387.633	9.41
387.841	9.44
388.049	9.29
388.257	9.6
388.465	9.65
388.672	9.56
388.88	9.3
389.088	8.85
389.296	9.43
389.504	9.23
389.712	9.22
389.92	8.9
390.128	8.48
390.336	8.61
390.544	8.03
390.751	8
390.959	7.45
391.167	7.38
391.375	7.55
391.583	7.27
391.79	7.21
391.998	6.96
392.206	6.97
392.414	7.44
392.621	7.75
392.829	7.8
393.037	7.76
393.244	7.8
393.452	7.89
393.66	7.6
393.867	7.39
394.075	7.19
394.283	7.4
394.49	7.24
394.698	7.28
394.905	7.03
395.113	7.22
395.32	7.23
395.528	7.15
395.735	7.22
395.943	7.19
396.15	6.89
396.358	7.12
396.565	7.22
396.773	7.32
396.98	6.92
397.188	6.72
397.395	6.57
397.602	6.28
397.81	6.43
398.017	6.25
398.225	6.32
398.432	6.55
398.639	6.48
398.847	5.98
399.054	5.72
399.261	5.88
399.468	6.33
399.676	6.39
399.883	6.67
400.09	6.98
400.297	6.82
400.505	6.98
400.712	7.26
400.919	7.25
401.126	7.38
401.333	7.47
401.54	7.56
401.748	7.13
401.955	6.97
402.162	6.7
402.369	6.25
402.576	6.13
402.783	6.2
402.99	6.02
403.197	5.87
403.404	5.71
403.611	6.07
403.818	5.74
404.025	5.68
404.232	5.84
404.439	6.06
404.646	6.25
404.853	5.98
405.06	5.65
405.267	5.87
405.474	6
405.681	6.21
405.887	6.28
406.094	6.32
406.301	6.78
406.508	6.51
406.715	6.37
406.922	6.3
407.128	6.76
407.335	6.91
407.542	6.59
407.749	6.36
407.955	6.43
408.162	6.31
408.369	6.58
408.575	5.97
408.782	6.1
408.989	5.91
409.195	6.05
409.402	6.11
409.609	6.12
409.815	6.25
410.022	5.97
410.228	6.05
410.435	6.13
410.642	5.62
410.848	5.8
411.055	5.78
411.261	6.24
411.468	6.29
411.674	6.25
411.881	6.3
412.087	6.04
412.294	6.51
412.5	6.38
412.706	5.89
412.913	6.32
413.119	6.51
413.326	6.35
413.532	6.04
413.738	6.01
413.945	5.89
414.151	5.69
414.357	5.9
414.564	5.96
414.77	6.1
414.976	6.36
415.182	6.13
415.389	6.06
415.595	6.34
415.801	6.16
416.007	6.22
416.214	6.57
416.42	6.54
416.626	6.53
416.832	6.57
417.038	6.25
417.244	6.09
417.45	6.16
417.657	5.99
417.863	6.11
418.069	6.13
418.275	5.95
418.481	5.78
418.687	5.82
418.893	5.73
419.099	5.64
419.305	5.73
419.511	5.71
419.717	5.52
419.923	5.51
420.129	5.46
420.335	5.5
420.541	5.46
420.746	5.38
420.952	5.48
421.158	5.49
421.364	5.3
421.57	5.1
421.776	5.13
421.982	5.24
422.187	5.36
422.393	5.22
422.599	5.24
422.805	5.28
423.01	5.25
423.216	5.3
423.422	5.3
423.628	5.54
423.833	5.73
424.039	5.74
424.245	5.84
424.45	5.77
424.656	5.78
424.862	5.71
425.067	5.84
425.273	5.99
425.478	5.83
425.684	5.78
425.889	5.51
426.095	5.6
426.301	5.69
426.506	5.55
426.712	5.38
426.917	5.36
427.123	5.52
427.328	5.28
427.533	5.23
427.739	4.99
427.944	5.05
428.15	5.32
428.355	5.17
428.561	5.14
428.766	5.2
428.971	5.71
429.177	5.61
429.382	5.55
429.587	5.41
429.793	5.43
429.998	5.77
430.203	5.61
430.408	5.74
430.614	5.8
430.819	5.93
431.024	6.14
431.229	5.63
431.434	5.66
431.64	5.47
431.845	5.59
432.05	5.69
432.255	5.6
432.46	5.66
432.665	5.42
432.87	5.45
433.076	5.3
433.281	4.96
433.486	5.12
433.691	5.17
433.896	5.14
434.101	5.24
434.306	4.95
434.511	5.07
434.716	5.14
434.921	5.24
435.126	5.15
435.331	5.28
435.535	5.33
435.74	5.29
435.945	5.41
436.15	5.43
436.355	5.37
436.56	5.54
436.765	5.43
436.97	5.34
437.174	5.28
437.379	5.15
437.584	4.93
437.789	4.94
437.993	5.22
438.198	5.24
438.403	5.23
438.608	5.15
438.812	4.92
439.017	4.93
439.222	4.85
439.426	4.82
439.631	4.96
439.836	5.16
440.04	5.25
440.245	5.12
440.45	4.94
440.654	5.06
440.859	5.09
441.063	5.16
441.268	5.32
441.472	5.56
441.677	5.47
441.881	5.45
442.086	5.27
442.29	5.19
442.495	5.08
442.699	5.32
442.904	5.36
443.108	5.47
443.312	5.32
443.517	5.19
443.721	5
443.925	5.3
444.13	5.22
444.334	5.31
444.538	5.35
444.743	5.49
444.947	5.53
445.151	5.32
445.356	5.31
445.56	5.47
445.764	5.57
445.968	5.39
446.173	5.31
446.377	5.28
446.581	5.19
446.785	5.21
446.989	5.18
447.193	4.99
447.398	4.99
447.602	4.91
447.806	4.79
448.01	4.62
448.214	4.93
448.418	4.9
448.622	4.93
448.826	4.92
449.03	4.89
449.234	5.12
449.438	5.09
449.642	5.22
449.846	5.32
450.05	5.39
450.254	5.5
450.458	5.45
450.662	5.36
450.866	5.46
451.069	5.62
451.273	5.56
451.477	5.25
451.681	5.24
451.885	5.18
452.089	5.28
452.292	5.18
452.496	5.01
452.7	4.95
452.904	5.23
453.107	5.1
453.311	5.13
453.515	5.32
453.719	5.28
453.922	5.1
454.126	5.2
454.33	5.18
454.533	5.19
454.737	5.2
454.94	5.18
455.144	4.96
455.348	4.98
455.551	4.89
455.755	4.71
455.958	4.78
456.162	5.14
456.365	5.26
456.569	4.94
456.772	5.17
456.976	5.21
457.179	5.23
457.383	5.31
457.586	5.52
457.79	5.55
457.993	5.22
458.196	5.16
458.4	5.04
458.603	5.06
458.807	5.16
459.01	4.95
459.213	4.96
459.417	4.85
459.62	4.82
459.823	4.77
460.026	4.57
460.23	4.77
460.433	4.69
460.636	4.88
460.839	4.9
461.042	4.77
461.246	4.9
