Data from 2938052_Reflection_1.txt Node
Date: Sun Jul 12 14:09:40 EDT 2015
User: robert
Spectrometer: USB4E03001
Autoset integration time: false
Trigger mode: 4
Integration Time (sec): 1.000000E-1
Scans to average: 10
Electric dark correction enabled: true
Nonlinearity correction enabled: false
Boxcar width: 5
Stray light correction enabled: false
XAxis mode: Wavelengths
Stop averaging: false
Number of Pixels in Spectrum: 3648
>>>>>Begin Spectral Data<<<<<
177.566	-195.34
177.785	-1150.49
178.005	1119.19
178.225	4645.16
178.445	104.02
178.665	124.25
178.885	79.27
179.105	308.33
179.324	-86.02
179.544	248.75
179.764	251.59
179.984	1690.67
180.204	3259.86
180.423	439.88
180.643	213
180.863	165.28
181.083	169.8
181.302	196.12
181.522	456.09
181.742	-31144.44
181.961	-46.01
182.181	-23.74
182.401	-63.43
182.621	-61.67
182.84	7.75
183.06	13.52
183.279	20.17
183.499	52.59
183.719	72.41
183.938	90.96
184.158	113.7
184.377	114.44
184.597	127.38
184.816	120.22
185.036	115.45
185.256	98.32
185.475	98.12
185.695	82.95
185.914	75.64
186.134	138.92
186.353	27.53
186.572	1.81
186.792	-140.43
187.011	-19.86
187.231	38.09
187.45	-51.93
187.67	-6.33
187.889	23
188.108	42.39
188.328	40.57
188.547	-26.19
188.766	1.79
188.986	-77.81
189.205	-62.6
189.424	16.81
189.644	-3.2
189.863	9.08
190.082	-50.18
190.302	-53.43
190.521	-196.61
190.74	-201.68
190.959	445.21
191.178	109.25
191.398	94.85
191.617	92.73
191.836	154.77
192.055	183.95
192.274	253.56
192.494	237.05
192.713	209.92
192.932	-72.53
193.151	-32.91
193.37	-49.73
193.589	-9.83
193.808	-53.02
194.027	-74.48
194.246	-68.51
194.465	-54.08
194.685	-122.23
194.904	-47.55
195.123	-55.84
195.342	261.87
195.561	273.72
195.78	430.58
195.999	228.48
196.218	527.68
196.436	152.46
196.655	17.3
196.874	63.47
197.093	163.09
197.312	-155.04
197.531	-161.42
197.75	-19.36
197.969	-4.46
198.188	131.18
198.407	45.36
198.625	13.59
198.844	1.29
199.063	43.52
199.282	-55.98
199.501	-19.96
199.719	3.18
199.938	11.78
200.157	65.37
200.376	83.85
200.594	45.3
200.813	66.36
201.032	73.23
201.251	87.54
201.469	90.75
201.688	111.07
201.907	172.26
202.125	379.12
202.344	-380.19
202.563	-109.98
202.781	-28.41
203	-88.89
203.218	-118.84
203.437	-710.92
203.656	-342.95
203.874	-107.11
204.093	0.59
204.311	-17.8
204.53	40.56
204.748	44.79
204.967	11.98
205.185	36.04
205.404	64.08
205.622	52.97
205.841	108.36
206.059	172.29
206.278	723.92
206.496	-450
206.715	203.16
206.933	154.45
207.151	208.75
207.37	452.16
207.588	114.78
207.806	36.94
208.025	37.95
208.243	17.3
208.461	3.69
208.68	-55.86
208.898	-61.68
209.116	-69.53
209.335	4.62
209.553	-11.71
209.771	-23.13
209.989	-38.42
210.208	-213.67
210.426	1517.93
210.644	1092.07
210.862	273.22
211.081	379.31
211.299	242.08
211.517	360.09
211.735	123.61
211.953	112.67
212.171	95.52
212.39	37.02
212.608	16.41
212.826	-11.08
213.044	-27.41
213.262	-76.85
213.48	799.32
213.698	135.28
213.916	326.44
214.134	200.55
214.352	150.16
214.57	103.3
214.788	87.06
215.006	99.9
215.224	83.81
215.442	68.19
215.66	71.14
215.878	35.2
216.096	9.4
216.314	7.47
216.532	22.84
216.75	27.76
216.968	13.04
217.185	15.5
217.403	2.32
217.621	0.77
217.839	-9.48
218.057	-3.41
218.275	14.27
218.492	17.81
218.71	9.29
218.928	11.11
219.146	0.66
219.363	16.76
219.581	6.31
219.799	-0.09
220.017	7.85
220.234	63.21
220.452	91
220.67	103.48
220.887	225.56
221.105	140.28
221.323	78.41
221.54	97.18
221.758	90.63
221.976	128.8
222.193	134.87
222.411	118.36
222.629	82.46
222.846	58.13
223.064	51.21
223.281	39.39
223.499	55.52
223.716	65.41
223.934	44.88
224.151	17.88
224.369	-1.03
224.586	-24.8
224.804	-54.92
225.021	-23.35
225.239	-45.79
225.456	-27.58
225.674	-11.64
225.891	-3.61
226.108	1.47
226.326	10.18
226.543	8.49
226.76	7.47
226.978	3.67
227.195	10.48
227.413	10.19
227.63	17.16
227.847	20.9
228.064	17.17
228.282	12.67
228.499	11.85
228.716	14
228.934	13.96
229.151	15.29
229.368	17.75
229.585	17.76
229.802	16.93
230.02	18.63
230.237	15.17
230.454	13.35
230.671	14.11
230.888	12.29
231.105	11.82
231.323	13.84
231.54	13.02
231.757	11.85
231.974	10.99
232.191	13.81
232.408	13.29
232.625	18.01
232.842	24.55
233.059	27.98
233.276	31.76
233.493	29.34
233.71	27.8
233.927	26.27
234.144	26.52
234.361	27.92
234.578	25.53
234.795	22.21
235.012	24.27
235.229	26.08
235.446	23.95
235.663	21.06
235.879	15.83
236.096	15.72
236.313	18.96
236.53	17.8
236.747	16.78
236.964	15.48
237.181	16.11
237.397	14.57
237.614	14.13
237.831	14.36
238.048	19.25
238.264	24.04
238.481	24.11
238.698	17.84
238.915	13.26
239.131	12.77
239.348	13.73
239.565	11.14
239.781	7.78
239.998	7.58
240.215	4.43
240.431	0.11
240.648	1.34
240.865	1.83
241.081	0.91
241.298	3.91
241.514	6.44
241.731	8.13
241.947	8.75
242.164	11.99
242.38	10.9
242.597	11.92
242.814	12.21
243.03	12.56
243.246	12.34
243.463	12.41
243.679	12.88
243.896	12.76
244.112	13.82
244.329	14.83
244.545	12.51
244.762	13.02
244.978	13.32
245.194	15.83
245.411	15.57
245.627	15.02
245.843	15.64
246.06	15.12
246.276	15.08
246.492	12.77
246.709	11.88
246.925	13.21
247.141	13.6
247.357	13.36
247.574	12.02
247.79	11.85
248.006	12.19
248.222	11.91
248.439	12.32
248.655	11.2
248.871	11.58
249.087	11.53
249.303	10.1
249.519	8.89
249.736	8.14
249.952	8.81
250.168	9.21
250.384	8.13
250.6	9.25
250.816	6.72
251.032	6.76
251.248	7.98
251.464	6.49
251.68	8.11
251.896	9.57
252.112	9.14
252.328	8.33
252.544	7.06
252.76	8.77
252.976	8.86
253.192	10.29
253.408	10.29
253.624	8.88
253.84	11.54
254.056	10.26
254.272	7.02
254.487	8.23
254.703	9.19
254.919	6.98
255.135	5.29
255.351	4.21
255.567	0.99
255.782	4.19
255.998	7.22
256.214	7.56
256.43	9.37
256.646	11.37
256.861	10.3
257.077	8.99
257.293	12.2
257.508	14.09
257.724	13.89
257.94	14.95
258.155	12.27
258.371	12.2
258.587	11.56
258.802	10.79
259.018	9.56
259.234	9.16
259.449	10.45
259.665	9.45
259.88	8.2
260.096	8.74
260.312	8.92
260.527	9.16
260.743	9.25
260.958	8.88
261.174	8.9
261.389	9.75
261.605	10.24
261.82	9.67
262.036	9.71
262.251	10.36
262.466	9.41
262.682	8.41
262.897	7.88
263.113	6.36
263.328	6.66
263.543	4
263.759	3.32
263.974	3.53
264.189	0.96
264.405	3.21
264.62	3.67
264.835	4.36
265.051	6.07
265.266	7.13
265.481	5.83
265.696	5.36
265.912	7.14
266.127	7.49
266.342	6.64
266.557	8.33
266.773	7.69
266.988	6.7
267.203	6.66
267.418	6.88
267.633	6.4
267.848	7.26
268.064	7.82
268.279	7.62
268.494	6.95
268.709	8.27
268.924	7.67
269.139	5.74
269.354	5.87
269.569	6.54
269.784	6.33
269.999	7.09
270.214	6.87
270.429	7.96
270.644	8.8
270.859	8.64
271.074	7.85
271.289	8.1
271.504	9.54
271.719	9.43
271.934	8.67
272.149	9.29
272.363	8.75
272.578	8.8
272.793	8.13
273.008	7.38
273.223	8.61
273.438	10.29
273.653	10.84
273.867	10.32
274.082	10.17
274.297	11.39
274.512	10.73
274.726	10.17
274.941	11.64
275.156	11.06
275.371	12.03
275.585	12.69
275.8	11.93
276.015	11.53
276.229	10.89
276.444	11.77
276.659	10.45
276.873	9.94
277.088	10.59
277.302	9.95
277.517	11.15
277.732	10.68
277.946	8.15
278.161	7.18
278.375	7.39
278.59	7.38
278.804	6.6
279.019	5.74
279.233	6.27
279.448	6.02
279.662	5.54
279.877	3.37
280.091	4.01
280.306	4.78
280.52	4.96
280.735	5.03
280.949	7.06
281.163	7.32
281.378	8.55
281.592	7.81
281.806	8.52
282.021	9.09
282.235	10.84
282.449	10.93
282.664	10.57
282.878	10.81
283.092	10.86
283.307	10.04
283.521	11.11
283.735	10.55
283.949	10.32
284.164	11.1
284.378	10.39
284.592	9.56
284.806	9.26
285.02	9.92
285.234	9.83
285.449	9.75
285.663	10.29
285.877	9.07
286.091	9.99
286.305	11.63
286.519	10.74
286.733	11.3
286.947	11.79
287.161	11.42
287.375	10.95
287.589	11.57
287.803	10.8
288.017	9.68
288.231	9.06
288.445	8.76
288.659	7.31
288.873	8.46
289.087	8.04
289.301	7.94
289.515	7.44
289.729	6.98
289.943	5.99
290.157	7.46
290.371	6.99
290.584	8
290.798	7.86
291.012	7.53
291.226	6.63
291.44	6.18
291.654	6.53
291.867	6.22
292.081	6.52
292.295	6.39
292.509	4.71
292.722	6.6
292.936	5.69
293.15	5.94
293.364	7.17
293.577	6.04
293.791	5.85
294.005	5.58
294.218	6.3
294.432	7.12
294.645	7.61
294.859	8.26
295.073	7.63
295.286	9.57
295.5	9.61
295.713	9.43
295.927	9.45
296.14	9.94
296.354	10.25
296.568	11.26
296.781	10.37
296.994	10.78
297.208	11.73
297.421	12.39
297.635	12.19
297.848	12.8
298.062	12.01
298.275	12.23
298.489	12.41
298.702	11.84
298.915	11.12
299.129	10.39
299.342	8.84
299.555	7.66
299.769	6.37
299.982	6.84
300.195	5.54
300.409	7.55
300.622	8.08
300.835	7.68
301.048	7.79
301.262	8.19
301.475	10.05
301.688	11.64
301.901	12.8
302.115	12.41
302.328	10.46
302.541	10.21
302.754	8.97
302.967	9.08
303.18	9.54
303.393	10.01
303.607	10.26
303.82	10.32
304.033	9.84
304.246	8.93
304.459	10.37
304.672	10.87
304.885	11.34
305.098	10.26
305.311	9.84
305.524	11.16
305.737	11.21
305.95	11.96
306.163	12.05
306.376	12.78
306.589	12.99
306.802	12.37
307.015	13.9
307.228	13.69
307.44	13.6
307.653	14.97
307.866	12.73
308.079	12.77
308.292	11.77
308.505	11.8
308.718	10.65
308.93	9.79
309.143	10.56
309.356	10.35
309.569	10.28
309.781	11.25
309.994	10.02
310.207	10.13
310.42	10.98
310.632	11.77
310.845	11.76
311.058	12.26
311.27	12.85
311.483	12.51
311.696	11.84
311.908	11.97
312.121	10.81
312.333	11.8
312.546	12.69
312.759	11.41
312.971	11.4
313.184	13.06
313.396	12.63
313.609	12.05
313.821	12.56
314.034	12.89
314.246	13.1
314.459	14.02
314.671	13.96
314.884	13.95
315.096	13.61
315.309	13.7
315.521	12.16
315.733	13.04
315.946	12.64
316.158	12.52
316.371	12.24
316.583	11.55
316.795	12.49
317.008	13.78
317.22	13.63
317.432	15.31
317.644	14.53
317.857	15.83
318.069	16.6
318.281	17.57
318.494	17.69
318.706	18.43
318.918	19.3
319.13	18.21
319.342	15.21
319.555	14.37
319.767	15.48
319.979	15.72
320.191	14.16
320.403	12.99
320.615	14.03
320.827	14.21
321.039	12.87
321.252	11.59
321.464	12.43
321.676	14.31
321.888	15.29
322.1	13.12
322.312	13.65
322.524	14.17
322.736	14.05
322.948	11.9
323.16	11.57
323.372	12.4
323.584	13.24
323.796	13.87
324.007	13.85
324.219	14.12
324.431	13.79
324.643	14.7
324.855	14.14
325.067	14.08
325.279	15.11
325.491	14.61
325.702	13.94
325.914	14.99
326.126	13.09
326.338	12.34
326.55	11.92
326.761	12.08
326.973	10.52
327.185	9.86
327.396	8.87
327.608	8.36
327.82	8.32
328.032	9.42
328.243	8.12
328.455	9.4
328.666	9.62
328.878	9.65
329.09	9.91
329.301	9.49
329.513	11.62
329.725	12.29
329.936	13.84
330.148	14.03
330.359	12.59
330.571	11.97
330.782	10.88
330.994	11.07
331.205	11.62
331.417	11.46
331.628	11.91
331.84	10.06
332.051	11.01
332.262	9.22
332.474	9
332.685	9.84
332.897	10.74
333.108	12.51
333.319	12.97
333.531	12.17
333.742	12.59
333.953	12.72
334.165	12.05
334.376	11.1
334.587	12.08
334.799	12.49
335.01	12.98
335.221	12.78
335.432	13.17
335.644	12.76
335.855	12.66
336.066	13.36
336.277	13.42
336.488	14.53
336.7	15.63
336.911	14.06
337.122	13.67
337.333	13.21
337.544	12.54
337.755	11.68
337.966	11.29
338.177	10.79
338.388	10.53
338.599	10.84
338.811	10.73
339.022	11.14
339.233	11.7
339.444	11.53
339.655	12.25
339.866	12.58
340.076	11.44
340.287	11.57
340.498	12.65
340.709	12.33
340.92	11.61
341.131	11.39
341.342	10.75
341.553	11.04
341.764	11.87
341.975	11.42
342.185	10.99
342.396	11.14
342.607	10.99
342.818	10.78
343.029	9.91
343.239	8.91
343.45	9.49
343.661	9.29
343.872	8.69
344.082	8.94
344.293	8.14
344.504	8.12
344.714	8.63
344.925	8.19
345.136	7.98
345.346	8.79
345.557	10.8
345.768	10.54
345.978	10.05
346.189	10.69
346.399	9.21
346.61	10.13
346.821	10.37
347.031	9.7
347.242	10.99
347.452	10.65
347.663	9.89
347.873	9.44
348.084	8.82
348.294	8.13
348.504	8.57
348.715	9.75
348.925	9.49
349.136	9.38
349.346	10.17
349.557	10.18
349.767	11.22
349.977	11.5
350.188	9.98
350.398	9.54
350.608	10.17
350.819	9.9
351.029	9.94
351.239	9.46
351.449	9.42
351.66	9.75
351.87	8.89
352.08	8.3
352.29	8.82
352.501	10.34
352.711	10.68
352.921	10.56
353.131	10.2
353.341	9.59
353.552	9.67
353.762	9.71
353.972	9.75
354.182	10.24
354.392	10.53
354.602	10.19
354.812	9.79
355.022	10.05
355.232	10.33
355.442	9.71
355.652	10
355.862	10.59
356.072	10.97
356.282	10.51
356.492	10.9
356.702	11.05
356.912	10.94
357.122	10.52
357.332	10.93
357.542	10.91
357.752	11.58
357.962	11.28
358.171	9.98
358.381	9.95
358.591	9.83
358.801	9.48
359.011	9.27
359.221	9.61
359.43	9.86
359.64	9.29
359.85	8.92
360.06	8.48
360.269	8.94
360.479	9.42
360.689	8.97
360.899	9.47
361.108	9.01
361.318	9.06
361.528	8.77
361.737	8.32
361.947	7.64
362.156	7.97
362.366	8.73
362.576	8.24
362.785	8.3
362.995	8.8
363.204	8.21
363.414	8.44
363.623	8.34
363.833	8.89
364.042	9.24
364.252	10.47
364.461	10.04
364.671	9.51
364.88	10.11
365.09	10.35
365.299	10.24
365.509	9.59
365.718	9.02
365.927	8.91
366.137	7.92
366.346	7.28
366.555	6.15
366.765	6.78
366.974	6.05
367.183	5.34
367.393	4.98
367.602	4.57
367.811	5.33
368.021	5.67
368.23	5.46
368.439	5.35
368.648	5.67
368.857	7.26
369.067	6.56
369.276	7.57
369.485	8.5
369.694	7.87
369.903	7.35
370.112	7.75
370.321	8.02
370.531	7.72
370.74	8.07
370.949	8.19
371.158	7.79
371.367	8.22
371.576	6.91
371.785	6.53
371.994	6.39
372.203	6.67
372.412	6.46
372.621	6.43
372.83	6.46
373.039	6.03
373.248	5.51
373.457	5.34
373.666	5.28
373.874	6.28
374.083	6.26
374.292	6.68
374.501	6.39
374.71	5.56
374.919	5.33
375.128	5.39
375.336	5.44
375.545	5.9
375.754	5.62
375.963	4.99
376.171	4.76
376.38	4.91
376.589	5.02
376.798	5.18
377.006	5.94
377.215	5.63
377.424	5.76
377.632	5.8
377.841	6.21
378.05	6.45
378.258	7.02
378.467	7.08
378.675	6.59
378.884	6.72
379.093	7.43
379.301	6.95
379.51	7.22
379.718	6.9
379.927	7
380.135	6.43
380.344	6.01
380.552	5.92
380.761	6.46
380.969	6.72
381.177	6.78
381.386	6.36
381.594	6.23
381.803	6.33
382.011	6.49
382.219	6.36
382.428	6.32
382.636	6.7
382.845	6.4
383.053	5.24
383.261	5.34
383.469	5.35
383.678	5.34
383.886	5.87
384.094	5.46
384.302	5.33
384.511	5.7
384.719	5.97
384.927	5.58
385.135	5.65
385.343	5.82
385.552	5.54
385.76	5.62
385.968	5.88
386.176	5.35
386.384	5.55
386.592	5.53
386.8	5.49
387.008	5.47
387.216	5.57
387.424	5.82
387.633	6.17
387.841	6.41
388.049	6.23
388.257	5.86
388.465	6.08
388.672	6.29
388.88	6.11
389.088	6.01
389.296	5.79
389.504	5.86
389.712	5.25
389.92	5.19
390.128	4.99
390.336	4.81
390.544	4.47
390.751	4.48
390.959	3.95
391.167	4.21
391.375	3.95
391.583	3.88
391.79	3.79
391.998	4.07
392.206	3.99
392.414	4.06
392.621	4
392.829	4.17
393.037	4.23
393.244	4.43
393.452	4.63
393.66	4.99
393.867	5.28
394.075	5.16
394.283	5.12
394.49	5.24
394.698	4.99
394.905	4.87
395.113	5.02
395.32	5.25
395.528	5.23
395.735	4.91
395.943	4.69
396.15	4.44
396.358	4.32
396.565	4.52
396.773	4.21
396.98	4.5
397.188	4.72
397.395	4.49
397.602	4.33
397.81	4.2
398.017	4.32
398.225	3.98
398.432	4.01
398.639	4.42
398.847	4.41
399.054	4.53
399.261	4.59
399.468	4.43
399.676	4.52
399.883	4.29
400.09	4.5
400.297	4.28
400.505	4.33
400.712	4.64
400.919	4.29
401.126	4.2
401.333	4.12
401.54	3.79
401.748	3.86
401.955	3.8
402.162	3.93
402.369	3.69
402.576	3.98
402.783	4.4
402.99	3.88
403.197	4.05
403.404	4.32
403.611	4.17
403.818	4.22
404.025	4.38
404.232	4.37
404.439	4.02
404.646	4.28
404.853	3.98
405.06	3.56
405.267	3.77
405.474	3.83
405.681	3.38
405.887	3.55
406.094	3.44
406.301	3.39
406.508	3.39
406.715	3.62
406.922	3.61
407.128	3.85
407.335	4.39
407.542	4.37
407.749	4.02
407.955	4.1
408.162	4.07
408.369	4.11
408.575	4.09
408.782	3.77
408.989	3.65
409.195	3.64
409.402	3.77
409.609	3.47
409.815	3.55
410.022	3.63
410.228	3.72
410.435	3.92
410.642	3.81
410.848	3.9
411.055	4.16
411.261	4.07
411.468	4.22
411.674	3.77
411.881	3.67
412.087	3.24
412.294	3.49
412.5	3.47
412.706	3.4
412.913	3.54
413.119	3.45
413.326	3.26
413.532	3.55
413.738	3.16
413.945	3.21
414.151	3.4
414.357	3.6
414.564	3.48
414.77	3.37
414.976	3.37
415.182	3.36
415.389	3.14
415.595	3.04
415.801	3.29
416.007	3.29
416.214	3.36
416.42	3.28
416.626	3.27
416.832	3.14
417.038	3.15
417.244	3.26
417.45	3.24
417.657	3.48
417.863	3.7
418.069	3.68
418.275	3.71
418.481	3.84
418.687	3.76
418.893	3.79
419.099	3.76
419.305	3.82
419.511	3.63
419.717	3.53
419.923	3.32
420.129	3.29
420.335	3.14
420.541	3.17
420.746	3.05
420.952	2.96
421.158	2.99
421.364	3.03
421.57	2.92
421.776	2.92
421.982	3.03
422.187	3.11
422.393	3.19
422.599	3.19
422.805	3.19
423.01	3.29
423.216	3.39
423.422	3.35
423.628	3.43
423.833	3.4
424.039	3.38
424.245	3.25
424.45	3.27
424.656	3.16
424.862	3.07
425.067	3.04
425.273	2.96
425.478	2.79
425.684	2.85
425.889	2.82
426.095	3.01
426.301	2.89
426.506	2.99
426.712	2.82
426.917	2.93
427.123	2.92
427.328	2.92
427.533	2.95
427.739	3.19
427.944	3.22
428.15	3.13
428.355	3.19
428.561	3.3
428.766	3.44
428.971	3.73
429.177	3.61
429.382	3.65
429.587	3.91
429.793	3.72
429.998	3.95
430.203	3.74
430.408	3.53
430.614	3.22
430.819	3.4
431.024	3.23
431.229	3.06
431.434	3.13
431.64	3.16
431.845	2.89
432.05	3.09
432.255	2.77
432.46	2.8
432.665	2.9
432.87	2.76
433.076	2.71
433.281	2.68
433.486	2.72
433.691	2.82
433.896	2.87
434.101	2.94
434.306	3
434.511	3.18
434.716	3.21
434.921	3.29
435.126	3.41
435.331	3.14
435.535	3.13
435.74	3.04
435.945	2.75
436.15	2.54
436.355	2.24
436.56	1.99
436.765	1.84
436.97	2.03
437.174	2
437.379	2.31
437.584	2.5
437.789	2.56
437.993	2.83
438.198	2.98
438.403	3.15
438.608	3.13
438.812	3.26
439.017	3.27
439.222	3.15
439.426	3.2
439.631	3.03
439.836	3.2
440.04	3.18
440.245	3.24
440.45	3.27
440.654	3.14
440.859	3.29
441.063	3.18
441.268	3.23
441.472	3.02
441.677	2.89
441.881	2.75
442.086	2.48
442.29	2.57
442.495	2.35
442.699	2.37
442.904	2.48
443.108	2.43
443.312	2.54
443.517	2.35
443.721	2.53
443.925	2.62
444.13	2.9
444.334	3.13
444.538	3.02
444.743	3
444.947	2.9
445.151	2.9
445.356	3.08
445.56	3.15
445.764	3.25
445.968	3.27
446.173	3.32
446.377	3.18
446.581	2.94
446.785	3.04
446.989	3.02
447.193	3.05
447.398	2.97
447.602	2.81
447.806	2.7
448.01	2.72
448.214	2.64
448.418	2.59
448.622	2.45
448.826	2.73
449.03	2.65
449.234	2.57
449.438	2.64
449.642	2.8
449.846	2.69
450.05	2.65
450.254	2.72
450.458	2.63
450.662	2.75
450.866	2.98
451.069	2.86
451.273	2.9
451.477	3.04
451.681	2.86
451.885	2.8
452.089	2.99
452.292	3.12
452.496	3.07
452.7	3.33
452.904	3.12
453.107	3.12
453.311	3.11
453.515	3.14
453.719	3.24
453.922	3.21
454.126	3.24
454.33	3.22
454.533	3.04
454.737	2.96
454.94	2.75
455.144	3.15
455.348	3.03
455.551	2.88
455.755	2.86
455.958	2.83
456.162	3.01
456.365	3.11
456.569	3.07
456.772	3.22
456.976	3.23
457.179	3.15
457.383	2.84
457.586	2.94
457.79	3.04
457.993	2.88
458.196	2.77
458.4	2.86
458.603	2.78
458.807	2.89
459.01	2.94
459.213	2.91
459.417	2.95
459.62	2.94
459.823	3
460.026	3.1
460.23	3.11
460.433	3
460.636	2.95
460.839	2.98
461.042	2.85
461.246	2.67
461.449	2.63
461.652	2.7
461.855	2.58
462.058	2.54
462.261	2.48
462.464	2.46
462.668	2.62
462.871	2.6
463.074	2.47
463.277	2.57
463.48	2.86
463.683	2.67
463.886	2.63
464.089	2.65
464.292	2.61
464.495	2.6
464.698	2.58
464.901	2.68
465.104	2.74
465.306	2.59
465.509	2.65
465.712	2.37
465.915	2.6
466.118	2.68
