Data from 2938037_Reflection_2.txt Node
Date: Sun Jul 12 14:46:13 EDT 2015
User: robert
Spectrometer: USB4E03001
Autoset integration time: false
Trigger mode: 4
Integration Time (sec): 1.000000E-1
Scans to average: 10
Electric dark correction enabled: true
Nonlinearity correction enabled: false
Boxcar width: 5
Stray light correction enabled: false
XAxis mode: Wavelengths
Stop averaging: false
Number of Pixels in Spectrum: 3648
>>>>>Begin Spectral Data<<<<<
177.566	-38.86
177.785	70.17
178.005	271.29
178.225	49.53
178.445	99.15
178.665	153.42
178.885	221.97
179.105	95.69
179.324	132.43
179.544	73.37
179.764	29.06
179.984	-6.77
180.204	3.07
180.423	-63.56
180.643	5.5
180.863	-5.85
181.083	7.16
181.302	-30.44
181.522	-54.57
181.742	-74.76
181.961	-79.64
182.181	-135.64
182.401	-203.79
182.621	-194.27
182.84	-125.24
183.06	-120.51
183.279	-125.18
183.499	-150.52
183.719	-162.25
183.938	-279.36
184.158	-219.36
184.377	-3882.95
184.597	819.5
184.816	-677.77
185.036	-1616.49
185.256	663.4
185.475	550.66
185.695	913.24
185.914	319.61
186.134	-629.96
186.353	-159.27
186.572	271.25
186.792	318.75
187.011	-15.06
187.231	73.45
187.45	70.94
187.67	37.9
187.889	251.9
188.108	-7.01
188.328	-102.31
188.547	-311.63
188.766	-74.42
188.986	-52.3
189.205	-48.3
189.424	-26.56
189.644	-86.88
189.863	-70.96
190.082	-120.97
190.302	-687.76
190.521	-811.04
190.74	-690.23
190.959	-275.42
191.178	169.1
191.398	284.26
191.617	656.81
191.836	321.16
192.055	1248.82
192.274	268.96
192.494	230.82
192.713	312.16
192.932	292.79
193.151	214.11
193.37	166.18
193.589	194.28
193.808	176.39
194.027	129.48
194.246	152.83
194.465	197.74
194.685	265.48
194.904	277.81
195.123	615.49
195.342	-494.43
195.561	-602.4
195.78	-268.22
195.999	-132.94
196.218	-357.28
196.436	-511.48
196.655	-125.24
196.874	-70.47
197.093	-115.72
197.312	-54.59
197.531	-481.78
197.75	409.7
197.969	-611.3
198.188	208.07
198.407	-1390.24
198.625	1642.04
198.844	1427.48
199.063	-1258.72
199.282	1186.64
199.501	452.52
199.719	1233.45
199.938	-1129.67
200.157	-432.28
200.376	-549.93
200.594	-223.66
200.813	1340.43
201.032	-799.57
201.251	-484.35
201.469	-2988.08
201.688	-276.46
201.907	-90.06
202.125	-94.25
202.344	-51.16
202.563	-687.07
202.781	201.43
203	269.8
203.218	187.84
203.437	320.94
203.656	217.9
203.874	192.68
204.093	119.69
204.311	157.73
204.53	154.61
204.748	116.21
204.967	126.4
205.185	117.51
205.404	195.7
205.622	133.73
205.841	157.56
206.059	237.97
206.278	199.32
206.496	278.34
206.715	268.51
206.933	1214.37
207.151	457.19
207.37	-549.95
207.588	-111.92
207.806	-79.03
208.025	-9.28
208.243	-18.97
208.461	5.26
208.68	-4.4
208.898	-21.48
209.116	30.32
209.335	233.21
209.553	-430.66
209.771	92.28
209.989	236.13
210.208	155.79
210.426	232.34
210.644	144.92
210.862	112.89
211.081	132.87
211.299	123.09
211.517	241.73
211.735	275.45
211.953	258.74
212.171	826.68
212.39	658.84
212.608	1063.6
212.826	-1715.19
213.044	1035.95
213.262	598.46
213.48	447.55
213.698	908.99
213.916	363.01
214.134	-458.22
214.352	-817.4
214.57	-139.4
214.788	-318.01
215.006	1336
215.224	871.35
215.442	-129.47
215.66	-45.37
215.878	60.57
216.096	-31.84
216.314	63.1
216.532	122.7
216.75	43.46
216.968	-4.46
217.185	-102.5
217.403	6.93
217.621	-51.05
217.839	-18.18
218.057	-30.86
218.275	-755.14
218.492	1053.64
218.71	-5325.53
218.928	-420.39
219.146	613.01
219.363	366.71
219.581	598.24
219.799	1109.09
220.017	332.79
220.234	245.86
220.452	237.25
220.67	-2313.8
220.887	-1793.23
221.105	337.59
221.323	247.44
221.54	420.88
221.758	-300.07
221.976	-375.34
222.193	296.54
222.411	-554.37
222.629	-146.29
222.846	-199.87
223.064	27.72
223.281	-62.65
223.499	71.21
223.716	55.85
223.934	875.61
224.151	22.75
224.369	40.36
224.586	74.39
224.804	61.59
225.021	82.97
225.239	110.79
225.456	119.36
225.674	117.21
225.891	100.82
226.108	77.78
226.326	63.14
226.543	73.73
226.76	63.74
226.978	46.63
227.195	44.73
227.413	34.34
227.63	24.34
227.847	18.89
228.064	12.96
228.282	14.42
228.499	12.18
228.716	11.88
228.934	13.39
229.151	12.31
229.368	11.6
229.585	10.72
229.802	13.61
230.02	12.91
230.237	13.65
230.454	13.72
230.671	13.32
230.888	15.55
231.105	17.67
231.323	17.73
231.54	19.95
231.757	22
231.974	26.5
232.191	34.18
232.408	37.25
232.625	42.76
232.842	44.56
233.059	44.42
233.276	45.86
233.493	48.15
233.71	46.86
233.927	46.19
234.144	44.98
234.361	39.24
234.578	34.6
234.795	36.38
235.012	31.78
235.229	30.16
235.446	29.99
235.663	32.91
235.879	26.29
236.096	25.35
236.313	24.22
236.53	22.34
236.747	18.66
236.964	13.81
237.181	14.32
237.397	21.55
237.614	22
237.831	18.44
238.048	9.08
238.264	16.45
238.481	20.03
238.698	20.22
238.915	20.69
239.131	22.88
239.348	24.64
239.565	24.3
239.781	22.2
239.998	22.43
240.215	27.53
240.431	25.47
240.648	28.74
240.865	22.57
241.081	22.02
241.298	22.25
241.514	23.62
241.731	24.6
241.947	23.24
242.164	23.32
242.38	21.39
242.597	18.28
242.814	19.74
243.03	17.38
243.246	20.66
243.463	21
243.679	20.58
243.896	19.58
244.112	17.65
244.329	18.55
244.545	18.03
244.762	18.83
244.978	22.28
245.194	19.34
245.411	18.27
245.627	13.08
245.843	12.63
246.06	13.45
246.276	14.32
246.492	14.63
246.709	14.96
246.925	12.56
247.141	12.58
247.357	10.92
247.574	11.58
247.79	11.82
248.006	12.51
248.222	12.26
248.439	11.48
248.655	10.91
248.871	10.44
249.087	8.72
249.303	10.21
249.519	11.94
249.736	13.19
249.952	13.52
250.168	16.18
250.384	17.16
250.6	17.7
250.816	18.73
251.032	16.34
251.248	17.11
251.464	17.62
251.68	16.82
251.896	14.47
252.112	14.42
252.328	14.34
252.544	11.98
252.76	11.07
252.976	10.28
253.192	11.15
253.408	13.9
253.624	12.88
253.84	12.92
254.056	14.4
254.272	13.42
254.487	13.12
254.703	13.59
254.919	11.15
255.135	12.82
255.351	15.4
255.567	12.92
255.782	10.35
255.998	14.42
256.214	14.35
256.43	12.21
256.646	14.01
256.861	12.09
257.077	12.77
257.293	14.67
257.508	15.49
257.724	13.95
257.94	13.71
258.155	13.13
258.371	10.98
258.587	9.69
258.802	10.74
259.018	10.28
259.234	11.42
259.449	10.57
259.665	9.94
259.88	8.48
260.096	8.64
260.312	8.95
260.527	9.23
260.743	8.81
260.958	9.22
261.174	8.38
261.389	9.66
261.605	10.27
261.82	11.02
262.036	11.54
262.251	12.93
262.466	14.36
262.682	13.24
262.897	12.86
263.113	15.43
263.328	17.23
263.543	17.95
263.759	14.42
263.974	14.37
264.189	12.65
264.405	12.17
264.62	14.08
264.835	11.7
265.051	13.65
265.266	16.83
265.481	13.31
265.696	10.47
265.912	8.85
266.127	11.29
266.342	10.29
266.557	9.83
266.773	11.02
266.988	8.3
267.203	7.29
267.418	7.73
267.633	5.44
267.848	6.15
268.064	6.81
268.279	8.62
268.494	7.47
268.709	6.2
268.924	6.95
269.139	6.94
269.354	7.39
269.569	7.81
269.784	6.94
269.999	6.46
270.214	6.95
270.429	8.26
270.644	6.66
270.859	9.06
271.074	10.16
271.289	10.18
271.504	9.85
271.719	10.23
271.934	10.45
272.149	10.03
272.363	10.92
272.578	10.6
272.793	10.27
273.008	12.44
273.223	9.88
273.438	8.56
273.653	10.01
273.867	10.48
274.082	11.7
274.297	11.58
274.512	12.92
274.726	11.45
274.941	11.4
275.156	10.64
275.371	9.57
275.585	12.12
275.8	12.76
276.015	10.6
276.229	9.9
276.444	7.61
276.659	7.19
276.873	8.07
277.088	10.23
277.302	11.56
277.517	12.33
277.732	12.48
277.946	10.46
278.161	10.75
278.375	11.89
278.59	12.5
278.804	14.01
279.019	14.68
279.233	12.09
279.448	11.96
279.662	10.46
279.877	8.31
280.091	7.37
280.306	10.18
280.52	11.25
280.735	10.26
280.949	9.12
281.163	8.67
281.378	9.07
281.592	9.61
281.806	9.06
282.021	10.32
282.235	10.84
282.449	11.6
282.664	9.47
282.878	8
283.092	7.62
283.307	9.32
283.521	9.71
283.735	11.33
283.949	13.21
284.164	13.07
284.378	12.73
284.592	14.79
284.806	13.89
285.02	15.09
285.234	15.15
285.449	14.54
285.663	14.26
285.877	14.09
286.091	13.08
286.305	12.71
286.519	11.73
286.733	11.67
286.947	10.93
287.161	11.58
287.375	10.98
287.589	11.59
287.803	12.07
288.017	11.01
288.231	9.27
288.445	8.46
288.659	6.41
288.873	8.02
289.087	9.1
289.301	7.75
289.515	7.36
289.729	7.49
289.943	7.26
290.157	7.94
290.371	8.23
290.584	8.82
290.798	10.06
291.012	10.85
291.226	11.27
291.44	11.74
291.654	12.56
291.867	13.25
292.081	14.31
292.295	14.24
292.509	13.95
292.722	16.42
292.936	16.17
293.15	14.45
293.364	16.03
293.577	15.27
293.791	12.71
294.005	12.39
294.218	10.26
294.432	9.44
294.645	9.51
294.859	9.37
295.073	6.76
295.286	7.1
295.5	7.63
295.713	5.82
295.927	6.12
296.14	7.29
296.354	7.43
296.568	8.91
296.781	9.03
296.994	8.82
297.208	7.96
297.421	7.32
297.635	7.48
297.848	6.72
298.062	7
298.275	6.85
298.489	6.34
298.702	6.32
298.915	6.57
299.129	5.99
299.342	5.91
299.555	6.99
299.769	6.6
299.982	6.93
300.195	8.25
300.409	9.32
300.622	9.09
300.835	9.67
301.048	11.18
301.262	10.7
301.475	10.95
301.688	11.02
301.901	12.33
302.115	13.45
302.328	13.49
302.541	13.62
302.754	13.91
302.967	14.49
303.18	14.54
303.393	13.2
303.607	14.27
303.82	15.44
304.033	16.07
304.246	15.78
304.459	16.01
304.672	15.97
304.885	16.47
305.098	16.47
305.311	16.18
305.524	15.44
305.737	15.58
305.95	14.41
306.163	12.99
306.376	13.42
306.589	11.38
306.802	11.09
307.015	12.28
307.228	10.08
307.44	8.1
307.653	8.96
307.866	8.78
308.079	9.17
308.292	9.57
308.505	10.46
308.718	8.76
308.93	9.98
309.143	10.48
309.356	10.42
309.569	11.51
309.781	10.66
309.994	9.57
310.207	9.89
310.42	9.99
310.632	8.83
310.845	8.49
311.058	8.82
311.27	8.58
311.483	7.36
311.696	7.4
311.908	7.55
312.121	8.81
312.333	10.16
312.546	9.68
312.759	8.73
312.971	9.73
313.184	8.95
313.396	9.92
313.609	10.59
313.821	12.4
314.034	11.82
314.246	12.05
314.459	12.32
314.671	13.5
314.884	12.93
315.096	14.04
315.309	15.02
315.521	16.89
315.733	16.92
315.946	16.07
316.158	15.02
316.371	14.81
316.583	12.74
316.795	12.97
317.008	12.39
317.22	12.98
317.432	12.63
317.644	11.79
317.857	10.63
318.069	9.47
318.281	10.41
318.494	12.04
318.706	12.66
318.918	14.69
319.13	15.05
319.342	13.72
319.555	13.97
319.767	14.57
319.979	14.8
320.191	15.79
320.403	17.57
320.615	17.24
320.827	15.16
321.039	15.35
321.252	16.22
321.464	16.41
321.676	17.02
321.888	17.27
322.1	17.28
322.312	17.28
322.524	17.34
322.736	17.53
322.948	17.03
323.16	17.15
323.372	16.43
323.584	15.43
323.796	15.12
324.007	15.09
324.219	14.72
324.431	14.55
324.643	15.43
324.855	13.54
325.067	13.71
325.279	14.88
325.491	15.97
325.702	15.59
325.914	15.34
326.126	15.33
326.338	14.39
326.55	14.34
326.761	14.17
326.973	12.42
327.185	12.64
327.396	11.32
327.608	10.88
327.82	10.25
328.032	11.53
328.243	11.62
328.455	11.3
328.666	12.68
328.878	13.22
329.09	13.29
329.301	13.91
329.513	15.57
329.725	15.9
329.936	15.27
330.148	14.4
330.359	13.32
330.571	13.23
330.782	12.89
330.994	12.21
331.205	13.96
331.417	14.35
331.628	13.87
331.84	12.6
332.051	12.69
332.262	12.73
332.474	13.82
332.685	13.77
332.897	14.62
333.108	14.76
333.319	14.2
333.531	13
333.742	12.05
333.953	12.93
334.165	14.08
334.376	14.87
334.587	15.04
334.799	14.21
335.01	15.12
335.221	14.28
335.432	13.71
335.644	14.05
335.855	14.86
336.066	16.04
336.277	15.12
336.488	14.91
336.7	13.81
336.911	13.56
337.122	14.42
337.333	13.69
337.544	14.87
337.755	14.52
337.966	14.69
338.177	13.28
338.388	12.71
338.599	12.03
338.811	10.87
339.022	11.5
339.233	12.95
339.444	12.68
339.655	13.11
339.866	11.93
340.076	12.97
340.287	13.65
340.498	13.37
340.709	13.1
340.92	13.78
341.131	14.18
341.342	14.21
341.553	13.73
341.764	13.1
341.975	12.93
342.185	12.94
342.396	12.41
342.607	11.88
342.818	12.62
343.029	13.4
343.239	14.17
343.45	13.58
343.661	13.33
343.872	12.52
344.082	12.55
344.293	12.36
344.504	11.93
344.714	10.2
344.925	10.4
345.136	10.36
345.346	9.72
345.557	8.63
345.768	9.01
345.978	8.66
346.189	8.19
346.399	8.43
346.61	9.13
346.821	10.18
347.031	11.95
347.242	10.49
347.452	10.56
347.663	10.19
347.873	10.66
348.084	10.05
348.294	9.73
348.504	10.43
348.715	11.31
348.925	9.03
349.136	8.09
349.346	8.36
349.557	9
349.767	8.61
349.977	8.66
350.188	9.41
350.398	10.13
350.608	12.05
350.819	12.78
351.029	12.05
351.239	14.24
351.449	14.33
351.66	13.8
351.87	14.51
352.08	14.45
352.29	13.88
352.501	14
352.711	14.75
352.921	12.81
353.131	12.19
353.341	13.03
353.552	12.47
353.762	12.24
353.972	12.28
354.182	12.1
354.392	12.34
354.602	12.35
354.812	11.06
355.022	10.92
355.232	11.81
355.442	12.71
355.652	12.07
355.862	10.72
356.072	10.99
356.282	10.7
356.492	10.48
356.702	11.07
356.912	10.62
357.122	11.68
357.332	11.23
357.542	10.17
357.752	8.96
357.962	7.9
358.171	9.44
358.381	10.4
358.591	10.3
358.801	9.95
359.011	9.42
359.221	9.7
359.43	8.13
359.64	8.7
359.85	9.55
360.06	9.75
360.269	10.44
360.479	9.67
360.689	8.82
360.899	8.95
361.108	9.18
361.318	9.71
361.528	9.85
361.737	11.15
361.947	10.71
362.156	10.36
362.366	10.1
362.576	10.14
362.785	10.11
362.995	10.67
363.204	10.61
363.414	10.29
363.623	9.83
363.833	10.29
364.042	9.4
364.252	9.35
364.461	9.84
364.671	9.91
364.88	9.44
365.09	9.78
365.299	8.98
365.509	8.37
365.718	8.75
365.927	8.18
366.137	7.48
366.346	8.39
366.555	8.06
366.765	7.46
366.974	7.67
367.183	8.65
367.393	9.04
367.602	8.85
367.811	9.17
368.021	9.08
368.23	10.04
368.439	10.52
368.648	10.24
368.857	10.23
369.067	10.58
369.276	9.94
369.485	8.77
369.694	8.25
369.903	8.22
370.112	9.04
370.321	9.16
370.531	8.79
370.74	8.31
370.949	8.17
371.158	8.83
371.367	8.34
371.576	9.03
371.785	9.45
371.994	8.99
372.203	8.88
372.412	9.07
372.621	8.92
372.83	9.26
373.039	9.09
373.248	8.7
373.457	8.55
373.666	9.14
373.874	8.52
374.083	8.68
374.292	8.73
374.501	8.62
374.71	8.58
374.919	8.65
375.128	8.49
375.336	8.79
375.545	8.54
375.754	8.53
375.963	8.13
376.171	8.34
376.38	8.34
376.589	8.46
376.798	8.55
377.006	8.01
377.215	8.31
377.424	7.3
377.632	7.34
377.841	7.99
378.05	7.77
378.258	7.88
378.467	8.27
378.675	8.63
378.884	8.4
379.093	8.77
379.301	9.32
379.51	8.73
379.718	9.01
379.927	8.77
380.135	8.28
380.344	8.09
380.552	7.96
380.761	7.55
380.969	7.29
381.177	7.28
381.386	6.16
381.594	5.51
381.803	5.91
382.011	6.26
382.219	6.52
382.428	6.35
382.636	6.43
382.845	6.04
383.053	6.3
383.261	5.63
383.469	5.39
383.678	5.94
383.886	5.97
384.094	5.8
384.302	5.37
384.511	5.28
384.719	5.35
384.927	5.73
385.135	5.96
385.343	5.67
385.552	5.93
385.76	6.02
385.968	6.37
386.176	6.57
386.384	6.53
386.592	6.67
386.8	6.54
387.008	7.01
387.216	6.83
387.424	6.89
387.633	7.06
387.841	7.13
388.049	7.18
388.257	6.86
388.465	6.4
388.672	6.53
388.88	6.59
389.088	6.75
389.296	6.28
389.504	5.98
389.712	6.27
389.92	6.18
390.128	6.18
390.336	6.23
390.544	6.19
390.751	6.37
390.959	6.44
391.167	6.72
391.375	6.83
391.583	6.8
391.79	6.52
391.998	6.15
392.206	5.92
392.414	5.65
392.621	5.94
392.829	6.11
393.037	6.31
393.244	5.98
393.452	5.72
393.66	5.52
393.867	5.85
394.075	6
394.283	5.83
394.49	5.85
394.698	6.18
394.905	5.83
395.113	5.6
395.32	5.29
395.528	5.28
395.735	5.27
395.943	5.27
396.15	4.81
396.358	4.73
396.565	4.7
396.773	4.67
396.98	4.57
397.188	4.54
397.395	4.85
397.602	4.78
397.81	4.67
398.017	4.75
398.225	4.9
398.432	5.4
398.639	5.56
398.847	5.47
399.054	5.53
399.261	5.47
399.468	5.53
399.676	5.18
399.883	5.47
400.09	5.55
400.297	5.53
400.505	5.31
400.712	5.11
400.919	5.13
401.126	4.89
401.333	4.56
401.54	4.51
401.748	4.18
401.955	4.29
402.162	4.35
402.369	4.25
402.576	4.38
402.783	4.53
402.99	4.3
403.197	4.29
403.404	4.72
403.611	4.73
403.818	4.75
404.025	5.04
404.232	4.88
404.439	4.78
404.646	4.71
404.853	4.54
405.06	4.61
405.267	4.55
405.474	4.37
405.681	4.2
405.887	4.49
406.094	4.26
406.301	4.12
406.508	3.96
406.715	4.2
406.922	3.95
407.128	3.85
407.335	3.61
407.542	3.97
407.749	4.02
407.955	4.25
408.162	3.96
408.369	4.14
408.575	4.07
408.782	4.44
408.989	3.99
409.195	4.24
409.402	4.37
409.609	4.27
409.815	4.03
410.022	4.02
410.228	3.7
410.435	3.68
410.642	3.67
410.848	4.16
411.055	3.98
411.261	4
411.468	4.25
411.674	4.16
411.881	4.06
412.087	4.13
412.294	4.14
412.5	4.33
412.706	4.5
412.913	4.41
413.119	3.84
413.326	4.03
413.532	4.07
413.738	3.97
413.945	4.06
414.151	4.1
414.357	4.14
414.564	4.21
414.77	4.09
414.976	4.01
415.182	3.85
415.389	4.06
415.595	4.03
415.801	3.95
416.007	3.99
416.214	4.1
416.42	4.08
416.626	3.54
416.832	3.47
417.038	3.49
417.244	3.63
417.45	3.9
417.657	3.82
417.863	3.72
418.069	3.61
418.275	3.57
418.481	3.54
418.687	3.67
418.893	3.86
419.099	3.85
419.305	3.78
419.511	3.65
419.717	3.4
419.923	3.48
420.129	3.48
420.335	3.6
420.541	3.47
420.746	3.44
420.952	3.36
421.158	3.37
421.364	3.39
421.57	3.35
421.776	3.39
421.982	3.64
422.187	3.56
422.393	3.43
422.599	3.51
422.805	3.63
423.01	3.43
423.216	3.55
423.422	3.5
423.628	3.49
423.833	3.56
424.039	3.5
424.245	3.38
424.45	3.31
424.656	3.47
424.862	3.39
425.067	3.39
425.273	3.47
425.478	3.38
425.684	3.43
425.889	3.48
426.095	3.44
426.301	3.62
426.506	3.72
426.712	3.67
426.917	3.61
427.123	3.76
427.328	3.67
427.533	3.83
427.739	3.58
427.944	3.65
428.15	3.74
428.355	3.71
428.561	3.36
428.766	3.26
428.971	3.73
429.177	3.98
429.382	3.83
429.587	3.88
429.793	3.75
429.998	4.13
430.203	4.27
430.408	4.1
430.614	4.1
430.819	4.31
431.024	4.33
431.229	4.15
431.434	3.87
431.64	3.75
431.845	3.75
432.05	3.76
432.255	3.53
432.46	3.52
432.665	3.44
432.87	3.6
433.076	3.58
433.281	3.54
433.486	3.48
433.691	3.57
433.896	3.54
434.101	3.54
434.306	3.51
434.511	3.6
434.716	3.57
434.921	3.59
435.126	3.57
435.331	3.55
435.535	3.48
435.74	3.65
435.945	3.69
436.15	4.07
436.355	4.08
436.56	4.1
436.765	4.11
436.97	4.02
437.174	4.27
437.379	4.25
437.584	4.33
437.789	4.46
437.993	4.24
438.198	4.06
438.403	3.75
438.608	3.63
438.812	3.61
439.017	3.56
439.222	3.7
439.426	3.47
439.631	3.49
439.836	3.35
440.04	3.46
440.245	3.43
440.45	3.38
440.654	3.4
440.859	3.55
441.063	3.41
441.268	3.36
441.472	3.31
441.677	3.42
441.881	3.41
442.086	3.41
442.29	3.26
442.495	3.5
442.699	3.68
442.904	3.66
443.108	3.69
443.312	3.75
443.517	3.88
443.721	3.79
443.925	3.86
444.13	4.01
444.334	4.12
444.538	3.87
444.743	3.75
444.947	3.73
445.151	3.77
445.356	3.65
445.56	3.73
445.764	3.7
445.968	3.55
446.173	3.46
446.377	3.34
446.581	3.33
446.785	3.64
446.989	3.31
447.193	3.31
447.398	3.41
447.602	3.46
447.806	3.65
448.01	3.63
448.214	3.69
448.418	3.62
448.622	3.68
448.826	3.63
449.03	3.55
449.234	3.86
449.438	3.85
449.642	3.8
449.846	3.75
450.05	3.46
450.254	3.45
450.458	3.66
450.662	3.76
450.866	3.6
451.069	3.76
451.273	3.61
451.477	3.7
451.681	3.66
451.885	3.58
452.089	3.58
452.292	3.73
452.496	3.56
452.7	3.46
452.904	3.45
453.107	3.64
453.311	3.4
453.515	3.58
453.719	3.67
453.922	3.72
454.126	3.53
454.33	3.62
454.533	3.61
454.737	4
454.94	3.93
455.144	3.75
455.348	3.43
455.551	3.45
455.755	3.33
455.958	3.32
456.162	3.26
456.365	3.49
456.569	3.31
456.772	3.5
456.976	3.31
457.179	3.49
457.383	3.79
457.586	3.93
457.79	3.91
457.993	3.81
458.196	3.75
458.4	3.71
458.603	3.67
458.807	3.49
459.01	3.4
459.213	3.43
459.417	3.34
459.62	3.21
459.823	3.23
460.026	3.28
460.23	3.36
460.433	3.22
460.636	3.21
460.839	3.08
461.042	3.27
461.246	3.15
461.449	3.22
461.652	3.23
461.855	3.32
462.058	3.36
462.261	3.51
