Data from 2938098_Reflection_3.txt Node
Date: Sat Jul 11 18:53:26 EDT 2015
User: robert
Spectrometer: USB4E03001
Autoset integration time: false
Trigger mode: 4
Integration Time (sec): 1.000000E-1
Scans to average: 10
Electric dark correction enabled: true
Nonlinearity correction enabled: false
Boxcar width: 5
Stray light correction enabled: false
XAxis mode: Wavelengths
Stop averaging: false
Number of Pixels in Spectrum: 3648
>>>>>Begin Spectral Data<<<<<
177.566	441.17
177.785	575.38
178.005	1460.86
178.225	602.63
178.445	225.64
178.665	195.43
178.885	-282.26
179.105	159.82
179.324	169.95
179.544	209.79
179.764	143.6
179.984	172.93
180.204	129.04
180.423	125.16
180.643	154.39
180.863	90.87
181.083	78.14
181.302	45.38
181.522	-67.28
181.742	-32.23
181.961	6.75
182.181	120.03
182.401	-1133.33
182.621	76.15
182.84	51.03
183.06	237.6
183.279	135.58
183.499	177.85
183.719	68.74
183.938	99.31
184.158	75.1
184.377	72.08
184.597	90.22
184.816	120.27
185.036	84.41
185.256	111.97
185.475	92.18
185.695	80.81
185.914	69.42
186.134	114.39
186.353	67.69
186.572	-607.14
186.792	212.74
187.011	77.17
187.231	55.55
187.45	70.43
187.67	34.66
187.889	13.19
188.108	96.02
188.328	86.54
188.547	51.06
188.766	81.6
188.986	72.72
189.205	60.47
189.424	82.03
189.644	86.94
189.863	84.58
190.082	125.26
190.302	113.09
190.521	77.85
190.74	93.72
190.959	104.81
191.178	34.65
191.398	-342.3
191.617	-266.67
191.836	-10.96
192.055	-0.72
192.274	-6.39
192.494	48.03
192.713	13.46
192.932	20.37
193.151	9.28
193.37	-50.99
193.589	-58.94
193.808	-125.69
194.027	-38.28
194.246	-52.29
194.465	-222.6
194.685	1471.1
194.904	7527.85
195.123	1566.4
195.342	-2525.91
195.561	2027.87
195.78	-213.52
195.999	959.31
196.218	-585.81
196.436	-202.08
196.655	-506.83
196.874	-126.63
197.093	-12.26
197.312	-125.3
197.531	-777.15
197.75	-1778.29
197.969	1046.95
198.188	382.39
198.407	-780.98
198.625	-501.18
198.844	-170.3
199.063	-11.56
199.282	-6.43
199.501	11.92
199.719	2.57
199.938	49.87
200.157	58.36
200.376	125.72
200.594	121.01
200.813	144.38
201.032	280.57
201.251	552.18
201.469	-193.33
201.688	-174.68
201.907	-121.89
202.125	-175.55
202.344	-140.28
202.563	-110.44
202.781	-61.23
203	26.19
203.218	49.98
203.437	55.62
203.656	7.17
203.874	201.51
204.093	56.49
204.311	56.14
204.53	70.8
204.748	123.82
204.967	211.75
205.185	-265.99
205.404	246.18
205.622	178.04
205.841	412.48
206.059	237.43
206.278	249.86
206.496	-1492.34
206.715	308.74
206.933	91.55
207.151	57.47
207.37	41.37
207.588	37.16
207.806	138.95
208.025	59.92
208.243	38.25
208.461	128.07
208.68	151.92
208.898	682.8
209.116	-141.77
209.335	-140.41
209.553	353.3
209.771	125.57
209.989	-7.22
210.208	-286.1
210.426	-91.99
210.644	-106.91
210.862	-202.85
211.081	1286.68
211.299	2821.46
211.517	284.16
211.735	261.43
211.953	298.35
212.171	358.26
212.39	169.2
212.608	208.23
212.826	107.65
213.044	100.72
213.262	93.43
213.48	106.78
213.698	79.34
213.916	36.47
214.134	-45.59
214.352	-46.03
214.57	-90.79
214.788	-38.09
215.006	-14.51
215.224	-55.16
215.442	-59.28
215.66	-11.16
215.878	-8.62
216.096	42.4
216.314	94.75
216.532	80.97
216.75	141.81
216.968	128.34
217.185	153.36
217.403	104.17
217.621	86.8
217.839	40.28
218.057	21.67
218.275	13.67
218.492	3.49
218.71	2.96
218.928	10.36
219.146	-36.19
219.363	-38.78
219.581	-61.24
219.799	-42.35
220.017	31.54
220.234	64.53
220.452	75.54
220.67	92.7
220.887	30.44
221.105	16.09
221.323	28.62
221.54	21.33
221.758	29.39
221.976	17.8
222.193	9.56
222.411	-6.82
222.629	-26.03
222.846	-21.89
223.064	-11.27
223.281	26.75
223.499	22.24
223.716	27.85
223.934	35.57
224.151	10.13
224.369	53.33
224.586	59.67
224.804	64.25
225.021	67.4
225.239	64.36
225.456	51.97
225.674	55.22
225.891	58.93
226.108	57.91
226.326	45.29
226.543	50.69
226.76	46.23
226.978	38.43
227.195	32.95
227.413	26.04
227.63	24.77
227.847	21.3
228.064	13.91
228.282	11.94
228.499	9.66
228.716	12.14
228.934	9.44
229.151	6.03
229.368	5.84
229.585	7.89
229.802	7.82
230.02	5.9
230.237	4.8
230.454	5.7
230.671	6.11
230.888	4.99
231.105	3.79
231.323	7.59
231.54	8.59
231.757	5.65
231.974	1.87
232.191	7.43
232.408	7.09
232.625	8.49
232.842	0.59
233.059	0.87
233.276	-3.42
233.493	-4.18
233.71	-3.78
233.927	-2.82
234.144	-2.6
234.361	-6.37
234.578	-3.4
234.795	-11.8
235.012	-1.33
235.229	3.12
235.446	-0.1
235.663	-3.8
235.879	-4.58
236.096	-9.09
236.313	-16.51
236.53	-14.4
236.747	-8.95
236.964	-15.28
237.181	-9.27
237.397	-13.52
237.614	-13.6
237.831	-10.72
238.048	-3.98
238.264	-0.14
238.481	1.44
238.698	2.28
238.915	2.47
239.131	2.03
239.348	-2.71
239.565	-5.6
239.781	-4.93
239.998	-1.33
240.215	-3.05
240.431	-2.49
240.648	0.68
240.865	2.58
241.081	1.32
241.298	3.34
241.514	2.4
241.731	4.99
241.947	8.14
242.164	7.95
242.38	6.6
242.597	8.13
242.814	10.69
243.03	8.99
243.246	7.11
243.463	10.03
243.679	8.09
243.896	9.46
244.112	8.11
244.329	6.41
244.545	5.45
244.762	8.38
244.978	7.13
245.194	5.13
245.411	3.41
245.627	5.08
245.843	4.46
246.06	7.42
246.276	6.67
246.492	7.4
246.709	7.04
246.925	6.89
247.141	4.83
247.357	4.95
247.574	4.89
247.79	4.8
248.006	4.59
248.222	4.3
248.439	3.84
248.655	3.59
248.871	3.07
249.087	1.04
249.303	0.78
249.519	2.21
249.736	1.67
249.952	2.58
250.168	2.85
250.384	1.73
250.6	-1.86
250.816	-5.39
251.032	-5.66
251.248	-7.08
251.464	-3.83
251.68	-1.54
251.896	-2.48
252.112	-1.21
252.328	-3.52
252.544	-3.78
252.76	-2.32
252.976	-0.74
253.192	0.86
253.408	1.5
253.624	5.69
253.84	4.18
254.056	4.08
254.272	5.2
254.487	5.16
254.703	4.97
254.919	5.98
255.135	4.51
255.351	2.84
255.567	5.3
255.782	3.03
255.998	-3.27
256.214	1.93
256.43	0.63
256.646	0.54
256.861	0.31
257.077	1.52
257.293	1.61
257.508	1.71
257.724	3.99
257.94	3.23
258.155	3.08
258.371	5.72
258.587	4.36
258.802	4.4
259.018	3.89
259.234	3.32
259.449	2.95
259.665	3.64
259.88	3.98
260.096	3.95
260.312	3.85
260.527	4.16
260.743	3.59
260.958	3.36
261.174	3.58
261.389	3.66
261.605	3.97
261.82	4.43
262.036	2.79
262.251	2.17
262.466	1.48
262.682	1.67
262.897	2.23
263.113	2.39
263.328	4.13
263.543	4.78
263.759	5.72
263.974	5.52
264.189	5.26
264.405	7.61
264.62	7.7
264.835	6
265.051	4.58
265.266	2.55
265.481	1.72
265.696	1.74
265.912	0.48
266.127	-1.43
266.342	-1.28
266.557	-0.99
266.773	-0.72
266.988	-1.28
267.203	1.14
267.418	1.97
267.633	2.89
267.848	3.7
268.064	3.93
268.279	3.19
268.494	2.86
268.709	1.92
268.924	0.77
269.139	-0.82
269.354	1.12
269.569	2.65
269.784	0.92
269.999	1.05
270.214	-0.24
270.429	-1.35
270.644	1.74
270.859	1.95
271.074	3.23
271.289	4.84
271.504	5.34
271.719	4.78
271.934	3.67
272.149	4.41
272.363	4.15
272.578	5.27
272.793	4.24
273.008	2.64
273.223	2.51
273.438	1.13
273.653	1.81
273.867	1.45
274.082	1.89
274.297	2.25
274.512	2.6
274.726	2.24
274.941	1.78
275.156	1.36
275.371	0.62
275.585	2.39
275.8	4.48
276.015	3.75
276.229	4.71
276.444	4.29
276.659	3.13
276.873	3.46
277.088	4.41
277.302	4.94
277.517	6.92
277.732	7.44
277.946	5.83
278.161	5.01
278.375	2.88
278.59	5.06
278.804	5.11
279.019	5.73
279.233	5.82
279.448	5.41
279.662	4.11
279.877	3.88
280.091	3.51
280.306	6.24
280.52	6.52
280.735	7.56
280.949	6.61
281.163	6.6
281.378	6.04
281.592	3.68
281.806	2.7
282.021	3.58
282.235	3.3
282.449	4.06
282.664	2.43
282.878	3.73
283.092	4.04
283.307	3.97
283.521	3.85
283.735	4.56
283.949	5.26
284.164	6.28
284.378	5.73
284.592	5.77
284.806	6.45
285.02	6.23
285.234	6.24
285.449	6.44
285.663	6.44
285.877	6.87
286.091	6.99
286.305	7.99
286.519	8.22
286.733	9.66
286.947	10.09
287.161	10.53
287.375	11.19
287.589	10.68
287.803	11.4
288.017	11.7
288.231	11.13
288.445	9.67
288.659	9.08
288.873	8.38
289.087	7.74
289.301	6.34
289.515	5.03
289.729	2.93
289.943	2.3
290.157	1.37
290.371	0.85
290.584	-0
290.798	1.62
291.012	0.42
291.226	0.25
291.44	1.34
291.654	2.83
291.867	2.52
292.081	3.41
292.295	4.44
292.509	4.97
292.722	4.09
292.936	5.29
293.15	3.8
293.364	4.55
293.577	5.38
293.791	3.45
294.005	4.01
294.218	4.52
294.432	5.66
294.645	5.25
294.859	3.89
295.073	5.09
295.286	5.41
295.5	5.95
295.713	7.02
295.927	7.43
296.14	8.01
296.354	7.83
296.568	7.64
296.781	7.95
296.994	8.92
297.208	9.15
297.421	8.55
297.635	8.16
297.848	7.86
298.062	8.26
298.275	7.94
298.489	8.14
298.702	8.12
298.915	7.79
299.129	7.86
299.342	7.32
299.555	7.3
299.769	8.66
299.982	10.58
300.195	11.07
300.409	10.8
300.622	10.17
300.835	9.59
301.048	9.89
301.262	10.71
301.475	9.92
301.688	10.33
301.901	10.25
302.115	9.8
302.328	8.25
302.541	9.23
302.754	10.62
302.967	11.36
303.18	11.67
303.393	12.45
303.607	13.07
303.82	13.72
304.033	13.22
304.246	14.88
304.459	14.6
304.672	14.92
304.885	14.25
305.098	11.95
305.311	13.37
305.524	13.37
305.737	12.44
305.95	10.63
306.163	10.91
306.376	11.3
306.589	10.85
306.802	10.17
307.015	8.48
307.228	8.41
307.44	11.91
307.653	10.59
307.866	12.29
308.079	12.16
308.292	14.39
308.505	13.67
308.718	11.89
308.93	10.93
309.143	10.83
309.356	11.87
309.569	11.99
309.781	10.93
309.994	10.3
310.207	8.94
310.42	9.18
310.632	6.97
310.845	6
311.058	6.82
311.27	7.29
311.483	8.91
311.696	8.93
311.908	9.53
312.121	7.82
312.333	9.58
312.546	8.93
312.759	8.63
312.971	10.76
313.184	11.81
313.396	12.55
313.609	13.79
313.821	13.49
314.034	14.8
314.246	13.38
314.459	16.38
314.671	15.92
314.884	15.88
315.096	17.01
315.309	15.73
315.521	15.55
315.733	14.89
315.946	14.31
316.158	13.38
316.371	11.62
316.583	13.21
316.795	11.16
317.008	10.44
317.22	10.75
317.432	8.72
317.644	10.01
317.857	10.65
318.069	12.2
318.281	13.42
318.494	13.37
318.706	14.09
318.918	14.18
319.13	15.29
319.342	16.06
319.555	15.84
319.767	18.07
319.979	17.98
320.191	20.22
320.403	19.79
320.615	18.02
320.827	18.06
321.039	19.03
321.252	18.78
321.464	18.86
321.676	19.08
321.888	20.65
322.1	20.92
322.312	20.49
322.524	20.64
322.736	20.01
322.948	18.9
323.16	19.99
323.372	19.34
323.584	17.95
323.796	16.51
324.007	15.97
324.219	16.45
324.431	15.24
324.643	15.49
324.855	13.94
325.067	14.49
325.279	14.79
325.491	14.81
325.702	15.05
325.914	16.7
326.126	16.95
326.338	16.7
326.55	16.53
326.761	17.55
326.973	18.4
327.185	18.01
327.396	19.51
327.608	22.21
327.82	20.76
328.032	21.42
328.243	23.08
328.455	25.17
328.666	26.66
328.878	27.49
329.09	27.97
329.301	28.11
329.513	30.5
329.725	30.07
329.936	29.39
330.148	33.32
330.359	34.62
330.571	33.7
330.782	33.46
330.994	35.56
331.205	36.26
331.417	35.97
331.628	37.13
331.84	38.23
332.051	36.96
332.262	37.95
332.474	37.23
332.685	39.11
332.897	40.04
333.108	40.63
333.319	39.9
333.531	41.55
333.742	42.62
333.953	42.29
334.165	42.19
334.376	44.48
334.587	44.77
334.799	45.99
335.01	43.97
335.221	44.67
335.432	44.98
335.644	43.82
335.855	42.64
336.066	42.98
336.277	43.48
336.488	43.9
336.7	43.08
336.911	43.19
337.122	42.34
337.333	43.68
337.544	44.29
337.755	45.73
337.966	48.48
338.177	49.52
338.388	49.26
338.599	50.1
338.811	49.48
339.022	51.58
339.233	51.86
339.444	52.25
339.655	51.07
339.866	51.22
340.076	50.62
340.287	49
340.498	49.55
340.709	50
340.92	50.12
341.131	50.85
341.342	51.49
341.553	52.64
341.764	52.46
341.975	53.49
342.185	52.63
342.396	53.54
342.607	54.53
342.818	55.06
343.029	55.76
343.239	56.29
343.45	55.89
343.661	54.51
343.872	54.78
344.082	56.45
344.293	56.89
344.504	57.49
344.714	56.56
344.925	56.06
345.136	55.55
345.346	56.05
345.557	54.89
345.768	55.37
345.978	55.42
346.189	54.19
346.399	53.13
346.61	53.24
346.821	54.4
347.031	54.4
347.242	53.74
347.452	53.2
347.663	52.38
347.873	52.73
348.084	53.04
348.294	53.06
348.504	53.13
348.715	53.71
348.925	54.28
349.136	53.76
349.346	53.68
349.557	54.42
349.767	54.74
349.977	55.71
350.188	56.58
350.398	57.02
350.608	58.07
350.819	58.23
351.029	58.76
351.239	59.15
351.449	58.92
351.66	59.84
351.87	60.55
352.08	60.65
352.29	59.32
352.501	58.71
352.711	58.6
352.921	57.13
353.131	56.49
353.341	56.09
353.552	53.96
353.762	54.09
353.972	53.93
354.182	54.08
354.392	53.49
354.602	54.38
354.812	54.39
355.022	53.59
355.232	54.09
355.442	53.95
355.652	53.43
355.862	55.07
356.072	55.04
356.282	54.79
356.492	54.42
356.702	54.71
356.912	54.42
357.122	54.23
357.332	54.72
357.542	54.94
357.752	55.26
357.962	55.17
358.171	53.9
358.381	53.14
358.591	53.32
358.801	53.1
359.011	53.76
359.221	53.08
359.43	52.68
359.64	51.9
359.85	51.86
360.06	52.03
360.269	52.74
360.479	52.56
360.689	52.66
360.899	52.88
361.108	52.36
361.318	51.31
361.528	51.26
361.737	51.56
361.947	52.01
362.156	52.08
362.366	52.23
362.576	51.9
362.785	52.27
362.995	52.77
363.204	52.39
363.414	52.89
363.623	53.86
363.833	54.09
364.042	54.46
364.252	54.54
364.461	53.75
364.671	53.67
364.88	53.3
365.09	54.15
365.299	53.75
365.509	53.44
365.718	52.96
365.927	52.17
366.137	52.01
366.346	51.35
366.555	51.27
366.765	51.21
366.974	50.89
367.183	51.78
367.393	50.98
367.602	51.07
367.811	51.09
368.021	51.13
368.23	51.14
368.439	52.05
368.648	51.74
368.857	51.08
369.067	51.05
369.276	51.31
369.485	50.04
369.694	49.94
369.903	49.28
370.112	49.41
370.321	49.84
370.531	49.1
370.74	48.74
370.949	49.56
371.158	49.54
371.367	49.71
371.576	49.93
371.785	49.74
371.994	49.48
372.203	49.52
372.412	48.66
372.621	48.16
372.83	48.65
373.039	47.87
373.248	47.15
373.457	47.3
373.666	46.8
373.874	45.88
374.083	45.93
374.292	45.53
374.501	45.93
374.71	46.37
374.919	46.36
375.128	45.7
375.336	46.18
375.545	46.43
375.754	46.27
375.963	46.23
376.171	46.09
376.38	46.97
376.589	47.63
376.798	47.55
377.006	46.77
377.215	46.51
377.424	47.11
377.632	46.84
377.841	46.93
378.05	47.32
378.258	47.32
378.467	47.86
378.675	47.13
378.884	46.93
379.093	46.13
379.301	47.06
379.51	47.07
379.718	46.11
379.927	46.33
380.135	46.29
380.344	45.68
380.552	45.84
380.761	45.25
380.969	45.04
381.177	44.41
381.386	45.05
381.594	45.04
381.803	44.95
382.011	45.86
382.219	45.2
382.428	45.04
382.636	44.4
382.845	43.62
383.053	43.72
383.261	43.84
383.469	43.47
383.678	42.89
383.886	41.92
384.094	42.02
384.302	41.87
384.511	41.36
384.719	40.98
384.927	41.08
385.135	40.95
385.343	40.29
385.552	39.84
385.76	39.85
385.968	39.71
386.176	39.64
386.384	39.25
386.592	38.89
386.8	38.72
387.008	38.27
387.216	37.96
387.424	37.92
387.633	37.95
387.841	37.43
388.049	37.22
388.257	37.05
388.465	37.24
388.672	37.1
388.88	36.83
389.088	37.22
389.296	36.82
389.504	37.18
389.712	37.72
389.92	37.55
390.128	37.63
390.336	37.53
390.544	37.68
390.751	37.06
390.959	36.79
391.167	36.66
391.375	36.36
391.583	36.83
391.79	36.78
391.998	36.26
392.206	36.38
392.414	36.61
392.621	36.88
392.829	36.59
393.037	36.77
393.244	36.96
393.452	36.95
393.66	37.03
393.867	36.74
394.075	36.45
394.283	36.26
394.49	36.29
394.698	36.02
394.905	35.49
395.113	35.34
395.32	35.51
395.528	35.46
395.735	35.35
395.943	35.36
396.15	35.48
396.358	35.61
396.565	36.04
396.773	35.89
396.98	35.85
397.188	36.29
397.395	36.61
397.602	36.7
397.81	36.59
398.017	36.51
398.225	36.44
398.432	36.42
398.639	36.24
398.847	36.33
399.054	36.38
399.261	36.77
399.468	36.7
399.676	36.58
399.883	36.46
400.09	36.56
400.297	36.83
400.505	36.6
400.712	36.62
400.919	37.12
401.126	36.91
401.333	36.74
401.54	36.3
401.748	36.64
401.955	36.59
402.162	36.71
402.369	36.6
402.576	36.53
402.783	36.58
402.99	36.41
403.197	35.94
403.404	35.96
403.611	36.06
403.818	36.04
404.025	35.69
404.232	35.73
404.439	35.53
404.646	35.79
404.853	35.84
405.06	35.88
405.267	36.12
405.474	36.13
405.681	36.01
405.887	35.77
406.094	36.16
406.301	36.49
406.508	36.63
406.715	36.68
406.922	36.54
407.128	36.63
407.335	36.73
407.542	36.51
407.749	36.68
407.955	36.98
408.162	37.29
408.369	37.03
408.575	36.8
408.782	36.51
408.989	36.51
409.195	36.35
409.402	36.24
409.609	36.21
409.815	36.28
410.022	36.16
410.228	35.87
410.435	35.89
410.642	35.95
410.848	36.02
411.055	36.21
411.261	36.21
411.468	35.97
411.674	35.86
411.881	36.07
412.087	36.07
412.294	35.96
412.5	36.04
412.706	36.04
412.913	36.08
413.119	35.67
413.326	35.64
413.532	35.58
413.738	35.77
413.945	35.9
414.151	35.46
414.357	35.41
414.564	35.47
414.77	35.03
414.976	35.09
415.182	34.76
415.389	34.94
415.595	35.03
415.801	34.87
416.007	35.07
416.214	34.97
416.42	34.92
416.626	34.55
416.832	34.38
417.038	34.52
417.244	34.27
417.45	34.42
417.657	34.37
417.863	34.18
418.069	34.24
418.275	33.96
418.481	33.88
418.687	34
418.893	34.25
419.099	34.3
419.305	34.19
419.511	34.14
419.717	34.18
419.923	34.1
420.129	34.07
420.335	34.07
420.541	34.06
420.746	34.05
420.952	34.02
421.158	34.06
421.364	34.08
421.57	34.09
421.776	34.24
421.982	34.08
422.187	34.08
422.393	34.07
422.599	34.05
422.805	34.16
423.01	34.11
423.216	34.25
423.422	34.16
423.628	34.13
423.833	34.15
424.039	33.99
424.245	33.93
424.45	34.01
424.656	34.05
424.862	34.06
425.067	34.03
425.273	34.12
425.478	33.87
425.684	33.75
425.889	33.74
426.095	33.58
426.301	33.65
426.506	33.68
426.712	33.61
426.917	33.43
427.123	33.4
427.328	33.4
427.533	33.37
427.739	33.55
427.944	33.47
428.15	33.49
428.355	33.6
428.561	33.78
428.766	33.71
428.971	33.54
429.177	33.8
429.382	33.54
429.587	33.49
429.793	33.23
429.998	33.07
430.203	33.52
430.408	33.28
430.614	33.42
430.819	33.27
431.024	33.21
431.229	33.47
431.434	33.29
431.64	33.51
431.845	33.71
432.05	33.67
432.255	33.79
432.46	33.48
432.665	33.63
432.87	33.69
433.076	33.55
433.281	33.72
433.486	33.61
433.691	33.59
433.896	33.59
434.101	33.42
434.306	33.44
434.511	33.29
434.716	33.37
434.921	33.46
435.126	33.32
435.331	33.39
435.535	33.26
435.74	33.18
435.945	33.17
436.15	33.14
436.355	33.27
436.56	33.4
436.765	33.41
436.97	33.36
437.174	33.12
437.379	33.22
437.584	33.29
437.789	33.35
437.993	33.49
438.198	33.68
438.403	33.62
438.608	33.46
438.812	33.49
439.017	33.68
439.222	33.74
439.426	33.92
439.631	33.87
439.836	33.85
440.04	33.82
440.245	33.7
440.45	33.54
440.654	33.66
440.859	33.66
441.063	33.73
441.268	33.61
441.472	33.51
441.677	33.45
441.881	33.39
442.086	33.35
442.29	33.36
442.495	33.52
442.699	33.52
442.904	33.65
443.108	33.6
443.312	33.51
443.517	33.53
443.721	33.69
443.925	33.64
444.13	33.64
444.334	33.57
444.538	33.69
444.743	33.49
444.947	33.4
445.151	33.29
445.356	33.4
445.56	33.25
445.764	33.25
445.968	33.09
446.173	33.1
446.377	33.32
446.581	33.32
446.785	33.28
446.989	33.34
447.193	33.48
447.398	33.3
447.602	33.13
447.806	33.2
448.01	33.16
448.214	33.22
448.418	33.11
448.622	32.86
448.826	32.92
449.03	32.88
449.234	32.97
449.438	32.84
449.642	32.85
449.846	32.91
450.05	32.94
450.254	32.94
450.458	33.11
450.662	33.29
450.866	33.31
451.069	33.36
451.273	33.54
451.477	33.3
451.681	33.49
451.885	33.56
452.089	33.61
452.292	33.49
452.496	33.7
452.7	33.7
452.904	33.49
453.107	33.65
453.311	33.56
453.515	33.22
453.719	33.42
453.922	33.31
454.126	33.23
454.33	33.19
454.533	33.37
454.737	33.15
454.94	32.97
455.144	33.16
455.348	33.06
455.551	33.11
455.755	33.23
455.958	32.98
456.162	32.96
456.365	33.18
456.569	33
456.772	32.67
456.976	32.68
457.179	32.66
457.383	32.41
457.586	32.34
457.79	32.29
457.993	32.28
458.196	32.54
458.4	32.65
458.603	32.62
458.807	32.77
459.01	33
