Data from 2938122_Reflection_1.txt Node
Date: Sat Jul 11 17:42:45 EDT 2015
User: robert
Spectrometer: USB4E03001
Autoset integration time: false
Trigger mode: 4
Integration Time (sec): 1.000000E-1
Scans to average: 10
Electric dark correction enabled: true
Nonlinearity correction enabled: false
Boxcar width: 5
Stray light correction enabled: false
XAxis mode: Wavelengths
Stop averaging: false
Number of Pixels in Spectrum: 3648
>>>>>Begin Spectral Data<<<<<
177.566	943.52
177.785	-121.75
178.005	105.88
178.225	128.86
178.445	105.5
178.665	88.8
178.885	142.67
179.105	111.6
179.324	103.29
179.544	93.2
179.764	144.64
179.984	172.85
180.204	183.03
180.423	72.51
180.643	144.5
180.863	67.65
181.083	-12.81
181.302	17.54
181.522	75.32
181.742	108.58
181.961	118.76
182.181	65.33
182.401	75.24
182.621	181.03
182.84	178.96
183.06	46.12
183.279	92.56
183.499	129.05
183.719	103.79
183.938	101.69
184.158	98.26
184.377	76.21
184.597	98.86
184.816	110.44
185.036	103.78
185.256	123.17
185.475	141.1
185.695	129.58
185.914	158.49
186.134	160.01
186.353	168.92
186.572	134.35
186.792	177.25
187.011	256.65
187.231	224.6
187.45	184.79
187.67	164.79
187.889	167.2
188.108	177.87
188.328	168
188.547	162.92
188.766	144.46
188.986	194.96
189.205	211.2
189.424	181.75
189.644	205.9
189.863	298.91
190.082	1374.01
190.302	409.29
190.521	353.72
190.74	324.22
190.959	-1583.14
191.178	-1126.81
191.398	569.25
191.617	190.37
191.836	217.28
192.055	325.65
192.274	224.98
192.494	147.33
192.713	401.77
192.932	402.51
193.151	-5855.67
193.37	-1338.62
193.589	-228.29
193.808	-1268.11
194.027	-847.53
194.246	470.22
194.465	6211.86
194.685	631.57
194.904	-1243.73
195.123	409.08
195.342	-437.01
195.561	327.61
195.78	184.42
195.999	213.96
196.218	426.03
196.436	408.75
196.655	443.03
196.874	249.64
197.093	233.81
197.312	194.54
197.531	214.95
197.75	199.23
197.969	192.17
198.188	213.03
198.407	233.48
198.625	263.83
198.844	281.77
199.063	250.75
199.282	405.96
199.501	466.7
199.719	642.02
199.938	360.38
200.157	679.65
200.376	-4338.97
200.594	381.72
200.813	179.42
201.032	110.51
201.251	100.08
201.469	139.67
201.688	88.77
201.907	92.12
202.125	86.48
202.344	92.75
202.563	96.2
202.781	95.57
203	67.23
203.218	77.49
203.437	74.86
203.656	56.39
203.874	-3.22
204.093	3.93
204.311	21.05
204.53	24.78
204.748	40.53
204.967	18.37
205.185	30.23
205.404	38.02
205.622	58.1
205.841	51.14
206.059	73.69
206.278	101.12
206.496	146.96
206.715	198.72
206.933	253.15
207.151	324.29
207.37	531.37
207.588	616.6
207.806	405.3
208.025	445.54
208.243	437.33
208.461	414.69
208.68	-97.66
208.898	139.38
209.116	111
209.335	35.95
209.553	21.65
209.771	-69.57
209.989	274.18
210.208	-434.43
210.426	-434.4
210.644	-720
210.862	223.28
211.081	230.27
211.299	226.43
211.517	405.38
211.735	485.01
211.953	195.12
212.171	229.07
212.39	174.37
212.608	160.76
212.826	142.49
213.044	111.89
213.262	118.09
213.48	99.79
213.698	121.43
213.916	98.02
214.134	93.47
214.352	110.2
214.57	108.69
214.788	112.24
215.006	104.9
215.224	89.52
215.442	90.43
215.66	100.68
215.878	93.27
216.096	88.85
216.314	79.46
216.532	73.79
216.75	59.79
216.968	66.64
217.185	55.2
217.403	84.4
217.621	122.27
217.839	142.64
218.057	91.99
218.275	111.73
218.492	132.87
218.71	137.54
218.928	158.57
219.146	150.89
219.363	108.82
219.581	225.32
219.799	-272.04
220.017	-1794.85
220.234	-40.1
220.452	99.44
220.67	145.58
220.887	-0.08
221.105	-3.82
221.323	-29.21
221.54	71.6
221.758	74.06
221.976	57.81
222.193	46.47
222.411	53.87
222.629	50.59
222.846	84.28
223.064	85.97
223.281	75.58
223.499	72.92
223.716	78.77
223.934	79.49
224.151	75.7
224.369	78.37
224.586	84.77
224.804	76.7
225.021	75.14
225.239	58.51
225.456	50.27
225.674	57.94
225.891	66.8
226.108	55.26
226.326	52.68
226.543	44.78
226.76	41.88
226.978	39.87
227.195	40.26
227.413	39.7
227.63	42.13
227.847	42.36
228.064	37.05
228.282	32.06
228.499	33.83
228.716	30.16
228.934	30.13
229.151	31.19
229.368	31.18
229.585	31.38
229.802	33.13
230.02	31.46
230.237	30.42
230.454	30.33
230.671	29.45
230.888	29.71
231.105	31.51
231.323	32.07
231.54	29.69
231.757	28.16
231.974	29.61
232.191	28.51
232.408	25.09
232.625	28.54
232.842	28.81
233.059	28.67
233.276	25.87
233.493	27.7
233.71	32.44
233.927	30.96
234.144	34.77
234.361	32.27
234.578	29.73
234.795	29.28
235.012	28.19
235.229	27.05
235.446	21.29
235.663	23.45
235.879	20.3
236.096	16.51
236.313	16.01
236.53	12.53
236.747	16.04
236.964	18.81
237.181	27.74
237.397	27.23
237.614	30.18
237.831	31.89
238.048	34.45
238.264	33.7
238.481	34.58
238.698	32.25
238.915	26.28
239.131	22.84
239.348	19.4
239.565	13.33
239.781	16.16
239.998	17.61
240.215	23.93
240.431	21.32
240.648	22.12
240.865	20.28
241.081	19.41
241.298	19.97
241.514	20.05
241.731	20.8
241.947	21.68
242.164	19.72
242.38	18.45
242.597	15.42
242.814	16.44
243.03	17.42
243.246	18.28
243.463	18.61
243.679	19.02
243.896	18.38
244.112	17.92
244.329	15.45
244.545	16.79
244.762	16.15
244.978	20.03
245.194	18.53
245.411	17.01
245.627	15.65
245.843	16.06
246.06	14.79
246.276	13.76
246.492	14.52
246.709	13.83
246.925	12.93
247.141	12.22
247.357	10.38
247.574	10.73
247.79	11.83
248.006	11.75
248.222	11.32
248.439	11.4
248.655	12.09
248.871	11.12
249.087	12.69
249.303	12.08
249.519	12.4
249.736	13.08
249.952	10.67
250.168	8.16
250.384	7.71
250.6	9.24
250.816	7.41
251.032	8.13
251.248	9.82
251.464	11.04
251.68	11.21
251.896	11.05
252.112	12.35
252.328	15.02
252.544	13.53
252.76	14.17
252.976	15.53
253.192	17.02
253.408	18
253.624	18.04
253.84	18.03
254.056	18.56
254.272	20.81
254.487	19.3
254.703	18.22
254.919	19.11
255.135	17.92
255.351	15.8
255.567	15.61
255.782	13.14
255.998	10.99
256.214	10.22
256.43	8.08
256.646	8.48
256.861	10.08
257.077	8.65
257.293	8.83
257.508	7.41
257.724	7.6
257.94	7.45
258.155	8.98
258.371	11.34
258.587	9.33
258.802	10.76
259.018	9.6
259.234	10.17
259.449	10.33
259.665	9.94
259.88	10.53
260.096	9.92
260.312	10.23
260.527	9.37
260.743	8.74
260.958	9.08
261.174	7.8
261.389	7.57
261.605	6.42
261.82	6.24
262.036	6.06
262.251	5.08
262.466	4.63
262.682	5.05
262.897	5.54
263.113	4.35
263.328	4.81
263.543	7.79
263.759	7.77
263.974	10.49
264.189	10.92
264.405	12.03
264.62	13.28
264.835	13.4
265.051	12.1
265.266	11.71
265.481	10.99
265.696	10.74
265.912	10.52
266.127	9.7
266.342	6.94
266.557	6.29
266.773	5.5
266.988	5.14
267.203	5.73
267.418	5.65
267.633	6.59
267.848	7.99
268.064	9.08
268.279	9.22
268.494	12.45
268.709	13.55
268.924	13.33
269.139	13.63
269.354	13.76
269.569	15.21
269.784	16.27
269.999	15.43
270.214	13.31
270.429	13.43
270.644	13.32
270.859	11.74
271.074	10.93
271.289	11.31
271.504	11.72
271.719	11.72
271.934	10.4
272.149	10.27
272.363	11.1
272.578	11.8
272.793	11.43
273.008	11.43
273.223	10.85
273.438	11.46
273.653	12.33
273.867	11.43
274.082	11.09
274.297	12.28
274.512	12.76
274.726	11.12
274.941	10.69
275.156	11.83
275.371	10.12
275.585	11
275.8	12.22
276.015	11.66
276.229	12.64
276.444	12.88
276.659	10.51
276.873	9.18
277.088	10
277.302	11.04
277.517	8.71
277.732	10.19
277.946	9.51
278.161	8.42
278.375	8
278.59	8.8
278.804	8.84
279.019	10.07
279.233	10.47
279.448	10.6
279.662	11.68
279.877	11.92
280.091	10.07
280.306	11.77
280.52	11.77
280.735	11.93
280.949	10.4
281.163	10.66
281.378	10.84
281.592	11.96
281.806	12.46
282.021	13.02
282.235	13.88
282.449	14.42
282.664	13.8
282.878	14.44
283.092	15.01
283.307	16.02
283.521	15.91
283.735	15.53
283.949	13.75
284.164	12.42
284.378	12.19
284.592	11.88
284.806	11.96
285.02	11.54
285.234	9.84
285.449	9.47
285.663	9.13
285.877	8.28
286.091	8.1
286.305	8.28
286.519	8.55
286.733	7.54
286.947	8.43
287.161	8.68
287.375	8.46
287.589	10.23
287.803	10.6
288.017	12.12
288.231	13.34
288.445	13.23
288.659	14.48
288.873	15.77
289.087	16.91
289.301	15.72
289.515	15.92
289.729	17.24
289.943	17.43
290.157	17.66
290.371	16.72
290.584	17.11
290.798	17.15
291.012	16.95
291.226	17.05
291.44	16.24
291.654	15.58
291.867	16.14
292.081	16.82
292.295	15.52
292.509	15.58
292.722	15.25
292.936	15.81
293.15	16.31
293.364	17.2
293.577	16.14
293.791	16.98
294.005	17.48
294.218	16.87
294.432	16.1
294.645	18.05
294.859	18.41
295.073	18.24
295.286	17.84
295.5	18.27
295.713	17.92
295.927	18.28
296.14	18.09
296.354	19.43
296.568	19.41
296.781	19.56
296.994	17.92
297.208	18.41
297.421	18.29
297.635	17.9
297.848	18.62
298.062	17.95
298.275	18.13
298.489	18.33
298.702	17.81
298.915	18.75
299.129	18.78
299.342	20.85
299.555	20.3
299.769	22.25
299.982	22.46
300.195	22.01
300.409	22.52
300.622	23.24
300.835	23.13
301.048	22.72
301.262	21.83
301.475	20.99
301.688	20.44
301.901	20.74
302.115	19.57
302.328	20.47
302.541	20.34
302.754	20.35
302.967	20.28
303.18	20.29
303.393	21.42
303.607	22.66
303.82	22.83
304.033	22.22
304.246	24.34
304.459	25
304.672	24.9
304.885	25.01
305.098	26.08
305.311	24.03
305.524	22.91
305.737	21.08
305.95	21.85
306.163	22.09
306.376	22.17
306.589	18.56
306.802	17.69
307.015	18.4
307.228	17.94
307.44	17.82
307.653	21.27
307.866	23.33
308.079	25.2
308.292	23.74
308.505	23.33
308.718	24.61
308.93	26.07
309.143	26.74
309.356	24.15
309.569	25.35
309.781	25.11
309.994	24.51
310.207	25.96
310.42	25.35
310.632	25.8
310.845	26.05
311.058	26.38
311.27	24.99
311.483	24.1
311.696	24.84
311.908	23.94
312.121	22.99
312.333	22.9
312.546	21.35
312.759	22.27
312.971	21.66
313.184	21.43
313.396	19.73
313.609	21.32
313.821	22.37
314.034	23.44
314.246	23.21
314.459	24.04
314.671	24.44
314.884	22.96
315.096	23.13
315.309	24.48
315.521	24.63
315.733	25.77
315.946	25.86
316.158	24.89
316.371	23.75
316.583	24.43
316.795	23.22
317.008	22.46
317.22	24.41
317.432	24.51
317.644	23.64
317.857	24.84
318.069	23.72
318.281	24.18
318.494	25.21
318.706	24.87
318.918	24.68
319.13	24.31
319.342	25.39
319.555	23.97
319.767	23.51
319.979	21.69
320.191	18.73
320.403	20.13
320.615	20.1
320.827	20.14
321.039	22.11
321.252	22.41
321.464	25.9
321.676	26.72
321.888	27.5
322.1	25.99
322.312	25.96
322.524	26.33
322.736	24.54
322.948	22.82
323.16	22.76
323.372	22.27
323.584	22.32
323.796	22.42
324.007	21.06
324.219	20.72
324.431	21.86
324.643	22.52
324.855	22.5
325.067	23.89
325.279	24.92
325.491	23.68
325.702	24.25
325.914	23.26
326.126	21.81
326.338	21.17
326.55	21.38
326.761	22.08
326.973	23.22
327.185	24
327.396	23.17
327.608	23.03
327.82	25.43
328.032	24.52
328.243	25.7
328.455	25.58
328.666	25.59
328.878	24.83
329.09	22.87
329.301	21.84
329.513	21.58
329.725	21.26
329.936	20.58
330.148	20.25
330.359	20.03
330.571	19.29
330.782	19.33
330.994	21.43
331.205	23.49
331.417	24.97
331.628	25
331.84	24.87
332.051	25.01
332.262	26.88
332.474	25.14
332.685	26.11
332.897	26.75
333.108	25.8
333.319	24.2
333.531	24.03
333.742	24.04
333.953	24.99
334.165	25.86
334.376	26.64
334.587	25.19
334.799	25.25
335.01	25.35
335.221	25.74
335.432	25.89
335.644	26.68
335.855	26.71
336.066	25.16
336.277	23.38
336.488	23.41
336.7	23.22
336.911	24.05
337.122	24.42
337.333	24.76
337.544	24.18
337.755	24.98
337.966	23.69
338.177	21.99
338.388	22.58
338.599	23.94
338.811	23.43
339.022	23.85
339.233	22.92
339.444	23.66
339.655	22.22
339.866	21.78
340.076	21.88
340.287	23.32
340.498	24.45
340.709	23.6
340.92	22.76
341.131	22.51
341.342	22.34
341.553	23.02
341.764	23.22
341.975	24.01
342.185	24.36
342.396	23.45
342.607	23.47
342.818	23.45
343.029	24.41
343.239	25.55
343.45	25.59
343.661	26.1
343.872	25.78
344.082	24.81
344.293	24.94
344.504	25.38
344.714	26.43
344.925	25.88
345.136	25.58
345.346	26.36
345.557	26.29
345.768	26.48
345.978	25.98
346.189	25.78
346.399	26.08
346.61	25.77
346.821	25.69
347.031	25.19
347.242	25.69
347.452	25.4
347.663	24.79
347.873	24.15
348.084	25.01
348.294	24.37
348.504	25.2
348.715	25.44
348.925	26.43
349.136	26.97
349.346	26.9
349.557	24.74
349.767	25.34
349.977	24.53
350.188	24.07
350.398	23.56
350.608	22.18
350.819	21.35
351.029	20.7
351.239	19.76
351.449	19.26
351.66	19.07
351.87	19.9
352.08	19.92
352.29	20.19
352.501	21.05
352.711	21.13
352.921	21.83
353.131	21.98
353.341	21.61
353.552	21.08
353.762	19.86
353.972	21.21
354.182	21.16
354.392	21.39
354.602	21.33
354.812	21.14
355.022	19.97
355.232	20.02
355.442	20.51
355.652	21.65
355.862	21.75
356.072	22.43
356.282	19.97
356.492	20.65
356.702	20.54
356.912	20.65
357.122	20.8
357.332	21.77
357.542	22.09
357.752	21.26
357.962	20.63
358.171	20.61
358.381	21.74
358.591	23.12
358.801	22.54
359.011	22.55
359.221	22.68
359.43	21.75
359.64	22.05
359.85	21.28
360.06	21.63
360.269	21.13
360.479	21.45
360.689	19.94
360.899	19.82
361.108	19.78
361.318	19.83
361.528	20.01
361.737	19.94
361.947	19.5
362.156	20.06
362.366	20.29
362.576	20.17
362.785	20.76
362.995	21.05
363.204	21.19
363.414	21.42
363.623	21.06
363.833	20.76
364.042	21.2
364.252	20.87
364.461	20.76
364.671	20.25
364.88	21.3
365.09	19.59
365.299	20.39
365.509	21.07
365.718	21.51
365.927	21.56
366.137	22.07
366.346	22.4
366.555	21.55
366.765	21.46
366.974	21.08
367.183	20.47
367.393	21.27
367.602	20.79
367.811	19.49
368.021	19.51
368.23	19.21
368.439	19.2
368.648	18.66
368.857	19.76
369.067	19.49
369.276	19.62
369.485	19.65
369.694	19.55
369.903	19.13
370.112	19.41
370.321	19.25
370.531	19.42
370.74	19.43
370.949	19.74
371.158	19.21
371.367	19.43
371.576	19.8
371.785	19.58
371.994	18.91
372.203	18.83
372.412	18.05
372.621	17.84
372.83	17.59
373.039	17.38
373.248	16.8
373.457	17.43
373.666	17.48
373.874	17.08
374.083	16.8
374.292	17.16
374.501	17.01
374.71	17.6
374.919	17.66
375.128	17.2
375.336	16.35
375.545	17.06
375.754	16.76
375.963	16.21
376.171	16.78
376.38	16.96
376.589	16.63
376.798	16.76
377.006	16.91
377.215	16.97
377.424	17.28
377.632	18.41
377.841	17.8
378.05	17.99
378.258	18.4
378.467	17.98
378.675	17.73
378.884	17.52
379.093	17.19
379.301	17.22
379.51	16.92
379.718	17.33
379.927	16.71
380.135	16.45
380.344	16
380.552	15.98
380.761	15.85
380.969	15.74
381.177	15.89
381.386	16.07
381.594	15.55
381.803	15.11
382.011	15.02
382.219	14.24
382.428	14.75
382.636	14.29
382.845	14
383.053	13.88
383.261	14.32
383.469	13.85
383.678	14
383.886	13.8
384.094	14.3
384.302	14.49
384.511	15.02
384.719	14.85
384.927	14.78
385.135	15.09
385.343	15.19
385.552	15.17
385.76	15.91
385.968	15.86
386.176	16.37
386.384	15.98
386.592	15.48
386.8	15.5
387.008	15.25
387.216	15.86
387.424	15.54
387.633	15.49
387.841	14.9
388.049	14.7
388.257	14.63
388.465	14.06
388.672	13.84
388.88	14.28
389.088	13.65
389.296	13.83
389.504	13.45
389.712	13.13
389.92	12.88
390.128	13.25
390.336	13.2
390.544	12.86
390.751	12.79
390.959	12.52
391.167	12.05
391.375	12.2
391.583	12.2
391.79	11.97
391.998	12.14
392.206	12.14
392.414	12.37
392.621	12.2
392.829	12.14
393.037	12.41
393.244	13.06
393.452	12.54
393.66	12.79
393.867	12.4
394.075	12.48
394.283	12.65
394.49	12.67
394.698	12.37
394.905	12.26
395.113	12.67
395.32	12.54
395.528	12.56
395.735	12.99
395.943	12.74
396.15	12.97
396.358	13.18
396.565	13.09
396.773	13.35
396.98	13.29
397.188	13.39
397.395	13.11
397.602	13.29
397.81	13.08
398.017	12.81
398.225	12.98
398.432	13.18
398.639	12.93
398.847	12.67
399.054	12.68
399.261	12.67
399.468	12.29
399.676	12.15
399.883	11.73
400.09	11.48
400.297	11.81
400.505	11.5
400.712	11.45
400.919	11.64
401.126	11.83
401.333	11.66
401.54	11.63
401.748	12.04
401.955	11.84
402.162	12.32
402.369	12.62
402.576	12.74
402.783	12.96
402.99	13.02
403.197	12.77
403.404	12.6
403.611	12.66
403.818	12.96
404.025	12.97
404.232	13.25
404.439	13.01
404.646	12.86
404.853	12.73
405.06	12.74
405.267	12.4
405.474	12.52
405.681	12.68
405.887	12.77
406.094	12.77
406.301	12.87
406.508	12.59
406.715	12.58
406.922	12.83
407.128	12.96
407.335	12.97
407.542	13.11
407.749	13.2
407.955	13.17
408.162	12.97
408.369	12.59
408.575	12.68
408.782	13.04
408.989	13.14
409.195	12.83
409.402	12.88
409.609	12.8
409.815	13.03
410.022	12.99
410.228	13.31
410.435	13.43
410.642	13.49
410.848	13.68
411.055	13.5
411.261	13.46
411.468	13.56
411.674	13.35
411.881	13.27
412.087	12.86
412.294	12.6
412.5	12.35
412.706	12.41
412.913	12.33
413.119	12.03
413.326	11.92
413.532	11.73
413.738	11.65
413.945	11.64
414.151	11.76
414.357	12.12
414.564	12.1
414.77	12.06
414.976	11.91
415.182	12.14
415.389	12.22
415.595	12.36
415.801	12.54
416.007	12.79
416.214	12.57
416.42	12.34
416.626	12.33
416.832	12.62
417.038	12.5
417.244	12.56
417.45	12.59
417.657	12.22
417.863	12.49
418.069	12.37
418.275	12.25
418.481	12.36
418.687	12.47
418.893	12.22
419.099	12.14
419.305	12.19
419.511	12.14
419.717	12.06
419.923	12.27
420.129	12
420.335	12.23
420.541	12.24
420.746	12.31
420.952	12.42
421.158	12.52
421.364	12.35
421.57	12.25
421.776	12.21
421.982	12.21
422.187	12.18
422.393	12.12
422.599	11.96
422.805	12.02
423.01	12.03
423.216	11.88
423.422	11.91
423.628	12.09
423.833	12.17
424.039	12.25
424.245	12.23
424.45	12.19
424.656	12.39
424.862	12.38
425.067	12.4
425.273	12.25
425.478	12.29
425.684	12.27
425.889	12.19
426.095	12.17
426.301	11.96
426.506	11.95
426.712	11.98
426.917	11.88
427.123	11.65
427.328	11.54
427.533	11.66
427.739	11.71
427.944	11.6
428.15	11.74
428.355	11.4
428.561	11.58
428.766	11.44
428.971	11.55
429.177	11.61
429.382	11.73
429.587	11.51
429.793	11.59
429.998	11.46
430.203	11.43
430.408	11.26
430.614	11.72
430.819	11.56
431.024	11.78
431.229	11.63
431.434	11.52
431.64	11.51
431.845	11.69
432.05	11.53
432.255	11.54
432.46	11.56
432.665	11.69
432.87	11.6
433.076	11.71
433.281	11.53
433.486	11.55
433.691	11.58
433.896	11.56
434.101	11.59
434.306	11.64
434.511	11.7
434.716	11.81
434.921	11.85
435.126	11.91
435.331	12.06
435.535	12.01
435.74	12.15
435.945	12.25
436.15	12.26
436.355	12.15
436.56	12.05
436.765	11.95
436.97	11.94
437.174	11.89
437.379	12.04
437.584	11.93
437.789	12.06
437.993	11.98
438.198	11.99
438.403	11.95
438.608	11.94
438.812	11.85
439.017	11.8
439.222	11.76
439.426	11.64
439.631	11.48
439.836	11.45
440.04	11.34
440.245	11.38
440.45	11.06
440.654	11.13
440.859	11.17
441.063	11.23
441.268	11.21
441.472	11.11
441.677	11.26
441.881	11.15
442.086	10.98
442.29	11.11
442.495	11.02
442.699	11.28
442.904	11.27
443.108	11.44
443.312	11.58
443.517	11.76
443.721	11.99
443.925	11.9
444.13	12.11
444.334	12.05
444.538	12
444.743	11.99
444.947	12
445.151	12.14
445.356	11.86
445.56	11.86
445.764	11.85
445.968	11.9
446.173	11.81
446.377	11.86
446.581	12.08
446.785	12.14
446.989	12.14
447.193	12.21
447.398	12.05
447.602	12.16
447.806	12.29
448.01	12.29
448.214	12.08
448.418	12.2
448.622	12.1
448.826	11.95
449.03	11.78
449.234	11.8
449.438	11.52
449.642	11.66
449.846	11.56
450.05	11.29
450.254	11.29
450.458	11.34
450.662	11.18
450.866	11.17
451.069	11.41
451.273	11.4
451.477	11.43
451.681	11.48
451.885	11.56
452.089	11.51
452.292	11.5
452.496	11.55
452.7	11.62
452.904	11.78
453.107	11.62
453.311	11.39
453.515	11.49
453.719	11.48
453.922	11.57
454.126	11.52
454.33	11.72
454.533	11.78
454.737	11.63
454.94	11.59
455.144	11.46
455.348	11.48
455.551	11.56
455.755	11.59
455.958	11.78
456.162	11.7
