Data from 2938030_Reflection_2.txt Node
Date: Sun Jul 12 15:03:35 EDT 2015
User: robert
Spectrometer: USB4E03001
Autoset integration time: false
Trigger mode: 4
Integration Time (sec): 1.000000E-1
Scans to average: 10
Electric dark correction enabled: true
Nonlinearity correction enabled: false
Boxcar width: 5
Stray light correction enabled: false
XAxis mode: Wavelengths
Stop averaging: false
Number of Pixels in Spectrum: 3648
>>>>>Begin Spectral Data<<<<<
177.566	-226.97
177.785	92.11
178.005	92.14
178.225	52.3
178.445	128.58
178.665	133.29
178.885	46.08
179.105	4.22
179.324	23.65
179.544	403.52
179.764	115.26
179.984	-315.45
180.204	60.43
180.423	46.77
180.643	-12.7
180.863	-1588.57
181.083	-77.97
181.302	37.55
181.522	40.27
181.742	-25.62
181.961	-721.35
182.181	-48.69
182.401	-14.83
182.621	-12.09
182.84	-27.51
183.06	7.36
183.279	-31.31
183.499	-49.02
183.719	-48.75
183.938	-38.15
184.158	36.57
184.377	62.48
184.597	42.34
184.816	26.97
185.036	80.03
185.256	118.54
185.475	94.36
185.695	81.88
185.914	126.95
186.134	104.88
186.353	86.31
186.572	65.16
186.792	57.36
187.011	70.92
187.231	71.07
187.45	57.85
187.67	7.86
187.889	-76.67
188.108	11.85
188.328	-16.42
188.547	61.2
188.766	73.88
188.986	89.93
189.205	163.96
189.424	770.62
189.644	233.28
189.863	1450.78
190.082	585.04
190.302	293.92
190.521	369.98
190.74	1078.39
190.959	664.54
191.178	461.57
191.398	-377.35
191.617	1697.12
191.836	504.12
192.055	-547.4
192.274	154.03
192.494	110.67
192.713	64.77
192.932	86.57
193.151	104.91
193.37	94.99
193.589	102.89
193.808	114.8
194.027	98.39
194.246	130.98
194.465	94.57
194.685	116.69
194.904	90.45
195.123	109.8
195.342	123.79
195.561	181.73
195.78	106.85
195.999	73.35
196.218	49.16
196.436	25.74
196.655	25.96
196.874	43.3
197.093	8.74
197.312	-47.38
197.531	-52.97
197.75	-48.05
197.969	-57.53
198.188	-28.82
198.407	-43.21
198.625	-19.31
198.844	48.49
199.063	60.27
199.282	56.72
199.501	52.81
199.719	58.51
199.938	55.43
200.157	60.38
200.376	74.73
200.594	62.07
200.813	80.22
201.032	68.87
201.251	21.83
201.469	5.41
201.688	-15.42
201.907	-29.19
202.125	-16.55
202.344	-19.51
202.563	-115.47
202.781	-236.58
203	-125.95
203.218	-110.97
203.437	3106.98
203.656	56.8
203.874	85.79
204.093	165.47
204.311	152.2
204.53	142
204.748	156.38
204.967	188.02
205.185	239.19
205.404	215.32
205.622	250.22
205.841	158.3
206.059	208.7
206.278	108.5
206.496	18.16
206.715	51.82
206.933	50.66
207.151	73.95
207.37	57.71
207.588	34.92
207.806	46.29
208.025	52.75
208.243	68.9
208.461	69.72
208.68	67.11
208.898	89.52
209.116	85.39
209.335	89.42
209.553	64.93
209.771	71.54
209.989	69.22
210.208	69.23
210.426	120.6
210.644	66.58
210.862	90.14
211.081	126.36
211.299	107.28
211.517	119.62
211.735	116.12
211.953	138.97
212.171	105.18
212.39	193.81
212.608	185.83
212.826	104.06
213.044	76.28
213.262	65.2
213.48	33.33
213.698	43.33
213.916	26.42
214.134	43.3
214.352	43.04
214.57	49.25
214.788	30.9
215.006	1
215.224	1.01
215.442	33.23
215.66	28.34
215.878	21.8
216.096	19.32
216.314	33.12
216.532	45.09
216.75	40.44
216.968	34.61
217.185	40.29
217.403	57.97
217.621	47.54
217.839	55.75
218.057	79.02
218.275	98.69
218.492	120.6
218.71	163.17
218.928	161.53
219.146	127.42
219.363	154
219.581	183.97
219.799	102.93
220.017	148.82
220.234	99.64
220.452	100.33
220.67	66.57
220.887	52.38
221.105	30.59
221.323	23.92
221.54	33.02
221.758	24.1
221.976	11.95
222.193	12
222.411	-19.17
222.629	2.41
222.846	-6.51
223.064	4.53
223.281	-3.12
223.499	-11.28
223.716	-12.19
223.934	-39.45
224.151	6.39
224.369	8.12
224.586	27.4
224.804	31.55
225.021	38.93
225.239	26.78
225.456	16.28
225.674	10.11
225.891	24.64
226.108	30.24
226.326	29.75
226.543	19.7
226.76	16.33
226.978	0.84
227.195	7
227.413	0.23
227.63	3.64
227.847	8.22
228.064	11.84
228.282	11.26
228.499	8.72
228.716	9.79
228.934	9.82
229.151	10.69
229.368	13.31
229.585	13.32
229.802	15.49
230.02	16.08
230.237	17.69
230.454	17.56
230.671	16.23
230.888	18.18
231.105	18.62
231.323	16.74
231.54	16.71
231.757	13.37
231.974	11.59
232.191	6.69
232.408	8.91
232.625	7.21
232.842	4.77
233.059	8.51
233.276	6.7
233.493	6.65
233.71	6.32
233.927	5.04
234.144	10.31
234.361	13.03
234.578	15.51
234.795	8.63
235.012	8.75
235.229	10.71
235.446	11.72
235.663	14.03
235.879	17.3
236.096	22.73
236.313	25.17
236.53	22.54
236.747	20.65
236.964	17.67
237.181	24.04
237.397	24.68
237.614	22.09
237.831	20.52
238.048	20.42
238.264	18.51
238.481	14.69
238.698	14.97
238.915	16.17
239.131	15.65
239.348	13.73
239.565	9.18
239.781	5.14
239.998	6.72
240.215	7.29
240.431	3.73
240.648	4.56
240.865	3.26
241.081	5.45
241.298	7.43
241.514	7.59
241.731	10.36
241.947	11.88
242.164	13.43
242.38	13.53
242.597	13.59
242.814	15.06
243.03	15.11
243.246	15.52
243.463	14.95
243.679	15.8
243.896	16.3
244.112	15.4
244.329	15.07
244.545	15.4
244.762	15.9
244.978	14.75
245.194	14.11
245.411	12.3
245.627	13.54
245.843	14.08
246.06	12.08
246.276	12.67
246.492	12.78
246.709	12.02
246.925	9.64
247.141	9.58
247.357	9.5
247.574	9.92
247.79	10.1
248.006	10.74
248.222	10.21
248.439	9.78
248.655	9.47
248.871	8.85
249.087	8.21
249.303	10.26
249.519	9.05
249.736	9.55
249.952	7.61
250.168	7.06
250.384	5.3
250.6	5.82
250.816	7.87
251.032	6.89
251.248	8.93
251.464	10.79
251.68	8.21
251.896	8.92
252.112	7.38
252.328	7.03
252.544	7.14
252.76	6.24
252.976	5.06
253.192	3.86
253.408	3.45
253.624	1.4
253.84	-1.19
254.056	0.66
254.272	2.48
254.487	4.75
254.703	7.36
254.919	7.16
255.135	10.03
255.351	10.27
255.567	8.71
255.782	9.46
255.998	9.67
256.214	13.63
256.43	13.53
256.646	12.01
256.861	11.16
257.077	8.11
257.293	7.8
257.508	7.97
257.724	5.23
257.94	6.22
258.155	8.72
258.371	9.16
258.587	7.31
258.802	7.3
259.018	8.97
259.234	8.45
259.449	9.52
259.665	9.85
259.88	9.33
260.096	10.29
260.312	10.92
260.527	10.86
260.743	10.89
260.958	11.2
261.174	11.3
261.389	10.36
261.605	11.33
261.82	10.88
262.036	11.23
262.251	10.75
262.466	12.21
262.682	12.01
262.897	11.24
263.113	11.09
263.328	11.64
263.543	12.33
263.759	12.87
263.974	13.67
264.189	15.91
264.405	15.22
264.62	17.09
264.835	15.84
265.051	14.44
265.266	14.27
265.481	14.93
265.696	15.67
265.912	15.39
266.127	15.09
266.342	14.28
266.557	12.71
266.773	12.42
266.988	12.2
267.203	11.53
267.418	12.28
267.633	11.49
267.848	10.16
268.064	9.03
268.279	7.75
268.494	6.85
268.709	6.24
268.924	7.02
269.139	6.6
269.354	5.22
269.569	4.87
269.784	3.57
269.999	4.18
270.214	5.43
270.429	5.41
270.644	5.89
270.859	6.29
271.074	6.5
271.289	5
271.504	5.98
271.719	6.55
271.934	7.89
272.149	8.54
272.363	7.72
272.578	8.44
272.793	8.89
273.008	9.14
273.223	8.95
273.438	9.85
273.653	11.27
273.867	10.51
274.082	10.66
274.297	9.7
274.512	10.01
274.726	10.94
274.941	10.01
275.156	9.95
275.371	9.54
275.585	9.24
275.8	7.15
276.015	5.48
276.229	6.54
276.444	7.24
276.659	7.61
276.873	7.37
277.088	6.88
277.302	6.75
277.517	6.82
277.732	7.23
277.946	7.71
278.161	9.14
278.375	9.48
278.59	8.45
278.804	8.38
279.019	8.55
279.233	8.09
279.448	9.64
279.662	8.84
279.877	8.6
280.091	8.2
280.306	9.61
280.52	8.28
280.735	9.81
280.949	10.72
281.163	10.57
281.378	11.78
281.592	11.72
281.806	10.79
282.021	11.04
282.235	10.96
282.449	11.78
282.664	10.34
282.878	11.58
283.092	10.44
283.307	10.56
283.521	10.32
283.735	8.75
283.949	8.95
284.164	8.26
284.378	8.27
284.592	8.47
284.806	7.77
285.02	8.84
285.234	8.93
285.449	9.15
285.663	9.45
285.877	9.19
286.091	9.99
286.305	8.61
286.519	9.08
286.733	9.17
286.947	8.04
287.161	7.93
287.375	7.45
287.589	5.43
287.803	5.51
288.017	4.51
288.231	4.15
288.445	3.51
288.659	5
288.873	5.34
289.087	5.79
289.301	6.11
289.515	6.29
289.729	6.46
289.943	9.38
290.157	8.84
290.371	9.19
290.584	9.03
290.798	9.96
291.012	10.52
291.226	10.54
291.44	10.14
291.654	10.42
291.867	9.35
292.081	8.49
292.295	7.46
292.509	8.86
292.722	8.35
292.936	9.54
293.15	8.99
293.364	8.35
293.577	8.32
293.791	9.29
294.005	11.1
294.218	12.55
294.432	13.14
294.645	12.63
294.859	12.76
295.073	14.15
295.286	13.77
295.5	13.26
295.713	12.79
295.927	12.51
296.14	12.02
296.354	10.82
296.568	9.89
296.781	9.95
296.994	10.2
297.208	9.66
297.421	8.35
297.635	8.05
297.848	7.59
298.062	7.99
298.275	8.17
298.489	9.01
298.702	10.4
298.915	11.12
299.129	10.95
299.342	10.4
299.555	10.39
299.769	11.48
299.982	11.16
300.195	11.29
300.409	12.36
300.622	12.66
300.835	11.36
301.048	10
301.262	10.58
301.475	10.67
301.688	12.33
301.901	12.12
302.115	10.84
302.328	10.82
302.541	11.34
302.754	10.45
302.967	10.94
303.18	9.79
303.393	8.49
303.607	7.42
303.82	8.15
304.033	5.84
304.246	6.16
304.459	7.4
304.672	8.18
304.885	7.48
305.098	6.64
305.311	5.64
305.524	6.86
305.737	8.24
305.95	9.02
306.163	8.37
306.376	9.48
306.589	10.39
306.802	9.02
307.015	8.03
307.228	9.39
307.44	10.28
307.653	9.81
307.866	9.36
308.079	9.45
308.292	8.82
308.505	9.42
308.718	9.85
308.93	8.6
309.143	9.84
309.356	11.75
309.569	11.13
309.781	10.28
309.994	10.65
310.207	11.44
310.42	11.06
310.632	11.48
310.845	11.03
311.058	10.6
311.27	11.2
311.483	11.03
311.696	10.13
311.908	9.7
312.121	10.23
312.333	10.09
312.546	8.89
312.759	9.02
312.971	8.66
313.184	8.31
313.396	8.83
313.609	8.45
313.821	7.8
314.034	7.05
314.246	7.29
314.459	8.17
314.671	7.7
314.884	8.29
315.096	9.56
315.309	10.17
315.521	10.97
315.733	11.31
315.946	11.13
316.158	10.08
316.371	10.46
316.583	10.52
316.795	11.16
317.008	11.77
317.22	12.09
317.432	10.1
317.644	11.1
317.857	10.63
318.069	9.71
318.281	10.59
318.494	11.92
318.706	13
318.918	12.9
319.13	11.36
319.342	10.22
319.555	9.37
319.767	8.62
319.979	7.88
320.191	8.13
320.403	10.1
320.615	8.58
320.827	8.74
321.039	7.32
321.252	8.08
321.464	7.22
321.676	9.1
321.888	8.89
322.1	11.33
322.312	9.66
322.524	9.17
322.736	6.39
322.948	6.09
323.16	6.16
323.372	7.25
323.584	6.95
323.796	8.12
324.007	6.28
324.219	5.91
324.431	5.05
324.643	5.99
324.855	6.21
325.067	7.56
325.279	9.34
325.491	9.14
325.702	8.91
325.914	8.57
326.126	7.64
326.338	9.18
326.55	10.05
326.761	10.3
326.973	9.83
327.185	10.75
327.396	10.68
327.608	9.43
327.82	9.78
328.032	9.08
328.243	9.09
328.455	9.69
328.666	8.66
328.878	9.31
329.09	9.15
329.301	10
329.513	10.17
329.725	10.36
329.936	10.35
330.148	11.07
330.359	11.4
330.571	12.3
330.782	12.19
330.994	13.42
331.205	13.5
331.417	12.76
331.628	11.76
331.84	10.51
332.051	9.8
332.262	10.3
332.474	10.17
332.685	9.78
332.897	9.84
333.108	10.66
333.319	11.14
333.531	10.32
333.742	11.41
333.953	12.31
334.165	12.61
334.376	12.35
334.587	12.84
334.799	11.63
335.01	11.27
335.221	11.12
335.432	11.02
335.644	9.95
335.855	10.02
336.066	9.48
336.277	8.59
336.488	9.36
336.7	10.58
336.911	10.27
337.122	10.66
337.333	11.59
337.544	11.37
337.755	11.07
337.966	11.04
338.177	11.44
338.388	11.25
338.599	11.74
338.811	11.62
339.022	10.07
339.233	10.12
339.444	10.06
339.655	10.07
339.866	10.11
340.076	10.62
340.287	10.73
340.498	11.3
340.709	11.6
340.92	11.54
341.131	11.55
341.342	12.52
341.553	12.05
341.764	12.41
341.975	12.04
342.185	12.37
342.396	11.72
342.607	13.11
342.818	12.61
343.029	13.43
343.239	12.91
343.45	11.51
343.661	11.27
343.872	11.25
344.082	11.07
344.293	11.32
344.504	10.83
344.714	9.58
344.925	8.1
345.136	6.82
345.346	5.56
345.557	5.85
345.768	6.29
345.978	6.23
346.189	6.48
346.399	5.79
346.61	5.99
346.821	6.68
347.031	7.34
347.242	6.12
347.452	8.06
347.663	8.46
347.873	8.44
348.084	8.46
348.294	8.32
348.504	7.56
348.715	8.17
348.925	8.05
349.136	7.35
349.346	7.14
349.557	9.44
349.767	8.68
349.977	9.18
350.188	9.64
350.398	9.92
350.608	10.29
350.819	10.63
351.029	10.87
351.239	10.74
351.449	11.11
351.66	12.72
351.87	11.63
352.08	11.56
352.29	11.02
352.501	11.96
352.711	11.73
352.921	11.49
353.131	11.24
353.341	11.11
353.552	10.51
353.762	9.98
353.972	8.88
354.182	10.09
354.392	11.23
354.602	11.67
354.812	10.94
355.022	11.16
355.232	10.32
355.442	10.88
355.652	10.77
355.862	11.01
356.072	11.28
356.282	11.33
356.492	10.78
356.702	9.42
356.912	9.67
357.122	9.13
357.332	9.28
357.542	10.11
357.752	9.92
357.962	9.42
358.171	10.23
358.381	10.33
358.591	10.83
358.801	9.97
359.011	10.39
359.221	9.54
359.43	9.96
359.64	8.95
359.85	9.59
360.06	9.99
360.269	10.88
360.479	10.01
360.689	10.15
360.899	9.63
361.108	9.78
361.318	10.24
361.528	10.88
361.737	10.6
361.947	11.34
362.156	10.7
362.366	10.19
362.576	9.74
362.785	9.76
362.995	9.59
363.204	9.59
363.414	10.24
363.623	9.78
363.833	9.09
364.042	8.15
364.252	7.74
364.461	7.4
364.671	7.41
364.88	7.38
365.09	7.85
365.299	7.6
365.509	7.47
365.718	6.55
365.927	5.88
366.137	5.68
366.346	6.67
366.555	7.27
366.765	6.6
366.974	6.21
367.183	6.39
367.393	6.12
367.602	5.66
367.811	5.96
368.021	6.56
368.23	7.42
368.439	7.58
368.648	8.32
368.857	7.18
369.067	7.33
369.276	7.65
369.485	7.23
369.694	7.17
369.903	8.03
370.112	7.68
370.321	7.35
370.531	6.79
370.74	6.94
370.949	6.4
371.158	7.18
371.367	8.13
371.576	7.94
371.785	8.49
371.994	8.46
372.203	8.41
372.412	8.94
372.621	9.39
372.83	9.03
373.039	9.06
373.248	8.52
373.457	8.51
373.666	8.06
373.874	8.27
374.083	7.49
374.292	7.21
374.501	6.55
374.71	6.18
374.919	6.35
375.128	7.01
375.336	6.86
375.545	6.63
375.754	5.55
375.963	5.93
376.171	6.01
376.38	6.22
376.589	6.51
376.798	6.88
377.006	6.64
377.215	6.13
377.424	6.3
377.632	6.59
377.841	7.09
378.05	7.65
378.258	7.47
378.467	7.28
378.675	7.44
378.884	7.61
379.093	7.45
379.301	7.19
379.51	7.19
379.718	6.54
379.927	6.04
380.135	5.66
380.344	5.64
380.552	5.94
380.761	5.8
380.969	5.71
381.177	5.05
381.386	5.12
381.594	5.85
381.803	6.32
382.011	6.19
382.219	6.6
382.428	6.88
382.636	6.54
382.845	6.43
383.053	6.14
383.261	6.31
383.469	6.72
383.678	6.47
383.886	6.03
384.094	5.47
384.302	5.76
384.511	5.84
384.719	5.92
384.927	6.18
385.135	6.23
385.343	6.63
385.552	6.66
385.76	6.3
385.968	6.63
386.176	6.97
386.384	7.07
386.592	7.13
386.8	6.7
387.008	6.93
387.216	7.14
387.424	6.56
387.633	6.27
387.841	6.3
388.049	6.67
388.257	6.14
388.465	6.07
388.672	6.12
388.88	6.47
389.088	6.53
389.296	6.54
389.504	6.44
389.712	6.78
389.92	6.68
390.128	6.54
390.336	6.16
390.544	6.34
390.751	6.17
390.959	6.18
391.167	5.65
391.375	5.7
391.583	5.4
391.79	5.46
391.998	5.59
392.206	5.84
392.414	6.03
392.621	5.79
392.829	5.76
393.037	5.61
393.244	5.67
393.452	6.01
393.66	6.17
393.867	5.84
394.075	5.94
394.283	5.67
394.49	5.45
394.698	5.14
394.905	5.39
395.113	5.54
395.32	5.45
395.528	5.17
395.735	5.07
395.943	4.99
396.15	5.02
396.358	4.59
396.565	4.57
396.773	4.93
396.98	5.15
397.188	5.27
397.395	5.27
397.602	5.52
397.81	5.54
398.017	5.7
398.225	5.46
398.432	5.92
398.639	6.08
398.847	6.02
399.054	6
399.261	6.13
399.468	6.09
399.676	5.96
399.883	6.08
400.09	6.07
400.297	5.81
400.505	6.16
400.712	5.7
400.919	5.69
401.126	5.56
401.333	5.49
401.54	5.08
401.748	5.1
401.955	5.08
402.162	4.86
402.369	5.01
402.576	5.14
402.783	5
402.99	5.3
403.197	5.17
403.404	5.34
403.611	5.02
403.818	4.89
404.025	4.98
404.232	4.71
404.439	4.86
404.646	4.69
404.853	4.47
405.06	4.38
405.267	4.33
405.474	4.54
405.681	4.72
405.887	4.87
406.094	5.11
406.301	5.08
406.508	5.24
406.715	5
406.922	5.26
407.128	5.32
407.335	5.15
407.542	5.04
407.749	4.82
407.955	4.88
408.162	4.6
408.369	4.63
408.575	4.31
408.782	4.39
408.989	4.38
409.195	4.05
409.402	3.86
409.609	4.04
409.815	4.19
410.022	4.11
410.228	3.84
410.435	4.28
410.642	4.36
410.848	4.71
411.055	4.69
411.261	4.91
411.468	5
411.674	5.11
411.881	5.05
412.087	5.14
412.294	5.32
412.5	5.53
412.706	5.7
412.913	5.37
413.119	5.34
413.326	5.42
413.532	5.25
413.738	5.42
413.945	5.18
414.151	5.46
414.357	5.17
414.564	4.84
414.77	4.65
414.976	4.37
415.182	4.23
415.389	4.18
415.595	4.04
415.801	4.05
416.007	4.08
416.214	4.35
416.42	4.05
416.626	4.24
416.832	4.15
417.038	4.2
417.244	4.17
417.45	4.51
417.657	4.5
417.863	4.65
418.069	4.66
418.275	4.63
418.481	4.63
418.687	4.7
418.893	4.65
419.099	4.99
419.305	4.97
419.511	5.01
419.717	4.99
419.923	4.91
420.129	4.82
420.335	4.67
420.541	4.6
420.746	4.59
420.952	4.56
421.158	4.48
421.364	4.4
421.57	4.38
421.776	4.28
421.982	4.31
422.187	4.25
422.393	4.28
422.599	4.44
422.805	4.48
423.01	4.45
423.216	4.38
423.422	4.32
423.628	4.25
423.833	4.17
424.039	4.15
424.245	3.96
424.45	3.95
424.656	4.01
424.862	3.93
425.067	3.92
425.273	3.91
425.478	3.97
425.684	4
425.889	3.96
426.095	3.94
426.301	3.97
426.506	4.03
426.712	4.04
426.917	3.98
427.123	3.9
427.328	3.7
427.533	3.61
427.739	3.59
427.944	3.63
428.15	3.63
428.355	3.79
428.561	3.77
428.766	3.94
428.971	4.16
429.177	3.94
429.382	3.94
429.587	4.03
429.793	4.29
429.998	4.46
430.203	4.44
430.408	4.36
430.614	4.24
430.819	4.25
431.024	3.85
431.229	3.57
431.434	3.63
431.64	3.82
431.845	3.86
432.05	3.56
432.255	3.31
432.46	3.26
432.665	3.41
432.87	3.49
433.076	3.64
433.281	3.74
433.486	3.74
433.691	3.85
433.896	3.82
434.101	3.83
434.306	4.05
434.511	4.22
434.716	4.4
434.921	4.35
435.126	4.27
435.331	4.07
435.535	4.15
435.74	4.27
435.945	4.3
436.15	4.25
436.355	4.29
436.56	3.99
436.765	3.84
436.97	3.66
437.174	3.62
437.379	3.64
437.584	3.69
437.789	3.7
437.993	3.85
438.198	3.7
438.403	3.88
438.608	3.73
438.812	3.81
439.017	3.86
439.222	4.04
439.426	4.03
439.631	3.99
439.836	4.03
440.04	3.92
440.245	3.87
440.45	3.95
440.654	3.82
440.859	3.9
441.063	3.96
441.268	3.98
441.472	3.94
441.677	4.01
441.881	4.01
442.086	3.9
442.29	3.96
442.495	3.88
442.699	3.95
442.904	3.95
443.108	3.99
443.312	3.98
443.517	3.96
443.721	3.78
443.925	3.71
444.13	3.77
444.334	3.84
444.538	3.91
444.743	3.91
444.947	3.8
445.151	3.84
445.356	3.74
445.56	3.75
445.764	3.7
445.968	3.84
446.173	3.86
446.377	3.91
446.581	4.02
446.785	4
446.989	4
447.193	3.94
447.398	3.9
447.602	3.99
447.806	4.1
448.01	4.14
448.214	3.95
448.418	4.02
448.622	3.99
448.826	3.8
449.03	3.83
449.234	3.95
449.438	4.05
449.642	4.02
449.846	4.05
450.05	3.83
450.254	3.9
450.458	4.15
450.662	4.02
450.866	4.07
451.069	4.17
451.273	4.08
451.477	3.95
451.681	3.92
451.885	4.14
452.089	3.99
452.292	4.06
452.496	3.97
452.7	3.93
452.904	3.99
453.107	3.93
453.311	3.98
453.515	4.11
453.719	4.1
453.922	4.17
454.126	3.96
454.33	4.14
454.533	3.92
454.737	3.91
454.94	3.83
455.144	4.04
455.348	4.11
455.551	4.07
455.755	4.08
455.958	4.09
456.162	3.69
456.365	3.75
456.569	3.89
456.772	4.16
456.976	4.22
457.179	4.32
457.383	3.85
457.586	3.78
457.79	3.73
457.993	3.72
458.196	3.77
458.4	4.05
458.603	4.09
458.807	3.82
459.01	3.73
459.213	3.67
459.417	3.82
459.62	4.02
459.823	4.03
460.026	4.08
460.23	3.99
460.433	3.87
460.636	3.84
460.839	3.93
461.042	4.03
461.246	4.01
461.449	4
461.652	3.77
461.855	3.74
462.058	3.58
462.261	3.69
462.464	3.8
462.668	3.85
462.871	3.9
463.074	3.78
463.277	3.89
463.48	3.88
463.683	3.92
463.886	4.08
464.089	4.09
464.292	4.2
464.495	3.9
464.698	3.65
464.901	3.59
465.104	3.49
465.306	3.54
465.509	3.34
465.712	3.43
465.915	3.42
466.118	3.49
466.321	3.3
466.524	3.48
466.726	3.56
466.929	3.61
467.132	3.66
467.335	3.63
467.538	3.58
