Data from 2938117_Reflection_3.txt Node
Date: Sat Jul 11 18:05:28 EDT 2015
User: robert
Spectrometer: USB4E03001
Autoset integration time: false
Trigger mode: 4
Integration Time (sec): 1.000000E-1
Scans to average: 10
Electric dark correction enabled: true
Nonlinearity correction enabled: false
Boxcar width: 5
Stray light correction enabled: false
XAxis mode: Wavelengths
Stop averaging: false
Number of Pixels in Spectrum: 3648
>>>>>Begin Spectral Data<<<<<
177.566	1414.35
177.785	-98.45
178.005	-34.47
178.225	-0
178.445	15.4
178.665	41.96
178.885	49.82
179.105	90.31
179.324	84.84
179.544	35.35
179.764	113.24
179.984	151.99
180.204	144.93
180.423	115.63
180.643	362.37
180.863	-524.05
181.083	160.91
181.302	140.03
181.522	118.27
181.742	147.3
181.961	172.49
182.181	80.22
182.401	155.98
182.621	446.41
182.84	251.42
183.06	84.04
183.279	18.47
183.499	51.06
183.719	64.35
183.938	48.96
184.158	17.39
184.377	16.75
184.597	60.87
184.816	39.16
185.036	47.73
185.256	50.62
185.475	38.76
185.695	71.76
185.914	53.54
186.134	34.97
186.353	3.47
186.572	25.55
186.792	53.5
187.011	62.24
187.231	83.98
187.45	63.9
187.67	72.76
187.889	91.01
188.108	104.76
188.328	131.28
188.547	139.32
188.766	147.66
188.986	165.24
189.205	175.47
189.424	148.94
189.644	148.43
189.863	191.89
190.082	852.93
190.302	296.89
190.521	174.73
190.74	118.45
190.959	-789.83
191.178	-412.74
191.398	311.56
191.617	86.06
191.836	68.54
192.055	161.09
192.274	93.87
192.494	87.97
192.713	291.7
192.932	289.2
193.151	-1058.76
193.37	-23.91
193.589	8.76
193.808	-453.24
194.027	-284.22
194.246	375.56
194.465	5772.88
194.685	835.87
194.904	-1486.38
195.123	328.25
195.342	-437.12
195.561	292.57
195.78	157.83
195.999	135.05
196.218	308.49
196.436	322.58
196.655	278.33
196.874	135.71
197.093	96.02
197.312	83.32
197.531	73.12
197.75	74.51
197.969	98.22
198.188	92.91
198.407	94.24
198.625	86.35
198.844	89.82
199.063	76.92
199.282	143.14
199.501	176.72
199.719	237.67
199.938	206.71
200.157	294.24
200.376	-1280.88
200.594	239.18
200.813	141.63
201.032	118.15
201.251	94.37
201.469	135.78
201.688	83.37
201.907	66.73
202.125	63.19
202.344	59.9
202.563	74.11
202.781	95.88
203	83.94
203.218	74.44
203.437	46.61
203.656	58.42
203.874	2.04
204.093	16.21
204.311	61.18
204.53	68.59
204.748	56.44
204.967	52.75
205.185	43.9
205.404	31.12
205.622	42.06
205.841	47.47
206.059	52.05
206.278	68.65
206.496	93.61
206.715	77.32
206.933	92.95
207.151	240.23
207.37	305.57
207.588	338.18
207.806	225.93
208.025	259.75
208.243	207.44
208.461	306.98
208.68	-77.91
208.898	57.54
209.116	42.35
209.335	26.42
209.553	-273.33
209.771	-155.31
209.989	-125.2
210.208	524.26
210.426	-19.83
210.644	347.43
210.862	-91.06
211.081	27.94
211.299	43.89
211.517	80.95
211.735	160.21
211.953	48.73
212.171	25.56
212.39	9.02
212.608	27.86
212.826	19.86
213.044	40.45
213.262	36.67
213.48	29.34
213.698	40.86
213.916	37.88
214.134	13.77
214.352	22.38
214.57	42.6
214.788	45.76
215.006	54.44
215.224	42.59
215.442	44.17
215.66	37.49
215.878	26.71
216.096	23.79
216.314	49.21
216.532	42.9
216.75	46.31
216.968	71.92
217.185	83.05
217.403	77.97
217.621	106.43
217.839	123.45
218.057	90.27
218.275	103.6
218.492	69.9
218.71	35.92
218.928	57.4
219.146	28.75
219.363	17.36
219.581	-107.19
219.799	437.07
220.017	2948.45
220.234	319.05
220.452	253.96
220.67	450.88
220.887	-237.72
221.105	-261.99
221.323	-66.34
221.54	37.96
221.758	38.76
221.976	41.07
222.193	37.08
222.411	35.55
222.629	37.8
222.846	57.7
223.064	61.54
223.281	57.27
223.499	63.25
223.716	66.64
223.934	60.74
224.151	47.08
224.369	59.34
224.586	62.14
224.804	61.9
225.021	49.61
225.239	46.43
225.456	29.89
225.674	34.69
225.891	34.73
226.108	29.49
226.326	25.12
226.543	28.88
226.76	17.59
226.978	14.25
227.195	8.71
227.413	17.73
227.63	13.06
227.847	21.6
228.064	16.04
228.282	17.23
228.499	12.27
228.716	12.2
228.934	13.56
229.151	16.24
229.368	15.4
229.585	16.99
229.802	18.23
230.02	18.3
230.237	16.08
230.454	15.82
230.671	12.5
230.888	15.37
231.105	15.69
231.323	16.7
231.54	16.65
231.757	18.98
231.974	21.25
232.191	22.67
232.408	21.49
232.625	23.39
232.842	25.45
233.059	26.48
233.276	20.64
233.493	21.57
233.71	18.35
233.927	15.75
234.144	18.09
234.361	18.49
234.578	17.58
234.795	14.48
235.012	10.67
235.229	6.31
235.446	7.85
235.663	15.48
235.879	19.23
236.096	11.74
236.313	12.71
236.53	5.73
236.747	7.54
236.964	6.86
237.181	11.6
237.397	16
237.614	23.06
237.831	19.02
238.048	19.53
238.264	12.76
238.481	20.67
238.698	23.18
238.915	20.91
239.131	16.36
239.348	12.16
239.565	11.41
239.781	11.42
239.998	10.34
240.215	14.28
240.431	12.1
240.648	10.96
240.865	12.84
241.081	10.69
241.298	13.47
241.514	11.65
241.731	11.15
241.947	9.35
242.164	8.17
242.38	5.06
242.597	4.05
242.814	4.19
243.03	6.32
243.246	4.48
243.463	5.52
243.679	4.87
243.896	6.19
244.112	6.55
244.329	7.56
244.545	7
244.762	9.38
244.978	11.66
245.194	10.86
245.411	11.55
245.627	10.84
245.843	9.5
246.06	9.17
246.276	7.46
246.492	7.93
246.709	6.45
246.925	6.91
247.141	5.77
247.357	4.6
247.574	5.34
247.79	5.98
248.006	6.08
248.222	5.67
248.439	5.64
248.655	6.01
248.871	4.96
249.087	5.97
249.303	5.07
249.519	6.03
249.736	4.35
249.952	2.39
250.168	0.01
250.384	-0.66
250.6	1.05
250.816	-0
251.032	2.5
251.248	4.14
251.464	5.38
251.68	5
251.896	6.95
252.112	8.14
252.328	10.21
252.544	9.68
252.76	11.73
252.976	11.47
253.192	11.86
253.408	11.01
253.624	11.36
253.84	9.87
254.056	13.47
254.272	12.7
254.487	11.92
254.703	10.31
254.919	10.09
255.135	7.73
255.351	8.47
255.567	5.4
255.782	5.71
255.998	6.27
256.214	9.82
256.43	7.49
256.646	4.48
256.861	8.26
257.077	8.11
257.293	7.73
257.508	7
257.724	5.46
257.94	6.78
258.155	4.91
258.371	7.02
258.587	3.19
258.802	3.43
259.018	3.75
259.234	1.53
259.449	1.82
259.665	2.34
259.88	2.77
260.096	2.81
260.312	2.46
260.527	2.98
260.743	1.83
260.958	2.85
261.174	2.85
261.389	2.66
261.605	4.65
261.82	5.35
262.036	5.67
262.251	4.65
262.466	4.28
262.682	5.57
262.897	5.33
263.113	5.62
263.328	4.97
263.543	7.34
263.759	8.69
263.974	7.63
264.189	5.32
264.405	5.01
264.62	5.38
264.835	6.45
265.051	7.62
265.266	8.52
265.481	7.9
265.696	8.74
265.912	6.86
266.127	7.94
266.342	6.08
266.557	5.4
266.773	3.72
266.988	3.18
267.203	3.03
267.418	2.14
267.633	3.44
267.848	3.43
268.064	5.39
268.279	5.75
268.494	5.24
268.709	5.45
268.924	6.24
269.139	7.1
269.354	9.13
269.569	10.6
269.784	10.18
269.999	7.27
270.214	6.65
270.429	6.61
270.644	5.74
270.859	6.62
271.074	6.34
271.289	5.32
271.504	6.06
271.719	5.6
271.934	4.52
272.149	5.05
272.363	6.52
272.578	7.38
272.793	6.19
273.008	6.76
273.223	5.35
273.438	6.22
273.653	8.63
273.867	8.28
274.082	8.29
274.297	8.44
274.512	8.09
274.726	6.35
274.941	5.17
275.156	5.2
275.371	4.13
275.585	5.16
275.8	5.09
276.015	4.23
276.229	3.95
276.444	4.15
276.659	4.54
276.873	4.07
277.088	5.71
277.302	8.08
277.517	7.83
277.732	6.91
277.946	6.24
278.161	5
278.375	4.7
278.59	5.84
278.804	6.14
279.019	5.26
279.233	6.76
279.448	6.35
279.662	6.32
279.877	6.52
280.091	7.35
280.306	8.03
280.52	9.11
280.735	8.44
280.949	7
281.163	5.32
281.378	5.99
281.592	6.26
281.806	5.51
282.021	5.28
282.235	5.25
282.449	5.44
282.664	5.84
282.878	6.17
283.092	6.64
283.307	6.99
283.521	8.07
283.735	7.17
283.949	7.25
284.164	7.19
284.378	6.36
284.592	5.73
284.806	5.56
285.02	4.65
285.234	4.07
285.449	3.24
285.663	3.55
285.877	3.1
286.091	3.79
286.305	1.64
286.519	1.94
286.733	1.51
286.947	2.55
287.161	2.86
287.375	3.68
287.589	4.57
287.803	7.27
288.017	7
288.231	8.06
288.445	8.29
288.659	10.87
288.873	11.94
289.087	12.15
289.301	11.41
289.515	12.48
289.729	12.44
289.943	11.31
290.157	10.66
290.371	12.53
290.584	11.68
290.798	11.25
291.012	11.47
291.226	11.18
291.44	11.7
291.654	11.08
291.867	9.37
292.081	9.91
292.295	9.59
292.509	8.42
292.722	5.84
292.936	6.76
293.15	7.36
293.364	8.86
293.577	8.98
293.791	10.14
294.005	10.64
294.218	10.19
294.432	8.86
294.645	10.55
294.859	11.1
295.073	10.74
295.286	11.62
295.5	11.37
295.713	10.19
295.927	9.15
296.14	8.18
296.354	8.66
296.568	8.49
296.781	9.48
296.994	9.12
297.208	8.86
297.421	9.44
297.635	7.68
297.848	7.55
298.062	6.72
298.275	6.87
298.489	6.6
298.702	6.96
298.915	9.26
299.129	9.3
299.342	10.26
299.555	10.64
299.769	11.88
299.982	13.34
300.195	13.37
300.409	14
300.622	14.1
300.835	15.1
301.048	14.39
301.262	11.85
301.475	9.67
301.688	8.98
301.901	8.97
302.115	7.66
302.328	7.21
302.541	7.01
302.754	7.15
302.967	8.76
303.18	6.66
303.393	6.97
303.607	9.03
303.82	11.69
304.033	10.22
304.246	10.39
304.459	10.63
304.672	11.14
304.885	11.38
305.098	11.34
305.311	8.96
305.524	9.51
305.737	9.37
305.95	10.79
306.163	8.07
306.376	9.25
306.589	7.23
306.802	6.86
307.015	8.06
307.228	7.56
307.44	8.09
307.653	10.69
307.866	12.04
308.079	12.22
308.292	9.04
308.505	10.89
308.718	11.08
308.93	12.16
309.143	13.11
309.356	10.29
309.569	10.05
309.781	9.85
309.994	8.79
310.207	9.51
310.42	8.63
310.632	9.06
310.845	8.33
311.058	7.74
311.27	7.64
311.483	7.21
311.696	9.14
311.908	10.07
312.121	10.55
312.333	10.69
312.546	10.27
312.759	11.12
312.971	10.63
313.184	10.79
313.396	10.19
313.609	10.54
313.821	11.58
314.034	11.64
314.246	12.05
314.459	10.43
314.671	11.16
314.884	9.85
315.096	10.15
315.309	10.21
315.521	10.49
315.733	12.67
315.946	12.05
316.158	10.74
316.371	10.74
316.583	10.98
316.795	11.56
317.008	11.1
317.22	13.08
317.432	13.68
317.644	14.92
317.857	15.94
318.069	15.15
318.281	16.64
318.494	17.29
318.706	16.66
318.918	14.85
319.13	14.64
319.342	16.58
319.555	16.07
319.767	15.27
319.979	15.73
320.191	13.76
320.403	14.52
320.615	13.7
320.827	13.3
321.039	13.17
321.252	13.49
321.464	13.98
321.676	11.54
321.888	11.03
322.1	11.91
322.312	9.96
322.524	11.19
322.736	8.92
322.948	8.37
323.16	8.48
323.372	8.83
323.584	10.5
323.796	9.69
324.007	9.34
324.219	9.42
324.431	8.09
324.643	9.44
324.855	9.81
325.067	10.87
325.279	12.28
325.491	12.5
325.702	12.75
325.914	11.68
326.126	12.66
326.338	12.71
326.55	12.8
326.761	14.02
326.973	13.23
327.185	11.78
327.396	12.28
327.608	10.97
327.82	11.6
328.032	11.09
328.243	10.84
328.455	9.85
328.666	10.13
328.878	8.73
329.09	7.52
329.301	7.17
329.513	8.22
329.725	8.26
329.936	9.49
330.148	10.52
330.359	10.23
330.571	9.43
330.782	8.56
330.994	10.17
331.205	11.7
331.417	12.26
331.628	11.77
331.84	10.54
332.051	10.48
332.262	10.22
332.474	8.94
332.685	9.59
332.897	10.22
333.108	10.71
333.319	10.44
333.531	12.39
333.742	13.1
333.953	14.91
334.165	15.61
334.376	15.61
334.587	14.86
334.799	14.49
335.01	13.66
335.221	13.34
335.432	13.95
335.644	13.11
335.855	11.1
336.066	10.4
336.277	8.68
336.488	7.95
336.7	7.1
336.911	7.01
337.122	7.64
337.333	8.27
337.544	8.71
337.755	9.23
337.966	8.28
338.177	8.4
338.388	7.68
338.599	7.37
338.811	7.31
339.022	7.55
339.233	9.7
339.444	9.23
339.655	8.16
339.866	7.16
340.076	6.91
340.287	7.71
340.498	6.88
340.709	7.54
340.92	8.77
341.131	9.48
341.342	10.44
341.553	9.93
341.764	10.04
341.975	10.43
342.185	11.79
342.396	11.7
342.607	12.19
342.818	12.91
343.029	12.37
343.239	12.26
343.45	11.91
343.661	12.03
343.872	10.97
344.082	10.33
344.293	11.6
344.504	11.53
344.714	10.9
344.925	10.33
345.136	10.44
345.346	11.48
345.557	11.39
345.768	11.84
345.978	12.05
346.189	12.05
346.399	12.05
346.61	11.33
346.821	10.8
347.031	12.07
347.242	13.14
347.452	12.82
347.663	12.46
347.873	12.73
348.084	14.45
348.294	12.07
348.504	12.13
348.715	12.9
348.925	13.6
349.136	14.63
349.346	14.11
349.557	12.08
349.767	12.94
349.977	11.53
350.188	12.19
350.398	11.72
350.608	12.38
350.819	12.31
351.029	12.47
351.239	12.58
351.449	11.87
351.66	11.57
351.87	12.32
352.08	11.34
352.29	12.62
352.501	11.88
352.711	11.5
352.921	11.91
353.131	11.99
353.341	11.8
353.552	11.64
353.762	10.1
353.972	11.22
354.182	10.59
354.392	11.25
354.602	10.43
354.812	10.29
355.022	8.84
355.232	8.87
355.442	9.59
355.652	9.79
355.862	9.56
356.072	10.96
356.282	8.78
356.492	9.98
356.702	9.79
356.912	10.71
357.122	11.36
357.332	13.28
357.542	12.78
357.752	11.87
357.962	11.63
358.171	11.38
358.381	12.07
358.591	13.22
358.801	13.26
359.011	13.78
359.221	13.38
359.43	12.56
359.64	11.25
359.85	10.89
360.06	11.57
360.269	11.7
360.479	12.2
360.689	12.01
360.899	12.13
361.108	11.57
361.318	11.81
361.528	11.88
361.737	12.07
361.947	11.7
362.156	12.71
362.366	12.97
362.576	12.14
362.785	11.9
362.995	11.7
363.204	11.22
363.414	11.41
363.623	10.81
363.833	11.5
364.042	12.4
364.252	13.57
364.461	13.38
364.671	13.22
364.88	14.23
365.09	14.06
365.299	14.69
365.509	15.66
365.718	15.63
365.927	15.75
366.137	15.39
366.346	14.74
366.555	13.96
366.765	14.09
366.974	12.95
367.183	13.09
367.393	13.36
367.602	13.68
367.811	13.07
368.021	13.43
368.23	12.96
368.439	12.75
368.648	13.02
368.857	14.33
369.067	14.46
369.276	14.99
369.485	15.59
369.694	16.1
369.903	15.47
370.112	15.73
370.321	16.42
370.531	16.8
370.74	17.12
370.949	17.28
371.158	16.94
371.367	16.84
371.576	18.19
371.785	17.49
371.994	17.28
372.203	17.35
372.412	17.26
372.621	17.34
372.83	17.51
373.039	17.28
373.248	16.75
373.457	17.26
373.666	17.43
373.874	16.25
374.083	16.2
374.292	16.41
374.501	16.2
374.71	16.31
374.919	15.71
375.128	15.75
375.336	16.32
375.545	17.02
375.754	16.27
375.963	16.28
376.171	16.64
376.38	17.29
376.589	17.15
376.798	17.23
377.006	17.44
377.215	17.4
377.424	17.54
377.632	17.97
377.841	17.75
378.05	17.73
378.258	17.5
378.467	17.1
378.675	16.59
378.884	16.42
379.093	16.61
379.301	16.59
379.51	16.47
379.718	16.33
379.927	15.56
380.135	15.68
380.344	16.01
380.552	17.09
380.761	17.49
380.969	17.61
381.177	18.11
381.386	17.3
381.594	17.08
381.803	17.15
382.011	17.47
382.219	17.86
382.428	17.56
382.636	16.82
382.845	15.97
383.053	16.36
383.261	16.84
383.469	16.7
383.678	17.66
383.886	17.81
384.094	18.43
384.302	18.87
384.511	18.98
384.719	19.26
384.927	19.8
385.135	20.13
385.343	19.93
385.552	20.34
385.76	20.35
385.968	20.13
386.176	20.68
386.384	20.19
386.592	19.27
386.8	19.1
387.008	19.06
387.216	19.23
387.424	18.94
387.633	19.1
387.841	18.77
388.049	18.91
388.257	19.39
388.465	19
388.672	19.45
388.88	20.53
389.088	20.54
389.296	20.57
389.504	20.46
389.712	20.76
389.92	20.68
390.128	20.47
390.336	20.9
390.544	20.47
390.751	20.64
390.959	20.67
391.167	20.35
391.375	20.44
391.583	20.84
391.79	20.83
391.998	21.17
392.206	21.64
392.414	22.06
392.621	22.02
392.829	22.25
393.037	22.7
393.244	23.05
393.452	22.95
393.66	23.44
393.867	22.94
394.075	23.27
394.283	23.26
394.49	23.04
394.698	23.14
394.905	22.87
395.113	23.08
395.32	22.74
395.528	22.92
395.735	23.36
395.943	23.31
396.15	23.79
396.358	23.89
396.565	24.2
396.773	24.72
396.98	24.87
397.188	25.26
397.395	25.43
397.602	25.58
397.81	25.32
398.017	25.39
398.225	25.23
398.432	25.56
398.639	25.74
398.847	25.69
399.054	25.4
399.261	25.23
399.468	25.03
399.676	24.92
399.883	25.08
400.09	25.19
400.297	25.13
400.505	25.26
400.712	25.02
400.919	25.23
401.126	25.39
401.333	25.5
401.54	25.8
401.748	25.9
401.955	26.15
402.162	26.27
402.369	26.29
402.576	26.24
402.783	26.33
402.99	26.74
403.197	26.79
403.404	26.69
403.611	26.9
403.818	27.05
404.025	27.31
404.232	27.45
404.439	27.54
404.646	27.6
404.853	27.91
405.06	28.01
405.267	27.97
405.474	27.9
405.681	28
405.887	27.83
406.094	27.89
406.301	27.98
406.508	27.96
406.715	27.93
406.922	27.85
407.128	27.88
407.335	27.89
407.542	27.98
407.749	28.21
407.955	28.28
408.162	28.22
408.369	27.99
408.575	28.01
408.782	28.12
408.989	28.17
409.195	28.29
409.402	28.27
409.609	28.51
409.815	28.47
410.022	28.49
410.228	28.56
410.435	28.78
410.642	28.71
410.848	28.65
411.055	28.75
411.261	28.84
411.468	29.07
411.674	28.85
411.881	28.41
412.087	28.19
412.294	27.81
412.5	28.02
412.706	28.34
412.913	28.69
413.119	28.65
413.326	28.43
413.532	28.28
413.738	28.07
413.945	28.3
414.151	28.75
414.357	28.9
414.564	29.05
414.77	28.59
414.976	28.69
415.182	28.55
415.389	28.51
415.595	28.43
415.801	28.6
416.007	28.37
416.214	28.11
416.42	27.86
416.626	27.92
416.832	27.96
417.038	27.93
417.244	27.63
417.45	27.59
417.657	27.5
417.863	27.55
418.069	27.65
418.275	27.95
418.481	27.95
418.687	27.85
418.893	27.76
419.099	27.77
419.305	27.67
419.511	27.61
419.717	27.53
419.923	27.66
420.129	27.54
420.335	27.39
420.541	27.29
420.746	27.42
420.952	27.62
421.158	27.59
421.364	27.48
421.57	27.42
421.776	27.4
421.982	27.46
422.187	27.4
422.393	27.49
422.599	27.39
422.805	27.32
423.01	27.34
423.216	27.25
423.422	27.26
423.628	27.3
423.833	27.48
424.039	27.66
424.245	27.68
424.45	27.6
424.656	27.61
424.862	27.65
425.067	27.7
425.273	27.54
425.478	27.55
425.684	27.68
425.889	27.72
426.095	27.62
426.301	27.45
426.506	27.3
426.712	27.38
426.917	27.38
427.123	27.26
427.328	27.37
427.533	27.38
427.739	27.43
427.944	27.3
428.15	27.34
428.355	27.34
428.561	27.33
428.766	27.46
428.971	27.59
429.177	27.57
429.382	27.6
429.587	27.42
429.793	27.51
429.998	27.35
430.203	27.21
430.408	27.05
430.614	27.24
430.819	27.08
431.024	27.11
431.229	27.04
431.434	26.93
431.64	27.09
431.845	27.16
432.05	27.06
432.255	26.86
432.46	26.98
432.665	27
432.87	26.82
433.076	26.92
433.281	26.86
433.486	26.81
433.691	26.95
433.896	26.93
434.101	26.86
434.306	27.01
434.511	27.21
434.716	27.28
434.921	27.32
435.126	27.64
435.331	27.66
435.535	27.42
435.74	27.47
435.945	27.55
436.15	27.51
436.355	27.52
436.56	27.6
436.765	27.57
436.97	27.51
437.174	27.56
437.379	27.47
437.584	27.44
437.789	27.78
437.993	27.71
438.198	27.85
438.403	27.71
438.608	27.7
438.812	27.55
439.017	27.42
439.222	27.13
439.426	27.1
439.631	26.96
439.836	26.94
440.04	26.86
440.245	26.98
440.45	26.7
440.654	26.75
440.859	26.81
441.063	26.72
441.268	26.83
441.472	27.12
441.677	27.14
441.881	27.28
442.086	27.24
442.29	27.2
442.495	27.21
442.699	27.27
442.904	27.41
443.108	27.35
443.312	27.38
443.517	27.44
443.721	27.29
443.925	27.24
444.13	27.17
444.334	27.03
444.538	26.88
444.743	26.86
444.947	26.81
445.151	26.77
445.356	26.83
445.56	26.93
445.764	26.83
445.968	26.89
446.173	26.82
446.377	26.83
446.581	26.91
446.785	27
446.989	26.79
447.193	26.78
447.398	26.69
447.602	26.69
447.806	26.76
448.01	26.81
448.214	26.67
448.418	26.68
448.622	26.6
448.826	26.77
449.03	26.84
449.234	27.03
449.438	26.87
449.642	27
449.846	26.87
450.05	26.63
450.254	26.6
450.458	26.6
450.662	26.68
450.866	26.69
451.069	26.67
451.273	26.52
451.477	26.35
451.681	26.5
451.885	26.46
452.089	26.41
452.292	26.46
452.496	26.51
452.7	26.58
452.904	26.6
453.107	26.5
453.311	26.36
453.515	26.33
453.719	26.42
453.922	26.42
454.126	26.26
454.33	26.39
454.533	26.21
454.737	26.09
454.94	25.96
455.144	25.96
455.348	26
455.551	26.05
455.755	26.38
455.958	26.53
456.162	26.66
456.365	26.74
456.569	26.69
456.772	26.93
456.976	27.08
457.179	27.21
457.383	27.09
457.586	27.02
457.79	26.97
457.993	26.88
458.196	26.79
458.4	26.73
458.603	26.73
458.807	26.54
459.01	26.61
459.213	26.54
459.417	26.74
459.62	26.78
459.823	26.92
460.026	26.91
460.23	26.82
460.433	26.88
460.636	26.9
