Data from 2938116_Reflection_2.txt Node
Date: Sat Jul 11 18:10:11 EDT 2015
User: robert
Spectrometer: USB4E03001
Autoset integration time: false
Trigger mode: 4
Integration Time (sec): 1.000000E-1
Scans to average: 10
Electric dark correction enabled: true
Nonlinearity correction enabled: false
Boxcar width: 5
Stray light correction enabled: false
XAxis mode: Wavelengths
Stop averaging: false
Number of Pixels in Spectrum: 3648
>>>>>Begin Spectral Data<<<<<
177.566	-687.04
177.785	363.11
178.005	163.21
178.225	105.65
178.445	87.39
178.665	187.28
178.885	122.94
179.105	16.18
179.324	14.61
179.544	-50.73
179.764	-46.27
179.984	-33.43
180.204	34.12
180.423	35.65
180.643	127.75
180.863	210.03
181.083	-201.04
181.302	-149.4
181.522	20.22
181.742	29.14
181.961	55.16
182.181	65.52
182.401	4.81
182.621	-279.02
182.84	-278.87
183.06	-87.19
183.279	-28.28
183.499	28.69
183.719	22.63
183.938	14.33
184.158	14.65
184.377	45.93
184.597	70.61
184.816	99.31
185.036	82.73
185.256	96.94
185.475	102.61
185.695	114.55
185.914	125.83
186.134	142.29
186.353	135.19
186.572	92.53
186.792	104.04
187.011	125.83
187.231	81.65
187.45	85.54
187.67	73.69
187.889	71.26
188.108	84.57
188.328	86.02
188.547	91.1
188.766	101.92
188.986	124.74
189.205	123.71
189.424	93.81
189.644	125.39
189.863	154.16
190.082	806.81
190.302	253.47
190.521	247.09
190.74	223.18
190.959	-754.36
191.178	52.85
191.398	62.88
191.617	28.53
191.836	48.42
192.055	-1.68
192.274	-19.54
192.494	4.36
192.713	-95.05
192.932	-18.97
193.151	-544.33
193.37	-85.52
193.589	-138.5
193.808	-574.86
194.027	-120.15
194.246	214.49
194.465	3759.32
194.685	448.26
194.904	-1149.1
195.123	310.23
195.342	-249.24
195.561	125.43
195.78	91.9
195.999	104.44
196.218	281.91
196.436	334.19
196.655	278.74
196.874	144.32
197.093	129.58
197.312	101.67
197.531	113.57
197.75	91.62
197.969	100.47
198.188	110.96
198.407	87.6
198.625	83.36
198.844	77.61
199.063	65.25
199.282	59.18
199.501	40.48
199.719	26.12
199.938	-3.08
200.157	106.23
200.376	-780.15
200.594	124.2
200.813	121.36
201.032	112.45
201.251	106.92
201.469	123.49
201.688	112.42
201.907	110.49
202.125	92.07
202.344	145.49
202.563	136.17
202.781	93.5
203	73.47
203.218	69.59
203.437	30.56
203.656	37.93
203.874	13.57
204.093	-7.97
204.311	11.62
204.53	33.55
204.748	37.66
204.967	40.97
205.185	42.88
205.404	34.82
205.622	24.15
205.841	36.77
206.059	50.25
206.278	71.47
206.496	105.09
206.715	118.85
206.933	86.25
207.151	83.48
207.37	72.82
207.588	212.47
207.806	124.81
208.025	181.59
208.243	14.66
208.461	53.97
208.68	174.56
208.898	-212
209.116	25.23
209.335	37.63
209.553	-29.08
209.771	58.02
209.989	244.06
210.208	-1004.26
210.426	-534.81
210.644	-857.35
210.862	256.93
211.081	183.05
211.299	218.44
211.517	275.09
211.735	358.03
211.953	163.3
212.171	150.66
212.39	109.67
212.608	83.51
212.826	79.55
213.044	70.13
213.262	92.68
213.48	93
213.698	93.95
213.916	87.52
214.134	65.76
214.352	77.37
214.57	69.21
214.788	78.55
215.006	66.77
215.224	67.13
215.442	77.88
215.66	64.55
215.878	76.49
216.096	59.29
216.314	63.81
216.532	63.22
216.75	33.15
216.968	45.78
217.185	42.78
217.403	90.14
217.621	110.6
217.839	82.07
218.057	71.14
218.275	49.03
218.492	56.23
218.71	60.59
218.928	65.85
219.146	51.41
219.363	53.74
219.581	14.16
219.799	376.85
220.017	2028.87
220.234	125.97
220.452	108.42
220.67	118.11
220.887	98.09
221.105	139.83
221.323	95.8
221.54	101.63
221.758	104.49
221.976	91.41
222.193	92.54
222.411	74.27
222.629	60.4
222.846	61.98
223.064	61.01
223.281	60.47
223.499	57.39
223.716	57.57
223.934	43.59
224.151	32.29
224.369	36.21
224.586	37.86
224.804	38.45
225.021	38.82
225.239	50.03
225.456	48.6
225.674	44.88
225.891	51.35
226.108	53.38
226.326	63.56
226.543	57.87
226.76	46.17
226.978	39.29
227.195	37.46
227.413	34.5
227.63	35.61
227.847	37.93
228.064	33.72
228.282	31.04
228.499	28.59
228.716	25.95
228.934	28.22
229.151	27.57
229.368	27.3
229.585	27.03
229.802	26.69
230.02	22.36
230.237	19.17
230.454	17.5
230.671	14.38
230.888	10.73
231.105	9.1
231.323	7.94
231.54	4.9
231.757	1.88
231.974	-0.81
232.191	2.46
232.408	-2.11
232.625	2.74
232.842	2.58
233.059	-1.49
233.276	-1.65
233.493	2.7
233.71	0.4
233.927	6.75
234.144	9.48
234.361	12.12
234.578	8.42
234.795	8.74
235.012	1.78
235.229	-0.48
235.446	3.22
235.663	10.22
235.879	8.47
236.096	5.54
236.313	3.67
236.53	4.74
236.747	8.71
236.964	18.25
237.181	24.45
237.397	30.55
237.614	37.37
237.831	32.95
238.048	36.56
238.264	31.54
238.481	33.73
238.698	34.55
238.915	31.69
239.131	27.63
239.348	23.94
239.565	19.55
239.781	18.85
239.998	18.41
240.215	24.64
240.431	23.26
240.648	26.4
240.865	27.21
241.081	23.9
241.298	24.05
241.514	21.98
241.731	20.79
241.947	23.47
242.164	22.44
242.38	21.65
242.597	19.2
242.814	17.39
243.03	16.43
243.246	16.02
243.463	18.94
243.679	20.77
243.896	21.64
244.112	21.47
244.329	20.35
244.545	22.23
244.762	21.45
244.978	23.76
245.194	24.92
245.411	25.95
245.627	23.42
245.843	20.4
246.06	17.83
246.276	17.11
246.492	17.06
246.709	14.88
246.925	14.29
247.141	13.1
247.357	12.19
247.574	11.6
247.79	12
248.006	11.55
248.222	11.89
248.439	10.8
248.655	10.36
248.871	9.44
249.087	11.11
249.303	10.13
249.519	11.53
249.736	11.71
249.952	10.31
250.168	8.7
250.384	10.32
250.6	8.06
250.816	9.73
251.032	9.83
251.248	10.58
251.464	9.24
251.68	8.3
251.896	9.43
252.112	7.98
252.328	9.04
252.544	8.05
252.76	8.29
252.976	10.1
253.192	10.78
253.408	11.78
253.624	10.52
253.84	10.69
254.056	12.7
254.272	12.33
254.487	14.16
254.703	16.79
254.919	14.16
255.135	13.9
255.351	12.79
255.567	10.71
255.782	11.42
255.998	12.84
256.214	14.49
256.43	13.93
256.646	12.01
256.861	11.7
257.077	7.16
257.293	9.33
257.508	8.07
257.724	8.13
257.94	7.85
258.155	7.7
258.371	9.38
258.587	6.8
258.802	6.13
259.018	6.63
259.234	6.83
259.449	7.18
259.665	7.37
259.88	8.57
260.096	8.43
260.312	8.38
260.527	7.83
260.743	7.02
260.958	7.08
261.174	6.73
261.389	6.68
261.605	6.7
261.82	6.6
262.036	6.69
262.251	5.02
262.466	4.83
262.682	4.34
262.897	4.48
263.113	4.07
263.328	4.56
263.543	6.29
263.759	7.37
263.974	8.18
264.189	7.63
264.405	7.96
264.62	8.31
264.835	6.76
265.051	8.48
265.266	9.94
265.481	10.64
265.696	11.16
265.912	12.94
266.127	11.07
266.342	9.58
266.557	9.93
266.773	8.66
266.988	7.37
267.203	8.15
267.418	7.79
267.633	7.12
267.848	5.98
268.064	7.66
268.279	5.55
268.494	6.93
268.709	6.07
268.924	6.31
269.139	6.82
269.354	8.63
269.569	9.01
269.784	10.06
269.999	8.84
270.214	8.52
270.429	8.02
270.644	7.97
270.859	8.73
271.074	8.75
271.289	9.1
271.504	9.75
271.719	10.26
271.934	10.22
272.149	9.11
272.363	9.75
272.578	10.87
272.793	10.01
273.008	11.47
273.223	9.37
273.438	10.21
273.653	11.33
273.867	9.74
274.082	9.86
274.297	10.35
274.512	11.79
274.726	11.72
274.941	11.27
275.156	12.29
275.371	10.89
275.585	12.87
275.8	13.21
276.015	12.54
276.229	14.32
276.444	13.68
276.659	12.88
276.873	11.14
277.088	10.67
277.302	10.69
277.517	9.21
277.732	8.55
277.946	6.4
278.161	6.38
278.375	6.47
278.59	7.87
278.804	8.56
279.019	8.05
279.233	8.55
279.448	8.96
279.662	10.22
279.877	10.96
280.091	10.26
280.306	11.54
280.52	10.5
280.735	8.99
280.949	8.32
281.163	7.76
281.378	8.5
281.592	10.05
281.806	10.25
282.021	11.39
282.235	11.43
282.449	12.01
282.664	11.93
282.878	12.94
283.092	12.76
283.307	12.22
283.521	11.42
283.735	10.68
283.949	9.34
284.164	8.5
284.378	6.78
284.592	6.44
284.806	6.69
285.02	7.03
285.234	6.62
285.449	6.44
285.663	6.61
285.877	7.17
286.091	8.19
286.305	8
286.519	8.42
286.733	8.24
286.947	8.29
287.161	8.48
287.375	7.92
287.589	8.24
287.803	10.03
288.017	10.68
288.231	10.14
288.445	9.71
288.659	10.14
288.873	11.3
289.087	12.08
289.301	11.54
289.515	12.18
289.729	12.91
289.943	13.56
290.157	13.41
290.371	12.84
290.584	12.69
290.798	12.49
291.012	12.17
291.226	12.05
291.44	11.38
291.654	10.32
291.867	9.63
292.081	9.71
292.295	9.08
292.509	9.07
292.722	8.2
292.936	8.98
293.15	8.9
293.364	10.97
293.577	10.13
293.791	10.68
294.005	12.78
294.218	11.48
294.432	10.21
294.645	10.9
294.859	10.58
295.073	11.07
295.286	11.65
295.5	11.58
295.713	11.39
295.927	10.78
296.14	10.41
296.354	10.6
296.568	11.03
296.781	11.96
296.994	11.54
297.208	11.34
297.421	11.59
297.635	10.95
297.848	11.2
298.062	10.91
298.275	10.94
298.489	11.62
298.702	10.62
298.915	10.55
299.129	10.28
299.342	9.13
299.555	9.62
299.769	10.65
299.982	10.85
300.195	9.99
300.409	8.81
300.622	9.94
300.835	9.64
301.048	11.96
301.262	13.03
301.475	14.58
301.688	16.63
301.901	16.71
302.115	15.41
302.328	15.74
302.541	16.77
302.754	17.83
302.967	17.75
303.18	17.3
303.393	16.89
303.607	16.78
303.82	15.17
304.033	14.09
304.246	14.41
304.459	15.21
304.672	14.74
304.885	15.34
305.098	14.26
305.311	13.5
305.524	12.7
305.737	11.57
305.95	12.64
306.163	12.16
306.376	11.8
306.589	11.61
306.802	11.03
307.015	10.36
307.228	8.6
307.44	9.27
307.653	10.65
307.866	11.9
308.079	13.29
308.292	11.59
308.505	12.03
308.718	12.63
308.93	12.07
309.143	11.54
309.356	11.46
309.569	11.55
309.781	12.2
309.994	12.13
310.207	13.08
310.42	11.12
310.632	11.01
310.845	9.76
311.058	9.97
311.27	9.49
311.483	9.98
311.696	10.31
311.908	10.45
312.121	9.99
312.333	10.25
312.546	9.68
312.759	12.51
312.971	12.37
313.184	12.5
313.396	11.6
313.609	12.51
313.821	12.79
314.034	13.64
314.246	14.69
314.459	15.06
314.671	15.28
314.884	14.04
315.096	11.32
315.309	12.94
315.521	14.11
315.733	14.46
315.946	14.32
316.158	13.4
316.371	13.04
316.583	13.4
316.795	13.5
317.008	13.75
317.22	14.9
317.432	16.7
317.644	16.06
317.857	17.53
318.069	17.77
318.281	17.42
318.494	19.44
318.706	19.92
318.918	19.85
319.13	18.03
319.342	18.25
319.555	17.79
319.767	15.92
319.979	15.43
320.191	15.29
320.403	15.34
320.615	15.58
320.827	13.56
321.039	11.78
321.252	10.84
321.464	14.13
321.676	13.47
321.888	13.77
322.1	14.79
322.312	14.82
322.524	13.57
322.736	12.51
322.948	12.07
323.16	12.56
323.372	14.25
323.584	14.62
323.796	14.39
324.007	13.61
324.219	13.67
324.431	13.05
324.643	13.43
324.855	13.82
325.067	14.7
325.279	16.47
325.491	16.26
325.702	16.13
325.914	15.99
326.126	14.6
326.338	14.33
326.55	13.98
326.761	14.77
326.973	14.14
327.185	13.56
327.396	12.68
327.608	9.78
327.82	10.66
328.032	10.64
328.243	10.6
328.455	10.79
328.666	10.3
328.878	8.92
329.09	7.96
329.301	7.71
329.513	8.39
329.725	8.7
329.936	9.78
330.148	10.48
330.359	9.3
330.571	8.31
330.782	8.42
330.994	9.89
331.205	11.66
331.417	11.81
331.628	10.69
331.84	10.2
332.051	10.81
332.262	12.43
332.474	11.42
332.685	12.8
332.897	12.86
333.108	12.26
333.319	11.98
333.531	13.13
333.742	13.93
333.953	15.06
334.165	16.03
334.376	16
334.587	14.09
334.799	13.33
335.01	12.84
335.221	12.89
335.432	13.31
335.644	13.56
335.855	11.84
336.066	11.23
336.277	11.43
336.488	10.48
336.7	9.8
336.911	10.93
337.122	11.8
337.333	12.89
337.544	14.24
337.755	13.13
337.966	11.41
338.177	11.93
338.388	11.46
338.599	12.1
338.811	11.61
339.022	12.48
339.233	13.53
339.444	14.52
339.655	12.32
339.866	11.47
340.076	11.82
340.287	12.31
340.498	11.92
340.709	11.68
340.92	11.33
341.131	12.06
341.342	12.55
341.553	10.83
341.764	9.42
341.975	10.9
342.185	11.32
342.396	12.2
342.607	12.43
342.818	12.99
343.029	14.45
343.239	14.62
343.45	13.56
343.661	13.72
343.872	12.83
344.082	13.35
344.293	13.63
344.504	13.38
344.714	13.48
344.925	14.22
345.136	13.85
345.346	12.86
345.557	12.74
345.768	13.54
345.978	12.7
346.189	14.03
346.399	14.06
346.61	13.68
346.821	13.34
347.031	13.24
347.242	13.34
347.452	12.86
347.663	13.93
347.873	14.45
348.084	14.71
348.294	15.06
348.504	14.58
348.715	14.46
348.925	15.64
349.136	16.18
349.346	15.45
349.557	13.99
349.767	14.62
349.977	12.88
350.188	11.56
350.398	11.78
350.608	10.97
350.819	10.71
351.029	9.9
351.239	9.25
351.449	9.53
351.66	8.92
351.87	9.95
352.08	10.09
352.29	10.92
352.501	13.32
352.711	13.3
352.921	13.16
353.131	12.48
353.341	12.54
353.552	12.08
353.762	11.49
353.972	12.72
354.182	10.79
354.392	9.68
354.602	9.33
354.812	7.82
355.022	6.6
355.232	6.37
355.442	7.32
355.652	7.94
355.862	7.68
356.072	6.84
356.282	5.64
356.492	6.9
356.702	7.1
356.912	7.78
357.122	7.77
357.332	9.15
357.542	9.65
357.752	8.41
357.962	8.08
358.171	8.01
358.381	9.74
358.591	10.87
358.801	11.63
359.011	13.23
359.221	13.19
359.43	11.96
359.64	10.54
359.85	9.54
360.06	10.18
360.269	9.93
360.479	10.15
360.689	9.25
360.899	9.03
361.108	7.97
361.318	7.77
361.528	7.05
361.737	7.22
361.947	7.74
362.156	8.13
362.366	8.51
362.576	7.71
362.785	7.33
362.995	7.36
363.204	6.55
363.414	6.91
363.623	6.13
363.833	7.51
364.042	8.67
364.252	8.88
364.461	9.28
364.671	9.51
364.88	10.87
365.09	10.13
365.299	10.99
365.509	12.11
365.718	11.7
365.927	11.25
366.137	10.41
366.346	9.63
366.555	9.37
366.765	8.89
366.974	7.39
367.183	8.15
367.393	9.54
367.602	9.18
367.811	8.14
368.021	9.29
368.23	9.26
368.439	9.31
368.648	9.93
368.857	10.36
369.067	10.48
369.276	10.47
369.485	9.51
369.694	9.2
369.903	8.28
370.112	8.84
370.321	8.29
370.531	8.73
370.74	9.65
370.949	9.45
371.158	8.72
371.367	8.8
371.576	9.96
371.785	9.66
371.994	9.11
372.203	9.98
372.412	9.92
372.621	10.33
372.83	10.13
373.039	8.96
373.248	8.17
373.457	8.53
373.666	8.55
373.874	8.22
374.083	8.07
374.292	8.27
374.501	7.32
374.71	7.11
374.919	6.56
375.128	6.52
375.336	6.66
375.545	7.9
375.754	7.2
375.963	6.84
376.171	7.14
376.38	7.66
376.589	7.57
376.798	7.96
377.006	8.16
377.215	7.93
377.424	7.53
377.632	7.68
377.841	7.08
378.05	7.54
378.258	7.94
378.467	7.47
378.675	7.11
378.884	7.02
379.093	6.81
379.301	6.93
379.51	7.07
379.718	7.42
379.927	6.74
380.135	6.5
380.344	6.22
380.552	6.18
380.761	6.37
380.969	6.15
381.177	6.45
381.386	6.03
381.594	5.13
381.803	4.77
382.011	4.87
382.219	4.95
382.428	5.05
382.636	4.81
382.845	4.62
383.053	4.4
383.261	4.59
383.469	3.86
383.678	4.47
383.886	4.92
384.094	5.44
384.302	5.59
384.511	5.87
384.719	5.68
384.927	5.77
385.135	5.73
385.343	5.96
385.552	6.54
385.76	6.99
385.968	6.9
386.176	7
386.384	6.83
386.592	6.11
386.8	6.18
387.008	6.07
387.216	6.27
387.424	6.15
387.633	5.81
387.841	5.32
388.049	4.87
388.257	4.82
388.465	4.73
388.672	4.62
388.88	5.58
389.088	5.07
389.296	4.93
389.504	5.11
389.712	5.03
389.92	4.99
390.128	4.92
390.336	5.22
390.544	4.77
390.751	4.68
390.959	4.53
391.167	4
391.375	4.1
391.583	4.15
391.79	3.99
391.998	4.26
392.206	4.42
392.414	4.31
392.621	4.02
392.829	4.26
393.037	4.45
393.244	4.74
393.452	4.54
393.66	4.93
393.867	4.78
394.075	4.66
394.283	4.53
394.49	4.37
394.698	4.15
394.905	4.29
395.113	4.27
395.32	4.27
395.528	4.13
395.735	4.04
395.943	3.82
396.15	3.82
396.358	4.01
396.565	4.29
396.773	4.59
396.98	5.04
397.188	5.05
397.395	4.7
397.602	4.34
397.81	4.19
398.017	4.42
398.225	4.19
398.432	4.65
398.639	4.19
398.847	3.77
399.054	3.52
399.261	3.37
399.468	3.08
399.676	3.15
399.883	3.09
400.09	2.9
400.297	3.05
400.505	3.16
400.712	2.75
400.919	3.06
401.126	3.21
401.333	3.29
401.54	3.19
401.748	3.5
401.955	3.49
402.162	4.08
402.369	4.27
402.576	4.18
402.783	4.19
402.99	4.55
403.197	4.19
403.404	4.01
403.611	3.85
403.818	3.94
404.025	3.79
404.232	3.75
404.439	3.7
404.646	3.74
404.853	3.63
405.06	3.75
405.267	3.43
405.474	3.73
405.681	3.71
405.887	4
406.094	3.98
406.301	4.1
406.508	4.23
406.715	3.95
406.922	4.04
407.128	4.08
407.335	4.07
407.542	4.34
407.749	4.31
407.955	4.67
408.162	4.54
408.369	4.53
408.575	4.48
408.782	4.42
408.989	4.43
409.195	4.33
409.402	4.28
409.609	4.27
409.815	4.29
410.022	4.24
410.228	4.13
410.435	4
410.642	3.94
410.848	4.19
411.055	4.25
411.261	4.45
411.468	4.3
411.674	4.3
411.881	3.77
412.087	3.52
412.294	3.72
412.5	3.73
412.706	3.81
412.913	3.7
413.119	3.44
413.326	3.42
413.532	3.17
413.738	3.17
413.945	3.28
414.151	3.63
414.357	3.54
414.564	3.24
414.77	3.37
414.976	3.42
415.182	3.59
415.389	3.82
415.595	3.95
415.801	3.91
416.007	3.89
416.214	3.66
416.42	3.57
416.626	3.75
416.832	3.88
417.038	3.55
417.244	3.57
417.45	3.5
417.657	3.16
417.863	3.07
418.069	3.25
418.275	3.38
418.481	3.37
418.687	3.29
418.893	3.03
419.099	2.97
419.305	3
419.511	2.86
419.717	2.79
419.923	2.97
420.129	2.9
420.335	2.88
420.541	2.84
420.746	3.01
420.952	3.12
421.158	3.22
421.364	3.14
421.57	3.17
421.776	3.3
421.982	3.37
422.187	3.32
422.393	3.42
422.599	3.25
422.805	3.2
423.01	3.12
423.216	3.06
423.422	3.05
423.628	3.15
423.833	3.11
424.039	3.13
424.245	3
424.45	2.99
424.656	2.89
424.862	2.9
425.067	3.05
425.273	3.04
425.478	3.15
425.684	3.25
425.889	3.16
426.095	3.1
426.301	2.92
426.506	2.98
426.712	3.11
426.917	3.36
427.123	3.2
427.328	3.11
427.533	3.24
427.739	3.18
427.944	3.09
428.15	3.2
428.355	3.14
428.561	3.06
428.766	3.19
428.971	3.15
429.177	3.14
429.382	3.35
429.587	3.24
429.793	3.03
429.998	3.02
430.203	2.81
430.408	2.89
430.614	3.27
430.819	3.28
431.024	3.42
431.229	3.26
431.434	3.14
431.64	3.32
431.845	3.41
432.05	3.63
432.255	3.44
432.46	3.56
432.665	3.37
432.87	3.22
433.076	3.4
433.281	3.31
433.486	3.28
433.691	3.39
433.896	3.26
434.101	3.17
434.306	2.88
434.511	3.05
434.716	3.05
434.921	3.32
435.126	3.31
435.331	3.12
435.535	2.89
435.74	2.95
435.945	2.87
436.15	2.97
436.355	3.01
436.56	3.19
436.765	3.06
436.97	3.25
437.174	2.95
437.379	3.13
437.584	3.3
437.789	3.33
437.993	3.54
438.198	3.64
438.403	3.45
438.608	3.55
438.812	3.48
439.017	3.42
439.222	3.28
439.426	3.06
439.631	2.83
439.836	2.59
440.04	2.67
440.245	2.6
440.45	2.36
440.654	2.45
440.859	2.26
441.063	2.16
441.268	2.24
441.472	2.18
441.677	2.55
441.881	2.67
442.086	2.69
442.29	2.76
442.495	2.54
442.699	2.58
442.904	2.52
443.108	2.75
443.312	2.84
443.517	2.86
443.721	3.03
443.925	2.86
444.13	2.81
444.334	2.87
444.538	2.7
444.743	2.85
444.947	2.9
445.151	2.91
445.356	2.82
445.56	2.86
445.764	2.88
445.968	2.86
446.173	2.7
446.377	2.7
446.581	2.74
446.785	2.78
446.989	2.84
447.193	2.83
447.398	2.71
447.602	2.65
447.806	2.62
448.01	2.65
448.214	2.61
448.418	2.71
448.622	2.78
448.826	2.85
449.03	2.86
449.234	2.72
449.438	2.58
449.642	2.74
449.846	2.74
450.05	2.77
450.254	2.71
450.458	2.69
450.662	2.7
450.866	2.55
451.069	2.63
451.273	2.64
451.477	2.54
451.681	2.66
451.885	2.74
452.089	2.79
452.292	2.68
452.496	2.77
452.7	2.83
452.904	2.71
453.107	2.67
453.311	2.48
453.515	2.56
453.719	2.87
453.922	2.91
454.126	2.99
454.33	3.08
454.533	3.07
454.737	2.92
454.94	3.02
455.144	3.25
455.348	3.16
455.551	3.14
455.755	3.14
455.958	3.03
456.162	2.98
456.365	2.59
456.569	2.51
456.772	2.61
456.976	2.8
457.179	2.54
457.383	2.68
457.586	2.77
457.79	2.72
457.993	2.77
458.196	2.68
458.4	2.71
458.603	2.88
458.807	2.79
459.01	2.92
459.213	2.83
459.417	2.94
459.62	2.9
459.823	3.02
460.026	3.01
460.23	2.95
460.433	3.01
460.636	3.05
460.839	3.09
461.042	3.17
461.246	3.05
461.449	3.02
461.652	2.92
461.855	2.68
462.058	2.68
462.261	2.77
462.464	2.78
462.668	2.76
462.871	2.64
463.074	2.71
463.277	2.59
463.48	2.62
463.683	2.81
463.886	2.82
464.089	3.01
464.292	2.97
464.495	2.97
464.698	2.84
464.901	2.83
465.104	2.69
465.306	2.68
