Data from 2938038_Reflection_3.txt Node
Date: Sun Jul 12 14:44:24 EDT 2015
User: robert
Spectrometer: USB4E03001
Autoset integration time: false
Trigger mode: 4
Integration Time (sec): 1.000000E-1
Scans to average: 10
Electric dark correction enabled: true
Nonlinearity correction enabled: false
Boxcar width: 5
Stray light correction enabled: false
XAxis mode: Wavelengths
Stop averaging: false
Number of Pixels in Spectrum: 3648
>>>>>Begin Spectral Data<<<<<
177.566	127.32
177.785	118.46
178.005	-142.67
178.225	-1.16
178.445	8.25
178.665	-3.79
178.885	-89.45
179.105	-232.56
179.324	96.91
179.544	-400.92
179.764	31.67
179.984	96.51
180.204	80.21
180.423	-11.55
180.643	65.91
180.863	42.42
181.083	12.06
181.302	2.23
181.522	45.55
181.742	54.8
181.961	49.62
182.181	-2.31
182.401	23.92
182.621	26.53
182.84	32.42
183.06	25.21
183.279	39.08
183.499	34.3
183.719	44.3
183.938	23.49
184.158	9.02
184.377	23.56
184.597	55.4
184.816	41.74
185.036	28.1
185.256	76.44
185.475	46.72
185.695	-17.9
185.914	73.88
186.134	70.09
186.353	78.36
186.572	76.21
186.792	16.94
187.011	46.78
187.231	36.62
187.45	87.59
187.67	2.41
187.889	71.4
188.108	125.06
188.328	90.71
188.547	135.91
188.766	97.45
188.986	121.39
189.205	118.45
189.424	99.76
189.644	185.82
189.863	92.3
190.082	93.67
190.302	54.11
190.521	46.91
190.74	29.83
190.959	5.79
191.178	-4.79
191.398	-20.9
191.617	-52.89
191.836	8.03
192.055	4.31
192.274	4.57
192.494	-8.54
192.713	19.3
192.932	25.21
193.151	26.01
193.37	23.86
193.589	37.53
193.808	22.92
194.027	50.51
194.246	43.61
194.465	47.6
194.685	41.41
194.904	33.89
195.123	24.77
195.342	28.4
195.561	33.18
195.78	41.45
195.999	75.03
196.218	88.4
196.436	134.04
196.655	378.93
196.874	297.25
197.093	122.73
197.312	117.07
197.531	112.71
197.75	97.45
197.969	102.66
198.188	102.23
198.407	90.08
198.625	85.42
198.844	92.86
199.063	32.07
199.282	70.98
199.501	80.41
199.719	86.54
199.938	82.47
200.157	66.47
200.376	82.67
200.594	99.58
200.813	77.41
201.032	81.05
201.251	73.85
201.469	82.12
201.688	64.3
201.907	45.73
202.125	-31.31
202.344	-879.28
202.563	18.21
202.781	49.51
203	60.66
203.218	82.42
203.437	65.03
203.656	50.86
203.874	104.28
204.093	96.95
204.311	132.8
204.53	192.58
204.748	234.02
204.967	296.89
205.185	170.11
205.404	123.89
205.622	105.5
205.841	67.78
206.059	65.08
206.278	21.51
206.496	32.81
206.715	39.64
206.933	-0.59
207.151	-17
207.37	28.96
207.588	13.22
207.806	41.72
208.025	22.33
208.243	34.88
208.461	55.97
208.68	46.59
208.898	62.51
209.116	35.3
209.335	40.58
209.553	74.73
209.771	106.66
209.989	223.49
210.208	384.93
210.426	392.05
210.644	215.91
210.862	518.67
211.081	265.49
211.299	162.18
211.517	129.86
211.735	168.56
211.953	154.31
212.171	125.87
212.39	92.05
212.608	71.53
212.826	97.96
213.044	111.77
213.262	74.7
213.48	82.03
213.698	83.83
213.916	82.18
214.134	79.23
214.352	71.99
214.57	53.05
214.788	29.33
215.006	7.77
215.224	2.85
215.442	8.6
215.66	7.48
215.878	-7.47
216.096	-2.03
216.314	7.62
216.532	5.04
216.75	14.33
216.968	15.09
217.185	30.43
217.403	33.22
217.621	44.19
217.839	41.91
218.057	56.04
218.275	51.9
218.492	40.98
218.71	36.06
218.928	27.1
219.146	22.5
219.363	39.54
219.581	49.39
219.799	66.6
220.017	51.99
220.234	60.15
220.452	48.44
220.67	54.76
220.887	48.51
221.105	41.32
221.323	40.75
221.54	46.1
221.758	37.61
221.976	28.62
222.193	19.3
222.411	14.11
222.629	18.82
222.846	36.23
223.064	15.19
223.281	29.59
223.499	44.63
223.716	50.02
223.934	51.01
224.151	55.62
224.369	29.41
224.586	42.59
224.804	41.88
225.021	22.69
225.239	-25.27
225.456	-2.38
225.674	-19.66
225.891	-27.46
226.108	-29.58
226.326	-7.85
226.543	-9.11
226.76	10.9
226.978	5.8
227.195	1.91
227.413	-0.03
227.63	4.61
227.847	7.94
228.064	7.21
228.282	9.17
228.499	9.39
228.716	6.92
228.934	8.38
229.151	4.9
229.368	1.95
229.585	4.83
229.802	5.99
230.02	8.6
230.237	7.42
230.454	9.27
230.671	8.52
230.888	4.76
231.105	4.26
231.323	4.19
231.54	3.53
231.757	7.22
231.974	8.07
232.191	4.3
232.408	-1.49
232.625	-4.63
232.842	-9.37
233.059	-11.74
233.276	-6.15
233.493	-0.8
233.71	-0.68
233.927	-0.53
234.144	-2.23
234.361	-5.85
234.578	1.76
234.795	0.86
235.012	2.53
235.229	2.84
235.446	5.11
235.663	5.73
235.879	4.42
236.096	-0.28
236.313	-1.54
236.53	4.78
236.747	3.95
236.964	1.18
237.181	1.66
237.397	2.74
237.614	7.33
237.831	5.49
238.048	2.32
238.264	3.37
238.481	7.18
238.698	10.13
238.915	7.91
239.131	6.83
239.348	7.6
239.565	10.13
239.781	12.92
239.998	5.36
240.215	6.96
240.431	9.54
240.648	6.99
240.865	5.42
241.081	2.5
241.298	2.46
241.514	3.25
241.731	2.36
241.947	1.94
242.164	0.49
242.38	3.26
242.597	1.43
242.814	1.98
243.03	2.54
243.246	4.36
243.463	6.85
243.679	4.97
243.896	5.7
244.112	6.98
244.329	5.92
244.545	6.19
244.762	4.22
244.978	2.99
245.194	2.77
245.411	4.62
245.627	3
245.843	3.51
246.06	3.61
246.276	3.65
246.492	3.84
246.709	5.63
246.925	5.11
247.141	5
247.357	5.65
247.574	5.43
247.79	4.91
248.006	5.09
248.222	4.58
248.439	5.3
248.655	5.48
248.871	4.64
249.087	3.05
249.303	2.85
249.519	2.29
249.736	2.48
249.952	1.27
250.168	0.1
250.384	-1.19
250.6	-1.06
250.816	-1.04
251.032	-2.55
251.248	-0.73
251.464	0.96
251.68	3.62
251.896	5.75
252.112	4.04
252.328	3.85
252.544	4.3
252.76	4.96
252.976	4.84
253.192	4.35
253.408	6.42
253.624	5.21
253.84	4.22
254.056	2.2
254.272	1.05
254.487	3.26
254.703	3.84
254.919	4.79
255.135	5.21
255.351	7.91
255.567	9.58
255.782	4.58
255.998	4.36
256.214	5.42
256.43	6.18
256.646	8.09
256.861	6.88
257.077	8.19
257.293	6.3
257.508	4.94
257.724	3.83
257.94	2.31
258.155	3.16
258.371	3.62
258.587	4.67
258.802	4.16
259.018	3.63
259.234	4.25
259.449	3.79
259.665	3.55
259.88	3.86
260.096	3.09
260.312	3.07
260.527	2.79
260.743	2.45
260.958	2.09
261.174	2.77
261.389	3.22
261.605	1.9
261.82	1.53
262.036	2.18
262.251	1.67
262.466	2.6
262.682	3
262.897	1.85
263.113	3.91
263.328	1.97
263.543	2.17
263.759	-0.25
263.974	1.19
264.189	3.49
264.405	1.54
264.62	2.3
264.835	3.42
265.051	3.27
265.266	5.43
265.481	4.95
265.696	7.9
265.912	4.94
266.127	4.77
266.342	4.19
266.557	3.2
266.773	3.02
266.988	2.91
267.203	1.22
267.418	1.74
267.633	3.86
267.848	2.96
268.064	2.54
268.279	1.5
268.494	2.3
268.709	3.46
268.924	2.85
269.139	3.5
269.354	3.76
269.569	4.01
269.784	3.45
269.999	3.71
270.214	2.94
270.429	2.59
270.644	4.5
270.859	3.81
271.074	3.81
271.289	4.53
271.504	4.4
271.719	4.18
271.934	3.93
272.149	4.05
272.363	2.45
272.578	1.98
272.793	1.12
273.008	0.76
273.223	2.16
273.438	1.28
273.653	-0.52
273.867	0.25
274.082	0.29
274.297	0.51
274.512	1
274.726	1.47
274.941	3.71
275.156	4.56
275.371	3.71
275.585	2.8
275.8	4.47
276.015	5.07
276.229	5.21
276.444	5.01
276.659	5.38
276.873	5.52
277.088	5.93
277.302	5.6
277.517	5.16
277.732	7.02
277.946	6.26
278.161	6.23
278.375	7.62
278.59	6.52
278.804	6.1
279.019	5.88
279.233	4.09
279.448	3.67
279.662	2.15
279.877	4.93
280.091	5.84
280.306	5.84
280.52	4.42
280.735	3.66
280.949	4.6
281.163	4.75
281.378	3.48
281.592	4.48
281.806	3.9
282.021	5.18
282.235	2.49
282.449	1.33
282.664	2.87
282.878	3.2
283.092	4.12
283.307	5.14
283.521	4.62
283.735	6.46
283.949	6.89
284.164	7.3
284.378	6.46
284.592	6.92
284.806	6.89
285.02	5.61
285.234	5.26
285.449	5.05
285.663	3.6
285.877	4.36
286.091	3.56
286.305	3.39
286.519	2.98
286.733	2.53
286.947	3.16
287.161	3.62
287.375	4.47
287.589	4.67
287.803	4.52
288.017	5.24
288.231	6.09
288.445	6.81
288.659	5.76
288.873	5.65
289.087	6.7
289.301	5.85
289.515	5.69
289.729	5.51
289.943	4.75
290.157	4.94
290.371	4.49
290.584	3.36
290.798	2.67
291.012	4.84
291.226	5.92
291.44	5.59
291.654	6.81
291.867	7.02
292.081	6.03
292.295	6.98
292.509	6.64
292.722	8.18
292.936	8.76
293.15	8.63
293.364	6.38
293.577	8.03
293.791	7.07
294.005	8.36
294.218	9.56
294.432	10.27
294.645	9.69
294.859	11.14
295.073	10.1
295.286	10.54
295.5	10.68
295.713	11.73
295.927	9.83
296.14	9.34
296.354	8.02
296.568	6.43
296.781	6.49
296.994	7.98
297.208	6.52
297.421	7.29
297.635	7.4
297.848	8.25
298.062	7.6
298.275	7.41
298.489	7.89
298.702	7.46
298.915	7.97
299.129	8.31
299.342	7.67
299.555	8.29
299.769	7.15
299.982	6.01
300.195	4.83
300.409	5.62
300.622	6.6
300.835	6.83
301.048	7.67
301.262	8.69
301.475	9.62
301.688	10.38
301.901	10.32
302.115	10.88
302.328	10.98
302.541	10.48
302.754	9.95
302.967	9.38
303.18	10.24
303.393	11.39
303.607	10.85
303.82	9.15
304.033	9.42
304.246	8.35
304.459	8.72
304.672	8.06
304.885	10.66
305.098	12.65
305.311	12.07
305.524	12.46
305.737	10.3
305.95	9.34
306.163	11.79
306.376	9.08
306.589	10.26
306.802	10.33
307.015	10.82
307.228	10.55
307.44	9.49
307.653	11.88
307.866	12.17
308.079	13.23
308.292	14.76
308.505	12.08
308.718	14.44
308.93	14.6
309.143	14.68
309.356	16.15
309.569	15.03
309.781	14.83
309.994	14.55
310.207	15.13
310.42	14.66
310.632	14.42
310.845	15.3
311.058	15.26
311.27	16.1
311.483	16.75
311.696	15.31
311.908	15.27
312.121	14.77
312.333	15.05
312.546	14.1
312.759	14.95
312.971	13.72
313.184	14.08
313.396	14.42
313.609	14
313.821	13.83
314.034	15.61
314.246	17
314.459	17.66
314.671	17.92
314.884	18.36
315.096	18.82
315.309	18.09
315.521	17.09
315.733	17.64
315.946	17.96
316.158	16.59
316.371	16.77
316.583	15.66
316.795	14.41
317.008	13.43
317.22	12.07
317.432	11.48
317.644	13.63
317.857	14.5
318.069	14.67
318.281	13.39
318.494	14
318.706	12.77
318.918	12.11
319.13	13.7
319.342	14.15
319.555	16.05
319.767	16.95
319.979	17.74
320.191	17.73
320.403	16.21
320.615	17.51
320.827	17.89
321.039	17.17
321.252	18.98
321.464	19.72
321.676	18.66
321.888	18.15
322.1	17.84
322.312	16.32
322.524	17.4
322.736	18.29
322.948	17.14
323.16	17.86
323.372	20.03
323.584	18.97
323.796	19.29
324.007	19.51
324.219	19.28
324.431	18.63
324.643	19.32
324.855	18.42
325.067	17.97
325.279	17.33
325.491	17.4
325.702	16.02
325.914	15.86
326.126	15.03
326.338	14.71
326.55	14.1
326.761	15.5
326.973	15.49
327.185	15.67
327.396	15.96
327.608	16.47
327.82	14.77
328.032	15.42
328.243	17.09
328.455	18.88
328.666	19.01
328.878	21.07
329.09	19.76
329.301	20.47
329.513	21.4
329.725	22.99
329.936	24.09
330.148	26.39
330.359	26.42
330.571	24.43
330.782	22.37
330.994	23.27
331.205	23.49
331.417	22.63
331.628	22.92
331.84	23.34
332.051	22.96
332.262	23.16
332.474	22.38
332.685	22.55
332.897	23.78
333.108	24.09
333.319	24.76
333.531	24.39
333.742	26.26
333.953	26.78
334.165	26.21
334.376	27.78
334.587	27.96
334.799	28.5
335.01	28.78
335.221	29.85
335.432	30.52
335.644	30.94
335.855	32.61
336.066	32.32
336.277	31.14
336.488	30.89
336.7	29.67
336.911	30.23
337.122	30.37
337.333	31.76
337.544	30.48
337.755	30.38
337.966	30.51
338.177	29.22
338.388	29.72
338.599	31.72
338.811	33.42
339.022	34.82
339.233	36.61
339.444	37.15
339.655	37.85
339.866	37.51
340.076	37.44
340.287	35.77
340.498	36.64
340.709	36.48
340.92	36.09
341.131	34.73
341.342	33.06
341.553	30.49
341.764	30.92
341.975	30.53
342.185	31.08
342.396	31.74
342.607	33.56
342.818	32.95
343.029	33.99
343.239	33.2
343.45	33.23
343.661	33.74
343.872	34.41
344.082	33.67
344.293	33.33
344.504	33.4
344.714	32.54
344.925	32.6
345.136	33.07
345.346	33.12
345.557	34.92
345.768	35.43
345.978	34.84
346.189	35.47
346.399	35.49
346.61	35.25
346.821	35.76
347.031	36.79
347.242	36.57
347.452	36.71
347.663	35.64
347.873	33.83
348.084	34.39
348.294	34.81
348.504	34.86
348.715	35.13
348.925	35.33
349.136	34.98
349.346	35.58
349.557	34.7
349.767	35.17
349.977	35.23
350.188	35.89
350.398	35.54
350.608	35.77
350.819	36.09
351.029	35.79
351.239	36.79
351.449	37.41
351.66	36.59
351.87	37.45
352.08	35.65
352.29	35.96
352.501	35.22
352.711	34.71
352.921	35.06
353.131	34.55
353.341	34.28
353.552	33.24
353.762	32.96
353.972	32.18
354.182	32.3
354.392	33.13
354.602	33.04
354.812	34.1
355.022	34.6
355.232	35.57
355.442	35.19
355.652	34.99
355.862	35.66
356.072	35.92
356.282	36.52
356.492	36.6
356.702	37.05
356.912	37.4
357.122	37.38
357.332	37.51
357.542	35.74
357.752	36.38
357.962	36.71
358.171	36.03
358.381	36.37
358.591	36.66
358.801	36.57
359.011	36.61
359.221	36.58
359.43	35.83
359.64	35.5
359.85	36.66
360.06	36.82
360.269	37.88
360.479	38.71
360.689	38.05
360.899	37.15
361.108	37.15
361.318	36.44
361.528	36.74
361.737	37.44
361.947	37.36
362.156	36.66
362.366	36.12
362.576	35.36
362.785	34.47
362.995	34.96
363.204	36.17
363.414	36.54
363.623	36.68
363.833	36.24
364.042	34.75
364.252	34.5
364.461	34.79
364.671	34.91
364.88	35.4
365.09	35.54
365.299	35.05
365.509	34.13
365.718	34.27
365.927	33.21
366.137	32.5
366.346	33.58
366.555	34.46
366.765	34.51
366.974	34
367.183	33.53
367.393	34.09
367.602	34.62
367.811	34.47
368.021	33.77
368.23	35.4
368.439	36.43
368.648	36.2
368.857	35.03
369.067	35.01
369.276	35.79
369.485	35.61
369.694	35.29
369.903	34.06
370.112	33.76
370.321	33.22
370.531	32.77
370.74	32.37
370.949	32.57
371.158	32.17
371.367	31.45
371.576	31.43
371.785	31.14
371.994	30.25
372.203	30.62
372.412	31.41
372.621	31.96
372.83	32.04
373.039	32.27
373.248	32
373.457	32.86
373.666	33.82
373.874	32.87
374.083	33.65
374.292	34.18
374.501	34.67
374.71	33.83
374.919	33.24
375.128	32.45
375.336	31.8
375.545	32.25
375.754	31.37
375.963	30.29
376.171	30.57
376.38	29.3
376.589	28.79
376.798	28.24
377.006	28.8
377.215	29.24
377.424	29.46
377.632	29.41
377.841	29.25
378.05	29.42
378.258	30.06
378.467	29.84
378.675	30.56
378.884	31.1
379.093	30.97
379.301	30.62
379.51	30.01
379.718	29.33
379.927	29.59
380.135	28.47
380.344	29.08
380.552	28.32
380.761	28.39
380.969	27.83
381.177	27.58
381.386	27.29
381.594	27.25
381.803	27.42
382.011	27.8
382.219	27.69
382.428	28.21
382.636	27.93
382.845	28.3
383.053	28.18
383.261	29.1
383.469	28.98
383.678	29.03
383.886	28.69
384.094	28.28
384.302	28.72
384.511	28.39
384.719	28.5
384.927	28.32
385.135	28.31
385.343	28.45
385.552	27.92
385.76	27.83
385.968	27.91
386.176	27.98
386.384	28.14
386.592	27.91
386.8	27.7
387.008	27.27
387.216	26.7
387.424	25.89
387.633	25.69
387.841	25.44
388.049	25.15
388.257	24.82
388.465	24.45
388.672	24.38
388.88	24.16
389.088	24.43
389.296	24.89
389.504	24.92
389.712	25.77
389.92	25.57
390.128	25.64
390.336	25.55
390.544	25.88
390.751	26.38
390.959	26.36
391.167	26.32
391.375	25.96
391.583	25.78
391.79	25.66
391.998	25.08
392.206	24.98
392.414	24.97
392.621	25.12
392.829	24.67
393.037	24.76
393.244	24.84
393.452	24.79
393.66	25.27
393.867	25.29
394.075	25.53
394.283	26.17
394.49	26.17
394.698	26.01
394.905	26.08
395.113	26.27
395.32	25.78
395.528	25.51
395.735	25.56
395.943	25.33
396.15	25.4
396.358	25.48
396.565	24.95
396.773	24.99
396.98	24.97
397.188	25.02
397.395	24.98
397.602	25.44
397.81	25.81
398.017	25.45
398.225	25.09
398.432	24.89
398.639	25.12
398.847	25.23
399.054	24.88
399.261	25.19
399.468	24.9
399.676	24.97
399.883	24.63
400.09	24.39
400.297	24.63
400.505	24.76
400.712	24.51
400.919	24.21
401.126	24.28
401.333	24.27
401.54	24
401.748	23.86
401.955	24
402.162	24.23
402.369	24.38
402.576	24.46
402.783	24.49
402.99	24.72
403.197	24.74
403.404	24.61
403.611	24.67
403.818	24.58
404.025	24.73
404.232	24.49
404.439	24.16
404.646	23.95
404.853	24.11
405.06	24.17
405.267	24.24
405.474	24.49
405.681	24.79
405.887	25
406.094	25.1
406.301	25.39
406.508	25.25
406.715	25.45
406.922	25.63
407.128	25.26
407.335	25.44
407.542	25.23
407.749	25.18
407.955	24.75
408.162	24.69
408.369	24.58
408.575	24.21
408.782	24.37
408.989	24.35
409.195	23.89
409.402	23.67
409.609	23.29
409.815	23.17
410.022	22.73
410.228	22.99
410.435	22.97
410.642	23.1
410.848	23.38
411.055	23.39
411.261	23.29
411.468	23.66
411.674	24.07
411.881	24.16
412.087	24.43
412.294	24.72
412.5	24.34
412.706	24.23
412.913	23.86
413.119	23.69
413.326	23.76
413.532	23.99
413.738	23.99
413.945	23.78
414.151	23.8
414.357	23.48
414.564	23.36
414.77	23.67
414.976	23.75
415.182	24.24
415.389	23.96
415.595	23.91
415.801	23.68
416.007	23.39
416.214	23.34
416.42	23.45
416.626	23.5
416.832	23.6
417.038	23.21
417.244	23.48
417.45	23.25
417.657	23.35
417.863	23.2
418.069	23.2
418.275	23.18
418.481	23.24
418.687	23.27
418.893	23.15
419.099	22.94
419.305	22.94
419.511	22.62
419.717	22.53
419.923	22.6
420.129	22.59
420.335	22.27
420.541	22.32
420.746	22.29
420.952	22.08
421.158	22.21
421.364	22.23
421.57	22.38
421.776	22.44
421.982	22.45
422.187	22.26
422.393	22.27
422.599	22.39
422.805	22.24
423.01	22.22
423.216	22.27
423.422	22.09
423.628	22.07
423.833	21.93
424.039	21.72
424.245	21.56
424.45	21.54
424.656	21.56
424.862	21.55
425.067	21.59
425.273	21.41
425.478	21.25
425.684	21.34
425.889	21.36
426.095	21.32
426.301	21.32
426.506	21.41
426.712	21.29
426.917	21.32
427.123	21.51
427.328	21.6
427.533	21.79
427.739	21.97
427.944	21.93
428.15	21.97
428.355	21.99
428.561	22.02
428.766	22.09
428.971	22.09
429.177	21.88
429.382	21.8
429.587	21.78
429.793	21.71
429.998	21.41
430.203	21.43
430.408	21.31
430.614	21.3
430.819	21.4
431.024	21.43
431.229	21.46
431.434	21.33
431.64	21.01
431.845	21.21
432.05	21.08
432.255	21.44
432.46	21.38
432.665	21.26
432.87	21.51
433.076	21.42
433.281	21.36
433.486	21.31
433.691	21.38
433.896	21.63
434.101	21.42
434.306	21.59
434.511	21.57
434.716	21.45
434.921	21.43
435.126	21.23
435.331	21.43
435.535	21.33
435.74	21.41
435.945	21.5
436.15	21.37
436.355	21.49
436.56	21.39
436.765	21.29
436.97	21.48
437.174	21.66
437.379	21.66
437.584	21.54
437.789	21.57
437.993	21.57
438.198	21.51
438.403	21.56
438.608	21.41
438.812	21.45
439.017	21.48
439.222	21.41
439.426	21.25
439.631	21.11
439.836	21.26
440.04	21.2
440.245	21.29
440.45	21.21
440.654	21.13
440.859	21.03
441.063	20.89
441.268	20.75
441.472	20.69
441.677	20.72
441.881	20.82
442.086	20.57
442.29	20.66
442.495	20.55
442.699	20.53
442.904	20.54
443.108	20.68
443.312	20.8
443.517	20.89
443.721	21.06
443.925	20.99
444.13	21.1
444.334	21.13
444.538	21.08
444.743	21.21
444.947	21.27
445.151	21.29
445.356	21.28
445.56	21.13
445.764	21.01
445.968	20.93
446.173	21.01
446.377	21.01
446.581	21.09
446.785	21.1
446.989	20.9
447.193	20.76
447.398	20.72
447.602	20.62
447.806	20.65
448.01	20.69
448.214	20.55
448.418	20.5
448.622	20.35
448.826	20.16
449.03	20.12
449.234	20.2
449.438	20.38
449.642	20.38
449.846	20.42
450.05	20.52
450.254	20.43
450.458	20.26
450.662	20.1
450.866	20.21
451.069	20.19
451.273	20.16
451.477	20.12
451.681	20.07
451.885	20.06
452.089	20.22
452.292	20.21
452.496	20.53
452.7	20.71
452.904	20.69
453.107	20.56
453.311	20.65
453.515	20.68
453.719	20.7
453.922	20.59
454.126	20.6
454.33	20.49
454.533	20.56
454.737	20.2
454.94	20.07
455.144	20.29
455.348	20.34
455.551	20.32
455.755	20.36
455.958	20.33
456.162	20.27
456.365	20.15
456.569	20.06
456.772	19.9
456.976	19.93
457.179	20.01
457.383	20.05
457.586	20.01
457.79	20.12
457.993	20.05
458.196	20.17
458.4	20.22
458.603	20.34
458.807	20.44
459.01	20.28
459.213	20.42
459.417	20.54
459.62	20.43
459.823	20.35
460.026	20.23
460.23	20.41
460.433	20.33
460.636	20.41
460.839	20.25
461.042	20.07
461.246	20.21
461.449	20.15
461.652	20.07
