Data from 2938079_Reflection_1.txt Node
Date: Sat Jul 11 20:14:25 EDT 2015
User: robert
Spectrometer: USB4E03001
Autoset integration time: false
Trigger mode: 4
Integration Time (sec): 1.000000E-1
Scans to average: 10
Electric dark correction enabled: true
Nonlinearity correction enabled: false
Boxcar width: 5
Stray light correction enabled: false
XAxis mode: Wavelengths
Stop averaging: false
Number of Pixels in Spectrum: 3648
>>>>>Begin Spectral Data<<<<<
177.566	36.77
177.785	64.15
178.005	171.59
178.225	68.9
178.445	39.96
178.665	15.12
178.885	-46.16
179.105	57.06
179.324	126.94
179.544	-191.84
179.764	258.93
179.984	-1889.22
180.204	462.91
180.423	182.38
180.643	271.44
180.863	474.93
181.083	2045.86
181.302	6412.88
181.522	500.9
181.742	971.75
181.961	1052.56
182.181	-273
182.401	-222.54
182.621	-100.14
182.84	-44.87
183.06	-88.37
183.279	-433.93
183.499	276.87
183.719	189.78
183.938	153.59
184.158	195.61
184.377	110.87
184.597	114.04
184.816	115.35
185.036	117.91
185.256	138.67
185.475	126.08
185.695	157.68
185.914	194.22
186.134	326.2
186.353	289.77
186.572	307.13
186.792	402.12
187.011	-374.71
187.231	-465.49
187.45	-902.97
187.67	-310.16
187.889	-100.34
188.108	-124.9
188.328	-197.83
188.547	2521.25
188.766	-590.77
188.986	-185.73
189.205	-224.83
189.424	-283.4
189.644	-296.95
189.863	-447.16
190.082	468.86
190.302	687.25
190.521	-788.93
190.74	-496.65
190.959	-226.35
191.178	-298.28
191.398	-550.56
191.617	-603.53
191.836	233.99
192.055	298.97
192.274	-1160.24
192.494	-253.08
192.713	-505.93
192.932	-1167.58
193.151	-2181.63
193.37	-910.08
193.589	-360.21
193.808	-302.28
194.027	-258.15
194.246	-92.29
194.465	-145.03
194.685	-148.86
194.904	-297.4
195.123	-253.18
195.342	-358
195.561	-848.01
195.78	-2616.7
195.999	-1145.07
196.218	790.23
196.436	431.76
196.655	238.52
196.874	449.98
197.093	276.49
197.312	318.96
197.531	291.2
197.75	245.15
197.969	357.53
198.188	414.01
198.407	349.05
198.625	4383.68
198.844	-920.17
199.063	-750.67
199.282	1627.13
199.501	-289.14
199.719	-511.23
199.938	-5589.61
200.157	983.71
200.376	373.86
200.594	284.33
200.813	252.74
201.032	240.14
201.251	195.79
201.469	169.92
201.688	221.72
201.907	174.53
202.125	162.84
202.344	147.25
202.563	182.8
202.781	199.61
203	212.62
203.218	209.6
203.437	187.91
203.656	193.57
203.874	-418.84
204.093	-97.5
204.311	-252.12
204.53	-240.89
204.748	-390.12
204.967	-198.92
205.185	-164.66
205.404	-232.77
205.622	-156.98
205.841	-174.03
206.059	-4153.4
206.278	2211.37
206.496	-7050
206.715	-471.8
206.933	-236.81
207.151	-336.49
207.37	1479.17
207.588	575.03
207.806	936.09
208.025	-426.93
208.243	-382.18
208.461	-109.85
208.68	-198.88
208.898	1493.27
209.116	207.61
209.335	174.19
209.553	133.32
209.771	195.45
209.989	238.38
210.208	401.86
210.426	198.29
210.644	238.56
210.862	190.42
211.081	150.58
211.299	179.33
211.517	324.54
211.735	149.03
211.953	244.18
212.171	273.83
212.39	3497.17
212.608	188.16
212.826	3312.86
213.044	895.64
213.262	1413.9
213.48	-2014.59
213.698	1352.5
213.916	780.13
214.134	2254.95
214.352	-779.19
214.57	1232.52
214.788	501.55
215.006	2273.77
215.224	937.44
215.442	512.1
215.66	2656.81
215.878	286.52
216.096	281.86
216.314	179.24
216.532	255.46
216.75	225.29
216.968	414.09
217.185	-14880.95
217.403	942.69
217.621	588.83
217.839	626.34
218.057	398.38
218.275	1563.88
218.492	-1538.59
218.71	-1000.85
218.928	-2540.71
219.146	-948.27
219.363	-3322.71
219.581	1002.78
219.799	-822.05
220.017	584.9
220.234	755.73
220.452	1450.77
220.67	4469.88
220.887	-1038.01
221.105	-393.72
221.323	-652.63
221.54	-437.11
221.758	-358.82
221.976	-434.76
222.193	-973.48
222.411	-325.88
222.629	-291.2
222.846	-293.09
223.064	-308.6
223.281	-259.82
223.499	-198.62
223.716	-132.09
223.934	-188.23
224.151	-165.89
224.369	-170.61
224.586	-139.44
224.804	-156.94
225.021	-151.68
225.239	-132.61
225.456	-99.65
225.674	-129.88
225.891	-100.22
226.108	-60.07
226.326	-48.89
226.543	-67.96
226.76	-58.38
226.978	-35.61
227.195	-42.14
227.413	-36.55
227.63	-26.52
227.847	-23.42
228.064	-12.4
228.282	-11.9
228.499	-13.61
228.716	-13.43
228.934	-9.63
229.151	-8.51
229.368	-8.14
229.585	-1.14
229.802	1.07
230.02	-0.94
230.237	-0.14
230.454	-4.46
230.671	-2.92
230.888	-0.81
231.105	3.38
231.323	8.99
231.54	9.38
231.757	4.38
231.974	1.69
232.191	-5.44
232.408	-3.63
232.625	-5.16
232.842	-4.72
233.059	-9.35
233.276	-18.24
233.493	-23.93
233.71	-36.33
233.927	-38.77
234.144	-32.03
234.361	-31.45
234.578	-29.06
234.795	-27.99
235.012	-32.14
235.229	-30.79
235.446	-31
235.663	-24.97
235.879	-27.08
236.096	-17.8
236.313	-14.27
236.53	-12.36
236.747	-14.1
236.964	-20.61
237.181	-22.66
237.397	-23.15
237.614	-32.26
237.831	-30.68
238.048	-35.42
238.264	-31.38
238.481	-33.13
238.698	-31.88
238.915	-30.94
239.131	-18.55
239.348	-14.21
239.565	-13.26
239.781	-10.82
239.998	-7.16
240.215	-7.04
240.431	-4.08
240.648	-4.87
240.865	-4.93
241.081	-3.55
241.298	-1.4
241.514	-4.3
241.731	-2.81
241.947	-3.28
242.164	-4.97
242.38	-3.54
242.597	-2.51
242.814	-0.51
243.03	0.72
243.246	2.29
243.463	2.4
243.679	1.12
243.896	0.37
244.112	-1.72
244.329	-1.7
244.545	0.99
244.762	-0.93
244.978	-1.44
245.194	-2.35
245.411	-3.92
245.627	-2.65
245.843	-0.91
246.06	1.47
246.276	1.38
246.492	3.52
246.709	3.51
246.925	3.6
247.141	3.67
247.357	3.95
247.574	4.27
247.79	3.64
248.006	4.06
248.222	3.34
248.439	2.07
248.655	3.77
248.871	3.27
249.087	4.47
249.303	4.27
249.519	4.32
249.736	3.25
249.952	1.27
250.168	4.35
250.384	1.21
250.6	0.82
250.816	0.28
251.032	-3.67
251.248	-3.23
251.464	-3.57
251.68	-4.01
251.896	-4.66
252.112	-3.54
252.328	-2.95
252.544	-8.1
252.76	-6.42
252.976	-8.7
253.192	-5.71
253.408	-4.95
253.624	-6.47
253.84	-9.44
254.056	-11.69
254.272	-14.75
254.487	-15.47
254.703	-20.08
254.919	-14.98
255.135	-15.92
255.351	-16.59
255.567	-18.46
255.782	-17.89
255.998	-14.57
256.214	-12.79
256.43	-10.35
256.646	-6.2
256.861	-4.75
257.077	-2.64
257.293	-1.62
257.508	-4.67
257.724	1.97
257.94	2.79
258.155	2.25
258.371	0.56
258.587	-0.39
258.802	2.58
259.018	2.73
259.234	2.97
259.449	2.34
259.665	2.03
259.88	3.04
260.096	3.09
260.312	2.71
260.527	3.62
260.743	3.33
260.958	3.45
261.174	2.45
261.389	2.83
261.605	1.98
261.82	2.49
262.036	3.21
262.251	2.66
262.466	1.4
262.682	-0.07
262.897	-0.75
263.113	-0.77
263.328	0.87
263.543	-1.39
263.759	-2.48
263.974	0.17
264.189	1.19
264.405	-0.57
264.62	-0.46
264.835	-2.58
265.051	-1.88
265.266	-1.16
265.481	-0.46
265.696	-1.21
265.912	2.69
266.127	1.75
266.342	1
266.557	0.73
266.773	1.12
266.988	2.32
267.203	2.05
267.418	1.28
267.633	-0.69
267.848	-0.23
268.064	-0.26
268.279	-1.86
268.494	-0.56
268.709	-2.36
268.924	-1.72
269.139	0.02
269.354	-0.1
269.569	0.1
269.784	3.1
269.999	3.57
270.214	3.69
270.429	4.63
270.644	4.03
270.859	2.4
271.074	3.34
271.289	1.89
271.504	0.7
271.719	0.64
271.934	1.51
272.149	1.16
272.363	1.83
272.578	1.9
272.793	1.06
273.008	2.24
273.223	3.49
273.438	3.55
273.653	4.84
273.867	3.19
274.082	3.23
274.297	3.74
274.512	2.47
274.726	0.6
274.941	-0.08
275.156	-1.7
275.371	-4.18
275.585	-6.9
275.8	-8.06
276.015	-10.46
276.229	-9.78
276.444	-10.3
276.659	-11.42
276.873	-11.83
277.088	-11.48
277.302	-11.92
277.517	-10.64
277.732	-10.8
277.946	-8.96
278.161	-8.49
278.375	-6.3
278.59	-5.36
278.804	-4.51
279.019	-5.59
279.233	-3.35
279.448	-2.77
279.662	-2.24
279.877	-0.4
280.091	0.92
280.306	0.82
280.52	1.03
280.735	1.85
280.949	3.04
281.163	2.15
281.378	2.27
281.592	1.94
281.806	1.44
282.021	2.22
282.235	0.61
282.449	1.02
282.664	0.9
282.878	1.66
283.092	-0.36
283.307	-1.71
283.521	-1.97
283.735	-2.72
283.949	-2.94
284.164	-1.57
284.378	-3.52
284.592	-1.41
284.806	-0.76
285.02	-0.45
285.234	0.66
285.449	1.4
285.663	2.69
285.877	4.54
286.091	6.4
286.305	6.99
286.519	7.9
286.733	8.88
286.947	8.66
287.161	8.52
287.375	8.19
287.589	7.86
287.803	7.7
288.017	8.38
288.231	7.14
288.445	5.44
288.659	4.12
288.873	3.55
289.087	3.63
289.301	3.74
289.515	2.93
289.729	4.34
289.943	4.2
290.157	5.61
290.371	5.55
290.584	5.84
290.798	5.24
291.012	6.12
291.226	7.42
291.44	7.04
291.654	7.38
291.867	8.71
292.081	9.52
292.295	9.14
292.509	7.59
292.722	5.54
292.936	5.82
293.15	8.28
293.364	7.5
293.577	6.03
293.791	6.96
294.005	5.75
294.218	3.53
294.432	4.57
294.645	2.73
294.859	4.75
295.073	5.92
295.286	6.13
295.5	4.97
295.713	5.37
295.927	4.97
296.14	5.16
296.354	6.82
296.568	8.13
296.781	6.1
296.994	8.55
297.208	6.87
297.421	6.79
297.635	6.12
297.848	6.24
298.062	5.47
298.275	6.09
298.489	5.96
298.702	5.04
298.915	4.12
299.129	4.42
299.342	3.19
299.555	3.81
299.769	3.36
299.982	5.25
300.195	6.77
300.409	8.38
300.622	7.05
300.835	7.43
301.048	5.76
301.262	6.35
301.475	7.88
301.688	6.42
301.901	7.23
302.115	6.69
302.328	3.18
302.541	2.55
302.754	1.61
302.967	1.19
303.18	1.6
303.393	2.89
303.607	2.86
303.82	2.21
304.033	3.03
304.246	3.19
304.459	3.88
304.672	4.06
304.885	5.38
305.098	5.59
305.311	5.95
305.524	6.46
305.737	5.75
305.95	5.56
306.163	3.38
306.376	4.68
306.589	3.24
306.802	4.81
307.015	8.28
307.228	5.56
307.44	5.89
307.653	6.93
307.866	6.08
308.079	7.46
308.292	7.07
308.505	9.78
308.718	8.58
308.93	8.43
309.143	8.27
309.356	7.13
309.569	7.31
309.781	7.75
309.994	7.3
310.207	7.59
310.42	7.2
310.632	7.88
310.845	6.48
311.058	6.85
311.27	8.51
311.483	8
311.696	6.88
311.908	7.54
312.121	6.75
312.333	7.11
312.546	6.12
312.759	4.42
312.971	4.34
313.184	5.2
313.396	5.62
313.609	4.55
313.821	3.28
314.034	4.67
314.246	4.54
314.459	4.34
314.671	6.6
314.884	6.96
315.096	8.53
315.309	9.23
315.521	8.65
315.733	7.56
315.946	7.48
316.158	9.61
316.371	9.06
316.583	8.72
316.795	7.73
317.008	6.34
317.22	4.13
317.432	4.37
317.644	3.56
317.857	3.51
318.069	3.34
318.281	3.04
318.494	2.99
318.706	4.33
318.918	4.52
319.13	4.84
319.342	4.04
319.555	6.81
319.767	6.79
319.979	6.36
320.191	5.74
320.403	5.29
320.615	5.46
320.827	4.76
321.039	3.03
321.252	2.41
321.464	3.93
321.676	3.33
321.888	3.72
322.1	3.6
322.312	6.33
322.524	6.96
322.736	10.07
322.948	9.8
323.16	10.53
323.372	11.06
323.584	11.25
323.796	9.41
324.007	10.4
324.219	10.21
324.431	9.97
324.643	7.8
324.855	7.15
325.067	4.58
325.279	4.21
325.491	3.74
325.702	2.75
325.914	4.75
326.126	6.39
326.338	5.04
326.55	2.61
326.761	3.59
326.973	3.6
327.185	5.94
327.396	8.15
327.608	8.34
327.82	7.6
328.032	7.9
328.243	6.45
328.455	6.35
328.666	7.9
328.878	11.01
329.09	9.61
329.301	8.45
329.513	7.7
329.725	5.72
329.936	4.68
330.148	6.74
330.359	7.86
330.571	8.61
330.782	8
330.994	6.49
331.205	4.73
331.417	6.27
331.628	8.73
331.84	7.19
332.051	7.79
332.262	9.02
332.474	6.98
332.685	7.26
332.897	6.98
333.108	8.32
333.319	8.87
333.531	9.67
333.742	9.62
333.953	9.05
334.165	8.95
334.376	8.57
334.587	8.45
334.799	10.36
335.01	9.65
335.221	8.95
335.432	8.63
335.644	9.2
335.855	8.32
336.066	8.97
336.277	8.53
336.488	8.53
336.7	9.13
336.911	9.7
337.122	7.36
337.333	7.98
337.544	8.49
337.755	7.8
337.966	7.54
338.177	7.94
338.388	6.48
338.599	5.52
338.811	5.68
339.022	6.75
339.233	5.93
339.444	7.23
339.655	6.24
339.866	4.65
340.076	3.8
340.287	4.2
340.498	4.34
340.709	4.66
340.92	6.17
341.131	6.75
341.342	5.06
341.553	6.09
341.764	5.24
341.975	6.09
342.185	7.45
342.396	7.93
342.607	6.64
342.818	7.52
343.029	7.62
343.239	7.6
343.45	6.62
343.661	6.19
343.872	5.04
344.082	5.83
344.293	5.54
344.504	4.88
344.714	5.44
344.925	6.36
345.136	4.95
345.346	4.76
345.557	3.8
345.768	4.13
345.978	3.2
346.189	3.46
346.399	2.76
346.61	2.18
346.821	1.8
347.031	0.45
347.242	-0.26
347.452	1.27
347.663	2.29
347.873	4.88
348.084	5.11
348.294	8.17
348.504	9.2
348.715	9.45
348.925	10.41
349.136	10.55
349.346	10.73
349.557	10.35
349.767	10.7
349.977	9.04
350.188	6.81
350.398	6.34
350.608	5.25
350.819	4.65
351.029	4.55
351.239	3.91
351.449	4.41
351.66	5.9
351.87	6.09
352.08	4.13
352.29	6.04
352.501	7.11
352.711	7.25
352.921	6.55
353.131	6.09
353.341	5.29
353.552	6.09
353.762	4.97
353.972	4.41
354.182	5.25
354.392	5.27
354.602	6.93
354.812	6.53
355.022	6.89
355.232	6.59
355.442	6.53
355.652	8.4
355.862	7.59
356.072	8.04
356.282	8.55
356.492	7.54
356.702	7.89
356.912	5.36
357.122	5.04
357.332	5.19
357.542	5.99
357.752	6.51
357.962	5.22
358.171	5.6
358.381	5.95
358.591	5.92
358.801	5.78
359.011	6.31
359.221	7.38
359.43	8.3
359.64	8.54
359.85	8.52
360.06	8.04
360.269	8.11
360.479	7.68
360.689	8.82
360.899	8.07
361.108	8.55
361.318	8.39
361.528	7.33
361.737	7.46
361.947	7.35
362.156	6.63
362.366	6.61
362.576	6.9
362.785	7.96
362.995	7.26
363.204	7.42
363.414	8.06
363.623	7.5
363.833	7.71
364.042	6.54
364.252	6.44
364.461	6.71
364.671	7.02
364.88	6.89
365.09	6.07
365.299	5.55
365.509	5.88
365.718	5.15
365.927	5.32
366.137	5.61
366.346	6.13
366.555	5.46
366.765	5.81
366.974	5.38
367.183	5.47
367.393	5.14
367.602	5.02
367.811	5
368.021	5.5
368.23	5.42
368.439	5.42
368.648	5.66
368.857	6.03
369.067	6.62
369.276	7.13
369.485	6.4
369.694	5.53
369.903	5.39
370.112	5.27
370.321	5.02
370.531	5.72
370.74	5.19
370.949	5.13
371.158	5.82
371.367	5.46
371.576	5.27
371.785	5.98
371.994	6.31
372.203	6.67
372.412	6.42
372.621	6.03
372.83	5.18
373.039	5.39
373.248	4.82
373.457	4.73
373.666	4.39
373.874	4.25
374.083	4.75
374.292	5.39
374.501	5.52
374.71	5.84
374.919	5.9
375.128	6.71
375.336	7.58
375.545	8.31
375.754	7.07
375.963	7.26
376.171	6.67
376.38	6.68
376.589	6.08
376.798	6.27
377.006	6.39
377.215	5.84
377.424	5
377.632	4.25
377.841	3.71
378.05	4.45
378.258	4.21
378.467	4.38
378.675	3.79
378.884	4.3
379.093	3.95
379.301	3.88
379.51	4.15
379.718	4.39
379.927	4.48
380.135	4.26
380.344	4.04
380.552	3.95
380.761	4.87
380.969	4.52
381.177	4.47
381.386	4.14
381.594	3.82
381.803	4.49
382.011	4.85
382.219	4.72
382.428	4.99
382.636	5.22
382.845	5.41
383.053	4.76
383.261	4.56
383.469	4.07
383.678	4.17
383.886	4.31
384.094	3.77
384.302	3.94
384.511	4.14
384.719	3.85
384.927	3.51
385.135	3.63
385.343	3.52
385.552	4.05
385.76	4.12
385.968	4
386.176	3.94
386.384	4.02
386.592	3.89
386.8	4.15
387.008	4.21
387.216	4.71
387.424	4.42
387.633	4.56
387.841	4.44
388.049	4.38
388.257	4.38
388.465	4.88
388.672	4.74
388.88	4.73
389.088	4.4
389.296	4.03
389.504	3.58
389.712	4
389.92	3.63
390.128	3.84
390.336	3.92
390.544	3.87
390.751	3.41
390.959	3.35
391.167	3.49
391.375	3.54
391.583	3.75
391.79	3.73
391.998	3.41
392.206	3.45
392.414	3.35
392.621	3.79
392.829	3.87
393.037	4.01
393.244	3.95
393.452	3.75
393.66	3.74
393.867	3.58
394.075	3.59
394.283	3.48
394.49	3.54
394.698	3.94
394.905	3.66
395.113	3.61
395.32	3.58
395.528	4.03
395.735	3.75
395.943	3.81
396.15	4.13
396.358	4.11
396.565	4.27
396.773	3.97
396.98	3.33
397.188	3.05
397.395	3
397.602	2.81
397.81	2.62
398.017	2.77
398.225	2.65
398.432	2.88
398.639	3.1
398.847	3.31
399.054	3.75
399.261	3.95
399.468	4.13
399.676	3.9
399.883	3.77
400.09	3.39
400.297	3.38
400.505	3.58
400.712	3.15
400.919	2.66
401.126	2.55
401.333	2.57
401.54	2.66
401.748	2.91
401.955	3.18
402.162	3.35
402.369	3.87
402.576	4.08
402.783	4.22
402.99	4.31
403.197	4.28
403.404	4.33
403.611	4.46
403.818	4.34
404.025	3.97
404.232	4.06
404.439	4.05
404.646	3.94
404.853	3.64
405.06	3.52
405.267	3.56
405.474	3.67
405.681	3.53
405.887	3.52
406.094	3.22
406.301	3.33
406.508	3.33
406.715	3.43
406.922	3.17
407.128	2.98
407.335	2.69
407.542	2.5
407.749	2.51
407.955	2.46
408.162	2.14
408.369	2.1
408.575	2.12
408.782	1.96
408.989	1.81
409.195	1.99
409.402	2.42
409.609	2.53
409.815	2.7
410.022	3.04
410.228	3.29
410.435	3.52
410.642	3.94
410.848	4.18
411.055	4.21
411.261	3.89
411.468	3.97
411.674	3.8
411.881	4.06
412.087	4.14
412.294	3.97
412.5	3.52
412.706	3.45
412.913	3.02
413.119	2.99
413.326	3.18
413.532	3.56
413.738	3.35
413.945	3.25
414.151	2.94
414.357	2.81
414.564	2.66
414.77	2.74
414.976	2.61
415.182	2.98
415.389	2.74
415.595	2.63
415.801	2.57
416.007	2.6
416.214	2.69
416.42	2.93
416.626	3.07
416.832	3.21
417.038	3.34
417.244	3.59
417.45	3.56
417.657	3.38
417.863	3.48
418.069	3.48
418.275	3.64
418.481	3.73
418.687	3.72
418.893	3.83
419.099	3.88
419.305	3.71
419.511	3.65
419.717	3.63
419.923	3.68
420.129	3.54
420.335	3.56
420.541	3.52
420.746	3.56
420.952	3.46
421.158	3.39
421.364	3.21
421.57	3.41
421.776	3.32
421.982	3.28
422.187	3.47
422.393	3.45
422.599	3.47
422.805	3.4
423.01	3.37
423.216	3.36
423.422	3.34
423.628	3.57
423.833	3.47
424.039	3.72
424.245	3.68
424.45	3.6
424.656	3.76
424.862	3.71
425.067	3.76
425.273	3.77
425.478	3.83
425.684	3.79
425.889	3.68
426.095	3.61
426.301	3.45
426.506	3.27
426.712	3.14
426.917	2.92
427.123	2.87
427.328	2.79
427.533	2.71
427.739	2.56
427.944	2.91
428.15	2.72
428.355	2.8
428.561	2.51
428.766	2.82
428.971	2.93
429.177	3.17
429.382	3.36
429.587	3.37
429.793	3.23
429.998	3.1
430.203	2.73
430.408	2.89
430.614	2.98
430.819	3.18
431.024	3.11
431.229	2.93
431.434	2.84
431.64	2.7
431.845	2.78
432.05	2.88
432.255	3.18
432.46	3.18
432.665	3.31
432.87	3.22
433.076	3.22
433.281	3.25
433.486	3.29
433.691	3.27
433.896	3.32
434.101	3.21
434.306	3.31
434.511	3.09
434.716	3.02
434.921	2.87
435.126	2.78
435.331	2.61
435.535	2.67
435.74	2.76
435.945	2.7
436.15	2.68
436.355	2.61
436.56	2.54
436.765	2.65
436.97	2.64
437.174	2.83
437.379	2.93
437.584	3.12
437.789	3.04
437.993	3.01
438.198	3.07
438.403	3.26
438.608	3.3
438.812	3.42
439.017	3.31
439.222	3.42
439.426	3.26
439.631	3.13
439.836	3.11
440.04	3.1
440.245	3.01
440.45	2.88
440.654	2.77
440.859	2.78
441.063	2.64
441.268	2.82
441.472	2.7
441.677	2.72
441.881	2.8
442.086	2.77
442.29	2.85
442.495	3.12
442.699	3.19
442.904	3.28
443.108	3.2
443.312	3.21
443.517	3.2
443.721	3.23
443.925	3.17
444.13	3.33
444.334	3.37
444.538	3.23
444.743	3.1
444.947	3.17
445.151	3.02
445.356	3.19
445.56	3.09
445.764	3.02
445.968	3.06
446.173	3.1
446.377	3.04
446.581	2.98
446.785	2.99
446.989	3
447.193	3.02
447.398	3.04
447.602	2.96
447.806	3.2
448.01	3.21
448.214	3.15
448.418	3.09
448.622	2.95
448.826	3.07
449.03	3.02
449.234	2.87
449.438	2.76
449.642	2.85
449.846	2.94
450.05	2.72
450.254	2.49
450.458	2.52
450.662	2.62
450.866	2.57
451.069	2.47
451.273	2.84
451.477	2.96
451.681	3.14
451.885	3.42
452.089	3.42
452.292	3.42
452.496	3.75
452.7	3.89
452.904	3.77
453.107	3.97
453.311	3.81
453.515	3.46
453.719	3.33
453.922	3.16
454.126	2.68
454.33	2.65
454.533	2.88
454.737	2.72
454.94	2.44
455.144	2.46
455.348	2.35
455.551	2.37
455.755	2.31
455.958	2.52
456.162	2.42
456.365	2.58
456.569	2.61
456.772	2.31
456.976	2.18
457.179	2.3
457.383	2.35
457.586	2.3
457.79	2.47
457.993	2.87
458.196	2.72
458.4	2.86
458.603	2.9
458.807	2.92
459.01	2.99
459.213	3.09
459.417	3.12
459.62	3.05
459.823	2.97
460.026	2.84
460.23	2.69
460.433	2.83
460.636	2.94
460.839	2.77
461.042	2.76
461.246	2.89
461.449	2.89
461.652	2.9
461.855	3
462.058	3.25
462.261	3.39
462.464	3.39
462.668	3.16
462.871	2.9
463.074	3.17
463.277	2.92
463.48	2.78
463.683	2.76
463.886	2.66
464.089	2.54
464.292	2.48
464.495	2.41
464.698	2.23
464.901	2.44
