Data from 2938033_Reflection_2.txt Node
Date: Sun Jul 12 14:56:36 EDT 2015
User: robert
Spectrometer: USB4E03001
Autoset integration time: false
Trigger mode: 4
Integration Time (sec): 1.000000E-1
Scans to average: 10
Electric dark correction enabled: true
Nonlinearity correction enabled: false
Boxcar width: 5
Stray light correction enabled: false
XAxis mode: Wavelengths
Stop averaging: false
Number of Pixels in Spectrum: 3648
>>>>>Begin Spectral Data<<<<<
177.566	-56.39
177.785	37.1
178.005	182.86
178.225	-39.4
178.445	128.99
178.665	145.76
178.885	16.31
179.105	10.65
179.324	-0.41
179.544	-985.93
179.764	180.31
179.984	-570.57
180.204	86.27
180.423	135.25
180.643	211.37
180.863	2782.86
181.083	160.52
181.302	161.77
181.522	153.66
181.742	203.34
181.961	408.43
182.181	89.42
182.401	17.9
182.621	20.67
182.84	6.87
183.06	17.19
183.279	-22.06
183.499	-66.97
183.719	-31.34
183.938	-14.28
184.158	2.54
184.377	23.2
184.597	17.02
184.816	-12.4
185.036	-9.1
185.256	-1.03
185.475	26.34
185.695	47.43
185.914	63.93
186.134	38.31
186.353	11.48
186.572	21.61
186.792	25.65
187.011	36.71
187.231	41.39
187.45	41.9
187.67	32.8
187.889	-74.06
188.108	-18.79
188.328	-10.07
188.547	16.16
188.766	44.91
188.986	91.29
189.205	132.55
189.424	272.99
189.644	184.33
189.863	1453.58
190.082	762.84
190.302	343.41
190.521	375.05
190.74	1288.47
190.959	841.37
191.178	635.12
191.398	-500.44
191.617	1941.56
191.836	1834.57
192.055	-552.19
192.274	223.73
192.494	79.18
192.713	64.14
192.932	74.81
193.151	43.48
193.37	52.31
193.589	24.9
193.808	26.3
194.027	25.96
194.246	69.77
194.465	62.83
194.685	64.44
194.904	79.05
195.123	65.24
195.342	94.42
195.561	178.56
195.78	126.57
195.999	117.75
196.218	69.85
196.436	97.74
196.655	60.14
196.874	19.23
197.093	-44.02
197.312	-163.2
197.531	-102.65
197.75	-133.26
197.969	-85.51
198.188	-96.96
198.407	-93.64
198.625	-33.58
198.844	-2.57
199.063	-19.03
199.282	6.21
199.501	7.87
199.719	4.69
199.938	12.34
200.157	50.2
200.376	24.53
200.594	24.92
200.813	43.12
201.032	30.49
201.251	12.52
201.469	-1.36
201.688	26.49
201.907	9.29
202.125	-12
202.344	-15.46
202.563	-73.46
202.781	-121.78
203	-102.52
203.218	-125.3
203.437	6260.47
203.656	-32.16
203.874	-31.8
204.093	-40.73
204.311	-12.54
204.53	6.56
204.748	-13.4
204.967	11.3
205.185	38.88
205.404	42.72
205.622	-34.61
205.841	-15.88
206.059	-127.34
206.278	-25.68
206.496	13.85
206.715	41.97
206.933	37.54
207.151	23.47
207.37	2.92
207.588	12.49
207.806	29
208.025	40.55
208.243	45.76
208.461	49.04
208.68	49.25
208.898	38.27
209.116	54.22
209.335	61.41
209.553	71.29
209.771	87.65
209.989	77.22
210.208	60.07
210.426	110.12
210.644	117.45
210.862	117.37
211.081	117.63
211.299	191.26
211.517	96.33
211.735	86.43
211.953	103.5
212.171	49.49
212.39	38.88
212.608	40.77
212.826	12.72
213.044	-14.75
213.262	-67.68
213.48	-173.65
213.698	-88.47
213.916	-109.61
214.134	-68.51
214.352	-71.15
214.57	-39.32
214.788	-35.86
215.006	-28.28
215.224	1.92
215.442	28.99
215.66	42.46
215.878	29.79
216.096	56.13
216.314	61.39
216.532	68.73
216.75	49.84
216.968	40.79
217.185	38.41
217.403	46.75
217.621	32.21
217.839	32.79
218.057	34.48
218.275	65.81
218.492	54.95
218.71	77.39
218.928	88.3
219.146	96.85
219.363	134.6
219.581	172.55
219.799	93.93
220.017	98.14
220.234	111.92
220.452	108.62
220.67	86.63
220.887	90.6
221.105	69.32
221.323	53.31
221.54	61.69
221.758	45.17
221.976	44.53
222.193	47.89
222.411	39.95
222.629	43.56
222.846	43.32
223.064	45.26
223.281	28.91
223.499	34.43
223.716	32.38
223.934	14.42
224.151	46.83
224.369	53.59
224.586	80.58
224.804	76.16
225.021	45.74
225.239	55.15
225.456	42.38
225.674	47.96
225.891	36.28
226.108	31.82
226.326	35.21
226.543	29.34
226.76	22.91
226.978	3.23
227.195	11.34
227.413	14.78
227.63	9.91
227.847	12.2
228.064	13.43
228.282	15.17
228.499	16
228.716	14.85
228.934	14.23
229.151	14.29
229.368	15.99
229.585	14.56
229.802	15.64
230.02	16.6
230.237	17.09
230.454	19.05
230.671	17.45
230.888	17.42
231.105	17.67
231.323	14.36
231.54	14.32
231.757	15.75
231.974	17.8
232.191	15.37
232.408	14.92
232.625	14.13
232.842	8.06
233.059	9.51
233.276	9.58
233.493	8.29
233.71	12.65
233.927	12.67
234.144	11.26
234.361	10.69
234.578	10.89
234.795	5.58
235.012	0.91
235.229	2.43
235.446	5.46
235.663	1.31
235.879	3.68
236.096	8.27
236.313	9.55
236.53	8
236.747	6.43
236.964	4.76
237.181	14.04
237.397	19.88
237.614	21.16
237.831	20.82
238.048	24.79
238.264	24.07
238.481	19.23
238.698	18.14
238.915	19.84
239.131	19.18
239.348	20.76
239.565	14.62
239.781	11.84
239.998	9.02
240.215	8.36
240.431	6.53
240.648	5.02
240.865	4.58
241.081	5.57
241.298	7.65
241.514	7.19
241.731	7.07
241.947	8.3
242.164	10.99
242.38	11.42
242.597	11.21
242.814	12.2
243.03	13.52
243.246	13.73
243.463	13.13
243.679	12.83
243.896	13.55
244.112	13.28
244.329	14.37
244.545	12.76
244.762	13.33
244.978	12.69
245.194	11.47
245.411	10.21
245.627	10.06
245.843	10.42
246.06	9.65
246.276	9.97
246.492	9.78
246.709	7.91
246.925	7.71
247.141	7.91
247.357	7.91
247.574	7.95
247.79	8.17
248.006	8.89
248.222	8.59
248.439	8.37
248.655	7.7
248.871	7.92
249.087	9.12
249.303	9.33
249.519	8.23
249.736	8.64
249.952	8.15
250.168	7.11
250.384	5.37
250.6	6.56
250.816	8.11
251.032	9.06
251.248	9.32
251.464	9.45
251.68	8.01
251.896	7.5
252.112	7.01
252.328	7.06
252.544	7.87
252.76	7.24
252.976	5.95
253.192	4.29
253.408	2.28
253.624	1.8
253.84	-1.3
254.056	-1.7
254.272	0.25
254.487	4.12
254.703	4.57
254.919	2.57
255.135	5.34
255.351	6.62
255.567	5.29
255.782	7.63
255.998	9.78
256.214	10.81
256.43	12.08
256.646	10.14
256.861	5.48
257.077	5.99
257.293	7.05
257.508	6.37
257.724	5.54
257.94	6.42
258.155	6.85
258.371	5.62
258.587	5.96
258.802	5.63
259.018	7.77
259.234	8.01
259.449	7.7
259.665	8.19
259.88	8.24
260.096	8.37
260.312	8.68
260.527	9.42
260.743	9.74
260.958	9.59
261.174	9.86
261.389	9.38
261.605	9.86
261.82	10.64
262.036	10.39
262.251	10.65
262.466	11.77
262.682	12.57
262.897	11.39
263.113	11.11
263.328	12.34
263.543	13.68
263.759	13.2
263.974	12.63
264.189	13.02
264.405	12.97
264.62	12.9
264.835	11.5
265.051	10.24
265.266	10.33
265.481	10.36
265.696	9.55
265.912	9.17
266.127	7.39
266.342	7.3
266.557	5.06
266.773	4.89
266.988	5.2
267.203	3.85
267.418	4.21
267.633	4.55
267.848	3.78
268.064	3.68
268.279	2.93
268.494	4.39
268.709	4.27
268.924	4.45
269.139	3.32
269.354	3.78
269.569	5.29
269.784	4.28
269.999	4.28
270.214	6.14
270.429	5.4
270.644	4.96
270.859	4.72
271.074	5.06
271.289	6.39
271.504	7.05
271.719	6.78
271.934	7.28
272.149	8.45
272.363	7.45
272.578	6.79
272.793	7.36
273.008	7.5
273.223	7.77
273.438	8.18
273.653	7.6
273.867	7.43
274.082	8.27
274.297	8.2
274.512	7.49
274.726	7.83
274.941	7.19
275.156	8.07
275.371	8.8
275.585	8.66
275.8	7.17
276.015	6.93
276.229	6.91
276.444	6.03
276.659	5.6
276.873	6.57
277.088	6.44
277.302	6.08
277.517	5.98
277.732	5.69
277.946	6.26
278.161	6.08
278.375	6.6
278.59	5.27
278.804	4.87
279.019	5.32
279.233	4.07
279.448	4.15
279.662	5.25
279.877	5.74
280.091	5.31
280.306	4.97
280.52	5.62
280.735	4.9
280.949	6.78
281.163	6.57
281.378	6.62
281.592	7.23
281.806	7.5
282.021	7.45
282.235	6.05
282.449	7.11
282.664	6.43
282.878	7.27
283.092	7.86
283.307	7.91
283.521	7.81
283.735	6.92
283.949	6.42
284.164	6.57
284.378	6.42
284.592	7.54
284.806	7.26
285.02	8.79
285.234	8.19
285.449	8.01
285.663	7.87
285.877	7.94
286.091	9.31
286.305	9.64
286.519	8.84
286.733	9.27
286.947	8.49
287.161	8.89
287.375	7.35
287.589	7.45
287.803	7.11
288.017	6.78
288.231	6.32
288.445	5.41
288.659	5.75
288.873	6.87
289.087	6.48
289.301	6.9
289.515	5.32
289.729	6.23
289.943	7.3
290.157	7.74
290.371	7.81
290.584	8.48
290.798	9.13
291.012	8.37
291.226	8.42
291.44	7.8
291.654	7.94
291.867	8.96
292.081	7.16
292.295	6.5
292.509	7.26
292.722	7.36
292.936	6.64
293.15	5.54
293.364	6.5
293.577	6.95
293.791	8.38
294.005	9.47
294.218	9.63
294.432	11.59
294.645	11.59
294.859	11.08
295.073	12.19
295.286	13.25
295.5	13.31
295.713	12.27
295.927	11.99
296.14	10.78
296.354	9.61
296.568	8.21
296.781	8.41
296.994	8.41
297.208	8.54
297.421	8.59
297.635	8.82
297.848	8.18
298.062	8.85
298.275	8.83
298.489	9.53
298.702	10.43
298.915	11.08
299.129	10.71
299.342	10.26
299.555	10.94
299.769	10.39
299.982	8.68
300.195	8.84
300.409	8.37
300.622	7.58
300.835	7.16
301.048	6.23
301.262	6.44
301.475	7.29
301.688	7.89
301.901	7.48
302.115	6.53
302.328	7.61
302.541	8.3
302.754	8.87
302.967	10.35
303.18	10.35
303.393	10.19
303.607	11.05
303.82	10.06
304.033	10.11
304.246	9.46
304.459	11.66
304.672	12.29
304.885	12.75
305.098	12.91
305.311	12.31
305.524	12.19
305.737	12.67
305.95	12.62
306.163	12.51
306.376	12.42
306.589	12.77
306.802	11.41
307.015	10.34
307.228	10.26
307.44	9.63
307.653	8.89
307.866	8.35
308.079	7.81
308.292	7.96
308.505	9.31
308.718	9.72
308.93	9.24
309.143	9.61
309.356	10.92
309.569	9.96
309.781	8.69
309.994	9.2
310.207	10.01
310.42	11
310.632	10.89
310.845	11.14
311.058	10.29
311.27	11.46
311.483	11.56
311.696	11.5
311.908	12.13
312.121	13.38
312.333	13.07
312.546	13.14
312.759	13.04
312.971	12.19
313.184	11.45
313.396	12.77
313.609	12.48
313.821	10.81
314.034	8.44
314.246	8.4
314.459	7.93
314.671	7.66
314.884	7.29
315.096	7.84
315.309	8.66
315.521	9.38
315.733	9.63
315.946	8.99
316.158	9.97
316.371	11.56
316.583	11.72
316.795	12.5
317.008	12.29
317.22	12.34
317.432	10.89
317.644	12.2
317.857	11.83
318.069	10.15
318.281	10.06
318.494	10.52
318.706	10.08
318.918	8.91
319.13	8.46
319.342	9.17
319.555	9.14
319.767	8.81
319.979	6.44
320.191	4.09
320.403	5.75
320.615	6.46
320.827	6.31
321.039	6.15
321.252	8.38
321.464	7.89
321.676	8.74
321.888	7.71
322.1	9.35
322.312	10.38
322.524	11.57
322.736	10.23
322.948	8.1
323.16	8.06
323.372	8.37
323.584	7.99
323.796	8.62
324.007	6.41
324.219	7.1
324.431	6.44
324.643	5.62
324.855	5.87
325.067	6.31
325.279	8.48
325.491	8.79
325.702	8.87
325.914	8.61
326.126	8.41
326.338	11.63
326.55	12.04
326.761	12.11
326.973	13.47
327.185	13.73
327.396	13.17
327.608	13.06
327.82	13.12
328.032	12.95
328.243	12.27
328.455	12.18
328.666	10.79
328.878	11.11
329.09	11.69
329.301	10.41
329.513	10.79
329.725	11.09
329.936	9.48
330.148	10.07
330.359	10.86
330.571	11.54
330.782	12.11
330.994	12.44
331.205	11.8
331.417	11.17
331.628	11.87
331.84	11.72
332.051	11.93
332.262	14.33
332.474	13.67
332.685	12.64
332.897	12.21
333.108	13.47
333.319	12.34
333.531	12.6
333.742	13.54
333.953	13.53
334.165	13.35
334.376	13.55
334.587	12.66
334.799	12.35
335.01	12.48
335.221	14.15
335.432	12.44
335.644	12.46
335.855	11.77
336.066	11
336.277	11.49
336.488	12.36
336.7	12.14
336.911	11.94
337.122	12.72
337.333	13.65
337.544	11.97
337.755	12.24
337.966	12.39
338.177	13.36
338.388	13.53
338.599	13.04
338.811	12.23
339.022	12.45
339.233	13.26
339.444	12.42
339.655	11.12
339.866	11.95
340.076	11.48
340.287	11.79
340.498	11.66
340.709	11.5
340.92	12
341.131	12.99
341.342	12.87
341.553	11.25
341.764	10.91
341.975	10.41
342.185	10.33
342.396	10.76
342.607	11.23
342.818	11.05
343.029	11.54
343.239	10.83
343.45	9.24
343.661	8.78
343.872	9.15
344.082	10.18
344.293	11.27
344.504	12.07
344.714	12.58
344.925	12.41
345.136	11.78
345.346	11.43
345.557	11.49
345.768	11.9
345.978	12.48
346.189	13.19
346.399	12.36
346.61	13.42
346.821	12.19
347.031	11.68
347.242	10.37
347.452	10.89
347.663	10.01
347.873	10.34
348.084	11.17
348.294	11.18
348.504	10.67
348.715	10.97
348.925	10.46
349.136	10.58
349.346	10.82
349.557	12.48
349.767	12.55
349.977	13.84
350.188	13.78
350.398	13.76
350.608	14.03
350.819	13.85
351.029	14.38
351.239	13.7
351.449	12.99
351.66	14
351.87	13.93
352.08	14.56
352.29	13.79
352.501	14.56
352.711	14.07
352.921	13.18
353.131	12.83
353.341	12.1
353.552	12.26
353.762	12.5
353.972	11.05
354.182	10.94
354.392	10.6
354.602	12.24
354.812	11.29
355.022	11.31
355.232	10.9
355.442	10.76
355.652	11.95
355.862	11.29
356.072	12.1
356.282	12.41
356.492	12.14
356.702	11.93
356.912	10.35
357.122	10.85
357.332	11.5
357.542	12.1
357.752	12.19
357.962	11.16
358.171	11.65
358.381	11.21
358.591	11.41
358.801	11.46
359.011	11.53
359.221	11.78
359.43	11.74
359.64	10.38
359.85	10.24
360.06	10.91
360.269	11.13
360.479	10.96
360.689	12.15
360.899	11.52
361.108	11.04
361.318	11.21
361.528	11.85
361.737	11.09
361.947	11.68
362.156	11.02
362.366	10.64
362.576	10.74
362.785	10.96
362.995	10.04
363.204	10.33
363.414	10.57
363.623	10.15
363.833	9.07
364.042	8.84
364.252	8.4
364.461	9.07
364.671	8.63
364.88	7.99
365.09	7.43
365.299	8
365.509	7.36
365.718	6.95
365.927	6.66
366.137	6.52
366.346	7.11
366.555	7.41
366.765	6.32
366.974	6.42
367.183	6.06
367.393	6.05
367.602	4.91
367.811	5.2
368.021	6.02
368.23	7.11
368.439	7.28
368.648	8.27
368.857	7.69
369.067	8.35
369.276	8.99
369.485	9.35
369.694	9.19
369.903	9.45
370.112	9.75
370.321	9.04
370.531	7.97
370.74	7.82
370.949	7.47
371.158	7.92
371.367	8.77
371.576	8.18
371.785	8.48
371.994	9.21
372.203	9.34
372.412	9.53
372.621	9.94
372.83	9.82
373.039	10.31
373.248	9.37
373.457	8.8
373.666	8.02
373.874	8.39
374.083	7.98
374.292	7.37
374.501	6.87
374.71	6.43
374.919	6.34
375.128	6.76
375.336	6.88
375.545	7.23
375.754	7.38
375.963	7.66
376.171	7.49
376.38	7.45
376.589	7.91
376.798	8.53
377.006	8.23
377.215	8.08
377.424	8.18
377.632	7.97
377.841	7.61
378.05	7.92
378.258	8.02
378.467	8.48
378.675	8.73
378.884	9.12
379.093	9.03
379.301	8.95
379.51	9
379.718	8.54
379.927	8.56
380.135	9.09
380.344	8.45
380.552	8.73
380.761	8.46
380.969	8.58
381.177	7.72
381.386	7.49
381.594	8.12
381.803	8.27
382.011	7.93
382.219	8.12
382.428	8.26
382.636	8.51
382.845	7.79
383.053	7.16
383.261	6.76
383.469	6.48
383.678	6.46
383.886	6.21
384.094	5.89
384.302	6.49
384.511	6.47
384.719	6
384.927	6.14
385.135	6.39
385.343	6.28
385.552	6.82
385.76	7.08
385.968	6.76
386.176	6.73
386.384	6.58
386.592	6.51
386.8	6.08
387.008	6.15
387.216	5.91
387.424	5.44
387.633	5.41
387.841	5.31
388.049	5.36
388.257	5.6
388.465	5.94
388.672	6
388.88	6.01
389.088	5.76
389.296	6.07
389.504	6.14
389.712	6.64
389.92	7.09
390.128	6.62
390.336	6.6
390.544	6.62
390.751	6.08
390.959	5.92
391.167	6.11
391.375	6.21
391.583	6.08
391.79	6.13
391.998	6.03
392.206	5.98
392.414	6.39
392.621	6.1
392.829	6.06
393.037	5.95
393.244	6.4
393.452	6.36
393.66	6.7
393.867	6.41
394.075	6.48
394.283	6.43
394.49	5.97
394.698	5.41
394.905	5.69
395.113	5.62
395.32	5.65
395.528	5.4
395.735	5.17
395.943	5.21
396.15	5.24
396.358	5.12
396.565	5.31
396.773	5.75
396.98	6.25
397.188	6.24
397.395	6.35
397.602	6.43
397.81	6.35
398.017	6.6
398.225	6.31
398.432	6.53
398.639	6.36
398.847	5.88
399.054	5.88
399.261	6.05
399.468	6.04
399.676	6.02
399.883	6.36
400.09	6.44
400.297	6.31
400.505	6.3
400.712	6.03
400.919	6.28
401.126	6.23
401.333	6
401.54	5.49
401.748	5.43
401.955	5.42
402.162	5.11
402.369	4.96
402.576	5.03
402.783	5.07
402.99	5.13
403.197	5.08
403.404	5.33
403.611	5.34
403.818	5.31
404.025	5.29
404.232	5.21
404.439	5.63
404.646	5.64
404.853	5.31
405.06	5.24
405.267	5.32
405.474	5.32
405.681	5.48
405.887	5.55
406.094	5.81
406.301	5.76
406.508	5.81
406.715	5.33
406.922	5.44
407.128	5.58
407.335	5.39
407.542	5.37
407.749	5.45
407.955	5.37
408.162	5.22
408.369	5.04
408.575	5.14
408.782	4.9
408.989	4.8
409.195	4.63
409.402	4.45
409.609	4.78
409.815	4.85
410.022	4.65
410.228	4.41
410.435	4.67
410.642	4.72
410.848	4.6
411.055	4.93
411.261	5.17
411.468	4.88
411.674	5.17
411.881	4.94
412.087	5.04
412.294	5.13
412.5	5.52
412.706	5.61
412.913	5.48
413.119	5.73
413.326	5.49
413.532	5.66
413.738	6.2
413.945	6.03
414.151	6.48
414.357	6.01
414.564	5.94
414.77	5.68
414.976	5.63
415.182	5.57
415.389	5.3
415.595	5.16
415.801	4.95
416.007	4.81
416.214	4.61
416.42	4.28
416.626	4.57
416.832	4.54
417.038	4.67
417.244	4.71
417.45	4.79
417.657	4.83
417.863	4.96
418.069	4.89
418.275	4.83
418.481	5
418.687	4.86
418.893	5.02
419.099	5.17
419.305	5.14
419.511	4.96
419.717	5.02
419.923	4.97
420.129	4.95
420.335	4.87
420.541	4.87
420.746	4.87
420.952	4.87
421.158	4.67
421.364	4.57
421.57	4.46
421.776	4.42
421.982	4.48
422.187	4.48
422.393	4.54
422.599	4.68
422.805	4.78
423.01	4.83
423.216	4.9
423.422	4.81
423.628	4.77
423.833	4.71
424.039	4.75
424.245	4.59
424.45	4.54
424.656	4.44
424.862	4.23
425.067	4.18
425.273	4.12
425.478	4.13
425.684	4.15
425.889	4
426.095	4.03
426.301	4.06
426.506	4.09
426.712	4.17
426.917	4.29
427.123	4.48
427.328	4.24
427.533	4
427.739	4.01
427.944	4.12
428.15	4.14
428.355	4.17
428.561	4.25
428.766	4.28
428.971	4.27
429.177	4.1
429.382	3.91
429.587	4.02
429.793	4.42
429.998	4.35
430.203	4.37
430.408	4.51
430.614	4.53
430.819	4.29
431.024	4.03
431.229	3.76
431.434	3.66
431.64	3.78
431.845	3.87
432.05	3.66
432.255	3.84
432.46	3.83
432.665	3.81
432.87	3.79
433.076	3.87
433.281	4.05
433.486	4.22
433.691	4.46
433.896	4.59
434.101	4.56
434.306	4.51
434.511	4.36
434.716	4.3
434.921	4.29
435.126	4.45
435.331	4.44
435.535	4.34
435.74	4.36
435.945	4.3
436.15	4.11
436.355	4.05
436.56	4.04
436.765	4.21
436.97	4.19
437.174	4.4
437.379	4.22
437.584	4.21
437.789	4.29
437.993	4.46
438.198	4.4
438.403	4.57
438.608	4.55
438.812	4.47
439.017	4.18
439.222	4.48
439.426	4.34
439.631	4.31
439.836	4.44
440.04	4.49
440.245	4.38
440.45	4.4
440.654	4.34
440.859	4.31
441.063	4.48
441.268	4.59
441.472	4.45
441.677	4.49
441.881	4.4
442.086	4.25
442.29	4.16
442.495	4.12
442.699	4.2
442.904	4.23
443.108	4.26
443.312	4.19
443.517	4.18
443.721	4.05
443.925	4.06
444.13	4.27
444.334	4.32
444.538	4.37
444.743	4.31
444.947	4.21
445.151	4.25
445.356	4.18
445.56	4.28
445.764	4.33
445.968	4.33
446.173	4.35
446.377	4.34
446.581	4.39
446.785	4.42
446.989	4.55
447.193	4.44
447.398	4.37
447.602	4.57
447.806	4.4
448.01	4.33
448.214	4.32
448.418	4.28
448.622	4.15
448.826	4.07
449.03	4.04
449.234	3.88
449.438	4.05
449.642	4.09
449.846	4.03
450.05	4.13
450.254	4.1
450.458	4.2
450.662	4.1
450.866	4.22
451.069	4.33
451.273	4.27
451.477	4.24
451.681	4.23
451.885	4.19
452.089	3.94
452.292	4.03
452.496	4.07
452.7	3.97
452.904	4.19
453.107	4.22
453.311	4.19
453.515	4.22
453.719	4.33
453.922	4.39
454.126	4.34
454.33	4.58
454.533	4.61
454.737	4.57
454.94	4.69
455.144	4.57
455.348	4.5
455.551	4.43
455.755	4.49
455.958	4.42
456.162	4.16
456.365	4.29
456.569	4.17
456.772	4.06
456.976	4.2
457.179	4.16
457.383	4.03
457.586	4
457.79	3.99
457.993	4.08
458.196	4.03
458.4	4.01
458.603	3.9
458.807	3.86
459.01	3.82
459.213	3.81
459.417	3.75
459.62	3.86
459.823	3.97
460.026	3.91
460.23	3.79
460.433	3.84
460.636	3.96
460.839	4.09
461.042	4.12
461.246	4.18
461.449	4.08
461.652	4.09
461.855	4.06
462.058	3.73
462.261	4.02
462.464	4.03
462.668	4.06
462.871	3.93
463.074	3.86
463.277	3.95
463.48	3.83
463.683	3.89
463.886	3.88
464.089	4.02
464.292	4.19
464.495	3.91
464.698	3.91
464.901	4.01
465.104	4.17
465.306	4.17
465.509	3.97
465.712	3.99
465.915	4.01
466.118	4.04
466.321	3.73
466.524	3.64
466.726	3.54
466.929	3.44
467.132	3.44
467.335	3.27
