Data from 2938075_Reflection_1.txt Node
Date: Sat Jul 11 20:26:21 EDT 2015
User: robert
Spectrometer: USB4E03001
Autoset integration time: false
Trigger mode: 4
Integration Time (sec): 1.000000E-1
Scans to average: 10
Electric dark correction enabled: true
Nonlinearity correction enabled: false
Boxcar width: 5
Stray light correction enabled: false
XAxis mode: Wavelengths
Stop averaging: false
Number of Pixels in Spectrum: 3648
>>>>>Begin Spectral Data<<<<<
177.566	-231.87
177.785	-96.65
178.005	47.23
178.225	33.56
178.445	-4.38
178.665	54.52
178.885	-99.13
179.105	-38.08
179.324	5.43
179.544	120.82
179.764	84.73
179.984	105.51
180.204	80.17
180.423	95.33
180.643	105.03
180.863	261.59
181.083	59.18
181.302	3.77
181.522	31.29
181.742	23.77
181.961	25.14
182.181	-146.91
182.401	-118.95
182.621	-170.79
182.84	-396.09
183.06	-233.19
183.279	-2684.78
183.499	-482.95
183.719	496.47
183.938	438.69
184.158	276.87
184.377	325.8
184.597	64.98
184.816	24.06
185.036	29.13
185.256	36.9
185.475	86.49
185.695	247.46
185.914	129.87
186.134	0
186.353	-457.95
186.572	-83.66
186.792	-35.73
187.011	-53.39
187.231	19.78
187.45	69.49
187.67	143.63
187.889	267.36
188.108	392.98
188.328	153.01
188.547	145.44
188.766	-64.97
188.986	-52.16
189.205	-119.45
189.424	-239.69
189.644	2266.77
189.863	-237.8
190.082	-527.26
190.302	5190.3
190.521	620.43
190.74	534.62
190.959	728.26
191.178	446.1
191.398	437.12
191.617	410.92
191.836	1675.56
192.055	27.05
192.274	2208.85
192.494	233.89
192.713	41.65
192.932	77.79
193.151	59.12
193.37	54.93
193.589	95.52
193.808	42
194.027	-31.63
194.246	8.78
194.465	-54.01
194.685	-84.16
194.904	-164.15
195.123	-195.06
195.342	-124.05
195.561	-7577.14
195.78	278.93
195.999	313.5
196.218	109.59
196.436	40.37
196.655	-61.73
196.874	-181.13
197.093	-86.99
197.312	-287.83
197.531	-149.45
197.75	424.13
197.969	215.23
198.188	-350.86
198.407	-71.62
198.625	-14.26
198.844	-11.81
199.063	55.08
199.282	109.71
199.501	481.99
199.719	-482.02
199.938	60.33
200.157	62.9
200.376	45.07
200.594	99.44
200.813	106.73
201.032	-7150
201.251	-420.77
201.469	-132.9
201.688	-45.55
201.907	-12.98
202.125	-63.53
202.344	-24.5
202.563	-31.89
202.781	10.61
203	-55.01
203.218	19.3
203.437	44.78
203.656	89.99
203.874	136.14
204.093	331.2
204.311	95.44
204.53	177.77
204.748	-174.23
204.967	-358.62
205.185	315.86
205.404	-48.21
205.622	34.59
205.841	47.29
206.059	18.43
206.278	-132.95
206.496	520
206.715	-17018.18
206.933	161.92
207.151	1132.58
207.37	-213.09
207.588	-173.05
207.806	-136.9
208.025	31429.41
208.243	-260.73
208.461	-264.55
208.68	-42.67
208.898	2.99
209.116	30.22
209.335	42.54
209.553	43.2
209.771	46.71
209.989	66.38
210.208	39.54
210.426	39.71
210.644	15.45
210.862	-12.84
211.081	-49.48
211.299	-15.28
211.517	-74.63
211.735	-197.84
211.953	-90.51
212.171	-18.49
212.39	-24.97
212.608	-16.43
212.826	-6.61
213.044	8.6
213.262	18.54
213.48	21.17
213.698	21
213.916	42.05
214.134	26.51
214.352	18.53
214.57	1.03
214.788	28.22
215.006	-26.67
215.224	-6
215.442	-8.85
215.66	-18.8
215.878	-51.66
216.096	-165.41
216.314	5090.53
216.532	-234.35
216.75	-102.01
216.968	-78.49
217.185	-64.65
217.403	-2.68
217.621	-26.06
217.839	-26.87
218.057	-18.28
218.275	-33.95
218.492	-10.71
218.71	-32.33
218.928	-75.9
219.146	-136.64
219.363	-283.37
219.581	-128.02
219.799	-6.12
220.017	2.03
220.234	18.72
220.452	16.76
220.67	38.9
220.887	37.73
221.105	40.24
221.323	53.58
221.54	44.16
221.758	36.14
221.976	24.5
222.193	11.28
222.411	6.86
222.629	4.06
222.846	9.06
223.064	0
223.281	-16.26
223.499	-25.78
223.716	-25.79
223.934	10.65
224.151	16.71
224.369	26.83
224.586	36.6
224.804	31.24
225.021	65.42
225.239	108.49
225.456	78.92
225.674	85.14
225.891	78.87
226.108	58.46
226.326	52.97
226.543	53.39
226.76	51.95
226.978	41.28
227.195	43.04
227.413	27.2
227.63	20.26
227.847	13.45
228.064	14.79
228.282	19.36
228.499	19.67
228.716	15.49
228.934	16.51
229.151	16.53
229.368	14.88
229.585	16.99
229.802	18.42
230.02	15.03
230.237	17.98
230.454	14.35
230.671	12.73
230.888	14.56
231.105	19.78
231.323	18.54
231.54	17.13
231.757	17.21
231.974	17.65
232.191	17.39
232.408	25.65
232.625	27.61
232.842	25.34
233.059	29.02
233.276	21.98
233.493	21.6
233.71	19.68
233.927	17.71
234.144	20.96
234.361	12.16
234.578	18.23
234.795	16.36
235.012	15.53
235.229	15.78
235.446	11.23
235.663	12.58
235.879	8.86
236.096	10.98
236.313	15.46
236.53	17.36
236.747	21.81
236.964	17.26
237.181	17.51
237.397	5.98
237.614	10.09
237.831	9.17
238.048	8.03
238.264	10.95
238.481	12.17
238.698	11.98
238.915	0.05
239.131	-4.63
239.348	-5.09
239.565	0.64
239.781	12.67
239.998	11.8
240.215	14.84
240.431	18.23
240.648	20.01
240.865	17.6
241.081	17.44
241.298	17.03
241.514	18.62
241.731	19.4
241.947	17.99
242.164	16.04
242.38	15.2
242.597	13.51
242.814	12.08
243.03	10.3
243.246	11.47
243.463	10.88
243.679	12.82
243.896	11.52
244.112	10.55
244.329	10.29
244.545	10.55
244.762	12.27
244.978	12.56
245.194	14.9
245.411	14.67
245.627	12.46
245.843	11.7
246.06	10.91
246.276	9.57
246.492	8.78
246.709	8.71
246.925	8.91
247.141	8.84
247.357	9.19
247.574	8.73
247.79	9.18
248.006	10.28
248.222	11.02
248.439	11.44
248.655	12.25
248.871	12.07
249.087	11.73
249.303	12.7
249.519	13.1
249.736	14.69
249.952	14.63
250.168	15.16
250.384	14.59
250.6	12.07
250.816	9.88
251.032	8.98
251.248	9.77
251.464	14.32
251.68	12.84
251.896	12.31
252.112	10.31
252.328	11.82
252.544	10.32
252.76	10.17
252.976	8.26
253.192	8.69
253.408	9.3
253.624	9.12
253.84	4.54
254.056	4.5
254.272	1.75
254.487	2.77
254.703	0.12
254.919	2.56
255.135	3.36
255.351	6.93
255.567	9.33
255.782	9.63
255.998	10.94
256.214	12.02
256.43	12.91
256.646	14.29
256.861	13.69
257.077	16.54
257.293	17.5
257.508	14.26
257.724	14.69
257.94	11.02
258.155	13.3
258.371	14.26
258.587	14.31
258.802	12.27
259.018	12.16
259.234	12.22
259.449	10.15
259.665	8.2
259.88	9.13
260.096	9.63
260.312	10.16
260.527	9.74
260.743	9.84
260.958	9.37
261.174	10.22
261.389	9.6
261.605	9.33
261.82	9.93
262.036	10.55
262.251	11.08
262.466	9.62
262.682	9.75
262.897	8.75
263.113	8.66
263.328	8.08
263.543	6.69
263.759	9.59
263.974	9.7
264.189	9.68
264.405	10.68
264.62	8.95
264.835	10.38
265.051	10.88
265.266	12.29
265.481	10.99
265.696	13.18
265.912	13.84
266.127	11.81
266.342	10.76
266.557	10.74
266.773	11.74
266.988	11.98
267.203	11.5
267.418	10.78
267.633	10.26
267.848	11.74
268.064	11.57
268.279	11.34
268.494	11.26
268.709	12.14
268.924	12.28
269.139	11.41
269.354	11.28
269.569	11.51
269.784	13.08
269.999	11.88
270.214	9.18
270.429	9.89
270.644	10.73
270.859	11.79
271.074	10.29
271.289	9.38
271.504	8.31
271.719	7.55
271.934	6.83
272.149	4.97
272.363	5.14
272.578	6.34
272.793	5.62
273.008	3.57
273.223	2.69
273.438	2.6
273.653	2.67
273.867	3.56
274.082	3.94
274.297	4.27
274.512	4.61
274.726	4.85
274.941	4.29
275.156	2.84
275.371	3.16
275.585	2.4
275.8	2.5
276.015	2.41
276.229	1.84
276.444	2.02
276.659	2.3
276.873	3.12
277.088	2.68
277.302	3.89
277.517	5.08
277.732	5.94
277.946	7.29
278.161	8.49
278.375	9.36
278.59	10.06
278.804	10.5
279.019	10.81
279.233	10.65
279.448	11.43
279.662	11.01
279.877	11.06
280.091	11.81
280.306	11.7
280.52	11.24
280.735	11.14
280.949	10.31
281.163	9.45
281.378	8.92
281.592	8.52
281.806	8.76
282.021	8.93
282.235	7.62
282.449	7.47
282.664	7.44
282.878	7.86
283.092	6.73
283.307	7.63
283.521	8.42
283.735	7.75
283.949	7.33
284.164	6.69
284.378	6.73
284.592	7.55
284.806	6.38
285.02	6.16
285.234	5.18
285.449	5.85
285.663	4.58
285.877	4.97
286.091	6.38
286.305	7.35
286.519	8.17
286.733	6.96
286.947	6.58
287.161	6.63
287.375	6.78
287.589	7.01
287.803	7.3
288.017	8.31
288.231	7.42
288.445	7.51
288.659	9.55
288.873	8.29
289.087	9.73
289.301	9.68
289.515	10.67
289.729	10.74
289.943	11.58
290.157	10.94
290.371	10.95
290.584	11.12
290.798	10.16
291.012	7.76
291.226	7.21
291.44	6.05
291.654	6.71
291.867	5.63
292.081	7.14
292.295	8.43
292.509	8.85
292.722	7.83
292.936	9.11
293.15	12.05
293.364	12.27
293.577	13.5
293.791	14.08
294.005	14.61
294.218	15.07
294.432	13.52
294.645	12.71
294.859	13.46
295.073	13.77
295.286	13.48
295.5	11.06
295.713	12.31
295.927	10.94
296.14	10.91
296.354	10.16
296.568	10.62
296.781	11.99
296.994	11.85
297.208	11.38
297.421	11.42
297.635	10.6
297.848	10.4
298.062	8.64
298.275	10.02
298.489	10.27
298.702	9.41
298.915	8.48
299.129	7.97
299.342	7.04
299.555	7.18
299.769	6.89
299.982	8.23
300.195	10.05
300.409	11.09
300.622	9.88
300.835	9.48
301.048	10.51
301.262	11.5
301.475	9.39
301.688	8.83
301.901	8.81
302.115	6.99
302.328	5.15
302.541	2.62
302.754	3.6
302.967	5.47
303.18	5.65
303.393	5.31
303.607	5.57
303.82	6.59
304.033	6.88
304.246	6.3
304.459	8.57
304.672	9.06
304.885	10.92
305.098	10.03
305.311	9.12
305.524	9.31
305.737	9.57
305.95	11.11
306.163	11.39
306.376	12.42
306.589	11.64
306.802	11.99
307.015	12.35
307.228	11.19
307.44	10.48
307.653	10.76
307.866	9.82
308.079	10.91
308.292	10.22
308.505	9.79
308.718	9.4
308.93	10.34
309.143	10.82
309.356	10.35
309.569	10.8
309.781	10.99
309.994	10.17
310.207	8.73
310.42	8.9
310.632	7.79
310.845	8.01
311.058	7.5
311.27	6.86
311.483	5.65
311.696	7.15
311.908	7.82
312.121	7.26
312.333	7.58
312.546	10.13
312.759	8.64
312.971	9.22
313.184	9.59
313.396	10.42
313.609	11.02
313.821	11.79
314.034	9.08
314.246	8.14
314.459	9.56
314.671	9.08
314.884	8.72
315.096	9.61
315.309	9.05
315.521	9.42
315.733	8.64
315.946	9.14
316.158	7.83
316.371	9.81
316.583	10.32
316.795	10.9
317.008	12.87
317.22	11.43
317.432	12.87
317.644	13.81
317.857	14.28
318.069	16.4
318.281	16.23
318.494	17.37
318.706	17.9
318.918	18.77
319.13	17.6
319.342	16.23
319.555	16.88
319.767	16.55
319.979	15.25
320.191	14.24
320.403	12.16
320.615	11.63
320.827	11.68
321.039	11.43
321.252	10.34
321.464	10.34
321.676	10.21
321.888	9.34
322.1	8.34
322.312	8.45
322.524	8.58
322.736	9.2
322.948	8.93
323.16	9.47
323.372	8.5
323.584	7.75
323.796	9.48
324.007	9.35
324.219	9.52
324.431	8.65
324.643	7.98
324.855	7.77
325.067	7.95
325.279	7.51
325.491	6.68
325.702	6.67
325.914	7.13
326.126	4.79
326.338	5.37
326.55	6.64
326.761	7.75
326.973	8.71
327.185	7.99
327.396	8.23
327.608	9.09
327.82	9.07
328.032	10.3
328.243	10.78
328.455	11.25
328.666	10.52
328.878	9.81
329.09	9.34
329.301	7.91
329.513	8.91
329.725	8.35
329.936	8.7
330.148	9.07
330.359	7.56
330.571	6.38
330.782	7.78
330.994	7.77
331.205	7.27
331.417	8.39
331.628	10.82
331.84	9.76
332.051	9.9
332.262	8.63
332.474	9.59
332.685	9.77
332.897	12.09
333.108	11.24
333.319	11.69
333.531	11.03
333.742	9.91
333.953	9.96
334.165	11.03
334.376	11.28
334.587	13.46
334.799	12.15
335.01	12.43
335.221	11.5
335.432	12.31
335.644	12.3
335.855	12.53
336.066	11.44
336.277	11.78
336.488	11
336.7	11.89
336.911	11.95
337.122	12.95
337.333	13.02
337.544	11.41
337.755	10.14
337.966	9
338.177	9.45
338.388	11.84
338.599	10.84
338.811	11.74
339.022	9.86
339.233	8.51
339.444	8.38
339.655	7.22
339.866	8.47
340.076	8.19
340.287	8.89
340.498	8.75
340.709	8.54
340.92	8.48
341.131	7.79
341.342	8.09
341.553	7.48
341.764	6.96
341.975	8.5
342.185	8.5
342.396	9.93
342.607	10.51
342.818	10.33
343.029	10.02
343.239	9.94
343.45	9.52
343.661	9.62
343.872	10.43
344.082	10.71
344.293	9.75
344.504	10.1
344.714	9.66
344.925	8.54
345.136	9.26
345.346	10.02
345.557	9.81
345.768	10.26
345.978	9.33
346.189	9.04
346.399	8.16
346.61	9.18
346.821	8.83
347.031	8.56
347.242	9.3
347.452	10.02
347.663	8.34
347.873	7.94
348.084	7.99
348.294	8.78
348.504	9.41
348.715	10.23
348.925	9.87
349.136	10.12
349.346	9.25
349.557	9.19
349.767	8.52
349.977	8.94
350.188	9.05
350.398	9.41
350.608	10.22
350.819	10.11
351.029	10.49
351.239	9.85
351.449	9.39
351.66	9.08
351.87	9.15
352.08	9.61
352.29	9.61
352.501	11.22
352.711	10.72
352.921	10.38
353.131	9.98
353.341	9.24
353.552	9.28
353.762	8.42
353.972	9.33
354.182	9.45
354.392	8.79
354.602	8.32
354.812	6.83
355.022	7.52
355.232	7.72
355.442	7.53
355.652	8.13
355.862	8.21
356.072	8.96
356.282	8.95
356.492	9.26
356.702	8.77
356.912	8.5
357.122	7.99
357.332	7.81
357.542	7.97
357.752	7.29
357.962	7
358.171	6.06
358.381	5.93
358.591	5.79
358.801	5.67
359.011	5.64
359.221	6.79
359.43	7.92
359.64	7.79
359.85	7.6
360.06	7.84
360.269	8.25
360.479	8.65
360.689	8.71
360.899	8.89
361.108	8.81
361.318	8.84
361.528	8.47
361.737	7.87
361.947	7.97
362.156	7.79
362.366	7.4
362.576	6.44
362.785	7.12
362.995	6.81
363.204	6.81
363.414	6.61
363.623	6.35
363.833	6.49
364.042	6.54
364.252	5.82
364.461	5.59
364.671	6.05
364.88	6.61
365.09	5.95
365.299	6.32
365.509	6.6
365.718	6.76
365.927	7.5
366.137	7.6
366.346	7.49
366.555	7.18
366.765	6.6
366.974	6.3
367.183	6.56
367.393	6.83
367.602	6.55
367.811	6.34
368.021	6.22
368.23	6.53
368.439	5.69
368.648	5.65
368.857	6.16
369.067	7.5
369.276	8.4
369.485	8.24
369.694	7.72
369.903	7.81
370.112	6.97
370.321	6.07
370.531	4.55
370.74	4.77
370.949	5.59
371.158	6.01
371.367	5.51
371.576	4.74
371.785	4.26
371.994	4.55
372.203	4.49
372.412	4.37
372.621	5.33
372.83	5.9
373.039	5.56
373.248	4.44
373.457	4.39
373.666	4.67
373.874	4.84
374.083	4.69
374.292	4.63
374.501	4.88
374.71	5.14
374.919	4.67
375.128	5.44
375.336	5.73
375.545	6.68
375.754	6.25
375.963	6.08
376.171	5.9
376.38	6.42
376.589	6.59
376.798	6.07
377.006	6.46
377.215	6.86
377.424	5.99
377.632	5.99
377.841	5.45
378.05	5.99
378.258	5.18
378.467	5.22
378.675	5
378.884	5.05
379.093	5.21
379.301	4.65
379.51	4.23
379.718	4.54
379.927	4.69
380.135	4.96
380.344	4.76
380.552	5.53
380.761	6.11
380.969	5.88
381.177	5.98
381.386	5.88
381.594	5.85
381.803	5.9
382.011	5.69
382.219	5.81
382.428	5.77
382.636	5.54
382.845	5.8
383.053	5.8
383.261	5.76
383.469	4.88
383.678	4.77
383.886	5.01
384.094	5.06
384.302	5.16
384.511	4.93
384.719	4.68
384.927	4.54
385.135	3.9
385.343	3.5
385.552	3.1
385.76	3.15
385.968	3.34
386.176	3.47
386.384	3.4
386.592	3.3
386.8	3.13
387.008	3.71
387.216	3.62
387.424	3.64
387.633	3.78
387.841	4.31
388.049	4.71
388.257	4.83
388.465	4.63
388.672	4.38
388.88	4.63
389.088	4.89
389.296	4.32
389.504	4.43
389.712	4.1
389.92	3.7
390.128	3.72
390.336	3.5
390.544	3.43
390.751	3.7
390.959	3.83
391.167	3.69
391.375	3.21
391.583	3.29
391.79	3.28
391.998	3.47
392.206	3.51
392.414	3.73
392.621	3.81
392.829	3.9
393.037	3.44
393.244	3.69
393.452	3.61
393.66	3.86
393.867	3.81
394.075	3.78
394.283	4.13
394.49	4.2
394.698	3.64
394.905	3.78
395.113	3.64
395.32	4.05
395.528	3.41
395.735	2.76
395.943	2.84
396.15	2.7
396.358	2.48
396.565	2.33
396.773	2.26
396.98	2.55
397.188	2.3
397.395	1.97
397.602	1.96
397.81	2.36
398.017	2.77
398.225	2.69
398.432	2.66
398.639	2.7
398.847	2.32
399.054	2.44
399.261	2.27
399.468	2.22
399.676	2.41
399.883	1.86
400.09	1.88
400.297	1.74
400.505	1.36
400.712	1.43
400.919	1.58
401.126	1.91
401.333	1.69
401.54	1.92
401.748	1.76
401.955	1.71
402.162	1.99
402.369	2.18
402.576	2.27
402.783	2.61
402.99	2.73
403.197	2.55
403.404	2.41
403.611	2.79
403.818	2.8
404.025	3.15
404.232	3.07
404.439	2.94
404.646	2.51
404.853	2.65
405.06	2.5
405.267	2.48
405.474	2.43
405.681	2.49
405.887	2.05
406.094	2.11
406.301	2.02
406.508	2.27
406.715	2.49
406.922	2.88
407.128	3.32
407.335	3.41
407.542	3.41
407.749	3.5
407.955	3.54
408.162	3.61
408.369	3.16
408.575	3.38
408.782	3.31
408.989	3.26
409.195	2.69
409.402	2
409.609	2.02
409.815	1.86
410.022	1.92
410.228	1.9
410.435	2.21
410.642	2.33
410.848	1.85
411.055	1.65
411.261	1.88
411.468	2.18
411.674	2.61
411.881	2.54
412.087	2.58
412.294	2.54
412.5	2.35
412.706	2.3
412.913	2.12
413.119	2.12
413.326	2.24
413.532	1.89
413.738	1.77
413.945	1.67
414.151	1.79
414.357	1.72
414.564	1.84
414.77	2.13
414.976	2.15
415.182	2.3
415.389	2.46
415.595	2.34
415.801	2.63
416.007	2.71
416.214	2.59
416.42	2.51
416.626	2.61
416.832	2.37
417.038	2.48
417.244	2.54
417.45	2.7
417.657	2.78
417.863	3.1
418.069	3.04
418.275	2.74
418.481	2.82
418.687	2.74
418.893	2.85
419.099	2.99
419.305	2.81
419.511	2.53
419.717	2.42
419.923	2.37
420.129	2.27
420.335	2.14
420.541	2.39
420.746	2.47
420.952	2.48
421.158	2.37
421.364	2.32
421.57	2.35
421.776	2.46
421.982	2.57
422.187	2.62
422.393	2.47
422.599	2.47
422.805	2.56
423.01	2.49
423.216	2.4
423.422	2.35
423.628	2.45
423.833	2.34
424.039	2.3
424.245	2.24
424.45	2.22
424.656	2.37
424.862	2.36
425.067	2.25
425.273	2.33
425.478	2.45
425.684	2.55
425.889	2.54
426.095	2.76
426.301	2.82
426.506	2.66
426.712	2.57
426.917	2.39
427.123	2.58
427.328	2.61
427.533	2.54
427.739	2.66
427.944	2.56
428.15	2.41
428.355	2.18
428.561	2.07
428.766	2.33
428.971	2.23
429.177	2.44
429.382	2.44
429.587	2.33
429.793	2.12
429.998	2.23
430.203	2.11
430.408	2.14
430.614	2.22
430.819	2.43
431.024	2.33
431.229	2.5
431.434	2.39
431.64	2.13
431.845	2.24
432.05	2.39
432.255	2.12
432.46	2.38
432.665	2.33
432.87	2.14
433.076	2.21
433.281	2.21
433.486	2.24
433.691	2.25
433.896	2.22
434.101	2.1
434.306	2.16
434.511	2.19
434.716	2.14
434.921	2.12
435.126	2.43
435.331	2.15
435.535	2.21
435.74	2.19
435.945	2.05
436.15	2.17
436.355	2.22
436.56	2.17
436.765	2.37
436.97	2.34
437.174	2.4
437.379	2.21
437.584	2.25
437.789	2.17
437.993	2.07
438.198	2.25
438.403	2.24
438.608	2.34
438.812	2.34
439.017	2.26
439.222	2.38
439.426	2.38
439.631	2.31
439.836	2.43
440.04	2.35
440.245	2.42
440.45	2.37
440.654	2.3
440.859	2.22
441.063	2.11
441.268	1.96
441.472	1.86
441.677	1.91
441.881	2
442.086	1.85
442.29	2.01
442.495	2.13
442.699	2.14
442.904	2.37
443.108	2.45
443.312	2.56
443.517	2.6
443.721	2.56
443.925	2.48
444.13	2.42
444.334	2.66
444.538	2.67
444.743	2.67
444.947	2.7
445.151	2.51
445.356	2.44
445.56	2.31
445.764	2.38
445.968	2.43
446.173	2.54
446.377	2.66
446.581	2.47
446.785	2.45
446.989	2.32
447.193	2.28
447.398	2.38
447.602	2.39
447.806	2.46
448.01	2.46
448.214	2.41
448.418	2.23
448.622	2.13
448.826	2.18
449.03	2.11
449.234	2.01
449.438	1.91
449.642	1.88
449.846	1.87
450.05	1.87
450.254	1.93
450.458	1.92
450.662	2.09
450.866	2.12
451.069	2.13
451.273	2.18
451.477	2.3
451.681	2.52
451.885	2.36
452.089	2.24
452.292	2.24
452.496	2.16
452.7	2.2
452.904	2.17
453.107	2.17
453.311	2.15
453.515	2.13
453.719	2.13
453.922	1.92
454.126	2.08
454.33	2.26
454.533	2.3
454.737	2.08
454.94	2.11
455.144	2.03
455.348	2.07
455.551	2.06
455.755	1.82
455.958	1.8
456.162	1.65
456.365	1.55
456.569	1.58
456.772	1.52
456.976	1.85
457.179	1.93
457.383	1.98
457.586	1.97
457.79	2.05
457.993	2.09
458.196	2.03
458.4	2.12
458.603	2.21
458.807	2.22
459.01	2.27
459.213	2.21
459.417	2.13
459.62	2
459.823	1.92
460.026	1.95
460.23	1.94
460.433	2.06
460.636	2.13
460.839	1.94
461.042	1.97
461.246	1.97
461.449	2
461.652	2.03
461.855	2.23
462.058	2.32
462.261	2.22
462.464	2.59
462.668	2.39
462.871	2.5
463.074	2.73
463.277	2.59
463.48	2.41
463.683	2.32
463.886	2.03
464.089	2.16
464.292	2.12
464.495	2.24
464.698	2.03
464.901	2.15
465.104	2.04
465.306	2.12
465.509	2.13
465.712	2.28
465.915	2.31
466.118	2.68
466.321	2.59
466.524	2.65
466.726	2.57
