Data from 2938013_Reflection_1.txt Node
Date: Sun Jul 12 15:39:56 EDT 2015
User: robert
Spectrometer: USB4E03001
Autoset integration time: false
Trigger mode: 4
Integration Time (sec): 1.000000E-1
Scans to average: 10
Electric dark correction enabled: true
Nonlinearity correction enabled: false
Boxcar width: 5
Stray light correction enabled: false
XAxis mode: Wavelengths
Stop averaging: false
Number of Pixels in Spectrum: 3648
>>>>>Begin Spectral Data<<<<<
177.566	40.01
177.785	46.31
178.005	76.32
178.225	41.13
178.445	88.75
178.665	42.38
178.885	-40.26
179.105	-16.3
179.324	-41.34
179.544	-11.28
179.764	-4
179.984	59.63
180.204	79.51
180.423	93.84
180.643	148.49
180.863	197.58
181.083	109.01
181.302	84.74
181.522	0.25
181.742	-38.2
181.961	15.37
182.181	11.7
182.401	39.84
182.621	24.68
182.84	7.38
183.06	30.81
183.279	17.08
183.499	1.71
183.719	10.85
183.938	-4.8
184.158	3.32
184.377	-28.15
184.597	6.19
184.816	4.51
185.036	-19.5
185.256	40.31
185.475	38.83
185.695	58.73
185.914	42.21
186.134	38.69
186.353	42.93
186.572	18.91
186.792	-1.17
187.011	-49.94
187.231	-82.29
187.45	-72.39
187.67	-222.9
187.889	-117.78
188.108	-159.63
188.328	-154.16
188.547	-149.65
188.766	-252.27
188.986	-701.12
189.205	-441.82
189.424	-398.81
189.644	-889.54
189.863	-718.94
190.082	-243.12
190.302	-436.05
190.521	16750
190.74	740.31
190.959	433.42
191.178	434.57
191.398	767.49
191.617	-1151.6
191.836	-585.58
192.055	-286.32
192.274	-209.61
192.494	-86.04
192.713	-183.75
192.932	-80.21
193.151	13.82
193.37	13.52
193.589	-153.69
193.808	-47.76
194.027	-54.89
194.246	-436
194.465	284.53
194.685	1024.7
194.904	153.46
195.123	194.96
195.342	727.7
195.561	368.1
195.78	444.97
195.999	-593.26
196.218	-357.73
196.436	-338.5
196.655	-308.06
196.874	-188.5
197.093	-240.57
197.312	-99.66
197.531	-49.23
197.75	-22.16
197.969	0.02
198.188	13.15
198.407	19.95
198.625	35.95
198.844	30.26
199.063	9.43
199.282	8.15
199.501	-20.17
199.719	-13.83
199.938	-127.78
200.157	-337.78
200.376	-157.71
200.594	-275.5
200.813	2157.8
201.032	-336.77
201.251	-289.22
201.469	2845.81
201.688	513.09
201.907	296.27
202.125	247.3
202.344	333.77
202.563	338.7
202.781	174.89
203	149.7
203.218	198.11
203.437	170.66
203.656	144.53
203.874	139.03
204.093	121.51
204.311	121.65
204.53	88.42
204.748	73.76
204.967	31.31
205.185	-79.61
205.404	-18.21
205.622	-353.54
205.841	-200.83
206.059	-75.12
206.278	80.16
206.496	146.12
206.715	-582.16
206.933	-7.59
207.151	-47.42
207.37	-182.14
207.588	-337.16
207.806	-231.29
208.025	-686.18
208.243	-670.33
208.461	-414.41
208.68	-3793.94
208.898	-338.61
209.116	-154.41
209.335	-81.33
209.553	-1097.92
209.771	918.68
209.989	935.02
210.208	347.4
210.426	289.6
210.644	228.45
210.862	497.49
211.081	-2
211.299	-114.95
211.517	711.2
211.735	142.91
211.953	327.17
212.171	-196.63
212.39	-450.86
212.608	-153.45
212.826	-31.4
213.044	-31.44
213.262	-26.03
213.48	-53.72
213.698	-11.26
213.916	-28.09
214.134	4.61
214.352	-10.44
214.57	-13.3
214.788	-13.57
215.006	-51.76
215.224	-85.77
215.442	-98.84
215.66	-94.43
215.878	-97.69
216.096	-103.4
216.314	-52.22
216.532	-101.96
216.75	-58.6
216.968	-79.59
217.185	-35.77
217.403	-56.65
217.621	-66.08
217.839	-22.09
218.057	-18.41
218.275	-15.19
218.492	-54.46
218.71	-65.34
218.928	-0.67
219.146	-53.92
219.363	-16.53
219.581	-174.94
219.799	-98.65
220.017	-15100
220.234	280.37
220.452	260.25
220.67	-2305.83
220.887	-122.07
221.105	70.54
221.323	-54.95
221.54	8.54
221.758	-15.64
221.976	23.3
222.193	29.82
222.411	24.25
222.629	36.21
222.846	43.1
223.064	34.94
223.281	-83.77
223.499	-148.42
223.716	-70.77
223.934	-42.64
224.151	-38.88
224.369	-75.57
224.586	-71.7
224.804	-40.25
225.021	-84.33
225.239	-111.72
225.456	-86.79
225.674	-37.8
225.891	-32.8
226.108	-28.18
226.326	-39.32
226.543	-47.75
226.76	-16.49
226.978	-18.63
227.195	-36.79
227.413	-20.96
227.63	-6.18
227.847	-6.47
228.064	-7.26
228.282	-7.42
228.499	-5.92
228.716	0.89
228.934	3.86
229.151	2.57
229.368	7.72
229.585	5.71
229.802	9.7
230.02	8.11
230.237	11.88
230.454	16.4
230.671	15.96
230.888	11.14
231.105	1.56
231.323	3.93
231.54	1.21
231.757	-0.49
231.974	6.02
232.191	-3.23
232.408	-1.81
232.625	-1.79
232.842	-11.12
233.059	-16.54
233.276	-13.66
233.493	-11.29
233.71	-9.39
233.927	-20
234.144	-33.69
234.361	-26.05
234.578	-14.52
234.795	-6.69
235.012	-6.51
235.229	-9.41
235.446	-5.28
235.663	-1.31
235.879	2.32
236.096	-6.21
236.313	-1.25
236.53	6.08
236.747	5.51
236.964	4.69
237.181	1.88
237.397	-4.52
237.614	-0.13
237.831	-1.22
238.048	0.92
238.264	3.58
238.481	10.21
238.698	12.81
238.915	12.93
239.131	10.77
239.348	11.82
239.565	11.13
239.781	11.16
239.998	12.92
240.215	11.32
240.431	7.76
240.648	5.77
240.865	4.29
241.081	3.64
241.298	3.6
241.514	4.21
241.731	2.5
241.947	5.1
242.164	3.42
242.38	2.42
242.597	6.17
242.814	11.03
243.03	12.41
243.246	14.4
243.463	15.35
243.679	14.25
243.896	15.58
244.112	18.29
244.329	18.95
244.545	19.66
244.762	20.96
244.978	22.89
245.194	19.62
245.411	16.96
245.627	16.34
245.843	16.19
246.06	18.81
246.276	17.86
246.492	15.31
246.709	15.16
246.925	15.82
247.141	15.72
247.357	15.41
247.574	14.91
247.79	15.54
248.006	14.61
248.222	14.59
248.439	12.3
248.655	12.16
248.871	12.96
249.087	13.14
249.303	13.62
249.519	13.69
249.736	14.13
249.952	14
250.168	13.7
250.384	14.52
250.6	14.41
250.816	17.47
251.032	17.64
251.248	17.5
251.464	17.06
251.68	15.42
251.896	12.43
252.112	11.98
252.328	13.7
252.544	12.88
252.76	11.42
252.976	10.71
253.192	11.64
253.408	12.27
253.624	10.9
253.84	10.72
254.056	11.37
254.272	14.71
254.487	13.02
254.703	12.07
254.919	14.32
255.135	17.62
255.351	16.65
255.567	14.71
255.782	14.94
255.998	15.63
256.214	12.03
256.43	12.64
256.646	15.18
256.861	13.84
257.077	13.32
257.293	11.1
257.508	11.41
257.724	12.48
257.94	10.01
258.155	6.29
258.371	8.09
258.587	9.79
258.802	10.64
259.018	10.14
259.234	11.89
259.449	12.75
259.665	13.74
259.88	13.23
260.096	12.96
260.312	12.76
260.527	13.63
260.743	12.82
260.958	13.49
261.174	12.01
261.389	11.36
261.605	8.97
261.82	7.75
262.036	6.11
262.251	6.69
262.466	6.56
262.682	8.72
262.897	7.03
263.113	7.81
263.328	6.8
263.543	9.44
263.759	7.3
263.974	8.1
264.189	8.09
264.405	9.24
264.62	5.71
264.835	2.75
265.051	0.56
265.266	0.68
265.481	2.43
265.696	1.97
265.912	0.79
266.127	-0.08
266.342	1.21
266.557	2.16
266.773	2.2
266.988	3.31
267.203	6.32
267.418	5.56
267.633	6.53
267.848	6.12
268.064	6.18
268.279	7.74
268.494	10.1
268.709	11.63
268.924	10.82
269.139	12.14
269.354	12.13
269.569	12.75
269.784	13.63
269.999	12.91
270.214	11.79
270.429	10.99
270.644	11.9
270.859	11.3
271.074	8.99
271.289	7.53
271.504	7.05
271.719	7.42
271.934	6.32
272.149	7.36
272.363	7.41
272.578	6.68
272.793	7.98
273.008	8.52
273.223	9.7
273.438	10.7
273.653	12.24
273.867	12.5
274.082	12.95
274.297	13.07
274.512	13.13
274.726	12.77
274.941	13.62
275.156	13.17
275.371	9.27
275.585	10.22
275.8	8.91
276.015	11.66
276.229	12.47
276.444	11.84
276.659	11.26
276.873	10.79
277.088	10.59
277.302	9.8
277.517	8.34
277.732	12.48
277.946	10.04
278.161	10.81
278.375	7.52
278.59	6.27
278.804	7.23
279.019	5.57
279.233	5.05
279.448	6.99
279.662	8.04
279.877	11.45
280.091	9.08
280.306	9.13
280.52	9.04
280.735	8.61
280.949	7.89
281.163	9.77
281.378	10.85
281.592	11.33
281.806	11.4
282.021	11.04
282.235	10.46
282.449	10.22
282.664	10.79
282.878	11.58
283.092	12.08
283.307	12.68
283.521	7.89
283.735	7.44
283.949	8.07
284.164	8.11
284.378	9.18
284.592	7.81
284.806	8.63
285.02	7.17
285.234	6.13
285.449	6.32
285.663	4.79
285.877	7.56
286.091	8.07
286.305	8.56
286.519	8.04
286.733	5.98
286.947	7.07
287.161	5.51
287.375	7.71
287.589	8.27
287.803	9.53
288.017	11.61
288.231	9.66
288.445	10.32
288.659	8.45
288.873	9.02
289.087	10.76
289.301	9.29
289.515	10.05
289.729	9.37
289.943	9.08
290.157	7.5
290.371	5.75
290.584	7.7
290.798	8.79
291.012	8.98
291.226	9.46
291.44	8.55
291.654	8.99
291.867	10.11
292.081	9.59
292.295	11.1
292.509	9.83
292.722	11.81
292.936	9.86
293.15	7.59
293.364	7.43
293.577	7.74
293.791	10.04
294.005	8.82
294.218	7.85
294.432	7.93
294.645	8
294.859	9.94
295.073	10.34
295.286	13.03
295.5	12.83
295.713	12.43
295.927	11.03
296.14	9.37
296.354	11.43
296.568	11.93
296.781	12.96
296.994	11.59
297.208	11.48
297.421	11.57
297.635	11.05
297.848	12.18
298.062	13.06
298.275	14.45
298.489	13.93
298.702	13.69
298.915	14.23
299.129	14.05
299.342	13.69
299.555	13.16
299.769	12.21
299.982	11.32
300.195	10.1
300.409	10.47
300.622	8.13
300.835	9.65
301.048	10.79
301.262	9.58
301.475	8.1
301.688	11.16
301.901	10.63
302.115	12.63
302.328	10.86
302.541	12.34
302.754	11.14
302.967	13.91
303.18	16.61
303.393	15.72
303.607	17.05
303.82	18.86
304.033	19.04
304.246	19.86
304.459	16.88
304.672	18.34
304.885	18.73
305.098	19.7
305.311	18.09
305.524	15.62
305.737	14.25
305.95	12.7
306.163	10.96
306.376	10.51
306.589	11.02
306.802	14.09
307.015	15.93
307.228	15.29
307.44	15.96
307.653	14.86
307.866	15.24
308.079	14.26
308.292	14.65
308.505	14.15
308.718	11.65
308.93	12.41
309.143	11.42
309.356	10.62
309.569	10.23
309.781	10.9
309.994	13.22
310.207	13.61
310.42	15.88
310.632	15.58
310.845	15.83
311.058	17.11
311.27	16.91
311.483	15.46
311.696	16.07
311.908	16.01
312.121	13.92
312.333	14.8
312.546	15.98
312.759	14.47
312.971	14.31
313.184	15.09
313.396	14.92
313.609	13.37
313.821	13.92
314.034	12.16
314.246	14.49
314.459	14.16
314.671	10.39
314.884	9.38
315.096	10.82
315.309	12.52
315.521	13.91
315.733	12.94
315.946	15.17
316.158	15.5
316.371	15.37
316.583	12.96
316.795	12.16
317.008	14.21
317.22	13.15
317.432	12.37
317.644	11.04
317.857	9.18
318.069	10.69
318.281	9.69
318.494	9.81
318.706	11.88
318.918	12.8
319.13	14.7
319.342	16.01
319.555	15.06
319.767	14.02
319.979	13.1
320.191	14.33
320.403	14.21
320.615	14.44
320.827	15.08
321.039	13.57
321.252	12.57
321.464	11.34
321.676	9.4
321.888	11.42
322.1	11.42
322.312	11.14
322.524	7.69
322.736	9.1
322.948	8.15
323.16	9.24
323.372	10.06
323.584	8.57
323.796	11.85
324.007	10.02
324.219	7.33
324.431	6.67
324.643	7.96
324.855	10.33
325.067	9.76
325.279	9.66
325.491	7.3
325.702	6.58
325.914	6.61
326.126	4.83
326.338	6.81
326.55	9.68
326.761	11.88
326.973	12.99
327.185	10.99
327.396	11.12
327.608	12.3
327.82	13.17
328.032	11.61
328.243	11.71
328.455	11.54
328.666	11.18
328.878	9.24
329.09	10.28
329.301	10.55
329.513	12.68
329.725	12.58
329.936	11.03
330.148	10.4
330.359	12.33
330.571	13.41
330.782	11.76
330.994	10.72
331.205	12.53
331.417	8.9
331.628	6.85
331.84	6.63
332.051	6.06
332.262	4.81
332.474	6.56
332.685	7.34
332.897	9.24
333.108	9.44
333.319	10.91
333.531	9.7
333.742	12.36
333.953	12.31
334.165	12.72
334.376	12.25
334.587	16.11
334.799	15.23
335.01	15.55
335.221	15.06
335.432	16.89
335.644	16.83
335.855	16.8
336.066	15.14
336.277	16.85
336.488	16.53
336.7	17.44
336.911	15.3
337.122	16.84
337.333	17.4
337.544	15.6
337.755	15.03
337.966	14.62
338.177	15.92
338.388	17
338.599	16.26
338.811	16.65
339.022	17.66
339.233	18.68
339.444	16.36
339.655	14.84
339.866	15.65
340.076	16.12
340.287	15.99
340.498	16.06
340.709	16.09
340.92	16.34
341.131	16.24
341.342	14.46
341.553	14.83
341.764	15.72
341.975	16.48
342.185	17.01
342.396	15.64
342.607	17.08
342.818	16.97
343.029	16.51
343.239	16.26
343.45	15.74
343.661	16.82
343.872	17.49
344.082	19.46
344.293	20.58
344.504	21.11
344.714	21.16
344.925	20.16
345.136	20.49
345.346	21.16
345.557	22.22
345.768	22.34
345.978	21.46
346.189	20.83
346.399	19.77
346.61	18.52
346.821	16.39
347.031	17.23
347.242	16.67
347.452	16.15
347.663	14.5
347.873	14.43
348.084	15.24
348.294	14.37
348.504	15
348.715	12.65
348.925	13.36
349.136	15.91
349.346	16.76
349.557	17.19
349.767	16.94
349.977	18.84
350.188	16.73
350.398	14.33
350.608	16.3
350.819	15.57
351.029	16.32
351.239	15.06
351.449	16.24
351.66	15.53
351.87	15.01
352.08	15.65
352.29	15.88
352.501	16.85
352.711	18.6
352.921	17.24
353.131	16.96
353.341	17.3
353.552	17.83
353.762	16.43
353.972	16.45
354.182	17.46
354.392	16.5
354.602	14.06
354.812	15.43
355.022	15.44
355.232	15.23
355.442	16.08
355.652	16.99
355.862	16.81
356.072	14.85
356.282	13.65
356.492	13.36
356.702	14.15
356.912	16.02
357.122	16.01
357.332	16.57
357.542	16.59
357.752	15.52
357.962	15.77
358.171	16.81
358.381	17.65
358.591	17.86
358.801	17.93
359.011	16.47
359.221	15.57
359.43	14.78
359.64	14.76
359.85	15.29
360.06	15.16
360.269	15.04
360.479	14.62
360.689	15.18
360.899	15.83
361.108	15.61
361.318	16.66
361.528	17.03
361.737	16.93
361.947	16.13
362.156	16.99
362.366	17.61
362.576	17.12
362.785	17.54
362.995	17.35
363.204	17.39
363.414	18.03
363.623	17.92
363.833	18.41
364.042	18.56
364.252	19.82
364.461	19.19
364.671	19.1
364.88	19.75
365.09	19.84
365.299	19.97
365.509	19.91
365.718	19.66
365.927	18.92
366.137	18.37
366.346	18.51
366.555	17.17
366.765	16.8
366.974	16.98
367.183	15.44
367.393	14.54
367.602	13.28
367.811	13.27
368.021	12.46
368.23	13.81
368.439	13.53
368.648	12.25
368.857	12.25
369.067	11.95
369.276	10.81
369.485	11.59
369.694	12.01
369.903	12.22
370.112	11.79
370.321	11.95
370.531	10.72
370.74	9.33
370.949	10.82
371.158	11.55
371.367	11.99
371.576	12.18
371.785	12.41
371.994	12.06
372.203	13.8
372.412	13.72
372.621	13.36
372.83	14.19
373.039	15.07
373.248	13.38
373.457	12.7
373.666	12.13
373.874	11.69
374.083	11.48
374.292	11.68
374.501	10.45
374.71	9.9
374.919	10.55
375.128	9.85
375.336	10.06
375.545	11.41
375.754	11.72
375.963	12.06
376.171	12.44
376.38	13.1
376.589	12.97
376.798	13.3
377.006	14.04
377.215	14.54
377.424	14.61
377.632	14.17
377.841	13.94
378.05	14.13
378.258	14.25
378.467	14.45
378.675	13.88
378.884	13.88
379.093	13.06
379.301	12.99
379.51	12.21
379.718	12.53
379.927	12.62
380.135	12.36
380.344	12.99
380.552	13.11
380.761	13.01
380.969	12.77
381.177	12.41
381.386	13.61
381.594	13.82
381.803	14.07
382.011	13.45
382.219	13.16
382.428	12.77
382.636	11.91
382.845	10.91
383.053	10.52
383.261	10.69
383.469	10.68
383.678	9.96
383.886	9.84
384.094	9.79
384.302	10.31
384.511	11.18
384.719	11.92
384.927	11.7
385.135	11.75
385.343	11.61
385.552	11.08
385.76	10.9
385.968	11.07
386.176	10.37
386.384	9.89
386.592	9.76
386.8	9.37
387.008	9.04
387.216	8.75
387.424	9.13
387.633	9.24
387.841	9.45
388.049	9.64
388.257	9.16
388.465	9.19
388.672	9.32
388.88	9.45
389.088	9.72
389.296	9.43
389.504	10.28
389.712	10.03
389.92	9.35
390.128	8.61
390.336	8.61
390.544	8.43
390.751	8.19
390.959	8.62
391.167	7.96
391.375	7.8
391.583	7.95
391.79	7.59
391.998	7.68
392.206	8.19
392.414	8.76
392.621	8.83
392.829	8.99
393.037	9.5
393.244	9.33
393.452	9.25
393.66	9.17
393.867	8.95
394.075	8.44
394.283	8.18
394.49	8
394.698	7.61
394.905	7.37
395.113	7
395.32	6.5
395.528	5.83
395.735	5.93
395.943	5.64
396.15	5.79
396.358	5.88
396.565	5.92
396.773	6.1
396.98	6.6
397.188	6.1
397.395	6.44
397.602	6.46
397.81	6.87
398.017	6.55
398.225	6.61
398.432	6.86
398.639	6.9
398.847	7.19
399.054	7.02
399.261	7.32
399.468	7.48
399.676	7.46
399.883	7.83
400.09	7.81
400.297	8.39
400.505	8.66
400.712	8.32
400.919	8.05
401.126	7.87
401.333	8.06
401.54	7.78
401.748	7.63
401.955	7.65
402.162	7.44
402.369	7.37
402.576	7.03
402.783	6.86
402.99	7.08
403.197	7.4
403.404	7.58
403.611	7.7
403.818	7.76
404.025	7.95
404.232	8.07
404.439	7.82
404.646	7.63
404.853	7.79
405.06	7.77
405.267	8.03
405.474	7.92
405.681	7.62
405.887	7.23
406.094	6.96
406.301	7.01
406.508	6.77
406.715	7.08
406.922	7
407.128	6.69
407.335	6.45
407.542	5.99
407.749	6.24
407.955	5.98
408.162	6.32
408.369	6.46
408.575	6.84
408.782	6.9
408.989	6.8
409.195	6.89
409.402	7.01
409.609	7.56
409.815	7.48
410.022	7.05
410.228	7.37
410.435	6.95
410.642	7.05
410.848	6.87
411.055	7.02
411.261	7.41
411.468	7.43
411.674	7.45
411.881	6.93
412.087	6.8
412.294	7.27
412.5	7.32
412.706	7.62
412.913	7.48
413.119	7.26
413.326	7.42
413.532	6.89
413.738	7.09
413.945	7.15
414.151	7.27
414.357	7
414.564	6.54
414.77	6.36
414.976	6.4
415.182	6.25
415.389	6.17
415.595	6
415.801	6.01
416.007	5.98
416.214	5.82
416.42	5.8
416.626	5.97
416.832	6.41
417.038	6.34
417.244	6.24
417.45	6.27
417.657	6.52
417.863	6.5
418.069	6.56
418.275	6.38
418.481	6.43
418.687	6.39
418.893	6.66
419.099	6.51
419.305	6.67
419.511	6.79
419.717	6.91
419.923	6.79
420.129	6.73
420.335	6.75
420.541	6.76
420.746	6.71
420.952	6.82
421.158	6.74
421.364	6.66
421.57	6.72
421.776	6.57
421.982	6.5
422.187	6.29
422.393	6.36
422.599	6.46
422.805	6.39
423.01	6.48
423.216	6.48
423.422	6.26
423.628	6.22
423.833	6.1
424.039	6.05
424.245	6.05
424.45	6.13
424.656	5.95
424.862	5.67
425.067	5.83
425.273	5.75
425.478	5.59
425.684	5.47
425.889	5.58
426.095	5.47
426.301	5.25
426.506	5.16
426.712	5.21
426.917	5.52
427.123	5.54
427.328	5.4
427.533	5.31
427.739	5.42
427.944	5.71
428.15	5.6
428.355	5.46
428.561	5.65
428.766	5.61
428.971	6.02
429.177	5.91
429.382	6.01
429.587	6.12
429.793	6.22
429.998	6.34
430.203	6.5
430.408	6.62
430.614	6.8
430.819	7.22
431.024	7.19
431.229	6.67
431.434	6.62
431.64	6.72
431.845	6.68
432.05	6.77
432.255	6.66
432.46	6.31
432.665	6.16
432.87	5.98
433.076	5.78
433.281	5.77
433.486	6.1
433.691	5.96
433.896	5.71
434.101	5.64
434.306	5.63
434.511	5.82
434.716	6.05
434.921	6.1
435.126	6.4
435.331	6.53
435.535	6.73
435.74	6.47
435.945	6.57
436.15	6.65
436.355	6.57
436.56	6.5
436.765	6.29
436.97	6.33
437.174	6.19
437.379	6
437.584	5.67
437.789	5.49
437.993	5.67
438.198	5.89
438.403	5.96
438.608	6.08
438.812	6.13
439.017	6.07
439.222	6.02
439.426	6.24
439.631	6.29
439.836	6.29
440.04	6.07
440.245	6.17
440.45	5.85
440.654	5.94
440.859	5.93
441.063	5.94
441.268	5.99
441.472	5.85
441.677	5.8
441.881	5.8
442.086	6.01
442.29	6.15
442.495	5.94
442.699	6.06
442.904	5.86
443.108	5.88
443.312	5.93
443.517	5.87
443.721	5.98
443.925	5.93
444.13	5.99
444.334	5.96
444.538	6.06
444.743	6.01
444.947	5.96
445.151	6.24
445.356	6.21
445.56	6.03
445.764	5.95
445.968	5.82
446.173	5.77
446.377	5.72
446.581	5.64
446.785	5.63
446.989	5.76
447.193	5.76
447.398	5.7
447.602	5.74
447.806	5.86
448.01	5.83
448.214	5.99
448.418	5.91
448.622	6.05
448.826	5.92
449.03	6
449.234	5.89
449.438	5.97
449.642	5.88
449.846	5.64
450.05	5.56
450.254	5.63
450.458	5.6
450.662	5.77
450.866	5.57
451.069	5.96
451.273	5.87
451.477	5.83
451.681	5.86
451.885	5.85
452.089	6.02
452.292	6.16
452.496	6.34
452.7	6.13
452.904	5.82
453.107	5.81
453.311	5.61
453.515	5.48
453.719	5.6
453.922	5.62
454.126	5.56
454.33	5.65
454.533	5.16
454.737	5.1
454.94	5.18
455.144	5.41
455.348	5.41
455.551	5.31
455.755	5.29
455.958	4.99
456.162	4.87
456.365	4.87
456.569	4.74
456.772	4.99
456.976	4.86
457.179	4.73
457.383	4.75
457.586	4.63
457.79	4.96
457.993	4.96
458.196	5.28
458.4	5.33
458.603	5.59
458.807	5.51
459.01	5.65
459.213	5.64
459.417	5.79
459.62	5.76
459.823	5.79
460.026	5.97
460.23	6
460.433	5.87
460.636	5.86
460.839	5.64
461.042	5.79
461.246	5.71
461.449	5.46
461.652	5.53
461.855	5.53
462.058	5.45
