Data from 2938070_Reflection_3.txt Node
Date: Sat Jul 11 20:40:12 EDT 2015
User: robert
Spectrometer: USB4E03001
Autoset integration time: false
Trigger mode: 4
Integration Time (sec): 1.000000E-1
Scans to average: 10
Electric dark correction enabled: true
Nonlinearity correction enabled: false
Boxcar width: 5
Stray light correction enabled: false
XAxis mode: Wavelengths
Stop averaging: false
Number of Pixels in Spectrum: 3648
>>>>>Begin Spectral Data<<<<<
177.566	71.52
177.785	70.24
178.005	62.37
178.225	45.68
178.445	55.77
178.665	18.58
178.885	746.86
179.105	107.88
179.324	1151.85
179.544	371.4
179.764	322.63
179.984	179.38
180.204	165.1
180.423	425.65
180.643	-1472.04
180.863	-187.38
181.083	-63.23
181.302	-26.39
181.522	-40.24
181.742	-28.69
181.961	3.96
182.181	11.38
182.401	14.53
182.621	13.77
182.84	1.18
183.06	2.58
183.279	-87.22
183.499	-104.42
183.719	-217.58
183.938	-399.44
184.158	-202.19
184.377	-517.82
184.597	-311.94
184.816	-1099.31
185.036	420.44
185.256	655.94
185.475	259.88
185.695	677.21
185.914	276.9
186.134	-1360.06
186.353	-86.89
186.572	705.86
186.792	386.63
187.011	2407.51
187.231	-553.66
187.45	-421.72
187.67	-294.05
187.889	-167.49
188.108	-179.19
188.328	-154.48
188.547	-238.5
188.766	-845.66
188.986	-324.51
189.205	-129.61
189.424	-124.97
189.644	-87.91
189.863	-78.96
190.082	-68.36
190.302	-87.81
190.521	-157.68
190.74	-144.9
190.959	-216.29
191.178	-346.36
191.398	-291.56
191.617	-254.36
191.836	-938.5
192.055	-327.58
192.274	-193.34
192.494	-275.28
192.713	-180.46
192.932	-139.65
193.151	-195.45
193.37	-159.16
193.589	-190.56
193.808	-271.61
194.027	-370.87
194.246	-387.47
194.465	-354.59
194.685	-375.4
194.904	-499.08
195.123	-1153.58
195.342	-202.91
195.561	-232.14
195.78	-107.94
195.999	-15.25
196.218	8.18
196.436	-28.05
196.655	-42.51
196.874	-35.75
197.093	-20.09
197.312	-22.62
197.531	-7.98
197.75	-21.64
197.969	-22.12
198.188	-74.28
198.407	-534.89
198.625	-915.38
198.844	-740.22
199.063	801.06
199.282	582.56
199.501	319.95
199.719	473.08
199.938	352.16
200.157	351.05
200.376	325.11
200.594	219.12
200.813	211.44
201.032	320.7
201.251	466.92
201.469	402.71
201.688	-96114.29
201.907	-127.48
202.125	5069.05
202.344	-146.38
202.563	-115.23
202.781	-187.39
203	-215.26
203.218	-325.43
203.437	158.7
203.656	-42.05
203.874	-4.62
204.093	64.45
204.311	-1368.1
204.53	-20.52
204.748	-109.03
204.967	-223.52
205.185	-408.12
205.404	-201.73
205.622	-190.17
205.841	-499.2
206.059	-464.03
206.278	-802.38
206.496	2101.78
206.715	-1216.4
206.933	1132.13
207.151	1225.82
207.37	494.53
207.588	670.33
207.806	491.85
208.025	567.45
208.243	-208.01
208.461	-159.87
208.68	-336.88
208.898	-113.55
209.116	-65.95
209.335	-22.13
209.553	13.96
209.771	20.06
209.989	13.11
210.208	33.54
210.426	20.16
210.644	16.68
210.862	16.63
211.081	30.34
211.299	12.99
211.517	-75.49
211.735	-55.81
211.953	-921.65
212.171	960.92
212.39	-430.93
212.608	-515.29
212.826	-976.43
213.044	247.02
213.262	1817.75
213.48	985.32
213.698	464.97
213.916	1245.41
214.134	362.44
214.352	238.27
214.57	255.06
214.788	223.04
215.006	155.68
215.224	228.02
215.442	1369.21
215.66	678.63
215.878	-754.95
216.096	-127.42
216.314	-360
216.532	-287.09
216.75	-86.02
216.968	-52.19
217.185	-104.29
217.403	-287.27
217.621	-424.33
217.839	-287.17
218.057	2989.51
218.275	333.33
218.492	173.46
218.71	219.72
218.928	350.76
219.146	815.42
219.363	225
219.581	-233.78
219.799	-27.81
220.017	31.46
220.234	2.75
220.452	-14.41
220.67	-17.23
220.887	-7.84
221.105	-14.04
221.323	-9.36
221.54	-25.77
221.758	-23.72
221.976	-15.46
222.193	-3.44
222.411	-25.55
222.629	-27.53
222.846	-10.78
223.064	-23.72
223.281	0.08
223.499	-7.96
223.716	-15.27
223.934	-28.14
224.151	-18.14
224.369	-37.76
224.586	-69.18
224.804	-37.34
225.021	-45.04
225.239	-48.8
225.456	-25.06
225.674	-70.88
225.891	-50.34
226.108	-56.38
226.326	-36.11
226.543	-32.05
226.76	-13.81
226.978	4.58
227.195	5.87
227.413	-0.38
227.63	-0.59
227.847	0.29
228.064	-0.23
228.282	-1.12
228.499	0.26
228.716	2.43
228.934	3.97
229.151	2.29
229.368	-1.99
229.585	0.26
229.802	2.34
230.02	2.44
230.237	3.12
230.454	8.41
230.671	5.86
230.888	2.02
231.105	-0.23
231.323	-0.53
231.54	-1.62
231.757	2.03
231.974	-3.2
232.191	-3.17
232.408	-9.64
232.625	-7.07
232.842	-14.93
233.059	-7.66
233.276	0.02
233.493	1.81
233.71	3.81
233.927	8.59
234.144	-1.47
234.361	-4.75
234.578	-14.04
234.795	-2.93
235.012	-10.28
235.229	-3.11
235.446	-1.52
235.663	-2.89
235.879	-3.52
236.096	-9.3
236.313	-14.11
236.53	-5.38
236.747	-0.94
236.964	7.91
237.181	11.38
237.397	15.11
237.614	5.58
237.831	2.96
238.048	1.43
238.264	0.3
238.481	-1.52
238.698	2.87
238.915	-2.24
239.131	1.25
239.348	-1.73
239.565	-8.34
239.781	-5.75
239.998	5.6
240.215	6.41
240.431	9.57
240.648	11.48
240.865	15.64
241.081	13.12
241.298	15.35
241.514	12.85
241.731	14.71
241.947	15.13
242.164	14.14
242.38	12.61
242.597	11.7
242.814	11.96
243.03	10.66
243.246	9.93
243.463	9.17
243.679	8.53
243.896	8.97
244.112	7.11
244.329	6.09
244.545	5.97
244.762	5.55
244.978	4.38
245.194	5.75
245.411	6.43
245.627	5.24
245.843	7.84
246.06	8.24
246.276	8.1
246.492	8.98
246.709	8.84
246.925	8.92
247.141	7.52
247.357	7.38
247.574	7.42
247.79	7.28
248.006	8.05
248.222	7.48
248.439	7.08
248.655	6.61
248.871	5.8
249.087	5
249.303	3.44
249.519	4.65
249.736	4.43
249.952	2.89
250.168	3.96
250.384	5.06
250.6	5.44
250.816	4.98
251.032	5.14
251.248	4.68
251.464	4.54
251.68	7.63
251.896	8.63
252.112	6.39
252.328	6.82
252.544	4
252.76	4.5
252.976	3.44
253.192	5.01
253.408	5.95
253.624	6.04
253.84	7.24
254.056	6.55
254.272	5.34
254.487	9.4
254.703	8.35
254.919	11.45
255.135	8.5
255.351	8.71
255.567	8.18
255.782	5.58
255.998	8.31
256.214	5.31
256.43	-0.1
256.646	1.69
256.861	2.08
257.077	5.54
257.293	4.13
257.508	4.3
257.724	3.26
257.94	4.55
258.155	4.45
258.371	3.69
258.587	5.14
258.802	5.58
259.018	4.85
259.234	5.02
259.449	4.18
259.665	5.32
259.88	5.75
260.096	7.4
260.312	5.92
260.527	6.76
260.743	7.92
260.958	7.68
261.174	7.9
261.389	8.7
261.605	9.22
261.82	9.15
262.036	8.77
262.251	7.98
262.466	6.58
262.682	5.32
262.897	4.01
263.113	1.01
263.328	0.98
263.543	2.16
263.759	1.83
263.974	0.4
264.189	0.94
264.405	1.32
264.62	3.64
264.835	2.44
265.051	8.89
265.266	8.15
265.481	8
265.696	11.36
265.912	12.85
266.127	12.33
266.342	13.43
266.557	9.61
266.773	8.38
266.988	7.78
267.203	8.38
267.418	5.9
267.633	7.66
267.848	7.14
268.064	4.58
268.279	3.01
268.494	2.64
268.709	0.56
268.924	2.62
269.139	4.13
269.354	2.63
269.569	2.61
269.784	3.3
269.999	1.34
270.214	2.62
270.429	2.77
270.644	1.72
270.859	1.51
271.074	1.28
271.289	0.03
271.504	-1.84
271.719	-1.21
271.934	0.69
272.149	-0.82
272.363	-0.04
272.578	-0.98
272.793	-0.53
273.008	1.63
273.223	0.79
273.438	3
273.653	4.22
273.867	5.82
274.082	6.99
274.297	5.89
274.512	8.28
274.726	6.96
274.941	8.64
275.156	8.01
275.371	7.33
275.585	9.89
275.8	6.51
276.015	8.83
276.229	9.58
276.444	9.51
276.659	8.46
276.873	8.64
277.088	11.79
277.302	9.94
277.517	9.55
277.732	8.61
277.946	5.78
278.161	6.85
278.375	4.41
278.59	0.93
278.804	-1.37
279.019	-1.98
279.233	-2.96
279.448	-5.53
279.662	-5.18
279.877	-3.41
280.091	-2.27
280.306	-0.19
280.52	1.23
280.735	1.42
280.949	2.71
281.163	4.17
281.378	4.4
281.592	3.02
281.806	2.88
282.021	2.65
282.235	1.62
282.449	0.94
282.664	-0.82
282.878	-0.81
283.092	1.32
283.307	3.1
283.521	2.29
283.735	3.92
283.949	4.77
284.164	5.65
284.378	6.49
284.592	6.62
284.806	7.41
285.02	8.69
285.234	8.39
285.449	6.12
285.663	5.01
285.877	5.4
286.091	4.74
286.305	5.66
286.519	5.52
286.733	4.95
286.947	4.02
287.161	5.22
287.375	4.54
287.589	4.5
287.803	6.48
288.017	7.88
288.231	6.93
288.445	6.88
288.659	6.73
288.873	7.24
289.087	6.85
289.301	7.72
289.515	6.19
289.729	6.04
289.943	7.84
290.157	6.57
290.371	4.69
290.584	6.72
290.798	7.7
291.012	7.79
291.226	6.89
291.44	8.74
291.654	8.62
291.867	7.86
292.081	9.36
292.295	7.99
292.509	7.6
292.722	10.28
292.936	10.1
293.15	10.12
293.364	8.95
293.577	9.89
293.791	8.85
294.005	8.65
294.218	10.77
294.432	10.78
294.645	10.93
294.859	12.9
295.073	11.67
295.286	10.79
295.5	11.55
295.713	12.63
295.927	12.49
296.14	12.07
296.354	13.21
296.568	12.87
296.781	12.35
296.994	12.67
297.208	11.82
297.421	11.69
297.635	12.04
297.848	11.79
298.062	11.37
298.275	12.33
298.489	12.98
298.702	13.7
298.915	13.02
299.129	12.6
299.342	12.41
299.555	11.84
299.769	11.3
299.982	10.02
300.195	9.85
300.409	9.6
300.622	8.29
300.835	7.49
301.048	4.96
301.262	6.08
301.475	6.55
301.688	6.4
301.901	7.17
302.115	8.76
302.328	11.26
302.541	10.53
302.754	11.11
302.967	11.78
303.18	12.9
303.393	15.01
303.607	15.23
303.82	15.8
304.033	16.31
304.246	15.79
304.459	15.87
304.672	17.21
304.885	17.82
305.098	17.46
305.311	18.36
305.524	19.03
305.737	19.02
305.95	18.98
306.163	20.44
306.376	20.94
306.589	21.99
306.802	20.41
307.015	18.94
307.228	18.85
307.44	20.38
307.653	18.03
307.866	17.13
308.079	17.05
308.292	17.52
308.505	18.07
308.718	17.39
308.93	17.69
309.143	20.1
309.356	21.44
309.569	20.91
309.781	21.41
309.994	22.64
310.207	22.78
310.42	21.72
310.632	21.36
310.845	18.49
311.058	18.43
311.27	19.48
311.483	18.26
311.696	17.11
311.908	17.29
312.121	16.62
312.333	16.11
312.546	16.67
312.759	17.24
312.971	17.43
313.184	21.15
313.396	22.74
313.609	20.68
313.821	20.85
314.034	20.64
314.246	23.37
314.459	21.79
314.671	21.87
314.884	21.64
315.096	22.17
315.309	20.96
315.521	17.89
315.733	17.57
315.946	17.45
316.158	19.54
316.371	20.05
316.583	16.61
316.795	18.7
317.008	19.63
317.22	19.23
317.432	18.86
317.644	19.77
317.857	20.63
318.069	21.16
318.281	21.14
318.494	18.58
318.706	19.04
318.918	20.68
319.13	18.14
319.342	18.01
319.555	18.67
319.767	18.49
319.979	17.42
320.191	17.49
320.403	14.97
320.615	16.15
320.827	17.14
321.039	15.59
321.252	15.58
321.464	18.95
321.676	20.04
321.888	18.11
322.1	17.44
322.312	18.43
322.524	17.58
322.736	19.65
322.948	20.18
323.16	19.4
323.372	20.03
323.584	18.45
323.796	17.92
324.007	16.51
324.219	18.75
324.431	20.83
324.643	20.73
324.855	22.28
325.067	22.13
325.279	23.97
325.491	25.57
325.702	27.22
325.914	29.04
326.126	29.23
326.338	30.36
326.55	29.04
326.761	29.55
326.973	30.71
327.185	30.26
327.396	31.24
327.608	29.53
327.82	29.36
328.032	27.68
328.243	27.63
328.455	28.53
328.666	28.2
328.878	29.07
329.09	28.34
329.301	29.76
329.513	31.54
329.725	30.06
329.936	30.18
330.148	32.02
330.359	33.96
330.571	33.56
330.782	33.62
330.994	34.05
331.205	33.42
331.417	34.8
331.628	32.88
331.84	32.04
332.051	34.39
332.262	34.4
332.474	33.27
332.685	32.43
332.897	32.9
333.108	32.52
333.319	33.64
333.531	35.55
333.742	35.11
333.953	36.62
334.165	36.87
334.376	36.89
334.587	38.08
334.799	38.6
335.01	39.33
335.221	41.19
335.432	40.63
335.644	41.45
335.855	41.38
336.066	42.36
336.277	43.27
336.488	43.06
336.7	43.22
336.911	42.27
337.122	43.07
337.333	44.03
337.544	42.81
337.755	43.77
337.966	43.99
338.177	43.28
338.388	42.22
338.599	41.29
338.811	42.38
339.022	41.76
339.233	44.44
339.444	44.38
339.655	42.71
339.866	43.28
340.076	44.07
340.287	41.74
340.498	42.93
340.709	43.93
340.92	45.28
341.131	44.32
341.342	44.21
341.553	43.38
341.764	43.67
341.975	46.35
342.185	46.72
342.396	45.57
342.607	47.1
342.818	47.93
343.029	46.75
343.239	45.08
343.45	45.23
343.661	46.94
343.872	46.98
344.082	46.41
344.293	44.91
344.504	45.66
344.714	47.33
344.925	48.08
345.136	47.94
345.346	49.2
345.557	49.65
345.768	49.54
345.978	48.62
346.189	47.2
346.399	45.6
346.61	46.47
346.821	46.66
347.031	44.97
347.242	44.7
347.452	44.89
347.663	44.43
347.873	44.49
348.084	45.31
348.294	45.04
348.504	46.5
348.715	49
348.925	49.39
349.136	48.5
349.346	49.85
349.557	49.41
349.767	49.17
349.977	47.82
350.188	48.37
350.398	47.6
350.608	49.2
350.819	47.83
351.029	47.62
351.239	46.8
351.449	45.65
351.66	45.13
351.87	44.42
352.08	43.86
352.29	45.05
352.501	45.02
352.711	45.29
352.921	43.68
353.131	45.41
353.341	45.06
353.552	44.62
353.762	46.13
353.972	45.21
354.182	46.7
354.392	46.12
354.602	46.88
354.812	46.94
355.022	47.63
355.232	48.73
355.442	47.68
355.652	48.41
355.862	47.98
356.072	48.85
356.282	49.21
356.492	48.19
356.702	48.61
356.912	48.26
357.122	47.92
357.332	48.07
357.542	46.67
357.752	46.76
357.962	45.89
358.171	47.35
358.381	47.29
358.591	48.32
358.801	48.96
359.011	48.21
359.221	48.08
359.43	47.8
359.64	48.57
359.85	48.51
360.06	49.64
360.269	49.93
360.479	49.02
360.689	48.48
360.899	48.16
361.108	47.81
361.318	48.34
361.528	48.01
361.737	47.86
361.947	46.96
362.156	48.23
362.366	47.62
362.576	47.62
362.785	46.83
362.995	46.56
363.204	46.64
363.414	46.36
363.623	47.24
363.833	47.66
364.042	47.67
364.252	48.18
364.461	46.96
364.671	46.42
364.88	45.56
365.09	46.18
365.299	45.72
365.509	45.46
365.718	45.47
365.927	44.72
366.137	45.26
366.346	45.38
366.555	45.85
366.765	45.84
366.974	46
367.183	44.98
367.393	45.43
367.602	45.81
367.811	45.8
368.021	45.37
368.23	44.88
368.439	44.48
368.648	45.04
368.857	43.73
369.067	43.86
369.276	43.3
369.485	45.2
369.694	45.18
369.903	44.3
370.112	44.37
370.321	45.06
370.531	44.49
370.74	42.43
370.949	41.41
371.158	40.76
371.367	40.26
371.576	40.61
371.785	40.49
371.994	40
372.203	40.07
372.412	39.77
372.621	40.27
372.83	40.47
373.039	41.59
373.248	41.44
373.457	41.65
373.666	41.19
373.874	41.09
374.083	40.42
374.292	40.27
374.501	40.25
374.71	40.36
374.919	39.54
375.128	39.49
375.336	39.27
375.545	38.99
375.754	38.48
375.963	38.72
376.171	37.93
376.38	37.58
376.589	37.5
376.798	37.52
377.006	37.24
377.215	36.34
377.424	35.88
377.632	36.18
377.841	35.77
378.05	35.89
378.258	35.72
378.467	36.06
378.675	36.1
378.884	35.7
379.093	35.33
379.301	34.56
379.51	34.61
379.718	34.62
379.927	33.33
380.135	33.87
380.344	34.39
380.552	34.8
380.761	34.69
380.969	34.53
381.177	34.46
381.386	35.07
381.594	35.2
381.803	35.74
382.011	35.97
382.219	36.59
382.428	36.31
382.636	35.35
382.845	34.65
383.053	34.09
383.261	34.25
383.469	34.21
383.678	33.52
383.886	33.65
384.094	33.24
384.302	32.56
384.511	32.37
384.719	31.87
384.927	31.96
385.135	32.09
385.343	32.6
385.552	32.16
385.76	31.54
385.968	31.44
386.176	30.77
386.384	30.3
386.592	30.34
386.8	30.42
387.008	30.34
387.216	29.89
387.424	29.54
387.633	29.12
387.841	28.81
388.049	29.1
388.257	28.83
388.465	28.63
388.672	28.92
388.88	28.64
389.088	28.46
389.296	28.62
389.504	28.85
389.712	28.85
389.92	28.69
390.128	28.89
390.336	28.49
390.544	28.34
390.751	28.77
390.959	28.19
391.167	28.47
391.375	27.98
391.583	27.96
391.79	27.89
391.998	27.69
392.206	27.56
392.414	27.45
392.621	27.35
392.829	27.22
393.037	27.01
393.244	26.87
393.452	26.5
393.66	26.89
393.867	26.85
394.075	26.53
394.283	26.8
394.49	27.02
394.698	26.65
394.905	26.72
395.113	26.79
395.32	26.7
395.528	26.72
395.735	26.53
395.943	26.31
396.15	26.18
396.358	26.71
396.565	26.01
396.773	25.57
396.98	25.48
397.188	25.36
397.395	25.47
397.602	25.37
397.81	25.59
398.017	25.8
398.225	25.69
398.432	25.81
398.639	25.57
398.847	25.96
399.054	26.13
399.261	26.42
399.468	26.65
399.676	26.68
399.883	26.72
400.09	26.68
400.297	26.44
400.505	26.63
400.712	26.32
400.919	26
401.126	25.56
401.333	25.42
401.54	25.39
401.748	25.13
401.955	24.95
402.162	24.52
402.369	24.48
402.576	24.45
402.783	24.58
402.99	24.48
403.197	24.48
403.404	24.83
403.611	24.99
403.818	24.92
404.025	25.1
404.232	25.33
404.439	25.5
404.646	25.6
404.853	25.88
405.06	25.92
405.267	26.06
405.474	26.36
405.681	26.13
405.887	25.95
406.094	25.83
406.301	25.62
406.508	25.53
406.715	25.55
406.922	25.23
407.128	25.08
407.335	24.82
407.542	24.89
407.749	24.82
407.955	25.08
408.162	25
408.369	25.07
408.575	25.1
408.782	24.7
408.989	25.09
409.195	25.42
409.402	25.71
409.609	25.47
409.815	25.46
410.022	25.62
410.228	25.37
410.435	25.56
410.642	25.4
410.848	25.6
411.055	25.86
411.261	25.71
411.468	25.78
411.674	25.6
411.881	25.98
412.087	26.01
412.294	25.53
412.5	25.62
412.706	25.61
412.913	25.97
413.119	25.73
413.326	25.66
413.532	25.59
413.738	25.3
413.945	25.34
414.151	24.97
414.357	24.9
414.564	25.2
414.77	25.21
414.976	25.21
415.182	24.97
415.389	24.92
415.595	24.98
415.801	25
416.007	24.86
416.214	24.64
416.42	24.72
416.626	24.75
416.832	24.64
417.038	24.57
417.244	24.38
417.45	24.45
417.657	24.33
417.863	24.15
418.069	24.06
418.275	24.07
418.481	24.26
418.687	24.15
418.893	23.97
419.099	23.94
419.305	23.97
419.511	23.98
419.717	23.79
419.923	24
420.129	24.14
420.335	24.11
420.541	24.06
420.746	24.07
420.952	24.21
421.158	24.21
421.364	24.13
421.57	24.05
421.776	24.02
421.982	24.22
422.187	24.19
422.393	24.1
422.599	24.13
422.805	24.2
423.01	24.11
423.216	24.01
423.422	24.03
423.628	24.08
423.833	24.09
424.039	24.19
424.245	24.12
424.45	24.09
424.656	23.9
424.862	23.95
425.067	23.93
425.273	23.93
425.478	23.98
425.684	23.86
425.889	23.78
426.095	23.73
426.301	23.57
426.506	23.45
426.712	23.4
426.917	23.51
427.123	23.41
427.328	23.16
427.533	23.07
427.739	22.82
427.944	22.98
428.15	22.88
428.355	23.11
428.561	23.12
428.766	23.18
428.971	23.11
429.177	23.17
429.382	23.14
429.587	23.3
429.793	23.36
429.998	23.38
430.203	23.42
430.408	23.43
430.614	23.15
430.819	23.1
431.024	23.14
431.229	23.02
431.434	23.16
431.64	23.22
431.845	23.38
432.05	23.22
432.255	23.28
432.46	23.17
432.665	23.17
432.87	23.31
433.076	23.47
433.281	23.31
433.486	23.4
433.691	23.24
433.896	23.02
434.101	22.88
434.306	22.85
434.511	22.78
434.716	22.84
434.921	22.66
435.126	22.43
435.331	22.33
435.535	22.51
435.74	22.28
435.945	22.23
436.15	22.34
436.355	22.39
436.56	22.41
436.765	22.36
436.97	22.27
437.174	22.3
437.379	22.47
437.584	22.6
437.789	22.48
437.993	22.83
438.198	22.87
438.403	22.92
438.608	22.96
438.812	22.81
439.017	22.87
439.222	22.93
439.426	23.23
439.631	23.04
439.836	22.91
440.04	22.91
440.245	22.77
440.45	22.75
440.654	22.76
440.859	22.66
441.063	22.92
441.268	22.99
441.472	22.88
441.677	22.77
441.881	22.78
442.086	22.87
442.29	22.9
442.495	22.82
442.699	22.71
442.904	22.59
443.108	22.68
443.312	22.61
443.517	22.57
443.721	22.71
443.925	22.76
444.13	22.84
444.334	22.86
444.538	22.95
444.743	22.94
444.947	23.12
445.151	23.15
445.356	23.19
445.56	22.99
445.764	23.02
445.968	22.97
446.173	22.93
446.377	22.89
446.581	22.77
446.785	22.63
446.989	22.81
447.193	22.76
447.398	22.74
447.602	22.67
447.806	22.74
448.01	22.66
448.214	22.62
448.418	22.63
448.622	22.65
448.826	22.81
449.03	22.87
449.234	22.79
449.438	22.92
449.642	22.91
449.846	23.07
450.05	23.08
450.254	23.07
450.458	23.11
450.662	23.07
450.866	23.11
451.069	22.88
451.273	22.7
451.477	22.6
451.681	22.52
451.885	22.45
452.089	22.29
452.292	22.35
452.496	22.53
452.7	22.4
452.904	22.48
453.107	22.47
453.311	22.62
453.515	22.58
453.719	22.69
453.922	22.62
454.126	22.68
454.33	22.69
454.533	22.72
454.737	22.67
454.94	22.85
455.144	22.86
455.348	22.8
455.551	22.79
455.755	22.96
455.958	22.74
456.162	22.59
456.365	22.55
456.569	22.54
456.772	22.57
