Data from 2938096_Reflection_2.txt Node
Date: Sat Jul 11 19:00:58 EDT 2015
User: robert
Spectrometer: USB4E03001
Autoset integration time: false
Trigger mode: 4
Integration Time (sec): 1.000000E-1
Scans to average: 10
Electric dark correction enabled: true
Nonlinearity correction enabled: false
Boxcar width: 5
Stray light correction enabled: false
XAxis mode: Wavelengths
Stop averaging: false
Number of Pixels in Spectrum: 3648
>>>>>Begin Spectral Data<<<<<
177.566	322.99
177.785	472.06
178.005	1374.53
178.225	435.05
178.445	134.18
178.665	109.51
178.885	-23.91
179.105	167.55
179.324	212.88
179.544	327.28
179.764	412.44
179.984	539.77
180.204	357.13
180.423	391.62
180.643	380.52
180.863	233.34
181.083	257.78
181.302	238.03
181.522	456.98
181.742	239.39
181.961	175.09
182.181	479.8
182.401	-15929.63
182.621	-94.44
182.84	-82.24
183.06	-1129.92
183.279	-117.53
183.499	-54.41
183.719	-21.81
183.938	0.57
184.158	35.51
184.377	19.68
184.597	27.88
184.816	45.98
185.036	-34.69
185.256	-18.01
185.475	30.93
185.695	-5.53
185.914	-59.59
186.134	-85.24
186.353	-159.22
186.572	-33600
186.792	-440.42
187.011	-199.32
187.231	-75.41
187.45	-29.38
187.67	-39.43
187.889	-146.03
188.108	-286.75
188.328	-27.35
188.547	-36.81
188.766	-26.62
188.986	-53.8
189.205	-68.95
189.424	-27.35
189.644	-20.85
189.863	-59.49
190.082	-64.44
190.302	-48.55
190.521	-14.46
190.74	-167.41
190.959	-135.99
191.178	-1381.16
191.398	772.33
191.617	262.25
191.836	100.72
192.055	65.07
192.274	47.38
192.494	34.01
192.713	48.27
192.932	61.72
193.151	37.35
193.37	47.23
193.589	-28.58
193.808	-58.57
194.027	15.55
194.246	17.63
194.465	154.1
194.685	-548.08
194.904	-2992.41
195.123	-291.8
195.342	1234.09
195.561	-1810.38
195.78	153.73
195.999	-1000.19
196.218	899.19
196.436	285.67
196.655	613.12
196.874	361.21
197.093	288.06
197.312	457.62
197.531	1727.6
197.75	3495.35
197.969	-737
198.188	-295.66
198.407	962.95
198.625	569.84
198.844	491.14
199.063	242
199.282	356.76
199.501	253.13
199.719	213.21
199.938	240.25
200.157	220.45
200.376	184.8
200.594	156.42
200.813	172.36
201.032	283.17
201.251	721.49
201.469	-298.34
201.688	-220.48
201.907	-112.64
202.125	-99.91
202.344	-118.39
202.563	-149.64
202.781	-186.56
203	-21.73
203.218	-10.46
203.437	-129.35
203.656	-281.37
203.874	552.76
204.093	173.72
204.311	239.76
204.53	407.35
204.748	474.32
204.967	1640.27
205.185	-1301.72
205.404	638.67
205.622	287.44
205.841	701.88
206.059	389.15
206.278	472.74
206.496	-3794.89
206.715	1025.43
206.933	674.28
207.151	335.18
207.37	285.03
207.588	447.81
207.806	1071.08
208.025	-266.21
208.243	-450.4
208.461	-259.92
208.68	-381.6
208.898	-4188.54
209.116	685.41
209.335	1145.68
209.553	-1050.11
209.771	-438.3
209.989	235.98
210.208	320.48
210.426	70.96
210.644	72.4
210.862	47.46
211.081	188.26
211.299	628.35
211.517	94
211.735	92.22
211.953	39.09
212.171	31.31
212.39	54.16
212.608	32.91
212.826	29.11
213.044	22.37
213.262	-3.39
213.48	-37.83
213.698	-39.28
213.916	-156.34
214.134	-288.01
214.352	-133.84
214.57	-107.95
214.788	-110.02
215.006	-72.13
215.224	-183.66
215.442	-257.93
215.66	-294.64
215.878	-327.13
216.096	-413.91
216.314	-138.8
216.532	-30.24
216.75	-74.84
216.968	-23.87
217.185	-42.89
217.403	-71.04
217.621	-95.24
217.839	-45.09
218.057	4.1
218.275	-3.5
218.492	-19.54
218.71	-27.13
218.928	-40
219.146	-71.41
219.363	-124.01
219.581	-117.8
219.799	-85.98
220.017	0.66
220.234	-22.6
220.452	-39.91
220.67	38.09
220.887	23.97
221.105	-4.97
221.323	19.8
221.54	27.64
221.758	37.53
221.976	26.7
222.193	2.3
222.411	-6.3
222.629	-13.16
222.846	-47.45
223.064	-50.99
223.281	-46.47
223.499	-44.16
223.716	-69.57
223.934	-62.99
224.151	-71.71
224.369	-39.58
224.586	-15.89
224.804	-9.09
225.021	-8.09
225.239	14.39
225.456	10.14
225.674	27.82
225.891	32.57
226.108	41.23
226.326	41.49
226.543	33.14
226.76	20.3
226.978	13.51
227.195	10.62
227.413	3.13
227.63	4.1
227.847	-1.31
228.064	-4.88
228.282	-7.09
228.499	-4.76
228.716	-5.32
228.934	-3.83
229.151	-2.15
229.368	-3.36
229.585	-1.64
229.802	0.1
230.02	-1.36
230.237	0.6
230.454	0.76
230.671	2.35
230.888	-0.6
231.105	0.58
231.323	1.72
231.54	-1.52
231.757	-0.71
231.974	-4.17
232.191	-0.98
232.408	-0.26
232.625	-4.49
232.842	-6.47
233.059	-4.2
233.276	-7.04
233.493	-6.06
233.71	1.25
233.927	3.01
234.144	3.32
234.361	1.76
234.578	-0.04
234.795	-4.9
235.012	4.14
235.229	4.78
235.446	-4.51
235.663	-5.36
235.879	-8.92
236.096	-17.56
236.313	-17.32
236.53	-18.77
236.747	-15.43
236.964	-14.82
237.181	-11.99
237.397	-14.62
237.614	-11.43
237.831	-9.25
238.048	-7.49
238.264	-10.64
238.481	-7.67
238.698	-11.99
238.915	-10.13
239.131	-10.45
239.348	-10.91
239.565	-14.16
239.781	-8.94
239.998	-7.95
240.215	-6.78
240.431	-3.14
240.648	3.04
240.865	3.51
241.081	3.23
241.298	6.11
241.514	7.85
241.731	7.22
241.947	8.42
242.164	7.25
242.38	7.09
242.597	9.03
242.814	8.69
243.03	7.18
243.246	7.4
243.463	9.87
243.679	8.26
243.896	8.8
244.112	9.73
244.329	10.46
244.545	9.66
244.762	10.54
244.978	7.2
245.194	7.81
245.411	5.45
245.627	4.28
245.843	2.99
246.06	4.47
246.276	4.34
246.492	5.51
246.709	5.6
246.925	5.92
247.141	5.38
247.357	6.32
247.574	6.5
247.79	6.3
248.006	6.19
248.222	6.49
248.439	6.78
248.655	5.61
248.871	4.64
249.087	3.61
249.303	2.38
249.519	2.47
249.736	3.24
249.952	3.65
250.168	6.87
250.384	6.65
250.6	3.39
250.816	0.26
251.032	1.32
251.248	0.37
251.464	0.29
251.68	2.46
251.896	0.17
252.112	-0.82
252.328	-3.45
252.544	-6.54
252.76	-5
252.976	-3
253.192	-4.53
253.408	-4.17
253.624	-3.23
253.84	-6.61
254.056	-5.32
254.272	-3.14
254.487	-4.29
254.703	-6.1
254.919	-7.36
255.135	-8.88
255.351	-12.26
255.567	-9.66
255.782	-9.31
255.998	-11.28
256.214	-3.46
256.43	-7.68
256.646	-8.2
256.861	-4.99
257.077	-2.38
257.293	1.08
257.508	1.58
257.724	2.66
257.94	3.48
258.155	1.73
258.371	4.15
258.587	3.34
258.802	4.43
259.018	4.83
259.234	4.22
259.449	4.4
259.665	4.77
259.88	4.76
260.096	5.01
260.312	5.5
260.527	6.3
260.743	5.98
260.958	5.34
261.174	5.15
261.389	5.49
261.605	5.54
261.82	5.46
262.036	4.63
262.251	4.36
262.466	4.25
262.682	3.59
262.897	3.18
263.113	2.83
263.328	3.75
263.543	3.29
263.759	2.68
263.974	3.35
264.189	3.67
264.405	3.17
264.62	1.32
264.835	1.91
265.051	2.1
265.266	1.05
265.481	0.15
265.696	1.43
265.912	2.91
266.127	2.98
266.342	2.82
266.557	2.66
266.773	2.77
266.988	4.35
267.203	4.73
267.418	4.41
267.633	4.25
267.848	4.6
268.064	4.38
268.279	2.75
268.494	0.65
268.709	-1.43
268.924	-2.01
269.139	-2.8
269.354	-2.84
269.569	-2.68
269.784	-2.74
269.999	-2.52
270.214	-3.3
270.429	-2.79
270.644	0.3
270.859	1.57
271.074	3.14
271.289	3.28
271.504	4.57
271.719	3.48
271.934	3.08
272.149	2.87
272.363	3.03
272.578	2.91
272.793	1.89
273.008	0.4
273.223	-0.3
273.438	-1.21
273.653	0.22
273.867	-0.63
274.082	0
274.297	0.21
274.512	0.9
274.726	0.92
274.941	1.46
275.156	1.2
275.371	1.65
275.585	2.78
275.8	4.4
276.015	3.91
276.229	5.46
276.444	6.49
276.659	6.09
276.873	6.27
277.088	7.6
277.302	8.9
277.517	10.1
277.732	8.72
277.946	7.59
278.161	6.18
278.375	2.87
278.59	3.54
278.804	1.95
279.019	3.09
279.233	2.32
279.448	0.19
279.662	-0.63
279.877	-0.86
280.091	-0.25
280.306	3.27
280.52	4.94
280.735	6.88
280.949	7.09
281.163	6.13
281.378	5.06
281.592	5.28
281.806	6.3
282.021	6.24
282.235	5.16
282.449	5.27
282.664	3.29
282.878	2.83
283.092	2.14
283.307	0.83
283.521	1.88
283.735	2.73
283.949	2.84
284.164	1.41
284.378	0.5
284.592	1.1
284.806	0.69
285.02	0.67
285.234	1.92
285.449	3.53
285.663	4.05
285.877	4.82
286.091	3.75
286.305	3.93
286.519	4.96
286.733	6.39
286.947	6.48
287.161	7.74
287.375	8.02
287.589	6.58
287.803	6.78
288.017	6.98
288.231	6.48
288.445	6.97
288.659	6.22
288.873	6.08
289.087	5.87
289.301	6.12
289.515	4.13
289.729	2.97
289.943	2.96
290.157	1.84
290.371	0.96
290.584	0.3
290.798	1.55
291.012	0.85
291.226	1.67
291.44	2.54
291.654	2.69
291.867	4.74
292.081	6.05
292.295	7.38
292.509	8.55
292.722	8.47
292.936	9.14
293.15	8.1
293.364	8.73
293.577	7.83
293.791	5.76
294.005	7.25
294.218	6.43
294.432	6.4
294.645	5.06
294.859	2.9
295.073	3.22
295.286	3.34
295.5	3.32
295.713	4.73
295.927	5.41
296.14	5.5
296.354	3.87
296.568	3.38
296.781	4.21
296.994	5.76
297.208	6.27
297.421	5.74
297.635	6.13
297.848	5.74
298.062	6.23
298.275	6.08
298.489	5.52
298.702	5.71
298.915	5.42
299.129	3.9
299.342	1.78
299.555	0.78
299.769	1.65
299.982	1.35
300.195	1.3
300.409	-0.22
300.622	-0.15
300.835	0.29
301.048	1.02
301.262	2.06
301.475	3.71
301.688	5.11
301.901	6.07
302.115	6.04
302.328	5.48
302.541	5.43
302.754	7.43
302.967	5.71
303.18	7.14
303.393	7.75
303.607	7.99
303.82	7.68
304.033	7.42
304.246	7.29
304.459	8.02
304.672	9.64
304.885	10.51
305.098	8.66
305.311	10.25
305.524	8.98
305.737	6.8
305.95	5.12
306.163	3.88
306.376	3.67
306.589	5.01
306.802	4.99
307.015	2.78
307.228	2.42
307.44	3.38
307.653	2.34
307.866	4.24
308.079	5.52
308.292	7.91
308.505	8.41
308.718	7.85
308.93	6.46
309.143	5.82
309.356	6.43
309.569	6.19
309.781	5.72
309.994	6.54
310.207	5.97
310.42	5.57
310.632	4.85
310.845	4.3
311.058	5.02
311.27	3.98
311.483	4.8
311.696	5.32
311.908	5.18
312.121	3.83
312.333	4.45
312.546	3.82
312.759	4.16
312.971	4.18
313.184	5.56
313.396	4.94
313.609	7.28
313.821	5.87
314.034	5.99
314.246	6.07
314.459	8.26
314.671	7.93
314.884	7.97
315.096	7.67
315.309	7.26
315.521	6.14
315.733	5.66
315.946	4.31
316.158	5.19
316.371	3.83
316.583	5.27
316.795	4.86
317.008	4.03
317.22	4.89
317.432	3.55
317.644	4.94
317.857	5.55
318.069	6.61
318.281	7.69
318.494	6.3
318.706	7.72
318.918	7.01
319.13	5.79
319.342	7.14
319.555	6.35
319.767	10.37
319.979	10.34
320.191	10.92
320.403	10.07
320.615	8.19
320.827	9.63
321.039	8.6
321.252	6.97
321.464	6.5
321.676	5.43
321.888	4.94
322.1	3.73
322.312	2.83
322.524	2.84
322.736	3.35
322.948	5.01
323.16	4.17
323.372	5.3
323.584	5.21
323.796	6.12
324.007	5.07
324.219	5.25
324.431	4.09
324.643	4.57
324.855	4.41
325.067	4.29
325.279	3.6
325.491	4.41
325.702	3.64
325.914	6.08
326.126	5.22
326.338	5.64
326.55	5.66
326.761	6.88
326.973	6.73
327.185	5.73
327.396	6.61
327.608	8.76
327.82	8.5
328.032	8.18
328.243	6.67
328.455	7.64
328.666	8.3
328.878	8.92
329.09	8.21
329.301	7.5
329.513	9.54
329.725	9.47
329.936	7.31
330.148	9.22
330.359	9.53
330.571	10.34
330.782	10.24
330.994	10.64
331.205	10.47
331.417	10.11
331.628	11.51
331.84	10.54
332.051	9.49
332.262	9.79
332.474	7.42
332.685	8.34
332.897	7.52
333.108	6.76
333.319	6.84
333.531	7.24
333.742	8.03
333.953	7.22
334.165	7.39
334.376	8.36
334.587	7.69
334.799	7.05
335.01	8.05
335.221	8.46
335.432	10.24
335.644	9.49
335.855	8.93
336.066	7.73
336.277	7.79
336.488	7.16
336.7	6.45
336.911	8.4
337.122	9.36
337.333	8.43
337.544	9.16
337.755	9.04
337.966	11.26
338.177	12.87
338.388	14.67
338.599	15.28
338.811	15.17
339.022	16.04
339.233	15.71
339.444	16.11
339.655	14.4
339.866	14.56
340.076	12.6
340.287	10.95
340.498	10.49
340.709	9.3
340.92	8.43
341.131	8.73
341.342	9.02
341.553	9.9
341.764	10.64
341.975	11.4
342.185	9.23
342.396	10.28
342.607	10.06
342.818	10.17
343.029	10.5
343.239	11.4
343.45	12.06
343.661	10.52
343.872	9.65
344.082	9.1
344.293	10.4
344.504	10.96
344.714	11.2
344.925	10.69
345.136	10.44
345.346	10.33
345.557	9.88
345.768	9.55
345.978	10.49
346.189	9.12
346.399	8.49
346.61	8.25
346.821	9.14
347.031	9.14
347.242	8.85
347.452	9.61
347.663	10.3
347.873	10.05
348.084	9.64
348.294	8.83
348.504	9.11
348.715	9.24
348.925	8.25
349.136	8.7
349.346	8.12
349.557	8.89
349.767	7.91
349.977	6.23
350.188	6.91
350.398	7.85
350.608	9.19
350.819	10.4
351.029	11.49
351.239	12.41
351.449	11.95
351.66	11.49
351.87	12.08
352.08	11.3
352.29	12.7
352.501	13.23
352.711	13.69
352.921	12.6
353.131	11.97
353.341	11.76
353.552	12.18
353.762	12.73
353.972	13.71
354.182	13.12
354.392	14.03
354.602	13.75
354.812	13.79
355.022	13.75
355.232	14.42
355.442	14.62
355.652	13.14
355.862	11.84
356.072	11.87
356.282	12.64
356.492	11.82
356.702	11.31
356.912	11.47
357.122	10.72
357.332	9.74
357.542	10.1
357.752	10.54
357.962	11.79
358.171	11.99
358.381	12.05
358.591	11.61
358.801	12.25
359.011	13.06
359.221	12.95
359.43	13.26
359.64	13
359.85	12.86
360.06	12.47
360.269	12.27
360.479	12.24
360.689	11.42
360.899	11.26
361.108	10.8
361.318	10.01
361.528	9.11
361.737	8.73
361.947	9.65
362.156	9.44
362.366	9.79
362.576	9.43
362.785	9.36
362.995	9.81
363.204	9.64
363.414	9.59
363.623	9.93
363.833	10.78
364.042	10.64
364.252	10.09
364.461	9.72
364.671	8.68
364.88	8.88
365.09	9.12
365.299	8.85
365.509	9.05
365.718	9.65
365.927	9.4
366.137	9.41
366.346	9.67
366.555	8.91
366.765	8.36
366.974	8.56
367.183	8.99
367.393	8.42
367.602	8.16
367.811	8.42
368.021	7.6
368.23	8.19
368.439	8.35
368.648	8.72
368.857	9.8
369.067	10.82
369.276	11.3
369.485	10.58
369.694	11.07
369.903	10.98
370.112	10.38
370.321	10.84
370.531	9.44
370.74	9.41
370.949	8.85
371.158	8.41
371.367	8.14
371.576	8.15
371.785	7.94
371.994	8.06
372.203	7.66
372.412	7.74
372.621	7.45
372.83	8.34
373.039	8.01
373.248	8.17
373.457	8.29
373.666	8.38
373.874	8.07
374.083	8.82
374.292	8.47
374.501	9.16
374.71	9.18
374.919	9.52
375.128	9.12
375.336	9.34
375.545	9.02
375.754	8.96
375.963	8.37
376.171	8.21
376.38	8.22
376.589	8.37
376.798	8.54
377.006	7.98
377.215	7.61
377.424	7.67
377.632	7.52
377.841	7.86
378.05	7.73
378.258	8.11
378.467	8.1
378.675	7.17
378.884	7.04
379.093	6.58
379.301	7.17
379.51	7.64
379.718	7.34
379.927	6.93
380.135	6.84
380.344	6.76
380.552	7.21
380.761	7.75
380.969	8.54
381.177	8.39
381.386	8.64
381.594	8.4
381.803	8.1
382.011	8.39
382.219	8.46
382.428	7.99
382.636	7.42
382.845	6.94
383.053	6.78
383.261	6.91
383.469	7.03
383.678	6.54
383.886	6.62
384.094	6.53
384.302	6.66
384.511	6.1
384.719	6.23
384.927	6.75
385.135	6.61
385.343	6.41
385.552	6.16
385.76	5.98
385.968	6.5
386.176	6.22
386.384	6.07
386.592	5.91
386.8	6.34
387.008	6.49
387.216	6.08
387.424	6.04
387.633	5.84
387.841	5.42
388.049	5.22
388.257	4.74
388.465	4.89
388.672	5.22
388.88	4.96
389.088	5.4
389.296	5.03
389.504	5.28
389.712	5.51
389.92	5.29
390.128	5.46
390.336	5.65
390.544	5.75
390.751	5.23
390.959	4.86
391.167	4.77
391.375	4.35
391.583	4.59
391.79	4.74
391.998	4.25
392.206	4.52
392.414	4.63
392.621	4.87
392.829	4.95
393.037	5.45
393.244	5.85
393.452	6.02
393.66	5.92
393.867	5.76
394.075	5.47
394.283	5.79
394.49	5.79
394.698	5.73
394.905	5.3
395.113	5.03
395.32	5.13
395.528	4.87
395.735	4.58
395.943	4.29
396.15	4.13
396.358	4.38
396.565	4.32
396.773	3.75
396.98	3.48
397.188	3.48
397.395	3.83
397.602	3.27
397.81	3.19
398.017	3.54
398.225	4.03
398.432	4.08
398.639	3.7
398.847	3.68
399.054	4.23
399.261	4.45
399.468	4.71
399.676	4.68
399.883	4.48
400.09	4.65
400.297	4.72
400.505	4.76
400.712	4.74
400.919	5.1
401.126	5.08
401.333	4.76
401.54	4.44
401.748	4.24
401.955	3.67
402.162	4.1
402.369	3.89
402.576	3.8
402.783	3.56
402.99	3.46
403.197	3.16
403.404	2.98
403.611	3.27
403.818	3.27
404.025	3.34
404.232	3.68
404.439	3.64
404.646	3.97
404.853	3.73
405.06	3.82
405.267	4.16
405.474	4.14
405.681	4.21
405.887	4.08
406.094	4.18
406.301	4.32
406.508	4.38
406.715	4.33
406.922	4.04
407.128	3.98
407.335	3.96
407.542	3.7
407.749	4.07
407.955	4.26
408.162	4.23
408.369	4
408.575	3.69
408.782	3.55
408.989	3.73
409.195	3.64
409.402	3.85
409.609	3.81
409.815	3.83
410.022	3.31
410.228	3.04
410.435	2.94
410.642	3.2
410.848	3.17
411.055	3.32
411.261	3.06
411.468	2.98
411.674	2.9
411.881	2.82
412.087	2.89
412.294	2.94
412.5	3.13
412.706	3.24
412.913	2.94
413.119	2.74
413.326	2.68
413.532	2.84
413.738	3.02
413.945	2.89
414.151	2.84
414.357	2.59
414.564	2.73
414.77	2.71
414.976	2.85
415.182	3.03
415.389	3.5
415.595	3.28
415.801	3.14
416.007	3.21
416.214	3.1
416.42	3.26
416.626	3.35
416.832	3.36
417.038	3.26
417.244	3.19
417.45	3.35
417.657	3.03
417.863	3.24
418.069	3.47
418.275	3.32
418.481	3.52
418.687	3.5
418.893	3.6
419.099	3.53
419.305	3.5
419.511	3.27
419.717	3.2
419.923	3.28
420.129	3.27
420.335	3.05
420.541	3.14
420.746	3.25
420.952	3.27
421.158	3.3
421.364	3.38
421.57	3.44
421.776	3.56
421.982	3.53
422.187	3.61
422.393	3.61
422.599	3.66
422.805	3.63
423.01	3.45
423.216	3.49
423.422	3.44
423.628	3.29
423.833	3.2
424.039	3.25
424.245	3.4
424.45	3.23
424.656	3.25
424.862	3.21
425.067	3.3
425.273	3.36
425.478	3.28
425.684	3.3
425.889	3.41
426.095	3.46
426.301	3.46
426.506	3.22
426.712	3.4
426.917	3.18
427.123	3.22
427.328	2.96
427.533	2.9
427.739	2.79
427.944	2.58
428.15	2.48
428.355	2.31
428.561	2.46
428.766	2.45
428.971	2.25
429.177	2.51
429.382	2.4
429.587	2.65
429.793	2.62
429.998	2.79
430.203	3.15
430.408	3.2
430.614	3.28
430.819	3.19
431.024	3.16
431.229	3.13
431.434	2.95
431.64	3.14
431.845	3.27
432.05	3.32
432.255	3.21
432.46	2.89
432.665	2.81
432.87	3
433.076	2.86
433.281	2.88
433.486	3.15
433.691	3.14
433.896	3.2
434.101	2.96
434.306	2.99
434.511	2.89
434.716	2.92
434.921	3.15
435.126	2.93
435.331	2.94
435.535	3.06
435.74	2.83
435.945	2.87
436.15	2.6
436.355	2.67
436.56	2.56
436.765	2.61
436.97	2.6
437.174	2.5
437.379	2.7
437.584	2.79
437.789	2.85
437.993	2.74
438.198	2.92
438.403	3.1
438.608	3.17
438.812	3.13
439.017	3.22
439.222	3.3
439.426	3.35
439.631	3.25
439.836	3.34
440.04	3.42
440.245	3.61
440.45	3.31
440.654	3.36
440.859	3.4
441.063	3.59
441.268	3.53
441.472	3.56
441.677	3.4
441.881	3.61
442.086	3.44
442.29	3.31
442.495	3.29
442.699	3.52
442.904	3.53
443.108	3.27
443.312	2.99
443.517	3.05
443.721	3.1
443.925	3.17
444.13	2.97
444.334	3.08
444.538	3.02
444.743	3
444.947	2.91
445.151	2.87
445.356	3.05
445.56	3.2
445.764	3.18
445.968	3.12
446.173	3.19
446.377	3.34
446.581	3.26
446.785	3.25
446.989	3.21
447.193	3.25
447.398	3.18
447.602	3.01
447.806	3.06
448.01	3.14
448.214	2.98
448.418	3
448.622	2.8
448.826	2.71
449.03	2.7
449.234	2.78
449.438	2.62
449.642	2.69
449.846	2.72
450.05	2.57
450.254	2.36
450.458	2.52
450.662	2.49
450.866	2.36
451.069	2.65
451.273	2.69
451.477	2.6
451.681	2.76
451.885	2.78
452.089	3.09
452.292	2.97
452.496	2.96
452.7	2.82
452.904	2.75
453.107	2.79
453.311	2.48
453.515	2.39
453.719	2.43
453.922	2.34
454.126	2.12
454.33	1.85
454.533	2.16
454.737	2.39
454.94	2.6
455.144	2.54
455.348	2.65
455.551	2.81
455.755	2.9
455.958	2.95
456.162	3.03
456.365	3.04
456.569	2.93
456.772	2.72
456.976	2.29
457.179	2.24
457.383	2.22
457.586	2.32
457.79	2.25
457.993	2.2
458.196	2.2
458.4	2.23
458.603	2.46
458.807	2.48
459.01	2.53
459.213	2.7
459.417	2.78
459.62	2.81
459.823	2.75
460.026	2.78
460.23	2.91
460.433	2.94
460.636	2.91
460.839	2.76
461.042	2.81
461.246	2.86
461.449	3.02
461.652	2.9
461.855	2.92
462.058	2.81
462.261	2.82
462.464	2.73
462.668	2.54
462.871	2.5
463.074	2.59
463.277	2.58
463.48	2.6
463.683	2.31
463.886	2.38
464.089	2.35
464.292	2.45
464.495	2.55
464.698	2.32
464.901	2.55
465.104	2.45
465.306	2.4
465.509	2.47
465.712	2.52
465.915	2.8
466.118	2.82
466.321	2.67
466.524	2.8
466.726	2.73
466.929	2.73
467.132	2.63
467.335	2.69
