Data from 2938125_Reflection_1.txt Node
Date: Sat Jul 11 17:27:54 EDT 2015
User: robert
Spectrometer: USB4E03001
Autoset integration time: false
Trigger mode: 4
Integration Time (sec): 1.000000E-1
Scans to average: 10
Electric dark correction enabled: true
Nonlinearity correction enabled: false
Boxcar width: 5
Stray light correction enabled: false
XAxis mode: Wavelengths
Stop averaging: false
Number of Pixels in Spectrum: 3648
>>>>>Begin Spectral Data<<<<<
177.566	-18.23
177.785	620.59
178.005	-172.51
178.225	-937.5
178.445	87.11
178.665	73.79
178.885	-110.38
179.105	-323.7
179.324	309.62
179.544	114.86
179.764	149
179.984	127.88
180.204	154.12
180.423	136.59
180.643	102.32
180.863	151.41
181.083	156.66
181.302	164
181.522	166.57
181.742	209.96
181.961	268.61
182.181	265.81
182.401	258.92
182.621	331.92
182.84	338.84
183.06	364.54
183.279	300.41
183.499	335.7
183.719	323.89
183.938	345.6
184.158	288.14
184.377	234.68
184.597	202.46
184.816	184.2
185.036	153.66
185.256	148.55
185.475	153.9
185.695	155.97
185.914	143.55
186.134	164.58
186.353	146.09
186.572	146.68
186.792	129.12
187.011	147.89
187.231	159.52
187.45	163.61
187.67	154.2
187.889	151.69
188.108	152.68
188.328	143.95
188.547	136.75
188.766	161.36
188.986	159.2
189.205	173.41
189.424	156.96
189.644	171.03
189.863	197.16
190.082	192.66
190.302	171.67
190.521	154.7
190.74	172.89
190.959	173.44
191.178	159.66
191.398	164.02
191.617	175.3
191.836	175.47
192.055	131.26
192.274	119.28
192.494	103.16
192.713	109.64
192.932	122.92
193.151	107.85
193.37	92.65
193.589	102.46
193.808	101.73
194.027	107.52
194.246	120.85
194.465	145.32
194.685	141.17
194.904	182.23
195.123	247.62
195.342	217.51
195.561	272.47
195.78	435.24
195.999	289
196.218	231.96
196.436	214.3
196.655	165.95
196.874	164.01
197.093	133.44
197.312	118.75
197.531	99.21
197.75	96.67
197.969	89.71
198.188	87.21
198.407	79.08
198.625	73.24
198.844	85.3
199.063	86.39
199.282	82.72
199.501	88.29
199.719	85.8
199.938	98.79
200.157	100.52
200.376	102.11
200.594	92.16
200.813	99.75
201.032	117.85
201.251	107.07
201.469	116.95
201.688	121.7
201.907	114.7
202.125	124.6
202.344	103.21
202.563	106.29
202.781	108.86
203	123.8
203.218	121.73
203.437	116.49
203.656	114.94
203.874	107.5
204.093	117.07
204.311	131.1
204.53	133.19
204.748	166.75
204.967	175.01
205.185	155.85
205.404	136.88
205.622	130.99
205.841	120.34
206.059	141.5
206.278	165.94
206.496	129.36
206.715	133.34
206.933	113.73
207.151	108.63
207.37	107.21
207.588	118.34
207.806	129.74
208.025	126.5
208.243	133.75
208.461	120.89
208.68	104.95
208.898	118.48
209.116	113.16
209.335	141.98
209.553	161.32
209.771	149.57
209.989	153.98
210.208	139.16
210.426	173.57
210.644	188.99
210.862	193.26
211.081	230.18
211.299	200.79
211.517	193.96
211.735	166.78
211.953	138.09
212.171	128.27
212.39	116.58
212.608	124.3
212.826	118.1
213.044	126.25
213.262	142.9
213.48	129.46
213.698	137.57
213.916	147.71
214.134	155.61
214.352	177.58
214.57	213.86
214.788	271.84
215.006	224.46
215.224	201.51
215.442	165.39
215.66	171.71
215.878	150.87
216.096	147.68
216.314	122.27
216.532	131.86
216.75	130.51
216.968	126.45
217.185	119.15
217.403	157.75
217.621	153.01
217.839	151.67
218.057	144.5
218.275	177.94
218.492	168.71
218.71	199.56
218.928	231.07
219.146	215.82
219.363	224.67
219.581	224.3
219.799	189.81
220.017	193.87
220.234	178.5
220.452	175.76
220.67	160.16
220.887	158.01
221.105	144.6
221.323	158.42
221.54	150.17
221.758	127.39
221.976	126.23
222.193	147.13
222.411	153.9
222.629	163.63
222.846	168.83
223.064	174.39
223.281	189.57
223.499	183.87
223.716	132.41
223.934	144.03
224.151	154.36
224.369	147.51
224.586	114.96
224.804	101.52
225.021	97.46
225.239	92.69
225.456	79.34
225.674	69.63
225.891	73.28
226.108	76.41
226.326	68.98
226.543	57.11
226.76	46.01
226.978	53.27
227.195	52.51
227.413	41.75
227.63	38.47
227.847	39.87
228.064	37.98
228.282	33.54
228.499	33.64
228.716	32.69
228.934	29.23
229.151	32.09
229.368	31.12
229.585	32.83
229.802	35.26
230.02	38.39
230.237	38.78
230.454	39.73
230.671	43.34
230.888	42.05
231.105	44.29
231.323	50.17
231.54	52.15
231.757	51.91
231.974	50.27
232.191	50.02
232.408	50.33
232.625	49.11
232.842	52.6
233.059	49.74
233.276	47.95
233.493	46.81
233.71	45.27
233.927	45.84
234.144	49.44
234.361	46.73
234.578	49.35
234.795	46.27
235.012	47.91
235.229	44.28
235.446	50.36
235.663	53.44
235.879	56.06
236.096	55.71
236.313	55.52
236.53	49.98
236.747	58.52
236.964	58.26
237.181	55.2
237.397	51.71
237.614	55.62
237.831	46.77
238.048	44.45
238.264	42.51
238.481	45.14
238.698	44.92
238.915	42.29
239.131	37.32
239.348	35.53
239.565	39.45
239.781	40.39
239.998	38.17
240.215	43.05
240.431	44.65
240.648	40.92
240.865	38.43
241.081	35.19
241.298	34.47
241.514	33.29
241.731	32.31
241.947	28.97
242.164	27.6
242.38	27.11
242.597	24.63
242.814	22.55
243.03	22.7
243.246	23.59
243.463	22.52
243.679	25.33
243.896	25.6
244.112	24.91
244.329	27.68
244.545	28.54
244.762	29.09
244.978	30.43
245.194	29.18
245.411	28.03
245.627	25.02
245.843	27.03
246.06	24.02
246.276	22.98
246.492	22.07
246.709	21.74
246.925	19.88
247.141	19.2
247.357	18.44
247.574	19.04
247.79	19.48
248.006	19.41
248.222	18.73
248.439	19.26
248.655	19.94
248.871	19.93
249.087	20.14
249.303	21.95
249.519	22.77
249.736	24.49
249.952	24.47
250.168	26.83
250.384	29.14
250.6	28.41
250.816	29.09
251.032	27.96
251.248	29.31
251.464	26.66
251.68	24.82
251.896	24.67
252.112	23.84
252.328	25.81
252.544	24.9
252.76	23.91
252.976	24.79
253.192	24.84
253.408	24.79
253.624	25.16
253.84	27.46
254.056	29.45
254.272	28.05
254.487	27.79
254.703	26.43
254.919	25.49
255.135	24.07
255.351	23.14
255.567	23.14
255.782	23.35
255.998	21.33
256.214	18.09
256.43	18.13
256.646	18.13
256.861	16.52
257.077	17.33
257.293	17.84
257.508	18.34
257.724	19.07
257.94	16.75
258.155	16.99
258.371	17.93
258.587	16.81
258.802	16.04
259.018	15.98
259.234	15.77
259.449	15.23
259.665	14.92
259.88	15.12
260.096	14.75
260.312	15.34
260.527	15.2
260.743	15.03
260.958	15.51
261.174	15.48
261.389	16.33
261.605	17.76
261.82	17.89
262.036	18.39
262.251	18.62
262.466	19.34
262.682	20.63
262.897	21.87
263.113	22.2
263.328	23.37
263.543	23.62
263.759	23.19
263.974	22.89
264.189	24.14
264.405	24.74
264.62	25.6
264.835	25.45
265.051	24.06
265.266	24.39
265.481	24.89
265.696	26.31
265.912	25.8
266.127	25.78
266.342	23.69
266.557	22.15
266.773	20.51
266.988	19.61
267.203	19.74
267.418	19.98
267.633	18.88
267.848	19.6
268.064	18.7
268.279	19.76
268.494	19.15
268.709	20.19
268.924	20.57
269.139	20.58
269.354	21.35
269.569	20.99
269.784	19.65
269.999	19.5
270.214	18.19
270.429	19.56
270.644	17.67
270.859	18.41
271.074	16.79
271.289	18.92
271.504	20.06
271.719	19.76
271.934	20.18
272.149	19.87
272.363	19.46
272.578	19.32
272.793	18.07
273.008	19.39
273.223	18.87
273.438	20.66
273.653	19.27
273.867	19.69
274.082	19.32
274.297	18.83
274.512	20.86
274.726	21.48
274.941	21.67
275.156	21.72
275.371	22.47
275.585	23.46
275.8	24.53
276.015	25.79
276.229	25.24
276.444	26
276.659	25.18
276.873	23.75
277.088	25.03
277.302	25.75
277.517	25.14
277.732	25.33
277.946	24.14
278.161	23.45
278.375	22.81
278.59	23.09
278.804	20.42
279.019	24.13
279.233	24.29
279.448	22.15
279.662	20.52
279.877	20.65
280.091	20.34
280.306	20.82
280.52	19.97
280.735	19.31
280.949	18.99
281.163	21.7
281.378	19.39
281.592	19.01
281.806	20.04
282.021	21.3
282.235	22.31
282.449	22.74
282.664	21.01
282.878	20.93
283.092	20.06
283.307	19.68
283.521	19.07
283.735	19.93
283.949	19.63
284.164	18.84
284.378	17.3
284.592	17.62
284.806	16.69
285.02	18.72
285.234	18.84
285.449	19.58
285.663	19.21
285.877	19.36
286.091	19.16
286.305	21.17
286.519	21.59
286.733	21.59
286.947	21.24
287.161	20.73
287.375	19.95
287.589	20.19
287.803	19.55
288.017	20.42
288.231	19.01
288.445	17.82
288.659	15.49
288.873	15.84
289.087	17.95
289.301	16.89
289.515	17.02
289.729	16.67
289.943	15.81
290.157	15.16
290.371	14.34
290.584	14.97
290.798	15.54
291.012	16.99
291.226	15.79
291.44	15.37
291.654	16.07
291.867	15.82
292.081	16.24
292.295	16.71
292.509	18.18
292.722	19.28
292.936	19.37
293.15	19.37
293.364	18.68
293.577	19.75
293.791	20.28
294.005	21.08
294.218	22.06
294.432	22.44
294.645	23.2
294.859	22.34
295.073	21.15
295.286	20.55
295.5	21.22
295.713	21.05
295.927	21.94
296.14	21.27
296.354	19.56
296.568	18.08
296.781	18.35
296.994	17.77
297.208	18.04
297.421	19.35
297.635	20.1
297.848	18.97
298.062	18.02
298.275	16.95
298.489	17.74
298.702	18.85
298.915	19.19
299.129	20.13
299.342	21.46
299.555	22.22
299.769	22.01
299.982	22.45
300.195	23.47
300.409	25.95
300.622	27.4
300.835	25.35
301.048	25.54
301.262	28.64
301.475	27.8
301.688	26.26
301.901	25.12
302.115	24.98
302.328	25.17
302.541	25.61
302.754	24.57
302.967	24.69
303.18	25.85
303.393	26.36
303.607	25.24
303.82	25.01
304.033	24.34
304.246	24.59
304.459	23.91
304.672	23.1
304.885	22.91
305.098	23.91
305.311	24.35
305.524	23.46
305.737	21.74
305.95	21.3
306.163	21.14
306.376	22.14
306.589	22.88
306.802	23.93
307.015	25.97
307.228	24.99
307.44	23.8
307.653	22.45
307.866	22.68
308.079	24.09
308.292	22.79
308.505	22.51
308.718	22.65
308.93	22.49
309.143	22.71
309.356	20.86
309.569	21.5
309.781	21.67
309.994	21.65
310.207	22.34
310.42	21.73
310.632	22.39
310.845	22.5
311.058	22.85
311.27	23.42
311.483	23.65
311.696	24.4
311.908	24.97
312.121	25.1
312.333	25.19
312.546	25.42
312.759	26.02
312.971	26.9
313.184	26.81
313.396	27.29
313.609	27.45
313.821	26.87
314.034	27.13
314.246	27.47
314.459	28.16
314.671	28.13
314.884	27.56
315.096	28.86
315.309	29.8
315.521	28.79
315.733	28.95
315.946	27.07
316.158	27.54
316.371	25.74
316.583	24.6
316.795	23.82
317.008	24.65
317.22	25.36
317.432	23.93
317.644	21.65
317.857	24.01
318.069	23.65
318.281	24.66
318.494	22.6
318.706	23.46
318.918	23.57
319.13	22.99
319.342	21.24
319.555	20.92
319.767	20.63
319.979	20.64
320.191	20.57
320.403	20.49
320.615	21.17
320.827	21.68
321.039	22.53
321.252	23.57
321.464	25.28
321.676	26.58
321.888	25.44
322.1	25.94
322.312	23.38
322.524	23.12
322.736	22.54
322.948	21.6
323.16	21.02
323.372	20.41
323.584	20.33
323.796	19.51
324.007	17.62
324.219	17.74
324.431	17.6
324.643	19.74
324.855	18.79
325.067	18.38
325.279	18.02
325.491	19.09
325.702	18.72
325.914	17.94
326.126	18.94
326.338	19.79
326.55	18.87
326.761	19.65
326.973	20
327.185	21.12
327.396	22.83
327.608	23.26
327.82	24.36
328.032	24.76
328.243	26.43
328.455	24.99
328.666	25.61
328.878	27.34
329.09	25.68
329.301	26.73
329.513	26.97
329.725	25.33
329.936	26.54
330.148	26.17
330.359	26.62
330.571	26.34
330.782	26.31
330.994	25.53
331.205	26.04
331.417	25.51
331.628	24.63
331.84	24.8
332.051	24.58
332.262	24.95
332.474	22.82
332.685	23.22
332.897	21.55
333.108	22.92
333.319	24.66
333.531	23.36
333.742	24.2
333.953	24.22
334.165	23.82
334.376	24.84
334.587	23.81
334.799	24.51
335.01	23.85
335.221	23.84
335.432	22.05
335.644	20.59
335.855	20.78
336.066	21.52
336.277	20.77
336.488	20.65
336.7	19.97
336.911	21.47
337.122	21.44
337.333	20.48
337.544	21.15
337.755	20.89
337.966	20.63
338.177	22.24
338.388	21.54
338.599	22.38
338.811	21.4
339.022	20.01
339.233	17.71
339.444	18.21
339.655	18.79
339.866	19.34
340.076	21.09
340.287	22.6
340.498	21.64
340.709	20.89
340.92	21.01
341.131	21.68
341.342	22.75
341.553	23.1
341.764	22.93
341.975	23.81
342.185	22.39
342.396	21.16
342.607	20.1
342.818	20.12
343.029	21.14
343.239	20.52
343.45	20.37
343.661	18.59
343.872	18.62
344.082	17.93
344.293	16.34
344.504	17.53
344.714	17.74
344.925	18.75
345.136	18.26
345.346	17.51
345.557	17.38
345.768	17.4
345.978	20.25
346.189	20.04
346.399	19.5
346.61	19.36
346.821	18.78
347.031	19.05
347.242	18.77
347.452	18.92
347.663	19.5
347.873	19.44
348.084	18.75
348.294	18.04
348.504	18.41
348.715	18.96
348.925	20.62
349.136	20.17
349.346	20.3
349.557	19.45
349.767	19.23
349.977	19.44
350.188	18.7
350.398	19.34
350.608	18.18
350.819	18.44
351.029	19.76
351.239	19.76
351.449	21.04
351.66	21.18
351.87	21.71
352.08	21.18
352.29	21.67
352.501	22.49
352.711	22.79
352.921	24.36
353.131	23.6
353.341	22.91
353.552	22.43
353.762	21.01
353.972	19.02
354.182	17.85
354.392	18.65
354.602	17.81
354.812	17.27
355.022	16.6
355.232	16.08
355.442	16.19
355.652	15.96
355.862	15.5
356.072	15.9
356.282	17.6
356.492	18.19
356.702	17.99
356.912	17.99
357.122	18.23
357.332	18.11
357.542	17.7
357.752	17.83
357.962	17.91
358.171	17.7
358.381	17.53
358.591	17.73
358.801	18.37
359.011	17.84
359.221	17.48
359.43	17.45
359.64	16.97
359.85	17.89
360.06	17.86
360.269	16.8
360.479	16.78
360.689	16.7
360.899	16.73
361.108	15.68
361.318	16.59
361.528	16.5
361.737	16.45
361.947	17.35
362.156	16.81
362.366	16.6
362.576	16.56
362.785	16.88
362.995	16.89
363.204	16.64
363.414	17.3
363.623	16.7
363.833	17.64
364.042	17.28
364.252	17.39
364.461	17.16
364.671	16.88
364.88	18.13
365.09	17.69
365.299	17.59
365.509	16.36
365.718	16.28
365.927	16.2
366.137	15.24
366.346	15.09
366.555	14
366.765	14.94
366.974	14.88
367.183	13.72
367.393	13.8
367.602	13.35
367.811	14.61
368.021	13.88
368.23	13.35
368.439	13.3
368.648	14.11
368.857	14.53
369.067	13.62
369.276	14.59
369.485	15.56
369.694	15.83
369.903	16.72
370.112	16.38
370.321	16.17
370.531	15.76
370.74	16.51
370.949	15.78
371.158	15.05
371.367	14.39
371.576	13.73
371.785	13.29
371.994	12.7
372.203	12.51
372.412	12.4
372.621	13.37
372.83	13.93
373.039	13.66
373.248	14.09
373.457	14.4
373.666	14.7
373.874	14.6
374.083	14.45
374.292	14.41
374.501	14.15
374.71	13.93
374.919	13.58
375.128	13.05
375.336	11.94
375.545	11.61
375.754	11.72
375.963	11.72
376.171	11.16
376.38	11.09
376.589	11.58
376.798	11.21
377.006	11.61
377.215	11.54
377.424	11.28
377.632	11.49
377.841	11.09
378.05	10.82
378.258	10.51
378.467	11.23
378.675	11.23
378.884	10.76
379.093	10.91
379.301	10.36
379.51	9.93
379.718	10.59
379.927	10.38
380.135	10.72
380.344	10.68
380.552	10.44
380.761	10.38
380.969	10.22
381.177	10.85
381.386	10.93
381.594	11.15
381.803	11.1
382.011	10.83
382.219	10.94
382.428	10.73
382.636	10.48
382.845	10.68
383.053	10.54
383.261	10.11
383.469	10.01
383.678	9.94
383.886	9.59
384.094	9.4
384.302	9.67
384.511	9.83
384.719	9.81
384.927	9.8
385.135	10.66
385.343	10.6
385.552	11.13
385.76	10.66
385.968	10.86
386.176	10.87
386.384	11.03
386.592	10.42
386.8	10.49
387.008	10.83
387.216	10.9
387.424	10.56
387.633	10.18
387.841	9.74
388.049	9.73
388.257	9.32
388.465	9.17
388.672	9.27
388.88	9.45
389.088	9.41
389.296	9.02
389.504	9.11
389.712	8.63
389.92	8.73
390.128	8.88
390.336	8.58
390.544	8.68
390.751	8.35
390.959	8.15
391.167	8.27
391.375	8.15
391.583	7.85
391.79	7.66
391.998	7.69
392.206	7.73
392.414	7.52
392.621	7.58
392.829	7.23
393.037	7.63
393.244	7.6
393.452	7.44
393.66	7.24
393.867	7.66
394.075	7.68
394.283	7.67
394.49	7.7
394.698	7.85
394.905	7.77
395.113	7.79
395.32	7.63
395.528	8.05
395.735	8.11
395.943	7.89
396.15	7.75
396.358	7.51
396.565	7.22
396.773	6.93
396.98	6.97
397.188	7.22
397.395	6.99
397.602	7.09
397.81	6.63
398.017	6.58
398.225	6.76
398.432	6.51
398.639	6.74
398.847	6.86
399.054	6.84
399.261	7.26
399.468	7
399.676	7.27
399.883	7.04
400.09	7.19
400.297	7.33
400.505	7.51
400.712	7.7
400.919	7.55
401.126	7.44
401.333	7.64
401.54	7.01
401.748	6.83
401.955	6.63
402.162	6.79
402.369	6.49
402.576	5.83
402.783	5.53
402.99	5.36
403.197	5.16
403.404	5.32
403.611	5.18
403.818	5.38
404.025	5.58
404.232	5.83
404.439	5.74
404.646	5.82
404.853	6.29
405.06	6.13
405.267	6.03
405.474	6.12
405.681	5.97
405.887	5.88
406.094	5.79
406.301	6.11
406.508	5.83
406.715	5.99
406.922	6.23
407.128	5.83
407.335	5.81
407.542	6.13
407.749	6.38
407.955	6.81
408.162	6.78
408.369	6.82
408.575	6.7
408.782	7.14
408.989	6.93
409.195	6.74
409.402	7.13
409.609	7.28
409.815	7.03
410.022	7.02
410.228	6.44
410.435	6.62
410.642	6.32
410.848	5.91
411.055	5.51
411.261	5.65
411.468	5.39
411.674	5.26
411.881	5.38
412.087	5.31
412.294	5.3
412.5	5.64
412.706	5.43
412.913	5.43
413.119	5.67
413.326	5.87
413.532	5.57
413.738	5.75
413.945	5.92
414.151	5.81
414.357	5.86
414.564	5.83
414.77	5.64
414.976	5.68
415.182	5.75
415.389	5.44
415.595	5.12
415.801	5.32
416.007	5.15
416.214	4.87
416.42	4.95
416.626	4.81
416.832	4.74
417.038	4.85
417.244	4.81
417.45	4.78
417.657	4.92
417.863	4.95
418.069	4.8
418.275	4.97
418.481	4.89
418.687	4.77
418.893	4.7
419.099	4.53
419.305	4.39
419.511	4.41
419.717	4.45
419.923	4.29
420.129	4.41
420.335	4.47
420.541	4.37
420.746	4.3
420.952	4.37
421.158	4.26
421.364	4.33
421.57	4.47
421.776	4.38
421.982	4.37
422.187	4.47
422.393	4.31
422.599	4.27
422.805	4.31
423.01	4.38
423.216	4.3
423.422	4.41
423.628	4.34
423.833	4.16
424.039	4.32
424.245	4.31
424.45	4.41
424.656	4.47
424.862	4.35
425.067	4.23
425.273	4.25
425.478	4.18
425.684	4.15
425.889	4.29
426.095	4.5
426.301	4.47
426.506	4.41
426.712	4.31
426.917	4.36
427.123	4.33
427.328	4.48
427.533	4.44
427.739	4.51
427.944	4.59
428.15	4.59
428.355	4.37
428.561	4.43
428.766	4.66
428.971	4.73
429.177	4.56
429.382	4.67
429.587	4.47
429.793	4.67
429.998	4.87
430.203	5.05
430.408	4.94
430.614	5.05
430.819	4.98
431.024	4.93
431.229	4.95
431.434	5.01
431.64	5.21
431.845	5.52
432.05	5.43
432.255	5.3
432.46	5.09
432.665	5.18
432.87	5.17
433.076	5.13
433.281	5.11
433.486	4.89
433.691	5.01
433.896	4.64
434.101	4.59
434.306	4.43
434.511	4.48
434.716	4.63
434.921	4.64
435.126	4.4
435.331	4.32
435.535	4.18
435.74	4.12
435.945	4.03
436.15	4.06
436.355	4.1
436.56	4.21
436.765	4.2
436.97	4.1
437.174	3.97
437.379	4.08
437.584	4.16
437.789	4.17
437.993	4.45
438.198	4.44
438.403	4.76
438.608	4.55
438.812	4.66
439.017	4.54
439.222	4.64
439.426	4.65
439.631	4.62
439.836	4.47
440.04	4.42
440.245	4.47
440.45	4.48
440.654	4.42
440.859	4.51
441.063	4.3
441.268	4.38
441.472	4.26
441.677	4.32
441.881	4.51
442.086	4.58
442.29	4.57
442.495	4.45
442.699	4.56
442.904	4.49
443.108	4.39
443.312	4.41
443.517	4.24
443.721	4.14
443.925	4.06
444.13	3.88
444.334	3.89
444.538	3.97
444.743	3.79
444.947	3.59
445.151	3.62
445.356	3.71
445.56	3.72
445.764	3.72
445.968	3.79
446.173	3.65
446.377	3.58
446.581	3.58
446.785	3.61
446.989	3.66
447.193	3.68
447.398	3.62
447.602	3.57
447.806	3.62
448.01	3.72
448.214	3.63
448.418	3.74
448.622	4.07
448.826	4.18
449.03	4.03
449.234	3.99
449.438	4.11
449.642	4.23
449.846	4.13
450.05	4.1
450.254	4.12
450.458	4.08
450.662	3.98
450.866	3.48
451.069	3.21
451.273	3.32
451.477	3.32
451.681	3.19
451.885	3.23
452.089	3.51
452.292	3.47
452.496	3.67
452.7	3.9
452.904	4.06
453.107	4.38
453.311	4.36
453.515	4.4
453.719	4.46
453.922	4.45
454.126	4.41
454.33	4.22
454.533	4.38
454.737	4.14
454.94	4.26
455.144	4.2
455.348	4.02
455.551	4.19
455.755	4.28
455.958	4.42
456.162	4.53
456.365	4.65
456.569	4.63
456.772	4.48
456.976	4.61
457.179	4.4
457.383	4.22
457.586	4.2
457.79	4.15
457.993	4.03
458.196	4.03
458.4	4.09
458.603	4.07
458.807	4.03
459.01	4.06
459.213	3.85
459.417	3.84
