Data from 2938047_Reflection_3.txt Node
Date: Sun Jul 12 14:23:45 EDT 2015
User: robert
Spectrometer: USB4E03001
Autoset integration time: false
Trigger mode: 4
Integration Time (sec): 1.000000E-1
Scans to average: 10
Electric dark correction enabled: true
Nonlinearity correction enabled: false
Boxcar width: 5
Stray light correction enabled: false
XAxis mode: Wavelengths
Stop averaging: false
Number of Pixels in Spectrum: 3648
>>>>>Begin Spectral Data<<<<<
177.566	-41.17
177.785	-35.85
178.005	-32.83
178.225	36.24
178.445	89.62
178.665	74.86
178.885	14.23
179.105	-357.33
179.324	212.86
179.544	184.56
179.764	391.67
179.984	333.7
180.204	305.32
180.423	199.6
180.643	174.88
180.863	140.43
181.083	166.73
181.302	124.81
181.522	120.21
181.742	132.61
181.961	126.75
182.181	109.45
182.401	120.91
182.621	119.91
182.84	113.01
183.06	128.25
183.279	121.71
183.499	117.47
183.719	120.01
183.938	136.28
184.158	150.5
184.377	161.75
184.597	214.54
184.816	206.37
185.036	242.29
185.256	265.84
185.475	165.64
185.695	145.59
185.914	188.35
186.134	168.8
186.353	141.45
186.572	123.45
186.792	100.35
187.011	84.84
187.231	87.42
187.45	100.47
187.67	111.78
187.889	114.02
188.108	129.93
188.328	95.75
188.547	104.52
188.766	147.4
188.986	142.88
189.205	173.12
189.424	209.89
189.644	203.49
189.863	236.03
190.082	175.02
190.302	203.35
190.521	201.02
190.74	224.91
190.959	334.56
191.178	191.87
191.398	251.88
191.617	254.29
191.836	344.04
192.055	302.53
192.274	308.35
192.494	1719.1
192.713	411.46
192.932	308.78
193.151	235.43
193.37	173.97
193.589	228.39
193.808	215.36
194.027	253.44
194.246	178.17
194.465	189.53
194.685	161.47
194.904	142.17
195.123	167.54
195.342	200.47
195.561	273.96
195.78	404.14
195.999	257.41
196.218	207.37
196.436	218.73
196.655	351.13
196.874	260.29
197.093	228.04
197.312	209.54
197.531	203.82
197.75	148.07
197.969	155.28
198.188	137.29
198.407	158.85
198.625	164.82
198.844	140.1
199.063	119.56
199.282	111.12
199.501	101.22
199.719	112.89
199.938	133.63
200.157	183.53
200.376	148.36
200.594	121.85
200.813	132.75
201.032	131.38
201.251	146
201.469	145.24
201.688	150.9
201.907	155.21
202.125	141.93
202.344	117.36
202.563	112.87
202.781	134.91
203	146.86
203.218	133.57
203.437	156.51
203.656	146.17
203.874	151.48
204.093	105.35
204.311	104.33
204.53	95.89
204.748	166.53
204.967	128.16
205.185	104.36
205.404	148.94
205.622	108.02
205.841	86.24
206.059	75.04
206.278	86.68
206.496	98.2
206.715	114.76
206.933	113.33
207.151	91.09
207.37	93.22
207.588	98.6
207.806	70.84
208.025	89.29
208.243	96.85
208.461	127.93
208.68	191.65
208.898	193.82
209.116	185.86
209.335	224.21
209.553	177.48
209.771	190.69
209.989	168.28
210.208	217.95
210.426	253.21
210.644	203.94
210.862	180.95
211.081	150.31
211.299	153.31
211.517	137.35
211.735	133.02
211.953	125.48
212.171	118.36
212.39	110.82
212.608	109.34
212.826	91.74
213.044	88.8
213.262	92.76
213.48	85.93
213.698	94.68
213.916	95.66
214.134	99.22
214.352	111.69
214.57	125.01
214.788	137.94
215.006	139.26
215.224	163.49
215.442	202.32
215.66	203.27
215.878	188.72
216.096	170.3
216.314	174.75
216.532	156.19
216.75	148.96
216.968	133.06
217.185	129.54
217.403	122.08
217.621	112.89
217.839	109.55
218.057	95.15
218.275	97.8
218.492	98.75
218.71	93.51
218.928	88.15
219.146	72.67
219.363	81.85
219.581	86.07
219.799	76.87
220.017	79.99
220.234	77.23
220.452	73.78
220.67	61.14
220.887	60.11
221.105	67.35
221.323	83.03
221.54	94.21
221.758	86.99
221.976	78.49
222.193	89.84
222.411	90.8
222.629	89.03
222.846	88.28
223.064	108.04
223.281	111.38
223.499	126.88
223.716	100.89
223.934	78.63
224.151	67.75
224.369	75.88
224.586	77.96
224.804	60.07
225.021	56.75
225.239	71.96
225.456	66.19
225.674	60.18
225.891	58.08
226.108	63.43
226.326	69.03
226.543	73.09
226.76	64.13
226.978	61.38
227.195	60.63
227.413	59.07
227.63	53.24
227.847	50.02
228.064	44.2
228.282	35.56
228.499	30.08
228.716	26.51
228.934	26.15
229.151	25.78
229.368	21.12
229.585	20.51
229.802	20.87
230.02	18.22
230.237	18.77
230.454	18.45
230.671	18.44
230.888	23.01
231.105	22.42
231.323	20.19
231.54	21.72
231.757	27.75
231.974	32.71
232.191	30.13
232.408	31.59
232.625	30.17
232.842	33.22
233.059	38.07
233.276	37.89
233.493	39.75
233.71	39.68
233.927	44.1
234.144	37.72
234.361	29.75
234.578	31.72
234.795	29.16
235.012	26.84
235.229	25.75
235.446	27.87
235.663	22.4
235.879	18.46
236.096	19.69
236.313	14.61
236.53	14.94
236.747	22.7
236.964	20.94
237.181	25.62
237.397	26.19
237.614	28.74
237.831	26.8
238.048	31.56
238.264	37.21
238.481	31.5
238.698	34.01
238.915	34.8
239.131	27.51
239.348	32.21
239.565	31.5
239.781	32.58
239.998	29.46
240.215	32.32
240.431	30.46
240.648	25.95
240.865	28.24
241.081	27.22
241.298	25.16
241.514	23.73
241.731	20.92
241.947	17.07
242.164	16.52
242.38	15.34
242.597	11.85
242.814	11.28
243.03	12.68
243.246	12.14
243.463	11.32
243.679	9.53
243.896	9.62
244.112	9.93
244.329	11.01
244.545	11.58
244.762	14.13
244.978	14.22
245.194	14.83
245.411	13.72
245.627	14.67
245.843	14.4
246.06	15.16
246.276	15.02
246.492	12.42
246.709	12.66
246.925	11.51
247.141	10.31
247.357	9.37
247.574	8.88
247.79	9.23
248.006	8.9
248.222	7.93
248.439	9.03
248.655	9.64
248.871	10.14
249.087	10.52
249.303	11.37
249.519	13.67
249.736	16.41
249.952	17.44
250.168	18.57
250.384	17.98
250.6	19.43
250.816	17.38
251.032	16.42
251.248	17.66
251.464	18.7
251.68	18.66
251.896	15.62
252.112	14.3
252.328	14
252.544	12.01
252.76	11.81
252.976	12.48
253.192	12.13
253.408	13.1
253.624	13.76
253.84	13.23
254.056	15.06
254.272	16.18
254.487	18.87
254.703	17.78
254.919	21.62
255.135	23.05
255.351	23.72
255.567	26.48
255.782	25.48
255.998	24.38
256.214	22.97
256.43	21.9
256.646	22.02
256.861	21.65
257.077	22.86
257.293	21.37
257.508	20.84
257.724	21.35
257.94	18.2
258.155	16.23
258.371	16.65
258.587	16.62
258.802	15.76
259.018	13.62
259.234	12.93
259.449	11.75
259.665	10.84
259.88	10.59
260.096	10.02
260.312	10.05
260.527	9.94
260.743	8.82
260.958	8.47
261.174	7.58
261.389	8.58
261.605	8.48
261.82	8.94
262.036	9.26
262.251	10.26
262.466	9.72
262.682	11.25
262.897	11.2
263.113	12.92
263.328	13.83
263.543	15.46
263.759	13.73
263.974	11.95
264.189	11.64
264.405	12.01
264.62	10.43
264.835	12.66
265.051	10.29
265.266	11.21
265.481	12.9
265.696	12.34
265.912	11.97
266.127	13.96
266.342	13.95
266.557	13.8
266.773	14.47
266.988	12.93
267.203	11.63
267.418	13.66
267.633	12.16
267.848	11.85
268.064	12.25
268.279	12.33
268.494	11.82
268.709	12.97
268.924	14.43
269.139	14.92
269.354	16.64
269.569	15.9
269.784	15.1
269.999	16.11
270.214	14.9
270.429	14.21
270.644	14.5
270.859	15.26
271.074	14.19
271.289	12.73
271.504	12.48
271.719	11.88
271.934	12
272.149	11.64
272.363	12.33
272.578	11.72
272.793	12.87
273.008	12.93
273.223	12.37
273.438	13.15
273.653	11.76
273.867	10.88
274.082	11.76
274.297	12.93
274.512	13.9
274.726	12.93
274.941	14.12
275.156	13.69
275.371	12.68
275.585	13.64
275.8	12.78
276.015	14.88
276.229	13.67
276.444	12.64
276.659	11.15
276.873	10.61
277.088	10.8
277.302	12.85
277.517	12.07
277.732	13.51
277.946	13.03
278.161	14.76
278.375	15.02
278.59	18.12
278.804	18.18
279.019	18.82
279.233	17.51
279.448	17.05
279.662	13.67
279.877	12.53
280.091	11.94
280.306	10.47
280.52	8.43
280.735	8.3
280.949	7.11
281.163	8.6
281.378	6.97
281.592	8.51
281.806	9.07
282.021	9.44
282.235	9.86
282.449	10.16
282.664	10.87
282.878	12.19
283.092	12.26
283.307	11.76
283.521	10.89
283.735	12.75
283.949	12.94
284.164	12.06
284.378	12.25
284.592	11.57
284.806	10.38
285.02	9.3
285.234	7.51
285.449	7.56
285.663	8.06
285.877	7.66
286.091	8.45
286.305	7.7
286.519	8.71
286.733	8.1
286.947	8.47
287.161	10.04
287.375	11.44
287.589	12.53
287.803	12.22
288.017	13.01
288.231	13.86
288.445	12.12
288.659	11.62
288.873	11.01
289.087	11.65
289.301	11.91
289.515	11.24
289.729	9.95
289.943	11.32
290.157	10.59
290.371	10.79
290.584	10.79
290.798	12.22
291.012	12.96
291.226	13.14
291.44	13.02
291.654	13.95
291.867	13.39
292.081	14.17
292.295	13.86
292.509	17.26
292.722	15.79
292.936	17.07
293.15	15.83
293.364	15.88
293.577	16.6
293.791	16.73
294.005	16.94
294.218	16.92
294.432	15.35
294.645	15.22
294.859	13.58
295.073	14.51
295.286	12.39
295.5	12.75
295.713	11.6
295.927	10.99
296.14	10.87
296.354	10.01
296.568	9.27
296.781	10.65
296.994	10.71
297.208	10.34
297.421	9.66
297.635	11
297.848	10.72
298.062	10.66
298.275	10.77
298.489	10.7
298.702	10.63
298.915	11.55
299.129	11.17
299.342	11.12
299.555	12.1
299.769	12.27
299.982	12.54
300.195	13.69
300.409	14.02
300.622	14
300.835	14.44
301.048	14.58
301.262	16.1
301.475	18.54
301.688	19.32
301.901	18.46
302.115	18.31
302.328	17.81
302.541	16.5
302.754	17
302.967	17.7
303.18	17.35
303.393	16.77
303.607	14.5
303.82	13.12
304.033	13.05
304.246	13.26
304.459	14.25
304.672	15.23
304.885	16.43
305.098	18.41
305.311	18.19
305.524	19.04
305.737	21.89
305.95	22.72
306.163	23.31
306.376	22.13
306.589	22.96
306.802	22.68
307.015	21.8
307.228	21.1
307.44	18.22
307.653	17.76
307.866	17.57
308.079	16.69
308.292	17.11
308.505	14.85
308.718	14.49
308.93	14.38
309.143	14.02
309.356	14.4
309.569	15.45
309.781	17.11
309.994	18.65
310.207	18.47
310.42	17.44
310.632	17.48
310.845	17.6
311.058	19.07
311.27	19.65
311.483	18.98
311.696	16.48
311.908	15.86
312.121	14.89
312.333	14
312.546	14.56
312.759	14.27
312.971	14.06
313.184	14.58
313.396	13.72
313.609	12.89
313.821	13.11
314.034	15.21
314.246	14.77
314.459	14.97
314.671	16.29
314.884	15.36
315.096	16.45
315.309	16.82
315.521	16.1
315.733	16.83
315.946	17.04
316.158	18.33
316.371	18.55
316.583	19.6
316.795	20.53
317.008	19.1
317.22	18.5
317.432	17.61
317.644	18.09
317.857	19.09
318.069	18.51
318.281	17.99
318.494	18.71
318.706	19.9
318.918	18.76
319.13	18.77
319.342	19.35
319.555	20.09
319.767	20.31
319.979	19.58
320.191	20.26
320.403	21.76
320.615	22.74
320.827	21.85
321.039	21.49
321.252	22.56
321.464	21.27
321.676	21.85
321.888	22.63
322.1	23.4
322.312	23.61
322.524	23.6
322.736	23.93
322.948	22.56
323.16	21.27
323.372	20.23
323.584	19.42
323.796	20.64
324.007	19.58
324.219	19.3
324.431	17.93
324.643	18.26
324.855	17.55
325.067	16.94
325.279	16.91
325.491	17
325.702	18.33
325.914	19.93
326.126	19.87
326.338	20.46
326.55	20.38
326.761	20.76
326.973	20.44
327.185	20.58
327.396	20.32
327.608	21.48
327.82	23.07
328.032	21.5
328.243	20.18
328.455	19.8
328.666	20.75
328.878	21.56
329.09	22.37
329.301	21.46
329.513	21.8
329.725	20.28
329.936	22.28
330.148	22.33
330.359	22.65
330.571	22.55
330.782	22.2
330.994	21.53
331.205	21.48
331.417	22.02
331.628	22.42
331.84	23.08
332.051	23.81
332.262	21.45
332.474	21.93
332.685	22.76
332.897	23.03
333.108	24.01
333.319	23.92
333.531	22.15
333.742	22.52
333.953	22.93
334.165	22.03
334.376	23.01
334.587	24.24
334.799	24.58
335.01	24.31
335.221	25.36
335.432	25.3
335.644	24.67
335.855	24.59
336.066	24.18
336.277	25.26
336.488	26.03
336.7	27.74
336.911	26.38
337.122	25.8
337.333	27.13
337.544	26.55
337.755	26.32
337.966	27.33
338.177	28.96
338.388	29.93
338.599	29.63
338.811	28.96
339.022	27.32
339.233	28.84
339.444	28.23
339.655	26.72
339.866	27.4
340.076	28.57
340.287	28.44
340.498	28.12
340.709	27.03
340.92	25.53
341.131	26.18
341.342	26.18
341.553	26.27
341.764	26.82
341.975	27.35
342.185	27.43
342.396	26.9
342.607	26.21
342.818	26.08
343.029	26.9
343.239	27.86
343.45	27.85
343.661	27.61
343.872	26.48
344.082	25.22
344.293	24.14
344.504	24.53
344.714	24.07
344.925	24.89
345.136	25.75
345.346	25.28
345.557	24.7
345.768	23.24
345.978	23.24
346.189	23.6
346.399	23.73
346.61	25.24
346.821	24.58
347.031	24.59
347.242	23.52
347.452	23.07
347.663	23.29
347.873	24.42
348.084	26.75
348.294	27.45
348.504	27.29
348.715	28.15
348.925	27.64
349.136	28.05
349.346	27.71
349.557	28.42
349.767	27.85
349.977	28.04
350.188	26.58
350.398	26.94
350.608	26.48
350.819	27.56
351.029	27.35
351.239	27.95
351.449	28.21
351.66	28.87
351.87	29.1
352.08	29.14
352.29	29.17
352.501	30.59
352.711	30.69
352.921	30.76
353.131	29.47
353.341	28.73
353.552	28.32
353.762	29.01
353.972	28.99
354.182	29.61
354.392	30.63
354.602	30.63
354.812	29.87
355.022	29.31
355.232	28.57
355.442	28.46
355.652	29.46
355.862	29.36
356.072	27.48
356.282	28.41
356.492	28.9
356.702	28.43
356.912	27.94
357.122	28.12
357.332	27.56
357.542	28
357.752	28.61
357.962	28.81
358.171	28.62
358.381	29.41
358.591	28.4
358.801	27.15
359.011	26.48
359.221	26.54
359.43	26.31
359.64	27.22
359.85	28.22
360.06	28.03
360.269	27.67
360.479	27.87
360.689	28.14
360.899	27.62
361.108	27.25
361.318	28.02
361.528	28.39
361.737	28.94
361.947	28.39
362.156	27.73
362.366	27.92
362.576	27.98
362.785	28.02
362.995	27.82
363.204	28.62
363.414	28.76
363.623	28.34
363.833	27.98
364.042	28.17
364.252	28.55
364.461	28.3
364.671	28.04
364.88	27.62
365.09	26.76
365.299	26.7
365.509	26.32
365.718	26.8
365.927	27.56
366.137	27.94
366.346	27.39
366.555	26.96
366.765	27.73
366.974	27.9
367.183	28.49
367.393	29.59
367.602	29.81
367.811	30.27
368.021	30.03
368.23	30.02
368.439	29.59
368.648	29.96
368.857	29.36
369.067	28.88
369.276	28.71
369.485	28.19
369.694	27.38
369.903	26.96
370.112	26.17
370.321	26.35
370.531	25.72
370.74	25.96
370.949	25.72
371.158	26.04
371.367	25.68
371.576	25.7
371.785	25.92
371.994	26.92
372.203	27.33
372.412	28.04
372.621	28.32
372.83	28.62
373.039	28.74
373.248	28.66
373.457	28.74
373.666	28.82
373.874	28.29
374.083	28.26
374.292	27.58
374.501	27.12
374.71	26.55
374.919	25.79
375.128	25.45
375.336	25.33
375.545	25.09
375.754	24.92
375.963	24.71
376.171	25.19
376.38	24.9
376.589	25.09
376.798	25.35
377.006	25.35
377.215	25.83
377.424	26.34
377.632	26.55
377.841	26.61
378.05	26.54
378.258	26.71
378.467	26.89
378.675	26.51
378.884	26.55
379.093	26.45
379.301	27.39
379.51	27.3
379.718	26.32
379.927	25.79
380.135	26.28
380.344	26.76
380.552	26.68
380.761	26.37
380.969	27.05
381.177	26.59
381.386	26.3
381.594	25.17
381.803	24.78
382.011	24.75
382.219	24.85
382.428	24.43
382.636	24.37
382.845	24.56
383.053	24.69
383.261	24.47
383.469	24.61
383.678	24.32
383.886	24.39
384.094	24.48
384.302	24.96
384.511	25.18
384.719	25.17
384.927	24.67
385.135	24.41
385.343	24.56
385.552	24.47
385.76	24.34
385.968	24.56
386.176	24.37
386.384	24.39
386.592	24.12
386.8	23.51
387.008	23.17
387.216	23.29
387.424	22.98
387.633	22.55
387.841	22.5
388.049	22.77
388.257	22.56
388.465	22.73
388.672	22.93
388.88	23.23
389.088	23.26
389.296	23.47
389.504	23.51
389.712	24.16
389.92	24.2
390.128	24.14
390.336	23.4
390.544	23.53
390.751	23.7
390.959	23.2
391.167	22.6
391.375	22.78
391.583	22.66
391.79	22.4
391.998	22.22
392.206	22
392.414	22.04
392.621	22.36
392.829	22.23
393.037	21.94
393.244	22.1
393.452	22.3
393.66	21.91
393.867	21.68
394.075	21.82
394.283	21.54
394.49	21.87
394.698	22.1
394.905	22.25
395.113	22.56
395.32	22.69
395.528	22.6
395.735	22.95
395.943	23.52
396.15	24.1
396.358	24.13
396.565	24.37
396.773	24.25
396.98	24.05
397.188	24.06
397.395	23.85
397.602	24.14
397.81	24.43
398.017	24.3
398.225	24.18
398.432	24.14
398.639	24.28
398.847	24.27
399.054	24.1
399.261	24.32
399.468	24.47
399.676	24.57
399.883	24.61
400.09	24.79
400.297	24.55
400.505	24.55
400.712	24.37
400.919	24.41
401.126	24.4
401.333	24.58
401.54	24.36
401.748	23.92
401.955	23.97
402.162	23.94
402.369	23.88
402.576	23.9
402.783	23.99
402.99	23.92
403.197	23.63
403.404	23.61
403.611	23.53
403.818	23.86
404.025	24.14
404.232	24.2
404.439	24.05
404.646	23.68
404.853	24.02
405.06	24.07
405.267	23.95
405.474	24.12
405.681	24.11
405.887	24.35
406.094	24.11
406.301	23.86
406.508	23.75
406.715	23.83
406.922	24.19
407.128	24.06
407.335	23.96
407.542	24.16
407.749	24.28
407.955	24.16
408.162	23.89
408.369	23.7
408.575	23.98
408.782	23.88
408.989	23.83
409.195	23.66
409.402	23.22
409.609	23.13
409.815	22.98
410.022	22.92
410.228	23.12
410.435	23.51
410.642	23.7
410.848	23.6
411.055	23.98
411.261	24.08
411.468	24.19
411.674	24.41
411.881	24.84
412.087	25.09
412.294	25.3
412.5	25.21
412.706	24.89
412.913	24.95
413.119	24.91
413.326	24.31
413.532	24.12
413.738	23.84
413.945	23.97
414.151	23.96
414.357	23.92
414.564	23.46
414.77	23.34
414.976	23.23
415.182	23.13
415.389	23.04
415.595	23.34
415.801	23.43
416.007	23.66
416.214	23.6
416.42	23.29
416.626	23.25
416.832	23.58
417.038	23.59
417.244	23.53
417.45	23.49
417.657	23.58
417.863	23.55
418.069	23.27
418.275	23.24
418.481	22.99
418.687	22.89
418.893	22.75
419.099	22.57
419.305	22.56
419.511	22.53
419.717	22.53
419.923	22.36
420.129	22.14
420.335	22.15
420.541	22.11
420.746	22.11
420.952	22.18
421.158	22.09
421.364	22.05
421.57	22.18
421.776	22.2
421.982	22.1
422.187	22.1
422.393	22.12
422.599	22.17
422.805	22
423.01	22.16
423.216	22.07
423.422	22.17
423.628	22.13
423.833	21.93
424.039	21.89
424.245	22.05
424.45	21.96
424.656	22.01
424.862	21.91
425.067	22.04
425.273	21.78
425.478	21.72
425.684	21.57
425.889	21.54
426.095	21.36
426.301	21.37
426.506	21.08
426.712	21.11
426.917	21.15
427.123	21.36
427.328	21.2
427.533	21.44
427.739	21.25
427.944	21.38
428.15	21.41
428.355	21.57
428.561	21.54
428.766	21.61
428.971	21.77
429.177	21.71
429.382	21.65
429.587	21.91
429.793	21.86
429.998	22.11
430.203	21.94
430.408	21.82
430.614	21.85
430.819	21.92
431.024	22.05
431.229	22.03
431.434	21.85
431.64	21.63
431.845	21.43
432.05	21.57
432.255	21.51
432.46	21.56
432.665	21.75
432.87	21.62
433.076	21.53
433.281	21.39
433.486	21.33
433.691	21.35
433.896	21.46
434.101	21.57
434.306	21.53
434.511	21.39
434.716	21.53
434.921	21.42
435.126	21.63
435.331	21.63
435.535	21.73
435.74	21.9
435.945	21.85
436.15	21.74
436.355	21.37
436.56	21.33
436.765	21.53
436.97	21.36
437.174	21.47
437.379	21.14
437.584	21.15
437.789	21.21
437.993	20.9
438.198	20.99
438.403	20.87
438.608	21.02
438.812	20.92
439.017	20.88
439.222	20.9
439.426	20.87
439.631	21
439.836	21.1
440.04	20.93
440.245	21.06
440.45	21.2
440.654	21.15
440.859	21.18
441.063	21.19
441.268	21.14
441.472	21.22
441.677	21.28
441.881	21.28
442.086	21.29
442.29	21.33
442.495	21.33
442.699	21.27
442.904	21.43
443.108	21.5
443.312	21.52
443.517	21.46
443.721	21.44
443.925	21.29
444.13	21.27
444.334	21.1
444.538	21.17
444.743	21.06
444.947	20.99
445.151	21.02
445.356	20.94
445.56	20.92
445.764	20.99
445.968	20.79
446.173	20.75
446.377	20.79
446.581	20.73
446.785	20.6
446.989	20.75
447.193	20.69
447.398	20.7
447.602	20.67
447.806	20.67
448.01	20.69
448.214	20.84
448.418	20.83
448.622	20.94
448.826	20.91
449.03	21.02
449.234	20.81
449.438	20.76
449.642	20.78
449.846	20.86
450.05	20.81
450.254	20.92
450.458	20.96
450.662	21.09
450.866	20.9
451.069	21.09
451.273	21.02
451.477	21.1
451.681	21.18
451.885	21.09
452.089	20.92
452.292	20.89
452.496	20.63
452.7	20.6
452.904	20.55
453.107	20.56
453.311	20.57
453.515	20.58
453.719	20.58
453.922	20.45
454.126	20.55
454.33	20.61
454.533	20.78
454.737	20.85
454.94	20.73
455.144	20.7
455.348	20.7
455.551	20.65
455.755	20.91
455.958	20.89
