Data from 2938049_Reflection_1.txt Node
Date: Sun Jul 12 14:17:43 EDT 2015
User: robert
Spectrometer: USB4E03001
Autoset integration time: false
Trigger mode: 4
Integration Time (sec): 1.000000E-1
Scans to average: 10
Electric dark correction enabled: true
Nonlinearity correction enabled: false
Boxcar width: 5
Stray light correction enabled: false
XAxis mode: Wavelengths
Stop averaging: false
Number of Pixels in Spectrum: 3648
>>>>>Begin Spectral Data<<<<<
177.566	402.06
177.785	640.74
178.005	166.78
178.225	95.47
178.445	177.86
178.665	830.52
178.885	1868.52
179.105	-1440.26
179.324	312.64
179.544	116.55
179.764	119.84
179.984	152.06
180.204	157.12
180.423	156.23
180.643	182.39
180.863	213.55
181.083	209.65
181.302	168.07
181.522	196.86
181.742	232.22
181.961	225.35
182.181	202.86
182.401	223.28
182.621	278.08
182.84	261.92
183.06	162.16
183.279	168.54
183.499	247.15
183.719	-79.28
183.938	-425.4
184.158	94.98
184.377	-97.8
184.597	59.49
184.816	21.28
185.036	561.04
185.256	108.01
185.475	87.86
185.695	131.8
185.914	105.26
186.134	171.76
186.353	240.64
186.572	561.08
186.792	425.8
187.011	269.01
187.231	305
187.45	393.68
187.67	591.42
187.889	2134.44
188.108	1533.94
188.328	609.81
188.547	257.12
188.766	225.52
188.986	226.49
189.205	198.16
189.424	253.04
189.644	306.58
189.863	273.61
190.082	327.74
190.302	224.25
190.521	137.58
190.74	286.01
190.959	239.28
191.178	183.56
191.398	201.94
191.617	134.06
191.836	112.28
192.055	125.87
192.274	50.78
192.494	59.4
192.713	94.55
192.932	73.47
193.151	92.73
193.37	76.17
193.589	88.73
193.808	88.24
194.027	111.9
194.246	148.16
194.465	136.1
194.685	237.22
194.904	313.13
195.123	263.37
195.342	3428.93
195.561	1340.37
195.78	385.54
195.999	300.97
196.218	251.26
196.436	228.99
196.655	142.72
196.874	88.88
197.093	85.88
197.312	74.2
197.531	73.38
197.75	74.76
197.969	83.19
198.188	120.13
198.407	134.9
198.625	106.4
198.844	118.97
199.063	164.4
199.282	666.49
199.501	957.14
199.719	51.38
199.938	721.45
200.157	225.68
200.376	-14.46
200.594	-245.47
200.813	-333.68
201.032	108.47
201.251	55.06
201.469	48.59
201.688	-471.89
201.907	8.35
202.125	185.74
202.344	251.9
202.563	157.59
202.781	139.6
203	92.16
203.218	69.7
203.437	51.93
203.656	48.34
203.874	52.89
204.093	77.25
204.311	54.54
204.53	53.44
204.748	73.27
204.967	132.25
205.185	165.36
205.404	111.01
205.622	134.57
205.841	161.36
206.059	83.27
206.278	70.12
206.496	89.78
206.715	151.18
206.933	101.07
207.151	58.64
207.37	-7.23
207.588	-130.83
207.806	-4.75
208.025	-178.38
208.243	53.07
208.461	-16.79
208.68	-49.66
208.898	7.33
209.116	-50.18
209.335	-85.36
209.553	-83.37
209.771	-269.93
209.989	812.84
210.208	-229.03
210.426	-322.37
210.644	-135.77
210.862	-2087.21
211.081	1508.2
211.299	373.36
211.517	121.38
211.735	77.65
211.953	59.02
212.171	75.16
212.39	45.73
212.608	57.26
212.826	48.71
213.044	40.45
213.262	16.36
213.48	6.4
213.698	7.31
213.916	60.37
214.134	75.18
214.352	81.44
214.57	82.48
214.788	83.8
215.006	100.14
215.224	89.42
215.442	126.59
215.66	145.04
215.878	184.9
216.096	286.76
216.314	78.63
216.532	91.66
216.75	172.91
216.968	107.48
217.185	134.2
217.403	50.15
217.621	79.65
217.839	86.24
218.057	95.06
218.275	96.1
218.492	91.65
218.71	107.86
218.928	97.88
219.146	85.83
219.363	113.93
219.581	96.71
219.799	167.26
220.017	148.39
220.234	118.89
220.452	128.6
220.67	129.97
220.887	155.44
221.105	113.58
221.323	115.52
221.54	91.77
221.758	52.63
221.976	89.06
222.193	60.25
222.411	72.38
222.629	68.3
222.846	62.91
223.064	68.26
223.281	72.38
223.499	84.22
223.716	90.09
223.934	83.96
224.151	107.32
224.369	99.2
224.586	109.14
224.804	83.23
225.021	88.27
225.239	75.11
225.456	51
225.674	24.1
225.891	17.87
226.108	21.3
226.326	14.14
226.543	20.33
226.76	18.98
226.978	21.24
227.195	24.28
227.413	15.53
227.63	30.09
227.847	31.49
228.064	31.2
228.282	29.94
228.499	23.14
228.716	28.89
228.934	26.19
229.151	23.05
229.368	17.26
229.585	18.25
229.802	20.49
230.02	16.98
230.237	17.78
230.454	19.79
230.671	18.57
230.888	20.7
231.105	15.41
231.323	13.88
231.54	20.57
231.757	25.82
231.974	31.86
232.191	33.08
232.408	34.49
232.625	37.83
232.842	30.46
233.059	30.39
233.276	34.51
233.493	42.43
233.71	40.07
233.927	36.15
234.144	41.71
234.361	35.56
234.578	39.26
234.795	36.38
235.012	25.42
235.229	29.92
235.446	30.86
235.663	26.69
235.879	26.18
236.096	33.97
236.313	30.31
236.53	23.3
236.747	15.02
236.964	5.47
237.181	-0.53
237.397	9.79
237.614	5.61
237.831	1.97
238.048	13.32
238.264	8.47
238.481	8.34
238.698	9.1
238.915	15.7
239.131	30.14
239.348	32.22
239.565	34.75
239.781	32.65
239.998	41.09
240.215	45.46
240.431	40.46
240.648	39.93
240.865	41.04
241.081	40.3
241.298	34.09
241.514	30.9
241.731	28.78
241.947	29.81
242.164	29.07
242.38	26.46
242.597	26.31
242.814	27.87
243.03	28.13
243.246	27.02
243.463	25.85
243.679	26.81
243.896	24.6
244.112	26.35
244.329	24.62
244.545	25.6
244.762	24.13
244.978	20.37
245.194	15.99
245.411	18.21
245.627	15.6
245.843	17.07
246.06	19.02
246.276	18
246.492	18.87
246.709	19.98
246.925	18.68
247.141	19.71
247.357	20.74
247.574	20.86
247.79	20.2
248.006	19.86
248.222	19.55
248.439	17.53
248.655	18.57
248.871	18.55
249.087	17.87
249.303	18.48
249.519	16.83
249.736	16.59
249.952	16.87
250.168	17.74
250.384	18.61
250.6	18.1
250.816	19.65
251.032	18.21
251.248	16.87
251.464	12.12
251.68	10.21
251.896	11.97
252.112	13.06
252.328	14.78
252.544	12.3
252.76	11.77
252.976	13.01
253.192	13.66
253.408	13.55
253.624	11.53
253.84	16.39
254.056	19.02
254.272	23.22
254.487	26.44
254.703	24.18
254.919	25.56
255.135	29.36
255.351	28.1
255.567	28.26
255.782	32.76
255.998	36.46
256.214	33.68
256.43	31.41
256.646	27.38
256.861	22.5
257.077	20.91
257.293	22.53
257.508	20.66
257.724	19.55
257.94	19.27
258.155	16.39
258.371	13.19
258.587	13.24
258.802	12.74
259.018	13.8
259.234	14.2
259.449	14.64
259.665	13.92
259.88	13.08
260.096	13.52
260.312	12.7
260.527	13.26
260.743	14.92
260.958	14.04
261.174	13.85
261.389	12.91
261.605	13.36
261.82	14.44
262.036	14.17
262.251	15.53
262.466	14.04
262.682	16.52
262.897	15.76
263.113	14.72
263.328	18.05
263.543	19.8
263.759	20.41
263.974	18.13
264.189	15.87
264.405	17.99
264.62	17.11
264.835	19.51
265.051	17.78
265.266	17.51
265.481	16.05
265.696	14.64
265.912	12.45
266.127	13.31
266.342	13.06
266.557	14.62
266.773	12.25
266.988	12.69
267.203	13.12
267.418	13.09
267.633	12.07
267.848	13.78
268.064	14.65
268.279	16.42
268.494	14.35
268.709	15.71
268.924	15.38
269.139	17.24
269.354	17.42
269.569	15.39
269.784	16.52
269.999	19.33
270.214	18.66
270.429	18.34
270.644	17.29
270.859	19.02
271.074	18.87
271.289	19.7
271.504	18.86
271.719	18
271.934	18.66
272.149	18.32
272.363	18.16
272.578	18.48
272.793	16.5
273.008	16.61
273.223	16.99
273.438	16.71
273.653	16.19
273.867	14.89
274.082	16.6
274.297	17.93
274.512	17.4
274.726	17.33
274.941	15.84
275.156	17.47
275.371	18.3
275.585	17.64
275.8	19.46
276.015	17.22
276.229	19.37
276.444	18.99
276.659	17.39
276.873	17.39
277.088	16.44
277.302	18.36
277.517	19.39
277.732	17.89
277.946	15.98
278.161	14.52
278.375	15.75
278.59	14.97
278.804	13.39
279.019	13.35
279.233	11.08
279.448	10.06
279.662	7.18
279.877	5.09
280.091	7.72
280.306	8.6
280.52	6.02
280.735	9.63
280.949	8.78
281.163	10.99
281.378	12.55
281.592	15.25
281.806	16.03
282.021	15.88
282.235	16.75
282.449	16.78
282.664	16.99
282.878	19.28
283.092	18.72
283.307	19.39
283.521	19.11
283.735	18.24
283.949	18.49
284.164	16.89
284.378	17.87
284.592	18.05
284.806	18.87
285.02	20.08
285.234	19.59
285.449	17.53
285.663	18.27
285.877	16.94
286.091	16.81
286.305	16.45
286.519	16.24
286.733	15.84
286.947	13.03
287.161	9.75
287.375	9.05
287.589	9.08
287.803	9.04
288.017	8.23
288.231	7.64
288.445	9.3
288.659	9.18
288.873	11.67
289.087	11.91
289.301	14.63
289.515	16.02
289.729	14.61
289.943	13.46
290.157	14.36
290.371	14.24
290.584	16.71
290.798	15.14
291.012	15.79
291.226	15.06
291.44	16.33
291.654	16.75
291.867	15.76
292.081	18.39
292.295	20.2
292.509	18.15
292.722	20.21
292.936	17.72
293.15	19.11
293.364	17.99
293.577	16.93
293.791	15.96
294.005	16.38
294.218	17.57
294.432	16.17
294.645	14.73
294.859	16.86
295.073	15.6
295.286	16.4
295.5	15.03
295.713	14.22
295.927	14.23
296.14	14.03
296.354	13.76
296.568	13.65
296.781	13.59
296.994	13.85
297.208	12.24
297.421	11.61
297.635	12.49
297.848	12.44
298.062	13.45
298.275	14.8
298.489	14.98
298.702	13.81
298.915	14.33
299.129	14.44
299.342	16.51
299.555	19.35
299.769	19.8
299.982	20.44
300.195	22.6
300.409	22.3
300.622	20.97
300.835	21.38
301.048	23.32
301.262	23.32
301.475	22.65
301.688	21.45
301.901	21.44
302.115	21.91
302.328	21.05
302.541	19.83
302.754	21.23
302.967	20.45
303.18	19.61
303.393	19.27
303.607	18.14
303.82	18.77
304.033	17.6
304.246	15.77
304.459	15.96
304.672	17.79
304.885	17.17
305.098	16.92
305.311	18.41
305.524	18.37
305.737	18.61
305.95	19
306.163	19.47
306.376	18.38
306.589	18.39
306.802	18.16
307.015	18.33
307.228	17.03
307.44	16.78
307.653	17.22
307.866	17.33
308.079	18.67
308.292	19.58
308.505	18.42
308.718	19.29
308.93	19.15
309.143	19.1
309.356	17.17
309.569	20.07
309.781	18.97
309.994	19.44
310.207	20.1
310.42	19.07
310.632	19.16
310.845	19.79
311.058	20.25
311.27	20.84
311.483	21.91
311.696	20.83
311.908	19.17
312.121	20.32
312.333	19.43
312.546	19.27
312.759	18.85
312.971	19.31
313.184	17.56
313.396	17.43
313.609	17.17
313.821	15.85
314.034	16.52
314.246	18.89
314.459	17.52
314.671	19.01
314.884	19.27
315.096	21.05
315.309	19.58
315.521	22.14
315.733	22.96
315.946	22.13
316.158	23.49
316.371	23.1
316.583	20.84
316.795	19.71
317.008	19.48
317.22	19.55
317.432	19.19
317.644	20.56
317.857	20.35
318.069	19.95
318.281	20.57
318.494	22.24
318.706	21.8
318.918	22.01
319.13	23.07
319.342	22.49
319.555	21.64
319.767	20.52
319.979	19.05
320.191	17.67
320.403	16.47
320.615	17.35
320.827	14.59
321.039	17.89
321.252	19.89
321.464	22.01
321.676	23.27
321.888	22.97
322.1	21.17
322.312	22.96
322.524	23.5
322.736	25.71
322.948	24.01
323.16	22.46
323.372	20.54
323.584	20.71
323.796	18.91
324.007	17.91
324.219	18.26
324.431	19.93
324.643	18.32
324.855	18.94
325.067	17.08
325.279	16.38
325.491	16.68
325.702	17.92
325.914	15.97
326.126	15.32
326.338	15.36
326.55	14.86
326.761	15.21
326.973	16.79
327.185	15.21
327.396	16.15
327.608	17.34
327.82	16.95
328.032	16.13
328.243	16.67
328.455	18.08
328.666	18.49
328.878	18.6
329.09	17.62
329.301	15.96
329.513	17.08
329.725	17.64
329.936	16.33
330.148	18.23
330.359	17.07
330.571	16.62
330.782	15.97
330.994	14.98
331.205	16.09
331.417	16.62
331.628	18.09
331.84	19.98
332.051	18.98
332.262	19.99
332.474	20.66
332.685	20.93
332.897	22.1
333.108	21.84
333.319	22.28
333.531	21.61
333.742	22.57
333.953	22.56
334.165	21.4
334.376	22.47
334.587	23.65
334.799	23.83
335.01	24.35
335.221	23.37
335.432	24.53
335.644	24.2
335.855	23.43
336.066	21.44
336.277	20.74
336.488	21.18
336.7	20.01
336.911	17.58
337.122	16.61
337.333	16.31
337.544	16.3
337.755	15.7
337.966	15.48
338.177	16.39
338.388	16.86
338.599	17.08
338.811	16.83
339.022	17.46
339.233	19
339.444	18.23
339.655	19.09
339.866	20.07
340.076	19.6
340.287	19.92
340.498	21
340.709	22.65
340.92	22.98
341.131	21.82
341.342	21.89
341.553	20.49
341.764	20.44
341.975	20.29
342.185	19.28
342.396	19.92
342.607	19.57
342.818	18.22
343.029	16.64
343.239	16.41
343.45	17.17
343.661	16.29
343.872	17.6
344.082	17.31
344.293	16.32
344.504	17.42
344.714	16.85
344.925	17.36
345.136	17.89
345.346	17.7
345.557	17.8
345.768	17.63
345.978	16.7
346.189	17.18
346.399	18.17
346.61	19.03
346.821	18.39
347.031	17.97
347.242	17.08
347.452	15.7
347.663	15.18
347.873	15.46
348.084	14.71
348.294	16.62
348.504	14.43
348.715	13.56
348.925	12.9
349.136	10.99
349.346	10.66
349.557	11.77
349.767	12.73
349.977	13.8
350.188	13.57
350.398	13.98
350.608	13.7
350.819	14.53
351.029	14.1
351.239	13.74
351.449	14.36
351.66	15.94
351.87	14.34
352.08	13.42
352.29	13.54
352.501	13.15
352.711	13.36
352.921	12.91
353.131	14.16
353.341	14.9
353.552	16.29
353.762	17.65
353.972	17.28
354.182	17.99
354.392	19.24
354.602	18.89
354.812	19.18
355.022	19.63
355.232	20.01
355.442	19.87
355.652	20.59
355.862	19.26
356.072	20.07
356.282	18.88
356.492	19.43
356.702	17.84
356.912	17.2
357.122	15.95
357.332	15.3
357.542	15.69
357.752	16.18
357.962	15.29
358.171	15.92
358.381	15.12
358.591	15.84
358.801	15.43
359.011	15.99
359.221	16.69
359.43	17.15
359.64	16.67
359.85	15.89
360.06	15.05
360.269	15.33
360.479	14.7
360.689	13.41
360.899	13
361.108	12.66
361.318	13.15
361.528	13.51
361.737	13.37
361.947	13.87
362.156	13.45
362.366	13.05
362.576	12.55
362.785	13.33
362.995	14.37
363.204	15.16
363.414	15.48
363.623	16.02
363.833	15.45
364.042	16.1
364.252	15.95
364.461	16.85
364.671	17.58
364.88	18.61
365.09	18.51
365.299	17.9
365.509	17.28
365.718	17.23
365.927	16.75
366.137	16.24
366.346	15.72
366.555	15.52
366.765	15.16
366.974	14.88
367.183	14.83
367.393	13.4
367.602	13.65
367.811	13.59
368.021	12.94
368.23	12.28
368.439	12.02
368.648	11.92
368.857	12.16
369.067	11.54
369.276	10.52
369.485	9.66
369.694	9.29
369.903	9.47
370.112	9.9
370.321	9.78
370.531	9.98
370.74	10.33
370.949	10.66
371.158	10.14
371.367	10.35
371.576	11.07
371.785	11.32
371.994	12.56
372.203	12.6
372.412	12.74
372.621	13.01
372.83	12.89
373.039	13.68
373.248	12.89
373.457	13.22
373.666	13.8
373.874	13.23
374.083	12.86
374.292	12.37
374.501	11.82
374.71	11.45
374.919	11.12
375.128	11.69
375.336	11.47
375.545	11.75
375.754	11.75
375.963	11.99
376.171	11.48
376.38	12.27
376.589	12.35
376.798	11.82
377.006	11.23
377.215	11.03
377.424	10.94
377.632	10.4
377.841	10.09
378.05	10.24
378.258	8.85
378.467	9.31
378.675	8.7
378.884	8.62
379.093	9.16
379.301	9.3
379.51	9.45
379.718	9.14
379.927	9.28
380.135	9.21
380.344	9.39
380.552	10.26
380.761	9.72
380.969	9.37
381.177	9.05
381.386	8.73
381.594	8.35
381.803	8.96
382.011	8.77
382.219	8.52
382.428	8.39
382.636	7.83
382.845	7.75
383.053	8.1
383.261	8.52
383.469	9
383.678	9.02
383.886	8.61
384.094	8.41
384.302	8.22
384.511	8.3
384.719	9.14
384.927	9.16
385.135	9.18
385.343	9.29
385.552	9.35
385.76	8.79
385.968	9.19
386.176	9.42
386.384	9.04
386.592	9.13
386.8	9.33
387.008	9.07
387.216	8.26
387.424	8.11
387.633	7.82
387.841	7.29
388.049	7.77
388.257	7.34
388.465	7.3
388.672	7.3
388.88	7.13
389.088	7.03
389.296	6.67
389.504	7.22
389.712	7.02
389.92	6.99
390.128	7.17
390.336	6.65
390.544	7.11
390.751	7.75
390.959	7.69
391.167	7.65
391.375	7.28
391.583	7.42
391.79	7.24
391.998	7.17
392.206	7.19
392.414	7.17
392.621	7.46
392.829	6.97
393.037	6.85
393.244	6.62
393.452	6.86
393.66	7.26
393.867	7.1
394.075	7.24
394.283	7.38
394.49	7.94
394.698	7.79
394.905	7.25
395.113	7.44
395.32	6.83
395.528	7.07
395.735	6.58
395.943	6.33
396.15	6.52
396.358	6.72
396.565	6.57
396.773	5.91
396.98	6.05
397.188	6.51
397.395	6.21
397.602	6.31
397.81	6.18
398.017	6.58
398.225	6.56
398.432	6.18
398.639	6.06
398.847	6.1
399.054	6.05
399.261	5.73
399.468	5.54
399.676	5.5
399.883	5.65
400.09	5.58
400.297	5.64
400.505	5.59
400.712	5.64
400.919	5.36
401.126	5.22
401.333	5.4
401.54	5.5
401.748	5.39
401.955	5.47
402.162	5.45
402.369	5.69
402.576	5.71
402.783	5.97
402.99	6.05
403.197	5.82
403.404	5.97
403.611	5.92
403.818	5.88
404.025	5.84
404.232	5.72
404.439	5.89
404.646	5.96
404.853	5.84
405.06	5.46
405.267	5.63
405.474	6.11
405.681	6.12
405.887	6.19
406.094	6.4
406.301	6.48
406.508	6.7
406.715	6.75
406.922	6.42
407.128	6.27
407.335	6.49
407.542	6.33
407.749	6.14
407.955	6.02
408.162	5.69
408.369	5.51
408.575	5.78
408.782	5.82
408.989	5.89
409.195	5.93
409.402	5.83
409.609	5.83
409.815	5.83
410.022	5.92
410.228	5.77
410.435	6.24
410.642	6.08
410.848	6.04
411.055	5.84
411.261	5.51
411.468	5.53
411.674	5.76
411.881	5.77
412.087	5.88
412.294	5.87
412.5	5.9
412.706	5.72
412.913	5.89
413.119	5.99
413.326	6.1
413.532	6.2
413.738	6.25
413.945	5.95
414.151	5.78
414.357	5.71
414.564	5.56
414.77	5.74
414.976	5.5
415.182	5.26
415.389	4.92
415.595	4.62
415.801	4.32
416.007	4.25
416.214	4.25
416.42	4.15
416.626	4.2
416.832	4.22
417.038	4.02
417.244	4.29
417.45	4.66
417.657	4.6
417.863	4.87
418.069	5.05
418.275	5.04
418.481	5.16
418.687	5.24
418.893	5.03
419.099	4.99
419.305	4.96
419.511	4.89
419.717	4.76
419.923	4.66
420.129	4.51
420.335	4.59
420.541	4.44
420.746	4.38
420.952	4.33
421.158	4.49
421.364	4.52
421.57	4.62
421.776	4.53
421.982	4.47
422.187	4.65
422.393	4.77
422.599	4.74
422.805	4.92
423.01	5.06
423.216	5.07
423.422	4.93
423.628	4.86
423.833	4.8
424.039	4.83
424.245	4.79
424.45	4.83
424.656	4.85
424.862	4.85
425.067	4.84
425.273	4.84
425.478	4.93
425.684	5
425.889	5.08
426.095	5.12
426.301	5.1
426.506	5.22
426.712	5.22
426.917	5.06
427.123	5.05
427.328	5.09
427.533	4.95
427.739	4.71
427.944	4.81
428.15	4.72
428.355	4.84
428.561	4.96
428.766	4.74
428.971	4.62
429.177	4.78
429.382	4.58
429.587	4.45
429.793	4.45
429.998	4.61
430.203	4.63
430.408	4.79
430.614	4.6
430.819	4.65
431.024	4.75
431.229	4.63
431.434	4.74
431.64	4.87
431.845	5.02
432.05	5.02
432.255	5.03
432.46	4.99
432.665	5.03
432.87	5.01
433.076	4.94
433.281	4.75
433.486	4.92
433.691	4.75
433.896	4.76
434.101	4.85
434.306	4.96
434.511	5.13
434.716	5.15
434.921	5.22
435.126	5.32
435.331	5.14
435.535	5.45
435.74	5.28
435.945	5.27
436.15	5.13
436.355	4.89
436.56	4.6
436.765	4.34
436.97	4.35
437.174	4.29
437.379	4.37
437.584	4.5
437.789	4.2
437.993	4.34
438.198	4.34
438.403	4.38
438.608	4.39
438.812	4.57
439.017	4.68
439.222	4.72
439.426	4.74
439.631	4.76
439.836	4.85
440.04	5.04
440.245	5.03
440.45	5.13
440.654	5.18
440.859	5.35
441.063	5.36
441.268	5.35
441.472	5.23
441.677	5.12
441.881	4.92
442.086	4.79
442.29	4.6
442.495	4.51
442.699	4.45
442.904	4.43
443.108	4.33
443.312	4.33
443.517	4.42
443.721	4.36
443.925	4.38
444.13	4.47
444.334	4.64
444.538	4.86
444.743	4.89
444.947	4.9
445.151	4.86
445.356	4.98
445.56	4.89
445.764	4.71
445.968	4.68
446.173	4.62
446.377	4.58
446.581	4.51
446.785	4.46
446.989	4.59
447.193	4.53
447.398	4.62
447.602	4.39
447.806	4.5
448.01	4.47
448.214	4.47
448.418	4.35
448.622	4.38
448.826	4.4
449.03	4.27
449.234	4.11
449.438	4.02
449.642	3.99
449.846	4.12
450.05	3.77
450.254	3.8
450.458	3.9
450.662	4.01
450.866	4.16
451.069	4.17
451.273	4.3
451.477	4.36
451.681	4.58
451.885	4.36
452.089	4.38
452.292	4.53
452.496	4.64
452.7	4.59
452.904	4.6
453.107	4.42
453.311	4.33
453.515	4.28
453.719	4.11
453.922	4.02
454.126	4.03
454.33	3.89
454.533	3.97
454.737	3.84
454.94	4.02
455.144	4.08
455.348	4.07
455.551	4.02
455.755	4.07
455.958	4.14
456.162	4.13
456.365	4.21
456.569	4.2
456.772	4.1
456.976	4.14
457.179	4.11
457.383	3.96
457.586	4.04
457.79	4.04
457.993	3.99
458.196	4.06
458.4	4.1
458.603	4.12
458.807	4.36
459.01	4.46
459.213	4.45
459.417	4.35
459.62	4.48
459.823	4.54
460.026	4.74
460.23	4.72
460.433	4.56
460.636	4.57
460.839	4.66
461.042	4.56
461.246	4.66
461.449	4.65
