Data from 2938123_Reflection_1.txt Node
Date: Sat Jul 11 17:38:25 EDT 2015
User: robert
Spectrometer: USB4E03001
Autoset integration time: false
Trigger mode: 4
Integration Time (sec): 1.000000E-1
Scans to average: 10
Electric dark correction enabled: true
Nonlinearity correction enabled: false
Boxcar width: 5
Stray light correction enabled: false
XAxis mode: Wavelengths
Stop averaging: false
Number of Pixels in Spectrum: 3648
>>>>>Begin Spectral Data<<<<<
177.566	1566.2
177.785	-365.44
178.005	-117.73
178.225	-60.99
178.445	-17.58
178.665	-10.63
178.885	183.84
179.105	146.41
179.324	142
179.544	128.95
179.764	132.25
179.984	254.62
180.204	295.35
180.423	245.8
180.643	921.5
180.863	-1243.94
181.083	453.31
181.302	316.58
181.522	220.35
181.742	238.37
181.961	207.27
182.181	219.07
182.401	260.76
182.621	924.71
182.84	603.49
183.06	173.36
183.279	115.2
183.499	133.34
183.719	101.11
183.938	89.66
184.158	111.47
184.377	92.98
184.597	91.32
184.816	97.69
185.036	88.51
185.256	94.67
185.475	118.25
185.695	119.61
185.914	88.69
186.134	91.53
186.353	89.26
186.572	63.38
186.792	91.55
187.011	74.56
187.231	58.69
187.45	52.97
187.67	54.34
187.889	50.33
188.108	69.35
188.328	75.95
188.547	81.79
188.766	100.45
188.986	92.07
189.205	78.87
189.424	86.3
189.644	86.38
189.863	131.32
190.082	416.32
190.302	170.09
190.521	33.89
190.74	76.27
190.959	286.92
191.178	622.62
191.398	-20.57
191.617	64.47
191.836	47.31
192.055	24.78
192.274	-125.32
192.494	-32.16
192.713	-484.45
192.932	-50.93
193.151	-617.53
193.37	-442.53
193.589	-194.72
193.808	-973.51
194.027	-652.66
194.246	508.53
194.465	10842.37
194.685	1527.93
194.904	-3252.69
195.123	698.43
195.342	-817.58
195.561	503.3
195.78	191.87
195.999	119.05
196.218	373.7
196.436	269.13
196.655	141.54
196.874	96.81
197.093	82.78
197.312	69.74
197.531	88.42
197.75	78.65
197.969	95.24
198.188	112.99
198.407	136.88
198.625	122.58
198.844	129.3
199.063	152.8
199.282	245.11
199.501	267.3
199.719	411.26
199.938	214.46
200.157	448.11
200.376	-2476.47
200.594	217.35
200.813	88.95
201.032	90.28
201.251	98.53
201.469	98.74
201.688	78.13
201.907	83.23
202.125	55.08
202.344	52.55
202.563	66.33
202.781	69.52
203	60.95
203.218	76.56
203.437	74.6
203.656	59.78
203.874	81.24
204.093	58.28
204.311	50.28
204.53	80.01
204.748	78.01
204.967	65.8
205.185	56.37
205.404	46.19
205.622	56.42
205.841	49.71
206.059	61.07
206.278	78.45
206.496	84.7
206.715	127.39
206.933	119.88
207.151	190.61
207.37	248.49
207.588	436.73
207.806	367.94
208.025	617.63
208.243	424.33
208.461	407.38
208.68	-44.29
208.898	250.71
209.116	126.6
209.335	124.84
209.553	136.09
209.771	168.25
209.989	415.78
210.208	-422.3
210.426	-355.34
210.644	-681.24
210.862	192.62
211.081	230.73
211.299	281.97
211.517	512.72
211.735	485.1
211.953	202.87
212.171	184.14
212.39	150.69
212.608	160.78
212.826	139.66
213.044	152.36
213.262	161.04
213.48	125.58
213.698	113.51
213.916	101.43
214.134	100.19
214.352	96.56
214.57	100.55
214.788	96.27
215.006	73
215.224	49.47
215.442	29.82
215.66	26.35
215.878	49.58
216.096	40.54
216.314	63.33
216.532	58.9
216.75	50.89
216.968	66.44
217.185	109.77
217.403	155.96
217.621	264.45
217.839	272.43
218.057	166.32
218.275	153.67
218.492	145.46
218.71	103.84
218.928	74.78
219.146	167.45
219.363	141.06
219.581	90.06
219.799	268.84
220.017	2397.94
220.234	194.05
220.452	163.37
220.67	373.27
220.887	-214.77
221.105	-201.05
221.323	6.15
221.54	24
221.758	20.17
221.976	42.71
222.193	47.93
222.411	47.48
222.629	38.46
222.846	55.78
223.064	75.03
223.281	72.24
223.499	63.7
223.716	64.17
223.934	65.64
224.151	67.8
224.369	72.8
224.586	77.16
224.804	65.99
225.021	66.89
225.239	68.76
225.456	55.9
225.674	59.64
225.891	69.54
226.108	62.68
226.326	56.52
226.543	50.9
226.76	41.42
226.978	39.57
227.195	49.55
227.413	59.91
227.63	53.81
227.847	47.14
228.064	38.56
228.282	35.99
228.499	36.42
228.716	38
228.934	35.85
229.151	34.6
229.368	32.28
229.585	29.62
229.802	27.1
230.02	24.46
230.237	24.42
230.454	26.2
230.671	23.57
230.888	21.51
231.105	18.18
231.323	18.67
231.54	17.99
231.757	20.24
231.974	21.22
232.191	23.8
232.408	21.73
232.625	25.33
232.842	23.48
233.059	17.87
233.276	17.08
233.493	22.61
233.71	22.15
233.927	20.16
234.144	22.53
234.361	25.33
234.578	21.8
234.795	19.18
235.012	11.4
235.229	9.39
235.446	16.74
235.663	20.69
235.879	18.2
236.096	10.14
236.313	13.46
236.53	12.49
236.747	18.33
236.964	23.55
237.181	30.45
237.397	36.57
237.614	43.76
237.831	38.43
238.048	42.55
238.264	44.65
238.481	50.41
238.698	45.73
238.915	38.01
239.131	27.85
239.348	25
239.565	24.04
239.781	23.61
239.998	24.18
240.215	29.2
240.431	24.47
240.648	22.43
240.865	20.8
241.081	22.12
241.298	25.35
241.514	23.62
241.731	23.47
241.947	23.19
242.164	22.48
242.38	19.39
242.597	17.99
242.814	18.32
243.03	19.18
243.246	17.75
243.463	17.55
243.679	14.65
243.896	17.15
244.112	15.51
244.329	13.98
244.545	13.66
244.762	15.53
244.978	16.61
245.194	14.8
245.411	12.69
245.627	15.11
245.843	14.37
246.06	15.42
246.276	13.49
246.492	15.64
246.709	15.4
246.925	15.16
247.141	13.46
247.357	13.17
247.574	14.26
247.79	15.14
248.006	15.32
248.222	15.32
248.439	15.76
248.655	15.06
248.871	13.88
249.087	14.41
249.303	13.91
249.519	14.79
249.736	14.15
249.952	12.4
250.168	11.21
250.384	11.34
250.6	11.43
250.816	11.51
251.032	14.71
251.248	15.2
251.464	14.73
251.68	15
251.896	16.18
252.112	13.95
252.328	13.96
252.544	12.39
252.76	14.04
252.976	14.36
253.192	16.11
253.408	15.74
253.624	16.04
253.84	17.8
254.056	18.79
254.272	20.26
254.487	21.08
254.703	22.02
254.919	21.89
255.135	19.14
255.351	20.23
255.567	16.1
255.782	19.74
255.998	17.79
256.214	18.68
256.43	15.4
256.646	13.47
256.861	15.71
257.077	16.11
257.293	18.68
257.508	13.78
257.724	13.09
257.94	14.51
258.155	10.63
258.371	12.98
258.587	9.6
258.802	10.89
259.018	9.25
259.234	9.28
259.449	8.73
259.665	8.31
259.88	9.01
260.096	8.74
260.312	8.54
260.527	8.58
260.743	8.23
260.958	9.28
261.174	9.01
261.389	9.88
261.605	10.13
261.82	10.26
262.036	10.65
262.251	11.93
262.466	11.54
262.682	13.75
262.897	14.88
263.113	14.85
263.328	15
263.543	17.49
263.759	17.14
263.974	16.7
264.189	17.51
264.405	17.34
264.62	14.97
264.835	14.75
265.051	12.26
265.266	11.96
265.481	9.99
265.696	9.45
265.912	7.05
266.127	8.48
266.342	7.92
266.557	7.77
266.773	7.55
266.988	8.49
267.203	9.53
267.418	10.15
267.633	11.25
267.848	12.44
268.064	13.7
268.279	15.24
268.494	15.1
268.709	15.04
268.924	15.14
269.139	16.38
269.354	16.91
269.569	16.58
269.784	16.4
269.999	14.79
270.214	14.26
270.429	13.11
270.644	12.43
270.859	13.8
271.074	13.28
271.289	11.43
271.504	10.14
271.719	11.09
271.934	11.15
272.149	10.29
272.363	11.97
272.578	12.06
272.793	11.62
273.008	11.85
273.223	10.65
273.438	10.48
273.653	12.07
273.867	11.44
274.082	11.37
274.297	12.03
274.512	11.9
274.726	9.2
274.941	8.74
275.156	9.97
275.371	8.52
275.585	9.03
275.8	10.21
276.015	10.17
276.229	9.88
276.444	8.5
276.659	7.23
276.873	6.28
277.088	8.92
277.302	10.42
277.517	9.42
277.732	8.84
277.946	7.76
278.161	9.51
278.375	10.49
278.59	15.08
278.804	16.19
279.019	16.05
279.233	17.81
279.448	16.73
279.662	17.62
279.877	17.22
280.091	18.03
280.306	17.87
280.52	15.28
280.735	13.11
280.949	9.9
281.163	9.86
281.378	10.01
281.592	10.39
281.806	10.92
282.021	10.63
282.235	11.29
282.449	11.58
282.664	11.96
282.878	12.67
283.092	13.85
283.307	15.67
283.521	14.74
283.735	14.42
283.949	14.39
284.164	13.41
284.378	11.85
284.592	11.73
284.806	10.88
285.02	10.65
285.234	10.46
285.449	9.4
285.663	8.5
285.877	8.79
286.091	9.44
286.305	8.23
286.519	9.12
286.733	8.93
286.947	9.12
287.161	9.68
287.375	9.8
287.589	9.93
287.803	11.08
288.017	12.21
288.231	13.01
288.445	13.72
288.659	15.29
288.873	15.9
289.087	16.58
289.301	16.7
289.515	17.46
289.729	19.14
289.943	18.36
290.157	19.01
290.371	18.01
290.584	16.98
290.798	16.07
291.012	15.45
291.226	15.69
291.44	16.17
291.654	14.8
291.867	15.69
292.081	14.34
292.295	15.08
292.509	14.9
292.722	14.32
292.936	14.7
293.15	15.13
293.364	15.6
293.577	13.95
293.791	13.16
294.005	13.62
294.218	10.76
294.432	8.86
294.645	9.66
294.859	10.08
295.073	9.31
295.286	10.3
295.5	10.51
295.713	11.12
295.927	11.08
296.14	10.67
296.354	11.38
296.568	11.19
296.781	12.4
296.994	11.27
297.208	10.58
297.421	12.27
297.635	11.8
297.848	11.37
298.062	10.75
298.275	10.91
298.489	11.5
298.702	12.07
298.915	13.53
299.129	14.1
299.342	16.26
299.555	16.48
299.769	17.74
299.982	18.18
300.195	18.73
300.409	19.74
300.622	19.65
300.835	19.85
301.048	18.3
301.262	18.02
301.475	17.48
301.688	16.47
301.901	17.61
302.115	16.22
302.328	16.15
302.541	16
302.754	15
302.967	15.82
303.18	15.09
303.393	16
303.607	15.28
303.82	14.98
304.033	13.57
304.246	13.93
304.459	14.09
304.672	13.74
304.885	13.79
305.098	14.45
305.311	13.51
305.524	14.96
305.737	15.25
305.95	16.78
306.163	16.75
306.376	18.02
306.589	16.22
306.802	14
307.015	14.44
307.228	15.28
307.44	14.59
307.653	15.22
307.866	14.68
308.079	15.35
308.292	13.13
308.505	11.29
308.718	10.12
308.93	10.47
309.143	12.61
309.356	12.44
309.569	12.06
309.781	13.21
309.994	13.3
310.207	14.42
310.42	12.5
310.632	12.47
310.845	13.16
311.058	14.27
311.27	14.04
311.483	13.08
311.696	12.38
311.908	13.57
312.121	12.02
312.333	11.76
312.546	10.08
312.759	11.82
312.971	12.64
313.184	13.65
313.396	14.09
313.609	14.18
313.821	14.43
314.034	16.18
314.246	14.82
314.459	16.72
314.671	18.18
314.884	17.98
315.096	17.01
315.309	16.58
315.521	15.9
315.733	16.35
315.946	17.51
316.158	15.93
316.371	14.64
316.583	17.09
316.795	15.74
317.008	13.89
317.22	14.82
317.432	14.86
317.644	15.4
317.857	16.61
318.069	15.47
318.281	15.5
318.494	17.16
318.706	18.03
318.918	15.37
319.13	14.17
319.342	16.12
319.555	15.11
319.767	16.09
319.979	15.53
320.191	13.72
320.403	12.7
320.615	12.46
320.827	11.22
321.039	10.01
321.252	9.81
321.464	11.5
321.676	9.99
321.888	10.83
322.1	10.25
322.312	11.19
322.524	11.51
322.736	10.96
322.948	10.38
323.16	11.77
323.372	12.23
323.584	13.57
323.796	13.48
324.007	12.76
324.219	12.68
324.431	11.84
324.643	11.54
324.855	11.68
325.067	13.01
325.279	13.23
325.491	13.07
325.702	13.72
325.914	11.67
326.126	11.17
326.338	11.65
326.55	11.23
326.761	11.46
326.973	12
327.185	13.15
327.396	11.8
327.608	10.47
327.82	12.11
328.032	11.97
328.243	13.02
328.455	13.5
328.666	13.98
328.878	13.3
329.09	12.6
329.301	11.31
329.513	11.07
329.725	11.39
329.936	13.27
330.148	13.85
330.359	12.76
330.571	11.29
330.782	12.36
330.994	12.98
331.205	14.15
331.417	14.9
331.628	15.02
331.84	14.08
332.051	14.9
332.262	15.37
332.474	14.22
332.685	14.21
332.897	14.58
333.108	12.41
333.319	11.86
333.531	11.51
333.742	12.51
333.953	12.33
334.165	12.12
334.376	12.34
334.587	10.94
334.799	10.12
335.01	10.26
335.221	11.5
335.432	11.88
335.644	11.11
335.855	12.46
336.066	10.83
336.277	9.85
336.488	9.68
336.7	10
336.911	10.33
337.122	11.13
337.333	12.54
337.544	11.35
337.755	11.19
337.966	10.53
338.177	8.79
338.388	9.43
338.599	11.52
338.811	11.43
339.022	10.59
339.233	11.06
339.444	10.34
339.655	7.83
339.866	7.88
340.076	8.99
340.287	9.98
340.498	10.08
340.709	9.62
340.92	8.27
341.131	7.99
341.342	8.22
341.553	8.18
341.764	9.25
341.975	11.48
342.185	11.92
342.396	12.44
342.607	12.93
342.818	13.24
343.029	13.74
343.239	14.17
343.45	14.65
343.661	15.09
343.872	13.58
344.082	12.62
344.293	11.64
344.504	11.61
344.714	11.4
344.925	11.05
345.136	10.94
345.346	11.84
345.557	11.76
345.768	12
345.978	12.03
346.189	12.95
346.399	13.31
346.61	13.36
346.821	13.01
347.031	12.43
347.242	13.5
347.452	13.65
347.663	13.19
347.873	13.71
348.084	13.81
348.294	12.67
348.504	11.07
348.715	10.65
348.925	11.47
349.136	11.91
349.346	11.7
349.557	9.24
349.767	9.16
349.977	7.88
350.188	7.01
350.398	7.57
350.608	7.19
350.819	8.27
351.029	8.57
351.239	8.14
351.449	8.43
351.66	8.23
351.87	8.69
352.08	8.43
352.29	8.12
352.501	9.3
352.711	8.05
352.921	8.22
353.131	8.34
353.341	8.14
353.552	8.58
353.762	8.06
353.972	9.65
354.182	10.55
354.392	10.7
354.602	11.47
354.812	11.01
355.022	10.65
355.232	11.4
355.442	12.21
355.652	12.61
355.862	12.03
356.072	11.63
356.282	8.08
356.492	8.27
356.702	9.14
356.912	9
357.122	8.73
357.332	10.46
357.542	9.89
357.752	8.7
357.962	7.99
358.171	7.57
358.381	8.35
358.591	10.78
358.801	10.45
359.011	10.92
359.221	10.39
359.43	10.11
359.64	8.52
359.85	7.81
360.06	8.22
360.269	8.19
360.479	8.45
360.689	7.15
360.899	6.81
361.108	7.06
361.318	6.35
361.528	7
361.737	7.42
361.947	8.12
362.156	7.87
362.366	8.3
362.576	7.85
362.785	7.84
362.995	8.71
363.204	8.06
363.414	7.09
363.623	6.83
363.833	6.49
364.042	6.37
364.252	5.73
364.461	7.06
364.671	7.1
364.88	8.02
365.09	7.82
365.299	8.15
365.509	9.35
365.718	10.38
365.927	10.29
366.137	10.32
366.346	10.49
366.555	11.02
366.765	10.34
366.974	9.33
367.183	9.17
367.393	9.64
367.602	9.1
367.811	8.14
368.021	7.23
368.23	7.28
368.439	7.88
368.648	8.57
368.857	8.28
369.067	8.81
369.276	8.89
369.485	9.15
369.694	8.73
369.903	8.63
370.112	9.37
370.321	10.14
370.531	10.65
370.74	10.57
370.949	10.52
371.158	10.24
371.367	10.37
371.576	11.18
371.785	9.74
371.994	9.45
372.203	9.35
372.412	8.97
372.621	9.26
372.83	8.41
373.039	8.44
373.248	7.31
373.457	7.59
373.666	7.39
373.874	6.69
374.083	7.42
374.292	7.66
374.501	7.65
374.71	7.62
374.919	7.01
375.128	7.24
375.336	7.35
375.545	7.81
375.754	7.37
375.963	7.17
376.171	7.27
376.38	7.49
376.589	7.09
376.798	7.05
377.006	7.04
377.215	6.88
377.424	6.67
377.632	6.56
377.841	6.06
378.05	6.36
378.258	6.54
378.467	6.77
378.675	6
378.884	6
379.093	6.45
379.301	6.6
379.51	6.79
379.718	7.25
379.927	7.11
380.135	7.51
380.344	7.22
380.552	7.27
380.761	7.23
380.969	7.54
381.177	8.02
381.386	7.59
381.594	7.24
381.803	7.17
382.011	7.06
382.219	6.77
382.428	6.92
382.636	6.98
382.845	6.59
383.053	6.39
383.261	6.81
383.469	6.39
383.678	6.46
383.886	6.73
384.094	6.46
384.302	6.61
384.511	6.85
384.719	6.54
384.927	6.03
385.135	6.21
385.343	6.34
385.552	6.68
385.76	7.27
385.968	7.29
386.176	7.56
386.384	7.47
386.592	6.67
386.8	6.5
387.008	6.46
387.216	7.11
387.424	6.94
387.633	6.67
387.841	6.2
388.049	5.64
388.257	5.27
388.465	4.43
388.672	4.33
388.88	5.05
389.088	4.73
389.296	4.43
389.504	4.17
389.712	4.18
389.92	4.37
390.128	4.48
390.336	4.76
390.544	4.71
390.751	4.73
390.959	4.53
391.167	4.14
391.375	4.52
391.583	4.51
391.79	4.33
391.998	4.53
392.206	4.69
392.414	4.39
392.621	3.81
392.829	3.86
393.037	4.21
393.244	4.66
393.452	4.37
393.66	4.41
393.867	4.54
394.075	4.72
394.283	4.53
394.49	4.23
394.698	4.25
394.905	4.35
395.113	4.3
395.32	4.33
395.528	4.36
395.735	4.63
395.943	4.63
396.15	4.58
396.358	4.44
396.565	4.47
396.773	4.59
396.98	4.79
397.188	4.93
397.395	5.04
397.602	4.7
397.81	4.68
398.017	4.24
398.225	3.93
398.432	4.38
398.639	4.17
398.847	4.08
399.054	3.68
399.261	3.52
399.468	3.24
399.676	3.17
399.883	2.98
400.09	2.71
400.297	3.1
400.505	2.75
400.712	2.17
400.919	2.65
401.126	2.82
401.333	3.01
401.54	3.05
401.748	3.31
401.955	2.97
402.162	3.65
402.369	3.89
402.576	3.88
402.783	4.34
402.99	4.6
403.197	3.97
403.404	3.81
403.611	3.93
403.818	4.05
404.025	4.16
404.232	4.39
404.439	4.23
404.646	4
404.853	4.1
405.06	4.18
405.267	3.85
405.474	4.08
405.681	3.95
405.887	3.85
406.094	3.83
406.301	3.82
406.508	3.82
406.715	3.65
406.922	4.02
407.128	3.9
407.335	3.7
407.542	4.02
407.749	4.22
407.955	4.28
408.162	4.19
408.369	3.94
408.575	3.98
408.782	3.92
408.989	3.96
409.195	3.46
409.402	3.53
409.609	3.56
409.815	3.37
410.022	3.26
410.228	3.46
410.435	3.6
410.642	3.55
410.848	3.56
411.055	3.61
411.261	3.61
411.468	3.73
411.674	3.62
411.881	3.37
412.087	3.36
412.294	3.29
412.5	3.16
412.706	3.11
412.913	3.14
413.119	2.91
413.326	2.84
413.532	2.81
413.738	3.08
413.945	3.16
414.151	3.64
414.357	3.5
414.564	3.52
414.77	3.57
414.976	3.74
415.182	3.87
415.389	4.03
415.595	4.31
415.801	4.07
416.007	3.98
416.214	3.61
416.42	3.23
416.626	3.46
416.832	3.65
417.038	3.39
417.244	3.3
417.45	3.29
417.657	3.1
417.863	2.98
418.069	3.11
418.275	3.12
418.481	3.21
418.687	3.25
418.893	3.08
419.099	2.8
419.305	2.9
419.511	2.83
419.717	2.78
419.923	2.95
420.129	2.73
420.335	2.82
420.541	2.82
420.746	2.93
420.952	2.92
421.158	2.92
421.364	2.99
421.57	2.98
421.776	2.96
421.982	2.97
422.187	2.93
422.393	3.01
422.599	2.85
422.805	2.74
423.01	2.82
423.216	2.81
423.422	2.84
423.628	3.05
423.833	3.07
424.039	3.11
424.245	3.17
424.45	3.18
424.656	3.21
424.862	3.29
425.067	3.37
425.273	3.21
425.478	3.22
425.684	3.29
425.889	3.17
426.095	3.1
426.301	3.17
426.506	3.02
426.712	3.09
426.917	3.25
427.123	3.23
427.328	3.22
427.533	3.28
427.739	3.35
427.944	3.28
428.15	3.05
428.355	2.87
428.561	2.9
428.766	2.96
428.971	2.95
429.177	2.88
429.382	2.66
429.587	2.64
429.793	2.76
429.998	2.53
430.203	2.47
430.408	2.5
430.614	2.9
430.819	2.6
431.024	2.68
431.229	2.28
431.434	2.23
431.64	2.4
431.845	2.36
432.05	2.43
432.255	2.46
432.46	2.58
432.665	2.68
432.87	2.58
433.076	2.73
433.281	2.8
433.486	3
433.691	3.05
433.896	3.2
434.101	3.15
434.306	2.96
434.511	3.14
434.716	3.03
434.921	3.15
435.126	3.18
435.331	3.3
435.535	3.1
435.74	3.06
435.945	2.93
436.15	2.78
436.355	2.76
436.56	2.75
436.765	2.66
436.97	2.68
437.174	2.62
437.379	2.81
437.584	2.65
437.789	2.9
437.993	2.98
438.198	3.12
438.403	3.02
438.608	3.06
438.812	2.97
439.017	2.85
439.222	2.86
439.426	2.63
439.631	2.36
439.836	2.25
440.04	2.16
440.245	2.15
440.45	1.97
440.654	1.97
440.859	1.94
441.063	2.06
441.268	2.26
441.472	2.19
441.677	2.45
441.881	2.46
442.086	2.57
442.29	2.63
442.495	2.55
442.699	2.62
442.904	2.75
443.108	2.95
443.312	2.91
443.517	2.81
443.721	2.94
443.925	2.78
444.13	2.98
444.334	2.78
444.538	2.58
444.743	2.62
444.947	2.58
445.151	2.55
445.356	2.36
445.56	2.48
445.764	2.48
445.968	2.68
446.173	2.63
446.377	2.56
446.581	2.62
446.785	2.65
446.989	2.63
447.193	2.83
447.398	2.74
447.602	2.82
447.806	2.83
448.01	2.9
448.214	2.63
448.418	2.78
448.622	2.75
448.826	2.9
449.03	3.02
449.234	3.09
449.438	2.84
449.642	3.03
449.846	2.88
450.05	2.84
450.254	2.65
450.458	2.77
450.662	2.64
450.866	2.6
451.069	2.6
451.273	2.48
451.477	2.29
451.681	2.41
451.885	2.48
452.089	2.65
452.292	2.5
452.496	2.73
452.7	2.73
452.904	2.7
453.107	2.57
453.311	2.35
453.515	2.28
453.719	2.54
453.922	2.65
454.126	2.49
454.33	2.39
454.533	2.62
454.737	2.42
454.94	2.37
455.144	2.47
455.348	2.48
455.551	2.43
455.755	2.62
455.958	2.6
456.162	2.46
456.365	2.43
456.569	2.35
456.772	2.12
456.976	2.24
457.179	2.2
457.383	2.25
457.586	2.32
457.79	2.48
457.993	2.39
458.196	2.21
458.4	2.29
458.603	2.33
458.807	2.51
459.01	2.72
459.213	2.6
459.417	2.62
459.62	2.59
459.823	2.71
460.026	2.62
460.23	2.67
460.433	2.84
460.636	2.87
460.839	2.76
461.042	2.74
461.246	2.65
461.449	2.75
461.652	2.72
461.855	2.66
462.058	2.78
462.261	2.87
462.464	2.56
462.668	2.45
462.871	2.24
463.074	2.54
463.277	2.45
463.48	2.51
463.683	2.47
463.886	2.46
464.089	2.44
