Data from 2938027_Reflection_2.txt Node
Date: Sun Jul 12 15:11:04 EDT 2015
User: robert
Spectrometer: USB4E03001
Autoset integration time: false
Trigger mode: 4
Integration Time (sec): 1.000000E-1
Scans to average: 10
Electric dark correction enabled: true
Nonlinearity correction enabled: false
Boxcar width: 5
Stray light correction enabled: false
XAxis mode: Wavelengths
Stop averaging: false
Number of Pixels in Spectrum: 3648
>>>>>Begin Spectral Data<<<<<
177.566	326.32
177.785	359.69
178.005	324.52
178.225	294.94
178.445	115.53
178.665	116.86
178.885	152.93
179.105	131.4
179.324	149.38
179.544	123.06
179.764	141.72
179.984	167.73
180.204	183.15
180.423	110.84
180.643	113.76
180.863	87.77
181.083	89.48
181.302	75.58
181.522	79
181.742	61.36
181.961	41.25
182.181	52.53
182.401	24.45
182.621	16.39
182.84	60.3
183.06	28.96
183.279	19.66
183.499	19.45
183.719	36.71
183.938	21.39
184.158	23.65
184.377	36.43
184.597	7.44
184.816	5.96
185.036	25.62
185.256	44.37
185.475	47.62
185.695	41.05
185.914	23.81
186.134	17.66
186.353	-45.76
186.572	-132.37
186.792	-42.7
187.011	-87.47
187.231	-31.2
187.45	-52.43
187.67	-171.32
187.889	-62.01
188.108	-68.01
188.328	-50.51
188.547	-64.96
188.766	-33.81
188.986	-27.64
189.205	-21.65
189.424	5.32
189.644	5.1
189.863	7.47
190.082	56.6
190.302	72.53
190.521	73.17
190.74	95.54
190.959	94.68
191.178	110.22
191.398	107.54
191.617	104.3
191.836	103.87
192.055	99.34
192.274	81.16
192.494	67.47
192.713	66.75
192.932	52.86
193.151	20.77
193.37	5.67
193.589	16.6
193.808	38.65
194.027	28.58
194.246	27.48
194.465	38.39
194.685	72.47
194.904	96.25
195.123	107.22
195.342	180.77
195.561	166.4
195.78	451.41
195.999	-44900
196.218	1460.6
196.436	1323.02
196.655	539.11
196.874	-6709.18
197.093	276.05
197.312	178.43
197.531	133.39
197.75	99.14
197.969	159.79
198.188	72.79
198.407	55.98
198.625	83.85
198.844	24.71
199.063	29.65
199.282	27.54
199.501	5.42
199.719	21.11
199.938	31.35
200.157	35.98
200.376	43.93
200.594	61.78
200.813	73.58
201.032	55.3
201.251	80.89
201.469	72.28
201.688	95.63
201.907	140.69
202.125	135.91
202.344	98.17
202.563	72.31
202.781	32.9
203	6.21
203.218	-10.53
203.437	35.06
203.656	-0.47
203.874	-35.9
204.093	-40.7
204.311	-33.95
204.53	-38.62
204.748	-44.37
204.967	-64.02
205.185	56.37
205.404	69.9
205.622	203.72
205.841	143.86
206.059	-109.5
206.278	673.22
206.496	530.33
206.715	250.52
206.933	-62542.86
207.151	483.58
207.37	275.87
207.588	176.08
207.806	119.77
208.025	75.75
208.243	79.83
208.461	75.6
208.68	40.66
208.898	82.78
209.116	74.41
209.335	85.53
209.553	79.37
209.771	58.11
209.989	58.89
210.208	49.85
210.426	79.38
210.644	85.39
210.862	79.08
211.081	115.34
211.299	62.02
211.517	129.77
211.735	62.24
211.953	84.15
212.171	87.77
212.39	118.89
212.608	132.96
212.826	65.54
213.044	61.72
213.262	67.88
213.48	61.3
213.698	77.16
213.916	52.7
214.134	73.78
214.352	60.55
214.57	69.41
214.788	61.4
215.006	27.17
215.224	-43.96
215.442	346.5
215.66	157.2
215.878	645.84
216.096	-507.27
216.314	4.83
216.532	-60.7
216.75	-33.98
216.968	-111.07
217.185	-2.59
217.403	46.27
217.621	60.35
217.839	57.03
218.057	58.09
218.275	66.96
218.492	41.81
218.71	44.87
218.928	66.14
219.146	63.07
219.363	62.87
219.581	64.01
219.799	84.17
220.017	93.55
220.234	93.31
220.452	80.35
220.67	59.37
220.887	38.6
221.105	26.03
221.323	30.07
221.54	28.58
221.758	50.85
221.976	53.47
222.193	16.65
222.411	-7.03
222.629	-20.76
222.846	-0.26
223.064	12.55
223.281	23.91
223.499	21.25
223.716	1.76
223.934	4.51
224.151	-11.83
224.369	-25.6
224.586	-5.72
224.804	13.63
225.021	11.41
225.239	1.47
225.456	-14.39
225.674	-14.78
225.891	-4.05
226.108	-0.69
226.326	-7.54
226.543	-13.33
226.76	-8
226.978	1.4
227.195	-13.12
227.413	-7.16
227.63	4.16
227.847	14.11
228.064	19.88
228.282	21.88
228.499	22.19
228.716	21.67
228.934	26.01
229.151	23.06
229.368	17.64
229.585	17.58
229.802	18.02
230.02	15.02
230.237	13.86
230.454	11.18
230.671	8.05
230.888	3.7
231.105	3.03
231.323	-0.73
231.54	0.25
231.757	1.74
231.974	4.61
232.191	0.72
232.408	0.66
232.625	1.66
232.842	1.84
233.059	4.38
233.276	6.87
233.493	3.82
233.71	4.66
233.927	7.02
234.144	9.93
234.361	8.94
234.578	12.6
234.795	10.26
235.012	10.62
235.229	12.89
235.446	15.29
235.663	14.6
235.879	15.98
236.096	10.68
236.313	10.41
236.53	11.33
236.747	10.62
236.964	8.02
237.181	9.15
237.397	4.43
237.614	3.83
237.831	0.06
238.048	2.31
238.264	8.6
238.481	17.13
238.698	15.21
238.915	13.25
239.131	14.53
239.348	15.6
239.565	17.86
239.781	23.46
239.998	22.42
240.215	21.68
240.431	23.93
240.648	19.91
240.865	15.67
241.081	17.63
241.298	14.29
241.514	14.55
241.731	14.34
241.947	14.12
242.164	11.84
242.38	11.4
242.597	11.47
242.814	10.97
243.03	11.12
243.246	11.55
243.463	9.75
243.679	11.55
243.896	9.75
244.112	8.96
244.329	8.34
244.545	9.68
244.762	8
244.978	9.8
245.194	11.22
245.411	11.6
245.627	11.37
245.843	12.35
246.06	11.38
246.276	11.79
246.492	12.08
246.709	11.55
246.925	11.67
247.141	12.26
247.357	11.16
247.574	10.3
247.79	11.02
248.006	10.57
248.222	10.06
248.439	11.22
248.655	11.39
248.871	9.83
249.087	9.78
249.303	8.92
249.519	8.85
249.736	8.78
249.952	8.14
250.168	5.77
250.384	6.13
250.6	6.52
250.816	5.2
251.032	5.64
251.248	7.69
251.464	9.04
251.68	9.59
251.896	10.04
252.112	8.57
252.328	9.26
252.544	8.65
252.76	8.23
252.976	7.82
253.192	6.66
253.408	6.23
253.624	5.23
253.84	4.53
254.056	3.3
254.272	1.72
254.487	4.8
254.703	5.48
254.919	8.44
255.135	9.27
255.351	8.91
255.567	8.06
255.782	5.14
255.998	6.64
256.214	6.56
256.43	8.1
256.646	8.12
256.861	6.32
257.077	3.74
257.293	2.24
257.508	3.05
257.724	2.61
257.94	4.13
258.155	6.12
258.371	7.13
258.587	6.52
258.802	6.84
259.018	7.13
259.234	7.96
259.449	8.86
259.665	9.04
259.88	9.25
260.096	10.18
260.312	9.96
260.527	10.37
260.743	9.58
260.958	9.93
261.174	8.54
261.389	9.09
261.605	9.75
261.82	9.41
262.036	9.75
262.251	9.52
262.466	8.59
262.682	9.29
262.897	7.62
263.113	7.76
263.328	6.56
263.543	9.15
263.759	9.79
263.974	6.91
264.189	7.84
264.405	7.34
264.62	7.5
264.835	9.1
265.051	8.96
265.266	8.92
265.481	9.47
265.696	10.74
265.912	10.64
266.127	7.9
266.342	9.59
266.557	9.55
266.773	9.87
266.988	8.77
267.203	7.86
267.418	6.96
267.633	9.01
267.848	10.58
268.064	9.81
268.279	9.72
268.494	8.52
268.709	7.28
268.924	5.84
269.139	5.58
269.354	6.83
269.569	6.45
269.784	6.51
269.999	4.32
270.214	0.88
270.429	0.01
270.644	0.41
270.859	4.64
271.074	6.14
271.289	7.14
271.504	7.55
271.719	7.01
271.934	7.12
272.149	7.24
272.363	7.17
272.578	7.93
272.793	8.75
273.008	8.31
273.223	7.41
273.438	6.95
273.653	5.98
273.867	6.41
274.082	6.28
274.297	5.2
274.512	4.92
274.726	4.8
274.941	5.49
275.156	6.32
275.371	5.62
275.585	6.99
275.8	6.41
276.015	8.6
276.229	7.62
276.444	8.7
276.659	8.56
276.873	8.67
277.088	9.24
277.302	9.38
277.517	7.6
277.732	10.01
277.946	7.91
278.161	8.3
278.375	6.37
278.59	5.57
278.804	6.03
279.019	7.93
279.233	7.77
279.448	7.64
279.662	6.61
279.877	7.27
280.091	5.86
280.306	5.98
280.52	6.49
280.735	7.6
280.949	7.88
281.163	5.91
281.378	4.17
281.592	4.91
281.806	5.26
282.021	7.71
282.235	8.87
282.449	7.88
282.664	9.54
282.878	8.2
283.092	8.41
283.307	9.39
283.521	10.93
283.735	13.49
283.949	11.62
284.164	11.25
284.378	9.2
284.592	8.84
284.806	9.76
285.02	9.01
285.234	7.65
285.449	6.55
285.663	5.81
285.877	5.37
286.091	4.07
286.305	5.05
286.519	5.37
286.733	5.24
286.947	5.78
287.161	5.08
287.375	4.62
287.589	5.64
287.803	5.75
288.017	4.45
288.231	4.42
288.445	5.12
288.659	5.64
288.873	5.17
289.087	6.42
289.301	5.77
289.515	6.49
289.729	6.57
289.943	6.86
290.157	8.76
290.371	10.76
290.584	9.69
290.798	9.25
291.012	9.2
291.226	9.44
291.44	8.71
291.654	8.14
291.867	9.14
292.081	8.34
292.295	8.36
292.509	7.89
292.722	8.14
292.936	9.92
293.15	8.8
293.364	8.44
293.577	8.59
293.791	6.68
294.005	8.42
294.218	6.57
294.432	7.57
294.645	7.5
294.859	6.76
295.073	7.33
295.286	5.85
295.5	5.92
295.713	6.41
295.927	6.71
296.14	8.25
296.354	8.21
296.568	9.01
296.781	8.65
296.994	9.62
297.208	10.11
297.421	9.82
297.635	9.9
297.848	10.68
298.062	10.85
298.275	11.25
298.489	11.05
298.702	10.32
298.915	9.69
299.129	9.93
299.342	9.6
299.555	8.81
299.769	8.07
299.982	9.18
300.195	8.75
300.409	9.14
300.622	7.5
300.835	7.4
301.048	7.93
301.262	8.6
301.475	8.61
301.688	7.72
301.901	7.7
302.115	7.29
302.328	7.31
302.541	8.14
302.754	7.25
302.967	8.94
303.18	11.42
303.393	12.52
303.607	12.75
303.82	12.75
304.033	14.33
304.246	16.08
304.459	16.99
304.672	16.56
304.885	14.85
305.098	16.01
305.311	15.93
305.524	15.18
305.737	13.79
305.95	14.01
306.163	14.01
306.376	13.38
306.589	11.16
306.802	11.24
307.015	11.92
307.228	14.67
307.44	13.42
307.653	13.07
307.866	12
308.079	12.99
308.292	14.96
308.505	14.69
308.718	16.05
308.93	16.5
309.143	15.93
309.356	14.71
309.569	13.22
309.781	12.73
309.994	12.07
310.207	11.84
310.42	10.49
310.632	8.87
310.845	9.13
311.058	7.19
311.27	7.09
311.483	7.06
311.696	7.46
311.908	7.69
312.121	7.4
312.333	7.04
312.546	6.85
312.759	7.78
312.971	7.46
313.184	8.01
313.396	8.03
313.609	7.09
313.821	5.72
314.034	5.78
314.246	5.42
314.459	5.94
314.671	6.6
314.884	7.24
315.096	6.15
315.309	6.98
315.521	5.9
315.733	7.06
315.946	8.79
316.158	10.27
316.371	9.69
316.583	9.32
316.795	9.73
317.008	8.33
317.22	8.34
317.432	8.26
317.644	7.22
317.857	8.01
318.069	7.61
318.281	6.82
318.494	6.03
318.706	6.5
318.918	7.93
319.13	9.06
319.342	12.37
319.555	12.7
319.767	13.89
319.979	14.29
320.191	13.12
320.403	12.63
320.615	12.22
320.827	11.3
321.039	12.14
321.252	11.3
321.464	10.44
321.676	9.77
321.888	7.79
322.1	7.31
322.312	5.91
322.524	6.89
322.736	6.83
322.948	6.88
323.16	7.57
323.372	5.98
323.584	6.45
323.796	7.57
324.007	6.53
324.219	8.23
324.431	7.99
324.643	10.14
324.855	9.69
325.067	10.23
325.279	11.19
325.491	11.79
325.702	12.41
325.914	11.25
326.126	10.97
326.338	10.35
326.55	9.83
326.761	9.67
326.973	7.88
327.185	7.31
327.396	6.36
327.608	6.57
327.82	5.63
328.032	5.35
328.243	7.6
328.455	6.42
328.666	8.02
328.878	8.74
329.09	9.49
329.301	9.65
329.513	8.16
329.725	8.74
329.936	7.5
330.148	6.97
330.359	9.27
330.571	8.85
330.782	9.2
330.994	9.95
331.205	9.94
331.417	11.51
331.628	11.33
331.84	13.73
332.051	11.96
332.262	13.06
332.474	14.47
332.685	12.25
332.897	12.33
333.108	10.31
333.319	9.86
333.531	10.18
333.742	9.4
333.953	10.22
334.165	9.22
334.376	10.71
334.587	10.67
334.799	12.23
335.01	12.9
335.221	11.28
335.432	12.88
335.644	12.35
335.855	12.48
336.066	12.4
336.277	13.17
336.488	14.11
336.7	14.06
336.911	13.48
337.122	10.87
337.333	11.04
337.544	10.92
337.755	11.52
337.966	11.97
338.177	11.19
338.388	10.43
338.599	10.42
338.811	9.88
339.022	10.35
339.233	10.01
339.444	10.08
339.655	8.68
339.866	9.91
340.076	10.13
340.287	10.14
340.498	10.24
340.709	10.76
340.92	9.86
341.131	9.39
341.342	8.78
341.553	9.13
341.764	10.54
341.975	11.46
342.185	11.67
342.396	12.03
342.607	11.82
342.818	11.81
343.029	11.41
343.239	11.43
343.45	11.83
343.661	12.43
343.872	12.11
344.082	11.67
344.293	11.32
344.504	12.55
344.714	11.29
344.925	11.08
345.136	10.93
345.346	11.28
345.557	11.21
345.768	11.95
345.978	11.47
346.189	11.64
346.399	11.91
346.61	11.36
346.821	9.45
347.031	10.24
347.242	9.6
347.452	9.15
347.663	8.99
347.873	9.93
348.084	9.73
348.294	9.02
348.504	9.53
348.715	9.86
348.925	12.12
349.136	11.43
349.346	10.57
349.557	11.43
349.767	12.01
349.977	10.69
350.188	9.26
350.398	9.19
350.608	9.79
350.819	8.9
351.029	8.42
351.239	8.22
351.449	8.17
351.66	8.15
351.87	7.37
352.08	6.68
352.29	7.26
352.501	8.46
352.711	7.79
352.921	9
353.131	10.03
353.341	9.85
353.552	8.47
353.762	9.69
353.972	9.7
354.182	9.51
354.392	9.85
354.602	10.97
354.812	10.17
355.022	10.63
355.232	9.79
355.442	10.08
355.652	9.48
355.862	10.03
356.072	9.13
356.282	9.3
356.492	10.44
356.702	10.22
356.912	9.64
357.122	10.15
357.332	10.2
357.542	10.49
357.752	10.09
357.962	10.61
358.171	10.64
358.381	11.23
358.591	11.07
358.801	10.52
359.011	10.29
359.221	10.39
359.43	10.38
359.64	10.09
359.85	10.61
360.06	9.1
360.269	8.08
360.479	6.82
360.689	7.13
360.899	7.66
361.108	7.81
361.318	8.07
361.528	7.49
361.737	7.06
361.947	7.03
362.156	6.77
362.366	7.64
362.576	7.83
362.785	8.86
362.995	8.74
363.204	8.84
363.414	8.49
363.623	8.97
363.833	9.53
364.042	9.55
364.252	10
364.461	10.03
364.671	10.37
364.88	10.83
365.09	10.84
365.299	10.4
365.509	10.69
365.718	10.93
365.927	11.1
366.137	10.7
366.346	10.06
366.555	9.68
366.765	9.12
366.974	8.65
367.183	7.97
367.393	6.76
367.602	6.7
367.811	5.42
368.021	5.48
368.23	4.52
368.439	4.26
368.648	5.5
368.857	5.64
369.067	6.63
369.276	6.44
369.485	8.11
369.694	9.52
369.903	9.33
370.112	9.37
370.321	9.18
370.531	9.28
370.74	9.31
370.949	9.17
371.158	8.8
371.367	7.66
371.576	7.89
371.785	6.65
371.994	5.88
372.203	6.25
372.412	6.61
372.621	6.26
372.83	6.24
373.039	5.39
373.248	5.18
373.457	5.21
373.666	5.3
373.874	6.28
374.083	6.53
374.292	6.06
374.501	6.07
374.71	5.74
374.919	5.66
375.128	6.28
375.336	6.9
375.545	7.18
375.754	7.08
375.963	7.08
376.171	6.04
376.38	6.27
376.589	7.63
376.798	7.32
377.006	7.79
377.215	7.83
377.424	7.93
377.632	8.05
377.841	7.87
378.05	7.74
378.258	7.76
378.467	8.08
378.675	7.56
378.884	7.12
379.093	7.01
379.301	6.72
379.51	6.65
379.718	6.09
379.927	7.01
380.135	7.43
380.344	7.27
380.552	7.54
380.761	7.18
380.969	7.16
381.177	7.17
381.386	6.99
381.594	6.83
381.803	7.49
382.011	7.29
382.219	6.56
382.428	5.6
382.636	5.51
382.845	4.95
383.053	4.88
383.261	5.4
383.469	5.57
383.678	5.51
383.886	5.49
384.094	4.72
384.302	5.06
384.511	5.19
384.719	5.61
384.927	5.67
385.135	5.69
385.343	5.92
385.552	6.06
385.76	5.74
385.968	5.96
386.176	5.87
386.384	6.3
386.592	6.06
386.8	5.69
387.008	5.58
387.216	5.58
387.424	5.57
387.633	5.61
387.841	5.35
388.049	5.55
388.257	5.37
388.465	5.8
388.672	6.05
388.88	6.24
389.088	6.58
389.296	6.78
389.504	6.79
389.712	7.08
389.92	6.88
390.128	6.55
390.336	6.03
390.544	6.27
390.751	6.09
390.959	5.67
391.167	5.64
391.375	5.36
391.583	5.69
391.79	5.86
391.998	5.6
392.206	5.57
392.414	5.58
392.621	5.73
392.829	5.28
393.037	4.87
393.244	5.3
393.452	5.25
393.66	5.24
393.867	4.65
394.075	4.68
394.283	4.78
394.49	4.73
394.698	4.8
394.905	4.48
395.113	5.12
395.32	5.14
395.528	4.64
395.735	4.36
395.943	4.27
396.15	4.26
396.358	3.6
396.565	3.43
396.773	3.59
396.98	3.56
397.188	3.7
397.395	3.19
397.602	3.29
397.81	3.46
398.017	3.61
398.225	4.08
398.432	4.29
398.639	4.77
398.847	4.92
399.054	4.69
399.261	4.51
399.468	4.79
399.676	4.71
399.883	4.95
400.09	4.85
400.297	4.74
400.505	4.15
400.712	3.87
400.919	3.95
401.126	3.97
401.333	4.17
401.54	4.2
401.748	3.9
401.955	4
402.162	3.86
402.369	4.04
402.576	3.9
402.783	3.95
402.99	4.03
403.197	4.1
403.404	4.23
403.611	3.94
403.818	3.95
404.025	3.91
404.232	3.97
404.439	4.25
404.646	4.4
404.853	4.43
405.06	4.58
405.267	4.68
405.474	4.48
405.681	4.27
405.887	4.59
406.094	4.53
406.301	4.4
406.508	4.48
406.715	4.2
406.922	4.01
407.128	4.33
407.335	4.53
407.542	4.4
407.749	4.63
407.955	4.73
408.162	4.57
408.369	4.61
408.575	4.59
408.782	4.66
408.989	4.58
409.195	4.32
409.402	4.22
409.609	4.03
409.815	3.77
410.022	3.57
410.228	3.24
410.435	3.41
410.642	3.45
410.848	3.5
411.055	3.16
411.261	2.99
411.468	3.02
411.674	3.08
411.881	3.22
412.087	3.06
412.294	3.17
412.5	3.53
412.706	3.08
412.913	3.1
413.119	3.44
413.326	3.54
413.532	3.82
413.738	4.07
413.945	3.68
414.151	3.34
414.357	3.66
414.564	3.62
414.77	3.39
414.976	3.3
415.182	3.39
415.389	3.37
415.595	3.39
415.801	3.02
416.007	2.81
416.214	2.89
416.42	2.94
416.626	3
416.832	2.94
417.038	2.99
417.244	3.29
417.45	3.3
417.657	3.14
417.863	3.2
418.069	3.49
418.275	3.39
418.481	3.48
418.687	3.3
418.893	3.3
419.099	3.19
419.305	3.37
419.511	3.44
419.717	3.45
419.923	3.54
420.129	3.47
420.335	3.42
420.541	3.51
420.746	3.51
420.952	3.7
421.158	3.78
421.364	3.82
421.57	3.64
421.776	3.44
421.982	3.51
422.187	3.36
422.393	3.27
422.599	3.34
422.805	3.28
423.01	3.22
423.216	3.22
423.422	3.15
423.628	3.06
423.833	3.12
424.039	3.29
424.245	3.19
424.45	3.25
424.656	3.27
424.862	3.14
425.067	3.06
425.273	2.97
425.478	2.81
425.684	2.72
425.889	2.67
426.095	2.49
426.301	2.11
426.506	2.15
426.712	2.05
426.917	2.22
427.123	2.3
427.328	2.24
427.533	2.31
427.739	2.36
427.944	2.28
428.15	2.24
428.355	2.43
428.561	2.65
428.766	2.55
428.971	2.86
429.177	2.92
429.382	2.95
429.587	3.28
429.793	3.43
429.998	3.46
430.203	3.62
430.408	3.77
430.614	3.69
430.819	3.65
431.024	3.81
431.229	3.6
431.434	3.29
431.64	3.22
431.845	3.15
432.05	3.24
432.255	3.44
432.46	3.17
432.665	3.25
432.87	3.16
433.076	3.34
433.281	3.15
433.486	3.2
433.691	3.25
433.896	3.06
434.101	3
434.306	2.88
434.511	2.71
434.716	2.94
434.921	2.8
435.126	2.9
435.331	2.72
435.535	2.67
435.74	2.45
435.945	2.56
436.15	2.73
436.355	2.9
436.56	2.88
436.765	2.87
436.97	2.78
437.174	2.72
437.379	2.68
437.584	2.87
437.789	2.88
437.993	3.06
438.198	2.85
438.403	2.93
438.608	2.7
438.812	2.64
439.017	2.7
439.222	2.73
439.426	2.82
439.631	2.75
439.836	2.64
440.04	2.77
440.245	2.66
440.45	2.84
440.654	2.81
440.859	3.07
441.063	3.1
441.268	3.03
441.472	2.97
441.677	3.07
441.881	3
442.086	3.1
442.29	3
442.495	3.22
442.699	3.27
442.904	3.18
443.108	2.94
443.312	3.02
443.517	3.21
443.721	3.41
443.925	3.26
444.13	3.44
444.334	3.26
444.538	3.24
444.743	3.03
444.947	2.89
445.151	2.92
445.356	2.95
445.56	2.87
445.764	2.82
445.968	2.55
446.173	2.59
446.377	2.75
446.581	2.84
446.785	2.83
446.989	2.85
447.193	2.97
447.398	3.01
447.602	2.99
447.806	3
448.01	2.83
448.214	2.98
448.418	2.93
448.622	2.69
448.826	2.69
449.03	2.66
449.234	2.77
449.438	2.67
449.642	2.68
449.846	2.76
450.05	2.79
450.254	3.06
450.458	3.11
450.662	3.22
450.866	3.19
451.069	3.19
451.273	3.21
451.477	3.2
451.681	3.18
451.885	2.91
452.089	2.92
452.292	2.84
452.496	2.71
452.7	2.65
452.904	2.7
453.107	2.93
453.311	2.95
453.515	3.04
453.719	2.9
453.922	2.74
454.126	2.98
454.33	2.87
454.533	2.83
454.737	2.63
454.94	2.45
455.144	2.42
455.348	2.26
455.551	2.23
455.755	2.07
455.958	2.03
456.162	1.8
456.365	1.87
456.569	1.97
456.772	2.11
456.976	2.26
457.179	2.4
457.383	2.66
457.586	2.53
457.79	2.54
457.993	2.63
458.196	2.85
458.4	3.26
458.603	3.08
458.807	3.06
459.01	3.12
459.213	3.05
459.417	3.18
459.62	2.95
459.823	3
460.026	2.97
460.23	2.94
460.433	2.79
460.636	2.75
460.839	2.87
461.042	2.82
461.246	2.74
461.449	2.82
461.652	2.75
461.855	2.87
462.058	3.05
462.261	3.01
462.464	2.98
462.668	2.85
462.871	2.9
463.074	2.81
463.277	2.85
463.48	2.88
463.683	2.92
463.886	2.96
464.089	2.79
464.292	2.58
464.495	2.58
464.698	2.61
464.901	2.88
465.104	2.87
465.306	2.72
465.509	2.85
465.712	2.73
465.915	2.66
466.118	2.53
466.321	2.66
466.524	2.59
466.726	2.83
466.929	2.87
467.132	2.79
467.335	2.58
467.538	2.71
467.74	2.56
467.943	2.62
468.146	2.71
468.348	2.89
468.551	2.84
468.754	3.09
468.956	2.98
