Data from 2938074_Reflection_1.txt Node
Date: Sat Jul 11 20:29:03 EDT 2015
User: robert
Spectrometer: USB4E03001
Autoset integration time: false
Trigger mode: 4
Integration Time (sec): 1.000000E-1
Scans to average: 10
Electric dark correction enabled: true
Nonlinearity correction enabled: false
Boxcar width: 5
Stray light correction enabled: false
XAxis mode: Wavelengths
Stop averaging: false
Number of Pixels in Spectrum: 3648
>>>>>Begin Spectral Data<<<<<
177.566	-27.56
177.785	-9.65
178.005	66.16
178.225	101.89
178.445	116.89
178.665	137.52
178.885	176.68
179.105	72.35
179.324	110.84
179.544	-154.45
179.764	32.53
179.984	24.96
180.204	43.41
180.423	32.28
180.643	72.91
180.863	84.53
181.083	129.79
181.302	187.44
181.522	147.26
181.742	142.33
181.961	350.44
182.181	-469.84
182.401	132.46
182.621	72.74
182.84	83.55
183.06	157.47
183.279	797.03
183.499	73.41
183.719	97.29
183.938	94.11
184.158	163.19
184.377	131.47
184.597	163.16
184.816	271.31
185.036	624.12
185.256	418.12
185.475	124.52
185.695	123.96
185.914	183.85
186.134	115.53
186.353	140.52
186.572	149.19
186.792	159.45
187.011	183.76
187.231	139.82
187.45	176.41
187.67	182.08
187.889	226.33
188.108	265.35
188.328	317.91
188.547	407.03
188.766	247.28
188.986	361.57
189.205	242.25
189.424	154.17
189.644	157.09
189.863	137.68
190.082	125.97
190.302	117.24
190.521	101.07
190.74	74.72
190.959	93.59
191.178	102.93
191.398	113.89
191.617	114.56
191.836	126.61
192.055	211.98
192.274	183.73
192.494	168.91
192.713	187.74
192.932	180.66
193.151	185.37
193.37	233.47
193.589	287.87
193.808	261.53
194.027	241.56
194.246	283.84
194.465	233.73
194.685	235.92
194.904	222.78
195.123	171.66
195.342	193.28
195.561	222.55
195.78	169.39
195.999	128.64
196.218	105.06
196.436	109.07
196.655	71.9
196.874	67.93
197.093	86.29
197.312	52.69
197.531	72.46
197.75	95.18
197.969	112.05
198.188	139.77
198.407	175.53
198.625	175.19
198.844	147.33
199.063	203.92
199.282	254.72
199.501	390.75
199.719	-234.6
199.938	-180.41
200.157	-259.44
200.376	-597.34
200.594	1013.86
200.813	11954.44
201.032	-760.67
201.251	-180.65
201.469	-170.71
201.688	-336.03
201.907	-658.87
202.125	2415.64
202.344	12070
202.563	1267.6
202.781	671.67
203	-1781.96
203.218	424.77
203.437	241.01
203.656	166.68
203.874	136.27
204.093	123.55
204.311	135.12
204.53	114.75
204.748	109.79
204.967	101.99
205.185	90.03
205.404	69.69
205.622	75.7
205.841	59.41
206.059	69.76
206.278	69
206.496	70.28
206.715	53.53
206.933	78.77
207.151	77.63
207.37	76.98
207.588	101.27
207.806	119.87
208.025	129.63
208.243	191.39
208.461	180.07
208.68	175.14
208.898	210.02
209.116	239.33
209.335	198.11
209.553	165.59
209.771	268.06
209.989	168.24
210.208	242.6
210.426	560.09
210.644	-60.33
210.862	-119.88
211.081	-50.97
211.299	-63.7
211.517	-279.01
211.735	-457.12
211.953	-422.47
212.171	888.82
212.39	-159.09
212.608	-312.79
212.826	-5985.87
213.044	351.88
213.262	473.51
213.48	207.81
213.698	105.08
213.916	146.59
214.134	155.08
214.352	143.21
214.57	1071.48
214.788	139.8
215.006	124.08
215.224	170.18
215.442	172.54
215.66	213.04
215.878	274.53
216.096	204.75
216.314	205.2
216.532	218.16
216.75	570.91
216.968	355.94
217.185	586.67
217.403	560.83
217.621	818.29
217.839	221.91
218.057	123.96
218.275	159.23
218.492	166.83
218.71	122.35
218.928	118.09
219.146	101.9
219.363	109.47
219.581	117.28
219.799	110.39
220.017	118.42
220.234	145.68
220.452	162.79
220.67	120.67
220.887	106.35
221.105	117.6
221.323	121.16
221.54	105.68
221.758	90.7
221.976	81.66
222.193	79.32
222.411	71.23
222.629	62.94
222.846	53.96
223.064	62.89
223.281	68.71
223.499	60.37
223.716	63.97
223.934	46.75
224.151	46.91
224.369	40.6
224.586	37.85
224.804	28.62
225.021	23.37
225.239	21.07
225.456	21.44
225.674	21.45
225.891	34.17
226.108	33.71
226.326	36.64
226.543	43.31
226.76	47.9
226.978	39.44
227.195	41.6
227.413	39.15
227.63	34.72
227.847	35.01
228.064	26.96
228.282	23.69
228.499	18.96
228.716	16.27
228.934	14.11
229.151	12.03
229.368	13.08
229.585	13.21
229.802	16.28
230.02	16.78
230.237	17.23
230.454	16.65
230.671	17.56
230.888	18.84
231.105	22.25
231.323	20.88
231.54	26.02
231.757	28.51
231.974	32.33
232.191	34.67
232.408	35.5
232.625	31.96
232.842	31.66
233.059	27.01
233.276	26.83
233.493	25.72
233.71	26.4
233.927	27.73
234.144	23.51
234.361	19.55
234.578	11.24
234.795	11.71
235.012	18.24
235.229	25.69
235.446	24.76
235.663	26.29
235.879	24.19
236.096	21.77
236.313	18.43
236.53	17.33
236.747	16.62
236.964	18.12
237.181	18.95
237.397	14.93
237.614	15
237.831	16.11
238.048	16.19
238.264	20.89
238.481	26.28
238.698	26.83
238.915	28.31
239.131	28.24
239.348	26.78
239.565	24.71
239.781	24.11
239.998	23.13
240.215	23.81
240.431	20.3
240.648	15.75
240.865	14.42
241.081	14.03
241.298	12.02
241.514	10.61
241.731	11.45
241.947	11.22
242.164	10.94
242.38	10.8
242.597	10.09
242.814	10.16
243.03	10.78
243.246	11.01
243.463	9.82
243.679	11.96
243.896	14
244.112	14.36
244.329	15.2
244.545	13.55
244.762	12.41
244.978	12.42
245.194	15.36
245.411	15.45
245.627	15.44
245.843	15.07
246.06	14.26
246.276	12.73
246.492	13.2
246.709	12.85
246.925	13.84
247.141	14.11
247.357	13.66
247.574	13.05
247.79	13.69
248.006	13.25
248.222	14
248.439	13.43
248.655	13
248.871	12.33
249.087	12.25
249.303	12.8
249.519	13.24
249.736	14.2
249.952	14.21
250.168	13.47
250.384	14.9
250.6	13.69
250.816	14.28
251.032	13.36
251.248	13.28
251.464	13.12
251.68	11.31
251.896	11.43
252.112	11.66
252.328	10.19
252.544	10.52
252.76	10.27
252.976	11.9
253.192	11.15
253.408	13.58
253.624	14.2
253.84	15.68
254.056	17.53
254.272	16.99
254.487	18.67
254.703	20.11
254.919	19.97
255.135	18.77
255.351	15.78
255.567	18.35
255.782	17.22
255.998	15.52
256.214	14.66
256.43	14.4
256.646	14.43
256.861	14.74
257.077	18.78
257.293	18.4
257.508	18.48
257.724	19.39
257.94	17.55
258.155	16
258.371	17.02
258.587	16.26
258.802	16.02
259.018	14.6
259.234	13.41
259.449	10.99
259.665	10.54
259.88	9.99
260.096	10.08
260.312	9.59
260.527	10.31
260.743	9.8
260.958	9.64
261.174	8.22
261.389	8.69
261.605	7.75
261.82	8.25
262.036	8.09
262.251	8.89
262.466	8.61
262.682	9.23
262.897	8.89
263.113	9.5
263.328	8.92
263.543	9.08
263.759	8.32
263.974	9.4
264.189	10.77
264.405	10.87
264.62	9.87
264.835	10.68
265.051	11.39
265.266	11.3
265.481	12.22
265.696	11.39
265.912	9.85
266.127	9.15
266.342	8.99
266.557	8.66
266.773	7.46
266.988	7.54
267.203	6.02
267.418	5.95
267.633	4.6
267.848	1.76
268.064	3.48
268.279	4.83
268.494	8.3
268.709	8.4
268.924	7.66
269.139	7.27
269.354	6.52
269.569	6.69
269.784	6.36
269.999	7.11
270.214	8.64
270.429	8.97
270.644	10.04
270.859	6
271.074	5.86
271.289	5.84
271.504	7.88
271.719	7.82
271.934	7.72
272.149	8.79
272.363	9.39
272.578	10.01
272.793	9.73
273.008	8.95
273.223	10.62
273.438	11.01
273.653	11.29
273.867	9.99
274.082	11.33
274.297	11.67
274.512	12.15
274.726	12.29
274.941	11.53
275.156	10.81
275.371	10.16
275.585	11.38
275.8	11.14
276.015	11.04
276.229	13.33
276.444	12.05
276.659	11.61
276.873	10.56
277.088	10.11
277.302	10.99
277.517	10.93
277.732	13.99
277.946	12.04
278.161	11.84
278.375	11.96
278.59	10.45
278.804	11.17
279.019	11.67
279.233	10.85
279.448	10.73
279.662	10.4
279.877	10.19
280.091	8
280.306	9.42
280.52	9.42
280.735	10.66
280.949	12.11
281.163	12.5
281.378	12.8
281.592	12.66
281.806	13.07
282.021	12.64
282.235	12.98
282.449	13.58
282.664	12.51
282.878	13.09
283.092	12.56
283.307	10.92
283.521	10.24
283.735	10.55
283.949	10.24
284.164	10.49
284.378	11.23
284.592	11.23
284.806	11.9
285.02	11.18
285.234	11.14
285.449	10.75
285.663	11.82
285.877	12.03
286.091	11.68
286.305	11.42
286.519	10.95
286.733	11.04
286.947	10.92
287.161	9.96
287.375	10.2
287.589	9.7
287.803	9.94
288.017	9.74
288.231	9.53
288.445	9.14
288.659	8.65
288.873	8.9
289.087	7.77
289.301	7.17
289.515	7.84
289.729	9.16
289.943	9.33
290.157	10.28
290.371	10.96
290.584	10.57
290.798	11.08
291.012	12.85
291.226	13.68
291.44	14.03
291.654	14.01
291.867	14.28
292.081	12.89
292.295	14.05
292.509	12.97
292.722	11.63
292.936	12.49
293.15	12.72
293.364	11.86
293.577	10.31
293.791	11.47
294.005	12.27
294.218	12.15
294.432	12.64
294.645	11.03
294.859	11.03
295.073	10.31
295.286	9.57
295.5	9.71
295.713	9.25
295.927	10.18
296.14	9.76
296.354	9.55
296.568	9.24
296.781	9.5
296.994	10.33
297.208	10.42
297.421	10.78
297.635	11.43
297.848	11.59
298.062	12.1
298.275	11.67
298.489	11.64
298.702	12.3
298.915	12.01
299.129	12.9
299.342	12.73
299.555	12.36
299.769	13.03
299.982	13.32
300.195	11.95
300.409	11.86
300.622	11.77
300.835	12.05
301.048	12.04
301.262	12.1
301.475	11.61
301.688	11.6
301.901	11.62
302.115	11.33
302.328	10.95
302.541	11.41
302.754	12.13
302.967	12.19
303.18	12.64
303.393	12.2
303.607	11.99
303.82	11.31
304.033	10.49
304.246	11.42
304.459	12.69
304.672	11.84
304.885	10.58
305.098	9.37
305.311	9.36
305.524	8.87
305.737	7.16
305.95	9.27
306.163	8.5
306.376	9.11
306.589	8.14
306.802	7.2
307.015	9.46
307.228	10.66
307.44	11.49
307.653	12.75
307.866	12.08
308.079	12.36
308.292	10.87
308.505	12.94
308.718	13.18
308.93	14.3
309.143	14.68
309.356	14.24
309.569	14.74
309.781	14.31
309.994	13.53
310.207	13.86
310.42	15.29
310.632	15.14
310.845	13.67
311.058	13.31
311.27	12.17
311.483	11.65
311.696	10.43
311.908	10.73
312.121	11.64
312.333	10.99
312.546	11.5
312.759	11.71
312.971	12.04
313.184	12.52
313.396	12.47
313.609	12.73
313.821	12.85
314.034	13.45
314.246	14.19
314.459	13.4
314.671	13.22
314.884	11.04
315.096	10.48
315.309	9.62
315.521	11.04
315.733	11.52
315.946	11.79
316.158	11.46
316.371	11.64
316.583	11.69
316.795	11.54
317.008	12.27
317.22	13.77
317.432	13.74
317.644	14.43
317.857	13.11
318.069	12.28
318.281	12.74
318.494	11.86
318.706	12.73
318.918	10.76
319.13	12.23
319.342	13.1
319.555	13.76
319.767	13.63
319.979	13.93
320.191	14.87
320.403	15.47
320.615	15.7
320.827	16.69
321.039	15.98
321.252	17.27
321.464	17.47
321.676	16.16
321.888	15.48
322.1	14.88
322.312	13.18
322.524	12.15
322.736	11.99
322.948	10.54
323.16	9.79
323.372	9.59
323.584	8.98
323.796	8.04
324.007	8.56
324.219	9.04
324.431	10.43
324.643	11.79
324.855	12.16
325.067	12.89
325.279	12.49
325.491	12.99
325.702	13.17
325.914	13.69
326.126	13.38
326.338	13.18
326.55	12.61
326.761	11.52
326.973	10.71
327.185	10.16
327.396	8.61
327.608	10.18
327.82	9.68
328.032	8.98
328.243	7.77
328.455	7.22
328.666	6.87
328.878	7.93
329.09	7.33
329.301	6.25
329.513	6.42
329.725	7.58
329.936	5.26
330.148	5.52
330.359	7.04
330.571	7.55
330.782	7.04
330.994	5.36
331.205	3.86
331.417	4.87
331.628	6.86
331.84	7.48
332.051	7.57
332.262	9.02
332.474	9.25
332.685	9.35
332.897	8.78
333.108	9.71
333.319	12.23
333.531	13
333.742	12.44
333.953	12.3
334.165	12.12
334.376	11.77
334.587	11.76
334.799	12.44
335.01	11.26
335.221	10.3
335.432	11.56
335.644	11.91
335.855	11.24
336.066	11.6
336.277	11.6
336.488	10.62
336.7	10.23
336.911	9.38
337.122	9.25
337.333	9.95
337.544	11.99
337.755	10.83
337.966	10.43
338.177	11.07
338.388	11.57
338.599	11.38
338.811	11.94
339.022	12.68
339.233	13.24
339.444	13.18
339.655	13.1
339.866	12.99
340.076	13.32
340.287	12.85
340.498	11.96
340.709	11.46
340.92	11.52
341.131	12.19
341.342	12.02
341.553	12.19
341.764	12
341.975	10.72
342.185	10.03
342.396	10.47
342.607	10.99
342.818	11.76
343.029	12.73
343.239	11.9
343.45	12.31
343.661	12.25
343.872	12.11
344.082	12.44
344.293	13.37
344.504	14.13
344.714	13.24
344.925	13.31
345.136	12.29
345.346	11.5
345.557	12.6
345.768	12.14
345.978	12.33
346.189	11.39
346.399	10.75
346.61	10.92
346.821	10.59
347.031	11.24
347.242	10.47
347.452	11
347.663	10.17
347.873	9.77
348.084	10.02
348.294	10.11
348.504	10.33
348.715	11.07
348.925	11.42
349.136	11.39
349.346	10.68
349.557	11.2
349.767	11.54
349.977	11.76
350.188	12.74
350.398	13.29
350.608	12.97
350.819	14
351.029	14.18
351.239	13.42
351.449	13.77
351.66	13.97
351.87	13.53
352.08	12.68
352.29	13.67
352.501	13.94
352.711	12.89
352.921	13.16
353.131	13.18
353.341	11.84
353.552	12.22
353.762	11.39
353.972	11.53
354.182	11.38
354.392	12.1
354.602	11.61
354.812	9.87
355.022	9.85
355.232	9.4
355.442	9.67
355.652	10.29
355.862	9.53
356.072	9.83
356.282	10.15
356.492	10.63
356.702	10.51
356.912	11.17
357.122	11.73
357.332	12.09
357.542	12.13
357.752	11.35
357.962	11.34
358.171	11.88
358.381	11.42
358.591	11.01
358.801	10.51
359.011	10.74
359.221	10
359.43	10.03
359.64	9.63
359.85	9.45
360.06	9.35
360.269	8.99
360.479	8.13
360.689	8.63
360.899	8.83
361.108	9.15
361.318	8.79
361.528	8.54
361.737	8.62
361.947	8.6
362.156	8.64
362.366	9.36
362.576	9.42
362.785	9.57
362.995	9.57
363.204	9.32
363.414	9
363.623	8.53
363.833	8.53
364.042	7.63
364.252	7.66
364.461	7.8
364.671	7.7
364.88	7.82
365.09	9.49
365.299	9.71
365.509	9.55
365.718	9.55
365.927	9.99
366.137	10.05
366.346	10.82
366.555	11.14
366.765	11.33
366.974	11.26
367.183	11.21
367.393	10.7
367.602	9.78
367.811	10.27
368.021	11.58
368.23	11.8
368.439	11.92
368.648	12.03
368.857	11.24
369.067	11.54
369.276	11.04
369.485	10.84
369.694	10.39
369.903	10.48
370.112	10.61
370.321	9.17
370.531	8.95
370.74	8.97
370.949	8.44
371.158	8.56
371.367	7.96
371.576	8.2
371.785	8.61
371.994	8.61
372.203	8.75
372.412	8.76
372.621	9.04
372.83	9.33
373.039	9.46
373.248	9.78
373.457	10.06
373.666	9.98
373.874	9.58
374.083	9.57
374.292	9.17
374.501	8.71
374.71	8.01
374.919	8.26
375.128	8.07
375.336	7.84
375.545	7.5
375.754	7
375.963	6.85
376.171	7.14
376.38	7.67
376.589	8.11
376.798	8.75
377.006	8.76
377.215	8.01
377.424	7.48
377.632	7.09
377.841	6.66
378.05	7.1
378.258	6.92
378.467	6.51
378.675	5.63
378.884	5.08
379.093	4.35
379.301	4.07
379.51	4.29
379.718	4.42
379.927	4.56
380.135	4.71
380.344	4.74
380.552	5.04
380.761	5.8
380.969	5.75
381.177	5.66
381.386	6.38
381.594	6.43
381.803	6.7
382.011	6.77
382.219	6.9
382.428	7.18
382.636	7.13
382.845	7.16
383.053	6.48
383.261	6.47
383.469	7.11
383.678	6.93
383.886	6.76
384.094	6.69
384.302	6.51
384.511	6.32
384.719	6.32
384.927	6.26
385.135	5.95
385.343	5.93
385.552	6.23
385.76	5.39
385.968	5.28
386.176	5.38
386.384	5.37
386.592	5.41
386.8	5.84
387.008	5.37
387.216	4.98
387.424	5.43
387.633	5.36
387.841	4.82
388.049	4.98
388.257	4.85
388.465	4.83
388.672	4.55
388.88	4.69
389.088	4.06
389.296	4.24
389.504	4.81
389.712	4.41
389.92	4.5
390.128	4.3
390.336	4.19
390.544	3.98
390.751	4.26
390.959	4.42
391.167	4.45
391.375	4.55
391.583	4.64
391.79	3.94
391.998	3.86
392.206	3.65
392.414	3.84
392.621	4.02
392.829	3.69
393.037	3.56
393.244	3.48
393.452	3.27
393.66	3.18
393.867	2.89
394.075	3.16
394.283	3.29
394.49	3.3
394.698	3.3
394.905	3.41
395.113	3.67
395.32	3.37
395.528	3.2
395.735	3.35
395.943	3.46
396.15	3.81
396.358	3.94
396.565	4
396.773	4.37
396.98	4.59
397.188	4.76
397.395	4.75
397.602	4.78
397.81	5.06
398.017	4.92
398.225	4.92
398.432	4.84
398.639	4.97
398.847	4.8
399.054	4.86
399.261	5
399.468	4.66
399.676	4.41
399.883	4.43
400.09	4.17
400.297	4.37
400.505	4.57
400.712	4.3
400.919	4.29
401.126	4.28
401.333	3.82
401.54	3.47
401.748	3.28
401.955	3.56
402.162	3.53
402.369	3.59
402.576	3.44
402.783	3.4
402.99	3.49
403.197	3.17
403.404	3.03
403.611	3.18
403.818	3.19
404.025	3.46
404.232	3.4
404.439	3.4
404.646	3.35
404.853	3.38
405.06	3.16
405.267	3.28
405.474	3.21
405.681	3.29
405.887	2.95
406.094	3.14
406.301	2.99
406.508	2.98
406.715	3.05
406.922	2.79
407.128	2.69
407.335	2.69
407.542	2.57
407.749	2.52
407.955	2.51
408.162	2.8
408.369	2.52
408.575	2.56
408.782	2.61
408.989	2.51
409.195	2.88
409.402	2.99
409.609	3.04
409.815	3.24
410.022	3.71
410.228	3.77
410.435	4.07
410.642	4.24
410.848	4.13
411.055	4.31
411.261	4.37
411.468	4.37
411.674	4.47
411.881	4.23
412.087	3.91
412.294	3.38
412.5	3.57
412.706	3.39
412.913	3.18
413.119	3.35
413.326	3.27
413.532	3.3
413.738	3.1
413.945	2.8
414.151	2.77
414.357	2.85
414.564	3.01
414.77	2.77
414.976	2.79
415.182	2.88
415.389	2.74
415.595	2.79
415.801	2.98
416.007	2.82
416.214	3.04
416.42	3.1
416.626	3.17
416.832	3.11
417.038	3.01
417.244	3
417.45	2.85
417.657	3.06
417.863	2.9
418.069	2.69
418.275	2.94
418.481	2.95
418.687	3.06
418.893	3.15
419.099	3.15
419.305	3.29
419.511	3.19
419.717	3.23
419.923	3.01
420.129	3.09
420.335	3.19
420.541	3.08
420.746	2.88
420.952	2.92
421.158	2.79
421.364	2.76
421.57	2.7
421.776	2.74
421.982	2.63
422.187	2.58
422.393	2.46
422.599	2.24
422.805	2.21
423.01	2.22
423.216	2.22
423.422	2.16
423.628	2.08
423.833	2.04
424.039	1.93
424.245	2.04
424.45	2.01
424.656	2.14
424.862	2.16
425.067	2.16
425.273	2.29
425.478	2.19
425.684	2.32
425.889	2.4
426.095	2.39
426.301	2.28
426.506	2.28
426.712	2.38
426.917	2.13
427.123	2.35
427.328	2.56
427.533	2.27
427.739	2.23
427.944	1.95
428.15	2.03
428.355	1.94
428.561	2.02
428.766	2.12
428.971	2.27
429.177	2.71
429.382	2.61
429.587	2.63
429.793	2.7
429.998	2.97
430.203	3.29
430.408	3.24
430.614	3.33
430.819	3.63
431.024	3.43
431.229	3.19
431.434	2.99
431.64	2.86
431.845	2.73
432.05	2.84
432.255	2.82
432.46	2.65
432.665	2.54
432.87	2.5
433.076	2.33
433.281	2.52
433.486	2.59
433.691	2.67
433.896	2.8
434.101	2.91
434.306	2.9
434.511	2.8
434.716	2.99
434.921	3.19
435.126	3.06
435.331	2.94
435.535	2.87
435.74	2.93
435.945	2.72
436.15	2.7
436.355	2.44
436.56	2.47
436.765	2.52
436.97	2.24
437.174	2.29
437.379	2.33
437.584	2.6
437.789	2.44
437.993	2.35
438.198	2.41
438.403	2.31
438.608	2.51
438.812	2.44
439.017	2.21
439.222	2.41
439.426	2.33
439.631	2.36
439.836	2.28
440.04	2.24
440.245	2.31
440.45	2.25
440.654	2.2
440.859	2.15
441.063	2.2
441.268	2.31
441.472	2.3
441.677	2.19
441.881	2.39
442.086	2.29
442.29	2.39
442.495	2.27
442.699	2.43
442.904	2.53
443.108	2.45
443.312	2.53
443.517	2.62
443.721	2.61
443.925	2.62
444.13	2.49
444.334	2.61
444.538	2.55
444.743	2.66
444.947	2.69
445.151	2.65
445.356	2.74
445.56	2.62
445.764	2.51
445.968	2.46
446.173	2.45
446.377	2.31
446.581	2.29
446.785	2.3
446.989	2.18
447.193	2.1
447.398	2.16
447.602	2.09
447.806	2.08
448.01	2.07
448.214	2.05
448.418	1.92
448.622	2.04
448.826	2.12
449.03	2.16
449.234	2.23
449.438	2.35
449.642	2.33
449.846	2.18
450.05	2.16
450.254	2.27
450.458	2.3
450.662	2.33
450.866	2.48
451.069	2.36
451.273	2.54
451.477	2.63
451.681	2.36
451.885	2.39
452.089	2.64
452.292	2.75
452.496	2.55
452.7	2.46
452.904	2.67
453.107	2.51
453.311	2.5
453.515	2.24
453.719	2.14
453.922	2.27
454.126	2.16
454.33	2.09
454.533	1.92
454.737	2.14
454.94	2.2
455.144	2.07
455.348	2.14
455.551	2.08
455.755	2.2
455.958	2.4
456.162	2.58
456.365	2.62
456.569	2.54
456.772	2.71
456.976	2.61
457.179	2.59
457.383	2.6
457.586	2.67
457.79	2.44
457.993	2.57
458.196	2.31
458.4	2.16
458.603	2.17
458.807	2.18
459.01	2.11
459.213	2.01
459.417	2.09
459.62	2.14
459.823	2.15
460.026	2.27
460.23	2.23
460.433	2.26
460.636	2.27
460.839	2.21
461.042	2.24
461.246	2.3
461.449	2.39
461.652	2.35
461.855	2.47
462.058	2.31
462.261	2.46
462.464	2.25
462.668	2.41
462.871	2.23
463.074	2.33
463.277	2.23
463.48	2.31
