Data from 2938073_Reflection_3.txt Node
Date: Sat Jul 11 20:32:11 EDT 2015
User: robert
Spectrometer: USB4E03001
Autoset integration time: false
Trigger mode: 4
Integration Time (sec): 1.000000E-1
Scans to average: 10
Electric dark correction enabled: true
Nonlinearity correction enabled: false
Boxcar width: 5
Stray light correction enabled: false
XAxis mode: Wavelengths
Stop averaging: false
Number of Pixels in Spectrum: 3648
>>>>>Begin Spectral Data<<<<<
177.566	5.51
177.785	-82.08
178.005	19.36
178.225	46.21
178.445	46.48
178.665	-24.71
178.885	-30.4
179.105	16.21
179.324	-73.71
179.544	196.06
179.764	77.94
179.984	74.58
180.204	38.1
180.423	179.24
180.643	124.84
180.863	114.19
181.083	161.21
181.302	311.16
181.522	349.93
181.742	327.06
181.961	770.88
182.181	-1847.09
182.401	448.59
182.621	227.51
182.84	164.91
183.06	453.6
183.279	2033.23
183.499	288.24
183.719	274.64
183.938	228.09
184.158	295.17
184.377	268.53
184.597	246.38
184.816	321.99
185.036	753.6
185.256	496.78
185.475	134.91
185.695	172.66
185.914	235.86
186.134	189.41
186.353	198.45
186.572	247.1
186.792	319.13
187.011	356.01
187.231	228.03
187.45	260.3
187.67	251.97
187.889	267.27
188.108	282.48
188.328	257.49
188.547	379.48
188.766	266.06
188.986	368.15
189.205	165.94
189.424	140.24
189.644	169.09
189.863	164.4
190.082	178.39
190.302	220.14
190.521	177.73
190.74	152.03
190.959	122.06
191.178	147.88
191.398	142.4
191.617	148.98
191.836	172.16
192.055	312.57
192.274	211.7
192.494	184.13
192.713	176.95
192.932	175.12
193.151	177.13
193.37	215.23
193.589	216.39
193.808	194.64
194.027	166.72
194.246	189.3
194.465	157.17
194.685	183.83
194.904	170.83
195.123	161.15
195.342	201.13
195.561	221.61
195.78	179.73
195.999	165.67
196.218	148.02
196.436	126.76
196.655	88.74
196.874	95.29
197.093	101.37
197.312	72.45
197.531	74.53
197.75	42.78
197.969	40.02
198.188	-2.88
198.407	-65.01
198.625	-74.52
198.844	-26.12
199.063	-5.77
199.282	-274.64
199.501	-181.71
199.719	100.39
199.938	74.47
200.157	54.92
200.376	-26.22
200.594	168.28
200.813	3352.22
201.032	-226.49
201.251	-61.04
201.469	-8.59
201.688	-126
201.907	-144.71
202.125	627.31
202.344	3655.56
202.563	581.78
202.781	338.22
203	-903.21
203.218	167.82
203.437	137.26
203.656	96.85
203.874	118.1
204.093	82.33
204.311	108.91
204.53	100.65
204.748	95.16
204.967	87.11
205.185	76.04
205.404	71.55
205.622	73.01
205.841	62.61
206.059	50.86
206.278	44.02
206.496	52.13
206.715	44.59
206.933	62.12
207.151	70.49
207.37	71.69
207.588	119.91
207.806	157.56
208.025	197.7
208.243	207.63
208.461	221.07
208.68	200.62
208.898	226.35
209.116	240.38
209.335	228.61
209.553	164.84
209.771	230.87
209.989	120.14
210.208	116.16
210.426	106.32
210.644	-2.75
210.862	-87.32
211.081	-30.85
211.299	-92.57
211.517	-372.9
211.735	-536.49
211.953	-404.93
212.171	1042.9
212.39	-227.21
212.608	-388.89
212.826	-7560.87
213.044	441.27
213.262	439.62
213.48	209.03
213.698	80.06
213.916	55.5
214.134	57.52
214.352	81.84
214.57	615.44
214.788	28.19
215.006	-9
215.224	-53.37
215.442	-92.7
215.66	-69.49
215.878	-75.34
216.096	3.24
216.314	2.67
216.532	57.39
216.75	44.6
216.968	26.81
217.185	192.96
217.403	231.62
217.621	727.92
217.839	242.65
218.057	177.89
218.275	166.04
218.492	168.44
218.71	134.27
218.928	102.76
219.146	92.53
219.363	90.99
219.581	75.74
219.799	86.53
220.017	87.12
220.234	96.34
220.452	98.57
220.67	95.62
220.887	83.89
221.105	67.68
221.323	92.96
221.54	80.06
221.758	63.07
221.976	82.04
222.193	83.51
222.411	75.6
222.629	52.44
222.846	54.39
223.064	64.24
223.281	83.94
223.499	88.71
223.716	66.79
223.934	69.53
224.151	74.52
224.369	65.4
224.586	49.25
224.804	50.82
225.021	44.92
225.239	41.15
225.456	30.44
225.674	20.65
225.891	32.84
226.108	28.95
226.326	24.09
226.543	29.47
226.76	34.65
226.978	33.73
227.195	29.62
227.413	33.19
227.63	33.1
227.847	30.89
228.064	30.32
228.282	21.87
228.499	16.34
228.716	16.64
228.934	13.03
229.151	10.16
229.368	7.79
229.585	6.88
229.802	7.81
230.02	5.6
230.237	4.5
230.454	1.88
230.671	3.24
230.888	5.73
231.105	4.37
231.323	3.59
231.54	4.78
231.757	7.08
231.974	6.3
232.191	10.12
232.408	10.37
232.625	12.88
232.842	12.65
233.059	11.89
233.276	15.83
233.493	18.13
233.71	17.76
233.927	21.88
234.144	21.96
234.361	26.35
234.578	23.03
234.795	25.06
235.012	23.53
235.229	26.05
235.446	26.64
235.663	26.91
235.879	24.49
236.096	23.39
236.313	17.88
236.53	16.81
236.747	16.11
236.964	15.05
237.181	14.53
237.397	19.22
237.614	20.5
237.831	20.97
238.048	22.25
238.264	21.65
238.481	23.77
238.698	29.43
238.915	31.74
239.131	31.89
239.348	29.65
239.565	26.58
239.781	23.36
239.998	24.31
240.215	22.5
240.431	19.62
240.648	19.82
240.865	22.12
241.081	17.67
241.298	16.51
241.514	12.94
241.731	12.5
241.947	12.15
242.164	12.21
242.38	11.09
242.597	10.83
242.814	10.27
243.03	10.1
243.246	9.9
243.463	10.97
243.679	10.88
243.896	13.66
244.112	14.41
244.329	16.04
244.545	15.02
244.762	14.9
244.978	14.86
245.194	15.1
245.411	16.85
245.627	13.63
245.843	13.01
246.06	11.56
246.276	10.19
246.492	9.54
246.709	9.05
246.925	8.72
247.141	8.79
247.357	8.88
247.574	8.9
247.79	8.52
248.006	8.85
248.222	8.41
248.439	8.82
248.655	8.17
248.871	8.03
249.087	8.28
249.303	9.8
249.519	10.34
249.736	10.52
249.952	11.07
250.168	9.8
250.384	11.94
250.6	13.78
250.816	14.31
251.032	14.01
251.248	14.81
251.464	13.74
251.68	12.11
251.896	11.82
252.112	12.43
252.328	11.9
252.544	13.27
252.76	10.94
252.976	10.48
253.192	10.18
253.408	11.31
253.624	11.83
253.84	11.68
254.056	12.12
254.272	12.39
254.487	12.89
254.703	13.32
254.919	11.96
255.135	12.76
255.351	10.14
255.567	7.6
255.782	8.69
255.998	6.69
256.214	9.67
256.43	8.39
256.646	7.39
256.861	7.43
257.077	6.68
257.293	8.66
257.508	9.53
257.724	10.78
257.94	12.9
258.155	11.92
258.371	11.89
258.587	9.84
258.802	10.32
259.018	9.78
259.234	9.09
259.449	8.68
259.665	7.46
259.88	7
260.096	6.86
260.312	6.06
260.527	6.31
260.743	6.8
260.958	6.75
261.174	6.07
261.389	6.62
261.605	6.41
261.82	6.83
262.036	7.72
262.251	8.86
262.466	9.32
262.682	10.56
262.897	10.63
263.113	10.6
263.328	12.75
263.543	13.47
263.759	12.62
263.974	14.02
264.189	14.8
264.405	14.59
264.62	12.81
264.835	12.24
265.051	10.69
265.266	11.5
265.481	9.7
265.696	7.33
265.912	6.21
266.127	6.31
266.342	4.3
266.557	3.66
266.773	4.04
266.988	4.56
267.203	4.65
267.418	5.92
267.633	4.83
267.848	4.53
268.064	5.84
268.279	7.12
268.494	9.58
268.709	11.06
268.924	9.97
269.139	8.76
269.354	8.6
269.569	7.76
269.784	6.77
269.999	6.03
270.214	6.91
270.429	6.31
270.644	7.06
270.859	4.19
271.074	4.69
271.289	6.79
271.504	7.47
271.719	6.64
271.934	7.78
272.149	9.19
272.363	10.16
272.578	9.78
272.793	9.34
273.008	8.19
273.223	9.44
273.438	9.69
273.653	9.08
273.867	8.64
274.082	9.55
274.297	8.32
274.512	6.79
274.726	6.09
274.941	7.26
275.156	8.46
275.371	7
275.585	7.27
275.8	6.05
276.015	6.12
276.229	5.07
276.444	5.59
276.659	6.88
276.873	7.48
277.088	7.49
277.302	7.75
277.517	7.78
277.732	10.83
277.946	9.5
278.161	8.63
278.375	7.46
278.59	9.61
278.804	9.8
279.019	8.67
279.233	8.07
279.448	8.77
279.662	8.31
279.877	6.7
280.091	5.72
280.306	6.43
280.52	6.15
280.735	6.86
280.949	7.83
281.163	7.41
281.378	8.9
281.592	9.78
281.806	8.93
282.021	8.23
282.235	8.64
282.449	9.34
282.664	8.14
282.878	10.03
283.092	10.33
283.307	8.79
283.521	8.67
283.735	7.21
283.949	6.47
284.164	6.99
284.378	6.96
284.592	7.46
284.806	7.44
285.02	8.14
285.234	7.53
285.449	7.77
285.663	7.67
285.877	7.94
286.091	8.71
286.305	9.11
286.519	9.23
286.733	9.6
286.947	9.94
287.161	10.45
287.375	11.22
287.589	9.83
287.803	9.13
288.017	10.05
288.231	10.08
288.445	10.43
288.659	10.36
288.873	9.43
289.087	9.29
289.301	8.23
289.515	7.29
289.729	6.89
289.943	8.71
290.157	9.18
290.371	9.1
290.584	8.42
290.798	7.82
291.012	7.36
291.226	9.11
291.44	9.63
291.654	9.46
291.867	9.41
292.081	8.42
292.295	8.55
292.509	8.37
292.722	8.32
292.936	8.81
293.15	9.75
293.364	10.28
293.577	8.85
293.791	8.23
294.005	8.49
294.218	8.96
294.432	9.55
294.645	7.46
294.859	7.83
295.073	8.08
295.286	8.5
295.5	8.36
295.713	7.82
295.927	7.33
296.14	7.54
296.354	8.38
296.568	8.2
296.781	8.82
296.994	8.99
297.208	9.33
297.421	8.99
297.635	8.85
297.848	8.78
298.062	8.85
298.275	10.52
298.489	11.75
298.702	11.11
298.915	10.42
299.129	10.64
299.342	11.52
299.555	11.18
299.769	12.16
299.982	11.69
300.195	11.03
300.409	12.31
300.622	10.76
300.835	9.8
301.048	10.65
301.262	11.53
301.475	10.8
301.688	9.95
301.901	9.4
302.115	7.93
302.328	8.56
302.541	8.9
302.754	7.73
302.967	7.95
303.18	6.94
303.393	6.54
303.607	6.59
303.82	6.25
304.033	6.98
304.246	7.71
304.459	9.55
304.672	8.22
304.885	8.8
305.098	9.38
305.311	9.24
305.524	10.06
305.737	10.09
305.95	11.63
306.163	10.17
306.376	11.64
306.589	11.18
306.802	10.85
307.015	14.21
307.228	14.77
307.44	13.88
307.653	15.27
307.866	15.05
308.079	13.67
308.292	12.17
308.505	14.88
308.718	14.56
308.93	15.08
309.143	14.53
309.356	13.31
309.569	12.98
309.781	12.98
309.994	12.24
310.207	12.49
310.42	13.74
310.632	15.13
310.845	15.11
311.058	14.37
311.27	13.73
311.483	13.53
311.696	13.3
311.908	13.27
312.121	14.11
312.333	14.27
312.546	15.03
312.759	14.91
312.971	13.57
313.184	13.1
313.396	13.64
313.609	14.65
313.821	15.52
314.034	15.44
314.246	16.62
314.459	16.36
314.671	16.13
314.884	14.46
315.096	15.33
315.309	15.77
315.521	16.26
315.733	16.74
315.946	16.81
316.158	17.22
316.371	17.03
316.583	15.36
316.795	15.61
317.008	15.05
317.22	15.96
317.432	16.55
317.644	17.24
317.857	16.48
318.069	16.36
318.281	15.91
318.494	16.04
318.706	17.2
318.918	18.74
319.13	19.51
319.342	21.02
319.555	20.75
319.767	18.58
319.979	17.98
320.191	18.73
320.403	18.44
320.615	19.29
320.827	18.61
321.039	17.78
321.252	17.89
321.464	18.48
321.676	17.37
321.888	18.13
322.1	18.98
322.312	18.98
322.524	17.67
322.736	17.9
322.948	17.36
323.16	17.43
323.372	16.69
323.584	15.52
323.796	14.4
324.007	14.61
324.219	14.06
324.431	16.23
324.643	15.35
324.855	16.64
325.067	16.96
325.279	16.23
325.491	15.82
325.702	18.09
325.914	19.49
326.126	18.89
326.338	19.3
326.55	18.95
326.761	17.06
326.973	17.77
327.185	16.68
327.396	16.66
327.608	19.18
327.82	18.76
328.032	16.97
328.243	16.24
328.455	16.97
328.666	17.09
328.878	19.59
329.09	19.38
329.301	20.11
329.513	21.45
329.725	21.36
329.936	19.1
330.148	20.62
330.359	23.3
330.571	23.94
330.782	23.43
330.994	22.39
331.205	20.01
331.417	21.46
331.628	22.57
331.84	23.84
332.051	23.85
332.262	25.17
332.474	26.14
332.685	25.53
332.897	24.9
333.108	27.12
333.319	29.63
333.531	30.75
333.742	31.2
333.953	30.8
334.165	30.27
334.376	32.56
334.587	33.6
334.799	33.53
335.01	32.67
335.221	33.04
335.432	32.65
335.644	32.81
335.855	32.83
336.066	33.29
336.277	32.84
336.488	32.35
336.7	29.45
336.911	28.34
337.122	28.28
337.333	29.54
337.544	29.49
337.755	29.22
337.966	28.78
338.177	29.8
338.388	29.22
338.599	29.65
338.811	30.25
339.022	32.43
339.233	32.8
339.444	33.82
339.655	33.24
339.866	34.91
340.076	35.92
340.287	36.06
340.498	34.99
340.709	34.14
340.92	34.65
341.131	35.41
341.342	34.67
341.553	35.81
341.764	35.46
341.975	35.76
342.185	35.12
342.396	34.73
342.607	34.82
342.818	35.04
343.029	36.13
343.239	36
343.45	35.76
343.661	36.19
343.872	34.17
344.082	33.5
344.293	34.03
344.504	35.08
344.714	34.93
344.925	34.98
345.136	34.76
345.346	35.72
345.557	35.77
345.768	35.27
345.978	36.27
346.189	37.7
346.399	37.6
346.61	37.36
346.821	35.56
347.031	35.47
347.242	35.32
347.452	35.64
347.663	34.38
347.873	34.12
348.084	34.81
348.294	34.18
348.504	33.77
348.715	33.67
348.925	33.66
349.136	33.47
349.346	33.65
349.557	34.32
349.767	34.67
349.977	34.5
350.188	33.79
350.398	33.58
350.608	32.81
350.819	33.02
351.029	33.83
351.239	33.64
351.449	34.56
351.66	34.34
351.87	33.24
352.08	32.08
352.29	33.02
352.501	33.21
352.711	33.01
352.921	33.62
353.131	33.32
353.341	32.1
353.552	31.86
353.762	31.72
353.972	31.64
354.182	31.68
354.392	32.85
354.602	32.55
354.812	32.43
355.022	32.12
355.232	31.98
355.442	31.91
355.652	32.66
355.862	32.14
356.072	32.55
356.282	32.5
356.492	33.27
356.702	33.28
356.912	33.9
357.122	34.34
357.332	34.8
357.542	34.8
357.752	34.75
357.962	35.05
358.171	35.74
358.381	34.66
358.591	34.1
358.801	33.88
359.011	34.26
359.221	33.47
359.43	33.72
359.64	33.05
359.85	32.35
360.06	32.45
360.269	32.17
360.479	31.08
360.689	31.49
360.899	32.56
361.108	32.45
361.318	31.25
361.528	31.26
361.737	31.28
361.947	31.79
362.156	32.16
362.366	32.44
362.576	32.06
362.785	32.45
362.995	32.38
363.204	31.74
363.414	31.68
363.623	32.35
363.833	31.89
364.042	31.13
364.252	30.86
364.461	31.1
364.671	30.34
364.88	30.57
365.09	31.13
365.299	31.38
365.509	31.02
365.718	31.2
365.927	30.8
366.137	31.22
366.346	31.6
366.555	32.03
366.765	31.21
366.974	31.5
367.183	31.23
367.393	30.58
367.602	30.22
367.811	30.92
368.021	30.61
368.23	30.15
368.439	30.68
368.648	31.42
368.857	31.02
369.067	31.42
369.276	31.2
369.485	31.16
369.694	31.59
369.903	31.6
370.112	31.19
370.321	30.53
370.531	30.69
370.74	30.07
370.949	28.46
371.158	28.71
371.367	28.82
371.576	28.72
371.785	28.98
371.994	28.83
372.203	29.17
372.412	29.28
372.621	29.63
372.83	29.88
373.039	29.89
373.248	30.65
373.457	30.13
373.666	30.16
373.874	30.33
374.083	29.94
374.292	29.54
374.501	28.79
374.71	28.28
374.919	28.53
375.128	28.66
375.336	27.94
375.545	28.03
375.754	28.12
375.963	27.46
376.171	27.14
376.38	27.7
376.589	28.14
376.798	27.94
377.006	28.16
377.215	27.09
377.424	26.3
377.632	26.25
377.841	25.54
378.05	25.31
378.258	25.35
378.467	25.14
378.675	24.46
378.884	23.96
379.093	24.37
379.301	24.22
379.51	24.88
379.718	24.98
379.927	25.37
380.135	25
380.344	24.83
380.552	25
380.761	25.48
380.969	25.44
381.177	24.92
381.386	25.26
381.594	25.33
381.803	25.06
382.011	25.57
382.219	25.39
382.428	26.15
382.636	26.26
382.845	26.19
383.053	25.41
383.261	25.07
383.469	25.33
383.678	24.46
383.886	24.22
384.094	24.43
384.302	23.72
384.511	23.69
384.719	22.98
384.927	22.77
385.135	22.63
385.343	22.73
385.552	22.96
385.76	22.62
385.968	22.59
386.176	22.51
386.384	22.41
386.592	22.67
386.8	22.58
387.008	22.73
387.216	22.41
387.424	22.23
387.633	22
387.841	21.62
388.049	21.62
388.257	21.57
388.465	21.33
388.672	20.97
388.88	20.73
389.088	20.34
389.296	20.38
389.504	21.08
389.712	20.67
389.92	21.06
390.128	21.25
390.336	21.2
390.544	20.99
390.751	20.91
390.959	20.82
391.167	20.48
391.375	20.65
391.583	20.37
391.79	19.96
391.998	20.18
392.206	20.08
392.414	19.93
392.621	20.03
392.829	19.92
393.037	20.15
393.244	20.12
393.452	20.12
393.66	20.05
393.867	20.11
394.075	20.1
394.283	20.15
394.49	19.9
394.698	20.12
394.905	20.15
395.113	20.17
395.32	19.61
395.528	19.81
395.735	20.11
395.943	19.99
396.15	20.03
396.358	20.04
396.565	20.23
396.773	20.5
396.98	20.36
397.188	19.96
397.395	20.07
397.602	20.41
397.81	20.38
398.017	20.61
398.225	20.62
398.432	20.51
398.639	20.32
398.847	20.48
399.054	20.13
399.261	20.2
399.468	20.61
399.676	20.28
399.883	20.4
400.09	20.21
400.297	20.17
400.505	20.24
400.712	20.36
400.919	20.37
401.126	19.88
401.333	19.91
401.54	19.61
401.748	19.16
401.955	19.67
402.162	19.5
402.369	19.56
402.576	19.39
402.783	19.62
402.99	19.69
403.197	19.46
403.404	19.53
403.611	19.45
403.818	19.35
404.025	19.71
404.232	19.48
404.439	19.48
404.646	19.64
404.853	19.55
405.06	19.52
405.267	19.61
405.474	19.74
405.681	19.69
405.887	19.63
406.094	20.1
406.301	20.19
406.508	20.31
406.715	20.21
406.922	20.15
407.128	20.06
407.335	19.84
407.542	19.93
407.749	19.94
407.955	19.9
408.162	20.12
408.369	19.9
408.575	19.53
408.782	19.48
408.989	19.66
409.195	19.45
409.402	19.52
409.609	19.67
409.815	19.72
410.022	20.04
410.228	19.94
410.435	20.01
410.642	19.96
410.848	20.07
411.055	20.23
411.261	20.19
411.468	20.2
411.674	20.01
411.881	19.74
412.087	19.46
412.294	18.89
412.5	18.98
412.706	18.86
412.913	18.91
413.119	18.87
413.326	18.49
413.532	18.31
413.738	18.47
413.945	18.76
414.151	18.86
414.357	18.69
414.564	18.89
414.77	18.68
414.976	18.7
415.182	18.63
415.389	18.59
415.595	18.95
415.801	19.18
416.007	18.89
416.214	18.72
416.42	18.72
416.626	18.82
416.832	18.76
417.038	18.78
417.244	18.57
417.45	18.62
417.657	18.72
417.863	18.51
418.069	18.25
418.275	18.33
418.481	18.35
418.687	18.33
418.893	18.44
419.099	18.33
419.305	18.31
419.511	18.21
419.717	18.02
419.923	17.93
420.129	17.84
420.335	17.9
420.541	17.67
420.746	17.64
420.952	17.41
421.158	17.16
421.364	17.14
421.57	17.24
421.776	17.34
421.982	17.23
422.187	17.16
422.393	17.24
422.599	17.03
422.805	17.02
423.01	17
423.216	17.08
423.422	17.09
423.628	16.98
423.833	16.84
424.039	16.64
424.245	16.66
424.45	16.6
424.656	16.52
424.862	16.66
425.067	16.76
425.273	16.68
425.478	16.71
425.684	16.86
425.889	16.96
426.095	16.96
426.301	16.96
426.506	17.05
426.712	17.07
426.917	17.05
427.123	16.92
427.328	16.91
427.533	16.98
427.739	16.84
427.944	16.47
428.15	16.49
428.355	16.28
428.561	16.43
428.766	16.37
428.971	16.45
429.177	16.7
429.382	16.67
429.587	16.66
429.793	16.36
429.998	16.57
430.203	16.81
430.408	16.63
430.614	16.6
430.819	16.6
431.024	16.68
431.229	16.45
431.434	16.23
431.64	16.22
431.845	16.42
432.05	16.6
432.255	16.66
432.46	16.52
432.665	16.55
432.87	16.71
433.076	16.59
433.281	16.6
433.486	16.75
433.691	16.72
433.896	16.96
434.101	16.98
434.306	17.16
434.511	17.16
434.716	17.33
434.921	17.5
435.126	17.59
435.331	17.62
435.535	17.68
435.74	17.76
435.945	17.72
436.15	17.68
436.355	17.38
436.56	17.22
436.765	17.27
436.97	17.12
437.174	17
437.379	16.89
437.584	17.06
437.789	16.93
437.993	16.77
438.198	16.8
438.403	16.65
438.608	16.7
438.812	16.73
439.017	16.42
439.222	16.61
439.426	16.53
439.631	16.42
439.836	16.4
440.04	16.31
440.245	16.4
440.45	16.34
440.654	16.39
440.859	16.51
441.063	16.53
441.268	16.78
441.472	16.66
441.677	16.59
441.881	16.91
442.086	16.96
442.29	17.07
442.495	16.97
442.699	17.02
442.904	16.99
443.108	16.88
443.312	16.8
443.517	16.75
443.721	16.87
443.925	17.08
444.13	16.91
444.334	16.91
444.538	16.93
444.743	16.99
444.947	16.94
445.151	16.91
445.356	17.05
445.56	16.86
445.764	16.74
445.968	16.53
446.173	16.45
446.377	16.28
446.581	16.16
446.785	16.22
446.989	16.1
447.193	16.12
447.398	16.08
447.602	15.91
447.806	16.04
448.01	15.99
448.214	16.04
448.418	16.04
448.622	16.13
448.826	16.32
449.03	16.18
449.234	16.2
449.438	16.16
449.642	16.17
449.846	16.25
450.05	16.21
450.254	16.26
450.458	16.17
450.662	15.89
450.866	16.06
451.069	15.76
451.273	15.89
451.477	16.06
451.681	15.97
451.885	16.01
452.089	15.78
452.292	15.81
452.496	15.77
452.7	15.9
452.904	16.11
453.107	16.09
453.311	16.19
453.515	15.95
453.719	15.94
453.922	16.17
454.126	16.09
454.33	16.32
454.533	16.3
454.737	16.36
454.94	16.29
455.144	16.29
455.348	16.18
455.551	16
455.755	15.91
455.958	15.9
456.162	15.86
456.365	15.93
456.569	15.81
456.772	15.87
456.976	15.72
457.179	15.82
457.383	15.89
457.586	15.97
457.79	15.94
457.993	16.24
458.196	16.08
