Data from 2938029_Reflection_1.txt Node
Date: Sun Jul 12 15:05:54 EDT 2015
User: robert
Spectrometer: USB4E03001
Autoset integration time: false
Trigger mode: 4
Integration Time (sec): 1.000000E-1
Scans to average: 10
Electric dark correction enabled: true
Nonlinearity correction enabled: false
Boxcar width: 5
Stray light correction enabled: false
XAxis mode: Wavelengths
Stop averaging: false
Number of Pixels in Spectrum: 3648
>>>>>Begin Spectral Data<<<<<
177.566	144.2
177.785	194.65
178.005	211.82
178.225	59.14
178.445	79.41
178.665	132.52
178.885	346.59
179.105	40.7
179.324	44.62
179.544	58.08
179.764	71.81
179.984	107.03
180.204	119.14
180.423	100.36
180.643	77.7
180.863	82.43
181.083	90.71
181.302	80.86
181.522	61.98
181.742	55.33
181.961	50.69
182.181	62.82
182.401	10.18
182.621	28.47
182.84	23.1
183.06	42.86
183.279	74.04
183.499	80.1
183.719	86.44
183.938	78.42
184.158	97.19
184.377	108.07
184.597	71.45
184.816	91.05
185.036	101.24
185.256	66.78
185.475	91.18
185.695	67.71
185.914	93.19
186.134	135.53
186.353	249.35
186.572	354.95
186.792	246.19
187.011	405.59
187.231	369.38
187.45	275.84
187.67	308.98
187.889	143.4
188.108	162.24
188.328	159.14
188.547	157.02
188.766	118.51
188.986	112.08
189.205	83.08
189.424	87.55
189.644	96.86
189.863	90.36
190.082	101.2
190.302	83.69
190.521	86.6
190.74	96.31
190.959	95.73
191.178	104
191.398	103.68
191.617	130.69
191.836	112.68
192.055	95.42
192.274	94.05
192.494	96.05
192.713	115.4
192.932	107.86
193.151	88.42
193.37	71.31
193.589	75.26
193.808	69.16
194.027	60.41
194.246	53.09
194.465	79.44
194.685	92.83
194.904	114.43
195.123	125.6
195.342	172.82
195.561	155.13
195.78	401.53
195.999	-44380
196.218	1848
196.436	1373.51
196.655	571.53
196.874	-6616.33
197.093	260.82
197.312	186.19
197.531	171.1
197.75	179.47
197.969	248.2
198.188	230.31
198.407	162.34
198.625	316.49
198.844	150.23
199.063	170.48
199.282	198.63
199.501	184.61
199.719	185.93
199.938	177.07
200.157	186.37
200.376	187.32
200.594	118.12
200.813	127.98
201.032	79.6
201.251	97.36
201.469	110.34
201.688	129.46
201.907	197.19
202.125	234.43
202.344	218.28
202.563	164.94
202.781	184.45
203	230.81
203.218	188.15
203.437	237.99
203.656	296.29
203.874	263.92
204.093	147.62
204.311	102.47
204.53	45.99
204.748	61.49
204.967	71.08
205.185	-11.4
205.404	-46.84
205.622	22.01
205.841	765.35
206.059	438.34
206.278	2.88
206.496	63.4
206.715	152.6
206.933	-34314.29
207.151	351.4
207.37	312.98
207.588	198.35
207.806	138.27
208.025	127.23
208.243	131.03
208.461	109.84
208.68	113.45
208.898	151.88
209.116	139.67
209.335	145.77
209.553	125.62
209.771	109.4
209.989	129.21
210.208	135.95
210.426	128.21
210.644	140.17
210.862	137.38
211.081	182.48
211.299	152.6
211.517	158.2
211.735	112.18
211.953	144.12
212.171	134.62
212.39	218.04
212.608	292.63
212.826	269.8
213.044	183.2
213.262	163.25
213.48	156.37
213.698	134.29
213.916	139.71
214.134	122.22
214.352	119.83
214.57	126.53
214.788	101.4
215.006	102.42
215.224	100.23
215.442	-25.63
215.66	14.04
215.878	108.82
216.096	210.76
216.314	72.61
216.532	196.93
216.75	155.79
216.968	30.88
217.185	77.64
217.403	38.58
217.621	19.13
217.839	20.63
218.057	38.51
218.275	46.56
218.492	41.11
218.71	57.96
218.928	69.68
219.146	71.93
219.363	88.24
219.581	84.38
219.799	99.67
220.017	122.45
220.234	122.88
220.452	114.53
220.67	103.97
220.887	106
221.105	99.88
221.323	94
221.54	101.27
221.758	91.56
221.976	78.64
222.193	57.37
222.411	54.69
222.629	58.45
222.846	44.96
223.064	54.78
223.281	45.06
223.499	50.34
223.716	33.36
223.934	40.34
224.151	39.02
224.369	45.65
224.586	63.18
224.804	61.05
225.021	55.59
225.239	67.47
225.456	55.27
225.674	50.96
225.891	45.61
226.108	51.96
226.326	39.08
226.543	38.5
226.76	34.55
226.978	27.2
227.195	25.96
227.413	14.17
227.63	15.55
227.847	19.87
228.064	23.66
228.282	22.11
228.499	26.2
228.716	26.32
228.934	23.41
229.151	22.19
229.368	20.86
229.585	18.85
229.802	22.97
230.02	22.16
230.237	22.37
230.454	20.3
230.671	21.73
230.888	16.82
231.105	16.28
231.323	20.13
231.54	23.08
231.757	25.87
231.974	27.81
232.191	25.71
232.408	27.37
232.625	26.3
232.842	30.12
233.059	30.37
233.276	32.14
233.493	28.02
233.71	25.48
233.927	18.75
234.144	19.76
234.361	21.69
234.578	25.24
234.795	22.19
235.012	23.89
235.229	28.18
235.446	28.06
235.663	25.35
235.879	29.67
236.096	29.41
236.313	36.5
236.53	33.44
236.747	31.85
236.964	27.69
237.181	27.69
237.397	25.53
237.614	23.3
237.831	22.19
238.048	28.81
238.264	25.74
238.481	26.12
238.698	20.07
238.915	23.03
239.131	25.87
239.348	27.95
239.565	31.28
239.781	31.99
239.998	29.29
240.215	28.14
240.431	26.02
240.648	27.81
240.865	25.35
241.081	26.03
241.298	23.91
241.514	22.44
241.731	21.66
241.947	20.48
242.164	20.07
242.38	19.03
242.597	19.74
242.814	18.76
243.03	17.9
243.246	18.48
243.463	15.74
243.679	15.33
243.896	14.87
244.112	15.47
244.329	13.22
244.545	13.17
244.762	13.98
244.978	13.48
245.194	15.07
245.411	14.13
245.627	12.15
245.843	14.33
246.06	14.51
246.276	15.32
246.492	14.4
246.709	15.41
246.925	14.53
247.141	15.58
247.357	15.72
247.574	15.57
247.79	15.85
248.006	17.32
248.222	17.63
248.439	18.23
248.655	17.3
248.871	16.24
249.087	16.45
249.303	17.77
249.519	15.47
249.736	15.15
249.952	14.03
250.168	14.91
250.384	13.94
250.6	14.67
250.816	13.64
251.032	14.74
251.248	16.62
251.464	16.97
251.68	16.73
251.896	17.58
252.112	15.51
252.328	16.68
252.544	15.26
252.76	14.95
252.976	14.44
253.192	15.51
253.408	15.58
253.624	15.9
253.84	17.72
254.056	17.33
254.272	20.58
254.487	22.08
254.703	20.04
254.919	22.89
255.135	24.12
255.351	22.23
255.567	23.68
255.782	20.93
255.998	21.6
256.214	20.09
256.43	18.83
256.646	15.5
256.861	15.76
257.077	16.48
257.293	13.69
257.508	9.8
257.724	10.69
257.94	8.11
258.155	9.75
258.371	10.44
258.587	9.85
258.802	9.95
259.018	9.67
259.234	10.03
259.449	10.77
259.665	11.43
259.88	12.93
260.096	12.26
260.312	11.79
260.527	12.17
260.743	11.6
260.958	11.5
261.174	11.18
261.389	12.28
261.605	11.91
261.82	11.39
262.036	10.75
262.251	9.75
262.466	10.19
262.682	12.27
262.897	10.85
263.113	10.68
263.328	9.66
263.543	10.03
263.759	10
263.974	9.49
264.189	9.75
264.405	10.08
264.62	11.01
264.835	12.6
265.051	13.33
265.266	13.56
265.481	15.67
265.696	17.14
265.912	18.73
266.127	17.4
266.342	18.02
266.557	18.24
266.773	17.83
266.988	17.89
267.203	16.94
267.418	14.4
267.633	15.9
267.848	16.66
268.064	16.2
268.279	16.03
268.494	16.15
268.709	16.91
268.924	17.12
269.139	16.69
269.354	17.1
269.569	16.2
269.784	17.33
269.999	16.22
270.214	12.99
270.429	13.34
270.644	12.83
270.859	13.9
271.074	13.4
271.289	13.75
271.504	14.29
271.719	13.44
271.934	12.78
272.149	13.23
272.363	12.32
272.578	12.62
272.793	11.66
273.008	11.7
273.223	11.4
273.438	11.11
273.653	10.5
273.867	10.18
274.082	9.58
274.297	10.85
274.512	8.91
274.726	9.01
274.941	9
275.156	9.39
275.371	7.91
275.585	7.84
275.8	8.89
276.015	8.19
276.229	9.56
276.444	10.34
276.659	9.74
276.873	12.15
277.088	13.38
277.302	13.58
277.517	13.12
277.732	14.46
277.946	12.53
278.161	12.39
278.375	12.04
278.59	10.33
278.804	8.04
279.019	8.78
279.233	7.63
279.448	8.47
279.662	7.67
279.877	7.89
280.091	8.03
280.306	8.18
280.52	8.36
280.735	10.02
280.949	10.91
281.163	12.25
281.378	10.47
281.592	11.02
281.806	10.02
282.021	11.43
282.235	12.6
282.449	11.91
282.664	13.15
282.878	12.99
283.092	14.2
283.307	13.91
283.521	14.25
283.735	16.91
283.949	15.86
284.164	16.59
284.378	15.91
284.592	15.28
284.806	14.94
285.02	14.69
285.234	13.01
285.449	11.1
285.663	11.13
285.877	11.63
286.091	10.26
286.305	10.98
286.519	11.05
286.733	11.83
286.947	11.46
287.161	11.78
287.375	10.69
287.589	11.08
287.803	12.04
288.017	10.37
288.231	9.74
288.445	9.78
288.659	10.25
288.873	10.23
289.087	9.26
289.301	10.76
289.515	10.9
289.729	11.15
289.943	12.44
290.157	12.81
290.371	14.35
290.584	13.34
290.798	13.86
291.012	12.83
291.226	12.23
291.44	11.9
291.654	10.84
291.867	10.77
292.081	12.39
292.295	10.72
292.509	10
292.722	11.63
292.936	14.51
293.15	14.22
293.364	14.32
293.577	14.56
293.791	14.94
294.005	14.78
294.218	14.66
294.432	15.15
294.645	15.87
294.859	15.55
295.073	15.7
295.286	14.79
295.5	15.41
295.713	16
295.927	15.9
296.14	16.45
296.354	16.62
296.568	16.63
296.781	15.77
296.994	16.19
297.208	16.05
297.421	15.16
297.635	14.45
297.848	14.18
298.062	14.09
298.275	14.93
298.489	14.63
298.702	15.41
298.915	15.91
299.129	16.48
299.342	16.57
299.555	16.46
299.769	16.21
299.982	16.76
300.195	16.06
300.409	15.66
300.622	15.64
300.835	15.47
301.048	14.85
301.262	13.91
301.475	11.72
301.688	9.83
301.901	9.4
302.115	8.75
302.328	9.61
302.541	10.98
302.754	11.26
302.967	11.56
303.18	11.76
303.393	10.73
303.607	12.55
303.82	14.29
304.033	15.88
304.246	17.2
304.459	17.76
304.672	18.14
304.885	17.25
305.098	17.14
305.311	15.83
305.524	15.76
305.737	17.01
305.95	16.06
306.163	16.46
306.376	16.54
306.589	16.04
306.802	17.07
307.015	15.86
307.228	17.29
307.44	17.77
307.653	17.37
307.866	17.38
308.079	16.12
308.292	17.72
308.505	17.19
308.718	16.9
308.93	17.65
309.143	17.54
309.356	17.1
309.569	15.84
309.781	15.94
309.994	16.63
310.207	16.43
310.42	16.9
310.632	15.81
310.845	15.6
311.058	15.69
311.27	15.6
311.483	14.13
311.696	14.8
311.908	15.57
312.121	15.56
312.333	14.17
312.546	14.62
312.759	14.3
312.971	14.18
313.184	15.24
313.396	14.33
313.609	12.15
313.821	13.31
314.034	13.41
314.246	12.9
314.459	12.7
314.671	13.24
314.884	12.78
315.096	14.17
315.309	15.35
315.521	14.14
315.733	14.78
315.946	15.05
316.158	14.95
316.371	14.75
316.583	15.29
316.795	16.63
317.008	16.75
317.22	16.91
317.432	17.67
317.644	16.49
317.857	17.24
318.069	17.19
318.281	18.42
318.494	17.78
318.706	16.76
318.918	16.05
319.13	14.48
319.342	15.65
319.555	15.88
319.767	13.97
319.979	13.67
320.191	12.79
320.403	14.77
320.615	14.81
320.827	14.27
321.039	14.59
321.252	15.74
321.464	16.33
321.676	18.09
321.888	16.55
322.1	17.4
322.312	16.25
322.524	17.07
322.736	14.13
322.948	14.33
323.16	17
323.372	17.26
323.584	15.92
323.796	16.96
324.007	14.76
324.219	14.62
324.431	13.6
324.643	14.85
324.855	13.13
325.067	14.84
325.279	14.82
325.491	13.34
325.702	12.54
325.914	12.27
326.126	10.46
326.338	9.86
326.55	11.74
326.761	10.13
326.973	8.39
327.185	8.94
327.396	8.01
327.608	9.08
327.82	8.36
328.032	8.04
328.243	10.05
328.455	9.41
328.666	9.97
328.878	10.43
329.09	13.52
329.301	14.28
329.513	13.71
329.725	14.4
329.936	12.64
330.148	12.49
330.359	13.87
330.571	12.72
330.782	14.03
330.994	15.01
331.205	14.53
331.417	13.48
331.628	12.94
331.84	12.44
332.051	11.68
332.262	13.74
332.474	13.55
332.685	13.7
332.897	13.78
333.108	13.36
333.319	12.73
333.531	13.5
333.742	13.99
333.953	15.87
334.165	17
334.376	18.24
334.587	17.1
334.799	18.75
335.01	18.6
335.221	17.16
335.432	18.63
335.644	19.62
335.855	17.63
336.066	17.28
336.277	17.58
336.488	18.7
336.7	18.27
336.911	17.87
337.122	16.99
337.333	16.87
337.544	18.12
337.755	18.09
337.966	16.61
338.177	17.92
338.388	17.98
338.599	18.27
338.811	17.24
339.022	17.62
339.233	17.8
339.444	17.49
339.655	17.66
339.866	19
340.076	17.84
340.287	18.96
340.498	19.35
340.709	19.83
340.92	18.81
341.131	17.77
341.342	17.79
341.553	18.49
341.764	18.83
341.975	17.94
342.185	16.53
342.396	17.78
342.607	16.78
342.818	16.27
343.029	15.7
343.239	15.8
343.45	16.56
343.661	16.12
343.872	14.51
344.082	14.7
344.293	15.04
344.504	15.92
344.714	14.07
344.925	14.54
345.136	13.48
345.346	12.99
345.557	13.47
345.768	14.31
345.978	14.35
346.189	15.5
346.399	15.54
346.61	15.56
346.821	15.6
347.031	15.79
347.242	15.53
347.452	16.34
347.663	17.23
347.873	17.06
348.084	16.46
348.294	16.95
348.504	16.69
348.715	16.9
348.925	18.82
349.136	18.38
349.346	18.81
349.557	18.97
349.767	18.03
349.977	17.83
350.188	17.84
350.398	18.32
350.608	17.57
350.819	17.07
351.029	16.02
351.239	14.84
351.449	14.79
351.66	14.3
351.87	13.88
352.08	14.2
352.29	14.32
352.501	14.32
352.711	14.16
352.921	14.86
353.131	15.73
353.341	17.3
353.552	16.65
353.762	15.86
353.972	16.83
354.182	17.94
354.392	18.79
354.602	18.14
354.812	17.41
355.022	17.46
355.232	16.93
355.442	15.99
355.652	14.55
355.862	15.2
356.072	15.55
356.282	15.45
356.492	15.22
356.702	14.24
356.912	14.64
357.122	14.58
357.332	15.08
357.542	15.08
357.752	16.18
357.962	16.64
358.171	16.29
358.381	16.58
358.591	16.62
358.801	15.64
359.011	15.52
359.221	15.63
359.43	15.28
359.64	14.11
359.85	14.1
360.06	13.58
360.269	12.73
360.479	12.32
360.689	11.55
360.899	11.36
361.108	11.34
361.318	11.29
361.528	10.42
361.737	10.45
361.947	10.96
362.156	11.05
362.366	10.3
362.576	10.7
362.785	11.27
362.995	11.95
363.204	12
363.414	12.64
363.623	12.75
363.833	14.04
364.042	14.55
364.252	13.94
364.461	13.68
364.671	14.27
364.88	14.33
365.09	13.86
365.299	13.99
365.509	13.69
365.718	13.42
365.927	14.48
366.137	13.39
366.346	12.49
366.555	13.12
366.765	13.5
366.974	13.46
367.183	13.2
367.393	13.04
367.602	12.2
367.811	12.43
368.021	12.2
368.23	11.62
368.439	11.42
368.648	11.96
368.857	10.79
369.067	11.23
369.276	10.5
369.485	12
369.694	12.21
369.903	13.03
370.112	12.82
370.321	13.04
370.531	12.91
370.74	13.49
370.949	14.06
371.158	14.33
371.367	13.53
371.576	14.18
371.785	12.61
371.994	12.14
372.203	11.25
372.412	11.14
372.621	10.6
372.83	10.66
373.039	9.94
373.248	9.74
373.457	9.31
373.666	9.55
373.874	9.83
374.083	10.22
374.292	11.03
374.501	11.51
374.71	11.03
374.919	10.99
375.128	11.64
375.336	11.71
375.545	11.74
375.754	12
375.963	11.6
376.171	11.55
376.38	11.78
376.589	11.87
376.798	11.61
377.006	12.18
377.215	12.01
377.424	11.2
377.632	11.36
377.841	10.99
378.05	11.09
378.258	10.76
378.467	11.39
378.675	11.01
378.884	10.26
379.093	10.67
379.301	10.47
379.51	11.13
379.718	11.27
379.927	12.04
380.135	12.51
380.344	12.8
380.552	13.04
380.761	11.8
380.969	11.89
381.177	11.91
381.386	11.14
381.594	10.75
381.803	10.68
382.011	10.53
382.219	9.96
382.428	9.45
382.636	9.38
382.845	9.4
383.053	9.33
383.261	9.49
383.469	9.74
383.678	9.75
383.886	9.73
384.094	9.45
384.302	9.33
384.511	8.93
384.719	8.58
384.927	8.49
385.135	8.36
385.343	8.5
385.552	8.46
385.76	8.27
385.968	8.77
386.176	8.69
386.384	8.53
386.592	8.17
386.8	8.39
387.008	8.67
387.216	8.42
387.424	8.12
387.633	7.92
387.841	7.76
388.049	8.09
388.257	7.86
388.465	8.13
388.672	8.47
388.88	8.99
389.088	8.82
389.296	8.52
389.504	8.61
389.712	8.84
389.92	8.93
390.128	8.76
390.336	8.08
390.544	8.08
390.751	7.87
390.959	7.85
391.167	7.65
391.375	7.7
391.583	8.26
391.79	8.44
391.998	8.3
392.206	8.31
392.414	8.17
392.621	8.47
392.829	8.32
393.037	8.2
393.244	8.02
393.452	7.82
393.66	7.31
393.867	6.78
394.075	6.86
394.283	6.92
394.49	6.57
394.698	6.65
394.905	6.33
395.113	6.57
395.32	6.54
395.528	6.41
395.735	6.37
395.943	6.77
396.15	6.83
396.358	6.12
396.565	6.04
396.773	6.18
396.98	6.02
397.188	6.01
397.395	5.42
397.602	5.36
397.81	5.21
398.017	5.26
398.225	5.36
398.432	5.64
398.639	5.98
398.847	6.16
399.054	6.15
399.261	6.08
399.468	6.35
399.676	6.34
399.883	6.44
400.09	6.85
400.297	6.79
400.505	6.65
400.712	6.2
400.919	6.25
401.126	6.23
401.333	6.55
401.54	6.59
401.748	6.33
401.955	6.96
402.162	6.93
402.369	6.97
402.576	6.94
402.783	6.85
402.99	7.03
403.197	6.88
403.404	6.75
403.611	6.37
403.818	6.39
404.025	6.35
404.232	6.29
404.439	6.38
404.646	6.32
404.853	6.38
405.06	6.41
405.267	6.41
405.474	6.5
405.681	6.34
405.887	6.53
406.094	6.76
406.301	6.72
406.508	6.59
406.715	6.57
406.922	6.45
407.128	6.55
407.335	6.68
407.542	6.61
407.749	6.66
407.955	6.88
408.162	6.7
408.369	6.52
408.575	6.54
408.782	6.51
408.989	6.56
409.195	6.53
409.402	6.54
409.609	6.67
409.815	6.77
410.022	6.6
410.228	6.59
410.435	6.69
410.642	6.58
410.848	6.77
411.055	6.45
411.261	6.22
411.468	6.15
411.674	6.26
411.881	6.29
412.087	5.9
412.294	5.83
412.5	5.92
412.706	6.1
412.913	6.09
413.119	5.96
413.326	5.94
413.532	6.19
413.738	6.27
413.945	5.91
414.151	5.45
414.357	5.59
414.564	6.05
414.77	6.07
414.976	5.83
415.182	5.74
415.389	5.85
415.595	5.85
415.801	5.81
416.007	5.79
416.214	5.74
416.42	5.9
416.626	5.95
416.832	5.72
417.038	5.48
417.244	5.36
417.45	5.45
417.657	5.35
417.863	5.45
418.069	5.32
418.275	5.14
418.481	5.29
418.687	5.18
418.893	5.23
419.099	5.23
419.305	5.36
419.511	5.56
419.717	5.67
419.923	5.73
420.129	5.71
420.335	5.79
420.541	5.93
420.746	5.93
420.952	5.96
421.158	6.01
421.364	6.05
421.57	5.9
421.776	5.7
421.982	5.66
422.187	5.6
422.393	5.59
422.599	5.67
422.805	5.46
423.01	5.32
423.216	5.41
423.422	5.4
423.628	5.33
423.833	5.44
424.039	5.6
424.245	5.5
424.45	5.52
424.656	5.55
424.862	5.51
425.067	5.67
425.273	5.68
425.478	5.59
425.684	5.38
425.889	5.32
426.095	5.21
426.301	5.19
426.506	5.25
426.712	5.28
426.917	5.32
427.123	5.25
427.328	5.16
427.533	5.35
427.739	5.41
427.944	5.47
428.15	5.57
428.355	5.66
428.561	5.55
428.766	5.5
428.971	5.49
429.177	5.59
429.382	5.57
429.587	5.72
429.793	5.58
429.998	5.52
430.203	5.62
430.408	5.63
430.614	5.71
430.819	5.68
431.024	5.72
431.229	5.81
431.434	5.45
431.64	5.45
431.845	5.35
432.05	5.53
432.255	5.61
432.46	5.33
432.665	5.18
432.87	5.1
433.076	5.3
433.281	5.29
433.486	5.21
433.691	5.28
433.896	5.18
434.101	5.04
434.306	4.99
434.511	4.89
434.716	5.18
434.921	5.3
435.126	5.41
435.331	5.23
435.535	5.15
435.74	5.08
435.945	5.23
436.15	5.29
436.355	5.39
436.56	5.34
436.765	5.24
436.97	5.26
437.174	5.05
437.379	4.92
437.584	5.03
437.789	5.05
437.993	5.23
438.198	5.09
438.403	5.14
438.608	5.06
438.812	4.94
439.017	5.04
439.222	5.06
439.426	5.22
439.631	5.32
439.836	5.3
440.04	5.47
440.245	5.33
440.45	5.35
440.654	5.34
440.859	5.48
441.063	5.64
441.268	5.61
441.472	5.54
441.677	5.71
441.881	5.4
442.086	5.32
442.29	5.13
442.495	5.31
442.699	5.34
442.904	5.39
443.108	5.32
443.312	5.24
443.517	5.43
443.721	5.49
443.925	5.16
444.13	5.34
444.334	5.36
444.538	5.47
444.743	5.28
444.947	5.18
445.151	5.13
445.356	5.18
445.56	5.09
445.764	5.05
445.968	4.86
446.173	4.97
446.377	5.08
446.581	5.05
446.785	4.92
446.989	4.86
447.193	4.96
447.398	4.94
447.602	4.85
447.806	4.91
448.01	4.82
448.214	4.95
448.418	4.87
448.622	4.81
448.826	4.93
449.03	4.9
449.234	5.05
449.438	5.08
449.642	5.04
449.846	5.13
450.05	5.06
450.254	5.16
450.458	5.14
450.662	5.03
450.866	5.03
451.069	4.93
451.273	5.08
451.477	4.97
451.681	5.16
451.885	4.96
452.089	4.93
452.292	4.88
452.496	4.76
452.7	4.75
452.904	5.04
453.107	5.17
453.311	5.25
453.515	5.09
453.719	4.96
453.922	4.78
454.126	5.02
454.33	4.97
454.533	4.97
454.737	4.77
454.94	4.62
455.144	4.59
455.348	4.48
455.551	4.3
455.755	4.28
455.958	4.38
456.162	3.94
456.365	3.83
456.569	3.81
456.772	3.88
456.976	4.12
457.179	4.23
457.383	4.22
457.586	3.99
457.79	4.07
457.993	4.32
458.196	4.56
458.4	4.79
458.603	4.83
458.807	4.76
459.01	4.76
459.213	4.55
459.417	4.65
459.62	4.58
459.823	4.65
460.026	4.78
460.23	4.75
460.433	4.48
460.636	4.49
460.839	4.49
461.042	4.65
461.246	4.57
461.449	4.81
461.652	4.79
461.855	4.76
