Data from 2938070_Reflection_1.txt Node
Date: Sat Jul 11 20:39:39 EDT 2015
User: robert
Spectrometer: USB4E03001
Autoset integration time: false
Trigger mode: 4
Integration Time (sec): 1.000000E-1
Scans to average: 10
Electric dark correction enabled: true
Nonlinearity correction enabled: false
Boxcar width: 5
Stray light correction enabled: false
XAxis mode: Wavelengths
Stop averaging: false
Number of Pixels in Spectrum: 3648
>>>>>Begin Spectral Data<<<<<
177.566	54.6
177.785	81.9
178.005	118.93
178.225	116.15
178.445	205.41
178.665	511.15
178.885	-198.86
179.105	237.71
179.324	756.17
179.544	175.9
179.764	68.72
179.984	65.87
180.204	69.3
180.423	91.83
180.643	-649.12
180.863	-37.11
181.083	26.88
181.302	28.88
181.522	26.99
181.742	15.38
181.961	38.57
182.181	40.87
182.401	40.71
182.621	18.9
182.84	-1.77
183.06	-26.43
183.279	-114.52
183.499	-253.14
183.719	-250.23
183.938	-408.21
184.158	-174.04
184.377	-521.72
184.597	-299.13
184.816	-1048.34
185.036	358.94
185.256	629.38
185.475	200.14
185.695	610.02
185.914	257.58
186.134	-1594.97
186.353	-96.49
186.572	758.45
186.792	475.47
187.011	2832.41
187.231	-520.21
187.45	-323.65
187.67	-246.15
187.889	-156.06
188.108	-134.17
188.328	-113.44
188.547	-153.76
188.766	-672.36
188.986	-234.85
189.205	-61.62
189.424	-60.26
189.644	-25.94
189.863	-100.76
190.082	-54.65
190.302	-56.3
190.521	-111.91
190.74	-102.7
190.959	-215.38
191.178	-310.67
191.398	-384.36
191.617	-487.32
191.836	-1337.75
192.055	-419.98
192.274	-246.01
192.494	-335.57
192.713	-235.16
192.932	-184.42
193.151	-267.65
193.37	-163.9
193.589	-199.74
193.808	-191.3
194.027	-233.61
194.246	-217.05
194.465	-138.56
194.685	-98.81
194.904	-115.69
195.123	-322.54
195.342	-45.98
195.561	0.53
195.78	-21.63
195.999	3.69
196.218	8.93
196.436	14.73
196.655	-11.21
196.874	-48.18
197.093	-58.52
197.312	-42.24
197.531	-36.7
197.75	-19.3
197.969	1.97
198.188	1.77
198.407	-89.12
198.625	-257.74
198.844	-436.45
199.063	537.66
199.282	274.77
199.501	136.02
199.719	236.24
199.938	170.96
200.157	241.41
200.376	227
200.594	182.12
200.813	210.76
201.032	319.97
201.251	340.3
201.469	282.3
201.688	-71171.43
201.907	-123.15
202.125	4383.33
202.344	-108.58
202.563	-80.76
202.781	-168.49
203	-89.34
203.218	22.2
203.437	263.95
203.656	20.06
203.874	18.34
204.093	-42.5
204.311	-1860.12
204.53	-138.28
204.748	-289.19
204.967	-167.7
205.185	-275.43
205.404	-187.61
205.622	-158.73
205.841	-321.33
206.059	-388.76
206.278	-793.5
206.496	1761.91
206.715	-1081.21
206.933	863.82
207.151	1025.32
207.37	443.92
207.588	779.26
207.806	580.94
208.025	706.81
208.243	-236.94
208.461	-173.04
208.68	-336.59
208.898	-133.43
209.116	-57.65
209.335	-76.79
209.553	-18.14
209.771	-28.35
209.989	-23.11
210.208	-1.31
210.426	-4.65
210.644	-53
210.862	-115.2
211.081	-122.77
211.299	-143.65
211.517	-429.56
211.735	-228.41
211.953	-1736.8
212.171	1569.66
212.39	-590.96
212.608	-615.46
212.826	-1202.05
213.044	216.61
213.262	930.81
213.48	140.77
213.698	40.49
213.916	309.83
214.134	121.61
214.352	137.42
214.57	136.15
214.788	151.67
215.006	119.97
215.224	183.35
215.442	1075.56
215.66	675.99
215.878	-1096.65
216.096	-253.02
216.314	-433.01
216.532	-320.33
216.75	-87.72
216.968	-70.64
217.185	-98.07
217.403	-188.28
217.621	-314.45
217.839	-389.86
218.057	3500.62
218.275	287.52
218.492	159.84
218.71	149.03
218.928	452.98
219.146	1014.17
219.363	362.23
219.581	-288.38
219.799	-80.92
220.017	-9.47
220.234	-13.58
220.452	-5.08
220.67	10.31
220.887	17.31
221.105	16.09
221.323	16.35
221.54	0.12
221.758	5.17
221.976	1.54
222.193	11
222.411	-18.65
222.629	7.35
222.846	-8.73
223.064	-35.66
223.281	-0.04
223.499	-26.29
223.716	-7.38
223.934	-7.22
224.151	0.67
224.369	9.16
224.586	-4.18
224.804	20.53
225.021	-14.97
225.239	-3.53
225.456	13.28
225.674	-26.92
225.891	2.5
226.108	11.67
226.326	19.64
226.543	16.28
226.76	29.69
226.978	41.34
227.195	40.83
227.413	46.7
227.63	32.16
227.847	25.07
228.064	22.09
228.282	19.03
228.499	14.46
228.716	11.57
228.934	7.52
229.151	3.35
229.368	0.78
229.585	1.05
229.802	3.26
230.02	7.96
230.237	7.14
230.454	12.03
230.671	6.44
230.888	5.88
231.105	4.55
231.323	8.04
231.54	5.91
231.757	7.02
231.974	3.28
232.191	-1.79
232.408	-15.25
232.625	-8.32
232.842	-15.83
233.059	-5.33
233.276	-7.85
233.493	0.84
233.71	-3.42
233.927	-3.57
234.144	-16.3
234.361	-17.11
234.578	-19.85
234.795	-7.76
235.012	-16.94
235.229	-10.58
235.446	-9.33
235.663	-6.49
235.879	-5.91
236.096	-1.06
236.313	0.61
236.53	5.86
236.747	7.69
236.964	12.02
237.181	13.89
237.397	19.87
237.614	18.97
237.831	19.32
238.048	18.64
238.264	14.6
238.481	10.55
238.698	12.36
238.915	10.93
239.131	13.37
239.348	15.42
239.565	9.02
239.781	5.65
239.998	7.16
240.215	4.22
240.431	7.2
240.648	6.63
240.865	9.71
241.081	8.59
241.298	12.18
241.514	11.44
241.731	10.95
241.947	14.49
242.164	16.83
242.38	15.16
242.597	13.12
242.814	14.96
243.03	16.51
243.246	16.69
243.463	17.1
243.679	14.17
243.896	14.69
244.112	13.21
244.329	11.04
244.545	10.25
244.762	11.35
244.978	12.74
245.194	10.28
245.411	7.42
245.627	6.28
245.843	6.54
246.06	7.32
246.276	7.5
246.492	8.21
246.709	9.24
246.925	9.95
247.141	10.11
247.357	9.56
247.574	10.86
247.79	11.2
248.006	11.59
248.222	10.83
248.439	11.77
248.655	11.58
248.871	12.39
249.087	11.73
249.303	10.48
249.519	10.06
249.736	11.85
249.952	9.33
250.168	10.11
250.384	10.23
250.6	12.13
250.816	12.76
251.032	12.43
251.248	10.75
251.464	11.09
251.68	13.15
251.896	11.35
252.112	7.7
252.328	8.41
252.544	6.07
252.76	6.82
252.976	6.36
253.192	4.96
253.408	4.43
253.624	3.21
253.84	2.57
254.056	2.83
254.272	2.9
254.487	4.32
254.703	2.33
254.919	3.93
255.135	3.5
255.351	4.14
255.567	4.87
255.782	4.26
255.998	7.53
256.214	7.27
256.43	0.48
256.646	4.21
256.861	6.87
257.077	7.02
257.293	6.95
257.508	6.33
257.724	4.01
257.94	2.75
258.155	3.21
258.371	2.36
258.587	1.08
258.802	1.33
259.018	1.07
259.234	1.5
259.449	2.08
259.665	2.87
259.88	3.55
260.096	4.47
260.312	4.93
260.527	5.76
260.743	6.14
260.958	7.07
261.174	8.11
261.389	7.9
261.605	8.91
261.82	8.79
262.036	8.53
262.251	6.84
262.466	5.98
262.682	4.21
262.897	2.5
263.113	2.32
263.328	2.23
263.543	3.29
263.759	2.58
263.974	-0.86
264.189	-0.16
264.405	1.8
264.62	2.71
264.835	3.32
265.051	9.55
265.266	9.04
265.481	7
265.696	8.36
265.912	7.87
266.127	10.26
266.342	11.57
266.557	11.03
266.773	8
266.988	9.16
267.203	10.81
267.418	7.29
267.633	8.65
267.848	7.61
268.064	5.98
268.279	4.92
268.494	4.54
268.709	4.15
268.924	3.23
269.139	3.61
269.354	3.03
269.569	1.88
269.784	2.91
269.999	1.66
270.214	5.31
270.429	7.11
270.644	7.73
270.859	6.46
271.074	6.32
271.289	5.39
271.504	6.04
271.719	5.03
271.934	5.52
272.149	4.15
272.363	4.35
272.578	2.46
272.793	1.77
273.008	2.61
273.223	1.66
273.438	3.12
273.653	2.99
273.867	3.52
274.082	5.18
274.297	5.16
274.512	6.71
274.726	7.03
274.941	8.31
275.156	6.42
275.371	5.11
275.585	8.76
275.8	7.07
276.015	10.69
276.229	10.43
276.444	11.05
276.659	9.35
276.873	9.08
277.088	9.5
277.302	8.94
277.517	10.49
277.732	9.43
277.946	6.51
278.161	4.94
278.375	3.46
278.59	2.73
278.804	0.41
279.019	2.64
279.233	1.96
279.448	0.57
279.662	-0.13
279.877	-0.74
280.091	1.54
280.306	3.14
280.52	6.23
280.735	4.13
280.949	5.14
281.163	6.18
281.378	4.53
281.592	3.95
281.806	4.82
282.021	3.59
282.235	3.6
282.449	3.78
282.664	2.57
282.878	0.25
283.092	1.72
283.307	2.63
283.521	0.66
283.735	2.12
283.949	3.15
284.164	2.93
284.378	5.33
284.592	6.38
284.806	4.82
285.02	7.14
285.234	7.51
285.449	7.59
285.663	5.52
285.877	7.08
286.091	6.68
286.305	6.08
286.519	5.85
286.733	4.06
286.947	2.42
287.161	4.16
287.375	2.09
287.589	2.76
287.803	2.06
288.017	4.77
288.231	3.51
288.445	4.07
288.659	5.07
288.873	5.74
289.087	6.75
289.301	7.12
289.515	5.74
289.729	5.52
289.943	5.49
290.157	6.75
290.371	5.67
290.584	7.47
290.798	6.57
291.012	6.24
291.226	6.4
291.44	6.31
291.654	7.05
291.867	8.55
292.081	8.82
292.295	10.75
292.509	9.54
292.722	10
292.936	9.42
293.15	10.2
293.364	9.87
293.577	9.63
293.791	11.16
294.005	11.47
294.218	11.92
294.432	13
294.645	11
294.859	13.71
295.073	12.87
295.286	12.83
295.5	12.48
295.713	13.13
295.927	13.28
296.14	12.2
296.354	12.53
296.568	10.5
296.781	9.68
296.994	10.27
297.208	8.68
297.421	9.32
297.635	9.55
297.848	10.33
298.062	10.3
298.275	10.02
298.489	10.12
298.702	10.38
298.915	11.55
299.129	11.78
299.342	11.96
299.555	11.21
299.769	10.26
299.982	8.02
300.195	5.15
300.409	5.45
300.622	4.63
300.835	3.67
301.048	2.48
301.262	2.62
301.475	1.84
301.688	1.46
301.901	2.73
302.115	3.74
302.328	6.32
302.541	7.9
302.754	7.05
302.967	8.4
303.18	9.45
303.393	9.99
303.607	10
303.82	9.61
304.033	11.08
304.246	11.28
304.459	9.78
304.672	8.1
304.885	7.3
305.098	6.17
305.311	5.98
305.524	4.95
305.737	5.13
305.95	5.57
306.163	8.26
306.376	6.34
306.589	6.72
306.802	7.54
307.015	9.14
307.228	11.27
307.44	11.06
307.653	10.97
307.866	11.06
308.079	9.26
308.292	10.58
308.505	8.22
308.718	10.11
308.93	9.3
309.143	9.97
309.356	11.63
309.569	10.7
309.781	12.03
309.994	12.02
310.207	11.19
310.42	11.89
310.632	9.53
310.845	9.36
311.058	8.21
311.27	9.43
311.483	9.96
311.696	8.53
311.908	9.38
312.121	8.66
312.333	6.69
312.546	7.94
312.759	7.93
312.971	8.25
313.184	9.23
313.396	8.46
313.609	7.37
313.821	5.11
314.034	3.06
314.246	1.98
314.459	1.69
314.671	3.03
314.884	2.52
315.096	2.02
315.309	2.49
315.521	2.71
315.733	3.67
315.946	2.66
316.158	3.85
316.371	4.93
316.583	4.97
316.795	7.34
317.008	9.22
317.22	8.78
317.432	10.17
317.644	9.9
317.857	8.71
318.069	7.07
318.281	8.67
318.494	7.12
318.706	7.61
318.918	9.61
319.13	8.3
319.342	8.16
319.555	7.82
319.767	6.7
319.979	6.38
320.191	6.72
320.403	6.53
320.615	5.56
320.827	7.82
321.039	8.57
321.252	5.4
321.464	7.42
321.676	7.35
321.888	8.92
322.1	8.5
322.312	8.7
322.524	7.38
322.736	7.68
322.948	7.82
323.16	5.9
323.372	5.35
323.584	4.77
323.796	2.11
324.007	1.3
324.219	1.49
324.431	2.1
324.643	3.16
324.855	5.73
325.067	7.36
325.279	8
325.491	9.53
325.702	10.38
325.914	10.31
326.126	11.14
326.338	10.37
326.55	10.17
326.761	9.64
326.973	8.07
327.185	8.2
327.396	8.15
327.608	6.23
327.82	4.74
328.032	2.84
328.243	3.19
328.455	4.55
328.666	4.07
328.878	3.84
329.09	4.53
329.301	5.16
329.513	3.98
329.725	2.78
329.936	2.98
330.148	3.88
330.359	5.7
330.571	5.99
330.782	4.05
330.994	4.38
331.205	3.81
331.417	3.19
331.628	3.31
331.84	3.44
332.051	3.77
332.262	4.28
332.474	4.77
332.685	2.6
332.897	4.29
333.108	3.97
333.319	5.61
333.531	7.25
333.742	8.51
333.953	8.06
334.165	7.86
334.376	8.1
334.587	7.1
334.799	6.13
335.01	7.94
335.221	7.57
335.432	8.16
335.644	7.24
335.855	5.9
336.066	5.93
336.277	7.62
336.488	7.75
336.7	8.25
336.911	9.27
337.122	11.09
337.333	10.17
337.544	9.29
337.755	10.49
337.966	11.04
338.177	11.07
338.388	9.1
338.599	8.93
338.811	8.88
339.022	7.27
339.233	7.8
339.444	4.92
339.655	4.57
339.866	4.97
340.076	4.79
340.287	3.45
340.498	2.79
340.709	4.67
340.92	3.32
341.131	3.72
341.342	2.9
341.553	2.95
341.764	4.1
341.975	6.89
342.185	7.23
342.396	5.65
342.607	6.43
342.818	7.45
343.029	5.91
343.239	6.36
343.45	5.82
343.661	7.93
343.872	6.51
344.082	6.66
344.293	3.99
344.504	3.94
344.714	4.64
344.925	4.35
345.136	3.62
345.346	4.75
345.557	5.14
345.768	5.52
345.978	5
346.189	6.85
346.399	5.27
346.61	6.08
346.821	6.95
347.031	6.35
347.242	6.62
347.452	7.28
347.663	7.31
347.873	7.3
348.084	6.77
348.294	7.51
348.504	5.86
348.715	8.17
348.925	8.39
349.136	7.25
349.346	7.97
349.557	7.68
349.767	9.38
349.977	8.29
350.188	8.87
350.398	7.71
350.608	7.41
350.819	6.75
351.029	7.21
351.239	7.51
351.449	7
351.66	6.41
351.87	5.74
352.08	2.63
352.29	3.66
352.501	3.26
352.711	4.5
352.921	4.35
353.131	6.45
353.341	5.85
353.552	4.63
353.762	5.04
353.972	5.93
354.182	6.08
354.392	7.21
354.602	5.88
354.812	5.5
355.022	5.08
355.232	6.04
355.442	3.81
355.652	3.02
355.862	2.92
356.072	3.62
356.282	3.43
356.492	3.71
356.702	3.03
356.912	3.98
357.122	3.35
357.332	4.23
357.542	3.48
357.752	4.26
357.962	3.72
358.171	5.68
358.381	5.21
358.591	4.49
358.801	5.13
359.011	4.95
359.221	5.08
359.43	5.23
359.64	6.07
359.85	6.14
360.06	7.51
360.269	8.57
360.479	6.97
360.689	6.64
360.899	6.65
361.108	6.7
361.318	8.37
361.528	8.21
361.737	8.6
361.947	8.29
362.156	8.7
362.366	8.77
362.576	8.31
362.785	8.83
362.995	9.51
363.204	9.22
363.414	8.24
363.623	8.46
363.833	7.77
364.042	6.97
364.252	6.47
364.461	5.81
364.671	6.49
364.88	6.83
365.09	6.65
365.299	6.68
365.509	7.27
365.718	8.74
365.927	7.49
366.137	8.28
366.346	8.61
366.555	9.04
366.765	8.55
366.974	6.72
367.183	6.62
367.393	6.48
367.602	5.63
367.811	6.02
368.021	4.99
368.23	4.89
368.439	4.98
368.648	5.8
368.857	5.24
369.067	5.24
369.276	4.97
369.485	4.41
369.694	5.05
369.903	5.44
370.112	5.73
370.321	5.49
370.531	5.15
370.74	4.38
370.949	3.67
371.158	4.24
371.367	4.14
371.576	5.2
371.785	5.97
371.994	4.76
372.203	4.6
372.412	4.33
372.621	4.9
372.83	4.26
373.039	3.9
373.248	3.43
373.457	2.74
373.666	2.52
373.874	1.82
374.083	1.34
374.292	2.47
374.501	2.59
374.71	2.59
374.919	2.01
375.128	3.63
375.336	4.66
375.545	4.51
375.754	4.62
375.963	5.08
376.171	4.45
376.38	3.49
376.589	2.35
376.798	1.6
377.006	1.47
377.215	2.47
377.424	2.03
377.632	2.16
377.841	2.43
378.05	3
378.258	3.01
378.467	3.44
378.675	4.4
378.884	4.86
379.093	5.07
379.301	5.1
379.51	4.6
379.718	4.33
379.927	3.99
380.135	4.43
380.344	3.84
380.552	4.24
380.761	3.75
380.969	4.22
381.177	5.07
381.386	5.42
381.594	5.12
381.803	5.27
382.011	5.57
382.219	5.04
382.428	4.45
382.636	4.44
382.845	4.24
383.053	4.9
383.261	4.64
383.469	3.83
383.678	3.53
383.886	3.92
384.094	4.03
384.302	3.57
384.511	4.43
384.719	4.36
384.927	4.38
385.135	4.2
385.343	4.13
385.552	3.55
385.76	3.39
385.968	3.52
386.176	2.83
386.384	2.25
386.592	2.36
386.8	2.07
387.008	2.53
387.216	2.26
387.424	2.15
387.633	2.14
387.841	2.45
388.049	2.21
388.257	2.49
388.465	2.26
388.672	2.62
388.88	2.55
389.088	2.53
389.296	2.32
389.504	2.27
389.712	2.34
389.92	2.26
390.128	2.48
390.336	2.75
390.544	2.7
390.751	3.6
390.959	3.67
391.167	4.08
391.375	3.89
391.583	3.93
391.79	3.82
391.998	3.81
392.206	3.82
392.414	3.93
392.621	3.74
392.829	3.59
393.037	3.55
393.244	3.3
393.452	2.92
393.66	3.18
393.867	3.23
394.075	3.24
394.283	3.27
394.49	3.23
394.698	2.63
394.905	2.96
395.113	3.01
395.32	2.55
395.528	2.48
395.735	2.21
395.943	1.95
396.15	1.78
396.358	2.09
396.565	1.73
396.773	1.35
396.98	1.95
397.188	1.6
397.395	1.72
397.602	1.68
397.81	1.78
398.017	2.04
398.225	2.1
398.432	2.23
398.639	2
398.847	2.38
399.054	2.83
399.261	2.64
399.468	3.05
399.676	3.1
399.883	3.6
400.09	3.63
400.297	3.46
400.505	3.46
400.712	3.2
400.919	3.26
401.126	2.93
401.333	2.65
401.54	2.76
401.748	2.52
401.955	2.18
402.162	1.63
402.369	1.4
402.576	1.64
402.783	1.65
402.99	1.69
403.197	1.89
403.404	2.16
403.611	2.38
403.818	2.1
404.025	1.98
404.232	2.17
404.439	2.25
404.646	2.38
404.853	2.21
405.06	2.21
405.267	2.36
405.474	2.16
405.681	1.96
405.887	2.07
406.094	2.28
406.301	2.38
406.508	2.55
406.715	2.77
406.922	2.67
407.128	2.6
407.335	2.74
407.542	2.78
407.749	2.69
407.955	2.86
408.162	2.27
408.369	1.93
408.575	1.96
408.782	1.69
408.989	1.63
409.195	1.84
409.402	2.19
409.609	1.91
409.815	2.02
410.022	2.14
410.228	2.04
410.435	2.58
410.642	2.44
410.848	2.26
411.055	2.12
411.261	2.02
411.468	2.07
411.674	1.86
411.881	2.11
412.087	1.87
412.294	1.76
412.5	1.76
412.706	1.55
412.913	1.94
413.119	2.11
413.326	2.44
413.532	2.39
413.738	2.07
413.945	2.07
414.151	1.76
414.357	2.01
414.564	2.32
414.77	2.28
414.976	2.29
415.182	2.34
415.389	2.26
415.595	1.87
415.801	1.99
416.007	2.29
416.214	2.23
416.42	2.4
416.626	2.31
416.832	2.19
417.038	2.35
417.244	2.28
417.45	2.14
417.657	1.97
417.863	2
418.069	1.9
418.275	1.88
418.481	2
418.687	1.99
418.893	1.82
419.099	1.85
419.305	1.85
419.511	1.94
419.717	2.02
419.923	2.21
420.129	2.42
420.335	2.48
420.541	2.47
420.746	2.43
420.952	2.6
421.158	2.63
421.364	2.62
421.57	2.54
421.776	2.62
421.982	2.59
422.187	2.65
422.393	2.48
422.599	2.59
422.805	2.52
423.01	2.55
423.216	2.46
423.422	2.48
423.628	2.52
423.833	2.59
424.039	2.5
424.245	2.42
424.45	2.36
424.656	2.36
424.862	2.25
425.067	2.22
425.273	2.15
425.478	2.15
425.684	1.98
425.889	1.94
426.095	1.83
426.301	1.6
426.506	1.73
426.712	1.71
426.917	1.86
427.123	1.88
427.328	1.74
427.533	1.69
427.739	1.48
427.944	1.84
428.15	1.54
428.355	1.63
428.561	1.96
428.766	1.71
428.971	1.63
429.177	1.63
429.382	1.63
429.587	1.93
429.793	2.16
429.998	2.24
430.203	2.21
430.408	2.44
430.614	2.56
430.819	2.37
431.024	2.6
431.229	2.55
431.434	2.39
431.64	2.5
431.845	2.57
432.05	2.3
432.255	2.16
432.46	2
432.665	1.86
432.87	1.93
433.076	1.97
433.281	1.97
433.486	2.09
433.691	1.99
433.896	1.79
434.101	1.62
434.306	1.63
434.511	1.63
434.716	1.78
434.921	1.79
435.126	1.59
435.331	1.67
435.535	1.55
435.74	1.39
435.945	1.55
436.15	1.56
436.355	1.51
436.56	1.53
436.765	1.56
436.97	1.6
437.174	1.82
437.379	1.91
437.584	1.84
437.789	1.77
437.993	1.86
438.198	1.85
438.403	1.87
438.608	1.92
438.812	1.95
439.017	2.05
439.222	2
439.426	1.88
439.631	1.76
439.836	1.73
440.04	1.83
440.245	1.76
440.45	1.69
440.654	1.74
440.859	1.69
441.063	1.85
441.268	1.75
441.472	1.64
441.677	1.5
441.881	1.44
442.086	1.51
442.29	1.48
442.495	1.5
442.699	1.55
442.904	1.37
443.108	1.5
443.312	1.38
443.517	1.5
443.721	1.53
443.925	1.69
444.13	1.66
444.334	1.47
444.538	1.37
444.743	1.37
444.947	1.28
445.151	1.45
445.356	1.42
445.56	1.36
445.764	1.22
445.968	1.24
446.173	1.23
446.377	1.28
446.581	1.46
446.785	1.54
446.989	1.5
447.193	1.53
447.398	1.56
447.602	1.59
447.806	1.57
448.01	1.67
448.214	1.57
448.418	1.62
448.622	1.59
448.826	1.65
449.03	1.62
449.234	1.74
449.438	1.75
449.642	1.63
449.846	1.71
450.05	1.74
450.254	1.9
450.458	2.03
450.662	1.97
450.866	2.02
451.069	1.83
451.273	1.76
451.477	1.85
451.681	1.9
451.885	1.94
452.089	1.94
452.292	2.05
452.496	1.91
452.7	1.81
452.904	1.94
453.107	2.01
453.311	2.05
453.515	2.16
453.719	2.05
453.922	1.98
454.126	1.85
454.33	1.72
454.533	1.61
454.737	1.52
454.94	1.77
455.144	1.56
455.348	1.54
455.551	1.39
455.755	1.4
455.958	1.3
456.162	1.35
456.365	1.23
456.569	1.14
456.772	1.13
456.976	1.11
457.179	0.79
457.383	0.93
457.586	0.99
457.79	1.12
457.993	1.18
458.196	1.29
458.4	1.42
458.603	1.6
458.807	1.7
459.01	1.69
459.213	1.81
459.417	1.98
459.62	1.95
459.823	1.84
460.026	1.87
460.23	1.79
460.433	1.78
460.636	1.69
460.839	1.67
461.042	1.65
461.246	1.78
461.449	1.75
461.652	1.58
461.855	1.52
462.058	1.5
462.261	1.47
462.464	1.63
462.668	1.72
462.871	1.92
463.074	1.87
463.277	1.87
463.48	1.74
463.683	1.52
463.886	1.49
464.089	1.57
464.292	1.76
464.495	1.94
464.698	1.76
464.901	1.66
465.104	1.26
465.306	1.32
465.509	1.08
465.712	1.04
465.915	1.21
466.118	1.36
466.321	1.29
466.524	1.19
466.726	1.01
466.929	0.9
467.132	0.77
467.335	1.09
467.538	1.19
467.74	1.32
