Data from 2938076_Reflection_1.txt Node
Date: Sat Jul 11 20:23:57 EDT 2015
User: robert
Spectrometer: USB4E03001
Autoset integration time: false
Trigger mode: 4
Integration Time (sec): 1.000000E-1
Scans to average: 10
Electric dark correction enabled: true
Nonlinearity correction enabled: false
Boxcar width: 5
Stray light correction enabled: false
XAxis mode: Wavelengths
Stop averaging: false
Number of Pixels in Spectrum: 3648
>>>>>Begin Spectral Data<<<<<
177.566	215.2
177.785	177.45
178.005	334.23
178.225	46.73
178.445	28.74
178.665	118.23
178.885	83.88
179.105	136.54
179.324	122.95
179.544	-974.35
179.764	13.34
179.984	-10.16
180.204	21.09
180.423	-12.75
180.643	-32.32
180.863	-33.84
181.083	-85.15
181.302	-41.35
181.522	9.15
181.742	30.05
181.961	61.87
182.181	-19.19
182.401	38.2
182.621	-1.57
182.84	11.77
183.06	20.43
183.279	-274.78
183.499	150.38
183.719	-42.25
183.938	-64.56
184.158	67.5
184.377	55.2
184.597	-13.38
184.816	-13.82
185.036	-44.28
185.256	-60.42
185.475	-51.4
185.695	-316.19
185.914	-53.99
186.134	857.47
186.353	485.61
186.572	49.57
186.792	58.91
187.011	56.07
187.231	156.15
187.45	117.63
187.67	179.75
187.889	17.52
188.108	4.44
188.328	111.96
188.547	410.08
188.766	193.09
188.986	195.11
189.205	117.51
189.424	57.14
189.644	31.33
189.863	-16.58
190.082	-187.44
190.302	1674.63
190.521	278.55
190.74	275.4
190.959	231.04
191.178	160.9
191.398	79.98
191.617	56.8
191.836	275.11
192.055	120.44
192.274	2650.44
192.494	390.84
192.713	123.11
192.932	153.81
193.151	120.2
193.37	59.01
193.589	41.02
193.808	43.61
194.027	17.08
194.246	27.95
194.465	0.11
194.685	-4.28
194.904	-51.83
195.123	-36.77
195.342	-42.16
195.561	-7674.29
195.78	204.98
195.999	98.38
196.218	121.4
196.436	121.95
196.655	-77.8
196.874	-146.53
197.093	-48.08
197.312	-136.94
197.531	-92.97
197.75	547.19
197.969	291.62
198.188	-507.8
198.407	-56.64
198.625	-63.36
198.844	-46.68
199.063	38.53
199.282	57.15
199.501	-196.61
199.719	2055.06
199.938	-55.2
200.157	-45.62
200.376	-48.9
200.594	-611.82
200.813	-367.77
201.032	24545.45
201.251	438.65
201.469	302.46
201.688	142.84
201.907	194.23
202.125	34.96
202.344	54.49
202.563	22.61
202.781	58.8
203	26.51
203.218	33.42
203.437	67.94
203.656	138.05
203.874	145.54
204.093	265.81
204.311	174.78
204.53	263.78
204.748	-550.52
204.967	4055.17
205.185	-277.71
205.404	-187.2
205.622	-65.47
205.841	59.85
206.059	-84.79
206.278	-14.2
206.496	164.69
206.715	-13863.64
206.933	105.28
207.151	815.53
207.37	-209.16
207.588	-166.03
207.806	-151.8
208.025	31247.06
208.243	-160.22
208.461	-227.15
208.68	-27.03
208.898	21.21
209.116	38
209.335	35.27
209.553	13.57
209.771	21.3
209.989	49.36
210.208	34.81
210.426	29.33
210.644	-3.84
210.862	-36.6
211.081	-128.02
211.299	-74.17
211.517	-98.54
211.735	-141.9
211.953	-30.25
212.171	21.65
212.39	7.44
212.608	19.05
212.826	68.35
213.044	100.49
213.262	149.84
213.48	118.91
213.698	93.55
213.916	77.94
214.134	42.15
214.352	42.05
214.57	13.08
214.788	32.12
215.006	13.53
215.224	15.94
215.442	12.45
215.66	-96.03
215.878	-75.5
216.096	-115.68
216.314	4496.84
216.532	-146.22
216.75	-57.21
216.968	-0.28
217.185	-8.91
217.403	28.25
217.621	-6.27
217.839	-8.45
218.057	-5.39
218.275	-25.94
218.492	5.88
218.71	-5.85
218.928	30.14
219.146	-47.7
219.363	-231.26
219.581	-116.03
219.799	-29.44
220.017	-9.17
220.234	4.09
220.452	-4.39
220.67	22.72
220.887	9.04
221.105	17.13
221.323	0.57
221.54	-11.81
221.758	-8.71
221.976	-30.29
222.193	-29.24
222.411	-21.61
222.629	-32.75
222.846	6.3
223.064	3.35
223.281	-3.09
223.499	7.14
223.716	26.41
223.934	59.92
224.151	55.76
224.369	54.09
224.586	32.78
224.804	16.7
225.021	19.51
225.239	24.8
225.456	15.99
225.674	28.77
225.891	14.27
226.108	22.67
226.326	16.02
226.543	15.75
226.76	21.92
226.978	20.38
227.195	27.19
227.413	29.47
227.63	21.08
227.847	18.56
228.064	14.94
228.282	20.51
228.499	16.78
228.716	13.45
228.934	14.41
229.151	13.19
229.368	15.73
229.585	15.75
229.802	13.62
230.02	11.01
230.237	12.4
230.454	9.65
230.671	7.34
230.888	7.73
231.105	11.41
231.323	9.63
231.54	3.19
231.757	-3.12
231.974	-7.79
232.191	-5.69
232.408	5.69
232.625	6.72
232.842	13.96
233.059	11.18
233.276	9.52
233.493	8.08
233.71	16.83
233.927	17.41
234.144	21.42
234.361	16.75
234.578	19.02
234.795	10.48
235.012	6.79
235.229	1.54
235.446	-1.11
235.663	-1.85
235.879	-5.94
236.096	-7.19
236.313	0.36
236.53	-3.61
236.747	2.78
236.964	-3.93
237.181	-4.79
237.397	-12.86
237.614	-2
237.831	-6.87
238.048	-6.1
238.264	0.59
238.481	-2.7
238.698	-12.48
238.915	-14.58
239.131	-20.8
239.348	-11.8
239.565	-3.42
239.781	6.89
239.998	0.71
240.215	7.58
240.431	9.51
240.648	12.04
240.865	13.65
241.081	15.86
241.298	14.41
241.514	15.92
241.731	15.72
241.947	15.41
242.164	15.61
242.38	15.78
242.597	14.22
242.814	13.02
243.03	12.33
243.246	10.82
243.463	9.87
243.679	11.96
243.896	12.91
244.112	13.11
244.329	11.18
244.545	8.76
244.762	7.4
244.978	7.43
245.194	12.44
245.411	11.1
245.627	9.94
245.843	11.19
246.06	10.21
246.276	8.91
246.492	8.25
246.709	9.34
246.925	9.04
247.141	10.18
247.357	10.55
247.574	8.49
247.79	8.69
248.006	9.8
248.222	10.87
248.439	11.88
248.655	12.08
248.871	11.49
249.087	11.17
249.303	12.16
249.519	12.6
249.736	13.7
249.952	15.45
250.168	14.99
250.384	13.48
250.6	10.52
250.816	7.97
251.032	7.8
251.248	7
251.464	9.65
251.68	8.64
251.896	6.71
252.112	5.36
252.328	5.73
252.544	5.7
252.76	6.36
252.976	5.09
253.192	5.34
253.408	5.24
253.624	6.67
253.84	5.2
254.056	5.64
254.272	5.96
254.487	7.65
254.703	5.91
254.919	7.24
255.135	9.51
255.351	9.57
255.567	11.05
255.782	9.34
255.998	9.2
256.214	11.38
256.43	12.51
256.646	11.96
256.861	10.39
257.077	13.28
257.293	13.46
257.508	11.58
257.724	11.71
257.94	9.39
258.155	11.23
258.371	11.88
258.587	9.93
258.802	9.23
259.018	10.1
259.234	9.09
259.449	7.47
259.665	7.1
259.88	6.96
260.096	7.94
260.312	7.81
260.527	7.28
260.743	7.39
260.958	7.15
261.174	7.31
261.389	6.34
261.605	7.36
261.82	7.41
262.036	7.12
262.251	8.12
262.466	7.33
262.682	7.8
262.897	8.12
263.113	9.16
263.328	10.18
263.543	8.85
263.759	11.57
263.974	13.01
264.189	13.15
264.405	15.12
264.62	15.3
264.835	16.2
265.051	16.08
265.266	18.21
265.481	14.4
265.696	14.34
265.912	14.77
266.127	11.83
266.342	10.94
266.557	12.43
266.773	12.4
266.988	11.16
267.203	11.18
267.418	10.53
267.633	10.57
267.848	13.24
268.064	12.56
268.279	12.67
268.494	13.94
268.709	12.26
268.924	11.43
269.139	11.04
269.354	11.38
269.569	10.01
269.784	11.86
269.999	8.2
270.214	5.47
270.429	6.97
270.644	7.19
270.859	6.54
271.074	6.46
271.289	6.12
271.504	5.67
271.719	4.87
271.934	5.92
272.149	4.18
272.363	6.2
272.578	7.24
272.793	6.47
273.008	5.69
273.223	5.71
273.438	6.49
273.653	6.91
273.867	6.11
274.082	5.69
274.297	5
274.512	6.06
274.726	5.75
274.941	5.99
275.156	4.89
275.371	4.1
275.585	4.13
275.8	4.7
276.015	3.42
276.229	4.69
276.444	5.13
276.659	5.5
276.873	6.11
277.088	5.91
277.302	6.53
277.517	7.51
277.732	8.9
277.946	9.54
278.161	8.07
278.375	8.57
278.59	8.14
278.804	8.48
279.019	8.04
279.233	7.79
279.448	8.33
279.662	8.09
279.877	9.32
280.091	10.55
280.306	10.44
280.52	12.68
280.735	13.45
280.949	13.88
281.163	13.8
281.378	13.1
281.592	13.29
281.806	12.14
282.021	12.35
282.235	10.76
282.449	9.06
282.664	9.42
282.878	7.81
283.092	6.28
283.307	5.73
283.521	6.56
283.735	6.03
283.949	4.99
284.164	5.69
284.378	5.66
284.592	5.21
284.806	5.84
285.02	6.34
285.234	6.31
285.449	6.92
285.663	6.51
285.877	6.08
286.091	7.9
286.305	9.36
286.519	9.92
286.733	8.94
286.947	8.74
287.161	6.74
287.375	4.94
287.589	4.65
287.803	4.7
288.017	5.4
288.231	4.84
288.445	4.49
288.659	2.86
288.873	2.31
289.087	3.59
289.301	5.6
289.515	7.89
289.729	9.05
289.943	10.2
290.157	11.51
290.371	11.62
290.584	11.61
290.798	12.06
291.012	12.54
291.226	12.7
291.44	12.27
291.654	11.29
291.867	10.66
292.081	11.39
292.295	12.01
292.509	10.37
292.722	8.66
292.936	9.88
293.15	9.44
293.364	9.36
293.577	9.24
293.791	8.8
294.005	9.36
294.218	9.91
294.432	9.51
294.645	8.32
294.859	9.88
295.073	12.16
295.286	12.21
295.5	12.01
295.713	12.58
295.927	13.25
296.14	13.87
296.354	13.88
296.568	13.4
296.781	14.24
296.994	14.56
297.208	14
297.421	12.93
297.635	12.61
297.848	12.66
298.062	12.13
298.275	12.45
298.489	13.27
298.702	12.2
298.915	12.85
299.129	12.5
299.342	11.58
299.555	12.64
299.769	12.76
299.982	13.03
300.195	13.37
300.409	12.79
300.622	11.91
300.835	11.06
301.048	11.44
301.262	11.67
301.475	10.34
301.688	10.22
301.901	9.97
302.115	10.01
302.328	9.77
302.541	8.53
302.754	10.05
302.967	10.18
303.18	9.19
303.393	9.55
303.607	8.93
303.82	9.27
304.033	10.56
304.246	10.31
304.459	11.54
304.672	11.65
304.885	13.59
305.098	14.45
305.311	13.92
305.524	14.4
305.737	14.2
305.95	15.13
306.163	15.74
306.376	16.05
306.589	14.67
306.802	13.8
307.015	14.32
307.228	13.31
307.44	12.85
307.653	14.57
307.866	14.34
308.079	15.13
308.292	15.98
308.505	15.76
308.718	14.75
308.93	16.46
309.143	17.82
309.356	18.21
309.569	18.12
309.781	19.43
309.994	18.69
310.207	18
310.42	18.67
310.632	17.63
310.845	17.51
311.058	17.29
311.27	16.61
311.483	15.41
311.696	16.13
311.908	16.64
312.121	14.56
312.333	14.12
312.546	14.92
312.759	13.99
312.971	13.72
313.184	14.43
313.396	16.47
313.609	17
313.821	16.73
314.034	15.34
314.246	15.22
314.459	17.12
314.671	17.29
314.884	18.51
315.096	17.82
315.309	19
315.521	18.33
315.733	16.19
315.946	15.25
316.158	15.42
316.371	15.91
316.583	15.26
316.795	13.84
317.008	13.47
317.22	12.1
317.432	14.07
317.644	13.98
317.857	14.89
318.069	16.23
318.281	17.35
318.494	18.11
318.706	18.7
318.918	19.89
319.13	19.72
319.342	20.46
319.555	20.05
319.767	19.52
319.979	18.09
320.191	17.42
320.403	16.28
320.615	15.98
320.827	16.89
321.039	16.85
321.252	16.11
321.464	17.42
321.676	17.81
321.888	19.45
322.1	20.02
322.312	21.11
322.524	20.38
322.736	20.94
322.948	19.98
323.16	19.19
323.372	18.59
323.584	17.33
323.796	16.28
324.007	15.13
324.219	13.47
324.431	12.89
324.643	12.48
324.855	12.22
325.067	12.29
325.279	12.8
325.491	13.55
325.702	11.73
325.914	13.23
326.126	13.16
326.338	14.08
326.55	15.27
326.761	14.98
326.973	14.95
327.185	14.57
327.396	15.59
327.608	16.39
327.82	15.78
328.032	18.02
328.243	16.64
328.455	16.12
328.666	16.65
328.878	15.96
329.09	16.16
329.301	15.32
329.513	17.1
329.725	16.11
329.936	15.5
330.148	15.56
330.359	14.56
330.571	15.29
330.782	18.07
330.994	17.9
331.205	17.32
331.417	17.7
331.628	19.89
331.84	18.76
332.051	18.86
332.262	18.68
332.474	19.59
332.685	19.85
332.897	20.98
333.108	18.8
333.319	18.97
333.531	18.95
333.742	18.93
333.953	18.25
334.165	19.34
334.376	19.34
334.587	20.04
334.799	18.71
335.01	18.84
335.221	18.5
335.432	19.02
335.644	18.81
335.855	19.08
336.066	18.75
336.277	19.72
336.488	19.68
336.7	20.23
336.911	19.93
337.122	20.47
337.333	20.58
337.544	19.96
337.755	19.78
337.966	18.27
338.177	17.81
338.388	19.22
338.599	19.34
338.811	20.08
339.022	19.71
339.233	18.32
339.444	18.59
339.655	18.64
339.866	18.81
340.076	17.86
340.287	18.14
340.498	19.1
340.709	18.94
340.92	17.84
341.131	16.29
341.342	16.19
341.553	17.16
341.764	17.08
341.975	16.65
342.185	16.95
342.396	18.01
342.607	18.99
342.818	18.6
343.029	17.59
343.239	17.23
343.45	17.62
343.661	18.01
343.872	18.03
344.082	17.84
344.293	17.57
344.504	17.34
344.714	17.76
344.925	17.21
345.136	18.1
345.346	18.35
345.557	18.57
345.768	17.12
345.978	16.41
346.189	16.51
346.399	15.76
346.61	16.26
346.821	16.42
347.031	15.08
347.242	15.63
347.452	15.62
347.663	15.45
347.873	15.22
348.084	17.3
348.294	17.71
348.504	17.66
348.715	18.35
348.925	18.25
349.136	17.17
349.346	17.9
349.557	17.21
349.767	16.44
349.977	15.28
350.188	15.69
350.398	15.28
350.608	15.6
350.819	15.66
351.029	15.84
351.239	15.62
351.449	16.05
351.66	16.04
351.87	16.92
352.08	17.6
352.29	17.06
352.501	17.39
352.711	16.58
352.921	15.52
353.131	14.88
353.341	14.68
353.552	14.41
353.762	14.61
353.972	15.24
354.182	15.63
354.392	14.3
354.602	15.25
354.812	15.24
355.022	15.78
355.232	16.38
355.442	15.95
355.652	15.54
355.862	16.06
356.072	17.04
356.282	16.79
356.492	15.71
356.702	15.88
356.912	16.54
357.122	15.89
357.332	15.58
357.542	15.73
357.752	15.13
357.962	14.62
358.171	13.95
358.381	13.85
358.591	13.33
358.801	13.44
359.011	13.38
359.221	13.35
359.43	13.74
359.64	14.46
359.85	14.4
360.06	15.22
360.269	15.83
360.479	15.4
360.689	14.03
360.899	13.99
361.108	13.67
361.318	14.22
361.528	14.31
361.737	13.97
361.947	13.6
362.156	12.83
362.366	12.69
362.576	12.5
362.785	13.28
362.995	13.99
363.204	14.22
363.414	14.35
363.623	14.23
363.833	13.95
364.042	14.27
364.252	14.1
364.461	15.1
364.671	14.55
364.88	15.42
365.09	15.68
365.299	14.59
365.509	14.45
365.718	14.8
365.927	14.31
366.137	14.17
366.346	13.09
366.555	13.02
366.765	12.31
366.974	12.92
367.183	12.11
367.393	11.16
367.602	11.86
367.811	12.21
368.021	12.04
368.23	12.44
368.439	12.14
368.648	12.91
368.857	12.24
369.067	12.84
369.276	12.6
369.485	12.88
369.694	13.25
369.903	14.06
370.112	12.65
370.321	12.22
370.531	11.13
370.74	11.29
370.949	12.31
371.158	12.62
371.367	11.98
371.576	12.78
371.785	12.02
371.994	11.72
372.203	10.83
372.412	11.25
372.621	11.95
372.83	12.71
373.039	12.96
373.248	11.6
373.457	11.93
373.666	12.29
373.874	11.97
374.083	12.58
374.292	13.11
374.501	13.9
374.71	13.76
374.919	13.04
375.128	13.62
375.336	12.87
375.545	12.92
375.754	11.96
375.963	12.17
376.171	11.86
376.38	11.46
376.589	11.07
376.798	10.57
377.006	10.79
377.215	11.13
377.424	10.5
377.632	10.5
377.841	9.94
378.05	10.28
378.258	9.41
378.467	9.2
378.675	8.77
378.884	9.19
379.093	9.1
379.301	9.35
379.51	9.14
379.718	9.55
379.927	9.62
380.135	10.56
380.344	10.71
380.552	11.55
380.761	11.91
380.969	12.41
381.177	12.21
381.386	11.7
381.594	11.16
381.803	10.9
382.011	9.64
382.219	9.85
382.428	9.53
382.636	9.57
382.845	9.13
383.053	9.06
383.261	8.62
383.469	8.26
383.678	8.24
383.886	8.06
384.094	7.69
384.302	8.5
384.511	8.34
384.719	8.08
384.927	7.82
385.135	7.62
385.343	7.34
385.552	7.16
385.76	7.12
385.968	7.59
386.176	8.05
386.384	8.03
386.592	7.68
386.8	7.51
387.008	8.21
387.216	8.2
387.424	7.98
387.633	8.29
387.841	8.3
388.049	8.12
388.257	8.12
388.465	7.65
388.672	7.43
388.88	7.9
389.088	8.11
389.296	7.32
389.504	7.45
389.712	7.1
389.92	6.86
390.128	7.15
390.336	7.61
390.544	7.25
390.751	7.36
390.959	7.88
391.167	7.39
391.375	6.72
391.583	6.86
391.79	6.93
391.998	7.2
392.206	7.21
392.414	7.35
392.621	6.82
392.829	6.8
393.037	6.83
393.244	6.91
393.452	6.88
393.66	7.4
393.867	7.22
394.075	7
394.283	7.42
394.49	7.34
394.698	6.83
394.905	7.23
395.113	7.28
395.32	7.56
395.528	7.14
395.735	6.69
395.943	6.51
396.15	6.89
396.358	6.95
396.565	6.67
396.773	6.44
396.98	7
397.188	6.69
397.395	6.32
397.602	5.95
397.81	6.51
398.017	6.92
398.225	6.96
398.432	6.83
398.639	6.78
398.847	6.25
399.054	6.36
399.261	6.22
399.468	6.39
399.676	6.41
399.883	6.18
400.09	5.59
400.297	5.3
400.505	5.01
400.712	4.55
400.919	4.75
401.126	5.2
401.333	5.34
401.54	5.1
401.748	4.77
401.955	4.83
402.162	4.94
402.369	5.28
402.576	5.6
402.783	5.92
402.99	6.24
403.197	6.08
403.404	5.95
403.611	5.93
403.818	6.07
404.025	6.31
404.232	6.35
404.439	6.23
404.646	5.98
404.853	6.26
405.06	6.15
405.267	6.14
405.474	5.96
405.681	5.86
405.887	5.83
406.094	5.96
406.301	5.98
406.508	6.13
406.715	6.48
406.922	6.39
407.128	6.04
407.335	6.24
407.542	6.18
407.749	6.25
407.955	6.46
408.162	6.3
408.369	5.8
408.575	5.71
408.782	5.61
408.989	5.6
409.195	5.61
409.402	5.59
409.609	5.3
409.815	5.32
410.022	5.36
410.228	5.45
410.435	5.53
410.642	5.49
410.848	5.4
411.055	5.3
411.261	5.11
411.468	5.23
411.674	5.22
411.881	5.44
412.087	5.46
412.294	5.46
412.5	5.3
412.706	5.49
412.913	5.53
413.119	5.7
413.326	5.8
413.532	5.69
413.738	5.59
413.945	5.58
414.151	5.42
414.357	5.53
414.564	5.61
414.77	5.91
414.976	5.6
415.182	5.72
415.389	5.54
415.595	5.31
415.801	5.61
416.007	5.68
416.214	5.66
416.42	5.6
416.626	5.45
416.832	4.97
417.038	4.8
417.244	4.9
417.45	5.03
417.657	5.1
417.863	5.53
418.069	5.45
418.275	5.55
418.481	5.67
418.687	5.64
418.893	5.64
419.099	5.95
419.305	5.96
419.511	5.82
419.717	5.88
419.923	5.78
420.129	5.61
420.335	5.59
420.541	5.53
420.746	5.45
420.952	5.47
421.158	5.43
421.364	5.34
421.57	5.31
421.776	5.45
421.982	5.37
422.187	5.39
422.393	5.28
422.599	5.27
422.805	5.33
423.01	5.41
423.216	5.3
423.422	5.29
423.628	5.39
423.833	5.24
424.039	5.19
424.245	5.18
424.45	5.27
424.656	5.44
424.862	5.37
425.067	5.31
425.273	5.36
425.478	5.57
425.684	5.74
425.889	5.68
426.095	5.92
426.301	5.84
426.506	5.76
426.712	5.59
426.917	5.47
427.123	5.49
427.328	5.59
427.533	5.58
427.739	5.4
427.944	5.25
428.15	5.19
428.355	5.17
428.561	5.26
428.766	5.35
428.971	5.42
429.177	5.44
429.382	5.52
429.587	5.33
429.793	5.29
429.998	5.59
430.203	5.44
430.408	5.46
430.614	5.26
430.819	5.37
431.024	5.36
431.229	5.39
431.434	5.37
431.64	5.45
431.845	5.43
432.05	5.26
432.255	5.1
432.46	5.29
432.665	5.4
432.87	5.46
433.076	5.45
433.281	5.52
433.486	5.6
433.691	5.54
433.896	5.4
434.101	5.45
434.306	5.68
434.511	5.69
434.716	5.63
434.921	5.6
435.126	5.75
435.331	5.65
435.535	5.57
435.74	5.55
435.945	5.64
436.15	5.72
436.355	5.55
436.56	5.48
436.765	5.54
436.97	5.48
437.174	5.44
437.379	5.15
437.584	5.11
437.789	4.97
437.993	4.99
438.198	5.05
438.403	4.89
438.608	4.91
438.812	4.69
439.017	4.73
439.222	4.84
439.426	4.71
439.631	4.86
439.836	5.01
440.04	5.09
440.245	5.04
440.45	4.94
440.654	5.1
440.859	5.25
441.063	5.26
441.268	5.12
441.472	4.93
441.677	5.05
441.881	5.03
442.086	4.93
442.29	4.99
442.495	5.13
442.699	5.13
442.904	5.18
443.108	5.22
443.312	5.41
443.517	5.46
443.721	5.62
443.925	5.51
444.13	5.42
444.334	5.53
444.538	5.64
444.743	5.5
444.947	5.48
445.151	5.35
445.356	5.27
445.56	5.13
445.764	5.14
445.968	5.14
446.173	5.15
446.377	5.26
446.581	5.21
446.785	5.12
446.989	5.15
447.193	5.1
447.398	5.19
447.602	5.17
447.806	5.14
448.01	5.14
448.214	5.05
448.418	5.04
448.622	4.98
448.826	4.92
449.03	4.91
449.234	4.8
449.438	4.76
449.642	4.84
449.846	4.79
450.05	4.89
450.254	4.82
450.458	4.84
450.662	4.89
450.866	4.88
451.069	4.97
451.273	4.89
451.477	4.97
451.681	5.27
451.885	4.9
452.089	5
452.292	5.07
452.496	5.13
452.7	5.16
452.904	5.23
453.107	5.15
453.311	5.07
453.515	5.19
453.719	5.06
453.922	4.71
454.126	4.95
454.33	4.97
454.533	4.9
454.737	4.88
454.94	5.03
455.144	4.98
455.348	4.97
455.551	4.97
455.755	4.86
455.958	5.01
456.162	5.23
456.365	5.22
456.569	5.12
456.772	5.01
456.976	4.89
457.179	4.82
457.383	4.81
457.586	4.97
457.79	5.08
457.993	5.12
458.196	4.94
458.4	4.75
458.603	4.74
458.807	4.87
459.01	5.03
459.213	5.05
459.417	4.95
459.62	4.87
459.823	4.76
460.026	4.61
460.23	4.57
460.433	4.69
460.636	4.81
460.839	4.68
461.042	4.64
461.246	4.66
461.449	4.73
461.652	4.94
461.855	5.18
462.058	5.28
462.261	5.44
462.464	5.55
462.668	5.41
462.871	5.39
463.074	5.47
463.277	5.52
463.48	5.34
463.683	5.28
