Data from 2938094_Reflection_3.txt Node
Date: Sat Jul 11 19:08:21 EDT 2015
User: robert
Spectrometer: USB4E03001
Autoset integration time: false
Trigger mode: 4
Integration Time (sec): 1.000000E-1
Scans to average: 10
Electric dark correction enabled: true
Nonlinearity correction enabled: false
Boxcar width: 5
Stray light correction enabled: false
XAxis mode: Wavelengths
Stop averaging: false
Number of Pixels in Spectrum: 3648
>>>>>Begin Spectral Data<<<<<
177.566	79.98
177.785	58.56
178.005	67.67
178.225	140.4
178.445	33.17
178.665	110.36
178.885	186.63
179.105	587.69
179.324	-934.47
179.544	89.94
179.764	42.18
179.984	96.02
180.204	52.09
180.423	143.31
180.643	-500.73
180.863	-94.87
181.083	-95.92
181.302	-43.75
181.522	-181.46
181.742	163.98
181.961	196.78
182.181	2620.67
182.401	890.72
182.621	-339.7
182.84	662.84
183.06	850.77
183.279	-206.24
183.499	39.93
183.719	1.02
183.938	3.77
184.158	0.67
184.377	12.37
184.597	20.75
184.816	-0.51
185.036	18.04
185.256	13.64
185.475	15.45
185.695	-0.88
185.914	-4.66
186.134	-16.28
186.353	6.38
186.572	-19.16
186.792	7.3
187.011	30.53
187.231	40.82
187.45	37.4
187.67	55.45
187.889	65.64
188.108	69.86
188.328	69.96
188.547	84.39
188.766	75.39
188.986	78.22
189.205	78.18
189.424	52.63
189.644	60.23
189.863	42.52
190.082	19.58
190.302	-3.27
190.521	-8.24
190.74	-19.6
190.959	-220.18
191.178	-310.06
191.398	-1190.11
191.617	-209.23
191.836	-92.08
192.055	23.71
192.274	148.23
192.494	144.18
192.713	171.17
192.932	224.5
193.151	196.66
193.37	205.03
193.589	201.5
193.808	201.84
194.027	867.48
194.246	1436.54
194.465	-5908.65
194.685	302.48
194.904	345.72
195.123	77.74
195.342	-552.07
195.561	-38
195.78	-277.67
195.999	-192.49
196.218	-117.87
196.436	-92.79
196.655	-42.66
196.874	-24.07
197.093	-15.79
197.312	-4.31
197.531	-4.09
197.75	22.23
197.969	23.54
198.188	21.63
198.407	47.08
198.625	33.34
198.844	40.13
199.063	38.19
199.282	47.77
199.501	38.33
199.719	62.39
199.938	69.47
200.157	50.83
200.376	29.64
200.594	11.26
200.813	-48.44
201.032	-128.17
201.251	-82.1
201.469	-121.5
201.688	-354.93
201.907	-291.42
202.125	-176.54
202.344	-225.25
202.563	-272.84
202.781	-228.32
203	-112.8
203.218	-15.78
203.437	-155.53
203.656	-392.05
203.874	-651.4
204.093	-17.35
204.311	-105.65
204.53	4166.15
204.748	-942.95
204.967	-37.21
205.185	-257.23
205.404	-240.25
205.622	-58.68
205.841	11.66
206.059	23.14
206.278	13.32
206.496	43.21
206.715	57.63
206.933	65.26
207.151	53.98
207.37	11.05
207.588	-88.87
207.806	-77.23
208.025	-67.99
208.243	500.85
208.461	-171.46
208.68	-119.41
208.898	-311.98
209.116	-803.04
209.335	1049.53
209.553	-532.37
209.771	-74.79
209.989	-89.87
210.208	1.87
210.426	-309.95
210.644	292.12
210.862	-370.04
211.081	-181.76
211.299	8789.74
211.517	-407.24
211.735	405.72
211.953	217.76
212.171	129.52
212.39	57.92
212.608	33.96
212.826	42.85
213.044	44.15
213.262	66.54
213.48	48.49
213.698	26.88
213.916	38.23
214.134	56.01
214.352	79.83
214.57	109.77
214.788	127.35
215.006	97.28
215.224	90.24
215.442	49.71
215.66	10.42
215.878	0.21
216.096	35.3
216.314	33.76
216.532	26.79
216.75	20.82
216.968	-3.71
217.185	-18.63
217.403	2.55
217.621	-13.33
217.839	28.6
218.057	43.4
218.275	23.99
218.492	34.86
218.71	43.98
218.928	27.65
219.146	25.58
219.363	49.79
219.581	47.17
219.799	70.38
220.017	91.79
220.234	62.59
220.452	40.7
220.67	56.65
220.887	59.18
221.105	62.06
221.323	81.7
221.54	79.46
221.758	71.47
221.976	77.93
222.193	48.19
222.411	43.96
222.629	50.07
222.846	62.75
223.064	56.48
223.281	50.5
223.499	30.47
223.716	4.18
223.934	6.4
224.151	8.68
224.369	4.11
224.586	19.22
224.804	10.99
225.021	23.25
225.239	-27.48
225.456	7.16
225.674	-7.82
225.891	-3.85
226.108	19.94
226.326	9.87
226.543	2.06
226.76	-1.54
226.978	9.41
227.195	12.31
227.413	3.64
227.63	7.75
227.847	5.56
228.064	5.95
228.282	9.04
228.499	11.53
228.716	11.6
228.934	15.37
229.151	15.15
229.368	11.22
229.585	10.73
229.802	12.74
230.02	14.07
230.237	15.35
230.454	13.22
230.671	13.78
230.888	12.88
231.105	14.39
231.323	10.21
231.54	12.42
231.757	15.86
231.974	18.8
232.191	16.16
232.408	20.45
232.625	16.21
232.842	23.49
233.059	19.37
233.276	10.7
233.493	10.13
233.71	11.72
233.927	10.43
234.144	5.14
234.361	5.17
234.578	4.41
234.795	0.62
235.012	0.54
235.229	5.49
235.446	11.99
235.663	13.25
235.879	12.88
236.096	15.92
236.313	16.93
236.53	17.99
236.747	15.79
236.964	16.64
237.181	15.98
237.397	25.06
237.614	19.14
237.831	11.09
238.048	17.92
238.264	19.62
238.481	21.09
238.698	25.17
238.915	25.39
239.131	30.12
239.348	29.13
239.565	26.6
239.781	20.2
239.998	18.83
240.215	19.24
240.431	16.38
240.648	9.71
240.865	8.04
241.081	5.2
241.298	2.34
241.514	0.32
241.731	1.3
241.947	3.97
242.164	6.25
242.38	7.49
242.597	8.76
242.814	9.16
243.03	9.21
243.246	9.07
243.463	5.93
243.679	7.89
243.896	7.78
244.112	8.77
244.329	7.66
244.545	5.04
244.762	6.43
244.978	1.98
245.194	1.61
245.411	4.42
245.627	3.72
245.843	6.56
246.06	5.62
246.276	6.09
246.492	4.42
246.709	3.58
246.925	3.23
247.141	3.08
247.357	4.43
247.574	4.95
247.79	6.16
248.006	6.3
248.222	5.66
248.439	4.86
248.655	3.62
248.871	3.54
249.087	4.03
249.303	5.19
249.519	5.63
249.736	4.96
249.952	2.34
250.168	-1.59
250.384	-2.7
250.6	0.46
250.816	0.53
251.032	3.49
251.248	4.06
251.464	5.29
251.68	3.56
251.896	1.93
252.112	2.9
252.328	4.62
252.544	5.02
252.76	5.62
252.976	4.48
253.192	6.3
253.408	4.85
253.624	6.93
253.84	4.52
254.056	7.8
254.272	9.81
254.487	8.96
254.703	10.77
254.919	8.33
255.135	6.12
255.351	7.36
255.567	6.46
255.782	5.38
255.998	-0.99
256.214	1.19
256.43	-3.31
256.646	-7.3
256.861	-8.02
257.077	-12.68
257.293	-6.34
257.508	-4.09
257.724	-4.82
257.94	-2.74
258.155	-0.38
258.371	2.73
258.587	3.15
258.802	4.18
259.018	4.61
259.234	5.8
259.449	7.07
259.665	5.67
259.88	5.55
260.096	5.4
260.312	4.55
260.527	4.86
260.743	4.9
260.958	5.39
261.174	5.42
261.389	6.01
261.605	6.11
261.82	6.22
262.036	7.83
262.251	7.42
262.466	7.37
262.682	9.54
262.897	9.31
263.113	8.69
263.328	5.11
263.543	5.75
263.759	6.34
263.974	4.26
264.189	4.08
264.405	2.05
264.62	6.27
264.835	7.54
265.051	5.97
265.266	5.56
265.481	5.35
265.696	8.25
265.912	7.46
266.127	5.12
266.342	7.54
266.557	7.59
266.773	7.87
266.988	4.72
267.203	4.7
267.418	6.08
267.633	6.79
267.848	7.68
268.064	6.32
268.279	6.07
268.494	8.19
268.709	9.06
268.924	8.06
269.139	8.33
269.354	10.5
269.569	9.48
269.784	8.51
269.999	8.75
270.214	9.54
270.429	8.48
270.644	8.19
270.859	6.79
271.074	5.68
271.289	7.01
271.504	6.35
271.719	5.5
271.934	5.25
272.149	4.21
272.363	3.74
272.578	2.53
272.793	3.57
273.008	5.33
273.223	5.17
273.438	4.89
273.653	4.01
273.867	6.04
274.082	6
274.297	7.33
274.512	7.37
274.726	9.53
274.941	10.39
275.156	12.44
275.371	10.46
275.585	11.53
275.8	9.81
276.015	10.57
276.229	8.74
276.444	9.38
276.659	9.08
276.873	12.46
277.088	10.19
277.302	10.64
277.517	9.43
277.732	11.42
277.946	10.58
278.161	11.26
278.375	10.3
278.59	11.26
278.804	11.16
279.019	12.64
279.233	11.92
279.448	12.83
279.662	12.15
279.877	12.79
280.091	10.52
280.306	9.34
280.52	11.51
280.735	13.27
280.949	13.52
281.163	13.45
281.378	12.8
281.592	13.3
281.806	12.28
282.021	11.49
282.235	11.38
282.449	12.75
282.664	13.83
282.878	12.11
283.092	11.5
283.307	10.07
283.521	9.17
283.735	8.92
283.949	6.24
284.164	6.12
284.378	6.88
284.592	6.38
284.806	5.09
285.02	5.65
285.234	6.2
285.449	6.1
285.663	6.22
285.877	6.49
286.091	5.51
286.305	6.19
286.519	5.28
286.733	5.13
286.947	4.66
287.161	4.64
287.375	3.67
287.589	3.4
287.803	1.51
288.017	1.71
288.231	3.63
288.445	3.7
288.659	4.11
288.873	5.44
289.087	4.59
289.301	4.71
289.515	5.32
289.729	6.43
289.943	6.67
290.157	7.98
290.371	7.72
290.584	5.91
290.798	6.64
291.012	6.69
291.226	7.11
291.44	6.38
291.654	8.1
291.867	8.4
292.081	7.38
292.295	8.19
292.509	7.46
292.722	7.3
292.936	7.61
293.15	8.03
293.364	5.97
293.577	5.64
293.791	7
294.005	5.63
294.218	6.82
294.432	7.2
294.645	6.55
294.859	6.73
295.073	7.17
295.286	5.27
295.5	3.63
295.713	6.23
295.927	5.77
296.14	6.05
296.354	6.63
296.568	7.42
296.781	9.12
296.994	9.71
297.208	9.46
297.421	9.64
297.635	10.12
297.848	10.81
298.062	10.11
298.275	11.05
298.489	10.57
298.702	9.55
298.915	8.67
299.129	7.6
299.342	7.39
299.555	7.6
299.769	7.12
299.982	7.36
300.195	8.08
300.409	7.87
300.622	4.8
300.835	6.16
301.048	7.45
301.262	5.85
301.475	6.08
301.688	6.74
301.901	6.51
302.115	7.61
302.328	8.24
302.541	7.54
302.754	7.76
302.967	11.28
303.18	10.07
303.393	10.08
303.607	11.47
303.82	11.65
304.033	11.15
304.246	12.45
304.459	10.7
304.672	10.83
304.885	10.43
305.098	11.05
305.311	10.94
305.524	11.42
305.737	12.17
305.95	12.33
306.163	11.1
306.376	8.85
306.589	7.83
306.802	9.18
307.015	11.23
307.228	12.38
307.44	11.6
307.653	9.37
307.866	9.58
308.079	9.94
308.292	9.17
308.505	8.61
308.718	9.42
308.93	9.64
309.143	8.89
309.356	8.26
309.569	8.96
309.781	9.14
309.994	10.7
310.207	10.65
310.42	10.48
310.632	10.83
310.845	10.78
311.058	12.61
311.27	13.05
311.483	12.68
311.696	11.28
311.908	10.51
312.121	10.07
312.333	10.62
312.546	10.82
312.759	9.94
312.971	9.61
313.184	10.5
313.396	9.57
313.609	8.85
313.821	11.37
314.034	11.71
314.246	12.09
314.459	13.37
314.671	13.09
314.884	12.75
315.096	12.89
315.309	12.11
315.521	11.36
315.733	10.02
315.946	10.71
316.158	8.54
316.371	9.24
316.583	8.34
316.795	8.01
317.008	6.7
317.22	8.31
317.432	9.98
317.644	11.28
317.857	11.99
318.069	12.93
318.281	13.2
318.494	13.13
318.706	11.78
318.918	11.43
319.13	11.3
319.342	10.14
319.555	10.02
319.767	8.08
319.979	7.93
320.191	7.7
320.403	7.23
320.615	7.11
320.827	8.77
321.039	10.14
321.252	11.05
321.464	10.11
321.676	10.99
321.888	10.92
322.1	11.84
322.312	10.74
322.524	11.49
322.736	12.47
322.948	12.55
323.16	12.67
323.372	13.79
323.584	12.44
323.796	14.22
324.007	14.41
324.219	13.77
324.431	15.11
324.643	16.25
324.855	16.31
325.067	15.46
325.279	15.22
325.491	15.15
325.702	13.75
325.914	14.53
326.126	12.84
326.338	11.52
326.55	11.56
326.761	9.67
326.973	11.42
327.185	10.44
327.396	9.63
327.608	8.91
327.82	7.53
328.032	7.6
328.243	7.43
328.455	9.62
328.666	11.98
328.878	12.49
329.09	13.42
329.301	10.99
329.513	10.98
329.725	13.57
329.936	14.31
330.148	15.5
330.359	16.87
330.571	18.32
330.782	17.66
330.994	16.87
331.205	17.56
331.417	16.68
331.628	17.16
331.84	17.92
332.051	17.64
332.262	18.82
332.474	20.35
332.685	20.64
332.897	20.31
333.108	20.93
333.319	21.25
333.531	20.5
333.742	21.29
333.953	21.09
334.165	21.47
334.376	20.86
334.587	20.45
334.799	18.55
335.01	18.4
335.221	16.99
335.432	17.58
335.644	17.35
335.855	17.71
336.066	17.17
336.277	17.37
336.488	17.42
336.7	17.63
336.911	19.21
337.122	18.15
337.333	18.25
337.544	18.18
337.755	16.91
337.966	17.19
338.177	17.24
338.388	16.55
338.599	17.47
338.811	17.15
339.022	16.37
339.233	15.78
339.444	17.5
339.655	17.5
339.866	15.95
340.076	16.9
340.287	17.34
340.498	18.01
340.709	20.35
340.92	20.7
341.131	19.6
341.342	20.77
341.553	19.66
341.764	19.39
341.975	20.42
342.185	22.55
342.396	23.61
342.607	23.77
342.818	23.44
343.029	22.83
343.239	23.31
343.45	25.96
343.661	26.34
343.872	26.83
344.082	28.67
344.293	27.01
344.504	27.3
344.714	26.04
344.925	25.01
345.136	24.64
345.346	24.74
345.557	22.8
345.768	22.09
345.978	21.82
346.189	21.25
346.399	18.78
346.61	19.35
346.821	20.73
347.031	21.42
347.242	22.71
347.452	22.85
347.663	22.93
347.873	24.17
348.084	22.92
348.294	23.26
348.504	23.34
348.715	26.23
348.925	25.32
349.136	24.77
349.346	23.56
349.557	22.59
349.767	23.37
349.977	23
350.188	23.16
350.398	23.57
350.608	23.13
350.819	23.72
351.029	21.39
351.239	22.05
351.449	21.95
351.66	22.78
351.87	24.01
352.08	23.43
352.29	23.7
352.501	23.12
352.711	23.6
352.921	22.94
353.131	22.17
353.341	22.14
353.552	22.1
353.762	21.83
353.972	21.61
354.182	22.33
354.392	22.68
354.602	23.15
354.812	23.58
355.022	23.65
355.232	25.34
355.442	25.99
355.652	26.88
355.862	27.45
356.072	28.49
356.282	28.51
356.492	27.03
356.702	26.34
356.912	25.79
357.122	25.79
357.332	25.42
357.542	24.28
357.752	24.55
357.962	24.56
358.171	24.49
358.381	23.51
358.591	23.33
358.801	23.23
359.011	23.33
359.221	23.16
359.43	23.45
359.64	23.33
359.85	23.62
360.06	23.57
360.269	23.35
360.479	22.82
360.689	22.24
360.899	22.09
361.108	21.61
361.318	22
361.528	23.09
361.737	22.11
361.947	22.58
362.156	22
362.366	22.25
362.576	22.41
362.785	22.42
362.995	23.22
363.204	23.19
363.414	23.67
363.623	22.99
363.833	22.2
364.042	22.92
364.252	22.24
364.461	22.79
364.671	22.22
364.88	21.97
365.09	21.88
365.299	21.44
365.509	20.94
365.718	20.07
365.927	20.21
366.137	20.32
366.346	19.84
366.555	20.36
366.765	20.11
366.974	20.05
367.183	19.75
367.393	20.57
367.602	20.17
367.811	21.27
368.021	21.95
368.23	22.29
368.439	22.78
368.648	23
368.857	23.4
369.067	24.03
369.276	24.04
369.485	24.49
369.694	23.02
369.903	23.75
370.112	22.89
370.321	23.25
370.531	23.22
370.74	22.59
370.949	22.6
371.158	21.54
371.367	20.48
371.576	20.67
371.785	20.72
371.994	20.85
372.203	21.07
372.412	21.93
372.621	21.68
372.83	22.28
373.039	22.27
373.248	22.69
373.457	23
373.666	23.76
373.874	23.55
374.083	23.45
374.292	24.22
374.501	24.16
374.71	23.13
374.919	23.35
375.128	22.75
375.336	22.3
375.545	22.52
375.754	22.63
375.963	22.8
376.171	22.26
376.38	22.28
376.589	22.7
376.798	21.51
377.006	22.18
377.215	21.77
377.424	21.48
377.632	21.79
377.841	21.08
378.05	21.5
378.258	21.19
378.467	21.68
378.675	21.56
378.884	20.85
379.093	20.97
379.301	20.72
379.51	20.73
379.718	20.83
379.927	20.48
380.135	20.38
380.344	19.86
380.552	19.99
380.761	19.24
380.969	19.37
381.177	19.01
381.386	19.98
381.594	20.17
381.803	20.32
382.011	20.1
382.219	20.33
382.428	20.46
382.636	20.04
382.845	19.77
383.053	19.76
383.261	19.22
383.469	19.24
383.678	18.19
383.886	17.91
384.094	17.64
384.302	17.69
384.511	17.56
384.719	17.38
384.927	17.97
385.135	18.6
385.343	19.33
385.552	19.47
385.76	20.02
385.968	19.93
386.176	19.7
386.384	19.45
386.592	19.28
386.8	19.11
387.008	19.85
387.216	19.59
387.424	18.68
387.633	18.13
387.841	17.92
388.049	17.88
388.257	18.42
388.465	18.53
388.672	18.77
388.88	18.85
389.088	19.02
389.296	18.29
389.504	18.22
389.712	18.81
389.92	18.67
390.128	18.82
390.336	18.53
390.544	18.69
390.751	18.82
390.959	19.11
391.167	18.98
391.375	18.95
391.583	18.82
391.79	19.16
391.998	18.89
392.206	18.7
392.414	18.41
392.621	18.16
392.829	17.74
393.037	17.79
393.244	17.85
393.452	18.07
393.66	18.08
393.867	18.34
394.075	18.25
394.283	18.16
394.49	18.53
394.698	18.81
394.905	19.36
395.113	19.57
395.32	19.35
395.528	19.1
395.735	19
395.943	19.02
396.15	18.92
396.358	18.82
396.565	18.73
396.773	19.05
396.98	19.03
397.188	18.97
397.395	19.02
397.602	19.32
397.81	19.31
398.017	19.46
398.225	19.41
398.432	19.63
398.639	19.45
398.847	19.99
399.054	19.76
399.261	19.43
399.468	19.34
399.676	19.33
399.883	18.86
400.09	18.73
400.297	18.65
400.505	18.65
400.712	18.33
400.919	18.56
401.126	18.4
401.333	18.24
401.54	18.48
401.748	18.71
401.955	18.63
402.162	18.89
402.369	18.97
402.576	18.77
402.783	18.75
402.99	18.85
403.197	18.62
403.404	18.31
403.611	18.54
403.818	18.83
404.025	18.65
404.232	18.64
404.439	18.94
404.646	19.08
404.853	19.33
405.06	19.49
405.267	19.41
405.474	19.54
405.681	19.5
405.887	19.46
406.094	19.54
406.301	19.46
406.508	19.6
406.715	19.42
406.922	19.66
407.128	19.68
407.335	19.4
407.542	19.62
407.749	19.77
407.955	20.17
408.162	20.21
408.369	19.81
408.575	19.86
408.782	19.83
408.989	19.58
409.195	19.34
409.402	19.3
409.609	19.88
409.815	19.82
410.022	19.54
410.228	19.51
410.435	19.32
410.642	19.68
410.848	19.57
411.055	19.56
411.261	19.8
411.468	20.15
411.674	20.19
411.881	19.75
412.087	19.58
412.294	19.61
412.5	19.37
412.706	19.67
412.913	19.28
413.119	19.59
413.326	19.49
413.532	19.43
413.738	19.2
413.945	19.32
414.151	19.46
414.357	19.67
414.564	19.5
414.77	19.55
414.976	19.35
415.182	19.23
415.389	19.18
415.595	19.26
415.801	19.22
416.007	19.14
416.214	19.14
416.42	19.13
416.626	18.91
416.832	19.13
417.038	18.97
417.244	18.99
417.45	19.26
417.657	19.14
417.863	19.07
418.069	19.02
418.275	18.9
418.481	18.89
418.687	18.95
418.893	18.91
419.099	18.85
419.305	18.86
419.511	18.75
419.717	18.7
419.923	18.65
420.129	18.62
420.335	18.61
420.541	18.5
420.746	18.32
420.952	18.1
421.158	18.13
421.364	18.02
421.57	17.93
421.776	17.88
421.982	17.81
422.187	17.84
422.393	17.92
422.599	17.83
422.805	17.82
423.01	17.79
423.216	17.82
423.422	17.79
423.628	17.83
423.833	18
424.039	18.04
424.245	17.96
424.45	17.97
424.656	17.75
424.862	17.74
425.067	17.81
425.273	17.9
425.478	17.88
425.684	18.02
425.889	18
426.095	18.07
426.301	18.16
426.506	18.21
426.712	18.19
426.917	18.35
427.123	18.26
427.328	18.28
427.533	18.27
427.739	18.48
427.944	18.32
428.15	18.29
428.355	17.94
428.561	17.67
428.766	17.7
428.971	17.74
429.177	17.79
429.382	17.95
429.587	17.94
429.793	17.63
429.998	17.31
430.203	17.46
430.408	17.37
430.614	17.42
430.819	17.57
431.024	17.72
431.229	17.52
431.434	17.26
431.64	17.22
431.845	17.03
432.05	17.22
432.255	17.33
432.46	17.15
432.665	17.42
432.87	17.53
433.076	17.59
433.281	17.43
433.486	17.35
433.691	17.46
433.896	17.4
434.101	17.53
434.306	17.55
434.511	17.58
434.716	17.55
434.921	17.46
435.126	17.32
435.331	17.11
435.535	17.46
435.74	17.46
435.945	17.56
436.15	17.77
436.355	17.8
436.56	17.55
436.765	17.6
436.97	17.73
437.174	17.78
437.379	17.9
437.584	17.97
437.789	17.64
437.993	17.69
438.198	17.66
438.403	17.69
438.608	17.71
438.812	17.88
439.017	17.75
439.222	17.76
439.426	17.7
439.631	17.73
439.836	17.82
440.04	17.73
440.245	17.75
440.45	17.72
440.654	17.72
440.859	17.82
441.063	17.8
441.268	17.86
441.472	17.92
441.677	17.96
441.881	17.91
442.086	17.79
442.29	17.77
442.495	17.78
442.699	17.8
442.904	17.79
443.108	17.62
443.312	17.62
443.517	17.75
443.721	17.53
443.925	17.58
444.13	17.4
444.334	17.38
444.538	17.51
444.743	17.45
444.947	17.38
445.151	17.41
445.356	17.55
445.56	17.66
445.764	17.46
445.968	17.54
446.173	17.36
446.377	17.5
446.581	17.48
446.785	17.55
446.989	17.37
447.193	17.39
447.398	17.22
447.602	17.12
447.806	17.07
448.01	17.22
448.214	17.11
448.418	17.3
448.622	17.35
448.826	17.4
449.03	17.36
449.234	17.51
449.438	17.5
449.642	17.48
449.846	17.51
450.05	17.46
450.254	17.39
450.458	17.49
450.662	17.33
450.866	17.23
451.069	17.16
451.273	17
451.477	17.16
451.681	17.05
451.885	17.32
452.089	17.21
452.292	17.12
452.496	17.19
452.7	17.22
452.904	17.16
453.107	17.03
453.311	17.23
453.515	17.12
453.719	17.09
453.922	17.24
454.126	16.97
454.33	16.87
454.533	17.07
454.737	16.82
454.94	16.94
455.144	16.88
455.348	17.07
455.551	16.98
455.755	17.16
455.958	17.18
456.162	17.16
456.365	17.27
456.569	17.32
456.772	17.17
456.976	17.24
457.179	17.23
457.383	17.29
457.586	17.2
457.79	17.14
457.993	17.14
458.196	17.15
458.4	17.21
458.603	17.19
458.807	17.21
459.01	17.2
459.213	17.21
459.417	17.07
459.62	17.07
