Data from 2938112_Reflection_3.txt Node
Date: Sat Jul 11 18:22:56 EDT 2015
User: robert
Spectrometer: USB4E03001
Autoset integration time: false
Trigger mode: 4
Integration Time (sec): 1.000000E-1
Scans to average: 10
Electric dark correction enabled: true
Nonlinearity correction enabled: false
Boxcar width: 5
Stray light correction enabled: false
XAxis mode: Wavelengths
Stop averaging: false
Number of Pixels in Spectrum: 3648
>>>>>Begin Spectral Data<<<<<
177.566	13.03
177.785	77.35
178.005	-170.49
178.225	-115.98
178.445	-108.04
178.665	-2712.9
178.885	-290.22
179.105	140.6
179.324	56.66
179.544	21.49
179.764	148.8
179.984	-597.93
180.204	-53.28
180.423	-4.76
180.643	-2.04
180.863	-27.24
181.083	-16.95
181.302	10.41
181.522	-20.15
181.742	7.35
181.961	-620.41
182.181	264.28
182.401	217.88
182.621	78.14
182.84	113.62
183.06	122.07
183.279	3.63
183.499	-9.19
183.719	14.55
183.938	47.01
184.158	39.46
184.377	-90.73
184.597	-142.86
184.816	-101.87
185.036	-3.65
185.256	-89.94
185.475	46.9
185.695	94.63
185.914	71.12
186.134	171.99
186.353	197.17
186.572	371.68
186.792	-212.64
187.011	-125.84
187.231	-97.65
187.45	-62.21
187.67	-40.8
187.889	-8.37
188.108	-62.81
188.328	-77.54
188.547	-52.27
188.766	-64.72
188.986	1001.7
189.205	471.74
189.424	291.05
189.644	190.51
189.863	233.3
190.082	385.97
190.302	340.28
190.521	316.38
190.74	228.46
190.959	860
191.178	17190.48
191.398	1843.23
191.617	-77.38
191.836	-95.69
192.055	-53.15
192.274	-23.06
192.494	42.34
192.713	29.75
192.932	173.63
193.151	1789.36
193.37	-41000
193.589	60.45
193.808	-106.71
194.027	-26.18
194.246	-43.91
194.465	-24.25
194.685	18.65
194.904	63.03
195.123	55.85
195.342	20.26
195.561	27.1
195.78	41.4
195.999	61.67
196.218	57.98
196.436	33.36
196.655	13.35
196.874	32.2
197.093	28.51
197.312	23.68
197.531	25.31
197.75	-7.86
197.969	-56.69
198.188	-155.99
198.407	-48.78
198.625	-24.19
198.844	-42.24
199.063	36.53
199.282	1697.25
199.501	-230.32
199.719	-4332.88
199.938	401.9
200.157	-13.6
200.376	72.87
200.594	80
200.813	526.14
201.032	140.89
201.251	155.14
201.469	102.55
201.688	103.66
201.907	105.75
202.125	101.34
202.344	104.28
202.563	95.7
202.781	146.16
203	160.81
203.218	138.58
203.437	98.83
203.656	116.28
203.874	125.96
204.093	127.92
204.311	154.73
204.53	127.46
204.748	176.74
204.967	152.57
205.185	126.89
205.404	109.29
205.622	136.19
205.841	309.19
206.059	172.48
206.278	169.86
206.496	197.69
206.715	193.59
206.933	293.56
207.151	-243.9
207.37	-408.87
207.588	-96.66
207.806	23.6
208.025	75.88
208.243	-72.41
208.461	-166.99
208.68	-399.81
208.898	1160.14
209.116	688.87
209.335	167.41
209.553	-114.19
209.771	-353.8
209.989	-47.39
210.208	-120.79
210.426	340
210.644	54.66
210.862	-16.78
211.081	11.4
211.299	-31.9
211.517	5.2
211.735	60.86
211.953	150.8
212.171	88.55
212.39	97.84
212.608	104.13
212.826	138.65
213.044	117.04
213.262	127.48
213.48	56.01
213.698	88.2
213.916	86.33
214.134	39.8
214.352	-5.89
214.57	-46.98
214.788	-198.55
215.006	-1594.5
215.224	-13772.22
215.442	-521.07
215.66	-1797.54
215.878	42.02
216.096	54.02
216.314	1044.74
216.532	1319.64
216.75	-4.37
216.968	340.74
217.185	122.76
217.403	132.58
217.621	63.74
217.839	45.59
218.057	77.21
218.275	-310
218.492	-59.01
218.71	-52.72
218.928	-12
219.146	1.46
219.363	20.41
219.581	-7.36
219.799	-47.58
220.017	-35.61
220.234	-14.97
220.452	-9.41
220.67	3.69
220.887	12.95
221.105	25.08
221.323	26.18
221.54	39.88
221.758	41.24
221.976	36.83
222.193	59.7
222.411	44.32
222.629	23.31
222.846	9.49
223.064	10.95
223.281	16.5
223.499	22.13
223.716	24.85
223.934	12.41
224.151	16.5
224.369	19.21
224.586	9.81
224.804	5.71
225.021	-0.93
225.239	16.22
225.456	11.65
225.674	-2
225.891	-30.94
226.108	-8.43
226.326	-13.25
226.543	-14.93
226.76	-16.17
226.978	-15.71
227.195	4.54
227.413	14.89
227.63	9.35
227.847	3.39
228.064	2.71
228.282	-0.05
228.499	-4.08
228.716	-0.83
228.934	1.75
229.151	4.35
229.368	10.89
229.585	7.26
229.802	9.21
230.02	13.03
230.237	16.22
230.454	18.42
230.671	21.57
230.888	23.16
231.105	25
231.323	22.3
231.54	20.05
231.757	14.93
231.974	19.23
232.191	18.78
232.408	10.11
232.625	10.85
232.842	11.36
233.059	15.29
233.276	17.72
233.493	18.62
233.71	19.36
233.927	22.25
234.144	17.16
234.361	15.9
234.578	12.26
234.795	16.41
235.012	15.87
235.229	12.59
235.446	6.09
235.663	2
235.879	7.77
236.096	8.85
236.313	8.2
236.53	10.92
236.747	11.55
236.964	16.63
237.181	13.41
237.397	12.96
237.614	7.14
237.831	13.56
238.048	11.95
238.264	0.54
238.481	3.42
238.698	3.4
238.915	3.12
239.131	3.88
239.348	0.08
239.565	2.06
239.781	0.15
239.998	2.92
240.215	5.7
240.431	10.23
240.648	9.42
240.865	9.68
241.081	11.86
241.298	10.3
241.514	12.12
241.731	10.27
241.947	10.76
242.164	10.61
242.38	11.47
242.597	6.57
242.814	3.92
243.03	5.04
243.246	2.68
243.463	1.82
243.679	2.44
243.896	-1.41
244.112	0.79
244.329	-2.9
244.545	-1.77
244.762	-1.63
244.978	3.19
245.194	5
245.411	7.5
245.627	8.2
245.843	7.61
246.06	6.67
246.276	7.57
246.492	7.76
246.709	8.66
246.925	8.29
247.141	8.52
247.357	8.27
247.574	7.24
247.79	6.04
248.006	5.14
248.222	6.02
248.439	5.95
248.655	5.39
248.871	4.77
249.087	5.01
249.303	4.48
249.519	2.8
249.736	1.17
249.952	2.19
250.168	-0.21
250.384	3.65
250.6	1.45
250.816	2.33
251.032	2.95
251.248	-0.47
251.464	-0.56
251.68	-1.07
251.896	-0.25
252.112	0.01
252.328	1.87
252.544	2.66
252.76	1.35
252.976	2.01
253.192	2.54
253.408	3.43
253.624	7.19
253.84	6.74
254.056	7.97
254.272	13.21
254.487	17.7
254.703	18.19
254.919	24.03
255.135	22.3
255.351	23.4
255.567	27.44
255.782	25.45
255.998	22.21
256.214	20.85
256.43	21.76
256.646	17.47
256.861	12.01
257.077	10.97
257.293	6.91
257.508	6.4
257.724	1.38
257.94	-2.69
258.155	-2.35
258.371	-1.41
258.587	-0.37
258.802	-2.3
259.018	-1.03
259.234	1.21
259.449	1.84
259.665	1.79
259.88	2.13
260.096	3.61
260.312	4.03
260.527	4.5
260.743	5.09
260.958	5.05
261.174	5.69
261.389	5.3
261.605	4.41
261.82	3.42
262.036	3.53
262.251	3.3
262.466	2.85
262.682	3.44
262.897	4.21
263.113	3.46
263.328	3.81
263.543	6.13
263.759	7.11
263.974	8.67
264.189	9.56
264.405	8.36
264.62	10.27
264.835	9.62
265.051	10.79
265.266	9.5
265.481	8.25
265.696	7.23
265.912	3.11
266.127	1.86
266.342	0.15
266.557	0.25
266.773	1.33
266.988	-0.12
267.203	0.03
267.418	-1.73
267.633	-1.45
267.848	-1.79
268.064	-1.53
268.279	0.19
268.494	1.27
268.709	0.75
268.924	0.21
269.139	2.26
269.354	3.52
269.569	1.95
269.784	3.64
269.999	3.81
270.214	4.55
270.429	4.18
270.644	4.08
270.859	3.55
271.074	3.85
271.289	3.86
271.504	3.06
271.719	2.83
271.934	4.28
272.149	2.69
272.363	3.43
272.578	4.8
272.793	6.36
273.008	6.09
273.223	6.65
273.438	7.62
273.653	7.76
273.867	7.4
274.082	8.28
274.297	8.87
274.512	10.36
274.726	8.62
274.941	7.43
275.156	5.85
275.371	6.77
275.585	3.73
275.8	2.47
276.015	3.65
276.229	2.22
276.444	2.04
276.659	0.85
276.873	-0.63
277.088	1.71
277.302	3.44
277.517	4.75
277.732	4.8
277.946	7.57
278.161	10.72
278.375	8.25
278.59	12.27
278.804	10.84
279.019	9.47
279.233	9.92
279.448	7.83
279.662	7.55
279.877	7.67
280.091	7.53
280.306	7.05
280.52	5.8
280.735	6.48
280.949	5.95
281.163	5.78
281.378	7.54
281.592	6.9
281.806	7.55
282.021	5.98
282.235	5.9
282.449	6.91
282.664	7.59
282.878	7.25
283.092	9.56
283.307	9
283.521	11.29
283.735	10.58
283.949	10.25
284.164	10.98
284.378	10.57
284.592	10.08
284.806	8.4
285.02	8.26
285.234	8
285.449	5.86
285.663	4.64
285.877	3.58
286.091	5.53
286.305	5.76
286.519	7.04
286.733	7.18
286.947	6.63
287.161	8.75
287.375	8.44
287.589	6.5
287.803	7.55
288.017	8.19
288.231	8.01
288.445	4.99
288.659	5.19
288.873	4.15
289.087	4.49
289.301	5.07
289.515	1.82
289.729	2.63
289.943	3.62
290.157	3.63
290.371	3.22
290.584	4.07
290.798	5.3
291.012	5.16
291.226	4.37
291.44	3.81
291.654	4.22
291.867	5.75
292.081	4.5
292.295	4.09
292.509	3.76
292.722	3.24
292.936	2.17
293.15	1.38
293.364	2.87
293.577	2.93
293.791	4.7
294.005	5.14
294.218	5.03
294.432	5.92
294.645	7.38
294.859	7.15
295.073	8.22
295.286	7.35
295.5	7.13
295.713	5.07
295.927	6.61
296.14	6.14
296.354	6.09
296.568	6.18
296.781	5.5
296.994	5.92
297.208	4.83
297.421	3.85
297.635	3.39
297.848	4.18
298.062	5.55
298.275	5.05
298.489	4.76
298.702	4.17
298.915	4.22
299.129	3.98
299.342	3.13
299.555	3.89
299.769	5.17
299.982	7.4
300.195	6.63
300.409	8.07
300.622	6.94
300.835	6.54
301.048	7.29
301.262	6.36
301.475	6.49
301.688	7.26
301.901	8.72
302.115	7.65
302.328	7.03
302.541	8.05
302.754	5.48
302.967	6.86
303.18	8.28
303.393	7.65
303.607	9.96
303.82	12.6
304.033	13.41
304.246	12.55
304.459	14.45
304.672	12.81
304.885	10.83
305.098	11.74
305.311	11.24
305.524	10.46
305.737	10.99
305.95	8.32
306.163	6.17
306.376	7.35
306.589	7.9
306.802	7.28
307.015	9.08
307.228	12.62
307.44	12.32
307.653	13.94
307.866	14.23
308.079	13.49
308.292	15.24
308.505	15.26
308.718	11.75
308.93	11.08
309.143	8.85
309.356	9.54
309.569	6.93
309.781	7.72
309.994	5.24
310.207	5.16
310.42	6.74
310.632	7.42
310.845	7.85
311.058	9.11
311.27	9
311.483	10.76
311.696	10.88
311.908	12.03
312.121	11.61
312.333	13.86
312.546	14.09
312.759	13.52
312.971	11.64
313.184	10.96
313.396	11.6
313.609	10.53
313.821	9.74
314.034	10.74
314.246	8.78
314.459	8.44
314.671	7.6
314.884	7.98
315.096	9.06
315.309	8.47
315.521	9.92
315.733	9.98
315.946	13.16
316.158	15.05
316.371	13.31
316.583	14.07
316.795	14.48
317.008	12.71
317.22	12.06
317.432	10.29
317.644	12
317.857	10.17
318.069	9.87
318.281	10.72
318.494	7.78
318.706	6.52
318.918	6.22
319.13	7.5
319.342	8.13
319.555	7.73
319.767	7.57
319.979	7.88
320.191	9.02
320.403	7.75
320.615	5.77
320.827	8.37
321.039	8.24
321.252	10.55
321.464	8.61
321.676	7.63
321.888	7.73
322.1	8.04
322.312	7.29
322.524	6.97
322.736	7.58
322.948	7.67
323.16	7.28
323.372	8.81
323.584	9.5
323.796	12.55
324.007	12.88
324.219	15.03
324.431	14.44
324.643	14.09
324.855	13.93
325.067	14.37
325.279	13.42
325.491	14.34
325.702	14.73
325.914	14.05
326.126	12.83
326.338	11.45
326.55	8.07
326.761	9.02
326.973	9.45
327.185	9.93
327.396	8.49
327.608	9.93
327.82	10.92
328.032	11.3
328.243	10.04
328.455	9.74
328.666	11.75
328.878	14.34
329.09	14.07
329.301	15.18
329.513	16.58
329.725	19.97
329.936	20.03
330.148	17.5
330.359	17.33
330.571	19.89
330.782	20.43
330.994	18.1
331.205	18.91
331.417	20.19
331.628	19.6
331.84	18.13
332.051	16.38
332.262	17.37
332.474	19.98
332.685	19.98
332.897	18.74
333.108	18.13
333.319	21.87
333.531	21.18
333.742	19.8
333.953	22.26
334.165	23.34
334.376	23.67
334.587	23.53
334.799	22.58
335.01	22.45
335.221	23.98
335.432	24.13
335.644	21.89
335.855	20.55
336.066	20.53
336.277	20.05
336.488	19.14
336.7	18.53
336.911	16.98
337.122	15.83
337.333	16.52
337.544	14.61
337.755	13.55
337.966	14.64
338.177	17.25
338.388	18.16
338.599	16.5
338.811	16.03
339.022	16.22
339.233	16.43
339.444	17.1
339.655	15.85
339.866	16.3
340.076	17.6
340.287	17.51
340.498	16.89
340.709	17.28
340.92	18.71
341.131	20
341.342	19.65
341.553	20.19
341.764	20.01
341.975	20.11
342.185	20.93
342.396	21.45
342.607	21.21
342.818	20.63
343.029	20.26
343.239	19.29
343.45	18.73
343.661	19.44
343.872	20.5
344.082	20.81
344.293	21.81
344.504	22.49
344.714	22.18
344.925	22.59
345.136	23.62
345.346	21.47
345.557	22.46
345.768	23.28
345.978	23.41
346.189	23.19
346.399	24.24
346.61	24.18
346.821	24.79
347.031	25.2
347.242	24.85
347.452	24
347.663	25.9
347.873	26.37
348.084	26.65
348.294	26.85
348.504	28.09
348.715	26.89
348.925	27.02
349.136	24.97
349.346	23.89
349.557	24.15
349.767	24.77
349.977	26.42
350.188	23.77
350.398	23.77
350.608	23.28
350.819	21.36
351.029	21.16
351.239	20.84
351.449	22.4
351.66	22.03
351.87	22.01
352.08	22.12
352.29	21.06
352.501	21.94
352.711	21.58
352.921	21.94
353.131	22
353.341	22.6
353.552	23.53
353.762	21.23
353.972	21.81
354.182	22.9
354.392	21.78
354.602	21.87
354.812	23.13
355.022	22.98
355.232	24.44
355.442	24.41
355.652	24.22
355.862	22.08
356.072	23.73
356.282	23.59
356.492	23.17
356.702	23.51
356.912	24.13
357.122	23.37
357.332	25.09
357.542	23.23
357.752	23.55
357.962	23.22
358.171	25.39
358.381	24.61
358.591	25.57
358.801	25.2
359.011	26.12
359.221	25.69
359.43	26.31
359.64	24.68
359.85	24.93
360.06	25.91
360.269	26.63
360.479	26.31
360.689	27.32
360.899	26.07
361.108	26.13
361.318	25.45
361.528	24.81
361.737	25.03
361.947	24.38
362.156	24.16
362.366	24.1
362.576	24.41
362.785	24.52
362.995	24.35
363.204	25.06
363.414	25.63
363.623	25.24
363.833	25.84
364.042	25.19
364.252	26.14
364.461	27.59
364.671	26.49
364.88	25.68
365.09	25.7
365.299	25.7
365.509	26.14
365.718	25.71
365.927	26.83
366.137	27.82
366.346	28.7
366.555	29.14
366.765	28.66
366.974	29.15
367.183	29.29
367.393	28.38
367.602	27.02
367.811	27.17
368.021	26.15
368.23	26.16
368.439	26.12
368.648	24.93
368.857	24.99
369.067	24.71
369.276	24.77
369.485	24.63
369.694	24.68
369.903	26.81
370.112	26.31
370.321	27.74
370.531	26.79
370.74	26.85
370.949	26.7
371.158	25.02
371.367	25.19
371.576	24.7
371.785	24.88
371.994	25.31
372.203	24.45
372.412	24.39
372.621	24.33
372.83	24.81
373.039	23.65
373.248	23.86
373.457	24.6
373.666	24.52
373.874	24.87
374.083	24.73
374.292	24.45
374.501	24.04
374.71	22.63
374.919	21.99
375.128	21.49
375.336	22.27
375.545	22.44
375.754	22.9
375.963	22.79
376.171	22.15
376.38	21.47
376.589	22.44
376.798	23
377.006	23.82
377.215	24.37
377.424	24.47
377.632	24.5
377.841	24.42
378.05	24.53
378.258	25.44
378.467	26.74
378.675	27.78
378.884	27.28
379.093	26.98
379.301	26.97
379.51	26.67
379.718	27.2
379.927	26.93
380.135	26.78
380.344	26
380.552	24.71
380.761	23.93
380.969	24.34
381.177	24.63
381.386	23.77
381.594	23.9
381.803	23.74
382.011	23.8
382.219	23.29
382.428	24.03
382.636	24.4
382.845	24.24
383.053	24.59
383.261	23.29
383.469	22.71
383.678	22.97
383.886	22.79
384.094	23.19
384.302	23.06
384.511	23.19
384.719	22.07
384.927	21.82
385.135	22.02
385.343	21.29
385.552	21.94
385.76	22.01
385.968	21.96
386.176	22.51
386.384	22.06
386.592	21.82
386.8	22.38
387.008	23.07
387.216	23.21
387.424	23.11
387.633	23.4
387.841	23.32
388.049	23.77
388.257	24.38
388.465	23.72
388.672	23.6
388.88	23.43
389.088	22.86
389.296	22.46
389.504	22.16
389.712	22.56
389.92	22.42
390.128	22.09
390.336	21.5
390.544	21.07
390.751	21.34
390.959	21.42
391.167	21.91
391.375	21.97
391.583	22.13
391.79	22.5
391.998	22.27
392.206	22.61
392.414	22.67
392.621	22.79
392.829	23.08
393.037	22.94
393.244	23.04
393.452	22.85
393.66	23.01
393.867	23.22
394.075	22.91
394.283	23.21
394.49	23.17
394.698	23.54
394.905	23.28
395.113	22.93
395.32	22.82
395.528	22.76
395.735	22.7
395.943	22.87
396.15	22.97
396.358	23.3
396.565	23.13
396.773	23.26
396.98	22.86
397.188	23.31
397.395	23.45
397.602	23.63
397.81	23.83
398.017	24.06
398.225	23.9
398.432	23.61
398.639	23.88
398.847	24.06
399.054	23.68
399.261	23.82
399.468	23.7
399.676	24.1
399.883	24.46
400.09	24.57
400.297	24.37
400.505	24.41
400.712	24.69
400.919	24.73
401.126	24.86
401.333	25.2
401.54	25.44
401.748	25.67
401.955	25.49
402.162	25.49
402.369	25.57
402.576	25.58
402.783	25.56
402.99	25.73
403.197	25.62
403.404	25.57
403.611	25.47
403.818	25.29
404.025	25.35
404.232	25.51
404.439	25.46
404.646	25.58
404.853	25.89
405.06	25.96
405.267	25.72
405.474	25.8
405.681	25.75
405.887	25.94
406.094	26.2
406.301	26.19
406.508	26.24
406.715	26.2
406.922	26.23
407.128	25.86
407.335	25.72
407.542	25.78
407.749	25.58
407.955	25.49
408.162	25.44
408.369	25.31
408.575	25.3
408.782	25.11
408.989	25.29
409.195	25.26
409.402	25.56
409.609	25.75
409.815	25.81
410.022	25.91
410.228	26.05
410.435	25.84
410.642	25.9
410.848	25.86
411.055	25.96
411.261	25.93
411.468	25.86
411.674	25.7
411.881	25.71
412.087	25.62
412.294	25.62
412.5	25.44
412.706	25.6
412.913	25.75
413.119	25.77
413.326	25.42
413.532	25.38
413.738	25.46
413.945	25.26
414.151	25.2
414.357	25.22
414.564	25.06
414.77	25.16
414.976	25.2
415.182	24.98
415.389	24.51
415.595	24.49
415.801	24.35
416.007	24.26
416.214	24.57
416.42	24.57
416.626	24.55
416.832	24.72
417.038	24.69
417.244	24.65
417.45	24.53
417.657	24.82
417.863	25
418.069	24.99
418.275	24.88
418.481	24.65
418.687	24.52
418.893	24.5
419.099	24.59
419.305	24.53
419.511	24.45
419.717	24.44
419.923	24.36
420.129	24.21
420.335	24.26
420.541	24.35
420.746	24.46
420.952	24.48
421.158	24.58
421.364	24.44
421.57	24.43
421.776	24.41
421.982	24.47
422.187	24.6
422.393	24.63
422.599	24.64
422.805	24.49
423.01	24.41
423.216	24.32
423.422	24.11
423.628	24.04
423.833	24.03
424.039	24.21
424.245	24.12
424.45	24
424.656	24.02
424.862	23.95
425.067	23.92
425.273	23.95
425.478	24.1
425.684	24.17
425.889	24.22
426.095	24.18
426.301	24.02
426.506	24.15
426.712	24.14
426.917	24.12
427.123	24
427.328	24.05
427.533	23.98
427.739	23.81
427.944	24.1
428.15	23.94
428.355	24.03
428.561	24.15
428.766	24.03
428.971	24.18
429.177	24.18
429.382	24.17
429.587	24.25
429.793	24.19
429.998	24.33
430.203	23.84
430.408	23.94
430.614	23.94
430.819	23.99
431.024	23.97
431.229	23.95
431.434	23.84
431.64	23.9
431.845	23.65
432.05	23.58
432.255	23.54
432.46	23.66
432.665	23.64
432.87	23.4
433.076	23.16
433.281	23.13
433.486	22.96
433.691	23.16
433.896	23.12
434.101	23.31
434.306	23.4
434.511	23.3
434.716	23.33
434.921	23.38
435.126	23.63
435.331	23.86
435.535	23.73
435.74	23.8
435.945	23.46
436.15	23.64
436.355	23.57
436.56	23.6
436.765	23.77
436.97	23.83
437.174	23.78
437.379	23.67
437.584	23.51
437.789	23.54
437.993	23.62
438.198	23.9
438.403	23.79
438.608	23.82
438.812	23.76
439.017	23.59
439.222	23.37
439.426	23.52
439.631	23.44
439.836	23.24
440.04	23.34
440.245	23.2
440.45	23.19
440.654	23.25
440.859	23.13
441.063	23.19
441.268	23.08
441.472	23.19
441.677	23.16
441.881	23.19
442.086	23.38
442.29	23.26
442.495	23.3
442.699	23.24
442.904	23.04
443.108	23.02
443.312	23.05
443.517	23.06
443.721	23.16
443.925	23.01
444.13	23.06
444.334	22.89
444.538	23.03
444.743	23.09
444.947	22.94
445.151	23.03
445.356	23.16
445.56	23.15
445.764	23.32
445.968	23.26
446.173	23.46
446.377	23.47
446.581	23.51
446.785	23.4
446.989	23.34
447.193	23.5
447.398	23.55
447.602	23.55
447.806	23.46
448.01	23.38
448.214	23.46
448.418	23.28
448.622	23.35
448.826	23.44
449.03	23.56
449.234	23.64
449.438	23.65
449.642	23.49
449.846	23.58
450.05	23.64
450.254	23.75
450.458	23.64
450.662	23.55
450.866	23.15
451.069	22.9
451.273	23.09
451.477	23.06
451.681	23.04
451.885	23.04
452.089	22.91
452.292	22.9
452.496	22.74
452.7	22.61
452.904	22.5
453.107	22.6
453.311	22.88
453.515	22.74
453.719	22.68
453.922	22.54
454.126	22.5
454.33	22.46
454.533	22.39
454.737	22.39
454.94	22.6
455.144	22.75
455.348	22.96
455.551	22.79
455.755	22.63
455.958	22.75
456.162	22.69
456.365	22.9
456.569	22.89
456.772	22.95
456.976	22.94
457.179	22.69
457.383	22.81
457.586	22.7
457.79	22.8
457.993	22.81
458.196	22.82
458.4	23.09
458.603	23.04
458.807	23.1
459.01	23.08
459.213	23.12
459.417	23.16
459.62	23.03
459.823	22.98
460.026	22.89
460.23	22.95
