Data from 2938094_Reflection_2.txt Node
Date: Sat Jul 11 19:08:09 EDT 2015
User: robert
Spectrometer: USB4E03001
Autoset integration time: false
Trigger mode: 4
Integration Time (sec): 1.000000E-1
Scans to average: 10
Electric dark correction enabled: true
Nonlinearity correction enabled: false
Boxcar width: 5
Stray light correction enabled: false
XAxis mode: Wavelengths
Stop averaging: false
Number of Pixels in Spectrum: 3648
>>>>>Begin Spectral Data<<<<<
177.566	63.16
177.785	52.51
178.005	59.01
178.225	122.11
178.445	111.25
178.665	550
178.885	4.62
179.105	206.67
179.324	-207.41
179.544	108.33
179.764	34.04
179.984	60.54
180.204	34.92
180.423	13
180.643	-247.62
180.863	-68.47
181.083	-155.49
181.302	-55.56
181.522	-105.13
181.742	355.56
181.961	182.49
182.181	2550
182.401	1203.45
182.621	-328.28
182.84	760.38
183.06	860
183.279	-320.29
183.499	-42.11
183.719	-36.12
183.938	-30.08
184.158	-8.49
184.377	5.22
184.597	10.1
184.816	-15.78
185.036	-25.72
185.256	-29.98
185.475	-27.1
185.695	-36.17
185.914	-24.59
186.134	-15.34
186.353	10.47
186.572	0
186.792	11.51
187.011	25.5
187.231	54.44
187.45	72.97
187.67	91.36
187.889	88.63
188.108	99.53
188.328	95.12
188.547	80.5
188.766	64.83
188.986	63.06
189.205	58.13
189.424	53.59
189.644	34.86
189.863	13.93
190.082	12.89
190.302	-36.44
190.521	-60.89
190.74	-100.45
190.959	-463.93
191.178	-1261.54
191.398	-3371.43
191.617	-40
191.836	-32.35
192.055	54.59
192.274	125.68
192.494	59.37
192.713	114.78
192.932	159.85
193.151	121
193.37	54.11
193.589	-23.17
193.808	19.9
194.027	-472.73
194.246	-584.37
194.465	3987.5
194.685	-78.84
194.904	-153.23
195.123	-143.32
195.342	-1292.31
195.561	-181.06
195.78	-387.9
195.999	-191.12
196.218	-243.23
196.436	-196.01
196.655	-164.43
196.874	-82.04
197.093	-47.08
197.312	-27.04
197.531	-29.7
197.75	-12.67
197.969	-43.74
198.188	-38.05
198.407	0.99
198.625	22.38
198.844	48.49
199.063	53.84
199.282	61.39
199.501	50.21
199.719	45.83
199.938	59.64
200.157	40.99
200.376	78.3
200.594	73.51
200.813	40.65
201.032	27.05
201.251	14.15
201.469	-0.85
201.688	-28.12
201.907	-84.96
202.125	-21.43
202.344	-146.77
202.563	-314.16
202.781	-415.89
203	-377.88
203.218	-270.69
203.437	-206.67
203.656	-264.41
203.874	-500
204.093	45.12
204.311	80.85
204.53	1240
204.748	-312.5
204.967	262.16
205.185	1344
205.404	530.23
205.622	97.44
205.841	97.13
206.059	121.22
206.278	97.87
206.496	46.94
206.715	24.03
206.933	48.22
207.151	77.41
207.37	33.11
207.588	-87.57
207.806	31.08
208.025	44.3
208.243	344.44
208.461	37.68
208.68	-80.95
208.898	-31.15
209.116	-62.79
209.335	104.88
209.553	-145.83
209.771	6.71
209.989	209.66
210.208	278.47
210.426	-1829.41
210.644	635.71
210.862	236.84
211.081	-372.58
211.299	11300
211.517	-811.76
211.735	525.61
211.953	284.89
212.171	239.19
212.39	77.75
212.608	40.28
212.826	45.94
213.044	50.63
213.262	62.52
213.48	47.87
213.698	21.67
213.916	17.33
214.134	11.54
214.352	47.3
214.57	54.46
214.788	44.66
215.006	44.58
215.224	75.3
215.442	67.87
215.66	81
215.878	69.63
216.096	76.64
216.314	68.69
216.532	58.22
216.75	12.89
216.968	1.95
217.185	-18.21
217.403	-5.48
217.621	-46.76
217.839	-22.4
218.057	-78.6
218.275	-82.73
218.492	-12.33
218.71	8.58
218.928	9.54
219.146	12.62
219.363	33.92
219.581	23.71
219.799	-47.66
220.017	-40.14
220.234	-28.61
220.452	-10.12
220.67	17.68
220.887	27.75
221.105	21.23
221.323	19.06
221.54	22.82
221.758	-1.13
221.976	2.26
222.193	10.05
222.411	15.54
222.629	22.56
222.846	24.74
223.064	13.12
223.281	4.22
223.499	1.81
223.716	-16.39
223.934	-0.12
224.151	19.6
224.369	22.02
224.586	62.94
224.804	46.04
225.021	53.43
225.239	59.78
225.456	52.26
225.674	34.88
225.891	27.39
226.108	52
226.326	30.85
226.543	13.02
226.76	21.43
226.978	-1.07
227.195	16.93
227.413	7.21
227.63	-0.05
227.847	6.83
228.064	10.53
228.282	11.26
228.499	16.18
228.716	19.84
228.934	20.61
229.151	20.25
229.368	19.98
229.585	17.32
229.802	17.78
230.02	19.95
230.237	22.12
230.454	21.89
230.671	21.85
230.888	22.19
231.105	23.7
231.323	23.3
231.54	21.65
231.757	27.48
231.974	23.32
232.191	21.41
232.408	19.48
232.625	16.41
232.842	21.35
233.059	19.07
233.276	15.3
233.493	5.82
233.71	6.54
233.927	8.64
234.144	4.38
234.361	11.79
234.578	17.46
234.795	20.93
235.012	15.89
235.229	15.13
235.446	19.9
235.663	17.4
235.879	22.92
236.096	24.13
236.313	24.48
236.53	28.23
236.747	22.34
236.964	17.36
237.181	14.69
237.397	17.47
237.614	16.17
237.831	10.08
238.048	9.88
238.264	10.65
238.481	10.57
238.698	12.39
238.915	10.83
239.131	16
239.348	20.93
239.565	22.32
239.781	21.25
239.998	21.84
240.215	21.1
240.431	18.62
240.648	15.72
240.865	13.3
241.081	12.12
241.298	10.5
241.514	10.11
241.731	7.13
241.947	7.43
242.164	8.58
242.38	8.55
242.597	8.42
242.814	9.69
243.03	11.51
243.246	12.12
243.463	11.83
243.679	14.84
243.896	14.48
244.112	15.82
244.329	14.73
244.545	13.84
244.762	13.5
244.978	11.09
245.194	14.23
245.411	12.67
245.627	11.13
245.843	10.36
246.06	8.84
246.276	9.36
246.492	9.24
246.709	10.01
246.925	9.4
247.141	9.36
247.357	10.86
247.574	10.16
247.79	11.22
248.006	11.08
248.222	11.04
248.439	9.78
248.655	9.44
248.871	9.32
249.087	8.23
249.303	8.65
249.519	8.97
249.736	9.96
249.952	8.44
250.168	7.38
250.384	8.19
250.6	8.99
250.816	11.47
251.032	14.01
251.248	13.72
251.464	16.94
251.68	15.67
251.896	15.11
252.112	14.67
252.328	15.94
252.544	13.77
252.76	13.64
252.976	13.3
253.192	13.61
253.408	10.51
253.624	10.99
253.84	7.24
254.056	8.49
254.272	6.54
254.487	3.95
254.703	2.91
254.919	2.98
255.135	1.89
255.351	3.03
255.567	0.31
255.782	0.19
255.998	-1.94
256.214	1.71
256.43	0.08
256.646	2.23
256.861	3.23
257.077	2.85
257.293	4.23
257.508	6.78
257.724	7.55
257.94	8.6
258.155	10.91
258.371	11.6
258.587	11
258.802	12.16
259.018	11.67
259.234	11.63
259.449	11.72
259.665	10.39
259.88	9.71
260.096	9.26
260.312	8.67
260.527	8.33
260.743	8.24
260.958	9.21
261.174	8.71
261.389	8.92
261.605	8.47
261.82	8.83
262.036	10.64
262.251	11.03
262.466	10.94
262.682	12.02
262.897	11.97
263.113	10.4
263.328	7.94
263.543	8.61
263.759	9.8
263.974	11.08
264.189	10.21
264.405	9.04
264.62	7.69
264.835	8.28
265.051	8.37
265.266	8.35
265.481	11.15
265.696	11.3
265.912	11.85
266.127	9.97
266.342	10.27
266.557	9.63
266.773	8.7
266.988	9.56
267.203	9.83
267.418	10.01
267.633	9.34
267.848	9.47
268.064	7.8
268.279	6.16
268.494	5.84
268.709	7.25
268.924	7.06
269.139	7.22
269.354	7.37
269.569	6.48
269.784	4.16
269.999	5.62
270.214	6.47
270.429	7.43
270.644	8.05
270.859	7.37
271.074	5.31
271.289	5.18
271.504	5.68
271.719	5.35
271.934	6.28
272.149	7.74
272.363	8.47
272.578	7.18
272.793	8.16
273.008	9.75
273.223	9.71
273.438	10.84
273.653	11.24
273.867	11.83
274.082	11.8
274.297	11.39
274.512	10.7
274.726	9.33
274.941	9.55
275.156	9.64
275.371	7.45
275.585	8.54
275.8	5.72
276.015	5.58
276.229	4.17
276.444	5.37
276.659	6.6
276.873	8.17
277.088	7.87
277.302	8.39
277.517	8.85
277.732	10.89
277.946	10.95
278.161	12.94
278.375	12.77
278.59	14.55
278.804	14.34
279.019	14.25
279.233	12.97
279.448	13.42
279.662	10.4
279.877	8.82
280.091	6.11
280.306	5.3
280.52	5.02
280.735	5.26
280.949	5.33
281.163	5.12
281.378	4.3
281.592	5.65
281.806	5.88
282.021	6.74
282.235	7.67
282.449	8.56
282.664	9.12
282.878	9.91
283.092	9.36
283.307	8.06
283.521	7.97
283.735	7.43
283.949	6.09
284.164	7.15
284.378	8.24
284.592	7.32
284.806	8.13
285.02	8.62
285.234	6.82
285.449	7.96
285.663	7.45
285.877	7.49
286.091	8.17
286.305	8.67
286.519	6.77
286.733	7.89
286.947	7.67
287.161	6.89
287.375	5.97
287.589	7.3
287.803	5.6
288.017	6.5
288.231	8.11
288.445	6.59
288.659	7.49
288.873	9.73
289.087	9.45
289.301	9.95
289.515	9.62
289.729	9.88
289.943	8.38
290.157	9.69
290.371	8.92
290.584	7.43
290.798	8.68
291.012	8.36
291.226	8.41
291.44	5.54
291.654	7.14
291.867	7.96
292.081	8.59
292.295	9.36
292.509	7.66
292.722	9.6
292.936	9.55
293.15	8.85
293.364	6.72
293.577	4.89
293.791	5.37
294.005	5.11
294.218	5.33
294.432	3.12
294.645	5.23
294.859	6.8
295.073	5.45
295.286	5.36
295.5	6.64
295.713	7.97
295.927	8.94
296.14	9.53
296.354	9.5
296.568	9.22
296.781	10.49
296.994	9.98
297.208	10.07
297.421	10.07
297.635	10.23
297.848	9.08
298.062	9.59
298.275	8.56
298.489	9.15
298.702	7.62
298.915	6.82
299.129	6.54
299.342	5.98
299.555	5.93
299.769	6.46
299.982	5.56
300.195	5.05
300.409	5.21
300.622	4.41
300.835	5
301.048	7.54
301.262	7.89
301.475	8.39
301.688	8.31
301.901	6.96
302.115	7.43
302.328	7.94
302.541	9.32
302.754	10.63
302.967	11.95
303.18	10.94
303.393	9.27
303.607	10.35
303.82	10.87
304.033	9.97
304.246	10.82
304.459	8.23
304.672	9.16
304.885	9.95
305.098	9.15
305.311	9.4
305.524	9.04
305.737	10.48
305.95	11.49
306.163	9.72
306.376	8.64
306.589	7.98
306.802	10.16
307.015	9.93
307.228	8.91
307.44	7.65
307.653	7.6
307.866	8.69
308.079	8.74
308.292	6.85
308.505	7.38
308.718	9.35
308.93	9.57
309.143	8.93
309.356	9.32
309.569	9.96
309.781	10.45
309.994	10.91
310.207	10.7
310.42	10.59
310.632	10.26
310.845	10.83
311.058	11.7
311.27	13.12
311.483	13.37
311.696	12.76
311.908	12.89
312.121	13.06
312.333	13.71
312.546	14.75
312.759	14.39
312.971	15.36
313.184	14.83
313.396	12.98
313.609	11.39
313.821	12.2
314.034	12.1
314.246	12.04
314.459	10.54
314.671	10.28
314.884	8.34
315.096	8.26
315.309	7.64
315.521	7.72
315.733	9.01
315.946	8.3
316.158	8.22
316.371	9.24
316.583	6.8
316.795	7.93
317.008	8.65
317.22	10.24
317.432	10.19
317.644	8.5
317.857	8.3
318.069	8.21
318.281	9.07
318.494	7.35
318.706	8.41
318.918	10.31
319.13	9.53
319.342	7.04
319.555	7.48
319.767	9.1
319.979	9.78
320.191	10.25
320.403	9.08
320.615	10.62
320.827	11.12
321.039	10.59
321.252	9.78
321.464	9.33
321.676	9.82
321.888	9.61
322.1	8.51
322.312	8.63
322.524	8.81
322.736	10.07
322.948	9.22
323.16	9.29
323.372	10.68
323.584	11.45
323.796	11.1
324.007	11.09
324.219	9.31
324.431	9.57
324.643	10.92
324.855	11.16
325.067	10.06
325.279	9.54
325.491	9.91
325.702	7.72
325.914	7.54
326.126	7.62
326.338	6.9
326.55	7.24
326.761	6.02
326.973	5.84
327.185	4.86
327.396	5.35
327.608	4.89
327.82	4.13
328.032	2.93
328.243	4.36
328.455	6.31
328.666	8.01
328.878	8.83
329.09	9.02
329.301	8.28
329.513	8.85
329.725	8.3
329.936	10.88
330.148	12.04
330.359	14.29
330.571	13.06
330.782	11.35
330.994	9.94
331.205	11.33
331.417	11.15
331.628	11.81
331.84	11.82
332.051	13.15
332.262	11.97
332.474	12.09
332.685	10.91
332.897	10.57
333.108	12.29
333.319	13.71
333.531	11.81
333.742	11.73
333.953	11.69
334.165	12.17
334.376	10.99
334.587	10.6
334.799	10.88
335.01	11.73
335.221	12.86
335.432	11.68
335.644	10.91
335.855	12.01
336.066	12.08
336.277	12.65
336.488	13.85
336.7	16.16
336.911	17.53
337.122	16.1
337.333	16.36
337.544	14.87
337.755	13.73
337.966	14.91
338.177	15.8
338.388	15.74
338.599	14.82
338.811	13.35
339.022	12.25
339.233	10.41
339.444	10.56
339.655	9.82
339.866	9.88
340.076	12.35
340.287	11.13
340.498	9.76
340.709	10.93
340.92	11.11
341.131	9.92
341.342	9.63
341.553	10.2
341.764	10.12
341.975	10.45
342.185	11.27
342.396	10.7
342.607	10.37
342.818	10.71
343.029	10.12
343.239	10.68
343.45	12.55
343.661	11.61
343.872	10.63
344.082	11.9
344.293	10.65
344.504	9.26
344.714	8.18
344.925	7.81
345.136	8.65
345.346	7.82
345.557	6.55
345.768	5.33
345.978	5.3
346.189	5.42
346.399	5.54
346.61	7.12
346.821	8.66
347.031	9.28
347.242	10.96
347.452	10.93
347.663	12.21
347.873	13.99
348.084	14.69
348.294	15.53
348.504	15.43
348.715	15.89
348.925	14.28
349.136	13.09
349.346	12.76
349.557	12.07
349.767	9.89
349.977	9.96
350.188	7.86
350.398	8.27
350.608	7.94
350.819	9.76
351.029	7.9
351.239	9.05
351.449	10.67
351.66	11.23
351.87	10.75
352.08	11.68
352.29	11.73
352.501	11.71
352.711	11.53
352.921	11.09
353.131	10.6
353.341	10.46
353.552	10.48
353.762	9.94
353.972	9.51
354.182	10.06
354.392	10.85
354.602	10.87
354.812	12.4
355.022	12.67
355.232	12.92
355.442	12.34
355.652	11.81
355.862	11.64
356.072	11.71
356.282	11.95
356.492	9.72
356.702	8.26
356.912	7.3
357.122	6.32
357.332	6.05
357.542	6.91
357.752	6.28
357.962	7.09
358.171	6.61
358.381	6
358.591	5.73
358.801	6.54
359.011	7.53
359.221	7.48
359.43	8.03
359.64	7.64
359.85	7.23
360.06	7.58
360.269	7.68
360.479	7.89
360.689	7.25
360.899	7.56
361.108	7.47
361.318	7.64
361.528	8.43
361.737	7.67
361.947	8.04
362.156	8.76
362.366	9.14
362.576	8.65
362.785	8.75
362.995	9.76
363.204	10.79
363.414	11.35
363.623	10.45
363.833	9.99
364.042	10.38
364.252	9.57
364.461	8.45
364.671	7.96
364.88	8.35
365.09	8.38
365.299	8.27
365.509	6.23
365.718	5.45
365.927	6.61
366.137	7.19
366.346	7.24
366.555	7.77
366.765	7.23
366.974	7.12
367.183	7.13
367.393	7.13
367.602	6.74
367.811	7.3
368.021	7.73
368.23	6.54
368.439	5.76
368.648	6.07
368.857	6.32
369.067	6.8
369.276	6.69
369.485	6.85
369.694	6.76
369.903	7.11
370.112	7.44
370.321	7.85
370.531	8.25
370.74	8.67
370.949	8.52
371.158	8.14
371.367	8.22
371.576	9.32
371.785	9.38
371.994	9.12
372.203	9.29
372.412	8.89
372.621	8.62
372.83	8.46
373.039	8.35
373.248	8.77
373.457	8.79
373.666	8.49
373.874	7.15
374.083	6.75
374.292	7.46
374.501	7.27
374.71	7.05
374.919	7.46
375.128	7.58
375.336	7.6
375.545	7.21
375.754	7.05
375.963	7.73
376.171	8.41
376.38	8.39
376.589	8.05
376.798	7.72
377.006	8.39
377.215	8.06
377.424	8.05
377.632	8.14
377.841	7.97
378.05	8.18
378.258	7.83
378.467	7.28
378.675	7.94
378.884	7.82
379.093	7.51
379.301	7.2
379.51	7.17
379.718	7.45
379.927	6.5
380.135	6.04
380.344	5.68
380.552	6.1
380.761	6.21
380.969	5.07
381.177	5.47
381.386	6.25
381.594	6.15
381.803	6.24
382.011	5.74
382.219	6.38
382.428	6.48
382.636	6.4
382.845	6.3
383.053	6.04
383.261	6.01
383.469	5.54
383.678	4.85
383.886	4.72
384.094	3.63
384.302	3.78
384.511	4.12
384.719	4.27
384.927	4.49
385.135	4.19
385.343	4.06
385.552	4.25
385.76	4.39
385.968	4.68
386.176	4.45
386.384	5.32
386.592	5.21
386.8	4.89
387.008	5.2
387.216	4.86
387.424	4.69
387.633	5.15
387.841	5.11
388.049	5.06
388.257	4.83
388.465	5.31
388.672	5.12
388.88	5.25
389.088	5.15
389.296	4.55
389.504	4.89
389.712	5.05
389.92	4.69
390.128	4.8
390.336	4.97
390.544	5.19
390.751	4.96
390.959	4.88
391.167	4.66
391.375	4.66
391.583	4.67
391.79	4.71
391.998	4.42
392.206	4.25
392.414	4.02
392.621	3.58
392.829	3.44
393.037	3.75
393.244	3.75
393.452	3.71
393.66	3.63
393.867	3.75
394.075	3.4
394.283	3.59
394.49	3.65
394.698	3.57
394.905	3.82
395.113	3.75
395.32	3.37
395.528	3.21
395.735	3.44
395.943	3.37
396.15	3.34
396.358	3.26
396.565	3.14
396.773	3.26
396.98	3.71
397.188	3.61
397.395	3.44
397.602	3.4
397.81	3.73
398.017	3.6
398.225	3.37
398.432	3.66
398.639	4.05
398.847	4.73
399.054	4.44
399.261	4.06
399.468	4.09
399.676	4.19
399.883	4.32
400.09	4.04
400.297	3.7
400.505	3.93
400.712	3.44
400.919	3.41
401.126	2.66
401.333	2.4
401.54	2.16
401.748	2.21
401.955	1.93
402.162	1.77
402.369	1.69
402.576	1.97
402.783	1.86
402.99	2.13
403.197	1.8
403.404	2.02
403.611	2.51
403.818	2.95
404.025	2.75
404.232	3.05
404.439	3.28
404.646	3.33
404.853	3.28
405.06	3.3
405.267	2.93
405.474	3.11
405.681	2.92
405.887	2.68
406.094	2.65
406.301	2.66
406.508	3
406.715	2.64
406.922	2.65
407.128	2.57
407.335	2.32
407.542	2.86
407.749	3.07
407.955	2.73
408.162	3.03
408.369	2.77
408.575	2.6
408.782	2.27
408.989	2.48
409.195	2.61
409.402	2.72
409.609	3.09
409.815	2.72
410.022	2.25
410.228	2.66
410.435	2.57
410.642	2.87
410.848	3.35
411.055	3.37
411.261	3.42
411.468	3.54
411.674	3.41
411.881	3.16
412.087	3.04
412.294	3.25
412.5	3.33
412.706	3.43
412.913	3.29
413.119	2.92
413.326	2.92
413.532	2.91
413.738	2.77
413.945	3.13
414.151	3.44
414.357	3.75
414.564	3.49
414.77	3.2
414.976	3.14
415.182	3.01
415.389	3.16
415.595	3.29
415.801	3.07
416.007	3.08
416.214	2.81
416.42	2.66
416.626	2.57
416.832	2.75
417.038	3.06
417.244	3.04
417.45	2.85
417.657	2.72
417.863	2.59
418.069	2.65
418.275	2.56
418.481	2.68
418.687	2.77
418.893	2.63
419.099	2.59
419.305	2.46
419.511	2.42
419.717	2.52
419.923	2.49
420.129	2.38
420.335	2.43
420.541	2.45
420.746	2.34
420.952	2.26
421.158	2.22
421.364	2.16
421.57	2.17
421.776	2.09
421.982	2.12
422.187	2.22
422.393	2.31
422.599	2.23
422.805	2.08
423.01	2.18
423.216	2.13
423.422	2.27
423.628	2.3
423.833	2.29
424.039	2.4
424.245	2.3
424.45	2.29
424.656	2.08
424.862	2.02
425.067	2.14
425.273	2.07
425.478	2.21
425.684	2.2
425.889	2.23
426.095	2.14
426.301	2.11
426.506	2.16
426.712	2.09
426.917	2.29
427.123	2.25
427.328	2.45
427.533	2.43
427.739	2.13
427.944	2.08
428.15	2.08
428.355	2.04
428.561	1.98
428.766	2.15
428.971	2.38
429.177	2.44
429.382	2.63
429.587	2.59
429.793	2.58
429.998	2.92
430.203	3.18
430.408	2.97
430.614	2.84
430.819	2.86
431.024	3.01
431.229	2.64
431.434	2.39
431.64	2.1
431.845	1.95
432.05	2.13
432.255	1.98
432.46	1.71
432.665	1.95
432.87	2.22
433.076	2.25
433.281	2.03
433.486	2.07
433.691	2.21
433.896	2.31
434.101	2.36
434.306	2.34
434.511	2.34
434.716	2.42
434.921	2.4
435.126	2.48
435.331	2.27
435.535	2.52
435.74	2.56
435.945	2.64
436.15	2.77
436.355	2.72
436.56	2.35
436.765	2.34
436.97	2.36
437.174	2.37
437.379	2.2
437.584	2.52
437.789	2.28
437.993	2.1
438.198	2.17
438.403	2.12
438.608	2.1
438.812	2.39
439.017	2.35
439.222	2.31
439.426	2.09
439.631	2.06
439.836	2.11
440.04	2.19
440.245	2.33
440.45	2.14
440.654	2.14
440.859	2.27
441.063	2.33
441.268	2.48
441.472	2.46
441.677	2.74
441.881	2.84
442.086	2.81
442.29	2.75
442.495	2.93
442.699	3.08
442.904	3.2
443.108	3.22
443.312	3.17
443.517	3.09
443.721	3.21
443.925	3.13
444.13	3.04
444.334	2.71
444.538	2.79
444.743	2.53
444.947	2.71
445.151	2.65
445.356	2.53
445.56	2.56
445.764	2.47
445.968	2.4
446.173	2.21
446.377	2.17
446.581	2.27
446.785	2.3
446.989	2.22
447.193	2.04
447.398	1.91
447.602	1.88
447.806	1.79
448.01	1.93
448.214	1.79
448.418	1.91
448.622	2.03
448.826	2.09
449.03	2.11
449.234	2.22
449.438	2.12
449.642	2.18
449.846	2.13
450.05	2.05
450.254	1.9
450.458	2.05
450.662	2.06
450.866	1.95
451.069	1.84
451.273	1.7
451.477	1.8
451.681	1.8
451.885	1.95
452.089	1.97
452.292	2.1
452.496	2.1
452.7	2.07
452.904	2.09
453.107	2.23
453.311	2.34
453.515	2.23
453.719	2.11
453.922	2.22
454.126	2.17
454.33	2.12
454.533	2.11
454.737	2.1
454.94	2.24
455.144	2.25
455.348	2.28
455.551	2.2
455.755	2.5
455.958	2.71
456.162	2.64
456.365	2.67
456.569	2.67
456.772	2.55
456.976	2.54
457.179	2.42
457.383	2.29
457.586	2.13
457.79	2.16
457.993	1.85
458.196	1.78
458.4	1.8
458.603	1.85
458.807	2.01
459.01	2.03
459.213	2.09
459.417	2.1
459.62	2.15
459.823	2.07
460.026	2.08
460.23	2.22
460.433	2.28
460.636	2.35
460.839	2.27
461.042	2.18
461.246	2.16
461.449	2.04
461.652	1.96
461.855	2.02
462.058	2.07
462.261	2.15
462.464	2.13
462.668	2.15
462.871	2.18
463.074	2.26
463.277	2.28
463.48	2.23
463.683	2.28
463.886	2.35
464.089	2.39
464.292	2.36
464.495	2.32
464.698	2.45
464.901	2.27
465.104	2.19
465.306	2.21
465.509	2.24
465.712	2.19
465.915	2.49
466.118	2.56
466.321	2.45
466.524	2.54
466.726	2.45
466.929	2.17
467.132	2.24
467.335	2.17
467.538	1.97
