Data from 2938075_Reflection_2.txt Node
Date: Sat Jul 11 20:26:33 EDT 2015
User: robert
Spectrometer: USB4E03001
Autoset integration time: false
Trigger mode: 4
Integration Time (sec): 1.000000E-1
Scans to average: 10
Electric dark correction enabled: true
Nonlinearity correction enabled: false
Boxcar width: 5
Stray light correction enabled: false
XAxis mode: Wavelengths
Stop averaging: false
Number of Pixels in Spectrum: 3648
>>>>>Begin Spectral Data<<<<<
177.566	217.64
177.785	184.01
178.005	210.52
178.225	221.69
178.445	101.5
178.665	352.42
178.885	141.39
179.105	205.72
179.324	227.3
179.544	-1488.1
179.764	-11.36
179.984	4.3
180.204	15.63
180.423	42.8
180.643	42.31
180.863	19.92
181.083	26.28
181.302	67.91
181.522	108.12
181.742	95.46
181.961	127.11
182.181	142.7
182.401	137.8
182.621	128.34
182.84	86.72
183.06	24.32
183.279	1113.91
183.499	124.68
183.719	20.86
183.938	25.29
184.158	105.12
184.377	72.34
184.597	1.59
184.816	42.62
185.036	25.34
185.256	36.58
185.475	66.05
185.695	408.61
185.914	194.44
186.134	-3794.25
186.353	1979.17
186.572	233.23
186.792	211.13
187.011	257.63
187.231	319.78
187.45	156.88
187.67	-48.02
187.889	131.66
188.108	426.65
188.328	227.14
188.547	481.35
188.766	165.23
188.986	179.37
189.205	116.28
189.424	42.71
189.644	44.94
189.863	-24.63
190.082	-226.19
190.302	571.64
190.521	157.03
190.74	210.9
190.959	73.63
191.178	12.71
191.398	-8.17
191.617	-123.37
191.836	-913.33
192.055	89.17
192.274	921.24
192.494	-88.85
192.713	4.84
192.932	-38.86
193.151	-2.51
193.37	-20.42
193.589	17.04
193.808	27.43
194.027	-7.15
194.246	23.72
194.465	59.02
194.685	111.33
194.904	265.06
195.123	548.05
195.342	543.86
195.561	20134.29
195.78	-657.57
195.999	-410.4
196.218	-266.1
196.436	-445.55
196.655	-211.1
196.874	-204.42
197.093	-7.68
197.312	107.66
197.531	309.49
197.75	-538.39
197.969	-98.47
198.188	377.07
198.407	174.67
198.625	178.76
198.844	59.05
199.063	99.53
199.282	102.51
199.501	-168.22
199.719	2038.2
199.938	-59.84
200.157	-32.49
200.376	67.92
200.594	419.33
200.813	131.16
201.032	-4250
201.251	-315.46
201.469	-54.14
201.688	-31.34
201.907	-103.05
202.125	-73.95
202.344	8.69
202.563	-62.74
202.781	45.1
203	110.52
203.218	53.42
203.437	85.47
203.656	135.67
203.874	157.86
204.093	345.31
204.311	126.85
204.53	118.16
204.748	-139.59
204.967	4977.01
205.185	-383.94
205.404	-172.73
205.622	-173.82
205.841	-212.43
206.059	663.53
206.278	512.73
206.496	-224.81
206.715	7627.27
206.933	0.43
207.151	-901.52
207.37	84.23
207.588	97.06
207.806	161.6
208.025	-12241.18
208.243	54.53
208.461	-173.49
208.68	-2.09
208.898	16.56
209.116	54.74
209.335	42.77
209.553	28.63
209.771	27.13
209.989	44.8
210.208	11.97
210.426	8.81
210.644	-4.05
210.862	1.24
211.081	22.24
211.299	58.49
211.517	33.76
211.735	59.24
211.953	33.38
212.171	60.01
212.39	16.44
212.608	23.02
212.826	39.1
213.044	25.26
213.262	79.89
213.48	38.76
213.698	11.55
213.916	17.65
214.134	1.65
214.352	-6.16
214.57	-42.28
214.788	-58.75
215.006	-62.58
215.224	-29.98
215.442	-37.28
215.66	-139.89
215.878	-139.07
216.096	-121.1
216.314	3529.47
216.532	-222.7
216.75	-151.64
216.968	-79.81
217.185	-3.52
217.403	58.61
217.621	0.85
217.839	-8.51
218.057	1.94
218.275	0.92
218.492	7.64
218.71	2.88
218.928	47.01
219.146	114.91
219.363	203.82
219.581	58.96
219.799	62.04
220.017	72.55
220.234	103.59
220.452	100.33
220.67	96.4
220.887	72.15
221.105	75.01
221.323	62
221.54	33.54
221.758	28.27
221.976	17.09
222.193	11.29
222.411	14.1
222.629	-14.93
222.846	-10.07
223.064	-27.26
223.281	-18.4
223.499	-26.34
223.716	-54.15
223.934	2.95
224.151	17.08
224.369	46.5
224.586	47.56
224.804	42.43
225.021	63.52
225.239	81.86
225.456	61.69
225.674	53.59
225.891	46.62
226.108	34.48
226.326	22.11
226.543	10.37
226.76	-1.42
226.978	7.38
227.195	12.67
227.413	7.04
227.63	7.87
227.847	8.13
228.064	8.42
228.282	14.29
228.499	16.54
228.716	17.21
228.934	20.04
229.151	19.48
229.368	18.63
229.585	20.73
229.802	20.46
230.02	17.94
230.237	20.96
230.454	19.8
230.671	18.48
230.888	18.62
231.105	20.81
231.323	18.97
231.54	15.97
231.757	8.77
231.974	4.23
232.191	7.03
232.408	14.9
232.625	10.86
232.842	17.14
233.059	16.52
233.276	16.35
233.493	6.85
233.71	12.21
233.927	11.81
234.144	20.82
234.361	18.31
234.578	21.42
234.795	15.26
235.012	10.62
235.229	3.92
235.446	3.19
235.663	2.82
235.879	7.01
236.096	6.81
236.313	14.48
236.53	11.8
236.747	14.07
236.964	15.01
237.181	11.71
237.397	7.19
237.614	14.34
237.831	8.56
238.048	10.37
238.264	13.43
238.481	12.63
238.698	2.57
238.915	-0.15
239.131	-2.17
239.348	-1.64
239.565	6.7
239.781	15.66
239.998	10.18
240.215	13.67
240.431	13.52
240.648	15.01
240.865	14.3
241.081	17.18
241.298	15.22
241.514	15.89
241.731	15.3
241.947	15.69
242.164	13.57
242.38	13.58
242.597	13.05
242.814	13.02
243.03	12
243.246	11.33
243.463	11.58
243.679	14.57
243.896	14.39
244.112	14.6
244.329	13.21
244.545	12.87
244.762	15.59
244.978	15.42
245.194	17.95
245.411	15.26
245.627	14.73
245.843	13.36
246.06	11.02
246.276	8.97
246.492	9.87
246.709	9.98
246.925	9.71
247.141	9.76
247.357	9.76
247.574	8.43
247.79	9.58
248.006	9.28
248.222	9.55
248.439	10.1
248.655	10.99
248.871	9.52
249.087	9.27
249.303	9.31
249.519	8.26
249.736	8.96
249.952	9.76
250.168	8.25
250.384	9.38
250.6	6.06
250.816	4.09
251.032	2.89
251.248	4.23
251.464	6.77
251.68	8.01
251.896	9.33
252.112	7.96
252.328	8.74
252.544	9.43
252.76	7.88
252.976	8.44
253.192	8.56
253.408	9.9
253.624	11.16
253.84	9.96
254.056	10.73
254.272	9.57
254.487	9
254.703	7.51
254.919	9.55
255.135	13.19
255.351	12.78
255.567	14.09
255.782	11.9
255.998	9.56
256.214	12.87
256.43	12.31
256.646	14.37
256.861	14.5
257.077	16.37
257.293	16.15
257.508	11.69
257.724	12.72
257.94	12.88
258.155	14.59
258.371	15.03
258.587	13.08
258.802	11.65
259.018	10.65
259.234	11.14
259.449	9.76
259.665	8.33
259.88	9.42
260.096	9.86
260.312	9.49
260.527	8.6
260.743	8.62
260.958	8.2
261.174	8.6
261.389	7.78
261.605	7.57
261.82	7.29
262.036	7.59
262.251	7.18
262.466	6.44
262.682	5.48
262.897	6.35
263.113	5.72
263.328	4.85
263.543	4.86
263.759	5.75
263.974	6.09
264.189	5.23
264.405	8.06
264.62	10.86
264.835	12.26
265.051	12.88
265.266	13.97
265.481	12.59
265.696	14.13
265.912	13.77
266.127	14.58
266.342	14.31
266.557	14.62
266.773	14.55
266.988	13.44
267.203	12.16
267.418	11.36
267.633	10.53
267.848	12.62
268.064	11.98
268.279	11.32
268.494	10.64
268.709	11.04
268.924	12.24
269.139	12.16
269.354	12
269.569	12.86
269.784	13.48
269.999	11.9
270.214	9.41
270.429	9.72
270.644	10.28
270.859	9.61
271.074	8.35
271.289	7.5
271.504	6.07
271.719	4.8
271.934	4.25
272.149	3.62
272.363	4.48
272.578	5.56
272.793	5.38
273.008	5.52
273.223	5.53
273.438	5.12
273.653	5.91
273.867	5.62
274.082	6.62
274.297	7.67
274.512	8.74
274.726	8.67
274.941	8.7
275.156	9.55
275.371	8.33
275.585	8.97
275.8	9.74
276.015	7.97
276.229	8.29
276.444	7.24
276.659	7.9
276.873	6.72
277.088	7.15
277.302	8.58
277.517	7.35
277.732	7.58
277.946	8.21
278.161	8.63
278.375	9.18
278.59	7.67
278.804	7.72
279.019	6.49
279.233	7.22
279.448	6.84
279.662	5.03
279.877	5.37
280.091	6.72
280.306	6.99
280.52	6.81
280.735	7.37
280.949	9.44
281.163	10.86
281.378	9.83
281.592	9.38
281.806	9.73
282.021	11.07
282.235	9.84
282.449	8.97
282.664	8.84
282.878	7.39
283.092	6.78
283.307	5.82
283.521	5.31
283.735	5.69
283.949	6.16
284.164	6.12
284.378	5.88
284.592	6.98
284.806	6.24
285.02	4.75
285.234	6.76
285.449	7.43
285.663	7.31
285.877	8.13
286.091	8.48
286.305	10.01
286.519	10.1
286.733	9.76
286.947	8.61
287.161	8.74
287.375	9.79
287.589	9.18
287.803	8.95
288.017	8.98
288.231	7.92
288.445	7.65
288.659	5.2
288.873	4.5
289.087	4.1
289.301	4.83
289.515	5.92
289.729	5.56
289.943	4.73
290.157	5.78
290.371	5.81
290.584	6.74
290.798	6.94
291.012	6.25
291.226	6.98
291.44	7.45
291.654	8.33
291.867	8.67
292.081	9.58
292.295	10.01
292.509	9.31
292.722	8.75
292.936	7.53
293.15	9.25
293.364	10.65
293.577	8.69
293.791	7.41
294.005	6.37
294.218	5.64
294.432	5.94
294.645	6.62
294.859	7.65
295.073	8.68
295.286	10.37
295.5	8.5
295.713	9.82
295.927	10.64
296.14	11.62
296.354	12.54
296.568	13.75
296.781	13.85
296.994	13.56
297.208	12.47
297.421	13.48
297.635	12.34
297.848	12.04
298.062	9.62
298.275	11.15
298.489	11.4
298.702	11.69
298.915	10.31
299.129	9.75
299.342	9.19
299.555	8.58
299.769	8.3
299.982	8.7
300.195	11.2
300.409	11.91
300.622	10.11
300.835	9.49
301.048	9.91
301.262	12.3
301.475	10.51
301.688	11.01
301.901	12.75
302.115	11.27
302.328	11.62
302.541	9.71
302.754	11.27
302.967	12.42
303.18	12.27
303.393	11.23
303.607	9.2
303.82	10.17
304.033	8.91
304.246	7.97
304.459	9.66
304.672	9.66
304.885	9.81
305.098	11.48
305.311	11.51
305.524	11.87
305.737	11.29
305.95	12.48
306.163	14.17
306.376	15.81
306.589	16.9
306.802	16.12
307.015	14.65
307.228	14.36
307.44	12.86
307.653	12.62
307.866	11.31
308.079	12.01
308.292	12.72
308.505	11.46
308.718	11.66
308.93	11.31
309.143	11.5
309.356	12.61
309.569	12.15
309.781	11.25
309.994	10.61
310.207	11.67
310.42	9.97
310.632	8.5
310.845	9.65
311.058	9.39
311.27	8.62
311.483	8.44
311.696	8.05
311.908	9.28
312.121	9.3
312.333	10.44
312.546	9.71
312.759	11.16
312.971	11.73
313.184	11.47
313.396	10.99
313.609	12.38
313.821	12.09
314.034	11.05
314.246	9.99
314.459	12.27
314.671	10.6
314.884	12.58
315.096	12.32
315.309	12.95
315.521	13.64
315.733	13.67
315.946	13.86
316.158	13.11
316.371	14.49
316.583	15.57
316.795	13.57
317.008	14.53
317.22	12.7
317.432	15.24
317.644	15.07
317.857	14.32
318.069	15.15
318.281	13.75
318.494	14.98
318.706	16.29
318.918	17.1
319.13	16.77
319.342	16.72
319.555	16.3
319.767	14.62
319.979	13.91
320.191	13.27
320.403	12.13
320.615	10.82
320.827	10.1
321.039	9.84
321.252	8.79
321.464	8.48
321.676	8.26
321.888	10
322.1	9.4
322.312	8.98
322.524	8.95
322.736	9.37
322.948	11.04
323.16	11.65
323.372	10.11
323.584	9.6
323.796	11.59
324.007	10.9
324.219	9.81
324.431	8.59
324.643	8.82
324.855	9.08
325.067	9.03
325.279	7.96
325.491	6.92
325.702	5.76
325.914	6.14
326.126	4.45
326.338	5.6
326.55	6.28
326.761	8.62
326.973	8.34
327.185	6.48
327.396	7.03
327.608	7.43
327.82	9.04
328.032	10.56
328.243	9.03
328.455	8.49
328.666	9.73
328.878	9.54
329.09	7.19
329.301	5.99
329.513	8.17
329.725	7.62
329.936	9.33
330.148	7.69
330.359	8.15
330.571	9.25
330.782	11.2
330.994	8
331.205	6.92
331.417	8.67
331.628	11.15
331.84	10.87
332.051	11.1
332.262	8.3
332.474	10.32
332.685	10.66
332.897	11.07
333.108	10.11
333.319	11.27
333.531	11.58
333.742	10.89
333.953	10.72
334.165	10.62
334.376	10.42
334.587	11.89
334.799	11.77
335.01	10.62
335.221	10.24
335.432	11.57
335.644	10.98
335.855	10.86
336.066	10.66
336.277	10.45
336.488	10.55
336.7	10.42
336.911	10.55
337.122	9.76
337.333	10.53
337.544	10.54
337.755	8.16
337.966	7.04
338.177	7.18
338.388	8.46
338.599	7.75
338.811	7.97
339.022	9.29
339.233	7.1
339.444	6.98
339.655	6.27
339.866	6.6
340.076	8.01
340.287	8.29
340.498	7.92
340.709	7
340.92	7.51
341.131	6.19
341.342	5.48
341.553	6.61
341.764	6.44
341.975	6.46
342.185	5.9
342.396	6.4
342.607	7.37
342.818	8.41
343.029	8.66
343.239	8.82
343.45	8.83
343.661	7.99
343.872	7.32
344.082	8.49
344.293	8.67
344.504	9.37
344.714	9.39
344.925	9.86
345.136	10.35
345.346	11.08
345.557	11.24
345.768	12.17
345.978	11.84
346.189	13.55
346.399	12.4
346.61	12.74
346.821	12.71
347.031	11.95
347.242	11.1
347.452	10.72
347.663	10.27
347.873	9.45
348.084	9.99
348.294	11
348.504	10.77
348.715	11.38
348.925	11.98
349.136	12.33
349.346	12.57
349.557	12.6
349.767	12.24
349.977	10.69
350.188	10.51
350.398	9.76
350.608	9.92
350.819	8.26
351.029	7.52
351.239	5.81
351.449	5.02
351.66	5.38
351.87	5.58
352.08	5.56
352.29	5.81
352.501	6.47
352.711	5.65
352.921	5.28
353.131	5.44
353.341	7.22
353.552	7.09
353.762	6.54
353.972	6.05
354.182	7.1
354.392	6.52
354.602	6.58
354.812	6.43
355.022	7.84
355.232	8.67
355.442	9.04
355.652	8.01
355.862	8.64
356.072	9.34
356.282	9.34
356.492	9.22
356.702	8.89
356.912	9.3
357.122	8.72
357.332	8.1
357.542	8.13
357.752	8.16
357.962	7.54
358.171	7.04
358.381	6.86
358.591	7.32
358.801	6.8
359.011	7.04
359.221	7.41
359.43	8.02
359.64	8.13
359.85	8.27
360.06	8.27
360.269	8.7
360.479	8.71
360.689	9.15
360.899	8.74
361.108	8.78
361.318	8.76
361.528	8.64
361.737	7.92
361.947	7.98
362.156	7.26
362.366	7.06
362.576	6.6
362.785	6.89
362.995	6.41
363.204	6.11
363.414	5.9
363.623	6.19
363.833	5.94
364.042	6.41
364.252	6.17
364.461	6.14
364.671	5.82
364.88	6.24
365.09	6.14
365.299	5.7
365.509	5.91
365.718	5.99
365.927	6.37
366.137	6.46
366.346	6.3
366.555	5.81
366.765	5.78
366.974	5.77
367.183	5.68
367.393	5.91
367.602	5.93
367.811	5.92
368.021	6.18
368.23	5.94
368.439	6.09
368.648	6.65
368.857	7.11
369.067	7.23
369.276	8.2
369.485	8.01
369.694	8.36
369.903	9.14
370.112	9.01
370.321	8.24
370.531	7.28
370.74	6.9
370.949	8.16
371.158	8.12
371.367	8.44
371.576	7.9
371.785	7.88
371.994	6.74
372.203	6.11
372.412	6.12
372.621	6.69
372.83	6.61
373.039	6.47
373.248	4.58
373.457	4.83
373.666	4.24
373.874	4
374.083	3.65
374.292	4.18
374.501	5.1
374.71	4.65
374.919	3.26
375.128	4.47
375.336	4.98
375.545	5.84
375.754	5.73
375.963	6.08
376.171	6.1
376.38	6.48
376.589	6.74
376.798	6.01
377.006	6.97
377.215	7.93
377.424	7.26
377.632	6.82
377.841	5.88
378.05	5.59
378.258	4.89
378.467	5.19
378.675	4.7
378.884	5.27
379.093	5.53
379.301	4.95
379.51	4.87
379.718	4.93
379.927	5.34
380.135	5.99
380.344	6.56
380.552	7.16
380.761	7.5
380.969	8.02
381.177	7.59
381.386	7.25
381.594	6.97
381.803	6.89
382.011	6.6
382.219	6.36
382.428	6.09
382.636	5.5
382.845	5.8
383.053	5.69
383.261	5.51
383.469	4.84
383.678	4.51
383.886	4.6
384.094	4.61
384.302	4.53
384.511	4.26
384.719	4.21
384.927	4.06
385.135	3.68
385.343	2.95
385.552	2.5
385.76	2.67
385.968	3.06
386.176	3.52
386.384	3.45
386.592	3.43
386.8	3.41
387.008	3.57
387.216	3.76
387.424	3.45
387.633	3.77
387.841	4.3
388.049	4.59
388.257	4.52
388.465	4.12
388.672	3.76
388.88	4.09
389.088	4.55
389.296	4.38
389.504	4.29
389.712	4.29
389.92	4.07
390.128	4.3
390.336	3.97
390.544	3.99
390.751	4.02
390.959	4.48
391.167	4.54
391.375	3.91
391.583	3.98
391.79	3.93
391.998	4.03
392.206	4.22
392.414	3.91
392.621	3.96
392.829	3.84
393.037	3.71
393.244	3.84
393.452	3.89
393.66	4.21
393.867	4.26
394.075	4.12
394.283	4.39
394.49	4.53
394.698	4.64
394.905	4.54
395.113	4.66
395.32	4.93
395.528	4.68
395.735	4.16
395.943	4.04
396.15	3.87
396.358	3.98
396.565	4.08
396.773	3.83
396.98	3.57
397.188	3.8
397.395	3.32
397.602	3.31
397.81	3.38
398.017	3.82
398.225	3.84
398.432	4
398.639	4.04
398.847	3.43
399.054	3.6
399.261	3.66
399.468	3.62
399.676	3.72
399.883	3.37
400.09	3.25
400.297	2.91
400.505	2.93
400.712	2.79
400.919	2.86
401.126	2.98
401.333	2.69
401.54	2.64
401.748	2.23
401.955	2.39
402.162	2.03
402.369	2.29
402.576	2.41
402.783	2.43
402.99	2.47
403.197	2.47
403.404	2.62
403.611	2.94
403.818	3.13
404.025	3.35
404.232	3.44
404.439	3.59
404.646	3.26
404.853	3.33
405.06	2.96
405.267	2.84
405.474	2.82
405.681	2.86
405.887	2.45
406.094	2.51
406.301	2.42
406.508	2.44
406.715	2.79
406.922	2.7
407.128	2.68
407.335	3.09
407.542	3.13
407.749	3.21
407.955	3.26
408.162	3.45
408.369	2.94
408.575	3.16
408.782	3.36
408.989	3.18
409.195	2.89
409.402	2.72
409.609	2.53
409.815	2.53
410.022	2.28
410.228	2.08
410.435	2.19
410.642	2.24
410.848	2.24
411.055	1.73
411.261	1.74
411.468	2.01
411.674	2.11
411.881	2.07
412.087	1.98
412.294	2.24
412.5	2.19
412.706	2.37
412.913	2.39
413.119	2.32
413.326	2.66
413.532	2.74
413.738	2.73
413.945	2.85
414.151	3.24
414.357	3.26
414.564	3.06
414.77	3.17
414.976	3
415.182	3.21
415.389	3.18
415.595	2.9
415.801	3.05
416.007	3.22
416.214	3.09
416.42	2.75
416.626	2.61
416.832	2.46
417.038	2.76
417.244	2.81
417.45	2.86
417.657	2.82
417.863	3.22
418.069	3.01
418.275	2.92
418.481	3.02
418.687	3.02
418.893	3.14
419.099	3.29
419.305	3.16
419.511	3.01
419.717	3
419.923	3.07
420.129	2.86
420.335	2.96
420.541	3.03
420.746	2.99
420.952	2.97
421.158	2.99
421.364	2.95
421.57	2.88
421.776	2.85
421.982	2.87
422.187	2.84
422.393	2.95
422.599	2.96
422.805	3.07
423.01	3.16
423.216	3.16
423.422	3.05
423.628	3.15
423.833	3.11
424.039	3.18
424.245	3.17
424.45	3.04
424.656	3.02
424.862	3
425.067	2.96
425.273	2.9
425.478	3.05
425.684	3.18
425.889	3.09
426.095	3.21
426.301	3.2
426.506	3.09
426.712	3.2
426.917	3.16
427.123	3.04
427.328	2.91
427.533	2.94
427.739	2.9
427.944	2.79
428.15	2.65
428.355	2.47
428.561	2.64
428.766	2.78
428.971	2.82
429.177	2.67
429.382	2.92
429.587	2.9
429.793	2.88
429.998	3.09
430.203	3.04
430.408	3.09
430.614	3.06
430.819	3.04
431.024	3.06
431.229	3.13
431.434	3.16
431.64	2.99
431.845	3.04
432.05	2.87
432.255	2.57
432.46	2.68
432.665	2.75
432.87	2.75
433.076	2.66
433.281	2.67
433.486	2.74
433.691	2.73
433.896	2.69
434.101	2.64
434.306	2.69
434.511	2.72
434.716	2.75
434.921	2.8
435.126	3.06
435.331	2.87
435.535	2.9
435.74	2.86
435.945	3.02
436.15	2.99
436.355	2.93
436.56	3
436.765	3.09
436.97	2.91
437.174	2.89
437.379	2.74
437.584	2.91
437.789	2.64
437.993	2.59
438.198	2.52
438.403	2.59
438.608	2.63
438.812	2.56
439.017	2.59
439.222	2.85
439.426	2.82
439.631	2.69
439.836	2.82
440.04	2.9
440.245	2.98
440.45	2.88
440.654	2.94
440.859	2.92
441.063	2.92
441.268	2.89
441.472	2.63
441.677	2.68
441.881	2.73
442.086	2.51
442.29	2.48
442.495	2.51
442.699	2.64
442.904	2.71
443.108	2.82
443.312	2.94
443.517	2.94
443.721	3.13
443.925	3.03
444.13	3
444.334	3.12
444.538	3.17
444.743	3.1
444.947	3.03
445.151	2.83
445.356	2.74
445.56	2.6
445.764	2.62
445.968	2.66
446.173	2.74
446.377	2.86
446.581	2.76
446.785	2.81
446.989	2.78
447.193	2.73
447.398	2.73
447.602	2.79
447.806	2.82
448.01	2.85
448.214	2.79
448.418	2.66
448.622	2.48
448.826	2.57
449.03	2.29
449.234	2.17
449.438	2.18
449.642	2.36
449.846	2.1
450.05	1.97
450.254	1.93
450.458	1.87
450.662	1.97
450.866	2.09
451.069	2.01
451.273	2.21
451.477	2.37
451.681	2.47
451.885	2.23
452.089	2.46
452.292	2.63
452.496	2.56
452.7	2.62
452.904	2.64
453.107	2.55
453.311	2.74
453.515	2.78
453.719	2.59
453.922	2.51
454.126	2.43
454.33	2.42
454.533	2.51
454.737	2.48
454.94	2.47
455.144	2.32
455.348	2.27
455.551	2.21
455.755	2.02
455.958	2.08
456.162	1.91
456.365	2.16
456.569	2.15
456.772	1.88
456.976	1.89
457.179	1.96
457.383	2.18
457.586	2.36
457.79	2.25
457.993	2.44
458.196	2.34
458.4	2.57
458.603	2.4
458.807	2.43
459.01	2.55
459.213	2.52
459.417	2.58
459.62	2.45
459.823	2.39
460.026	2.44
460.23	2.42
460.433	2.59
460.636	2.49
460.839	2.43
461.042	2.48
461.246	2.48
461.449	2.57
461.652	2.54
461.855	2.64
462.058	2.68
462.261	2.62
462.464	2.8
462.668	2.66
462.871	2.78
463.074	2.95
463.277	2.77
463.48	2.67
463.683	2.46
463.886	2.43
464.089	2.58
464.292	2.53
464.495	2.42
464.698	2.28
464.901	2.35
465.104	2.3
465.306	2.41
465.509	2.53
465.712	2.66
465.915	2.93
466.118	3.09
466.321	2.79
466.524	2.81
466.726	3.05
466.929	2.96
467.132	3.02
467.335	3.09
