Data from 2938068_Reflection_3.txt Node
Date: Sat Jul 11 20:44:52 EDT 2015
User: robert
Spectrometer: USB4E03001
Autoset integration time: false
Trigger mode: 4
Integration Time (sec): 1.000000E-1
Scans to average: 10
Electric dark correction enabled: true
Nonlinearity correction enabled: false
Boxcar width: 5
Stray light correction enabled: false
XAxis mode: Wavelengths
Stop averaging: false
Number of Pixels in Spectrum: 3648
>>>>>Begin Spectral Data<<<<<
177.566	451.81
177.785	636.71
178.005	-68.98
178.225	62.43
178.445	122.71
178.665	164.65
178.885	806.31
179.105	116.44
179.324	124.42
179.544	165.72
179.764	93.07
179.984	53.86
180.204	71.16
180.423	4287.32
180.643	2095.68
180.863	-165.83
181.083	45.4
181.302	78.23
181.522	95.91
181.742	123.13
181.961	528.3
182.181	562.18
182.401	732.21
182.621	283.81
182.84	392.47
183.06	549.88
183.279	729.86
183.499	239.81
183.719	106.81
183.938	115.23
184.158	120.08
184.377	62.21
184.597	113.41
184.816	52.86
185.036	77.75
185.256	62.48
185.475	77.96
185.695	87.52
185.914	80.11
186.134	89.3
186.353	79.56
186.572	86.11
186.792	74.88
187.011	62.94
187.231	79.21
187.45	77.58
187.67	106.17
187.889	78.25
188.108	81.78
188.328	73.33
188.547	48.01
188.766	30.15
188.986	-7.02
189.205	-35.81
189.424	2.8
189.644	27.87
189.863	12.38
190.082	-6.38
190.302	-18.52
190.521	-9.04
190.74	22.11
190.959	16.76
191.178	39.98
191.398	49.45
191.617	38.93
191.836	57.65
192.055	27.58
192.274	1.65
192.494	-8.42
192.713	32.55
192.932	52.04
193.151	33.86
193.37	41.48
193.589	18.44
193.808	0.14
194.027	5.46
194.246	18.49
194.465	10.12
194.685	27.21
194.904	59.47
195.123	31.77
195.342	2.89
195.561	11.7
195.78	-734.99
195.999	-779.82
196.218	-102.93
196.436	166.37
196.655	144.79
196.874	862.66
197.093	121.85
197.312	386.78
197.531	-501.11
197.75	176.06
197.969	2314.71
198.188	13.46
198.407	24.59
198.625	54.21
198.844	158.7
199.063	128.41
199.282	207.77
199.501	140.88
199.719	131.66
199.938	159.83
200.157	109.1
200.376	106.2
200.594	90.34
200.813	103.61
201.032	91.67
201.251	59.78
201.469	38.12
201.688	-49.59
201.907	3.83
202.125	57.47
202.344	40.07
202.563	87.96
202.781	77.5
203	99.42
203.218	128.27
203.437	68.25
203.656	58.86
203.874	54.51
204.093	42.39
204.311	40.5
204.53	40.01
204.748	18.6
204.967	-67.23
205.185	-175.6
205.404	-127.78
205.622	-142.49
205.841	-663.79
206.059	617.24
206.278	425.45
206.496	6977.24
206.715	-645.92
206.933	697
207.151	609.57
207.37	466.67
207.588	258.52
207.806	167.65
208.025	257.61
208.243	296.06
208.461	138.17
208.68	298.47
208.898	187.57
209.116	616.49
209.335	-1.76
209.553	34.53
209.771	55.53
209.989	43.67
210.208	45.94
210.426	49.75
210.644	64.75
210.862	66.39
211.081	84.2
211.299	99.26
211.517	109.15
211.735	113.88
211.953	137.52
212.171	122.58
212.39	171.38
212.608	352.89
212.826	352.29
213.044	289.21
213.262	190.99
213.48	127.78
213.698	112.81
213.916	113.36
214.134	154.34
214.352	123.13
214.57	94.59
214.788	86.87
215.006	82.61
215.224	73.39
215.442	56.6
215.66	55.92
215.878	39.05
216.096	17.46
216.314	5.69
216.532	32.95
216.75	37.9
216.968	70.83
217.185	66.8
217.403	65.25
217.621	72.86
217.839	72.79
218.057	70.78
218.275	81.78
218.492	79.96
218.71	87.28
218.928	72.4
219.146	62.08
219.363	51.54
219.581	47.32
219.799	35.33
220.017	24.88
220.234	28.61
220.452	29.1
220.67	-4.04
220.887	-11.82
221.105	-229
221.323	331.25
221.54	-43.69
221.758	9.16
221.976	-29.62
222.193	151.66
222.411	-40.72
222.629	6.25
222.846	-2.04
223.064	-7.4
223.281	-879.15
223.499	-125.85
223.716	11.65
223.934	15.77
224.151	-2.5
224.369	4.03
224.586	25.4
224.804	24.43
225.021	57.71
225.239	33.48
225.456	31.18
225.674	35.36
225.891	14.7
226.108	8.47
226.326	0.35
226.543	5.35
226.76	14.62
226.978	7.07
227.195	1.47
227.413	-7.43
227.63	-8.89
227.847	-13.36
228.064	-13.05
228.282	-5.7
228.499	-2.71
228.716	-5.31
228.934	-4.04
229.151	-5.87
229.368	-2.26
229.585	-2.48
229.802	-4.17
230.02	-0.92
230.237	0.64
230.454	1.29
230.671	-5.79
230.888	-8.11
231.105	-7.39
231.323	-10.42
231.54	-16.27
231.757	-17.58
231.974	-18.75
232.191	-12.34
232.408	-19.89
232.625	-19.37
232.842	-18.7
233.059	-8.38
233.276	-0.55
233.493	-2.21
233.71	0.88
233.927	3.26
234.144	-7.48
234.361	-11.18
234.578	-15.4
234.795	-15.26
235.012	-16.98
235.229	-17.08
235.446	-15.24
235.663	-14.68
235.879	-9.48
236.096	-15.69
236.313	-11.38
236.53	-0.44
236.747	8.28
236.964	7.5
237.181	6.2
237.397	7.34
237.614	5.69
237.831	3.39
238.048	-8.29
238.264	-10.99
238.481	-8.9
238.698	-9.49
238.915	-20.29
239.131	-30.78
239.348	-26.76
239.565	-24.84
239.781	-29.9
239.998	-21.45
240.215	-18.56
240.431	-9.32
240.648	-10.73
240.865	-4.49
241.081	-3.91
241.298	-1.14
241.514	-0.93
241.731	1.27
241.947	2.78
242.164	4.09
242.38	1.84
242.597	0.5
242.814	0.56
243.03	3.11
243.246	1.77
243.463	1
243.679	-2.12
243.896	-1.18
244.112	-2.18
244.329	-2.11
244.545	-1.46
244.762	1
244.978	3.65
245.194	2.73
245.411	1.82
245.627	3.35
245.843	2.84
246.06	4
246.276	4.2
246.492	3.02
246.709	3.28
246.925	3.49
247.141	2.56
247.357	2.09
247.574	1.79
247.79	1.57
248.006	1.5
248.222	1.04
248.439	2.05
248.655	1.49
248.871	1.41
249.087	0.53
249.303	0.21
249.519	0.29
249.736	-1.32
249.952	-0.58
250.168	-0.54
250.384	-2.83
250.6	-2.82
250.816	-3.66
251.032	-2.72
251.248	-4.7
251.464	-4.15
251.68	-4.55
251.896	-3.38
252.112	-1.16
252.328	-2.15
252.544	-1.99
252.76	-1.35
252.976	0.31
253.192	-0.21
253.408	-1.01
253.624	1.16
253.84	0.18
254.056	1.01
254.272	-0.12
254.487	0.17
254.703	-1.63
254.919	-4.95
255.135	-6.28
255.351	-7.48
255.567	-4.63
255.782	-3.19
255.998	-5.19
256.214	-3.64
256.43	-3
256.646	-3.61
256.861	-6.66
257.077	-5.54
257.293	-3.32
257.508	-1.23
257.724	-2.45
257.94	-3.39
258.155	-3
258.371	-0.21
258.587	-0.07
258.802	-0.75
259.018	0.37
259.234	0.43
259.449	1.26
259.665	1.55
259.88	1.59
260.096	2.14
260.312	2.34
260.527	2.09
260.743	2.32
260.958	2.07
261.174	1.79
261.389	2.05
261.605	3.03
261.82	2.09
262.036	3.17
262.251	1.83
262.466	0.61
262.682	-1.12
262.897	-2.4
263.113	-5
263.328	-6.2
263.543	-4.66
263.759	-7.99
263.974	-9.86
264.189	-8.27
264.405	-12.29
264.62	-10.02
264.835	-7.25
265.051	-5.92
265.266	-5.37
265.481	-7.02
265.696	-4.11
265.912	-7.98
266.127	-5.26
266.342	-2.47
266.557	-1.45
266.773	-2.11
266.988	-0.34
267.203	-0.84
267.418	-0.65
267.633	-0.1
267.848	1.05
268.064	0.07
268.279	2.56
268.494	0.83
268.709	-2.04
268.924	-3.22
269.139	-2.75
269.354	-4.08
269.569	-3.17
269.784	-3.63
269.999	-4.78
270.214	-3.51
270.429	-3.98
270.644	-5.48
270.859	-2.53
271.074	-1.63
271.289	-0.01
271.504	1.08
271.719	1.06
271.934	0.27
272.149	0.01
272.363	0.52
272.578	0.55
272.793	1.73
273.008	3.19
273.223	1.62
273.438	1.46
273.653	-1.01
273.867	-1.07
274.082	-1.5
274.297	-1.44
274.512	-0.93
274.726	-0.14
274.941	0.08
275.156	-0.15
275.371	-0.98
275.585	-0.63
275.8	0.67
276.015	2.75
276.229	0.08
276.444	0.44
276.659	-0.79
276.873	-0.22
277.088	-0.89
277.302	-2.34
277.517	-3.88
277.732	-4.27
277.946	-4.51
278.161	-5.21
278.375	-5.27
278.59	-3.22
278.804	-3.83
279.019	-2.44
279.233	-4.45
279.448	-5.05
279.662	-4.16
279.877	-4.46
280.091	-3.18
280.306	-2.32
280.52	-3.57
280.735	-3.51
280.949	-2.88
281.163	-2.28
281.378	-1.31
281.592	-1.86
281.806	-0.12
282.021	-0.85
282.235	0.33
282.449	-0.03
282.664	1.37
282.878	2.37
283.092	2.61
283.307	2.55
283.521	2.13
283.735	0.53
283.949	1.93
284.164	1.1
284.378	1.97
284.592	2.11
284.806	1.18
285.02	-0.97
285.234	-0.41
285.449	-1.47
285.663	-1.36
285.877	-2.47
286.091	-0.79
286.305	0.14
286.519	0.38
286.733	-0.82
286.947	-1.76
287.161	-1.3
287.375	-0.69
287.589	0.04
287.803	0.05
288.017	-0.23
288.231	1.23
288.445	0.82
288.659	0.55
288.873	-0.24
289.087	1.53
289.301	1.93
289.515	1.66
289.729	2.73
289.943	0.62
290.157	1.2
290.371	1.09
290.584	1.45
290.798	1.38
291.012	1.16
291.226	0.69
291.44	0.14
291.654	0.46
291.867	1.33
292.081	0.19
292.295	1.43
292.509	1.58
292.722	1.72
292.936	1.49
293.15	1.8
293.364	2.33
293.577	2.98
293.791	3.33
294.005	3.45
294.218	2.91
294.432	2.44
294.645	2.08
294.859	2.26
295.073	3.16
295.286	3.45
295.5	3.41
295.713	2.21
295.927	3.18
296.14	2.96
296.354	3.49
296.568	3.66
296.781	3.75
296.994	4.69
297.208	4.37
297.421	5.04
297.635	5.1
297.848	4.82
298.062	5.06
298.275	4.84
298.489	4.89
298.702	4.98
298.915	5.83
299.129	5.59
299.342	4.6
299.555	4.17
299.769	2.98
299.982	2.96
300.195	1.16
300.409	1.65
300.622	1.28
300.835	1.77
301.048	1.72
301.262	0.95
301.475	1.95
301.688	2.59
301.901	3.76
302.115	3.88
302.328	4.19
302.541	5.84
302.754	6.04
302.967	5.82
303.18	6.27
303.393	5.97
303.607	6.29
303.82	6.44
304.033	5.52
304.246	5.57
304.459	5.47
304.672	5.61
304.885	5.33
305.098	4.73
305.311	5.37
305.524	4.69
305.737	4.28
305.95	3.17
306.163	4.33
306.376	5.34
306.589	4.84
306.802	4.47
307.015	4.45
307.228	5.05
307.44	6.11
307.653	5.01
307.866	4.72
308.079	5.28
308.292	7.06
308.505	6.1
308.718	7.01
308.93	8.65
309.143	9.19
309.356	8.93
309.569	9.47
309.781	9.65
309.994	10.94
310.207	10.75
310.42	9.69
310.632	9.91
310.845	10
311.058	8.94
311.27	8.4
311.483	9.12
311.696	9.23
311.908	9.01
312.121	8.9
312.333	9.46
312.546	9.87
312.759	10.88
312.971	10.16
313.184	10.39
313.396	10.24
313.609	10.24
313.821	10.46
314.034	9.72
314.246	9.11
314.459	9.31
314.671	7.75
314.884	8.18
315.096	8.87
315.309	8.62
315.521	9.47
315.733	9.59
315.946	9.59
316.158	8.86
316.371	9.79
316.583	8.93
316.795	9.03
317.008	11.13
317.22	10.45
317.432	9.55
317.644	10.36
317.857	9.42
318.069	9.64
318.281	7.72
318.494	7.31
318.706	7.34
318.918	9.27
319.13	7.33
319.342	6.47
319.555	7.45
319.767	7.41
319.979	7.05
320.191	7.94
320.403	8.72
320.615	10.31
320.827	10.96
321.039	11.22
321.252	10.97
321.464	13.06
321.676	12.1
321.888	12.45
322.1	13.62
322.312	12.93
322.524	11.88
322.736	11.05
322.948	11.31
323.16	11.64
323.372	11.02
323.584	11.42
323.796	11.03
324.007	12.1
324.219	11.71
324.431	10.62
324.643	11.3
324.855	12.13
325.067	14.37
325.279	14.02
325.491	13.65
325.702	13.84
325.914	14.54
326.126	13.77
326.338	14.72
326.55	15.98
326.761	17.18
326.973	17.44
327.185	17.16
327.396	15.62
327.608	16.32
327.82	16.79
328.032	16.82
328.243	16.84
328.455	17.57
328.666	15.79
328.878	15.03
329.09	14.59
329.301	14.37
329.513	15.28
329.725	16
329.936	16.63
330.148	16.06
330.359	17.64
330.571	17.43
330.782	17.87
330.994	17.95
331.205	17.87
331.417	19.15
331.628	18.79
331.84	18.73
332.051	18.41
332.262	17.76
332.474	19.36
332.685	18.97
332.897	19.11
333.108	19.52
333.319	20.83
333.531	20.56
333.742	20.92
333.953	23.38
334.165	24.11
334.376	25.15
334.587	26.2
334.799	26.75
335.01	26.75
335.221	27.42
335.432	29.26
335.644	29.19
335.855	29.25
336.066	29.2
336.277	28.8
336.488	29.82
336.7	30
336.911	30.28
337.122	29.68
337.333	29.78
337.544	29.83
337.755	29.18
337.966	30.79
338.177	32.72
338.388	32.25
338.599	32.33
338.811	30.54
339.022	31.01
339.233	31.3
339.444	31.31
339.655	31.62
339.866	30.99
340.076	30.74
340.287	29.94
340.498	28.68
340.709	29.27
340.92	29.6
341.131	30.24
341.342	30.63
341.553	30.66
341.764	32
341.975	31.91
342.185	32.59
342.396	32.64
342.607	32.56
342.818	33.43
343.029	33.29
343.239	32.89
343.45	32.64
343.661	32.31
343.872	31.83
344.082	30.96
344.293	30.77
344.504	31.1
344.714	30.68
344.925	29.69
345.136	29.09
345.346	29.49
345.557	29
345.768	29.48
345.978	29.45
346.189	30.02
346.399	29.59
346.61	30.03
346.821	30.42
347.031	30.73
347.242	31.17
347.452	31.68
347.663	32.1
347.873	32.96
348.084	32.64
348.294	31.71
348.504	31.25
348.715	30.96
348.925	31.43
349.136	31.24
349.346	31.75
349.557	32.48
349.767	32
349.977	32.13
350.188	32.36
350.398	32.97
350.608	33.82
350.819	32.81
351.029	33.55
351.239	33.75
351.449	33.02
351.66	33.58
351.87	32.42
352.08	33.02
352.29	32.87
352.501	32.5
352.711	31.99
352.921	31.6
353.131	31.72
353.341	31.35
353.552	28.82
353.762	29.15
353.972	27.78
354.182	29.79
354.392	29.34
354.602	29.41
354.812	30.24
355.022	30.05
355.232	30.62
355.442	31.1
355.652	31.03
355.862	33.08
356.072	33.06
356.282	32.73
356.492	31.79
356.702	31.92
356.912	32.1
357.122	32.27
357.332	32.48
357.542	31.98
357.752	32.36
357.962	33.05
358.171	31.48
358.381	31.59
358.591	32.56
358.801	32.09
359.011	31.86
359.221	31.21
359.43	30.85
359.64	30.55
359.85	30.93
360.06	30.39
360.269	29.99
360.479	31.16
360.689	30.54
360.899	30.22
361.108	30.87
361.318	30.66
361.528	31.25
361.737	31.48
361.947	31.76
362.156	31.53
362.366	32.36
362.576	32.64
362.785	32.89
362.995	33.64
363.204	33.99
363.414	33.54
363.623	33.78
363.833	32.98
364.042	32
364.252	32.54
364.461	32.67
364.671	31.77
364.88	31.07
365.09	30.65
365.299	30
365.509	29.38
365.718	29.78
365.927	29.15
366.137	29.81
366.346	30.9
366.555	30.64
366.765	30.45
366.974	30.5
367.183	30.64
367.393	30.52
367.602	31.45
367.811	31.95
368.021	31.8
368.23	32.27
368.439	31.97
368.648	31.44
368.857	31.22
369.067	31.56
369.276	31.41
369.485	30.91
369.694	30.17
369.903	28.9
370.112	28.63
370.321	28.97
370.531	28.62
370.74	28.14
370.949	27.58
371.158	27.54
371.367	26.75
371.576	26.7
371.785	27.65
371.994	28.43
372.203	28.63
372.412	28.37
372.621	27.86
372.83	28.34
373.039	28.17
373.248	27.95
373.457	28.21
373.666	29.34
373.874	29.5
374.083	28.94
374.292	28.66
374.501	29.26
374.71	28.7
374.919	28.53
375.128	28.62
375.336	28.34
375.545	28.91
375.754	28.2
375.963	27.11
376.171	26.8
376.38	26.75
376.589	27.06
376.798	26.61
377.006	27.16
377.215	27.46
377.424	27.05
377.632	27.18
377.841	26.54
378.05	26.67
378.258	27.04
378.467	27.32
378.675	27.31
378.884	26.5
379.093	26.54
379.301	26.78
379.51	26.29
379.718	26.3
379.927	26.6
380.135	27.21
380.344	26.58
380.552	26.03
380.761	26.41
380.969	26.51
381.177	27.15
381.386	27.02
381.594	26.61
381.803	26.83
382.011	26.61
382.219	26.46
382.428	26.08
382.636	26.6
382.845	26.76
383.053	26.29
383.261	26.12
383.469	25.7
383.678	25.39
383.886	25.16
384.094	24.96
384.302	25.11
384.511	25.23
384.719	25.17
384.927	25.06
385.135	24.95
385.343	25
385.552	24.84
385.76	24.72
385.968	24.73
386.176	25.13
386.384	24.97
386.592	24.83
386.8	24.59
387.008	24.71
387.216	24.33
387.424	24.68
387.633	24.4
387.841	24.28
388.049	24.31
388.257	24.38
388.465	24.38
388.672	24.57
388.88	24.8
389.088	24.77
389.296	24.51
389.504	25.1
389.712	24.83
389.92	25.26
390.128	25.36
390.336	25.51
390.544	25.7
390.751	25.13
390.959	24.96
391.167	25.03
391.375	25.25
391.583	25.41
391.79	25.27
391.998	25.65
392.206	25.43
392.414	25.44
392.621	25.33
392.829	25.31
393.037	25.24
393.244	25.45
393.452	24.89
393.66	24.96
393.867	24.9
394.075	24.96
394.283	24.74
394.49	24.91
394.698	24.9
394.905	25.22
395.113	25.23
395.32	25.63
395.528	25.65
395.735	25.89
395.943	25.88
396.15	26.24
396.358	26.03
396.565	26.1
396.773	25.91
396.98	26.06
397.188	25.94
397.395	25.73
397.602	25.33
397.81	25.26
398.017	25.74
398.225	25.65
398.432	25.47
398.639	25.62
398.847	25.48
399.054	25.23
399.261	25.13
399.468	25.08
399.676	25.27
399.883	25.83
400.09	25.81
400.297	25.4
400.505	25.5
400.712	25.28
400.919	25.56
401.126	25.68
401.333	26.14
401.54	26.17
401.748	25.97
401.955	25.76
402.162	25.81
402.369	25.88
402.576	26.07
402.783	26.28
402.99	26.64
403.197	26.26
403.404	26.05
403.611	25.98
403.818	26.21
404.025	26.37
404.232	26.67
404.439	26.46
404.646	26.72
404.853	26.63
405.06	26.39
405.267	26.25
405.474	26.16
405.681	26.6
405.887	26.55
406.094	26.46
406.301	26.38
406.508	26.06
406.715	26.09
406.922	25.93
407.128	25.96
407.335	25.89
407.542	25.75
407.749	26.02
407.955	25.46
408.162	25.65
408.369	25.76
408.575	26.04
408.782	25.98
408.989	26.03
409.195	25.89
409.402	25.81
409.609	25.81
409.815	25.56
410.022	25.51
410.228	25.86
410.435	25.52
410.642	25.21
410.848	24.93
411.055	25.16
411.261	25.03
411.468	24.84
411.674	24.95
411.881	24.85
412.087	25.06
412.294	24.85
412.5	24.74
412.706	25
412.913	25.1
413.119	25.31
413.326	25.37
413.532	25.14
413.738	25.4
413.945	25.16
414.151	25.28
414.357	25.67
414.564	25.82
414.77	25.75
414.976	25.73
415.182	25.39
415.389	25.3
415.595	25.14
415.801	25.38
416.007	25.07
416.214	25
416.42	24.84
416.626	24.44
416.832	24.44
417.038	24.42
417.244	24.36
417.45	24.47
417.657	24.59
417.863	24.58
418.069	24.45
418.275	24.69
418.481	24.74
418.687	24.72
418.893	24.97
419.099	24.93
419.305	24.86
419.511	24.82
419.717	24.69
419.923	24.67
420.129	24.63
420.335	24.68
420.541	24.56
420.746	24.56
420.952	24.54
421.158	24.38
421.364	24.42
421.57	24.44
421.776	24.48
421.982	24.63
422.187	24.57
422.393	24.6
422.599	24.75
422.805	24.79
423.01	24.87
423.216	24.9
423.422	24.75
423.628	24.58
423.833	24.57
424.039	24.57
424.245	24.66
424.45	24.6
424.656	24.59
424.862	24.44
425.067	24.35
425.273	24.25
425.478	24.19
425.684	24.24
425.889	24.49
426.095	24.46
426.301	24.23
426.506	24.09
426.712	24.33
426.917	24.17
427.123	24.19
427.328	24.21
427.533	24.12
427.739	24.33
427.944	24.49
428.15	24.28
428.355	24.26
428.561	24.42
428.766	24.22
428.971	23.94
429.177	24.21
429.382	24.16
429.587	24.28
429.793	24.39
429.998	24.38
430.203	24.4
430.408	24.39
430.614	24.52
430.819	24.54
431.024	24.64
431.229	24.67
431.434	24.48
431.64	24.57
431.845	24.64
432.05	24.69
432.255	24.5
432.46	24.34
432.665	24.33
432.87	24.33
433.076	24.37
433.281	24.39
433.486	24.2
433.691	24.26
433.896	24.17
434.101	24.2
434.306	24.14
434.511	24.18
434.716	24.35
434.921	24.52
435.126	24.5
435.331	24.36
435.535	24.56
435.74	24.63
435.945	24.65
436.15	24.68
436.355	24.52
436.56	24.55
436.765	24.41
436.97	24.13
437.174	23.83
437.379	23.73
437.584	23.86
437.789	23.78
437.993	23.92
438.198	23.88
438.403	23.75
438.608	23.77
438.812	23.73
439.017	23.74
439.222	23.85
439.426	24.08
439.631	24.21
439.836	24.33
440.04	24.25
440.245	24.12
440.45	24.24
440.654	24.36
440.859	24.31
441.063	24.37
441.268	24.33
441.472	24.4
441.677	24.34
441.881	24.24
442.086	24.06
442.29	24.25
442.495	24.32
442.699	24.2
442.904	24.19
443.108	24.38
443.312	24.25
443.517	24.5
443.721	24.56
443.925	24.55
444.13	24.62
444.334	24.56
444.538	24.41
444.743	24.41
444.947	24.29
445.151	24.34
445.356	24.29
445.56	24.32
445.764	24.2
445.968	24.13
446.173	24.08
446.377	24.02
446.581	24.04
446.785	23.92
446.989	23.88
447.193	23.93
447.398	23.65
447.602	23.35
447.806	23.42
448.01	23.33
448.214	23.37
448.418	23.37
448.622	23.22
448.826	23.13
449.03	23.23
449.234	23.37
449.438	23.32
449.642	23.61
449.846	23.97
450.05	23.68
450.254	23.82
450.458	23.65
450.662	23.54
450.866	23.72
451.069	23.68
451.273	23.59
451.477	23.46
451.681	23.39
451.885	23.25
452.089	23.13
452.292	23.36
452.496	23.2
452.7	23.15
452.904	23.1
453.107	23.02
453.311	22.99
453.515	22.82
453.719	22.89
453.922	23.01
454.126	23.01
454.33	23.07
454.533	22.75
454.737	22.77
454.94	22.58
455.144	22.68
455.348	22.76
455.551	22.84
455.755	22.94
455.958	22.71
456.162	22.58
456.365	22.56
456.569	22.37
456.772	22.75
456.976	22.6
457.179	22.94
457.383	22.95
457.586	22.91
457.79	22.85
457.993	22.85
458.196	23.08
458.4	23.19
458.603	23.14
458.807	23.3
459.01	23.12
459.213	23.31
