Data from 2938060_Reflection_3.txt Node
Date: Sun Jul 12 13:51:36 EDT 2015
User: robert
Spectrometer: USB4E03001
Autoset integration time: false
Trigger mode: 4
Integration Time (sec): 1.000000E-1
Scans to average: 10
Electric dark correction enabled: true
Nonlinearity correction enabled: false
Boxcar width: 5
Stray light correction enabled: false
XAxis mode: Wavelengths
Stop averaging: false
Number of Pixels in Spectrum: 3648
>>>>>Begin Spectral Data<<<<<
177.566	11.55
177.785	-12.42
178.005	-114
178.225	13.84
178.445	13.35
178.665	5.76
178.885	949.59
179.105	60.75
179.324	75.09
179.544	78.15
179.764	125
179.984	268.28
180.204	-51.27
180.423	110.08
180.643	182.9
180.863	295.94
181.083	-1274.35
181.302	-141.11
181.522	-155.5
181.742	-216.75
181.961	-74.03
182.181	-119.29
182.401	-102.4
182.621	-229.12
182.84	-194.99
183.06	-79.43
183.279	-69.1
183.499	-139.08
183.719	-83.41
183.938	-47.5
184.158	-37.02
184.377	-102.52
184.597	-226.11
184.816	-134.54
185.036	-16.3
185.256	1.55
185.475	-66.98
185.695	-50.74
185.914	-34.93
186.134	-84.09
186.353	-88.5
186.572	-60.59
186.792	-11.44
187.011	-4.92
187.231	-4.19
187.45	-38.89
187.67	-15.77
187.889	12.58
188.108	-5.69
188.328	8.55
188.547	-10.37
188.766	-49.1
188.986	-73.97
189.205	-92.96
189.424	-53.31
189.644	-76.4
189.863	-56.75
190.082	-59.45
190.302	-81.53
190.521	-57.81
190.74	-92.04
190.959	-154.71
191.178	-66.31
191.398	-47.65
191.617	-106.72
191.836	-239.95
192.055	-57833.33
192.274	2137.72
192.494	611.98
192.713	259.99
192.932	479.94
193.151	562.07
193.37	-487.08
193.589	-2446.37
193.808	1221.2
194.027	991.67
194.246	1373.68
194.465	-5513.82
194.685	-543.22
194.904	-313.1
195.123	-195.26
195.342	-217.76
195.561	-270.26
195.78	-250.22
195.999	-393.29
196.218	-283.75
196.436	-375.5
196.655	-288.01
196.874	-163.01
197.093	-241.06
197.312	-696.63
197.531	-742.96
197.75	-557.1
197.969	2482.28
198.188	-454.99
198.407	-147.86
198.625	-68.74
198.844	-54.8
199.063	-58.58
199.282	-108.3
199.501	-109.44
199.719	-28.04
199.938	-27.47
200.157	-91.32
200.376	-71
200.594	-179.47
200.813	-161.47
201.032	-132.5
201.251	-188.31
201.469	-97.62
201.688	-124.72
201.907	-97.85
202.125	-215.62
202.344	-306.66
202.563	-113.48
202.781	-214.11
203	-213.79
203.218	-556.5
203.437	-5135.94
203.656	-597.56
203.874	-448.71
204.093	-370.57
204.311	-491.15
204.53	-392.35
204.748	-397
204.967	-1267.27
205.185	-434.2
205.404	-397.8
205.622	-262.67
205.841	-269.88
206.059	-505.14
206.278	-972.38
206.496	-7330.88
206.715	2103.36
206.933	2210.15
207.151	-953.57
207.37	-865.56
207.588	-1299.08
207.806	-606.25
208.025	-612.6
208.243	-1412.89
208.461	-738.56
208.68	3274.37
208.898	-621.21
209.116	-242.7
209.335	-327.13
209.553	-55627.27
209.771	-3623.05
209.989	-426.91
210.208	-503.01
210.426	-194.51
210.644	-183
210.862	-164.01
211.081	-57.25
211.299	-35.57
211.517	-39.66
211.735	-59.68
211.953	-42.78
212.171	-56.53
212.39	-106.66
212.608	-169.94
212.826	-581.51
213.044	-151.88
213.262	-46.77
213.48	-58.4
213.698	-141.41
213.916	-299.62
214.134	-244.04
214.352	-170.6
214.57	-102.4
214.788	-90.97
215.006	-9.68
215.224	-24.98
215.442	-207.82
215.66	404.62
215.878	267.69
216.096	458.3
216.314	583.97
216.532	-129.52
216.75	-463.2
216.968	-3861.78
217.185	-334.61
217.403	-2857.25
217.621	-474.14
217.839	-391.18
218.057	-531.94
218.275	-513.05
218.492	-567.38
218.71	-405.24
218.928	-956.5
219.146	-1032.58
219.363	-413.46
219.581	-349.79
219.799	-183.83
220.017	-282.81
220.234	-228.77
220.452	-345.92
220.67	-304.81
220.887	-313.24
221.105	-372.47
221.323	-230.15
221.54	-154.74
221.758	-140.73
221.976	-181.83
222.193	-256.41
222.411	-205.06
222.629	-162.62
222.846	-120.79
223.064	-201.66
223.281	-181.68
223.499	-129.84
223.716	-150.42
223.934	-126.35
224.151	-122.8
224.369	-92.11
224.586	-70.45
224.804	-49.24
225.021	-89.41
225.239	-81.49
225.456	-45.02
225.674	-41.16
225.891	-47.31
226.108	-54.31
226.326	-54.17
226.543	-69.22
226.76	-59.77
226.978	-64.45
227.195	-66.1
227.413	-51.68
227.63	-39.22
227.847	-34.88
228.064	-29.81
228.282	-27.02
228.499	-21.1
228.716	-17.86
228.934	-15.13
229.151	-12.01
229.368	-6.02
229.585	-3.72
229.802	-0.7
230.02	-2.28
230.237	-3.65
230.454	-4.19
230.671	-4.78
230.888	-8.78
231.105	-13.33
231.323	-14.27
231.54	-19.5
231.757	-29.2
231.974	-35.4
232.191	-43.43
232.408	-53.96
232.625	-57.65
232.842	-59.99
233.059	-64.42
233.276	-55.13
233.493	-49.65
233.71	-64.48
233.927	-60.24
234.144	-55.25
234.361	-48.1
234.578	-48.1
234.795	-38.25
235.012	-34.71
235.229	-33.49
235.446	-27.78
235.663	-28.91
235.879	-29.94
236.096	-23.85
236.313	-19.27
236.53	-25.69
236.747	-30.09
236.964	-34.84
237.181	-31.79
237.397	-28.79
237.614	-28.4
237.831	-36.51
238.048	-39.73
238.264	-39.51
238.481	-33.85
238.698	-39.74
238.915	-34.07
239.131	-33.58
239.348	-24.06
239.565	-28.31
239.781	-22.84
239.998	-23.57
240.215	-21.71
240.431	-20.51
240.648	-16.44
240.865	-14.89
241.081	-13.65
241.298	-12.93
241.514	-9.36
241.731	-9.6
241.947	-5.57
242.164	-6.88
242.38	-5.21
242.597	-3.2
242.814	-0.27
243.03	-2.87
243.246	-3.39
243.463	-2.63
243.679	-1.95
243.896	-3.08
244.112	-1.02
244.329	-2.13
244.545	0.11
244.762	-0.06
244.978	-0.44
245.194	-2.87
245.411	3.21
245.627	3.83
245.843	4.6
246.06	3.62
246.276	4.16
246.492	3.04
246.709	4.07
246.925	4.03
247.141	2.76
247.357	3.29
247.574	3.29
247.79	2.91
248.006	2.85
248.222	2.86
248.439	2.48
248.655	2.91
248.871	2.5
249.087	1.52
249.303	0.11
249.519	1.42
249.736	1.61
249.952	1.97
250.168	0.17
250.384	-0.59
250.6	-1.21
250.816	-2.2
251.032	-4.25
251.248	-2.82
251.464	-3.36
251.68	-3.74
251.896	-3.84
252.112	-3.59
252.328	-4.95
252.544	-7.17
252.76	-7.62
252.976	-7.6
253.192	-6.15
253.408	-5.19
253.624	-5.9
253.84	-6.57
254.056	-3.71
254.272	-4.35
254.487	-5.29
254.703	-4.82
254.919	-3.94
255.135	-3.76
255.351	-5.81
255.567	-6.74
255.782	-6.32
255.998	-5.49
256.214	-6.11
256.43	-8.13
256.646	-6.54
256.861	-8.33
257.077	-7.74
257.293	-4.47
257.508	-4.78
257.724	-4.18
257.94	-2.94
258.155	-2.02
258.371	-2.48
258.587	0.54
258.802	0.53
259.018	0.38
259.234	1.1
259.449	1.25
259.665	1.49
259.88	1.91
260.096	1.71
260.312	1.32
260.527	1.08
260.743	0.98
260.958	-0.19
261.174	-0.46
261.389	-0.69
261.605	-1.17
261.82	-1.09
262.036	-1.83
262.251	-3.12
262.466	-3.14
262.682	-3
262.897	-4.86
263.113	-3.93
263.328	-3.69
263.543	-3.71
263.759	-4.12
263.974	-5.13
264.189	-6.17
264.405	-6.72
264.62	-6.9
264.835	-7.07
265.051	-6.19
265.266	-6.19
265.481	-7.47
265.696	-4.86
265.912	-5.67
266.127	-5.84
266.342	-4.9
266.557	-4.23
266.773	-3.57
266.988	-3.52
267.203	-3.87
267.418	-3.38
267.633	-1.89
267.848	-1.43
268.064	-3.37
268.279	-1.92
268.494	-1.26
268.709	-1.31
268.924	-0.3
269.139	-0.09
269.354	0.46
269.569	1
269.784	-0.34
269.999	-0.67
270.214	-0.82
270.429	0.18
270.644	-0.38
270.859	-1.11
271.074	-1.89
271.289	-1.62
271.504	-1
271.719	0.51
271.934	1.16
272.149	1.12
272.363	0.31
272.578	-0.61
272.793	-1.61
273.008	-0.75
273.223	0.29
273.438	0.53
273.653	-0.67
273.867	-1.81
274.082	-3.38
274.297	-3.52
274.512	-2.82
274.726	-3.25
274.941	-1.16
275.156	-0.61
275.371	-2.33
275.585	-2.08
275.8	-2.02
276.015	-0.77
276.229	-0.31
276.444	0.92
276.659	-0.41
276.873	-1.11
277.088	0.43
277.302	-1.44
277.517	-0.77
277.732	-0.23
277.946	-2.25
278.161	-2.39
278.375	-3.81
278.59	-4.18
278.804	-3.81
279.019	-2.82
279.233	-2.44
279.448	-3.56
279.662	-2.33
279.877	-1.41
280.091	-0.34
280.306	1.09
280.52	1.52
280.735	3.15
280.949	4.18
281.163	3.05
281.378	3.19
281.592	4.39
281.806	5.38
282.021	4.88
282.235	4.34
282.449	4.34
282.664	3.16
282.878	3.04
283.092	2.17
283.307	2.15
283.521	1.64
283.735	2
283.949	0.24
284.164	1.21
284.378	1.22
284.592	0.73
284.806	1.69
285.02	2.05
285.234	1.32
285.449	0.99
285.663	0.8
285.877	0.64
286.091	-0.38
286.305	0.04
286.519	-0.81
286.733	-0.66
286.947	-0.68
287.161	-2.11
287.375	-1.99
287.589	-1.01
287.803	-0.5
288.017	-1.41
288.231	-1.63
288.445	-1.75
288.659	-1.24
288.873	-1.2
289.087	-0.75
289.301	-2.23
289.515	-2.92
289.729	-1.91
289.943	-1.96
290.157	-2.17
290.371	-2.02
290.584	-0.85
290.798	0.08
291.012	0.42
291.226	0.07
291.44	0.2
291.654	1.4
291.867	2.19
292.081	1.99
292.295	0.89
292.509	0.54
292.722	1.13
292.936	0.7
293.15	-0.03
293.364	-1.95
293.577	-1.8
293.791	-1.52
294.005	-0.85
294.218	-0.13
294.432	-1
294.645	-0.63
294.859	-0.09
295.073	-0.4
295.286	-0.65
295.5	0.27
295.713	1.16
295.927	0.84
296.14	1.17
296.354	0.78
296.568	1.48
296.781	2.09
296.994	3.15
297.208	3.46
297.421	3.79
297.635	4.22
297.848	4.33
298.062	5.12
298.275	5.7
298.489	5.4
298.702	6.08
298.915	4.92
299.129	5.01
299.342	4.63
299.555	4.45
299.769	4.38
299.982	4.22
300.195	3.99
300.409	2.48
300.622	2.72
300.835	1.87
301.048	1.37
301.262	2.66
301.475	3.29
301.688	4.19
301.901	3.75
302.115	4.54
302.328	5.1
302.541	6.4
302.754	7.97
302.967	7.21
303.18	6.61
303.393	7.01
303.607	5.92
303.82	5.54
304.033	5.2
304.246	4.7
304.459	3.66
304.672	3.94
304.885	3.3
305.098	2.41
305.311	2.44
305.524	4.61
305.737	4.44
305.95	3.82
306.163	3.34
306.376	3.81
306.589	5.09
306.802	5.83
307.015	5.39
307.228	4.36
307.44	3.81
307.653	5.34
307.866	3.89
308.079	4
308.292	5.02
308.505	5.75
308.718	5.92
308.93	5.43
309.143	6.02
309.356	7.04
309.569	7.49
309.781	9.19
309.994	9.01
310.207	9.69
310.42	9.73
310.632	9.46
310.845	8.67
311.058	8.32
311.27	8.91
311.483	8.99
311.696	8.39
311.908	8.52
312.121	7.51
312.333	6.18
312.546	5.35
312.759	5.06
312.971	3.96
313.184	4.2
313.396	3.76
313.609	3.48
313.821	2.39
314.034	1.91
314.246	1.53
314.459	3.03
314.671	3.72
314.884	4.2
315.096	5.81
315.309	6.63
315.521	6.3
315.733	6.4
315.946	6.75
316.158	6.15
316.371	6.13
316.583	6.12
316.795	3.98
317.008	3.11
317.22	3.39
317.432	0.88
317.644	2.45
317.857	3.32
318.069	3.28
318.281	1.7
318.494	2.71
318.706	2.09
318.918	2.1
319.13	2.67
319.342	5.56
319.555	5.14
319.767	6.29
319.979	5.01
320.191	5.35
320.403	6.5
320.615	7.72
320.827	8.9
321.039	8.56
321.252	8.34
321.464	7.93
321.676	6.05
321.888	6.06
322.1	5.59
322.312	6.48
322.524	6.31
322.736	5.72
322.948	5.59
323.16	4.49
323.372	4.7
323.584	6.45
323.796	7.02
324.007	7.44
324.219	7.56
324.431	7.27
324.643	7.04
324.855	6.58
325.067	7.45
325.279	6.92
325.491	7.88
325.702	8.36
325.914	7.39
326.126	7.34
326.338	7.87
326.55	8.25
326.761	9.32
326.973	10.29
327.185	10.62
327.396	9.01
327.608	9.92
327.82	10.16
328.032	8.99
328.243	8.55
328.455	9.69
328.666	8.18
328.878	8.85
329.09	8.25
329.301	7.85
329.513	7.82
329.725	8.91
329.936	8.77
330.148	8.19
330.359	10.32
330.571	11.32
330.782	10.27
330.994	12.56
331.205	12.93
331.417	14.18
331.628	14.55
331.84	15.53
332.051	16.05
332.262	16.56
332.474	15.95
332.685	18.61
332.897	19.11
333.108	17.33
333.319	17.15
333.531	16.29
333.742	17.03
333.953	17.46
334.165	18.19
334.376	18.54
334.587	18.75
334.799	20.23
335.01	18.45
335.221	17.64
335.432	19.28
335.644	18.15
335.855	19.71
336.066	19.72
336.277	20.22
336.488	20.35
336.7	20.48
336.911	20.08
337.122	20.22
337.333	20.51
337.544	21.32
337.755	22.39
337.966	23.74
338.177	21.79
338.388	20.87
338.599	20.13
338.811	19.09
339.022	19.06
339.233	19.8
339.444	19.98
339.655	19.96
339.866	20.4
340.076	20.69
340.287	20.17
340.498	21.46
340.709	21.88
340.92	22.46
341.131	23.15
341.342	23.31
341.553	23.59
341.764	22.87
341.975	21.98
342.185	21.05
342.396	20.95
342.607	20.83
342.818	21.73
343.029	21.58
343.239	20.97
343.45	21.02
343.661	20.51
343.872	19.7
344.082	19.5
344.293	20.28
344.504	20.47
344.714	19.27
344.925	19.6
345.136	18.76
345.346	18.94
345.557	18.9
345.768	19.13
345.978	19.34
346.189	19.44
346.399	19.2
346.61	19.85
346.821	20.03
347.031	21.33
347.242	20.66
347.452	19.99
347.663	19.76
347.873	19.16
348.084	18.46
348.294	17.65
348.504	18.37
348.715	18.41
348.925	17.46
349.136	17.6
349.346	16.6
349.557	16.69
349.767	17.25
349.977	17.64
350.188	17.36
350.398	18.43
350.608	18.51
350.819	18.14
351.029	19.74
351.239	20.23
351.449	19.74
351.66	20.12
351.87	20.7
352.08	21.68
352.29	22.3
352.501	23.95
352.711	24.21
352.921	24.63
353.131	24.35
353.341	23.44
353.552	23.49
353.762	23.69
353.972	24.67
354.182	25.05
354.392	24.8
354.602	24.59
354.812	23.94
355.022	23.05
355.232	23.27
355.442	23.43
355.652	22.63
355.862	23.37
356.072	23.89
356.282	24.04
356.492	23.99
356.702	24.56
356.912	24.14
357.122	24.1
357.332	24.67
357.542	24.39
357.752	24.59
357.962	24.97
358.171	24.94
358.381	24.95
358.591	24.11
358.801	23.83
359.011	23.42
359.221	23.98
359.43	24.38
359.64	24
359.85	24.72
360.06	24.84
360.269	25.22
360.479	24.75
360.689	24.62
360.899	25
361.108	25.89
361.318	25.91
361.528	26.52
361.737	27.23
361.947	27.27
362.156	27.81
362.366	27.42
362.576	27.35
362.785	27.51
362.995	27.33
363.204	26.89
363.414	26.01
363.623	25.92
363.833	24.86
364.042	24
364.252	23.7
364.461	23.03
364.671	23.87
364.88	23.69
365.09	23.49
365.299	23.84
365.509	24.27
365.718	24.77
365.927	24.36
366.137	24.16
366.346	24.26
366.555	25.14
366.765	24.79
366.974	24.54
367.183	24.58
367.393	24.93
367.602	25.53
367.811	24.23
368.021	23.65
368.23	23.65
368.439	24.09
368.648	23.06
368.857	22.38
369.067	22.16
369.276	21.67
369.485	22.35
369.694	22.12
369.903	21.31
370.112	22.61
370.321	22.69
370.531	23.06
370.74	22.96
370.949	23.17
371.158	23.16
371.367	23.5
371.576	23.42
371.785	23.11
371.994	22.37
372.203	21.94
372.412	21.69
372.621	21.64
372.83	21.26
373.039	20.81
373.248	21.7
373.457	21.29
373.666	20.99
373.874	20.72
374.083	20.48
374.292	21.49
374.501	21.71
374.71	21.99
374.919	21.41
375.128	21.94
375.336	21.85
375.545	21.19
375.754	21.16
375.963	21
376.171	21.21
376.38	20.93
376.589	20.11
376.798	20.32
377.006	20
377.215	21.1
377.424	20.96
377.632	21.45
377.841	21.25
378.05	21.38
378.258	20.94
378.467	20.89
378.675	20.88
378.884	20.93
379.093	20.95
379.301	20.96
379.51	20.9
379.718	21.03
379.927	20.48
380.135	20.95
380.344	21.01
380.552	21.71
380.761	22
380.969	22.23
381.177	22.05
381.386	22.23
381.594	22.39
381.803	21.61
382.011	21.05
382.219	21.83
382.428	21.65
382.636	21.53
382.845	21.42
383.053	21.1
383.261	20.6
383.469	20.84
383.678	20.65
383.886	20.93
384.094	21.28
384.302	21.58
384.511	21.26
384.719	21.3
384.927	21.28
385.135	21.29
385.343	21.41
385.552	21.77
385.76	21.64
385.968	21.37
386.176	21.04
386.384	21.15
386.592	21.09
386.8	20.82
387.008	20.7
387.216	20.62
387.424	20.29
387.633	20.04
387.841	19.82
388.049	19.68
388.257	19.62
388.465	19.7
388.672	19.77
388.88	19.37
389.088	19.4
389.296	19.46
389.504	19.62
389.712	20
389.92	20.4
390.128	20.17
390.336	20.44
390.544	20.66
390.751	20.47
390.959	20.61
391.167	21.31
391.375	21.35
391.583	21.28
391.79	21.53
391.998	21.62
392.206	21.83
392.414	22.58
392.621	22.79
392.829	22.82
393.037	23.04
393.244	22.86
393.452	22.42
393.66	22.55
393.867	22.83
394.075	22.7
394.283	22.39
394.49	22.14
394.698	21.59
394.905	21.29
395.113	21.4
395.32	21.34
395.528	21.38
395.735	21.66
395.943	21.72
396.15	21.49
396.358	21.57
396.565	21.76
396.773	21.59
396.98	21.84
397.188	21.79
397.395	21.67
397.602	21.88
397.81	21.92
398.017	22.19
398.225	22.74
398.432	23.01
398.639	23.14
398.847	23.5
399.054	23.65
399.261	23.76
399.468	24.02
399.676	24.09
399.883	24.16
400.09	23.96
400.297	23.68
400.505	23.43
400.712	22.86
400.919	22.7
401.126	22.34
401.333	22.56
401.54	22.69
401.748	22.42
401.955	22.44
402.162	22.2
402.369	22.4
402.576	22.37
402.783	22.07
402.99	22.42
403.197	22.22
403.404	22.16
403.611	22.11
403.818	21.91
404.025	22.55
404.232	22.65
404.439	22.78
404.646	22.75
404.853	22.95
405.06	23.15
405.267	23.43
405.474	23.6
405.681	23.99
405.887	24.05
406.094	24.12
406.301	23.74
406.508	23.8
406.715	23.71
406.922	23.82
407.128	23.57
407.335	23.55
407.542	23.65
407.749	23.84
407.955	23.24
408.162	23.03
408.369	23.48
408.575	23.63
408.782	23.57
408.989	23.3
409.195	23.04
409.402	23.03
409.609	22.86
409.815	22.67
410.022	22.68
410.228	23.15
410.435	23.06
410.642	22.81
410.848	22.67
411.055	22.66
411.261	22.81
411.468	22.96
411.674	23.13
411.881	23
412.087	22.99
412.294	22.71
412.5	22.63
412.706	23.08
412.913	23.06
413.119	23.02
413.326	22.94
413.532	22.61
413.738	22.48
413.945	22.72
414.151	22.62
414.357	22.46
414.564	22.65
414.77	22.91
414.976	22.68
415.182	22.43
415.389	22.6
415.595	22.3
415.801	22.56
416.007	22.77
416.214	22.28
416.42	22.51
416.626	22.45
416.832	22.37
417.038	22.04
417.244	22.09
417.45	22.26
417.657	22.3
417.863	22.47
418.069	22.55
418.275	22.21
418.481	22.46
418.687	22.45
418.893	22.46
419.099	22.5
419.305	22.35
419.511	22.37
419.717	22.26
419.923	21.99
420.129	22.16
420.335	22.01
420.541	22.14
420.746	22.12
420.952	22.13
421.158	22.1
421.364	21.95
421.57	22.18
421.776	21.96
421.982	21.93
422.187	22.1
422.393	21.93
422.599	21.96
422.805	21.92
423.01	21.78
423.216	21.8
423.422	21.83
423.628	21.99
423.833	21.83
424.039	21.78
424.245	21.7
424.45	21.53
424.656	21.46
424.862	21.56
425.067	21.6
425.273	21.62
425.478	21.45
425.684	21.38
425.889	21.29
426.095	21.43
426.301	21.68
426.506	21.76
426.712	21.91
426.917	22.09
427.123	22.04
427.328	21.86
427.533	21.71
427.739	21.75
427.944	21.72
428.15	21.62
428.355	21.37
428.561	21.12
428.766	21.02
428.971	20.99
429.177	20.92
429.382	20.82
429.587	20.76
429.793	20.7
429.998	20.62
430.203	20.83
430.408	20.73
430.614	20.76
430.819	20.82
431.024	20.89
431.229	20.79
431.434	20.73
431.64	20.68
431.845	20.8
432.05	20.95
432.255	21.15
432.46	21.08
432.665	21.33
432.87	21.24
433.076	21.2
433.281	21.28
433.486	21.2
433.691	21.08
433.896	21.2
434.101	21.19
434.306	21.36
434.511	21.27
434.716	21.26
434.921	21.1
435.126	21.26
435.331	21.4
435.535	21.39
435.74	21.62
435.945	21.73
436.15	21.73
436.355	21.91
436.56	21.63
436.765	21.49
436.97	21.43
437.174	21.42
437.379	21.3
437.584	21.36
437.789	21.21
437.993	20.95
438.198	20.92
438.403	20.66
438.608	20.45
438.812	20.55
439.017	20.83
439.222	20.98
439.426	21.07
439.631	20.99
439.836	20.9
440.04	21.03
440.245	21.2
440.45	21.24
440.654	21.38
440.859	21.45
441.063	21.44
441.268	21.35
441.472	21.27
441.677	21.12
441.881	21.21
442.086	21.16
442.29	21.07
442.495	20.98
442.699	20.89
442.904	20.88
443.108	20.89
443.312	20.89
443.517	20.74
443.721	20.67
443.925	20.73
444.13	20.74
444.334	20.77
444.538	20.88
444.743	20.88
444.947	21.06
445.151	21.04
445.356	21.13
445.56	21.03
445.764	21.1
445.968	21.04
446.173	21.14
446.377	21.1
446.581	21.04
446.785	20.98
446.989	21.05
447.193	20.87
447.398	20.83
447.602	20.57
447.806	20.62
448.01	20.54
448.214	20.43
448.418	20.25
448.622	20.24
448.826	20.2
449.03	20.07
449.234	19.79
449.438	19.82
449.642	19.82
449.846	19.96
450.05	19.85
450.254	19.9
450.458	20.04
450.662	19.97
450.866	19.81
451.069	19.75
451.273	19.89
451.477	19.84
451.681	19.81
451.885	19.88
452.089	19.8
452.292	19.96
452.496	19.68
452.7	19.71
452.904	19.84
453.107	20
453.311	19.99
453.515	19.79
453.719	19.85
453.922	20.06
454.126	19.78
454.33	19.9
454.533	19.82
454.737	20.11
454.94	20.21
455.144	20.03
455.348	19.83
455.551	19.98
