Data from 2938050_Reflection_1.txt Node
Date: Sun Jul 12 14:15:46 EDT 2015
User: robert
Spectrometer: USB4E03001
Autoset integration time: false
Trigger mode: 4
Integration Time (sec): 1.000000E-1
Scans to average: 10
Electric dark correction enabled: true
Nonlinearity correction enabled: false
Boxcar width: 5
Stray light correction enabled: false
XAxis mode: Wavelengths
Stop averaging: false
Number of Pixels in Spectrum: 3648
>>>>>Begin Spectral Data<<<<<
177.566	46.89
177.785	210.07
178.005	230.49
178.225	387.26
178.445	-229.28
178.665	0.14
178.885	105.92
179.105	59.41
179.324	80.02
179.544	109.2
179.764	94.97
179.984	79.89
180.204	167.54
180.423	193.57
180.643	258.48
180.863	279.72
181.083	133.82
181.302	68.3
181.522	50.83
181.742	56.77
181.961	-3.9
182.181	-12.16
182.401	3.36
182.621	12.51
182.84	32.42
183.06	-10.53
183.279	14.78
183.499	35.19
183.719	52.58
183.938	66.72
184.158	38.33
184.377	28.83
184.597	27.03
184.816	21.07
185.036	1.55
185.256	0.31
185.475	21.27
185.695	18.39
185.914	2.02
186.134	0.19
186.353	18.36
186.572	42.29
186.792	54.87
187.011	55.6
187.231	67.03
187.45	78.56
187.67	60.35
187.889	52.62
188.108	65.51
188.328	82.54
188.547	79.96
188.766	76.98
188.986	68.92
189.205	84.5
189.424	79.68
189.644	56.57
189.863	57.97
190.082	69.7
190.302	84.52
190.521	65.91
190.74	62.61
190.959	68.85
191.178	95.21
191.398	-546.56
191.617	-39.06
191.836	-100.92
192.055	-45.89
192.274	-115.68
192.494	-117.01
192.713	-150.27
192.932	-161.76
193.151	-68.02
193.37	27.59
193.589	93.16
193.808	-55.85
194.027	-126.37
194.246	-77.42
194.465	-6.7
194.685	37.36
194.904	14.56
195.123	-36.08
195.342	-18.86
195.561	-8.9
195.78	33.14
195.999	46.76
196.218	43.08
196.436	61.19
196.655	40.46
196.874	17.97
197.093	0.58
197.312	6.74
197.531	41.55
197.75	35.64
197.969	38.69
198.188	33.82
198.407	6.41
198.625	44.53
198.844	50.96
199.063	78.12
199.282	123.65
199.501	124.4
199.719	110.08
199.938	108.56
200.157	106.41
200.376	143.59
200.594	163.95
200.813	148.94
201.032	60.41
201.251	-88.7
201.469	-65.18
201.688	-83.6
201.907	-30.38
202.125	-29.06
202.344	-0.63
202.563	-25.27
202.781	-13.9
203	6.47
203.218	-7.08
203.437	27.12
203.656	56.67
203.874	21.21
204.093	0.5
204.311	-21.04
204.53	-55.36
204.748	-46.74
204.967	-36.01
205.185	-72.83
205.404	-109.49
205.622	-62.67
205.841	-20.18
206.059	8.38
206.278	68.93
206.496	91.86
206.715	37.65
206.933	40.4
207.151	32.98
207.37	52.38
207.588	31.59
207.806	40.15
208.025	30.67
208.243	18.64
208.461	8.97
208.68	30.18
208.898	18.25
209.116	14.57
209.335	6.69
209.553	24.94
209.771	15.12
209.989	50.05
210.208	74.26
210.426	85.47
210.644	79.08
210.862	85.67
211.081	66.7
211.299	80.75
211.517	74.7
211.735	77.24
211.953	63.79
212.171	41.86
212.39	43.41
212.608	28.59
212.826	34.85
213.044	15.36
213.262	-10.32
213.48	-31.82
213.698	-18.87
213.916	-24.52
214.134	-8.75
214.352	-21.29
214.57	4.98
214.788	-5.51
215.006	-19.06
215.224	-17.62
215.442	-22.81
215.66	23.15
215.878	54.19
216.096	42.6
216.314	58.12
216.532	43.08
216.75	51.5
216.968	58.83
217.185	59.7
217.403	68.17
217.621	68.24
217.839	83.44
218.057	69.39
218.275	63.11
218.492	65.85
218.71	58.4
218.928	57.69
219.146	55.69
219.363	51.93
219.581	55.55
219.799	79.22
220.017	66.46
220.234	62.28
220.452	50.78
220.67	34.68
220.887	23.23
221.105	25.83
221.323	30.04
221.54	54.64
221.758	53.62
221.976	44.55
222.193	23.32
222.411	34.93
222.629	35.05
222.846	41.8
223.064	53.86
223.281	53.28
223.499	53.2
223.716	53.07
223.934	39.38
224.151	28.35
224.369	27.42
224.586	28.4
224.804	23.23
225.021	27.59
225.239	29.39
225.456	37.8
225.674	38.78
225.891	39.66
226.108	36.02
226.326	32.34
226.543	35.86
226.76	37.16
226.978	34.94
227.195	33.46
227.413	28.19
227.63	23.97
227.847	20.6
228.064	18.19
228.282	14.25
228.499	14.88
228.716	11.92
228.934	10.36
229.151	9.37
229.368	8.28
229.585	8.71
229.802	10.22
230.02	9.95
230.237	7.39
230.454	7.93
230.671	10.18
230.888	9.82
231.105	10.62
231.323	12.42
231.54	14.49
231.757	16.18
231.974	15.36
232.191	11.11
232.408	13.94
232.625	15.74
232.842	13.88
233.059	12.42
233.276	10.93
233.493	14.39
233.71	10.64
233.927	7.4
234.144	9.63
234.361	8.03
234.578	9.93
234.795	4.87
235.012	4.79
235.229	2.23
235.446	2.9
235.663	5.31
235.879	2.69
236.096	5.91
236.313	6.98
236.53	8.72
236.747	8.12
236.964	2.7
237.181	9.46
237.397	8.08
237.614	14.15
237.831	13.98
238.048	14.94
238.264	16.78
238.481	13.77
238.698	12.62
238.915	11.05
239.131	11.62
239.348	16.69
239.565	13.83
239.781	17.19
239.998	15.25
240.215	14.37
240.431	10.43
240.648	8.06
240.865	7.16
241.081	8
241.298	7.33
241.514	10.15
241.731	10.14
241.947	10.15
242.164	8.02
242.38	7.18
242.597	5.95
242.814	7.07
243.03	8.49
243.246	9.43
243.463	8.63
243.679	10.13
243.896	8.9
244.112	8.95
244.329	9.03
244.545	11.05
244.762	12.78
244.978	14.28
245.194	13.97
245.411	14.93
245.627	15.06
245.843	13.68
246.06	11.57
246.276	12.12
246.492	12.18
246.709	10.83
246.925	10.34
247.141	8.86
247.357	9.31
247.574	9.42
247.79	8.5
248.006	8.33
248.222	9.26
248.439	9.66
248.655	9.23
248.871	8.5
249.087	9.78
249.303	8.83
249.519	9.56
249.736	8.95
249.952	8.7
250.168	8.72
250.384	8.59
250.6	7.75
250.816	7.22
251.032	7.06
251.248	6.26
251.464	4.95
251.68	7.72
251.896	7.98
252.112	7.4
252.328	6.15
252.544	7.57
252.76	7.87
252.976	7.56
253.192	7.75
253.408	7.64
253.624	8.57
253.84	8.27
254.056	6.85
254.272	6.39
254.487	5.29
254.703	5.97
254.919	5.74
255.135	6.66
255.351	4.56
255.567	6.69
255.782	8.15
255.998	7.58
256.214	8.72
256.43	8.69
256.646	7.39
256.861	10.34
257.077	10.65
257.293	9.43
257.508	8.8
257.724	9.97
257.94	8.46
258.155	8.2
258.371	7.86
258.587	7.46
258.802	7.02
259.018	6.93
259.234	6.04
259.449	5.79
259.665	5.78
259.88	5
260.096	5
260.312	4.62
260.527	4.15
260.743	4.78
260.958	4.74
261.174	4.65
261.389	5.34
261.605	5.66
261.82	5.29
262.036	4.63
262.251	5.71
262.466	5.44
262.682	6.39
262.897	6.52
263.113	5.59
263.328	4.73
263.543	3.95
263.759	4.03
263.974	4.56
264.189	5.49
264.405	6.44
264.62	5.87
264.835	6.73
265.051	5.57
265.266	6.02
265.481	5.7
265.696	5.61
265.912	6.13
266.127	5.63
266.342	4.7
266.557	5.5
266.773	6.6
266.988	5.86
267.203	5.92
267.418	6.09
267.633	6.39
267.848	6.41
268.064	6.7
268.279	7.73
268.494	7.93
268.709	7.26
268.924	7.16
269.139	7.24
269.354	7.86
269.569	6.75
269.784	7.43
269.999	6.53
270.214	6.08
270.429	6.19
270.644	5.9
270.859	6.1
271.074	6.74
271.289	6.63
271.504	6.23
271.719	6.22
271.934	6.97
272.149	6.63
272.363	6.82
272.578	7.13
272.793	7.63
273.008	8.2
273.223	8.62
273.438	7.83
273.653	7.04
273.867	6.62
274.082	6.24
274.297	6.37
274.512	5.73
274.726	5.73
274.941	6.34
275.156	6.06
275.371	6.01
275.585	5.58
275.8	5.04
276.015	6.87
276.229	6.88
276.444	6.98
276.659	6.71
276.873	7.15
277.088	7.83
277.302	8.27
277.517	8.76
277.732	7.79
277.946	7.62
278.161	8.88
278.375	6.69
278.59	5.73
278.804	6.31
279.019	7.68
279.233	7.88
279.448	7.64
279.662	6.35
279.877	5.89
280.091	6.78
280.306	7.47
280.52	7.23
280.735	7.53
280.949	8.56
281.163	8.8
281.378	6.9
281.592	7.28
281.806	5.47
282.021	5.9
282.235	6.72
282.449	6.68
282.664	5.35
282.878	6.39
283.092	7.18
283.307	8.43
283.521	8.2
283.735	8.6
283.949	7.86
284.164	9.32
284.378	9.92
284.592	9.06
284.806	8.36
285.02	8.93
285.234	8.58
285.449	8.32
285.663	8.5
285.877	8.28
286.091	8.82
286.305	10.16
286.519	9.7
286.733	9.69
286.947	10.21
287.161	10.31
287.375	10.09
287.589	10.39
287.803	10.24
288.017	8.59
288.231	8.5
288.445	8.35
288.659	7.69
288.873	8.87
289.087	7.78
289.301	7.21
289.515	7.58
289.729	7.09
289.943	7.4
290.157	7.47
290.371	8.04
290.584	7.66
290.798	8.15
291.012	7.08
291.226	6.82
291.44	7.75
291.654	7.04
291.867	7.06
292.081	7.57
292.295	6.55
292.509	6.92
292.722	7.38
292.936	8.15
293.15	7.5
293.364	8.19
293.577	7.4
293.791	7.44
294.005	8.78
294.218	9.18
294.432	9.81
294.645	11.04
294.859	10.84
295.073	10.24
295.286	10.64
295.5	10.45
295.713	10.78
295.927	10.97
296.14	10.42
296.354	10.79
296.568	10.32
296.781	10.13
296.994	9.02
297.208	9.05
297.421	9.38
297.635	9.06
297.848	9.12
298.062	8.54
298.275	9.24
298.489	9.32
298.702	8.67
298.915	8.93
299.129	8.07
299.342	8.7
299.555	9.23
299.769	8.75
299.982	8.91
300.195	8.16
300.409	9.41
300.622	7.22
300.835	8.27
301.048	8.9
301.262	9.48
301.475	10.58
301.688	10.06
301.901	9.6
302.115	10.48
302.328	10.24
302.541	10.98
302.754	10.59
302.967	12.68
303.18	11.59
303.393	11.62
303.607	10.3
303.82	10.47
304.033	11.27
304.246	10.94
304.459	10.41
304.672	11.42
304.885	11.21
305.098	11.34
305.311	11.15
305.524	11.73
305.737	11
305.95	11.61
306.163	10.87
306.376	11.61
306.589	12.59
306.802	11.35
307.015	11.07
307.228	11.2
307.44	11.76
307.653	10.26
307.866	9.77
308.079	9.05
308.292	8.9
308.505	7.89
308.718	7.69
308.93	7.8
309.143	8.65
309.356	8.37
309.569	8.9
309.781	8.12
309.994	10.23
310.207	9.42
310.42	11.25
310.632	10.83
310.845	12.4
311.058	12.64
311.27	12.33
311.483	12.79
311.696	12.57
311.908	13.23
312.121	13.9
312.333	13.14
312.546	14.01
312.759	13.24
312.971	14.1
313.184	13.56
313.396	13.22
313.609	13.23
313.821	12.26
314.034	12.87
314.246	12.56
314.459	12.49
314.671	12.4
314.884	11.46
315.096	12.16
315.309	10.03
315.521	9.82
315.733	9.14
315.946	8.57
316.158	9.9
316.371	9.43
316.583	9.28
316.795	8.45
317.008	8.11
317.22	9.03
317.432	7.49
317.644	10.42
317.857	10.53
318.069	11.34
318.281	12.54
318.494	13.63
318.706	13.46
318.918	12.67
319.13	13.84
319.342	13.07
319.555	13.61
319.767	13.66
319.979	12.17
320.191	13.25
320.403	12.15
320.615	10.71
320.827	8.85
321.039	8.68
321.252	8.97
321.464	7.84
321.676	9.25
321.888	8.56
322.1	8.46
322.312	8.29
322.524	8.5
322.736	9.96
322.948	10.3
323.16	9.49
323.372	9.94
323.584	9.79
323.796	10.72
324.007	10.83
324.219	11.36
324.431	11.98
324.643	12.74
324.855	11.79
325.067	11.53
325.279	12.84
325.491	13.66
325.702	13.64
325.914	14.1
326.126	13.95
326.338	13.21
326.55	12.61
326.761	11.82
326.973	11.86
327.185	12.13
327.396	11.9
327.608	11.29
327.82	10.13
328.032	10
328.243	10.45
328.455	10.01
328.666	10.48
328.878	11.11
329.09	11.77
329.301	11.28
329.513	11.64
329.725	11.8
329.936	12.24
330.148	13.32
330.359	12.96
330.571	12.3
330.782	10.92
330.994	10.16
331.205	10.71
331.417	9.16
331.628	9.36
331.84	8.45
332.051	8.1
332.262	8.65
332.474	7.85
332.685	8
332.897	7.39
333.108	8.26
333.319	8.22
333.531	6.94
333.742	8.54
333.953	9.25
334.165	9.89
334.376	9.76
334.587	7.27
334.799	8.32
335.01	7.6
335.221	8.05
335.432	8.5
335.644	9.22
335.855	9.83
336.066	9.94
336.277	8.92
336.488	8.63
336.7	8.53
336.911	8.96
337.122	8.66
337.333	9.7
337.544	9.4
337.755	8.71
337.966	8.59
338.177	8.98
338.388	7.39
338.599	8.68
338.811	8.21
339.022	8.61
339.233	9.33
339.444	10.06
339.655	9.73
339.866	9.38
340.076	10.2
340.287	9.92
340.498	9.1
340.709	10.14
340.92	9.35
341.131	10.28
341.342	10.45
341.553	10.02
341.764	9.68
341.975	9.64
342.185	10.83
342.396	10.52
342.607	10.76
342.818	11.45
343.029	11.22
343.239	11.62
343.45	10.82
343.661	10.93
343.872	11.11
344.082	11.25
344.293	11.35
344.504	11.41
344.714	11.76
344.925	11.29
345.136	10.54
345.346	11.77
345.557	11.96
345.768	11.88
345.978	11.83
346.189	12.07
346.399	11.41
346.61	10.92
346.821	10.18
347.031	9.82
347.242	9.98
347.452	10.78
347.663	9.77
347.873	8.9
348.084	9.09
348.294	8.72
348.504	8.69
348.715	8.97
348.925	9.34
349.136	9.55
349.346	8.97
349.557	9.12
349.767	8.15
349.977	8.23
350.188	7.88
350.398	8.16
350.608	9.08
350.819	9.06
351.029	8.84
351.239	8
351.449	7.93
351.66	7.47
351.87	7.52
352.08	7.97
352.29	7.95
352.501	8.92
352.711	9.38
352.921	7.94
353.131	7.88
353.341	8.14
353.552	9.73
353.762	10.07
353.972	11.27
354.182	11.53
354.392	11.6
354.602	12.27
354.812	11.48
355.022	11.13
355.232	12.04
355.442	11.75
355.652	11.29
355.862	10.83
356.072	10.91
356.282	10.61
356.492	10.09
356.702	10.47
356.912	9.3
357.122	9.4
357.332	9.3
357.542	8.99
357.752	9.71
357.962	9.52
358.171	8.92
358.381	8.3
358.591	8.15
358.801	8.38
359.011	7.62
359.221	8.18
359.43	7.74
359.64	7.71
359.85	7.59
360.06	6.98
360.269	7.48
360.479	7.39
360.689	7.15
360.899	7.51
361.108	7.51
361.318	7.95
361.528	7.69
361.737	8.19
361.947	8.19
362.156	8.27
362.366	8.61
362.576	8.26
362.785	8.2
362.995	8.41
363.204	7.76
363.414	7.94
363.623	7.88
363.833	7.44
364.042	8.01
364.252	7.9
364.461	7.96
364.671	7.23
364.88	7.36
365.09	7.92
365.299	8.25
365.509	8.43
365.718	8.48
365.927	8.7
366.137	9.23
366.346	8.54
366.555	8.49
366.765	8.15
366.974	8.5
367.183	8.34
367.393	8.18
367.602	8.3
367.811	8.89
368.021	8.61
368.23	8.2
368.439	7.61
368.648	7.45
368.857	7.6
369.067	6.93
369.276	7.38
369.485	7.21
369.694	6.61
369.903	5.31
370.112	4.59
370.321	4.61
370.531	4.46
370.74	5.3
370.949	5.15
371.158	4.73
371.367	5.62
371.576	5.26
371.785	5.82
371.994	6.28
372.203	7.09
372.412	6.81
372.621	6.9
372.83	7.1
373.039	6.7
373.248	7.02
373.457	7.63
373.666	7.41
373.874	7.8
374.083	8
374.292	7.91
374.501	8.15
374.71	8.48
374.919	8.71
375.128	9.01
375.336	9.66
375.545	9.84
375.754	9.61
375.963	9.7
376.171	9.01
376.38	8.59
376.589	8.3
376.798	8.07
377.006	8.49
377.215	8.36
377.424	7.64
377.632	6.83
377.841	7
378.05	6.84
378.258	6.95
378.467	7.53
378.675	7.59
378.884	8.13
379.093	8.13
379.301	7.24
379.51	6.88
379.718	7.22
379.927	7.5
380.135	6.97
380.344	6.67
380.552	7.19
380.761	7.47
380.969	7.35
381.177	7.07
381.386	6.99
381.594	7.57
381.803	7.73
382.011	7.9
382.219	7.88
382.428	8.55
382.636	8.93
382.845	8.61
383.053	7.55
383.261	8.03
383.469	8.05
383.678	7.91
383.886	8.14
384.094	7.86
384.302	7.97
384.511	8.37
384.719	7.66
384.927	7.26
385.135	6.87
385.343	6.74
385.552	6.42
385.76	6.22
385.968	6.43
386.176	6.04
386.384	6.15
386.592	5.88
386.8	5.45
387.008	5.53
387.216	5.76
387.424	5.57
387.633	6.07
387.841	6.17
388.049	6.8
388.257	6.81
388.465	7.12
388.672	6.71
388.88	6.6
389.088	6.23
389.296	6.3
389.504	6.3
389.712	6.45
389.92	6.46
390.128	6.38
390.336	5.24
390.544	5.2
390.751	4.89
390.959	5.39
391.167	5.31
391.375	5.68
391.583	5.68
391.79	5.38
391.998	5.45
392.206	5.23
392.414	5.04
392.621	5.51
392.829	5.59
393.037	5.42
393.244	5.48
393.452	5.71
393.66	5.64
393.867	5.5
394.075	5.47
394.283	5.15
394.49	4.99
394.698	4.95
394.905	4.81
395.113	4.78
395.32	4.92
395.528	5.02
395.735	4.96
395.943	4.83
396.15	5.01
396.358	5.13
396.565	5.33
396.773	5.47
396.98	5.26
397.188	5.48
397.395	5.28
397.602	5.34
397.81	4.8
398.017	4.96
398.225	5.32
398.432	5.36
398.639	5.48
398.847	5.52
399.054	5.75
399.261	5.85
399.468	5.72
399.676	5.63
399.883	5.81
400.09	6.18
400.297	5.83
400.505	5.48
400.712	5.43
400.919	5.66
401.126	5.6
401.333	5.44
401.54	5.46
401.748	5.45
401.955	5.28
402.162	5.3
402.369	5.38
402.576	5.28
402.783	5.16
402.99	5.28
403.197	4.79
403.404	4.7
403.611	4.66
403.818	4.88
404.025	5.09
404.232	5.4
404.439	5.12
404.646	4.68
404.853	4.77
405.06	4.67
405.267	4.35
405.474	4.47
405.681	4.53
405.887	4.5
406.094	4.31
406.301	3.98
406.508	3.87
406.715	4.12
406.922	4.17
407.128	4.08
407.335	4.4
407.542	4.48
407.749	4.65
407.955	4.75
408.162	4.98
408.369	5.11
408.575	5.35
408.782	5.34
408.989	4.9
409.195	4.8
409.402	4.84
409.609	4.83
409.815	4.79
410.022	4.79
410.228	4.48
410.435	4.28
410.642	4.46
410.848	4.38
411.055	4.45
411.261	4.83
411.468	4.96
411.674	5.3
411.881	5.28
412.087	5.27
412.294	5.21
412.5	5.48
412.706	5.35
412.913	5.16
413.119	4.98
413.326	4.73
413.532	4.65
413.738	4.8
413.945	4.64
414.151	4.53
414.357	4.6
414.564	4.41
414.77	4.44
414.976	4.59
415.182	4.6
415.389	4.7
415.595	4.84
415.801	4.92
416.007	5.11
416.214	5.18
416.42	5.33
416.626	5.38
416.832	5.65
417.038	5.79
417.244	5.82
417.45	5.74
417.657	5.71
417.863	5.7
418.069	5.67
418.275	5.33
418.481	5.25
418.687	5.2
418.893	5.08
419.099	4.96
419.305	4.81
419.511	4.62
419.717	4.62
419.923	4.6
420.129	4.58
420.335	4.58
420.541	4.68
420.746	4.57
420.952	4.34
421.158	4.29
421.364	4.24
421.57	4.08
421.776	4.18
421.982	4.23
422.187	4.3
422.393	4.23
422.599	4.13
422.805	4.08
423.01	4.2
423.216	4.35
423.422	4.42
423.628	4.56
423.833	4.57
424.039	4.66
424.245	4.62
424.45	4.55
424.656	4.67
424.862	4.67
425.067	4.66
425.273	4.5
425.478	4.62
425.684	4.57
425.889	4.49
426.095	4.49
426.301	4.39
426.506	4.32
426.712	4.3
426.917	4.27
427.123	4.26
427.328	4.39
427.533	4.48
427.739	4.36
427.944	4.41
428.15	4.57
428.355	4.71
428.561	4.5
428.766	4.51
428.971	4.74
429.177	4.52
429.382	4.5
429.587	4.32
429.793	4.3
429.998	4.47
430.203	4.5
430.408	4.42
430.614	4.52
430.819	4.71
431.024	4.86
431.229	4.71
431.434	4.98
431.64	5.07
431.845	5.09
432.05	5.14
432.255	4.98
432.46	4.87
432.665	4.8
432.87	4.76
433.076	4.94
433.281	4.86
433.486	4.97
433.691	5
433.896	5.09
434.101	5.21
434.306	5.31
434.511	5.22
434.716	5.36
434.921	5.26
435.126	5.21
435.331	4.99
435.535	4.9
435.74	4.86
435.945	4.66
436.15	4.58
436.355	4.53
436.56	4.47
436.765	4.59
436.97	4.59
437.174	4.61
437.379	4.69
437.584	4.63
437.789	4.71
437.993	4.85
438.198	4.9
438.403	4.8
438.608	4.77
438.812	4.58
439.017	4.55
439.222	4.4
439.426	4.36
439.631	4.29
439.836	4.28
440.04	4.28
440.245	4.18
440.45	4.16
440.654	4.16
440.859	4.17
441.063	4.36
441.268	4.32
441.472	4.39
441.677	4.5
441.881	4.55
442.086	4.74
442.29	4.8
442.495	4.79
442.699	4.68
442.904	4.77
443.108	4.88
443.312	4.83
443.517	4.85
443.721	4.86
443.925	4.84
444.13	4.84
444.334	4.75
444.538	4.63
444.743	4.54
444.947	4.55
445.151	4.59
445.356	4.59
445.56	4.57
445.764	4.57
445.968	4.58
446.173	4.45
446.377	4.43
446.581	4.41
446.785	4.46
446.989	4.6
447.193	4.74
447.398	4.61
447.602	4.32
447.806	4.4
448.01	4.46
448.214	4.33
448.418	4.5
448.622	4.42
448.826	4.41
449.03	4.34
449.234	4.13
449.438	4.03
449.642	4.09
449.846	4.28
450.05	4.18
450.254	4.12
450.458	4.33
450.662	4.18
450.866	4.38
451.069	4.22
451.273	4.25
451.477	4.16
451.681	4.1
451.885	3.99
452.089	4.12
452.292	4.03
452.496	3.9
452.7	3.9
452.904	3.9
453.107	3.92
453.311	4.13
453.515	4.21
453.719	4.3
453.922	4.44
454.126	4.7
454.33	4.6
454.533	4.67
454.737	4.8
454.94	4.72
455.144	4.91
455.348	4.9
455.551	4.74
455.755	4.74
455.958	4.81
456.162	4.61
456.365	4.5
456.569	4.52
456.772	4.26
456.976	4.12
457.179	4.18
457.383	4.01
457.586	3.77
457.79	3.91
457.993	3.77
458.196	3.72
458.4	3.86
458.603	3.93
458.807	3.9
459.01	4.09
459.213	4.16
459.417	4.13
459.62	4.16
459.823	4.24
460.026	4.26
460.23	4.3
460.433	4.43
460.636	4.51
460.839	4.49
461.042	4.62
461.246	4.59
461.449	4.6
461.652	4.62
461.855	4.74
462.058	4.76
462.261	4.7
462.464	4.91
462.668	4.88
462.871	4.83
463.074	4.88
463.277	5.02
463.48	5.09
463.683	5.24
463.886	5.22
464.089	5.02
464.292	4.96
464.495	4.91
464.698	4.74
464.901	4.73
465.104	4.61
465.306	4.46
465.509	4.06
465.712	3.95
465.915	3.8
466.118	3.87
466.321	4
466.524	4.17
466.726	4.21
466.929	4.25
467.132	4.35
467.335	4.4
467.538	4.34
467.74	4.42
467.943	4.44
468.146	4.54
468.348	4.37
468.551	4.4
468.754	4.38
468.956	4.48
469.159	4.43
469.362	4.34
469.564	4.39
469.767	4.55
469.969	4.64
