Data from 2938092_Reflection_2.txt Node
Date: Sat Jul 11 19:14:29 EDT 2015
User: robert
Spectrometer: USB4E03001
Autoset integration time: false
Trigger mode: 4
Integration Time (sec): 1.000000E-1
Scans to average: 10
Electric dark correction enabled: true
Nonlinearity correction enabled: false
Boxcar width: 5
Stray light correction enabled: false
XAxis mode: Wavelengths
Stop averaging: false
Number of Pixels in Spectrum: 3648
>>>>>Begin Spectral Data<<<<<
177.566	54.72
177.785	46.74
178.005	32.8
178.225	21.62
178.445	-12.52
178.665	37.46
178.885	-3.96
179.105	35.12
179.324	53.67
179.544	58.17
179.764	43.97
179.984	60.22
180.204	25.17
180.423	24.65
180.643	14.77
180.863	18.39
181.083	40.14
181.302	67.02
181.522	-296.14
181.742	-212.08
181.961	-102.51
182.181	-220.04
182.401	-46.57
182.621	11.04
182.84	-14.63
183.06	-35.49
183.279	-51.86
183.499	-40.52
183.719	-19.08
183.938	44.37
184.158	58.01
184.377	56.45
184.597	41.89
184.816	45.68
185.036	31.37
185.256	58.06
185.475	59.67
185.695	61.69
185.914	42.18
186.134	47.41
186.353	55.32
186.572	50.48
186.792	47.43
187.011	69.94
187.231	73.13
187.45	37.89
187.67	12.01
187.889	-26.63
188.108	-3.2
188.328	10.6
188.547	-12.95
188.766	-90.33
188.986	-198.38
189.205	-55.08
189.424	-34.1
189.644	-12.22
189.863	23.98
190.082	0.89
190.302	19.04
190.521	-0.82
190.74	25.45
190.959	8.51
191.178	17.81
191.398	2.89
191.617	18.32
191.836	33.13
192.055	33.15
192.274	37.78
192.494	61.59
192.713	62.95
192.932	68.29
193.151	79.31
193.37	101.57
193.589	85.21
193.808	72.83
194.027	85.91
194.246	977.55
194.465	-193.95
194.685	-6.75
194.904	-73.61
195.123	4.08
195.342	133.24
195.561	-73.59
195.78	-85.51
195.999	-161.42
196.218	-86.46
196.436	-146.68
196.655	-102.82
196.874	-113.78
197.093	-97.3
197.312	-191.76
197.531	-230.05
197.75	-127.72
197.969	-200.99
198.188	-235.78
198.407	-1322.01
198.625	-1022.31
198.844	-227.78
199.063	-228.23
199.282	-120.87
199.501	-170.84
199.719	22.38
199.938	19.95
200.157	-8.18
200.376	-9.54
200.594	12.26
200.813	25.34
201.032	31.01
201.251	25.46
201.469	29.46
201.688	19.75
201.907	20.75
202.125	-4.52
202.344	-5.59
202.563	-4.62
202.781	-28.65
203	-40.51
203.218	-67.03
203.437	-122.01
203.656	-111.51
203.874	-87.21
204.093	-146.77
204.311	-134.7
204.53	-160.75
204.748	-217.63
204.967	-219.77
205.185	-126.5
205.404	-97.5
205.622	-50.31
205.841	-21.79
206.059	-63.35
206.278	-83.3
206.496	-21.32
206.715	-11.02
206.933	4.07
207.151	2.78
207.37	3.1
207.588	6.19
207.806	-0.64
208.025	-4.68
208.243	-8.23
208.461	-10.01
208.68	-6.76
208.898	-14.72
209.116	-13.18
209.335	-27.43
209.553	5.06
209.771	3.56
209.989	-25.89
210.208	-72.53
210.426	-238.17
210.644	-582.69
210.862	12.63
211.081	15.25
211.299	9.25
211.517	-1.48
211.735	-16.07
211.953	-181.41
212.171	-209.04
212.39	-331.07
212.608	-231.28
212.826	-305.49
213.044	-286.04
213.262	-249.27
213.48	-346.3
213.698	3287.2
213.916	-486.04
214.134	-143.98
214.352	-124.98
214.57	-84.38
214.788	-25.55
215.006	-39.23
215.224	-17.39
215.442	-10.68
215.66	-31.68
215.878	-40.01
216.096	-14.27
216.314	-32.48
216.532	-22.85
216.75	-27.57
216.968	-21.11
217.185	-3.76
217.403	6.61
217.621	-9.39
217.839	12.25
218.057	27.89
218.275	20.5
218.492	-3.4
218.71	5.96
218.928	-18.17
219.146	6.43
219.363	8
219.581	-3.25
219.799	9.29
220.017	11.18
220.234	-6.02
220.452	-31.87
220.67	7.71
220.887	10.8
221.105	-15.85
221.323	-11.13
221.54	-57.82
221.758	-61.36
221.976	-137.6
222.193	-934.8
222.411	-132.6
222.629	-221.98
222.846	-134.3
223.064	-122.38
223.281	-103.17
223.499	-75.01
223.716	-54.31
223.934	-38.2
224.151	-24.13
224.369	2.76
224.586	2.75
224.804	17.65
225.021	26.53
225.239	22.55
225.456	11.79
225.674	22.85
225.891	25.03
226.108	16.27
226.326	10.52
226.543	0.94
226.76	-12.56
226.978	-12.62
227.195	-12.74
227.413	-15.32
227.63	-9.13
227.847	-11.88
228.064	-4.63
228.282	2.05
228.499	9.48
228.716	12.29
228.934	13.27
229.151	17.68
229.368	18.9
229.585	16.74
229.802	15.44
230.02	14.44
230.237	17.7
230.454	16.2
230.671	14.76
230.888	9.51
231.105	9.95
231.323	11.81
231.54	5.96
231.757	4.13
231.974	6.57
232.191	8.06
232.408	8.28
232.625	2.9
232.842	-2.39
233.059	-3.23
233.276	1.52
233.493	-0.58
233.71	-7.32
233.927	-11.72
234.144	-10.73
234.361	-16.23
234.578	-26.21
234.795	-25.08
235.012	-15.69
235.229	-13.85
235.446	-9.19
235.663	-10.31
235.879	-15.77
236.096	-13.52
236.313	-9.52
236.53	-11.16
236.747	-4.72
236.964	-4.95
237.181	-0.15
237.397	0.51
237.614	-0.14
237.831	-1.63
238.048	1.64
238.264	7.07
238.481	5.13
238.698	9.19
238.915	4.41
239.131	7.46
239.348	10.3
239.565	12.98
239.781	10.93
239.998	14.23
240.215	10.62
240.431	5.2
240.648	6.87
240.865	6.93
241.081	8.44
241.298	12.52
241.514	11.36
241.731	12.53
241.947	7.51
242.164	7.64
242.38	6.71
242.597	9.84
242.814	10.49
243.03	9.76
243.246	11.91
243.463	9.37
243.679	9.02
243.896	7.52
244.112	5.35
244.329	7.35
244.545	7.95
244.762	8.51
244.978	5.59
245.194	3.93
245.411	5.18
245.627	5.39
245.843	6.03
246.06	6.31
246.276	6.97
246.492	6.89
246.709	7.04
246.925	7.48
247.141	7.41
247.357	8.21
247.574	9.15
247.79	7.98
248.006	7.32
248.222	8.9
248.439	8.87
248.655	9.19
248.871	10
249.087	11.32
249.303	10.42
249.519	10.7
249.736	9.07
249.952	7.98
250.168	6.62
250.384	8.26
250.6	6.01
250.816	5.5
251.032	6.96
251.248	5.27
251.464	3.62
251.68	3.18
251.896	2.81
252.112	4.54
252.328	5.91
252.544	8.22
252.76	6.59
252.976	6.74
253.192	7.71
253.408	5.26
253.624	6.64
253.84	4.31
254.056	3.65
254.272	3.7
254.487	2.45
254.703	4.73
254.919	2.31
255.135	-1.38
255.351	0.52
255.567	-4.44
255.782	-6.1
255.998	-5.89
256.214	-5.3
256.43	-4.15
256.646	-8.76
256.861	-8.73
257.077	-12.97
257.293	-8.22
257.508	-4
257.724	-6.13
257.94	-4.69
258.155	-1.53
258.371	-0.46
258.587	0.76
258.802	0.73
259.018	3.28
259.234	3.55
259.449	4.77
259.665	5.25
259.88	5.07
260.096	5.03
260.312	6.05
260.527	6.32
260.743	6.67
260.958	7.36
261.174	8.31
261.389	8.72
261.605	9.02
261.82	7.71
262.036	8.02
262.251	8.93
262.466	9.03
262.682	8.33
262.897	7.82
263.113	6.98
263.328	5.99
263.543	4.86
263.759	3.64
263.974	4.16
264.189	5.23
264.405	4.66
264.62	6.81
264.835	6.56
265.051	8.13
265.266	9.75
265.481	9.87
265.696	12.03
265.912	13.04
266.127	12.65
266.342	11.82
266.557	12.05
266.773	10.04
266.988	9.99
267.203	10.38
267.418	10.2
267.633	9.71
267.848	10.87
268.064	8.4
268.279	8.91
268.494	7.33
268.709	6.83
268.924	5.51
269.139	7.31
269.354	6.78
269.569	6.79
269.784	7.52
269.999	7.93
270.214	8.77
270.429	9.85
270.644	8.9
270.859	11.15
271.074	11.91
271.289	13.1
271.504	11.8
271.719	11.79
271.934	11.89
272.149	11.55
272.363	10.39
272.578	8.7
272.793	8.05
273.008	7.76
273.223	7.9
273.438	6.85
273.653	6.11
273.867	6.15
274.082	4.93
274.297	4.32
274.512	5.37
274.726	4.92
274.941	4.75
275.156	5.32
275.371	7.1
275.585	5.77
275.8	5.3
276.015	5.16
276.229	5.51
276.444	5.46
276.659	5.92
276.873	4.05
277.088	3.74
277.302	3.4
277.517	4.15
277.732	3.16
277.946	2.61
278.161	4.58
278.375	6.76
278.59	8.23
278.804	7.22
279.019	6.54
279.233	6.75
279.448	6.44
279.662	7.23
279.877	6.55
280.091	5.27
280.306	6.96
280.52	6.92
280.735	4.8
280.949	5.44
281.163	6.23
281.378	7.03
281.592	6.13
281.806	6.88
282.021	6.3
282.235	6.76
282.449	7.11
282.664	7.09
282.878	6.74
283.092	6.91
283.307	5.97
283.521	7.1
283.735	7.36
283.949	7.7
284.164	8.64
284.378	8.49
284.592	7.41
284.806	6.1
285.02	6.39
285.234	7.1
285.449	8.3
285.663	7.79
285.877	7.44
286.091	7.7
286.305	7.61
286.519	7.54
286.733	8.3
286.947	8.43
287.161	9.96
287.375	10.74
287.589	10.17
287.803	9.25
288.017	9.97
288.231	9.16
288.445	10.09
288.659	11.5
288.873	10.54
289.087	10.53
289.301	11.07
289.515	10.83
289.729	9.85
289.943	9.9
290.157	9.72
290.371	9.2
290.584	10.32
290.798	8.28
291.012	6.56
291.226	7.22
291.44	7.74
291.654	7.23
291.867	8
292.081	7.31
292.295	6.69
292.509	7.04
292.722	7.19
292.936	6.46
293.15	6.13
293.364	5.82
293.577	5.6
293.791	5.14
294.005	4.18
294.218	3.26
294.432	2.85
294.645	5.19
294.859	7.47
295.073	8.3
295.286	8.43
295.5	8.77
295.713	9.22
295.927	9.61
296.14	8.78
296.354	9.66
296.568	10.09
296.781	10.01
296.994	8.98
297.208	8.22
297.421	7.57
297.635	7.21
297.848	8.58
298.062	8.57
298.275	7.74
298.489	9.02
298.702	9.32
298.915	9.58
299.129	11.01
299.342	11.51
299.555	10.3
299.769	9.8
299.982	10.89
300.195	10.58
300.409	9.16
300.622	8.9
300.835	8.39
301.048	8.45
301.262	8.5
301.475	8.77
301.688	8.91
301.901	8.3
302.115	8.39
302.328	7.26
302.541	8.52
302.754	12.3
302.967	13.21
303.18	13.21
303.393	13.35
303.607	12.09
303.82	11.94
304.033	11.95
304.246	13.12
304.459	13.59
304.672	13.85
304.885	12.25
305.098	10.45
305.311	10.92
305.524	11.31
305.737	11.44
305.95	11.01
306.163	8.84
306.376	7.89
306.589	7.07
306.802	7.36
307.015	7.69
307.228	8.89
307.44	8.64
307.653	8.83
307.866	6.34
308.079	5.33
308.292	4.94
308.505	6.26
308.718	6.6
308.93	7.78
309.143	6.86
309.356	6.23
309.569	3.64
309.781	6.13
309.994	5.7
310.207	7.44
310.42	7.08
310.632	9.52
310.845	8.59
311.058	8.38
311.27	7.06
311.483	7.75
311.696	7
311.908	7.73
312.121	5.91
312.333	5.53
312.546	5.16
312.759	7.17
312.971	5.45
313.184	6.77
313.396	7.86
313.609	10.02
313.821	9.27
314.034	10.72
314.246	11.69
314.459	12.2
314.671	12.75
314.884	10.65
315.096	10.42
315.309	10.92
315.521	9.47
315.733	8.15
315.946	6.96
316.158	8.46
316.371	6.82
316.583	6.84
316.795	6.61
317.008	6.05
317.22	8.29
317.432	7.21
317.644	8.54
317.857	7.55
318.069	7.31
318.281	7.46
318.494	4.35
318.706	5.58
318.918	4.6
319.13	4.12
319.342	3.92
319.555	3.43
319.767	4.73
319.979	4.43
320.191	6.96
320.403	6.78
320.615	4.53
320.827	6.86
321.039	6.71
321.252	7.34
321.464	7.35
321.676	8.26
321.888	9.4
322.1	6.75
322.312	5.7
322.524	5.74
322.736	6.42
322.948	7.06
323.16	7.28
323.372	6.29
323.584	5.75
323.796	5.72
324.007	5.14
324.219	3.99
324.431	3.49
324.643	3.68
324.855	2.41
325.067	2.98
325.279	3.66
325.491	4.08
325.702	4.82
325.914	4.24
326.126	4.47
326.338	4.91
326.55	4.88
326.761	7.28
326.973	7.9
327.185	9.6
327.396	8.31
327.608	8.61
327.82	8
328.032	7.76
328.243	9.41
328.455	9.08
328.666	9.14
328.878	8.9
329.09	6.75
329.301	5.16
329.513	4.48
329.725	5.79
329.936	4.62
330.148	5.82
330.359	6.83
330.571	5.62
330.782	5.35
330.994	3.82
331.205	3.85
331.417	4.24
331.628	5.53
331.84	5.97
332.051	5.72
332.262	5.91
332.474	6.59
332.685	6.28
332.897	6.86
333.108	8.27
333.319	8.96
333.531	9.64
333.742	10.55
333.953	9.87
334.165	9.5
334.376	8.44
334.587	8.2
334.799	7.95
335.01	6.9
335.221	5.6
335.432	4.2
335.644	4.36
335.855	4.19
336.066	3.59
336.277	3.39
336.488	3.36
336.7	5.09
336.911	6.31
337.122	6.66
337.333	7.8
337.544	8.25
337.755	8.26
337.966	8.84
338.177	9.4
338.388	9.93
338.599	9.29
338.811	8.79
339.022	7.92
339.233	7.76
339.444	5.7
339.655	5.19
339.866	6.43
340.076	7.46
340.287	7.07
340.498	6.28
340.709	5.41
340.92	5.95
341.131	5.05
341.342	5.16
341.553	5.63
341.764	5.83
341.975	6.64
342.185	6.23
342.396	5.08
342.607	4.86
342.818	6.1
343.029	6.99
343.239	7.19
343.45	8.23
343.661	9.07
343.872	8.35
344.082	8.71
344.293	8.76
344.504	8.4
344.714	9.42
344.925	10.3
345.136	8.98
345.346	7.88
345.557	8.92
345.768	9.24
345.978	7.84
346.189	7.85
346.399	7.73
346.61	6.57
346.821	6.62
347.031	6.44
347.242	6.6
347.452	7.27
347.663	8.3
347.873	7.04
348.084	7.42
348.294	7.8
348.504	6.52
348.715	6.14
348.925	7.3
349.136	7.68
349.346	7.52
349.557	6.88
349.767	6.71
349.977	6.34
350.188	6.03
350.398	5.47
350.608	4.59
350.819	5.26
351.029	6.11
351.239	5.03
351.449	4.89
351.66	4.72
351.87	3.11
352.08	3.65
352.29	3.25
352.501	4.67
352.711	4.96
352.921	5.42
353.131	5.52
353.341	3.9
353.552	5.29
353.762	4.64
353.972	4.88
354.182	5.7
354.392	4.87
354.602	4.94
354.812	4.96
355.022	4.56
355.232	5.26
355.442	5.07
355.652	5.7
355.862	5.52
356.072	5.97
356.282	6.17
356.492	6.43
356.702	6.71
356.912	6.45
357.122	6.03
357.332	6.33
357.542	6.44
357.752	6.79
357.962	6.43
358.171	5.06
358.381	5.07
358.591	4.5
358.801	4.86
359.011	3.83
359.221	3.93
359.43	3.51
359.64	4.42
359.85	5.08
360.06	4.79
360.269	6.38
360.479	7.06
360.689	6.41
360.899	6.59
361.108	6.32
361.318	6.89
361.528	6.78
361.737	6.69
361.947	5.41
362.156	4.8
362.366	4.79
362.576	3.58
362.785	3.96
362.995	4.24
363.204	3.83
363.414	3.09
363.623	2.96
363.833	3.59
364.042	3.43
364.252	3.42
364.461	3.29
364.671	3.81
364.88	4.38
365.09	3.58
365.299	3.15
365.509	3.44
365.718	4.53
365.927	4.59
366.137	4.61
366.346	4.84
366.555	4.96
366.765	4.78
366.974	4.56
367.183	3.89
367.393	3.67
367.602	3.78
367.811	4.39
368.021	3.73
368.23	3.53
368.439	2.45
368.648	2.47
368.857	2.94
369.067	3.35
369.276	2.73
369.485	3.51
369.694	3.99
369.903	4.55
370.112	3.56
370.321	3.29
370.531	3.65
370.74	4.09
370.949	4.84
371.158	4.93
371.367	4.53
371.576	5.58
371.785	5.65
371.994	5.85
372.203	5.34
372.412	5.52
372.621	5.41
372.83	5.57
373.039	5.72
373.248	5.86
373.457	5.74
373.666	5.37
373.874	4.69
374.083	4.13
374.292	4.44
374.501	4.41
374.71	3.76
374.919	5.02
375.128	4.15
375.336	3.86
375.545	3.81
375.754	4.37
375.963	4.81
376.171	4.6
376.38	4.31
376.589	2.61
376.798	2.43
377.006	3.22
377.215	2.24
377.424	2.09
377.632	2.74
377.841	2.16
378.05	1.51
378.258	1.43
378.467	1.8
378.675	1.93
378.884	2.91
379.093	3.59
379.301	3.45
379.51	3.61
379.718	4.12
379.927	2.9
380.135	2.71
380.344	1.82
380.552	1.37
380.761	1.12
380.969	0.98
381.177	1.14
381.386	0.79
381.594	0.9
381.803	0.75
382.011	0.83
382.219	1.55
382.428	2.05
382.636	3.05
382.845	3.59
383.053	3.55
383.261	3.44
383.469	3.2
383.678	2.66
383.886	2.76
384.094	3.25
384.302	3.36
384.511	3.23
384.719	2.8
384.927	2.07
385.135	1.9
385.343	1.67
385.552	1.95
385.76	2.09
385.968	2.77
386.176	2.77
386.384	2.82
386.592	2.84
386.8	2.78
387.008	2.89
387.216	2.88
387.424	2.98
387.633	3.17
387.841	3.05
388.049	3.41
388.257	2.94
388.465	2.65
388.672	2.09
388.88	2.25
389.088	3.02
389.296	2.97
389.504	3.66
389.712	3.61
389.92	3.53
390.128	3.58
390.336	3.68
390.544	4.27
390.751	3.95
390.959	3.97
391.167	3.89
391.375	2.98
391.583	3.18
391.79	2.95
391.998	3.01
392.206	3.27
392.414	3.45
392.621	2.83
392.829	2.29
393.037	2.33
393.244	2.37
393.452	2.31
393.66	2.48
393.867	2.43
394.075	2.43
394.283	2.35
394.49	2.31
394.698	2.23
394.905	2.23
395.113	2.37
395.32	2.49
395.528	2.7
395.735	2.84
395.943	3.06
396.15	2.68
396.358	2.87
396.565	2.8
396.773	2.51
396.98	2.57
397.188	2.61
397.395	2.74
397.602	3.06
397.81	2.95
398.017	2.49
398.225	2.17
398.432	2.07
398.639	1.72
398.847	1.54
399.054	1.64
399.261	1.4
399.468	1.69
399.676	1.51
399.883	1.42
400.09	1.49
400.297	1.17
400.505	1.52
400.712	1.37
400.919	1.36
401.126	1.71
401.333	1.44
401.54	1.66
401.748	1.52
401.955	1.68
402.162	1.26
402.369	1.33
402.576	1.98
402.783	1.86
402.99	1.91
403.197	1.8
403.404	1.41
403.611	1.78
403.818	1.82
404.025	1.78
404.232	1.86
404.439	1.91
404.646	1.98
404.853	1.81
405.06	2.1
405.267	2.56
405.474	2.66
405.681	2.53
405.887	2.52
406.094	2.33
406.301	2.43
406.508	2.33
406.715	2.43
406.922	2.14
407.128	2.09
407.335	1.41
407.542	1.46
407.749	1.49
407.955	1.87
408.162	1.42
408.369	1.56
408.575	1.55
408.782	1.58
408.989	1.62
409.195	1.64
409.402	1.77
409.609	2.15
409.815	1.89
410.022	1.79
410.228	1.68
410.435	1.99
410.642	2.1
410.848	2.01
411.055	1.8
411.261	2.16
411.468	2.32
411.674	2.52
411.881	2.46
412.087	2.31
412.294	2.51
412.5	2.3
412.706	2.43
412.913	2.46
413.119	2.28
413.326	2.51
413.532	2.12
413.738	1.46
413.945	1.18
414.151	1.33
414.357	1.6
414.564	1.59
414.77	1.86
414.976	1.87
415.182	1.43
415.389	1.54
415.595	1.53
415.801	1.5
416.007	2.1
416.214	2.13
416.42	2.04
416.626	1.85
416.832	1.75
417.038	1.68
417.244	1.62
417.45	1.76
417.657	1.91
417.863	1.9
418.069	2.26
418.275	2.29
418.481	2.33
418.687	2.2
418.893	2.15
419.099	2.25
419.305	2.17
419.511	2.21
419.717	2.1
419.923	2.02
420.129	1.88
420.335	1.67
420.541	1.55
420.746	1.46
420.952	1.44
421.158	1.55
421.364	1.42
421.57	1.51
421.776	1.42
421.982	1.48
422.187	1.43
422.393	1.49
422.599	1.46
422.805	1.32
423.01	1.45
423.216	1.53
423.422	1.5
423.628	1.55
423.833	1.62
424.039	1.57
424.245	1.66
424.45	1.71
424.656	1.68
424.862	1.72
425.067	1.95
425.273	1.88
425.478	1.94
425.684	1.85
425.889	1.89
426.095	1.77
426.301	1.92
426.506	1.79
426.712	1.8
426.917	1.78
427.123	1.64
427.328	1.48
427.533	1.34
427.739	1.13
427.944	1.34
428.15	1.35
428.355	1.24
428.561	1.29
428.766	1.44
428.971	1.2
429.177	1.39
429.382	1.32
429.587	1.27
429.793	1.35
429.998	1.25
430.203	1.09
430.408	1.02
430.614	1.17
430.819	1.07
431.024	1.01
431.229	1.24
431.434	1.17
431.64	1.24
431.845	1.27
432.05	1.24
432.255	1.42
432.46	1.55
432.665	1.52
432.87	1.46
433.076	1.54
433.281	1.38
433.486	1.36
433.691	1.16
433.896	1.19
434.101	1.28
434.306	1.35
434.511	1.2
434.716	1.13
434.921	1.18
435.126	1.21
435.331	0.95
435.535	1.04
435.74	1
435.945	0.97
436.15	0.92
436.355	0.98
436.56	0.82
436.765	0.82
436.97	0.93
437.174	0.95
437.379	0.94
437.584	1.12
437.789	1.17
437.993	1.05
438.198	1.11
438.403	1.18
438.608	1.13
438.812	1.13
439.017	1.18
439.222	1.17
439.426	1.12
439.631	1.31
439.836	1.3
440.04	1.4
440.245	1.47
440.45	1.7
440.654	1.75
440.859	1.64
441.063	1.85
441.268	1.9
441.472	1.7
441.677	1.77
441.881	1.8
442.086	1.7
442.29	1.59
442.495	1.63
442.699	1.41
442.904	1.29
443.108	1.44
443.312	1.35
443.517	1.48
443.721	1.64
443.925	1.49
444.13	1.31
444.334	1.44
444.538	1.32
444.743	1.4
444.947	1.47
445.151	1.51
445.356	1.46
445.56	1.38
445.764	1.35
445.968	1.28
446.173	1.29
446.377	1.21
446.581	1.07
446.785	1.17
446.989	1.16
447.193	1.18
447.398	1.27
447.602	1.34
447.806	1.31
448.01	1.29
448.214	1.35
448.418	1.38
448.622	1.44
448.826	1.51
449.03	1.5
449.234	1.38
449.438	1.32
449.642	1.25
449.846	1.13
450.05	1.17
450.254	0.93
450.458	0.95
450.662	1.03
450.866	1
451.069	0.91
451.273	0.95
451.477	1.24
451.681	1.29
451.885	1.27
452.089	1.17
452.292	1.3
452.496	1.43
452.7	1.32
452.904	1.21
453.107	1.26
453.311	1.37
453.515	1.19
453.719	0.87
453.922	0.88
454.126	0.87
454.33	0.94
454.533	0.71
454.737	0.72
454.94	0.89
455.144	0.9
455.348	1.02
455.551	1.21
455.755	1.33
455.958	1.44
456.162	1.55
456.365	1.39
456.569	1.27
456.772	1.29
456.976	1.1
457.179	0.9
457.383	0.98
457.586	0.95
457.79	0.87
457.993	0.91
458.196	0.89
458.4	0.87
458.603	0.98
458.807	1.1
459.01	1.09
459.213	1.21
459.417	1.26
459.62	1.19
459.823	1.11
460.026	1.02
460.23	0.98
460.433	1.02
460.636	0.87
460.839	1.01
461.042	0.98
461.246	1.07
461.449	1.08
461.652	0.96
461.855	1.19
462.058	1.18
462.261	1.3
462.464	1.46
462.668	1.31
462.871	1.47
463.074	1.32
463.277	1.15
463.48	1.1
463.683	1.15
463.886	1.4
464.089	1.21
464.292	1.16
464.495	0.92
464.698	0.87
464.901	0.94
465.104	1.03
465.306	1.12
465.509	1.27
465.712	1.33
465.915	1.37
466.118	1.24
466.321	1.22
466.524	1.31
466.726	1.5
466.929	1.28
467.132	1.21
467.335	1
467.538	0.84
467.74	1.02
467.943	1.11
468.146	1.04
468.348	1.15
468.551	0.91
468.754	0.73
468.956	0.68
469.159	0.74
469.362	0.89
