Data from 2938072_Reflection_2.txt Node
Date: Sat Jul 11 20:34:25 EDT 2015
User: robert
Spectrometer: USB4E03001
Autoset integration time: false
Trigger mode: 4
Integration Time (sec): 1.000000E-1
Scans to average: 10
Electric dark correction enabled: true
Nonlinearity correction enabled: false
Boxcar width: 5
Stray light correction enabled: false
XAxis mode: Wavelengths
Stop averaging: false
Number of Pixels in Spectrum: 3648
>>>>>Begin Spectral Data<<<<<
177.566	17.65
177.785	53.26
178.005	61.3
178.225	-19.13
178.445	35.65
178.665	101.82
178.885	85.05
179.105	15.11
179.324	36.59
179.544	-1.04
179.764	-61.38
179.984	365.6
180.204	206.07
180.423	299.63
180.643	234.89
180.863	158.14
181.083	93.17
181.302	112.21
181.522	101.99
181.742	104.57
181.961	97.93
182.181	65.47
182.401	29.45
182.621	57.85
182.84	42.47
183.06	6.1
183.279	14.87
183.499	46.26
183.719	23.8
183.938	40.9
184.158	52.39
184.377	46.71
184.597	58.41
184.816	72.78
185.036	60.03
185.256	72.15
185.475	88.78
185.695	96.28
185.914	75.18
186.134	83.86
186.353	67.33
186.572	51.95
186.792	59.15
187.011	12.84
187.231	29.27
187.45	15.09
187.67	5.44
187.889	-18.45
188.108	821.85
188.328	194.38
188.547	197.21
188.766	913.02
188.986	1084.21
189.205	-145.77
189.424	-10.14
189.644	-59.46
189.863	-46.52
190.082	-99.51
190.302	-87.66
190.521	-54.56
190.74	13.14
190.959	26.54
191.178	-2.44
191.398	-43
191.617	-66.69
191.836	-61.41
192.055	-4.4
192.274	-22.37
192.494	-129.94
192.713	32.71
192.932	6.91
193.151	31.9
193.37	23.44
193.589	18.01
193.808	39.99
194.027	67.01
194.246	53.39
194.465	41.47
194.685	37.16
194.904	39.15
195.123	37.42
195.342	48.27
195.561	-16.33
195.78	-42.75
195.999	-74.09
196.218	-73.86
196.436	219.65
196.655	96.56
196.874	-59.27
197.093	-296.85
197.312	-181.84
197.531	-56.5
197.75	118.25
197.969	366.52
198.188	79.61
198.407	129.57
198.625	64.78
198.844	36.46
199.063	29.48
199.282	-14.98
199.501	32.09
199.719	36.44
199.938	9.05
200.157	57.16
200.376	53.64
200.594	57.81
200.813	65.2
201.032	233.62
201.251	-238.45
201.469	370.25
201.688	185.21
201.907	69.37
202.125	54.45
202.344	106.37
202.563	142.13
202.781	84.33
203	107.46
203.218	88.33
203.437	94.88
203.656	87.14
203.874	107.9
204.093	195.48
204.311	-1456.6
204.53	6707.95
204.748	-490.84
204.967	-1024.91
205.185	-196.64
205.404	-283.1
205.622	-33.04
205.841	-92.52
206.059	-611.11
206.278	-278.58
206.496	-318.29
206.715	121.57
206.933	92.3
207.151	76.36
207.37	59.13
207.588	113.99
207.806	83.51
208.025	88.97
208.243	101.11
208.461	97.62
208.68	111.94
208.898	105.03
209.116	113.88
209.335	112.35
209.553	96.14
209.771	115.96
209.989	115.81
210.208	106.92
210.426	92.51
210.644	88.94
210.862	88.66
211.081	73.71
211.299	105.98
211.517	81.94
211.735	79.2
211.953	105.67
212.171	122.79
212.39	72.76
212.608	94.61
212.826	81.46
213.044	37.17
213.262	35.67
213.48	29.79
213.698	25.43
213.916	-45.58
214.134	-128.32
214.352	-132.48
214.57	-236.22
214.788	-136.51
215.006	-91.98
215.224	-44.99
215.442	23.65
215.66	33.36
215.878	52.47
216.096	-2.4
216.314	27.95
216.532	65.9
216.75	94.26
216.968	85.16
217.185	131.43
217.403	79.41
217.621	17.63
217.839	8.84
218.057	16.22
218.275	12.5
218.492	45.77
218.71	47.07
218.928	14.56
219.146	32.87
219.363	42.72
219.581	41.6
219.799	91.24
220.017	83.96
220.234	63.34
220.452	61.34
220.67	38.14
220.887	26.8
221.105	36.8
221.323	51.27
221.54	69.39
221.758	63.75
221.976	61.95
222.193	27.86
222.411	39.02
222.629	64.46
222.846	40.86
223.064	31.2
223.281	65.83
223.499	41.42
223.716	42.52
223.934	-3.68
224.151	20.53
224.369	-19.01
224.586	5.66
224.804	17.68
225.021	19.59
225.239	22.98
225.456	39.74
225.674	27.18
225.891	23.2
226.108	16.97
226.326	13.61
226.543	4.43
226.76	3.91
226.978	5.53
227.195	3.38
227.413	-3.64
227.63	-2.68
227.847	-7.97
228.064	-9.63
228.282	-1.89
228.499	1.46
228.716	3.13
228.934	6.95
229.151	6.23
229.368	6.87
229.585	6.72
229.802	8.4
230.02	8.2
230.237	9.16
230.454	11.67
230.671	7.92
230.888	7.11
231.105	5.08
231.323	2.34
231.54	6.3
231.757	0.55
231.974	-2.13
232.191	2.8
232.408	5.99
232.625	6.78
232.842	6.32
233.059	10.14
233.276	15.28
233.493	19.07
233.71	20.11
233.927	18.14
234.144	20.55
234.361	23.05
234.578	21.07
234.795	15.84
235.012	19.59
235.229	17.12
235.446	19.26
235.663	15.81
235.879	17.17
236.096	21.32
236.313	20.16
236.53	19.2
236.747	19.65
236.964	18.91
237.181	24.63
237.397	21.66
237.614	23
237.831	21.88
238.048	18.58
238.264	12.02
238.481	8.69
238.698	5.74
238.915	6.63
239.131	4.89
239.348	2.22
239.565	-2.35
239.781	5.44
239.998	-1.09
240.215	0
240.431	0.19
240.648	7.88
240.865	9.92
241.081	13.48
241.298	14.04
241.514	13.64
241.731	13.73
241.947	13.1
242.164	11.76
242.38	13.4
242.597	12.51
242.814	12.29
243.03	11.14
243.246	8.92
243.463	8.15
243.679	7.87
243.896	8.31
244.112	8.1
244.329	7.52
244.545	7.74
244.762	9.13
244.978	8.82
245.194	8.97
245.411	8.62
245.627	10.82
245.843	9.54
246.06	10.16
246.276	8.52
246.492	8.72
246.709	10.04
246.925	10.52
247.141	9.17
247.357	8.98
247.574	10.09
247.79	8.93
248.006	8.88
248.222	8.8
248.439	6.74
248.655	7.4
248.871	6.65
249.087	4.87
249.303	2.82
249.519	3.98
249.736	4.49
249.952	4.11
250.168	6.34
250.384	3.55
250.6	3.46
250.816	6.93
251.032	5.53
251.248	4.63
251.464	4.51
251.68	5.21
251.896	3.52
252.112	5.1
252.328	2.62
252.544	0.5
252.76	0.89
252.976	1.5
253.192	4
253.408	5.51
253.624	8.12
253.84	7.01
254.056	6.68
254.272	7.19
254.487	2.87
254.703	4.96
254.919	6.02
255.135	9.6
255.351	11.93
255.567	9.05
255.782	6.5
255.998	5.39
256.214	8.27
256.43	8.01
256.646	9.44
256.861	14.56
257.077	14.21
257.293	15.79
257.508	14.11
257.724	12.76
257.94	13.04
258.155	13.18
258.371	12.22
258.587	12.59
258.802	12.43
259.018	11.12
259.234	9.8
259.449	8.47
259.665	7.88
259.88	8.15
260.096	8.07
260.312	7.38
260.527	6.95
260.743	7.73
260.958	7.57
261.174	6.51
261.389	7.1
261.605	7.15
261.82	7.1
262.036	7.06
262.251	5.82
262.466	5.75
262.682	5.1
262.897	5.56
263.113	3.57
263.328	2.73
263.543	2.34
263.759	0.58
263.974	-1.76
264.189	-0.38
264.405	-0.72
264.62	-1.01
264.835	-0.5
265.051	-1.94
265.266	-0.37
265.481	-0.21
265.696	1.81
265.912	4.8
266.127	3.54
266.342	5.15
266.557	6.18
266.773	5.06
266.988	4.32
267.203	1.07
267.418	2.75
267.633	2.19
267.848	2.48
268.064	1.51
268.279	1.94
268.494	2.85
268.709	2.24
268.924	1.44
269.139	2.87
269.354	5.08
269.569	7.09
269.784	8.25
269.999	7.4
270.214	5.62
270.429	5.43
270.644	5.19
270.859	6.35
271.074	5.41
271.289	5.16
271.504	6.24
271.719	6.89
271.934	7.83
272.149	7.13
272.363	8.74
272.578	9.17
272.793	9.25
273.008	9.03
273.223	8.43
273.438	9.14
273.653	9.72
273.867	8.54
274.082	7.63
274.297	7.39
274.512	6.1
274.726	4.89
274.941	6.3
275.156	6.85
275.371	7.09
275.585	7.25
275.8	7.99
276.015	7.28
276.229	7.69
276.444	7.87
276.659	8.14
276.873	9.7
277.088	8.27
277.302	6.99
277.517	7.12
277.732	6.12
277.946	6.39
278.161	6.19
278.375	7.51
278.59	7.57
278.804	8.28
279.019	6.78
279.233	5.82
279.448	6.71
279.662	7.33
279.877	6.39
280.091	6.86
280.306	5.09
280.52	6.33
280.735	5.19
280.949	4.04
281.163	2.87
281.378	4.13
281.592	4.89
281.806	7.27
282.021	6.85
282.235	6.97
282.449	6.17
282.664	7.24
282.878	5.35
283.092	5.34
283.307	6.93
283.521	6.32
283.735	4.84
283.949	3.33
284.164	2.39
284.378	2.09
284.592	1.82
284.806	1.57
285.02	2.27
285.234	1.69
285.449	2.09
285.663	1.38
285.877	2.85
286.091	3.99
286.305	4.89
286.519	4.03
286.733	4.76
286.947	4.77
287.161	4.48
287.375	3.24
287.589	4.53
287.803	4.24
288.017	4.05
288.231	3.63
288.445	2.64
288.659	2.25
288.873	2.73
289.087	2.17
289.301	3.66
289.515	5.81
289.729	5.76
289.943	5.34
290.157	5.24
290.371	6.61
290.584	7.26
290.798	7.2
291.012	8.19
291.226	8.75
291.44	9.53
291.654	8.89
291.867	8.73
292.081	9.69
292.295	9.66
292.509	10.51
292.722	10.02
292.936	9.49
293.15	10.23
293.364	9.56
293.577	8.48
293.791	8.12
294.005	7.86
294.218	7.71
294.432	7.83
294.645	8.01
294.859	8.14
295.073	7.64
295.286	7.38
295.5	7.03
295.713	7.01
295.927	7.65
296.14	8.09
296.354	8.09
296.568	7.57
296.781	7.71
296.994	8.45
297.208	8.02
297.421	8.44
297.635	8.94
297.848	8.86
298.062	9.48
298.275	9.3
298.489	9.68
298.702	9.55
298.915	10.26
299.129	9.26
299.342	8.06
299.555	8.08
299.769	7.29
299.982	6.64
300.195	7.04
300.409	6.61
300.622	6.9
300.835	6.67
301.048	7.55
301.262	9.17
301.475	10.81
301.688	10.32
301.901	10.6
302.115	10.45
302.328	10.48
302.541	9.72
302.754	10.77
302.967	11.14
303.18	8.82
303.393	7.61
303.607	6.82
303.82	4.59
304.033	6.86
304.246	6.21
304.459	7.69
304.672	7.33
304.885	7.95
305.098	6.5
305.311	6.99
305.524	10.09
305.737	10.49
305.95	10.35
306.163	11.9
306.376	10.55
306.589	10.71
306.802	10.47
307.015	10.82
307.228	10.94
307.44	12.56
307.653	11.38
307.866	9.91
308.079	9.53
308.292	8.27
308.505	9.39
308.718	9.18
308.93	9.42
309.143	7.54
309.356	7.64
309.569	6.94
309.781	5.8
309.994	6.72
310.207	8.24
310.42	9.17
310.632	9.09
310.845	8.24
311.058	7.72
311.27	7.12
311.483	9.02
311.696	9.82
311.908	9.44
312.121	9.24
312.333	10.25
312.546	8.91
312.759	9.59
312.971	9.05
313.184	10.17
313.396	11.75
313.609	11.56
313.821	10.03
314.034	6.89
314.246	6.33
314.459	6.08
314.671	4.17
314.884	4.87
315.096	3.97
315.309	5.08
315.521	4.11
315.733	3.06
315.946	3.43
316.158	4.32
316.371	7.68
316.583	9.71
316.795	8.79
317.008	8.94
317.22	9.39
317.432	9.82
317.644	10.47
317.857	10.18
318.069	8.72
318.281	9.81
318.494	9.3
318.706	8.21
318.918	7.93
319.13	10.95
319.342	11.06
319.555	11.16
319.767	10.37
319.979	8.18
320.191	8.18
320.403	8.21
320.615	6.72
320.827	8.31
321.039	9.23
321.252	9.53
321.464	8.1
321.676	7.46
321.888	6.41
322.1	7.09
322.312	8.43
322.524	8.79
322.736	10.85
322.948	12.35
323.16	10.77
323.372	10
323.584	9.81
323.796	8.03
324.007	8.21
324.219	8.37
324.431	6.97
324.643	7.14
324.855	7.48
325.067	7.77
325.279	6.53
325.491	7.24
325.702	6.65
325.914	6.9
326.126	8.88
326.338	10.92
326.55	10.27
326.761	10.45
326.973	10.69
327.185	10.92
327.396	10.27
327.608	10.13
327.82	10.13
328.032	10.46
328.243	10.57
328.455	9.9
328.666	7.81
328.878	8.74
329.09	8.64
329.301	8.46
329.513	7.88
329.725	7.26
329.936	8.52
330.148	8.11
330.359	9.39
330.571	10.01
330.782	9.64
330.994	8.75
331.205	8.04
331.417	9.05
331.628	9.33
331.84	8.9
332.051	10.21
332.262	9.43
332.474	8.29
332.685	7.8
332.897	7.89
333.108	8.78
333.319	8.81
333.531	8.78
333.742	7.77
333.953	7.8
334.165	10.07
334.376	8.11
334.587	8.19
334.799	8.36
335.01	7.74
335.221	6.32
335.432	5.72
335.644	5.94
335.855	5.73
336.066	6.07
336.277	5.71
336.488	3.84
336.7	5.61
336.911	5.54
337.122	7.65
337.333	7.69
337.544	8.51
337.755	8.94
337.966	9.98
338.177	10.28
338.388	10.15
338.599	9.54
338.811	9.28
339.022	8.84
339.233	8.85
339.444	7.95
339.655	8.93
339.866	7.58
340.076	7.67
340.287	7.65
340.498	8.53
340.709	9.96
340.92	9.65
341.131	9.1
341.342	9.28
341.553	10.9
341.764	9.59
341.975	8.92
342.185	9.11
342.396	7.84
342.607	7.34
342.818	6.89
343.029	7.72
343.239	7.66
343.45	8.73
343.661	8.82
343.872	6.78
344.082	8.45
344.293	8.53
344.504	9.07
344.714	8.2
344.925	8.82
345.136	9.84
345.346	7.89
345.557	8.18
345.768	8.58
345.978	7.59
346.189	8.25
346.399	7.8
346.61	7.14
346.821	8.35
347.031	10.96
347.242	9.96
347.452	8.73
347.663	8.68
347.873	8.46
348.084	7.48
348.294	8.25
348.504	7.66
348.715	7.23
348.925	8.24
349.136	7.72
349.346	5.57
349.557	5.7
349.767	6.4
349.977	7.32
350.188	7.37
350.398	7.42
350.608	8.2
350.819	8.48
351.029	9.22
351.239	8.15
351.449	9.57
351.66	9.42
351.87	9.98
352.08	9.83
352.29	8.69
352.501	9.67
352.711	11.12
352.921	10.44
353.131	10.31
353.341	9.43
353.552	9.71
353.762	7.46
353.972	9.27
354.182	8.8
354.392	8.29
354.602	8.11
354.812	8.06
355.022	7.92
355.232	8.92
355.442	9.79
355.652	10.12
355.862	10.76
356.072	10.87
356.282	9.59
356.492	10.08
356.702	9.94
356.912	10.64
357.122	9.95
357.332	8.23
357.542	7.29
357.752	6.74
357.962	7.4
358.171	7.5
358.381	8.03
358.591	8.84
358.801	8.87
359.011	9.06
359.221	9.36
359.43	9.36
359.64	9.88
359.85	9.65
360.06	8.93
360.269	8.18
360.479	7.57
360.689	6.65
360.899	6.07
361.108	5.38
361.318	5.92
361.528	5.75
361.737	5.93
361.947	6.5
362.156	6.26
362.366	7.07
362.576	7.34
362.785	7.76
362.995	8.22
363.204	8.56
363.414	9.06
363.623	8.71
363.833	8.33
364.042	8.1
364.252	7.53
364.461	7.9
364.671	7.97
364.88	7.67
365.09	7.33
365.299	8.31
365.509	8.04
365.718	8.74
365.927	8.66
366.137	9.05
366.346	9.3
366.555	9.83
366.765	9.93
366.974	8.91
367.183	8.21
367.393	8.33
367.602	7.11
367.811	7.32
368.021	6.19
368.23	6.66
368.439	6.13
368.648	6.51
368.857	6.47
369.067	6.01
369.276	6.09
369.485	6.86
369.694	6.8
369.903	7.38
370.112	6.79
370.321	6.25
370.531	5.59
370.74	5.71
370.949	5.74
371.158	5.7
371.367	6.23
371.576	6.96
371.785	7.09
371.994	6.16
372.203	5.69
372.412	6.54
372.621	7.51
372.83	8.21
373.039	8.26
373.248	7.74
373.457	6.87
373.666	6.47
373.874	6.15
374.083	5.72
374.292	7.22
374.501	7.11
374.71	6.53
374.919	5.73
375.128	4.96
375.336	5.22
375.545	5.32
375.754	5.72
375.963	6.1
376.171	5.17
376.38	4.93
376.589	4.18
376.798	3.84
377.006	3.94
377.215	4.39
377.424	4.57
377.632	4.01
377.841	3.98
378.05	4.56
378.258	4.11
378.467	5.17
378.675	5.53
378.884	5.16
379.093	5.37
379.301	4.71
379.51	4.1
379.718	3.72
379.927	3.46
380.135	3.48
380.344	2.78
380.552	3.12
380.761	3.2
380.969	3.37
381.177	3.74
381.386	3.76
381.594	4.36
381.803	5.2
382.011	5.75
382.219	6.27
382.428	6.28
382.636	6.22
382.845	5.83
383.053	4.99
383.261	4.34
383.469	4.52
383.678	4.81
383.886	4.55
384.094	3.84
384.302	3.95
384.511	3.94
384.719	4.01
384.927	3.82
385.135	3.71
385.343	3.83
385.552	4.15
385.76	3.89
385.968	3.58
386.176	3.4
386.384	3.49
386.592	2.77
386.8	2.82
387.008	2.34
387.216	2.56
387.424	3.04
387.633	3.39
387.841	3.32
388.049	3.32
388.257	3.28
388.465	3.08
388.672	3.38
388.88	3.64
389.088	3.43
389.296	3.54
389.504	3.41
389.712	3.04
389.92	2.78
390.128	2.78
390.336	2.63
390.544	2.95
390.751	3.72
390.959	3.45
391.167	3.74
391.375	4.1
391.583	4.33
391.79	4.29
391.998	4.29
392.206	4.39
392.414	4.07
392.621	4.48
392.829	4.55
393.037	4.32
393.244	4.46
393.452	4.26
393.66	3.76
393.867	3.48
394.075	3.49
394.283	3.65
394.49	3.62
394.698	4.16
394.905	3.97
395.113	3.65
395.32	3.16
395.528	2.79
395.735	2.74
395.943	3.47
396.15	3.89
396.358	3.93
396.565	3.67
396.773	3.5
396.98	3.28
397.188	3.22
397.395	3.44
397.602	3.69
397.81	3.82
398.017	3.79
398.225	3.28
398.432	3
398.639	2.91
398.847	2.73
399.054	3.03
399.261	3.29
399.468	3.17
399.676	2.69
399.883	2.91
400.09	3.15
400.297	3.16
400.505	2.97
400.712	3.05
400.919	2.91
401.126	3.14
401.333	2.97
401.54	2.29
401.748	2.35
401.955	2.5
402.162	2.54
402.369	2.66
402.576	2.53
402.783	2.76
402.99	2.45
403.197	2.9
403.404	2.79
403.611	2.81
403.818	3.21
404.025	3.16
404.232	3.18
404.439	3
404.646	2.73
404.853	2.54
405.06	2.48
405.267	2.54
405.474	2.41
405.681	2.47
405.887	2.6
406.094	2.58
406.301	2.6
406.508	2.67
406.715	2.7
406.922	2.63
407.128	2.71
407.335	2.74
407.542	2.96
407.749	2.79
407.955	2.76
408.162	2.38
408.369	2.15
408.575	1.96
408.782	2.03
408.989	2.08
409.195	2.11
409.402	2.15
409.609	2.04
409.815	1.62
410.022	1.72
410.228	1.86
410.435	1.79
410.642	1.98
410.848	2.12
411.055	2.22
411.261	2.41
411.468	2.42
411.674	2.84
411.881	3.02
412.087	3.31
412.294	3.3
412.5	3.24
412.706	3.5
412.913	3.53
413.119	3.52
413.326	3.24
413.532	2.94
413.738	3.01
413.945	2.62
414.151	2.61
414.357	2.55
414.564	2.34
414.77	2.6
414.976	2.68
415.182	2.31
415.389	2.43
415.595	2.57
415.801	2.78
416.007	2.84
416.214	3.16
416.42	3.33
416.626	3.34
416.832	3.45
417.038	3.21
417.244	2.87
417.45	2.82
417.657	2.76
417.863	2.81
418.069	2.8
418.275	2.84
418.481	2.57
418.687	2.31
418.893	2.22
419.099	2.28
419.305	2.38
419.511	2.52
419.717	2.68
419.923	2.59
420.129	2.53
420.335	2.42
420.541	2.23
420.746	2.29
420.952	2.3
421.158	2.4
421.364	2.24
421.57	2.14
421.776	2.24
421.982	2.32
422.187	2.28
422.393	2.27
422.599	2.32
422.805	2.39
423.01	2.3
423.216	2.35
423.422	2.33
423.628	2.41
423.833	2.5
424.039	2.3
424.245	2.26
424.45	2.35
424.656	2.37
424.862	2.3
425.067	2.45
425.273	2.57
425.478	2.51
425.684	2.61
425.889	2.6
426.095	2.53
426.301	2.61
426.506	2.6
426.712	2.64
426.917	2.56
427.123	2.52
427.328	2.26
427.533	2.19
427.739	2.26
427.944	2.02
428.15	2.05
428.355	1.87
428.561	2.01
428.766	1.96
428.971	1.95
429.177	1.8
429.382	1.85
429.587	2.04
429.793	1.78
429.998	1.69
430.203	1.65
430.408	1.58
430.614	1.89
430.819	2.06
431.024	2.08
431.229	1.94
431.434	2
431.64	2.08
431.845	1.98
432.05	2.29
432.255	2.28
432.46	2.24
432.665	2.28
432.87	2.17
433.076	2.08
433.281	2.07
433.486	2.18
433.691	2.39
433.896	2.32
434.101	2.42
434.306	2.55
434.511	2.65
434.716	2.9
434.921	2.97
435.126	3.17
435.331	3.07
435.535	3.17
435.74	3.1
435.945	3.01
436.15	3.17
436.355	2.94
436.56	2.7
436.765	2.65
436.97	2.65
437.174	2.63
437.379	2.45
437.584	2.4
437.789	2.37
437.993	2.51
438.198	2.33
438.403	2.08
438.608	2.21
438.812	2.41
439.017	2.31
439.222	2.22
439.426	2.19
439.631	2.22
439.836	2.18
440.04	2.11
440.245	2.11
440.45	2.24
440.654	2.36
440.859	2.34
441.063	2.23
441.268	2.28
441.472	2.3
441.677	2.35
441.881	2.32
442.086	2.57
442.29	2.63
442.495	2.59
442.699	2.53
442.904	2.54
443.108	2.63
443.312	2.61
443.517	2.54
443.721	2.41
443.925	2.48
444.13	2.51
444.334	2.2
444.538	2.06
444.743	2.07
444.947	2.32
445.151	2.22
445.356	2.15
445.56	2.1
445.764	2.31
445.968	2.46
446.173	2.33
446.377	2.21
446.581	2.42
446.785	2.47
446.989	2.28
447.193	2.02
447.398	2.03
447.602	2.03
447.806	2.09
448.01	2.04
448.214	1.95
448.418	1.99
448.622	2.09
448.826	1.9
449.03	1.83
449.234	2.03
449.438	2.19
449.642	2
449.846	2.07
450.05	2.04
450.254	1.9
450.458	1.94
450.662	1.88
450.866	1.9
451.069	2.02
451.273	2.15
451.477	2.03
451.681	2.05
451.885	2.15
452.089	1.99
452.292	1.87
452.496	1.72
452.7	1.64
452.904	1.82
453.107	1.65
453.311	1.63
453.515	1.67
453.719	1.66
453.922	1.71
454.126	1.82
454.33	1.98
454.533	2.22
454.737	2.52
454.94	2.54
455.144	2.33
455.348	2.32
455.551	2.37
455.755	2.19
455.958	2.32
456.162	2.03
456.365	1.9
456.569	1.68
456.772	1.53
456.976	1.52
457.179	1.62
457.383	1.66
457.586	1.91
457.79	1.84
457.993	1.94
458.196	2.05
458.4	2.27
458.603	2.31
458.807	2.3
459.01	2.28
459.213	2.22
459.417	2.19
459.62	2.25
459.823	2.1
460.026	2.17
460.23	2.22
460.433	2.19
460.636	2.1
460.839	2.04
461.042	2.02
461.246	1.99
461.449	1.95
461.652	1.78
461.855	1.75
462.058	1.7
462.261	1.67
462.464	1.44
462.668	1.2
462.871	1.33
463.074	1.61
463.277	1.6
463.48	1.86
463.683	1.91
463.886	2.11
464.089	1.9
464.292	1.92
464.495	1.88
464.698	2.04
464.901	2.27
465.104	2.21
465.306	2.1
465.509	2.42
465.712	2.34
465.915	2.32
466.118	2.14
466.321	2.47
466.524	2.65
466.726	2.58
466.929	2.74
467.132	2.71
467.335	2.69
467.538	2.67
467.74	2.35
467.943	2.32
468.146	2.47
468.348	2.64
468.551	2.39
468.754	2.34
468.956	2.35
469.159	2.11
469.362	2
469.564	2
469.767	2.07
469.969	2.34
470.172	2.25
