Data from 2938021_Reflection_3.txt Node
Date: Sun Jul 12 15:27:54 EDT 2015
User: robert
Spectrometer: USB4E03001
Autoset integration time: false
Trigger mode: 4
Integration Time (sec): 1.000000E-1
Scans to average: 10
Electric dark correction enabled: true
Nonlinearity correction enabled: false
Boxcar width: 5
Stray light correction enabled: false
XAxis mode: Wavelengths
Stop averaging: false
Number of Pixels in Spectrum: 3648
>>>>>Begin Spectral Data<<<<<
177.566	27.4
177.785	32.97
178.005	-82.54
178.225	523.79
178.445	-87.05
178.665	9.01
178.885	-39
179.105	-36.38
179.324	-84.46
179.544	8.84
179.764	232.16
179.984	323.71
180.204	-5102.6
180.423	474.74
180.643	-100.38
180.863	371.36
181.083	3384.75
181.302	-114.9
181.522	-193.1
181.742	2139.02
181.961	322.71
182.181	493.57
182.401	57.93
182.621	-1093.81
182.84	724.49
183.06	94.65
183.279	144
183.499	181.31
183.719	144.03
183.938	236.34
184.158	80.59
184.377	659.05
184.597	53.59
184.816	95.34
185.036	51.4
185.256	116.9
185.475	95.91
185.695	-118.71
185.914	-5.88
186.134	15.55
186.353	25.2
186.572	1892.5
186.792	146.49
187.011	1385.82
187.231	-1879.23
187.45	175.67
187.67	184.7
187.889	214.93
188.108	248.59
188.328	243.88
188.547	372.6
188.766	-506.11
188.986	-343.08
189.205	-219.1
189.424	-574.19
189.644	-870.62
189.863	-571.22
190.082	2145.27
190.302	14428.3
190.521	-5726.36
190.74	8227.17
190.959	502.12
191.178	210.88
191.398	143.73
191.617	149.26
191.836	132.12
192.055	166.21
192.274	-238.57
192.494	223.53
192.713	137.09
192.932	202.89
193.151	137.19
193.37	106.49
193.589	125.72
193.808	134.78
194.027	158.5
194.246	134.41
194.465	188.01
194.685	187.18
194.904	129.58
195.123	112.37
195.342	108.79
195.561	144.26
195.78	160.33
195.999	121.23
196.218	92.24
196.436	70.65
196.655	48.7
196.874	55.28
197.093	17.15
197.312	-24.06
197.531	-165.19
197.75	-113.21
197.969	-113.9
198.188	298.96
198.407	156.16
198.625	65.69
198.844	71.24
199.063	42.89
199.282	84.82
199.501	115.28
199.719	108.53
199.938	133.01
200.157	162.12
200.376	423.44
200.594	-323.31
200.813	-552.3
201.032	-390.33
201.251	-578.4
201.469	-792.54
201.688	7486.11
201.907	-490.08
202.125	-759.34
202.344	-4195.83
202.563	-1019.08
202.781	-357.67
203	2684.66
203.218	-3737.4
203.437	-389.48
203.656	-274.7
203.874	-471.45
204.093	-108.09
204.311	17.82
204.53	-3.62
204.748	28.79
204.967	-28.37
205.185	-7.43
205.404	30.75
205.622	122.48
205.841	-151.31
206.059	826.69
206.278	182.29
206.496	286.47
206.715	41.15
206.933	-32.56
207.151	62.87
207.37	-104.01
207.588	67.5
207.806	198.16
208.025	1903.48
208.243	-126.74
208.461	615.25
208.68	296.81
208.898	-1059.52
209.116	-1004.45
209.335	-148.84
209.553	-417.29
209.771	-190.58
209.989	-88.2
210.208	-102.27
210.426	-273.09
210.644	1542.08
210.862	-2048.93
211.081	-699.65
211.299	-485.6
211.517	-373.13
211.735	-928.8
211.953	-726.65
212.171	-15872
212.39	444.44
212.608	-213.19
212.826	-77.7
213.044	-36.54
213.262	-7.77
213.48	-5.17
213.698	-24.65
213.916	-62.31
214.134	-45.71
214.352	-34.04
214.57	-28.28
214.788	2.3
215.006	0.94
215.224	-33.32
215.442	-14.24
215.66	-42.3
215.878	4.35
216.096	22.17
216.314	43.69
216.532	25.22
216.75	53.7
216.968	31.88
217.185	22.62
217.403	33.04
217.621	25.4
217.839	13.27
218.057	-19.92
218.275	-98.39
218.492	-506.74
218.71	604.26
218.928	-1840.12
219.146	-357.11
219.363	-289.4
219.581	-602.96
219.799	-333.7
220.017	-356.25
220.234	-758.61
220.452	-633.38
220.67	-275.36
220.887	-98.81
221.105	-90.35
221.323	-87.61
221.54	-126.69
221.758	-112.17
221.976	-147.61
222.193	-189.1
222.411	-61.36
222.629	-60.81
222.846	-85.01
223.064	-94.03
223.281	-182.78
223.499	-164.44
223.716	-154.06
223.934	-118.31
224.151	-149.3
224.369	-116.73
224.586	-89.34
224.804	-105.56
225.021	-79.34
225.239	-71.58
225.456	-48.11
225.674	-26
225.891	-7.54
226.108	-11.19
226.326	-24.6
226.543	-8.31
226.76	-12.2
226.978	-3.61
227.195	-9.95
227.413	-7.45
227.63	-4.49
227.847	-6.3
228.064	-1.79
228.282	-3.34
228.499	2.76
228.716	4.84
228.934	1.96
229.151	-1.57
229.368	-6.33
229.585	-8.72
229.802	-10.66
230.02	-9.67
230.237	-9.98
230.454	-11.47
230.671	-11.38
230.888	-13.32
231.105	-12.44
231.323	-16.61
231.54	-12.87
231.757	-9.72
231.974	-3.61
232.191	-3.2
232.408	-2.13
232.625	-2.79
232.842	-5.05
233.059	-9.06
233.276	-13.96
233.493	-15.26
233.71	-16.49
233.927	-16.33
234.144	-15.02
234.361	-15.47
234.578	-14.33
234.795	-15.06
235.012	-6.55
235.229	-7.29
235.446	0.72
235.663	-1.23
235.879	-0.36
236.096	4.11
236.313	-0.8
236.53	-3.71
236.747	-2.22
236.964	-0.86
237.181	-9.12
237.397	-18.19
237.614	-14.73
237.831	-20.55
238.048	-21.49
238.264	-19.09
238.481	-13.26
238.698	-7.19
238.915	-4.63
239.131	-3.41
239.348	-6.7
239.565	-7.22
239.781	-1.88
239.998	-4.41
240.215	-3.74
240.431	-1.97
240.648	-6.19
240.865	-12.21
241.081	-11.94
241.298	-12.07
241.514	-12.01
241.731	-6.69
241.947	-5
242.164	-5.55
242.38	-4.96
242.597	-4.47
242.814	-5.32
243.03	-7.42
243.246	-6.35
243.463	-7.19
243.679	-7.76
243.896	-8.92
244.112	-11.64
244.329	-15.07
244.545	-16.36
244.762	-15.68
244.978	-15.1
245.194	-15.76
245.411	-11.29
245.627	-9.81
245.843	-7.54
246.06	-5.2
246.276	-3.97
246.492	-3.48
246.709	-0.39
246.925	-2.1
247.141	-2.1
247.357	-2.36
247.574	-1.06
247.79	-1.55
248.006	-2
248.222	-1.81
248.439	-3.06
248.655	-2.61
248.871	-3.12
249.087	-4.59
249.303	-3.48
249.519	-4.77
249.736	-6.68
249.952	-9.02
250.168	-6.54
250.384	-6.14
250.6	-5.67
250.816	-2.58
251.032	-3.32
251.248	-3.63
251.464	-2.06
251.68	-3.54
251.896	-2.33
252.112	-1.42
252.328	-0.32
252.544	-1.23
252.76	-1.23
252.976	-2.56
253.192	-6.08
253.408	-6.14
253.624	-6.44
253.84	-8.13
254.056	-7.26
254.272	-6.81
254.487	-5.93
254.703	-6.41
254.919	-8.02
255.135	-9.92
255.351	-9.5
255.567	-3.74
255.782	-7.39
255.998	-6.73
256.214	-4.84
256.43	-4.14
256.646	-2.04
256.861	-0.22
257.077	-0.33
257.293	1.46
257.508	2.46
257.724	2.78
257.94	1.75
258.155	4.76
258.371	4.61
258.587	4.5
258.802	2.88
259.018	0.38
259.234	-0.01
259.449	-0.86
259.665	-1.24
259.88	-1.43
260.096	-2.07
260.312	-2.15
260.527	-2.78
260.743	-3.28
260.958	-3.94
261.174	-3.26
261.389	-2.56
261.605	-3.3
261.82	-2.47
262.036	-2.46
262.251	-2.82
262.466	-2.36
262.682	-2.73
262.897	-2.29
263.113	-1.61
263.328	-2.43
263.543	-3.47
263.759	-5.41
263.974	-4.75
264.189	-4.7
264.405	-5.54
264.62	-4.7
264.835	-5.12
265.051	-6.83
265.266	-7.58
265.481	-7.06
265.696	-7.04
265.912	-8.22
266.127	-6.13
266.342	-6.29
266.557	-6.49
266.773	-4.53
266.988	-5.16
267.203	-5.32
267.418	-3.64
267.633	-4.35
267.848	-3.95
268.064	-2.32
268.279	-1.56
268.494	-1.67
268.709	-1.64
268.924	-2.44
269.139	-4.17
269.354	-4.64
269.569	-2.97
269.784	-3.26
269.999	-4.29
270.214	-4.23
270.429	-5
270.644	-4.4
270.859	-6.8
271.074	-6.23
271.289	-6.3
271.504	-5.44
271.719	-3.86
271.934	-4.92
272.149	-5.36
272.363	-4.71
272.578	-5.56
272.793	-5.58
273.008	-5.41
273.223	-3.33
273.438	-3.45
273.653	-3.02
273.867	-2.84
274.082	-3.32
274.297	-4.68
274.512	-4.66
274.726	-4.88
274.941	-3.45
275.156	-5.63
275.371	-6.88
275.585	-7.24
275.8	-7.49
276.015	-6.69
276.229	-6.72
276.444	-5.96
276.659	-3.59
276.873	-3.95
277.088	-3.79
277.302	-3.73
277.517	-0.57
277.732	0.07
277.946	0.54
278.161	1.96
278.375	2.39
278.59	2.23
278.804	0.28
279.019	0.18
279.233	0.54
279.448	1.01
279.662	-0.19
279.877	-1.18
280.091	-0.74
280.306	-1.58
280.52	-1.74
280.735	-2.27
280.949	-3.25
281.163	-1.62
281.378	-1.02
281.592	-1.16
281.806	-1.51
282.021	-2.49
282.235	-4.67
282.449	-3.57
282.664	-3.24
282.878	-4.3
283.092	-4.05
283.307	-3.13
283.521	-3.75
283.735	-3.95
283.949	-2.62
284.164	-2.31
284.378	-1.47
284.592	0.79
284.806	-0.45
285.02	-1.69
285.234	-1.95
285.449	-2.1
285.663	-2.48
285.877	-1.83
286.091	-0.94
286.305	-0.23
286.519	0.89
286.733	1.95
286.947	1.48
287.161	1.02
287.375	2.13
287.589	2.1
287.803	2.5
288.017	2.46
288.231	1.59
288.445	1.23
288.659	0.58
288.873	-0.68
289.087	-3.13
289.301	-2.88
289.515	-1.97
289.729	-1.95
289.943	-2.68
290.157	-3.2
290.371	-2.43
290.584	-2.99
290.798	-3.73
291.012	-4.96
291.226	-4.9
291.44	-3.91
291.654	-3.21
291.867	-2.56
292.081	-2.02
292.295	-1.14
292.509	-0.6
292.722	-1.05
292.936	0.67
293.15	0.2
293.364	0.84
293.577	0.5
293.791	1.2
294.005	1.86
294.218	1.06
294.432	0.12
294.645	1.65
294.859	1.44
295.073	1.79
295.286	1.04
295.5	0.8
295.713	-0.12
295.927	-0.08
296.14	-0.71
296.354	-1.49
296.568	-1.7
296.781	-2.13
296.994	-3.07
297.208	-3.19
297.421	-3.84
297.635	-3.47
297.848	-2.52
298.062	-2.35
298.275	-2.3
298.489	-2.4
298.702	-1.76
298.915	-1.78
299.129	-0.78
299.342	0.15
299.555	0.31
299.769	1.22
299.982	2.15
300.195	0.77
300.409	1.46
300.622	0.26
300.835	-0.01
301.048	-1.42
301.262	0.09
301.475	-0.72
301.688	-1.38
301.901	-0.58
302.115	-1.26
302.328	-1.78
302.541	-2.08
302.754	-2.12
302.967	-0.67
303.18	-0.24
303.393	0.03
303.607	-0.61
303.82	0.84
304.033	-0.87
304.246	-2.42
304.459	-2.47
304.672	-1.94
304.885	-0.67
305.098	-1.57
305.311	-2.23
305.524	-1.92
305.737	0.12
305.95	-1.26
306.163	-2.72
306.376	-0.78
306.589	-0.31
306.802	1.42
307.015	0.38
307.228	0.69
307.44	0.95
307.653	2.4
307.866	1.45
308.079	0.36
308.292	1.44
308.505	1.32
308.718	1.7
308.93	1.72
309.143	0.55
309.356	-0.25
309.569	-2.3
309.781	-1.35
309.994	-1.6
310.207	-2.03
310.42	-3.1
310.632	-1.31
310.845	0.52
311.058	-0.67
311.27	0.02
311.483	0.06
311.696	0.97
311.908	2.72
312.121	2.4
312.333	2.46
312.546	4.51
312.759	3.99
312.971	0.83
313.184	0.45
313.396	0.84
313.609	0.26
313.821	0.17
314.034	0.38
314.246	-1.6
314.459	-2.14
314.671	-3.06
314.884	-5.09
315.096	-3.47
315.309	-1.06
315.521	-2.32
315.733	-0.59
315.946	-1.33
316.158	-1.6
316.371	-1.79
316.583	1.15
316.795	1.14
317.008	1.78
317.22	1.17
317.432	1.14
317.644	1.24
317.857	1.28
318.069	-0.91
318.281	-0.66
318.494	-0.07
318.706	-1.55
318.918	-2.73
319.13	-2.35
319.342	-1.64
319.555	-0.17
319.767	-0.05
319.979	-1.35
320.191	-1.43
320.403	0.72
320.615	1.92
320.827	1.95
321.039	3.58
321.252	3.18
321.464	3.36
321.676	4.1
321.888	5.72
322.1	6.51
322.312	7.05
322.524	6.47
322.736	6.31
322.948	6.71
323.16	6.89
323.372	6.41
323.584	6.43
323.796	6.18
324.007	5.18
324.219	3.67
324.431	2.64
324.643	2.02
324.855	1.88
325.067	0.4
325.279	-0.61
325.491	-0.77
325.702	1.13
325.914	1.05
326.126	0.85
326.338	0.6
326.55	0.67
326.761	-0.65
326.973	-0.33
327.185	0.86
327.396	1.61
327.608	2.26
327.82	2.14
328.032	-0.73
328.243	-0.84
328.455	0.37
328.666	0.77
328.878	1.61
329.09	2.49
329.301	2.26
329.513	1.06
329.725	0.92
329.936	-0.01
330.148	-0.1
330.359	0.31
330.571	-0.74
330.782	-0.76
330.994	-0.85
331.205	-1.22
331.417	-1.87
331.628	-1.39
331.84	0.44
332.051	-0.21
332.262	0.5
332.474	0.81
332.685	2.22
332.897	2.31
333.108	0.74
333.319	-0.53
333.531	0.02
333.742	0.23
333.953	1.62
334.165	0.76
334.376	0.89
334.587	0.7
334.799	0.51
335.01	-0.27
335.221	1
335.432	1.66
335.644	1.58
335.855	0.49
336.066	1.06
336.277	0.65
336.488	0.54
336.7	0.27
336.911	0.39
337.122	0.55
337.333	0.85
337.544	0.07
337.755	0.17
337.966	2.11
338.177	3.18
338.388	3.69
338.599	2.78
338.811	2.3
339.022	3.13
339.233	2.28
339.444	1.45
339.655	0.46
339.866	2.57
340.076	2.91
340.287	3.69
340.498	3.93
340.709	4.16
340.92	5.29
341.131	5.74
341.342	5.22
341.553	6.61
341.764	8.33
341.975	9.59
342.185	8.32
342.396	8.19
342.607	7.73
342.818	8.1
343.029	7.4
343.239	6.49
343.45	7.03
343.661	8.27
343.872	8.11
344.082	7.68
344.293	6.83
344.504	7.6
344.714	8.33
344.925	8.73
345.136	7.92
345.346	8.23
345.557	8.5
345.768	8.29
345.978	6.61
346.189	6.87
346.399	7.01
346.61	8.27
346.821	7.32
347.031	6.13
347.242	6.15
347.452	6.36
347.663	6.55
347.873	7.46
348.084	8.24
348.294	9.14
348.504	9.24
348.715	8.83
348.925	8.57
349.136	9.29
349.346	10.08
349.557	8.56
349.767	10.04
349.977	9.57
350.188	9.35
350.398	8.59
350.608	9.45
350.819	9.64
351.029	9.62
351.239	8.97
351.449	8.82
351.66	8.54
351.87	8.23
352.08	7.14
352.29	8.7
352.501	8.17
352.711	8.23
352.921	8.64
353.131	8.48
353.341	8.48
353.552	9.09
353.762	9.27
353.972	9.23
354.182	11.17
354.392	11.93
354.602	11.3
354.812	10.95
355.022	11.24
355.232	9.99
355.442	10
355.652	9.57
355.862	9.36
356.072	8.63
356.282	8.83
356.492	8.12
356.702	8.24
356.912	8.43
357.122	8.35
357.332	9.04
357.542	10.55
357.752	10.86
357.962	10.98
358.171	11.55
358.381	12.86
358.591	13.11
358.801	13.45
359.011	12.89
359.221	12.58
359.43	12.98
359.64	12.69
359.85	11.96
360.06	12.1
360.269	12.27
360.479	11.73
360.689	11.47
360.899	11.69
361.108	11.6
361.318	12.02
361.528	12.48
361.737	12.56
361.947	12.03
362.156	12.24
362.366	12
362.576	12.23
362.785	12.73
362.995	12.83
363.204	12.89
363.414	13.01
363.623	13.52
363.833	12.81
364.042	13.61
364.252	14.23
364.461	14.43
364.671	14.07
364.88	13.38
365.09	12.52
365.299	13.29
365.509	12.46
365.718	12.54
365.927	11.55
366.137	12.27
366.346	11.59
366.555	11.66
366.765	11.87
366.974	12.13
367.183	12.95
367.393	13.52
367.602	12.79
367.811	14.3
368.021	13.13
368.23	12.73
368.439	12.39
368.648	12.21
368.857	11.98
369.067	11.39
369.276	11.75
369.485	12.55
369.694	12.5
369.903	12.22
370.112	11.73
370.321	13.44
370.531	14.23
370.74	14.46
370.949	15.29
371.158	15.99
371.367	16.53
371.576	16.41
371.785	15.47
371.994	15.87
372.203	15.61
372.412	15.75
372.621	15.15
372.83	15.34
373.039	15.68
373.248	15.64
373.457	15.02
373.666	14.51
373.874	14.4
374.083	14.85
374.292	14.66
374.501	15.5
374.71	15.37
374.919	15.57
375.128	15.92
375.336	15.88
375.545	14.89
375.754	15.87
375.963	16.66
376.171	16.41
376.38	16.43
376.589	16.99
376.798	16.82
377.006	16.53
377.215	16.87
377.424	16.53
377.632	16.84
377.841	16.97
378.05	16.67
378.258	16.32
378.467	16.56
378.675	16.61
378.884	16.42
379.093	16.76
379.301	17.49
379.51	17.22
379.718	17.07
379.927	16.53
380.135	17.11
380.344	17.31
380.552	17.48
380.761	17.72
380.969	17.35
381.177	16.94
381.386	17.02
381.594	16.25
381.803	16.38
382.011	17.08
382.219	17.54
382.428	17.33
382.636	17.07
382.845	17.06
383.053	16.98
383.261	17.86
383.469	18.6
383.678	18.55
383.886	18.48
384.094	18.96
384.302	18.39
384.511	18.42
384.719	19.13
384.927	19.22
385.135	19.27
385.343	19.44
385.552	19
385.76	18.51
385.968	17.84
386.176	18.42
386.384	18.43
386.592	18.85
386.8	19.05
387.008	18.98
387.216	19.17
387.424	19.37
387.633	19.75
387.841	20.01
388.049	20.93
388.257	21.83
388.465	22.25
388.672	22.28
388.88	22.62
389.088	22.17
389.296	22.36
389.504	22.1
389.712	22.16
389.92	22.4
390.128	22.76
390.336	22.01
390.544	22.2
390.751	22.16
390.959	22.15
391.167	22
391.375	22.77
391.583	22.44
391.79	23.17
391.998	23.01
392.206	23.08
392.414	22.94
392.621	23.71
392.829	23.8
393.037	24.1
393.244	24.18
393.452	24.25
393.66	24.46
393.867	24.79
394.075	24.57
394.283	24.99
394.49	25.12
394.698	25.43
394.905	25.31
395.113	25.33
395.32	25.15
395.528	25.62
395.735	25.86
395.943	25.99
396.15	26.19
396.358	26.03
396.565	26.11
396.773	25.88
396.98	26
397.188	26.34
397.395	26.63
397.602	26.73
397.81	26.25
398.017	26.16
398.225	26.26
398.432	26.42
398.639	27.02
398.847	27.32
399.054	27.34
399.261	27.58
399.468	27.48
399.676	27.46
399.883	27.56
400.09	28.13
400.297	28.59
400.505	28.37
400.712	28.8
400.919	29.25
401.126	29.24
401.333	29.72
401.54	29.58
401.748	29.75
401.955	29.98
402.162	30.49
402.369	30.4
402.576	30.36
402.783	30.58
402.99	30.47
403.197	30.16
403.404	30.1
403.611	30.14
403.818	30.3
404.025	30.17
404.232	30.39
404.439	30.29
404.646	30.07
404.853	30.12
405.06	30.14
405.267	30.03
405.474	29.68
405.681	29.94
405.887	29.97
406.094	29.88
406.301	30.05
406.508	29.68
406.715	29.52
406.922	30
407.128	30.02
407.335	29.77
407.542	29.82
407.749	30.44
407.955	30.5
408.162	30.26
408.369	30.66
408.575	30.42
408.782	30.79
408.989	30.92
409.195	30.88
409.402	30.84
409.609	31.3
409.815	31.43
410.022	31.18
410.228	31.03
410.435	31.27
410.642	30.88
410.848	31.14
411.055	30.95
411.261	31.12
411.468	30.86
411.674	30.84
411.881	30.76
412.087	30.78
412.294	30.8
412.5	30.79
412.706	30.95
412.913	31.23
413.119	31.16
413.326	31.47
413.532	31.43
413.738	31.8
413.945	32.26
414.151	32.38
414.357	32.47
414.564	32.52
414.77	32.59
414.976	32.28
415.182	32.18
415.389	32.06
415.595	31.99
415.801	32.13
416.007	31.89
416.214	31.53
416.42	31.53
416.626	31.63
416.832	31.54
417.038	31.56
417.244	31.79
417.45	31.74
417.657	31.95
417.863	31.83
418.069	31.67
418.275	31.72
418.481	31.74
418.687	31.58
418.893	31.36
419.099	31.35
419.305	31.35
419.511	31.18
419.717	31.11
419.923	30.92
420.129	30.9
420.335	31.01
420.541	30.82
420.746	30.9
420.952	30.85
421.158	30.96
421.364	31.02
421.57	30.96
421.776	30.94
421.982	30.88
422.187	30.96
422.393	31.06
422.599	30.83
422.805	30.92
423.01	30.92
423.216	30.9
423.422	30.67
423.628	30.58
423.833	30.59
424.039	30.5
424.245	30.61
424.45	30.71
424.656	30.49
424.862	30.53
425.067	30.49
425.273	30.25
425.478	30.41
425.684	30.62
425.889	30.63
426.095	30.64
426.301	30.81
426.506	30.84
426.712	30.83
426.917	30.83
427.123	30.83
427.328	30.91
427.533	30.93
427.739	30.54
427.944	30.4
428.15	30.44
428.355	30.29
428.561	30.19
428.766	29.96
428.971	29.86
429.177	29.95
429.382	30.03
429.587	30.05
429.793	30.07
429.998	30.12
430.203	30.16
430.408	30.07
430.614	30.25
430.819	30.38
431.024	30.53
431.229	30.47
431.434	30.35
431.64	30.19
431.845	30.13
432.05	30.36
432.255	30.37
432.46	30.26
432.665	30.27
432.87	29.99
433.076	29.98
433.281	29.99
433.486	29.84
433.691	29.83
433.896	29.88
434.101	29.89
434.306	29.66
434.511	29.79
434.716	29.97
434.921	29.95
435.126	30.08
435.331	30.02
435.535	29.89
435.74	29.95
435.945	30.06
436.15	30.16
436.355	30.25
436.56	30.27
436.765	30.28
436.97	30.22
437.174	30.33
437.379	30.49
437.584	30.51
437.789	30.47
437.993	30.58
438.198	30.73
438.403	30.73
438.608	30.69
438.812	30.91
439.017	30.83
439.222	30.87
439.426	30.61
439.631	30.62
439.836	30.64
440.04	30.86
440.245	30.75
440.45	30.54
440.654	30.45
440.859	30.34
441.063	30.25
441.268	30.31
441.472	30.07
441.677	30.16
441.881	30.02
442.086	29.98
442.29	29.87
442.495	29.88
442.699	29.93
442.904	30.08
443.108	30.14
443.312	30.06
443.517	29.83
443.721	29.92
443.925	29.98
444.13	30.01
444.334	29.89
444.538	29.66
444.743	29.74
444.947	29.72
445.151	29.71
445.356	29.63
445.56	29.52
445.764	29.6
445.968	29.56
446.173	29.56
446.377	29.59
446.581	29.58
446.785	29.82
446.989	29.78
447.193	29.78
447.398	29.67
447.602	29.73
447.806	29.86
448.01	29.84
448.214	30.02
448.418	30.05
448.622	30.08
448.826	30.17
449.03	30.05
449.234	30.09
449.438	30.04
449.642	30.01
449.846	30.1
450.05	29.9
450.254	29.81
450.458	29.76
450.662	29.72
450.866	29.58
451.069	29.38
451.273	29.37
451.477	29.29
451.681	29.34
451.885	29.26
452.089	29.06
452.292	29.19
452.496	29.39
452.7	29.19
452.904	29.15
453.107	29.27
453.311	29.4
453.515	29.23
453.719	29.16
453.922	29.11
454.126	29.16
454.33	29.25
454.533	29.27
454.737	29.32
454.94	29.17
455.144	29.19
455.348	28.88
455.551	28.97
455.755	29.12
455.958	29.32
456.162	29.27
456.365	29.25
456.569	29.32
456.772	29.37
