Data from 2938031_Reflection_2.txt Node
Date: Sun Jul 12 15:01:15 EDT 2015
User: robert
Spectrometer: USB4E03001
Autoset integration time: false
Trigger mode: 4
Integration Time (sec): 1.000000E-1
Scans to average: 10
Electric dark correction enabled: true
Nonlinearity correction enabled: false
Boxcar width: 5
Stray light correction enabled: false
XAxis mode: Wavelengths
Stop averaging: false
Number of Pixels in Spectrum: 3648
>>>>>Begin Spectral Data<<<<<
177.566	81.09
177.785	-50.35
178.005	-1728.57
178.225	790.55
178.445	241.84
178.665	237.41
178.885	34.22
179.105	55.85
179.324	53.91
179.544	140.7
179.764	-84.04
179.984	26.5
180.204	-34.58
180.423	-163.24
180.643	-406.22
180.863	-15360
181.083	-221.37
181.302	-124.13
181.522	-117.28
181.742	-285.6
181.961	-2728.09
182.181	-289.61
182.401	-83.41
182.621	-84.44
182.84	-48.95
183.06	-34.59
183.279	-45.77
183.499	-120.99
183.719	-105.48
183.938	-92.82
184.158	-78.28
184.377	-68.55
184.597	-79.21
184.816	-180.4
185.036	-257.34
185.256	-172.31
185.475	-120.77
185.695	-144.3
185.914	-96.61
186.134	-85.05
186.353	-90.78
186.572	-55.82
186.792	-77.69
187.011	-67.88
187.231	-45.4
187.45	-54.26
187.67	-97.27
187.889	-279.11
188.108	-173.14
188.328	-95.64
188.547	-60.7
188.766	-15.41
188.986	126.49
189.205	198.87
189.424	485.62
189.644	238.58
189.863	1395.02
190.082	420.95
190.302	197.4
190.521	236.97
190.74	500
190.959	170.35
191.178	44.38
191.398	231.62
191.617	-1163.79
191.836	-1377.78
192.055	345.49
192.274	-193.13
192.494	-76.21
192.713	-166.53
192.932	-110.32
193.151	-74.56
193.37	-94.17
193.589	-146.74
193.808	-111.97
194.027	-132.43
194.246	-87.52
194.465	-78.69
194.685	-63.84
194.904	-48.04
195.123	-55.28
195.342	-62.55
195.561	-158.89
195.78	-173.6
195.999	-96.82
196.218	-95.1
196.436	-154.03
196.655	-98.61
196.874	-107.65
197.093	-174.42
197.312	-470.06
197.531	-220.61
197.75	-129.59
197.969	-55.68
198.188	-131.67
198.407	-158.24
198.625	-143.93
198.844	-88.28
199.063	-112.11
199.282	-96.65
199.501	-75.51
199.719	-45.82
199.938	-88.44
200.157	-68.49
200.376	-98.29
200.594	-42.81
200.813	-6.75
201.032	-14.33
201.251	-29.41
201.469	-30.5
201.688	-14.46
201.907	-46.07
202.125	-71.68
202.344	-37.92
202.563	-102.86
202.781	-227
203	-183.97
203.218	-261.76
203.437	11988.37
203.656	-192.04
203.874	-174.2
204.093	-170.72
204.311	-175.03
204.53	-202.36
204.748	-227.57
204.967	-157.19
205.185	-144.85
205.404	-116.82
205.622	-124.63
205.841	-73.53
206.059	-196.72
206.278	-73.87
206.496	-24.58
206.715	3.03
206.933	39.95
207.151	32.9
207.37	31.08
207.588	48.17
207.806	24.01
208.025	11.36
208.243	16.27
208.461	18.53
208.68	14.48
208.898	6.84
209.116	23.15
209.335	6.28
209.553	5.05
209.771	-8.08
209.989	-5
210.208	-4.98
210.426	22.59
210.644	11.25
210.862	2.56
211.081	2.08
211.299	-64.87
211.517	-138.66
211.735	-125.08
211.953	-147.82
212.171	-70.38
212.39	-89.88
212.608	-17.43
212.826	-25.37
213.044	-40.34
213.262	-43.76
213.48	-148.13
213.698	-44.45
213.916	-74.58
214.134	-32.59
214.352	-33.91
214.57	-19.74
214.788	-22.03
215.006	-66.94
215.224	-52.27
215.442	-11.41
215.66	-12.67
215.878	-2.04
216.096	-12.8
216.314	12.27
216.532	10.06
216.75	3.98
216.968	2.34
217.185	-3.85
217.403	5.64
217.621	5.33
217.839	-0.06
218.057	27.7
218.275	39.41
218.492	49.79
218.71	83.12
218.928	102.41
219.146	109.98
219.363	127.95
219.581	233.14
219.799	194.8
220.017	188.47
220.234	152.33
220.452	83.88
220.67	77.57
220.887	72.67
221.105	42.05
221.323	21.05
221.54	9.35
221.758	-6.66
221.976	-26.66
222.193	-32.25
222.411	-62.61
222.629	-39.26
222.846	-28.14
223.064	-44.85
223.281	-31.32
223.499	-13.74
223.716	-1.51
223.934	5.78
224.151	39.08
224.369	49.68
224.586	82.6
224.804	92.46
225.021	87.93
225.239	67.05
225.456	57.79
225.674	66.3
225.891	52.22
226.108	49.76
226.326	37.03
226.543	13.09
226.76	3.27
226.978	-15.91
227.195	-9.29
227.413	-12.37
227.63	-6.01
227.847	-2.7
228.064	0.55
228.282	-2.09
228.499	-4.65
228.716	-1.6
228.934	1.44
229.151	2.67
229.368	2.69
229.585	0.99
229.802	4.21
230.02	5.4
230.237	6.18
230.454	4.72
230.671	5.71
230.888	7.42
231.105	5.85
231.323	7.02
231.54	5
231.757	7
231.974	9.54
232.191	3.09
232.408	1.1
232.625	-2.88
232.842	-6.71
233.059	-5.49
233.276	-6.16
233.493	-3.77
233.71	-7.17
233.927	-9.41
234.144	-9.61
234.361	-7.65
234.578	-4.27
234.795	-9.17
235.012	-8.35
235.229	-7.25
235.446	-6.18
235.663	-4.73
235.879	-8.71
236.096	-11.89
236.313	-6.89
236.53	-5.2
236.747	-6.41
236.964	-9.01
237.181	-2.04
237.397	-3.81
237.614	-3.88
237.831	1.49
238.048	2.06
238.264	4.26
238.481	7.66
238.698	7.51
238.915	5.21
239.131	2.7
239.348	-1.91
239.565	-3.06
239.781	-5.1
239.998	-3.75
240.215	-5.85
240.431	-7.59
240.648	-7.13
240.865	-8.03
241.081	-4.48
241.298	-1.98
241.514	-0.14
241.731	3.08
241.947	3.41
242.164	5.93
242.38	6.59
242.597	6.64
242.814	7.22
243.03	8.76
243.246	9.51
243.463	7.89
243.679	8.63
243.896	8.68
244.112	8.69
244.329	7.36
244.545	7.62
244.762	8.05
244.978	6.97
245.194	5.07
245.411	2.96
245.627	3.47
245.843	4.64
246.06	4.37
246.276	4.38
246.492	4.54
246.709	5.18
246.925	4.13
247.141	5.06
247.357	5.52
247.574	6.66
247.79	7.37
248.006	8.52
248.222	8.98
248.439	8.29
248.655	8.82
248.871	8.48
249.087	8.56
249.303	11.07
249.519	9.68
249.736	9.68
249.952	9.23
250.168	7.92
250.384	5.13
250.6	4.15
250.816	5.32
251.032	4.88
251.248	5.58
251.464	6.7
251.68	3.45
251.896	3.34
252.112	2.58
252.328	1.69
252.544	0.38
252.76	-0.04
252.976	-1.67
253.192	-1.02
253.408	-2.23
253.624	-1.68
253.84	-5.03
254.056	-6.48
254.272	-4.94
254.487	-4.65
254.703	-4.1
254.919	-1.53
255.135	3.09
255.351	4.04
255.567	2.26
255.782	5.06
255.998	3.46
256.214	5.42
256.43	9.05
256.646	7.93
256.861	7.41
257.077	7.05
257.293	6.75
257.508	4.81
257.724	4.67
257.94	4.53
258.155	4.43
258.371	5.19
258.587	6.24
258.802	5.32
259.018	6.4
259.234	6.92
259.449	7.03
259.665	7.29
259.88	7.6
260.096	7.8
260.312	8.61
260.527	8.75
260.743	9.39
260.958	8.35
261.174	8.34
261.389	7.99
261.605	8.26
261.82	7.95
262.036	7.75
262.251	7.46
262.466	9.3
262.682	8.49
262.897	8.26
263.113	7.53
263.328	9.47
263.543	10.94
263.759	11.92
263.974	11.81
264.189	12.61
264.405	12.11
264.62	10.81
264.835	9.11
265.051	9.17
265.266	9.62
265.481	8.97
265.696	8.52
265.912	7.69
266.127	5.29
266.342	4.79
266.557	4.39
266.773	3.77
266.988	5
267.203	4.28
267.418	4.88
267.633	3.99
267.848	4.06
268.064	4.02
268.279	2.44
268.494	2.04
268.709	1.57
268.924	2.72
269.139	3.37
269.354	3.53
269.569	3.37
269.784	1.39
269.999	2.22
270.214	2.84
270.429	2.16
270.644	2.57
270.859	4.12
271.074	4.53
271.289	3.67
271.504	4.95
271.719	4.14
271.934	5.68
272.149	6.83
272.363	6.04
272.578	5.46
272.793	6.59
273.008	7.13
273.223	6.87
273.438	6.55
273.653	7.56
273.867	6.23
274.082	6.16
274.297	5.72
274.512	5.05
274.726	4.51
274.941	4.41
275.156	4.43
275.371	3.71
275.585	3.07
275.8	4.41
276.015	3.73
276.229	3.46
276.444	3.42
276.659	2.25
276.873	2.61
277.088	3.38
277.302	2.66
277.517	2.13
277.732	3.32
277.946	4.5
278.161	2.66
278.375	2.79
278.59	4.05
278.804	5.01
279.019	5.64
279.233	4.31
279.448	4.71
279.662	4.86
279.877	5.59
280.091	3.93
280.306	4.38
280.52	4.58
280.735	3.58
280.949	3.39
281.163	3.31
281.378	3.33
281.592	4.48
281.806	3.97
282.021	4.34
282.235	3.65
282.449	5.28
282.664	2.92
282.878	4.5
283.092	4.82
283.307	5.15
283.521	4.87
283.735	4.39
283.949	4.69
284.164	4.7
284.378	4.49
284.592	5.09
284.806	4.31
285.02	7.01
285.234	5.49
285.449	5.37
285.663	5.44
285.877	5.38
286.091	6.62
286.305	6.54
286.519	6.63
286.733	6.91
286.947	6.53
287.161	6.57
287.375	5.36
287.589	5.45
287.803	5.18
288.017	5.8
288.231	5.76
288.445	5.58
288.659	5.4
288.873	5.24
289.087	5.21
289.301	4.67
289.515	5.35
289.729	6.31
289.943	8.17
290.157	8.5
290.371	7.93
290.584	8.53
290.798	8.66
291.012	9.8
291.226	9.56
291.44	8.97
291.654	9.58
291.867	8.75
292.081	6.75
292.295	5.65
292.509	6.74
292.722	6.88
292.936	6.76
293.15	5.95
293.364	4.2
293.577	4.74
293.791	6.34
294.005	6.59
294.218	7.35
294.432	7.94
294.645	8.73
294.859	8.43
295.073	8.97
295.286	8.53
295.5	8.13
295.713	8.34
295.927	9.04
296.14	8.74
296.354	8.14
296.568	6.69
296.781	8.06
296.994	7.35
297.208	7.27
297.421	6.17
297.635	6.52
297.848	6.05
298.062	6.55
298.275	5.13
298.489	5.13
298.702	6.18
298.915	7.62
299.129	6.31
299.342	5.82
299.555	5.5
299.769	6.37
299.982	5.34
300.195	5.35
300.409	5.28
300.622	6.64
300.835	6.49
301.048	5.96
301.262	5.12
301.475	5.55
301.688	6.36
301.901	6.93
302.115	5.69
302.328	5.89
302.541	5.92
302.754	5.42
302.967	5.78
303.18	4.21
303.393	2.96
303.607	2.88
303.82	3.56
304.033	2.93
304.246	3.71
304.459	4.68
304.672	5.13
304.885	5.08
305.098	5.39
305.311	4.01
305.524	5.21
305.737	5.89
305.95	6.75
306.163	4.36
306.376	4.24
306.589	3.19
306.802	2.36
307.015	0.94
307.228	2.05
307.44	1.03
307.653	1.62
307.866	0.98
308.079	1.78
308.292	1.97
308.505	4.39
308.718	6.24
308.93	6.48
309.143	7.77
309.356	9.73
309.569	8.58
309.781	8.84
309.994	8.69
310.207	9.42
310.42	9.47
310.632	9.37
310.845	9.6
311.058	8.35
311.27	8.26
311.483	7.89
311.696	8.67
311.908	8.79
312.121	8.65
312.333	8.79
312.546	8.44
312.759	7.86
312.971	7.35
313.184	6.47
313.396	7.64
313.609	7.44
313.821	7.11
314.034	3.79
314.246	5.55
314.459	6.76
314.671	5.75
314.884	6.65
315.096	7.82
315.309	8.51
315.521	9.13
315.733	8.26
315.946	9.1
316.158	8.86
316.371	10.28
316.583	9.38
316.795	9.12
317.008	10.85
317.22	10.33
317.432	8.89
317.644	8.76
317.857	8.22
318.069	8.53
318.281	7.1
318.494	8.55
318.706	8.76
318.918	9.08
319.13	8.71
319.342	8.67
319.555	8.28
319.767	8.77
319.979	8.81
320.191	8.71
320.403	8.69
320.615	8.18
320.827	7.95
321.039	6.72
321.252	8.19
321.464	9.3
321.676	8.91
321.888	9.33
322.1	9.73
322.312	9.09
322.524	9.82
322.736	9.34
322.948	9.53
323.16	8.1
323.372	9.61
323.584	8.85
323.796	7.83
324.007	7.58
324.219	7.14
324.431	6.93
324.643	6.11
324.855	5.55
325.067	6.36
325.279	7.72
325.491	8.68
325.702	7.61
325.914	7.15
326.126	7.67
326.338	8.98
326.55	9.41
326.761	9.37
326.973	11.18
327.185	10.62
327.396	11.08
327.608	10.6
327.82	10.96
328.032	11.08
328.243	10.87
328.455	10.99
328.666	10.49
328.878	10.89
329.09	10.53
329.301	9.2
329.513	11.27
329.725	11.4
329.936	11.27
330.148	11.04
330.359	11.66
330.571	11.58
330.782	11.13
330.994	11.15
331.205	10.43
331.417	10.58
331.628	11.29
331.84	10.57
332.051	8.87
332.262	10.47
332.474	10.65
332.685	10.7
332.897	12.08
333.108	12.13
333.319	11.52
333.531	11.93
333.742	13.17
333.953	13.14
334.165	13.19
334.376	14.37
334.587	14.13
334.799	14.17
335.01	14.04
335.221	13.86
335.432	13.93
335.644	13.63
335.855	13.23
336.066	13.28
336.277	12.97
336.488	13.45
336.7	13.07
336.911	12.52
337.122	11.8
337.333	12.22
337.544	13.23
337.755	12.68
337.966	13.19
338.177	14.14
338.388	14.15
338.599	14.91
338.811	15.36
339.022	14.46
339.233	15.35
339.444	15.64
339.655	15.62
339.866	14.17
340.076	15.42
340.287	15.47
340.498	15.43
340.709	14.24
340.92	13.2
341.131	12.95
341.342	14.31
341.553	13.29
341.764	13.4
341.975	12.65
342.185	11.6
342.396	11.03
342.607	11.28
342.818	11.24
343.029	12.25
343.239	12.96
343.45	12.27
343.661	11.41
343.872	11.28
344.082	11.88
344.293	12.63
344.504	14.24
344.714	13.9
344.925	13.4
345.136	12.16
345.346	12.52
345.557	12.37
345.768	11.72
345.978	12.34
346.189	13.23
346.399	12.45
346.61	13.3
346.821	12.74
347.031	13.22
347.242	12.67
347.452	14.12
347.663	12.86
347.873	13.03
348.084	14.62
348.294	15.07
348.504	14.83
348.715	15.32
348.925	14.58
349.136	13.72
349.346	12.42
349.557	13.92
349.767	12.86
349.977	14.12
350.188	13.81
350.398	13.38
350.608	13.04
350.819	11.69
351.029	11.64
351.239	12.33
351.449	12.21
351.66	13.78
351.87	14.44
352.08	15.75
352.29	14.1
352.501	14.68
352.711	14.28
352.921	13.81
353.131	14.14
353.341	14.11
353.552	13.35
353.762	14.24
353.972	13.12
354.182	13.02
354.392	13.03
354.602	13.97
354.812	13.97
355.022	13.93
355.232	14.26
355.442	14.77
355.652	14.54
355.862	14.5
356.072	14.36
356.282	15.08
356.492	14.57
356.702	13.66
356.912	13.02
357.122	13
357.332	13.69
357.542	13.86
357.752	13.86
357.962	13.89
358.171	13.88
358.381	14.29
358.591	14.59
358.801	13.98
359.011	15.17
359.221	15.36
359.43	15.13
359.64	13.89
359.85	13.57
360.06	13.64
360.269	13.94
360.479	13.85
360.689	13.72
360.899	12.67
361.108	12.72
361.318	12.11
361.528	12.48
361.737	12.11
361.947	12.55
362.156	12.19
362.366	11.71
362.576	10.93
362.785	10.8
362.995	10.53
363.204	11.01
363.414	11.17
363.623	10.81
363.833	10.31
364.042	9.86
364.252	9.69
364.461	9.68
364.671	9.79
364.88	9.92
365.09	9.6
365.299	9.6
365.509	9.26
365.718	8.79
365.927	8.36
366.137	8.54
366.346	9.44
366.555	9.73
366.765	9.23
366.974	8.83
367.183	8.62
367.393	8.49
367.602	8.19
367.811	8.04
368.021	8.3
368.23	8.94
368.439	8.86
368.648	9.33
368.857	9.17
369.067	9.62
369.276	10.2
369.485	10.68
369.694	10.72
369.903	11.29
370.112	11.51
370.321	12.08
370.531	11.97
370.74	11.67
370.949	11.76
371.158	11.74
371.367	12.55
371.576	12.25
371.785	12.7
371.994	12.88
372.203	12.55
372.412	13.15
372.621	13.41
372.83	12.99
373.039	12.7
373.248	11.83
373.457	12.22
373.666	11.46
373.874	11.28
374.083	10.42
374.292	10.63
374.501	10.25
374.71	9.58
374.919	9.13
375.128	9.47
375.336	10.07
375.545	10.05
375.754	9.49
375.963	9.5
376.171	9.83
376.38	9.99
376.589	9.84
376.798	10.6
377.006	10.89
377.215	10.66
377.424	10.83
377.632	11.07
377.841	11.18
378.05	11.66
378.258	11.63
378.467	11.54
378.675	11.43
378.884	11.79
379.093	11.47
379.301	10.92
379.51	10.89
379.718	10.49
379.927	9.89
380.135	10.13
380.344	9.39
380.552	9.71
380.761	9.52
380.969	10.03
381.177	9.44
381.386	9.5
381.594	10.11
381.803	10.78
382.011	10.59
382.219	10.78
382.428	10.41
382.636	10.84
382.845	10.72
383.053	10.55
383.261	10.05
383.469	9.74
383.678	9.76
383.886	9.52
384.094	8.47
384.302	8.27
384.511	8.39
384.719	8.35
384.927	8.18
385.135	7.96
385.343	8.23
385.552	8.67
385.76	9.03
385.968	8.57
386.176	8.49
386.384	8.64
386.592	8.68
386.8	8.28
387.008	8.48
387.216	8.56
387.424	8.3
387.633	8.03
387.841	7.58
388.049	7.55
388.257	7.76
388.465	7.84
388.672	8.17
388.88	8.5
389.088	8.37
389.296	8.59
389.504	8.44
389.712	8.63
389.92	8.75
390.128	8.93
390.336	8.64
390.544	8.43
390.751	8.27
390.959	8.19
391.167	8.33
391.375	8.53
391.583	8.26
391.79	8.56
391.998	8.54
392.206	8.68
392.414	8.91
392.621	8.91
392.829	9
393.037	8.78
393.244	8.42
393.452	8.61
393.66	8.7
393.867	8.4
394.075	8.25
394.283	8.08
394.49	7.82
394.698	7.62
394.905	7.63
395.113	7.48
395.32	7.47
395.528	7.45
395.735	6.87
395.943	7.41
396.15	7.82
396.358	7.48
396.565	7.83
396.773	8.27
396.98	8.23
397.188	8.46
397.395	8.64
397.602	8.93
397.81	9.03
398.017	9.47
398.225	9.03
398.432	9.02
398.639	9.12
398.847	8.69
399.054	8.04
399.261	8.37
399.468	8.2
399.676	8.15
399.883	7.95
400.09	8.14
400.297	7.82
400.505	7.99
400.712	7.63
400.919	7.83
401.126	7.84
401.333	8.02
401.54	7.46
401.748	7.43
401.955	7.4
402.162	7.3
402.369	7.11
402.576	7.46
402.783	7.18
402.99	7.52
403.197	7.19
403.404	7.43
403.611	7.53
403.818	7.47
404.025	7.48
404.232	7.49
404.439	8
404.646	8.1
404.853	7.71
405.06	7.61
405.267	7.48
405.474	7.66
405.681	7.8
405.887	7.66
406.094	7.95
406.301	8.05
406.508	8.1
406.715	7.73
406.922	7.74
407.128	7.8
407.335	7.88
407.542	8.15
407.749	8.14
407.955	8.06
408.162	8.07
408.369	7.98
408.575	7.84
408.782	7.34
408.989	7.45
409.195	7.41
409.402	7.38
409.609	7.32
409.815	7.19
410.022	7.05
410.228	7
410.435	7.3
410.642	7.41
410.848	7.38
411.055	7.55
411.261	7.52
411.468	7.51
411.674	7.68
411.881	7.85
412.087	7.71
412.294	7.79
412.5	8.05
412.706	8.28
412.913	8.09
413.119	8.32
413.326	8.48
413.532	8.45
413.738	8.49
413.945	8.4
414.151	8.48
414.357	8.34
414.564	8.22
414.77	7.9
414.976	7.68
415.182	7.78
415.389	7.52
415.595	7.47
415.801	7.31
416.007	7.45
416.214	7.3
416.42	7.17
416.626	7.53
416.832	7.53
417.038	7.6
417.244	7.58
417.45	7.63
417.657	7.75
417.863	7.83
418.069	7.86
418.275	7.63
418.481	7.89
418.687	7.67
418.893	7.61
419.099	7.72
419.305	7.69
419.511	7.6
419.717	7.53
419.923	7.49
420.129	7.51
420.335	7.35
420.541	7.33
420.746	7.22
420.952	7.29
421.158	7.25
421.364	7.41
421.57	7.32
421.776	7.38
421.982	7.48
422.187	7.51
422.393	7.37
422.599	7.6
422.805	7.76
423.01	7.84
423.216	7.89
423.422	7.76
423.628	7.45
423.833	7.52
424.039	7.43
424.245	7.39
424.45	7.27
424.656	7.44
424.862	7.41
425.067	7.33
425.273	7.21
425.478	7.18
425.684	7.27
425.889	7.34
426.095	7.26
426.301	7.37
426.506	7.35
426.712	7.34
426.917	7.28
427.123	7.33
427.328	7.26
427.533	7.3
427.739	7.24
427.944	7.15
428.15	7.11
428.355	7.29
428.561	7.12
428.766	7.1
428.971	7.48
429.177	7.43
429.382	7.2
429.587	7.21
429.793	7.16
429.998	7.18
430.203	7.28
430.408	7.26
430.614	7.17
430.819	7.23
431.024	6.96
431.229	6.75
431.434	6.52
431.64	6.58
431.845	6.7
432.05	6.69
432.255	6.82
432.46	6.76
432.665	6.91
432.87	6.89
433.076	6.9
433.281	7.02
433.486	6.99
433.691	7.31
433.896	7.56
434.101	7.6
434.306	7.71
434.511	7.67
434.716	7.79
434.921	7.68
435.126	7.81
435.331	7.79
435.535	7.81
435.74	7.71
435.945	7.63
436.15	7.26
436.355	7.22
436.56	7.1
436.765	7.16
436.97	7.02
437.174	7.04
437.379	6.9
437.584	6.98
437.789	6.91
437.993	7.1
438.198	7.04
438.403	7.32
438.608	7.09
438.812	7.11
439.017	6.93
439.222	7.02
439.426	7.12
439.631	7.04
439.836	6.97
440.04	7.04
440.245	7.06
440.45	7.06
440.654	7.04
440.859	7.12
441.063	7.23
441.268	7.36
441.472	7.27
441.677	7.29
441.881	7.33
442.086	7.37
442.29	7.37
442.495	7.31
442.699	7.47
442.904	7.39
443.108	7.58
443.312	7.63
443.517	7.66
443.721	7.76
443.925	7.73
444.13	7.65
444.334	7.71
444.538	7.69
444.743	7.71
444.947	7.56
445.151	7.53
445.356	7.32
445.56	7.31
445.764	7.3
445.968	7.33
446.173	7.3
446.377	7.27
446.581	7.18
446.785	7.24
446.989	7.27
447.193	7.23
447.398	7.14
447.602	7.4
447.806	7.31
448.01	7.34
448.214	7.12
448.418	7.02
448.622	7.03
448.826	7.01
449.03	6.95
449.234	6.98
449.438	7.17
449.642	7.36
449.846	7.22
450.05	6.95
450.254	6.91
450.458	7.08
450.662	7.09
450.866	7.25
451.069	7.45
451.273	7.42
451.477	7.42
451.681	7.32
451.885	7.14
452.089	6.83
452.292	7.11
452.496	7.02
452.7	6.93
452.904	7.1
453.107	7.08
453.311	6.92
453.515	6.98
453.719	6.87
453.922	6.69
454.126	6.66
454.33	6.88
454.533	6.77
454.737	6.7
454.94	6.89
455.144	6.81
455.348	6.87
455.551	6.92
455.755	6.85
455.958	6.68
456.162	6.51
456.365	6.59
456.569	6.6
456.772	6.78
456.976	6.96
457.179	6.87
457.383	6.78
457.586	6.66
457.79	6.68
457.993	6.75
458.196	6.9
458.4	7.09
458.603	7.14
458.807	7.12
459.01	7.18
459.213	7.22
459.417	7.25
459.62	7.27
459.823	7.27
460.026	7.22
460.23	7.24
460.433	7.23
460.636	7.23
460.839	7.27
461.042	7.19
461.246	7.01
461.449	6.91
461.652	6.66
461.855	6.69
462.058	6.68
462.261	6.8
462.464	6.77
462.668	6.9
462.871	6.88
463.074	6.74
463.277	6.87
463.48	6.99
463.683	6.76
463.886	6.99
464.089	7.09
464.292	6.88
464.495	6.66
464.698	6.63
464.901	6.58
465.104	6.58
465.306	6.62
465.509	6.52
465.712	6.39
