Data from 2938489_Reflection_3.txt Node
Date: Wed Jun 17 00:50:00 EDT 2015
User: robert
Spectrometer: USB4E03002
Autoset integration time: false
Trigger mode: 4
Integration Time (sec): 1.000000E-1
Scans to average: 10
Electric dark correction enabled: true
Nonlinearity correction enabled: false
Boxcar width: 5
Stray light correction enabled: false
XAxis mode: Wavelengths
Stop averaging: false
Number of Pixels in Spectrum: 3648
>>>>>Begin Spectral Data<<<<<
177.575	4.71
177.794	586.9
178.014	-22.99
178.233	8.23
178.452	58.98
178.672	89.3
178.891	8.03
179.11	23.11
179.33	14.68
179.549	89.48
179.768	-0.2
179.987	9.14
180.207	51.9
180.426	117.91
180.645	142.32
180.864	152.4
181.084	85.32
181.303	94.35
181.522	80.51
181.741	105.18
181.96	130.91
182.179	1333.46
182.398	-3991.33
182.618	-382.36
182.837	-182.74
183.056	-158.07
183.275	-307.17
183.494	-260.96
183.713	-851.11
183.932	-473
184.151	186.47
184.37	1048.84
184.589	4971.83
184.808	-928.99
185.027	-250.85
185.246	2283.33
185.465	-251.2
185.684	-49.62
185.903	-35.19
186.122	-17.33
186.341	18.5
186.56	31.6
186.779	7.97
186.998	-53.5
187.216	-66.55
187.435	-44.96
187.654	-210.74
187.873	-16.44
188.092	59.27
188.311	2194.12
188.53	-220.68
188.748	10.23
188.967	40.76
189.186	-354.28
189.405	-1519.17
189.623	3268.61
189.842	-443.06
190.061	-1233.77
190.28	128.32
190.498	-272.02
190.717	-14.39
190.936	32.35
191.154	8.05
191.373	-44.51
191.592	-397.38
191.81	-334.45
192.029	-41.55
192.248	-38.89
192.466	0.29
192.685	201.34
192.904	3160.48
193.122	504.81
193.341	-0.49
193.559	-70.86
193.778	-284.25
193.996	-169.45
194.215	-67.8
194.433	29.87
194.652	30.69
194.87	66.64
195.089	115.23
195.307	376.88
195.526	-1181.56
195.744	-140.49
195.963	-52.57
196.181	-121.52
196.399	-47.86
196.618	-55.09
196.836	-32.16
197.055	-56.87
197.273	-27.52
197.491	9.82
197.71	23.56
197.928	58.75
198.146	-1003.77
198.365	-131.86
198.583	-554.01
198.801	38.39
199.019	117.82
199.238	-102.92
199.456	2536.11
199.674	822.87
199.892	-28.43
200.111	-31.2
200.329	16.65
200.547	197.69
200.765	106.18
200.983	86.02
201.202	47.3
201.42	3.56
201.638	753.13
201.856	23.93
202.074	37.71
202.292	44.1
202.51	55.41
202.728	6.99
202.946	829.02
203.165	-1325.55
203.383	-34.6
203.601	-254.97
203.819	-11.75
204.037	-89.54
204.255	123.27
204.473	65.33
204.691	68.53
204.909	34.59
205.127	-100
205.345	317.42
205.562	1498.29
205.78	177.66
205.998	595.28
206.216	723.59
206.434	294.87
206.652	250.52
206.87	156.14
207.088	153.99
207.306	184.56
207.523	149.2
207.741	-473.45
207.959	361.41
208.177	-986.98
208.395	-761.75
208.612	1795.33
208.83	-109.75
209.048	-31.12
209.266	-25.56
209.483	24.33
209.701	-20.32
209.919	6.08
210.136	-6.46
210.354	59.68
210.572	81.61
210.79	44.58
211.007	53.28
211.225	82.62
211.442	52.97
211.66	63.22
211.878	36.97
212.095	124.71
212.313	104.11
212.53	104.8
212.748	96.27
212.966	84.31
213.183	93.41
213.401	89.63
213.618	81.26
213.836	86.49
214.053	73.49
214.271	93.94
214.488	-13.55
214.705	2.28
214.923	8.21
215.14	12.69
215.358	-4.61
215.575	-6.61
215.793	-27.25
216.01	-23
216.227	-17.06
216.445	-4.27
216.662	-24.94
216.879	-30.42
217.097	-26.36
217.314	-22.61
217.531	-57.04
217.749	-75.11
217.966	-61.59
218.183	-26.48
218.4	-43.52
218.618	-57.14
218.835	-45.03
219.052	-59.44
219.269	-58.27
219.487	-37.85
219.704	-23.22
219.921	-18.91
220.138	-9.01
220.355	2.26
220.572	-12.57
220.79	5.3
221.007	14.15
221.224	8.5
221.441	12.7
221.658	20.6
221.875	17.26
222.092	19.54
222.309	18.21
222.526	18.01
222.743	17.64
222.96	15.75
223.177	11.1
223.394	8.97
223.611	7.27
223.828	4.1
224.045	2.94
224.262	5.52
224.479	-4.53
224.696	-3.07
224.913	3.3
225.13	2.8
225.347	6.33
225.564	6.64
225.781	8.64
225.997	9.05
226.214	11.39
226.431	10.38
226.648	11.73
226.865	12.15
227.082	12.45
227.298	10.98
227.515	10.23
227.732	10.29
227.949	10.9
228.165	10.66
228.382	9.9
228.599	9.07
228.816	9.61
229.032	9.51
229.249	9.21
229.466	9.17
229.682	7.85
229.899	8.79
230.116	7.64
230.332	8.49
230.549	7.33
230.765	8.52
230.982	5.77
231.199	4.57
231.415	1.27
231.632	5.07
231.848	5.5
232.065	10.34
232.281	11.03
232.498	11.21
232.714	9.33
232.931	10.44
233.147	10.59
233.364	13.5
233.58	13.33
233.797	14.7
234.013	12.66
234.23	13.26
234.446	10.03
234.662	9
234.879	11.64
235.095	12.51
235.312	12.62
235.528	12.56
235.744	10.64
235.961	10.32
236.177	9.31
236.393	9.28
236.61	7.53
236.826	9.55
237.042	8.92
237.258	7.57
237.475	9.81
237.691	9.31
237.907	9.76
238.123	10.09
238.339	11.77
238.556	13.31
238.772	12.25
238.988	12.17
239.204	11.31
239.42	12.59
239.636	12.22
239.853	11.09
240.069	11.43
240.285	11.02
240.501	11.5
240.717	10.69
240.933	10.04
241.149	10.64
241.365	9.92
241.581	9.36
241.797	8.88
242.013	8.31
242.229	7.35
242.445	7.21
242.661	7.59
242.877	7.51
243.093	8.29
243.309	7.82
243.525	8.37
243.741	9.31
243.957	10.04
244.173	10.07
244.388	10.54
244.604	11.32
244.82	11.1
245.036	10.98
245.252	10.95
245.468	10.71
245.683	10.97
245.899	10.56
246.115	10.71
246.331	10.65
246.547	10.36
246.762	10.52
246.978	10.27
247.194	10.06
247.409	10.12
247.625	10.22
247.841	9.93
248.057	10.16
248.272	10.79
248.488	10.49
248.703	10.98
248.919	10.91
249.135	10
249.35	10.41
249.566	10.72
249.782	10.25
249.997	9.77
250.213	9.55
250.428	8.49
250.644	7.97
250.859	7.72
251.075	6.89
251.29	7.2
251.506	6.71
251.721	6.78
251.937	6.39
252.152	6.25
252.368	6.18
252.583	7.34
252.798	9.18
253.014	8.19
253.229	9.42
253.445	10.01
253.66	10.69
253.875	12.28
254.091	11.78
254.306	10.83
254.521	11.45
254.737	11.31
254.952	9.65
255.167	8.4
255.383	8.72
255.598	8.88
255.813	8.54
256.028	7.94
256.244	7.93
256.459	7.65
256.674	8.11
256.889	8.15
257.104	7.96
257.32	7.95
257.535	7.55
257.75	7.78
257.965	7.01
258.18	7.18
258.395	7.22
258.61	7.06
258.826	7.28
259.041	7.08
259.256	6.76
259.471	6.82
259.686	6.96
259.901	6.93
260.116	7.04
260.331	7.26
260.546	7.25
260.761	7.26
260.976	7.1
261.191	6.57
261.406	7.59
261.621	7.6
261.836	6.84
262.05	6.57
262.265	7.3
262.48	7.25
262.695	7.07
262.91	6.87
263.125	6.72
263.34	6.96
263.555	7.03
263.769	5.91
263.984	5.49
264.199	6.18
264.414	6.25
264.629	6.67
264.843	6.39
265.058	6.77
265.273	7.22
265.488	7.36
265.702	7.87
265.917	8.33
266.132	9.06
266.346	9.39
266.561	9.34
266.776	9.14
266.99	8.57
267.205	8.26
267.42	8.27
267.634	7.43
267.849	7.44
268.063	6.74
268.278	6.48
268.492	5.85
268.707	5.78
268.922	5.84
269.136	6.3
269.351	6.22
269.565	6.64
269.78	6.49
269.994	7.18
270.209	7.22
270.423	7.04
270.637	6.97
270.852	6.81
271.066	6.83
271.281	7.45
271.495	7.47
271.709	7.52
271.924	7.53
272.138	7.39
272.353	7.06
272.567	6.65
272.781	7.08
272.996	7.07
273.21	7.64
273.424	7.37
273.638	6.57
273.853	6.46
274.067	5.83
274.281	5.53
274.495	5.77
274.71	5.55
274.924	5.99
275.138	6.03
275.352	6.12
275.566	5.73
275.781	6.21
275.995	6.58
276.209	6.31
276.423	6.72
276.637	6.46
276.851	6.52
277.065	6.86
277.279	5.98
277.493	5.99
277.707	5.98
277.921	6.1
278.135	6.12
278.349	6.02
278.563	6.68
278.777	6.56
278.991	7.49
279.205	7.06
279.419	6.99
279.633	7.71
279.847	7.5
280.061	7.75
280.275	7.68
280.489	7.75
280.703	7.69
280.917	7.5
281.131	7.72
281.344	7.57
281.558	7.91
281.772	7.59
281.986	7.71
282.2	7.68
282.414	7.55
282.627	7.48
282.841	7.65
283.055	7.48
283.269	7.4
283.482	7.69
283.696	7.27
283.91	7.05
284.123	7.09
284.337	6.73
284.551	6.54
284.764	6.49
284.978	6.53
285.192	6.33
285.405	6.29
285.619	6.44
285.833	6.62
286.046	6.93
286.26	7.33
286.473	7.67
286.687	8.11
286.9	8.55
287.114	8.67
287.327	8.35
287.541	8.57
287.754	8.59
287.968	7.92
288.181	7.65
288.395	7.82
288.608	7.82
288.822	7.98
289.035	8.01
289.248	8.05
289.462	8.15
289.675	8.61
289.889	8.44
290.102	8.83
290.315	9.49
290.529	9.56
290.742	8.74
290.955	8.86
291.169	8.91
291.382	9.21
291.595	9.12
291.808	9.16
292.022	9.12
292.235	9.4
292.448	9.07
292.661	8.87
292.875	8.99
293.088	9.42
293.301	9.02
293.514	9.18
293.727	8.73
293.94	8.83
294.153	8.94
294.367	9.17
294.58	9.14
294.793	9.27
295.006	9.38
295.219	9.39
295.432	9.84
295.645	9.91
295.858	9.67
296.071	9.7
296.284	10.05
296.497	9.85
296.71	9.72
296.923	9.45
297.136	9.48
297.349	9.67
297.562	9.62
297.775	9.3
297.988	9.82
298.201	9.82
298.414	10.03
298.626	9.9
298.839	10.05
299.052	10.57
299.265	10.78
299.478	10.44
299.691	10.64
299.903	10.96
300.116	11.01
300.329	10.68
300.542	10.7
300.755	10.77
300.967	10.39
301.18	10.49
301.393	10.25
301.605	10.1
301.818	10.48
302.031	10.1
302.243	9.87
302.456	10.15
302.669	10.32
302.881	10.73
303.094	10.92
303.307	11.03
303.519	10.94
303.732	11.04
303.944	11.76
304.157	12.17
304.37	12.5
304.582	13.07
304.795	13.16
305.007	12.79
305.22	13.18
305.432	13.1
305.645	13.61
305.857	13.71
306.069	13.45
306.282	12.66
306.494	12.26
306.707	12.09
306.919	11.8
307.132	11.84
307.344	11.99
307.556	11.48
307.769	11.46
307.981	10.94
308.193	10.98
308.406	11.22
308.618	11.75
308.83	11.84
309.043	12.03
309.255	12.04
309.467	11.9
309.679	12.1
309.892	12.53
310.104	12.42
310.316	12.86
310.528	12.98
310.74	12.7
310.953	12.53
311.165	12.42
311.377	12.29
311.589	12.37
311.801	12.43
312.013	12.71
312.225	12.79
312.437	12.84
312.649	12.82
312.862	13.2
313.074	13.61
313.286	13.29
313.498	13.16
313.71	13.38
313.922	13.37
314.134	13.61
314.346	13.16
314.558	12.46
314.77	12.65
314.982	12.65
315.193	12.32
315.405	12.24
315.617	12.74
315.829	13.34
316.041	13.54
316.253	13.61
316.465	13.76
316.677	13.89
316.888	14.3
317.1	14.78
317.312	14.57
317.524	14.54
317.736	14.2
317.947	14.27
318.159	14.01
318.371	14.09
318.583	14.32
318.794	13.67
319.006	14.09
319.218	13.58
319.43	13.45
319.641	13.51
319.853	13.42
320.064	13.28
320.276	13.17
320.488	13.14
320.699	12.64
320.911	12.42
321.123	12.67
321.334	12.58
321.546	12.97
321.757	12.53
321.969	12.9
322.18	12.77
322.392	13.55
322.603	13.86
322.815	14.19
323.026	14.37
323.238	14.69
323.449	14.73
323.661	14.55
323.872	15
324.083	15.52
324.295	15.73
324.506	16.2
324.718	15.99
324.929	15.79
325.14	15.81
325.352	16.04
325.563	15.84
325.774	15.71
325.986	16.24
326.197	16.25
326.408	16.13
326.62	16.56
326.831	16.69
327.042	17.18
327.253	17.47
327.464	17.86
327.676	18.27
327.887	18.22
328.098	18.53
328.309	18.79
328.52	18.63
328.732	19.21
328.943	18.84
329.154	18.89
329.365	18.97
329.576	19.17
329.787	18.97
329.998	18.94
330.209	19.26
330.42	19.86
330.631	19.78
330.842	20.17
331.053	19.89
331.264	19.82
331.475	20.2
331.686	20.25
331.897	20.46
332.108	20.74
332.319	20.85
332.53	21.44
332.741	21.69
332.952	21.96
333.163	22.26
333.374	22.26
333.585	22.69
333.795	22.65
334.006	22.57
334.217	22.65
334.428	22.76
334.639	22.51
334.849	21.99
335.06	21.53
335.271	21.55
335.482	21.67
335.692	21.86
335.903	21.64
336.114	21.39
336.325	21.53
336.535	21.57
336.746	21.47
336.957	21.64
337.167	21.68
337.378	21.6
337.589	21.38
337.799	20.9
338.01	20.83
338.22	20.82
338.431	21.28
338.642	21.19
338.852	20.96
339.063	20.96
339.273	21.09
339.484	21.24
339.694	21.2
339.905	21.47
340.115	21.56
340.326	21.85
340.536	22.09
340.746	21.62
340.957	21.62
341.167	21.82
341.378	22.18
341.588	22.11
341.799	22.02
342.009	22.41
342.219	21.94
342.43	22.07
342.64	22.04
342.85	22.01
343.061	22.02
343.271	22.29
343.481	22.02
343.691	21.88
343.902	21.93
344.112	22.28
344.322	22.29
344.532	22.54
344.743	22.64
344.953	22.53
345.163	22.38
345.373	22.35
345.583	22.11
345.793	22.33
346.004	22.08
346.214	21.94
346.424	21.66
346.634	21.58
346.844	21.49
347.054	21.26
347.264	21.13
347.474	21.26
347.684	21.53
347.894	21.53
348.104	21.44
348.314	21.6
348.524	21.52
348.734	21.72
348.944	21.68
349.154	21.8
349.364	21.68
349.574	21.8
349.784	21.84
349.994	21.59
350.204	21.7
350.413	21.94
350.623	21.83
350.833	21.9
351.043	21.32
351.253	21.07
351.463	20.88
351.672	21.12
351.882	20.98
352.092	20.87
352.302	21.25
352.511	21.1
352.721	21.14
352.931	21
353.141	20.95
353.35	21.28
353.56	21.46
353.77	21.27
353.979	21.05
354.189	21.1
354.399	20.9
354.608	20.55
354.818	20.77
355.027	20.51
355.237	20.7
355.447	20.69
355.656	20.71
355.866	20.58
356.075	20.36
356.285	20.45
356.494	20.36
356.704	20.46
356.913	20.55
357.123	20.43
357.332	20.46
357.542	20.36
357.751	20.25
357.96	20.14
358.17	20.38
358.379	20.81
358.589	20.9
358.798	20.91
359.007	20.89
359.217	20.94
359.426	20.78
359.635	20.51
359.845	20.34
360.054	20.6
360.263	20.57
360.472	20.4
360.682	20.26
360.891	19.97
361.1	19.75
361.309	19.62
361.519	19.48
361.728	19.46
361.937	19.65
362.146	19.89
362.355	19.73
362.564	19.79
362.774	19.59
362.983	19.37
363.192	19.56
363.401	19.79
363.61	19.99
363.819	20.16
364.028	20.04
364.237	20.07
364.446	19.85
364.655	19.96
364.864	19.79
365.073	19.93
365.282	20.05
365.491	20.17
365.7	20.1
365.909	20.02
366.118	19.8
366.327	19.98
366.536	19.96
366.745	20.02
366.954	19.64
367.162	19.51
367.371	19.29
367.58	19.24
367.789	19.2
367.998	19.03
368.207	18.9
368.415	18.8
368.624	18.55
368.833	18.12
369.042	18.08
369.25	18.28
369.459	18.33
369.668	18.63
369.877	18.79
370.085	18.54
370.294	18.5
370.503	18.46
370.711	18.82
370.92	18.98
371.129	19.24
371.337	19.48
371.546	19.25
371.754	19.3
371.963	19.27
372.171	19.33
372.38	19.23
372.589	19.47
372.797	19.56
373.006	19.43
373.214	19.57
373.423	19.58
373.631	19.39
373.84	19.58
374.048	19.28
374.256	19.2
374.465	18.96
374.673	18.92
374.882	18.94
375.09	18.63
375.298	18.41
375.507	18.07
375.715	18.05
375.923	17.74
376.132	17.42
376.34	17.5
376.548	17.59
376.757	17.49
376.965	17.68
377.173	17.5
377.381	17.75
377.59	17.83
377.798	17.81
378.006	17.78
378.214	17.76
378.423	17.75
378.631	18
378.839	17.89
379.047	17.99
379.255	17.58
379.463	17.52
379.671	17.48
379.879	17.6
380.088	17.69
380.296	17.7
380.504	18.08
380.712	18.35
380.92	18.23
381.128	18.1
381.336	17.9
381.544	17.97
381.752	18.1
381.96	17.82
382.168	17.47
382.376	17.43
382.584	17.1
382.791	16.84
382.999	16.59
383.207	16.37
383.415	16.46
383.623	16.62
383.831	16.53
384.039	16.26
384.247	16.08
384.454	16.05
384.662	15.77
384.87	16.1
385.078	15.99
385.285	15.87
385.493	15.9
385.701	15.7
385.909	15.57
386.116	15.71
386.324	15.71
386.532	15.98
386.739	16.17
386.947	16.28
387.155	16.2
387.362	16.05
387.57	16.22
387.778	16.24
387.985	16.4
388.193	16.55
388.4	16.48
388.608	16.5
388.816	16.31
389.023	16.14
389.231	16.1
389.438	16.13
389.646	16.33
389.853	16.36
390.061	16.34
390.268	16.16
390.475	16.04
390.683	16.09
390.89	16.11
391.098	16.4
391.305	16.46
391.512	16.49
391.72	16.32
391.927	16.29
392.135	16.04
392.342	16.06
392.549	16.21
392.756	15.97
392.964	15.86
393.171	15.93
393.378	15.66
393.586	15.46
393.793	15.39
394	15.36
394.207	15.31
394.414	15.44
394.622	15.33
394.829	15.22
395.036	15.6
395.243	15.78
395.45	15.5
395.657	15.49
395.864	15.54
396.072	15.54
396.279	15.46
396.486	15.54
396.693	15.43
396.9	15.54
397.107	15.34
397.314	15.3
397.521	14.89
397.728	14.98
397.935	15.29
398.142	15.23
398.349	15.37
398.556	15.5
398.763	15.19
398.97	15.14
399.177	15.02
399.383	15.17
399.59	15.04
399.797	15.17
400.004	15.17
400.211	14.95
400.418	14.69
400.625	14.4
400.831	14.34
401.038	14.57
401.245	14.62
401.452	14.69
401.658	14.59
401.865	14.36
402.072	14.44
402.279	14.48
402.485	14.4
402.692	14.68
402.899	14.81
403.105	14.67
403.312	14.62
403.519	14.66
403.725	14.49
403.932	14.48
404.138	14.56
404.345	14.4
404.552	14.44
404.758	14.37
404.965	14.13
405.171	14.06
405.378	14.03
405.584	14.01
405.791	13.95
405.997	14.09
406.204	14.04
406.41	14.03
406.617	14.09
406.823	13.87
407.029	13.94
407.236	14.02
407.442	14.12
407.649	14.33
407.855	14.37
408.061	14.29
408.268	14.1
408.474	14.18
408.68	14.12
408.887	14.14
409.093	14.19
409.299	14.2
409.505	14.2
409.712	14.17
409.918	14.23
410.124	14.14
410.33	14.2
410.537	14.28
410.743	14.24
410.949	14.2
411.155	14.17
411.361	14.04
411.567	13.9
411.773	13.94
411.98	13.81
412.186	13.55
412.392	13.52
412.598	13.48
412.804	13.51
413.01	13.52
413.216	13.7
413.422	13.64
413.628	13.77
413.834	13.72
414.04	13.64
414.246	13.63
414.452	13.73
414.658	13.67
414.864	13.69
415.07	13.59
415.275	13.63
415.481	13.52
415.687	13.47
415.893	13.36
416.099	13.34
416.305	13.33
416.511	13.22
416.716	13.12
416.922	13.26
417.128	13.11
417.334	13.11
417.539	12.99
417.745	12.96
417.951	12.99
418.157	13.06
418.362	12.94
418.568	12.93
418.774	12.91
418.979	12.92
419.185	12.84
419.391	12.91
419.596	12.9
419.802	12.88
420.008	12.85
420.213	12.85
420.419	12.81
420.624	12.89
420.83	12.91
421.035	12.98
421.241	12.98
421.446	12.85
421.652	12.75
421.857	12.66
422.063	12.6
422.268	12.62
422.474	12.61
422.679	12.55
422.885	12.5
423.09	12.45
423.295	12.43
423.501	12.31
423.706	12.34
423.911	12.33
424.117	12.43
424.322	12.47
424.527	12.39
424.733	12.33
424.938	12.34
425.143	12.38
425.349	12.41
425.554	12.37
425.759	12.44
425.964	12.46
426.169	12.46
426.375	12.34
426.58	12.44
426.785	12.51
426.99	12.49
427.195	12.38
427.4	12.29
427.605	12.29
427.811	12.34
428.016	12.36
428.221	12.29
428.426	12.3
428.631	12.3
428.836	12.15
429.041	12.21
429.246	12.19
429.451	12.29
429.656	12.39
429.861	12.37
430.066	12.32
430.271	12.33
430.476	12.47
430.681	12.5
430.886	12.59
431.09	12.63
431.295	12.62
431.5	12.78
431.705	12.79
431.91	12.72
432.115	12.59
432.32	12.51
432.524	12.47
432.729	12.31
432.934	12.29
433.139	12.3
433.343	12.38
433.548	12.27
433.753	12.2
433.958	12.27
434.162	12.19
434.367	12.26
434.572	12.26
434.776	12.35
434.981	12.39
435.186	12.42
435.39	12.45
435.595	12.38
435.799	12.56
436.004	12.45
436.209	12.34
436.413	12.39
436.618	12.4
436.822	12.42
437.027	12.45
437.231	12.48
437.436	12.41
437.64	12.22
437.845	12.14
438.049	12.08
438.253	12.1
438.458	12.13
438.662	12.11
438.867	12.08
439.071	12.03
439.275	11.88
439.48	11.83
439.684	11.9
439.888	11.94
440.093	11.92
440.297	11.87
440.501	11.83
440.706	11.92
440.91	11.86
441.114	11.93
441.318	12.04
441.523	12.06
441.727	12.11
441.931	12.04
442.135	12.05
442.339	12.03
442.543	12.06
442.748	12.1
442.952	11.99
443.156	12.12
443.36	12.08
443.564	11.99
443.768	11.94
443.972	11.92
444.176	11.94
444.38	11.96
444.584	11.93
444.788	11.97
444.992	11.94
445.196	11.85
445.4	11.73
445.604	11.76
445.808	11.83
446.012	11.86
446.216	11.91
446.42	11.78
446.624	11.72
446.828	11.66
447.032	11.62
447.235	11.64
447.439	11.71
447.643	11.81
447.847	11.7
448.051	11.62
448.254	11.66
448.458	11.58
448.662	11.74
448.866	11.8
449.069	11.92
449.273	11.93
449.477	11.89
449.681	11.82
449.884	11.7
450.088	11.75
450.292	11.79
450.495	11.75
450.699	11.74
450.902	11.74
451.106	11.81
451.31	11.68
451.513	11.56
451.717	11.54
451.92	11.61
452.124	11.69
452.327	11.72
452.531	11.64
452.734	11.64
452.938	11.69
453.141	11.58
453.345	11.43
453.548	11.54
453.752	11.61
453.955	11.55
454.158	11.55
454.362	11.47
454.565	11.42
454.769	11.47
454.972	11.47
455.175	11.44
455.379	11.47
455.582	11.61
455.785	11.66
455.988	11.63
456.192	11.61
456.395	11.62
456.598	11.72
456.801	11.71
457.005	11.8
457.208	11.67
457.411	11.64
457.614	11.64
457.817	11.56
458.021	11.49
458.224	11.48
458.427	11.47
