Data from 2938571_Reflection_1.txt Node
Date: Sun Jun 14 22:03:36 EDT 2015
User: robert
Spectrometer: USB4E03002
Autoset integration time: false
Trigger mode: 4
Integration Time (sec): 1.000000E-1
Scans to average: 10
Electric dark correction enabled: true
Nonlinearity correction enabled: false
Boxcar width: 5
Stray light correction enabled: false
XAxis mode: Wavelengths
Stop averaging: false
Number of Pixels in Spectrum: 3648
>>>>>Begin Spectral Data<<<<<
177.575	123.17
177.794	39.98
178.014	-52.76
178.233	-86.77
178.452	-357.91
178.672	-59350
178.891	13.04
179.11	41.39
179.33	45.83
179.549	34.28
179.768	180.79
179.987	261.73
180.207	36.46
180.426	10.22
180.645	24.11
180.864	29.21
181.084	100.41
181.303	193.8
181.522	863.42
181.741	299.02
181.96	26863.64
182.179	-9657.97
182.398	-1888.59
182.618	-303.04
182.837	-51.43
183.056	-7.26
183.275	-2.3
183.494	55.41
183.713	54.99
183.932	57.99
184.151	40.47
184.37	58.45
184.589	79.23
184.808	91.48
185.027	96.47
185.246	99.29
185.465	128.43
185.684	157.72
185.903	259.13
186.122	-31.74
186.341	-628.14
186.56	-137.15
186.779	-797.72
186.998	3813.04
187.216	1376.25
187.435	274.52
187.654	408.08
187.873	209.89
188.092	94.24
188.311	86.7
188.53	102.08
188.748	124.95
188.967	114.17
189.186	89.32
189.405	133.33
189.623	99.74
189.842	72.8
190.061	1.38
190.28	-27.66
190.498	13.06
190.717	494.24
190.936	-29.57
191.154	-7.46
191.373	25.59
191.592	6.59
191.81	27.69
192.029	57.74
192.248	32.22
192.466	54.11
192.685	48.18
192.904	18.53
193.122	40.95
193.341	72.02
193.559	61.05
193.778	56.65
193.996	43.35
194.215	36.04
194.433	44.58
194.652	45.71
194.87	45.29
195.089	43.04
195.307	38.42
195.526	31.75
195.744	17.13
195.963	53.5
196.181	2.3
196.399	10.56
196.618	-1.05
196.836	-194.66
197.055	-97.29
197.273	348.01
197.491	231.29
197.71	46.53
197.928	-1347.35
198.146	869.97
198.365	370.98
198.583	152.72
198.801	-72.86
199.019	-54.65
199.238	7.42
199.456	-36.11
199.674	-57.37
199.892	-34.8
200.111	-128.33
200.329	-26.32
200.547	-35.82
200.765	-49.61
200.983	-60.63
201.202	-54.98
201.42	-34.73
201.638	-69.18
201.856	-15.91
202.074	-21.37
202.292	-258.71
202.51	-81.19
202.728	-20.08
202.946	-168.58
203.165	-262.72
203.383	-45.64
203.601	-180.18
203.819	-126.99
204.037	-41.98
204.255	63.64
204.473	-221.41
204.691	107.1
204.909	114.41
205.127	110.8
205.345	101.46
205.562	115.66
205.78	121.53
205.998	129.34
206.216	115.02
206.434	114.42
206.652	93.11
206.87	101.36
207.088	128.65
207.306	128.72
207.523	72.15
207.741	92.53
207.959	126.68
208.177	155.98
208.395	114.88
208.612	34.28
208.83	3.42
209.048	20.81
209.266	14.38
209.483	-1
209.701	12.97
209.919	27.39
210.136	-16.55
210.354	-24.53
210.572	-65.82
210.79	-8.71
211.007	-0.29
211.225	9.68
211.442	-0.43
211.66	-17.61
211.878	-51.06
212.095	51.93
212.313	51.11
212.53	57.48
212.748	54.92
212.966	57.45
213.183	57.44
213.401	60.12
213.618	55.52
213.836	77.34
214.053	81.87
214.271	83.79
214.488	45.02
214.705	54.99
214.923	44.51
215.14	45.3
215.358	17.06
215.575	39.77
215.793	48.39
216.01	50.26
216.227	31.92
216.445	32.61
216.662	49.72
216.879	33.25
217.097	30.74
217.314	31.99
217.531	42.62
217.749	47.63
217.966	47.96
218.183	48.8
218.4	60.09
218.618	53.38
218.835	43.42
219.052	32.06
219.269	39.98
219.487	39.1
219.704	42.44
219.921	29.47
220.138	37.43
220.355	32.81
220.572	21.13
220.79	11.69
221.007	16.24
221.224	18.51
221.441	20.98
221.658	14.12
221.875	20.07
222.092	19.37
222.309	15.98
222.526	16.22
222.743	11.88
222.96	11.45
223.177	8.41
223.394	1.65
223.611	6.97
223.828	7.16
224.045	7.11
224.262	8.36
224.479	6.48
224.696	10.01
224.913	5.87
225.13	10.54
225.347	10.93
225.564	11.52
225.781	12.53
225.997	11.84
226.214	12.48
226.431	10.45
226.648	10.26
226.865	11.06
227.082	10.67
227.298	10.57
227.515	9.69
227.732	10.19
227.949	9.67
228.165	11.16
228.382	10.81
228.599	10.78
228.816	13.1
229.032	12.82
229.249	12.89
229.466	12.8
229.682	13.78
229.899	13.17
230.116	12.81
230.332	14.65
230.549	12.98
230.765	12.64
230.982	12.11
231.199	9.85
231.415	7.78
231.632	8.38
231.848	7.69
232.065	6.38
232.281	8.64
232.498	8.27
232.714	6.75
232.931	7.32
233.147	7.29
233.364	4.82
233.58	5.89
233.797	7.99
234.013	5.51
234.23	7.28
234.446	8.64
234.662	7.69
234.879	9.37
235.095	13.7
235.312	13.18
235.528	14.75
235.744	15.73
235.961	14.74
236.177	15.56
236.393	16.82
236.61	16.05
236.826	15.4
237.042	14.56
237.258	14.56
237.475	11.57
237.691	10.51
237.907	10.91
238.123	12.47
238.339	13.78
238.556	12.29
238.772	11.41
238.988	11.71
239.204	10.5
239.42	10.55
239.636	9.57
239.853	9.55
240.069	9.73
240.285	9.03
240.501	8.09
240.717	8.35
240.933	8.61
241.149	9.17
241.365	8.63
241.581	9.19
241.797	9.65
242.013	9.55
242.229	8.88
242.445	9.15
242.661	9.11
242.877	10.31
243.093	9.9
243.309	9.22
243.525	8.7
243.741	9.46
243.957	9.49
244.173	8.69
244.388	9.54
244.604	9.48
244.82	9.18
245.036	8.97
245.252	8.61
245.468	8.13
245.683	8.01
245.899	8.22
246.115	8.01
246.331	7.93
246.547	8.23
246.762	7.91
246.978	7.74
247.194	7.62
247.409	8.04
247.625	8.23
247.841	8.71
248.057	9.09
248.272	8.6
248.488	9.03
248.703	8.44
248.919	7.06
249.135	6.36
249.35	6.85
249.566	7.39
249.782	6.44
249.997	6.2
250.213	6.04
250.428	6.44
250.644	6.51
250.859	5.87
251.075	6.13
251.29	6.58
251.506	7.15
251.721	7.9
251.937	7.94
252.152	8.4
252.368	7.96
252.583	8.03
252.798	8.04
253.014	8.48
253.229	8.58
253.445	9.54
253.66	10.82
253.875	10.22
254.091	9.48
254.306	9.02
254.521	8.17
254.737	8.24
254.952	8.23
255.167	7.63
255.383	8.91
255.598	9.1
255.813	8.33
256.028	7.72
256.244	8.42
256.459	8.6
256.674	8.7
256.889	8.44
257.104	8.42
257.32	8.62
257.535	8.39
257.75	7.79
257.965	7.59
258.18	7.91
258.395	8.08
258.61	7.72
258.826	7.17
259.041	7.33
259.256	7.71
259.471	7.67
259.686	7.41
259.901	7.92
260.116	8.23
260.331	8.42
260.546	8.02
260.761	7.79
260.976	7.92
261.191	8.41
261.406	7.28
261.621	7.12
261.836	7.15
262.05	7.22
262.265	6.43
262.48	5.98
262.695	5.68
262.91	5.86
263.125	5.64
263.34	6.44
263.555	6.43
263.769	7.48
263.984	7.15
264.199	7.27
264.414	7
264.629	7.03
264.843	7.04
265.058	7.06
265.273	7.32
265.488	7.27
265.702	6.47
265.917	6.31
266.132	6.19
266.346	6.39
266.561	6.41
266.776	6.12
266.99	6.11
267.205	6.28
267.42	6.37
267.634	5.62
267.849	5.77
268.063	6.04
268.278	6.23
268.492	6.41
268.707	6.14
268.922	5.95
269.136	6.23
269.351	6.03
269.565	5.84
269.78	5.8
269.994	5.97
270.209	6.28
270.423	6.16
270.637	5.94
270.852	5.79
271.066	5.99
271.281	6.12
271.495	5.87
271.709	5.88
271.924	5.63
272.138	5.91
272.353	5.87
272.567	5.52
272.781	5.49
272.996	5.41
273.21	5.35
273.424	4.78
273.638	4.61
273.853	4.46
274.067	4.52
274.281	5.29
274.495	5.14
274.71	5.33
274.924	5.42
275.138	5.79
275.352	6.29
275.566	5.88
275.781	6.52
275.995	6.65
276.209	7.29
276.423	7.2
276.637	6.65
276.851	6.77
277.065	7.51
277.279	7.79
277.493	7.68
277.707	7.35
277.921	7.56
278.135	7.72
278.349	7.58
278.563	6.97
278.777	6.74
278.991	6.8
279.205	6.65
279.419	6.15
279.633	6.56
279.847	6.53
280.061	6.47
280.275	6.37
280.489	5.97
280.703	6.12
280.917	6.32
281.131	6.65
281.344	6.63
281.558	7
281.772	6.8
281.986	5.74
282.2	5.46
282.414	5.61
282.627	5.92
282.841	5.75
283.055	5.54
283.269	5.54
283.482	5.32
283.696	5.23
283.91	4.79
284.123	4.93
284.337	5.37
284.551	5.62
284.764	5.48
284.978	5.26
285.192	5.34
285.405	5.2
285.619	5.06
285.833	5.64
286.046	5.94
286.26	6.09
286.473	5.83
286.687	5.96
286.9	5.94
287.114	6.39
287.327	6.54
287.541	6.46
287.754	6.48
287.968	6.79
288.181	6.45
288.395	6.35
288.608	6.38
288.822	6.53
289.035	6
289.248	5.6
289.462	5.56
289.675	5.46
289.889	5.58
290.102	5.83
290.315	5.97
290.529	5.81
290.742	5.59
290.955	5.45
291.169	5.48
291.382	6.15
291.595	6.39
291.808	6.34
292.022	6.45
292.235	6.49
292.448	6.48
292.661	6.07
292.875	6.16
293.088	6.26
293.301	6.12
293.514	6.35
293.727	6.19
293.94	6.2
294.153	5.78
294.367	5.89
294.58	6.19
294.793	5.76
295.006	5.89
295.219	6.17
295.432	6.41
295.645	6.72
295.858	6.57
296.071	6.24
296.284	6.35
296.497	6.62
296.71	6.61
296.923	6.38
297.136	6.32
297.349	6.59
297.562	6.34
297.775	6.44
297.988	6.56
298.201	6.58
298.414	6.98
298.626	7.06
298.839	6.99
299.052	7.09
299.265	7.53
299.478	8.31
299.691	7.79
299.903	7.68
300.116	7.2
300.329	6.85
300.542	7.17
300.755	7.1
300.967	7.4
301.18	7.35
301.393	7.2
301.605	6.8
301.818	6.85
302.031	7.51
302.243	7.58
302.456	7.61
302.669	8.01
302.881	7.83
303.094	7.86
303.307	7.9
303.519	7.65
303.732	7.76
303.944	8.3
304.157	7.88
304.37	7.8
304.582	7.54
304.795	7.56
305.007	7.01
305.22	6.88
305.432	6.72
305.645	6.71
305.857	6.95
306.069	7.16
306.282	6.81
306.494	6.95
306.707	6.83
306.919	6.97
307.132	7.16
307.344	7.16
307.556	7.07
307.769	7.36
307.981	7.04
308.193	7.02
308.406	6.73
308.618	6.6
308.83	6.59
309.043	6.34
309.255	6.31
309.467	6.45
309.679	6.99
309.892	7.24
310.104	7.04
310.316	6.79
310.528	7.12
310.74	7.22
310.953	7.54
311.165	7.71
311.377	7.99
311.589	8.39
311.801	8.23
312.013	7.69
312.225	8.01
312.437	8.38
312.649	8.8
312.862	8.83
313.074	8.95
313.286	9.09
313.498	9.04
313.71	8.97
313.922	8.6
314.134	8.43
314.346	8.83
314.558	8.5
314.77	8.58
314.982	8.24
315.193	8.05
315.405	7.98
315.617	7.53
315.829	7.82
316.041	7.78
316.253	8.29
316.465	8.09
316.677	7.57
316.888	7.75
317.1	7.45
317.312	8.22
317.524	8.36
317.736	8.59
317.947	8.63
318.159	8.49
318.371	8.2
318.583	8.28
318.794	8.62
319.006	9.12
319.218	9.03
319.43	9.35
319.641	8.68
319.853	8.9
320.064	8.25
320.276	8.46
320.488	8.4
320.699	8.43
320.911	8.11
321.123	8.17
321.334	7.66
321.546	7.72
321.757	7.16
321.969	7.53
322.18	7.16
322.392	7.22
322.603	6.84
322.815	6.95
323.026	7.64
323.238	7.36
323.449	7.45
323.661	7.63
323.872	7.21
324.083	7.43
324.295	7.39
324.506	7.53
324.718	7.97
324.929	8.31
325.14	8.43
325.352	8.13
325.563	8.44
325.774	8.7
325.986	9.18
326.197	9.44
326.408	9.25
326.62	9.07
326.831	9.35
327.042	9.28
327.253	8.92
327.464	8.61
327.676	8.86
327.887	8.83
328.098	8.4
328.309	8.13
328.52	8.05
328.732	8.37
328.943	8.86
329.154	8.78
329.365	8.41
329.576	8.46
329.787	8.72
329.998	8.44
330.209	8.54
330.42	8.74
330.631	8.54
330.842	8.59
331.053	8.63
331.264	8.23
331.475	8.53
331.686	8.95
331.897	9.3
332.108	9.65
332.319	9.51
332.53	9.34
332.741	9.12
332.952	9.13
333.163	9.08
333.374	8.72
333.585	8.27
333.795	7.86
334.006	7.75
334.217	7.88
334.428	7.48
334.639	7.8
334.849	8.08
335.06	8.29
335.271	8.42
335.482	8.41
335.692	8.64
335.903	8.93
336.114	8.67
336.325	8.58
336.535	8.71
336.746	8.35
336.957	7.9
337.167	7.61
337.378	7.53
337.589	7.1
337.799	6.73
338.01	6.9
338.22	7.02
338.431	7.14
338.642	7.01
338.852	6.54
339.063	6.37
339.273	6.62
339.484	6.76
339.694	6.55
339.905	6.91
340.115	7.49
340.326	7.05
340.536	7.58
340.746	7.69
340.957	8.01
341.167	8.39
341.378	8.71
341.588	8.48
341.799	8.82
342.009	8.98
342.219	8.78
342.43	8.62
342.64	8.57
342.85	7.99
343.061	7.87
343.271	7.65
343.481	7.11
343.691	7.19
343.902	7.32
344.112	6.8
344.322	6.66
344.532	6.75
344.743	6.87
344.953	7.03
345.163	7.24
345.373	7.47
345.583	7.62
345.793	7.92
346.004	7.8
346.214	7.77
346.424	7.73
346.634	8.29
346.844	8.02
347.054	7.9
347.264	8.07
347.474	7.89
347.684	7.51
347.894	7.22
348.104	7.12
348.314	7.13
348.524	6.88
348.734	7.23
348.944	6.48
349.154	6.59
349.364	6.47
349.574	6.59
349.784	6.53
349.994	6.86
350.204	7.04
350.413	7.17
350.623	7.29
350.833	7.19
351.043	6.62
351.253	6.88
351.463	7.38
351.672	7.36
351.882	7.13
352.092	7.19
352.302	7.09
352.511	7.13
352.721	7.16
352.931	6.93
353.141	6.97
353.35	7.29
353.56	7.26
353.77	6.55
353.979	6.61
354.189	6.67
354.399	6.63
354.608	6.72
354.818	6.62
355.027	6.58
355.237	6.78
355.447	7.07
355.656	6.95
355.866	6.88
356.075	7.32
356.285	7.33
356.494	7.15
356.704	7.19
356.913	7.1
357.123	6.97
357.332	6.61
357.542	6.4
357.751	6.24
357.96	6.41
358.17	6.44
358.379	6.51
358.589	6.52
358.798	6.88
359.007	6.71
359.217	6.77
359.426	6.91
359.635	7.08
359.845	7.18
360.054	7.27
360.263	7.1
360.472	7.08
360.682	6.92
360.891	6.87
361.1	6.51
361.309	6.71
361.519	6.64
361.728	6.69
361.937	6.74
362.146	6.73
362.355	6.64
362.564	6.67
362.774	6.73
362.983	6.76
363.192	6.82
363.401	6.86
363.61	6.61
363.819	6.55
364.028	6.36
364.237	6.39
364.446	6.34
364.655	6.35
364.864	6.43
365.073	6.4
365.282	6.35
365.491	5.92
365.7	6.02
365.909	6.03
366.118	5.96
366.327	6.08
366.536	6.1
366.745	6.22
366.954	6.33
367.162	6.35
367.371	6.21
367.58	6.25
367.789	6.37
367.998	6.21
368.207	6.28
368.415	6.15
368.624	6.01
368.833	5.61
369.042	5.24
369.25	5.19
369.459	4.98
369.668	4.94
369.877	5.05
370.085	5.31
370.294	5.28
370.503	5.25
370.711	5.31
370.92	5.48
371.129	5.79
371.337	5.88
371.546	5.71
371.754	5.76
371.963	5.93
372.171	5.89
372.38	5.62
372.589	5.59
372.797	5.61
373.006	5.69
373.214	5.44
373.423	5.41
373.631	5.53
373.84	5.71
374.048	5.81
374.256	5.69
374.465	5.67
374.673	5.95
374.882	6.04
375.09	5.97
375.298	5.65
375.507	5.72
375.715	5.59
375.923	5.27
376.132	5.39
376.34	5.38
376.548	5.39
376.757	5.45
376.965	5.21
377.173	5.11
377.381	5.18
377.59	5.44
377.798	5.4
378.006	5.35
378.214	5.37
378.423	4.93
378.631	4.88
378.839	5.14
379.047	5.2
379.255	5.37
379.463	5.47
379.671	5.45
379.879	5.28
380.088	5.33
380.296	5.41
380.504	5.3
380.712	5.61
380.92	5.44
381.128	5.22
381.336	4.91
381.544	4.58
381.752	4.61
381.96	4.61
382.168	4.74
382.376	4.79
382.584	4.93
382.791	5.44
382.999	5.23
383.207	5.33
383.415	5.44
383.623	5.5
383.831	5.91
384.039	5.92
384.247	5.82
384.454	5.88
384.662	5.81
384.87	5.76
385.078	5.46
385.285	5.56
385.493	5.59
385.701	5.62
385.909	5.39
386.116	5.26
386.324	5.37
386.532	5.4
386.739	5.31
386.947	5.44
387.155	5.42
387.362	5.66
387.57	5.93
387.778	5.99
387.985	6.05
388.193	6.03
388.4	6.13
388.608	6.06
388.816	6.04
389.023	6.02
389.231	5.67
389.438	5.6
389.646	5.49
389.853	5.19
390.061	5.07
390.268	4.97
390.475	5.17
390.683	5.13
390.89	5.04
391.098	5.15
391.305	5.09
391.512	5.24
391.72	5.34
391.927	5.34
392.135	5.45
392.342	5.41
392.549	5.2
392.756	5.27
392.964	5.21
393.171	5.22
393.378	5.2
393.586	5.25
393.793	5.23
394	5.07
394.207	5.01
394.414	4.98
394.622	4.93
394.829	5.04
395.036	4.67
395.243	4.58
395.45	4.64
395.657	4.54
395.864	4.37
396.072	4.43
396.279	4.37
396.486	4.31
396.693	4.29
396.9	4.55
397.107	4.71
397.314	5.11
397.521	5.22
397.728	5.13
397.935	5.17
398.142	5.26
398.349	5.22
398.556	5.2
398.763	5.34
398.97	5.24
399.177	5.09
399.383	4.61
399.59	4.34
399.797	3.97
400.004	3.95
400.211	3.98
400.418	3.92
400.625	3.88
400.831	3.87
401.038	3.56
401.245	3.4
401.452	3.61
401.658	3.99
401.865	3.99
402.072	4.09
402.279	4.06
402.485	4
402.692	4.15
402.899	4.27
403.105	4.3
403.312	4.39
403.519	4.51
403.725	4.35
403.932	4.15
404.138	4.35
404.345	4.4
404.552	4.48
404.758	4.53
404.965	4.61
405.171	4.52
405.378	4.45
405.584	4.62
405.791	4.63
405.997	4.57
406.204	4.68
406.41	4.52
406.617	4.65
406.823	4.44
407.029	4.47
407.236	4.27
407.442	4.28
407.649	4.38
407.855	4.52
408.061	4.71
408.268	4.36
408.474	4.45
408.68	4.43
408.887	4.5
409.093	4.62
409.299	4.5
409.505	4.6
409.712	4.6
409.918	4.57
410.124	4.24
410.33	4.26
410.537	4.6
410.743	4.53
410.949	4.44
411.155	4.21
411.361	4.2
411.567	4.32
411.773	4.23
411.98	4.2
412.186	3.98
412.392	4.04
412.598	3.88
412.804	3.93
413.01	3.96
413.216	3.99
413.422	4.16
413.628	4.19
413.834	4.16
414.04	4.18
414.246	4.21
414.452	4.39
414.658	4.38
414.864	4.29
415.07	4.27
415.275	4.33
415.481	4.38
415.687	4.38
415.893	4.45
416.099	4.32
416.305	4.32
416.511	4.3
416.716	4.18
416.922	4.11
417.128	4.17
417.334	4.2
417.539	4
417.745	3.94
417.951	3.89
418.157	3.77
418.362	3.85
418.568	3.77
418.774	3.78
418.979	3.82
419.185	3.89
419.391	3.84
419.596	3.77
419.802	3.82
420.008	3.85
420.213	4.49
420.419	4.6
420.624	4.58
420.83	4.62
421.035	4.53
421.241	4.58
421.446	4.54
421.652	4.59
421.857	4.63
422.063	4.64
422.268	4.64
422.474	3.97
422.679	3.96
422.885	3.88
423.09	3.86
423.295	3.93
423.501	3.97
423.706	4.02
423.911	3.96
424.117	3.93
424.322	3.97
424.527	4.02
424.733	4.02
424.938	3.98
425.143	4.05
425.349	4.05
425.554	3.97
425.759	3.88
425.964	3.91
426.169	3.91
426.375	3.95
426.58	3.9
426.785	3.93
426.99	3.85
427.195	3.73
427.4	3.72
427.605	3.74
427.811	3.88
428.016	3.93
428.221	3.76
428.426	3.68
428.631	3.53
428.836	3.57
429.041	3.4
429.246	3.54
429.451	3.53
429.656	3.54
429.861	3.54
430.066	3.45
430.271	3.46
430.476	3.5
430.681	3.54
430.886	3.69
431.09	3.67
431.295	3.75
431.5	3.73
431.705	3.7
431.91	3.69
432.115	3.72
432.32	3.75
432.524	3.68
432.729	3.72
432.934	3.71
433.139	3.71
433.343	3.7
433.548	3.58
433.753	3.52
433.958	3.58
434.162	3.58
434.367	3.59
434.572	3.57
434.776	3.65
434.981	3.71
435.186	3.84
435.39	3.8
435.595	3.84
435.799	3.96
436.004	3.93
436.209	3.93
436.413	3.85
436.618	3.79
436.822	3.81
437.027	3.77
437.231	3.76
437.436	3.74
437.64	3.77
437.845	3.74
438.049	3.77
438.253	3.74
438.458	3.8
438.662	3.85
438.867	3.89
439.071	3.89
439.275	3.88
439.48	3.86
439.684	3.81
439.888	3.81
440.093	3.83
440.297	3.77
440.501	3.78
440.706	3.79
440.91	3.76
441.114	3.76
441.318	3.66
441.523	3.6
441.727	3.52
441.931	3.53
442.135	3.57
442.339	3.49
442.543	3.53
442.748	3.64
442.952	3.61
443.156	3.57
443.36	3.48
443.564	3.58
443.768	3.62
443.972	3.55
444.176	3.57
444.38	3.56
444.584	3.59
444.788	3.56
444.992	3.53
445.196	3.51
445.4	3.59
445.604	3.67
445.808	3.64
446.012	3.65
446.216	3.76
446.42	3.76
446.624	3.76
446.828	3.78
447.032	3.8
447.235	3.83
447.439	3.75
447.643	3.68
447.847	3.67
448.051	3.67
448.254	3.68
448.458	3.67
448.662	3.64
448.866	3.58
449.069	3.56
449.273	3.54
449.477	3.48
449.681	3.65
449.884	3.68
450.088	3.58
450.292	3.5
450.495	3.61
450.699	3.61
450.902	3.65
451.106	3.62
451.31	3.68
451.513	3.65
451.717	3.71
451.92	3.66
452.124	3.8
452.327	3.86
452.531	3.92
452.734	3.78
452.938	3.81
453.141	3.73
453.345	3.8
453.548	3.75
453.752	3.79
453.955	3.73
454.158	3.64
454.362	3.56
454.565	3.5
454.769	3.51
454.972	3.51
455.175	3.62
455.379	3.64
455.582	3.57
455.785	3.59
455.988	3.57
456.192	3.52
456.395	3.54
456.598	3.54
456.801	3.63
457.005	3.61
457.208	3.65
457.411	3.53
457.614	3.58
457.817	3.54
458.021	3.52
458.224	3.5
458.427	3.5
458.63	3.46
458.833	3.4
459.036	3.4
459.239	3.35
459.442	3.35
459.645	3.32
459.848	3.34
460.051	3.39
460.254	3.41
460.457	3.48
460.66	3.56
460.863	3.6
461.066	3.7
461.269	3.68
461.472	3.86
461.675	3.87
461.878	3.87
462.081	3.8
462.284	3.76
462.486	3.73
462.689	3.59
462.892	3.6
463.095	3.65
463.298	3.63
463.5	3.57
463.703	3.54
463.906	3.41
464.109	3.49
464.311	3.49
464.514	3.62
464.717	3.64
464.92	3.73
465.122	3.76
465.325	3.8
465.528	3.76
465.73	3.72
465.933	3.74
466.135	3.82
466.338	3.77
466.541	3.74
466.743	3.61
466.946	3.63
467.148	3.57
467.351	3.53
467.553	3.51
467.756	3.61
467.958	3.8
468.161	3.75
468.363	3.74
468.566	3.73
468.768	3.81
468.971	3.77
469.173	3.85
469.375	3.88
469.578	3.84
469.78	3.89
469.983	3.83
470.185	3.68
470.387	3.61
470.59	3.62
