Data from 2938541_Reflection_3.txt Node
Date: Mon Jun 15 23:34:46 EDT 2015
User: robert
Spectrometer: USB4E03002
Autoset integration time: false
Trigger mode: 4
Integration Time (sec): 1.000000E-1
Scans to average: 10
Electric dark correction enabled: true
Nonlinearity correction enabled: false
Boxcar width: 6
Stray light correction enabled: false
XAxis mode: Wavelengths
Stop averaging: false
Number of Pixels in Spectrum: 3648
>>>>>Begin Spectral Data<<<<<
177.575	48.33
177.794	61.72
178.014	67.77
178.233	17.85
178.452	278.95
178.672	72.75
178.891	360
179.11	-106.45
179.33	-88.71
179.549	-164.32
179.768	-142.91
179.987	-173.66
180.207	-13.51
180.426	-19.12
180.645	-11.78
180.864	17.64
181.084	-2.92
181.303	-0.98
181.522	-21.38
181.741	-31.18
181.96	-10.6
182.179	-7.45
182.398	-15.13
182.618	-30.32
182.837	-25.58
183.056	-59.53
183.275	-17.7
183.494	-19.69
183.713	-60.05
183.932	-58.03
184.151	-108.53
184.37	-89.41
184.589	-52.43
184.808	-174.87
185.027	-322.31
185.246	-94.32
185.465	-63.41
185.684	-104.61
185.903	-135.19
186.122	-1036.17
186.341	3315
186.56	971.6
186.779	2148.72
186.998	-470.42
187.216	2826.92
187.435	308.37
187.654	777.67
187.873	3328.57
188.092	618.75
188.311	565.87
188.53	3250
188.748	-3805
188.967	-660
189.186	-1592.68
189.405	-742.86
189.623	1055.77
189.842	408.07
190.061	5509.09
190.28	-368.47
190.498	-710.53
190.717	-745.95
190.936	-3278.57
191.154	-1059.46
191.373	4100
191.592	1981.48
191.81	1359.46
192.029	888.71
192.248	807.94
192.466	-1704.17
192.685	-216.44
192.904	-285.95
193.122	1302.04
193.341	1888.89
193.559	229.88
193.778	438.96
193.996	243.39
194.215	265.22
194.433	181.33
194.652	219.87
194.87	239.77
195.089	156.23
195.307	205.23
195.526	186.98
195.744	206.35
195.963	462.84
196.181	504.05
196.399	2475.76
196.618	473.28
196.836	-216.58
197.055	-137.5
197.273	-400.83
197.491	-109.97
197.71	-367.36
197.928	-139.72
198.146	-113.93
198.365	-64.71
198.583	-129.96
198.801	9575
199.019	608.42
199.238	689.66
199.456	1725
199.674	302.03
199.892	330.77
200.111	1278.57
200.329	130.03
200.547	100.41
200.765	88.54
200.983	119.23
201.202	203.91
201.42	355.17
201.638	284.62
201.856	646.67
202.074	496.52
202.292	343.58
202.51	342.41
202.728	348.63
202.946	291.58
203.165	284.62
203.383	294.51
203.601	301.96
203.819	200
204.037	221.17
204.255	190.34
204.473	267.3
204.691	217.17
204.909	124.48
205.127	145.39
205.345	123.28
205.562	164.94
205.78	198.06
205.998	104.5
206.216	88.79
206.434	73.75
206.652	110.34
206.87	113.36
207.088	122.93
207.306	125.18
207.523	118.31
207.741	170.29
207.959	139.55
208.177	162.26
208.395	117.74
208.612	104.33
208.83	127.96
209.048	123.53
209.266	113.48
209.483	120.34
209.701	175
209.919	318.46
210.136	202.16
210.354	204.84
210.572	206.08
210.79	210.91
211.007	173.72
211.225	178.92
211.442	158.99
211.66	136.11
211.878	45.36
212.095	13.38
212.313	-2
212.53	-6.54
212.748	-22.33
212.966	-64.14
213.183	-45.52
213.401	-26.07
213.618	-3.32
213.836	-13.1
214.053	1.65
214.271	-3.66
214.488	-29.17
214.705	115.48
214.923	126.79
215.14	146.7
215.358	105.67
215.575	118.67
215.793	133.06
216.01	126.3
216.227	99.27
216.445	72.44
216.662	75.04
216.879	78.84
217.097	64.39
217.314	67.64
217.531	69.12
217.749	81.3
217.966	65.55
218.183	58.77
218.4	54.04
218.618	43.85
218.835	36.18
219.052	32.34
219.269	30.1
219.487	17.68
219.704	21.45
219.921	21.72
220.138	17.59
220.355	29.3
220.572	28.65
220.79	28.7
221.007	27.97
221.224	24.85
221.441	20.2
221.658	28.49
221.875	29.58
222.092	37.21
222.309	38.56
222.526	37.52
222.743	33.26
222.96	32.58
223.177	25.97
223.394	26.6
223.611	25.77
223.828	28.87
224.045	30.25
224.262	31.24
224.479	21.99
224.696	18.25
224.913	16.03
225.13	15.76
225.347	16.53
225.564	14.47
225.781	13.26
225.997	14.36
226.214	12.55
226.431	12.01
226.648	12.18
226.865	10.94
227.082	11.98
227.298	13.09
227.515	13.35
227.732	12.71
227.949	11.4
228.165	11.72
228.382	12.83
228.599	12.88
228.816	11.76
229.032	12.15
229.249	12.48
229.466	11.44
229.682	11.7
229.899	10.2
230.116	9.65
230.332	8.77
230.549	8.96
230.765	10.78
230.982	9.97
231.199	10.14
231.415	9.24
231.632	9.35
231.848	8.81
232.065	7.16
232.281	6.81
232.498	7.51
232.714	7.43
232.931	8.07
233.147	9.76
233.364	10.03
233.58	9.03
233.797	9.05
234.013	8.27
234.23	8.46
234.446	8.92
234.662	8.84
234.879	8.91
235.095	9.93
235.312	9.62
235.528	8.75
235.744	8.08
235.961	7.67
236.177	7.39
236.393	7.49
236.61	6.83
236.826	5.96
237.042	6.52
237.258	6.1
237.475	6.35
237.691	6.19
237.907	6.7
238.123	6.93
238.339	9
238.556	10.41
238.772	10.14
238.988	10.63
239.204	12.66
239.42	12.19
239.636	12.8
239.853	12.73
240.069	12.56
240.285	12.11
240.501	12.67
240.717	12.65
240.933	13.51
241.149	13.23
241.365	13
241.581	12.82
241.797	12.15
242.013	10.92
242.229	11.26
242.445	11.75
242.661	11.98
242.877	12.14
243.093	12.89
243.309	12.45
243.525	11.43
243.741	10.22
243.957	10.11
244.173	9.86
244.388	10.29
244.604	10.48
244.82	9.95
245.036	9.25
245.252	8.53
245.468	8.65
245.683	8.75
245.899	8.4
246.115	8.57
246.331	8.66
246.547	8.51
246.762	8.46
246.978	8.39
247.194	8.26
247.409	8.23
247.625	8.6
247.841	9.22
248.057	9.4
248.272	8.99
248.488	8.31
248.703	8.63
248.919	7.87
249.135	7.8
249.35	8.32
249.566	8.06
249.782	8.19
249.997	7.74
250.213	7.52
250.428	6.87
250.644	6.85
250.859	6.82
251.075	7.26
251.29	7.92
251.506	7.77
251.721	8.28
251.937	8.24
252.152	9.08
252.368	9.27
252.583	8.84
252.798	8.85
253.014	9.17
253.229	9.55
253.445	9.84
253.66	9.61
253.875	8.79
254.091	9.4
254.306	9.09
254.521	9.03
254.737	8.44
254.952	7.12
255.167	6.84
255.383	6.86
255.598	7.15
255.813	6.95
256.028	7.79
256.244	7.44
256.459	7.73
256.674	8.3
256.889	7.34
257.104	7.09
257.32	7.07
257.535	7.44
257.75	7.16
257.965	7.12
258.18	7.39
258.395	7.33
258.61	7.29
258.826	7.05
259.041	7.16
259.256	7.27
259.471	6.72
259.686	6.94
259.901	7.05
260.116	7.1
260.331	7.22
260.546	7.34
260.761	7.4
260.976	6.98
261.191	7.02
261.406	6.69
261.621	6.59
261.836	6.7
262.05	6.61
262.265	7.02
262.48	6.92
262.695	6.88
262.91	6.68
263.125	6.74
263.34	7.01
263.555	7.13
263.769	7.2
263.984	7.31
264.199	7.74
264.414	7.32
264.629	6.64
264.843	6.97
265.058	7.62
265.273	7.13
265.488	7.19
265.702	7.46
265.917	7.07
266.132	7.34
266.346	7.45
266.561	7.54
266.776	7.08
266.99	7.45
267.205	7.74
267.42	7.61
267.634	7.24
267.849	7.15
268.063	7.83
268.278	7.8
268.492	7.21
268.707	7.29
268.922	6.86
269.136	6.95
269.351	7.02
269.565	7.15
269.78	7.01
269.994	6.99
270.209	6.6
270.423	6.69
270.637	6.11
270.852	5.95
271.066	6.4
271.281	6.9
271.495	7.03
271.709	7.02
271.924	7.01
272.138	6.99
272.353	7.1
272.567	6.84
272.781	6.62
272.996	7.35
273.21	7.14
273.424	7.58
273.638	7.53
273.853	7.42
274.067	6.83
274.281	6.61
274.495	6.41
274.71	6.04
274.924	5.62
275.138	5.66
275.352	5.69
275.566	5.86
275.781	5.76
275.995	5.87
276.209	6
276.423	5.56
276.637	4.99
276.851	5.41
277.065	5.23
277.279	5.66
277.493	5.83
277.707	6.27
277.921	6.23
278.135	6.01
278.349	6.15
278.563	5.97
278.777	5.99
278.991	5.82
279.205	6.17
279.419	6.3
279.633	6.05
279.847	6.25
280.061	6.12
280.275	6.06
280.489	5.68
280.703	5.72
280.917	5.87
281.131	5.94
281.344	5.89
281.558	5.91
281.772	5.48
281.986	5.55
282.2	5.78
282.414	5.82
282.627	5.53
282.841	5.47
283.055	5.52
283.269	5.97
283.482	5.78
283.696	5.84
283.91	5.58
284.123	5.83
284.337	5.6
284.551	5.8
284.764	5.5
284.978	5.19
285.192	5.28
285.405	5.78
285.619	5.81
285.833	5.97
286.046	5.71
286.26	5.74
286.473	6.14
286.687	6.46
286.9	6.62
287.114	7.06
287.327	6.99
287.541	7.19
287.754	7.63
287.968	7.36
288.181	6.94
288.395	7.24
288.608	7.22
288.822	7.26
289.035	7.14
289.248	6.78
289.462	6.44
289.675	6.4
289.889	6.19
290.102	6.4
290.315	6.37
290.529	6.06
290.742	6.3
290.955	6.92
291.169	6.86
291.382	6.72
291.595	7.04
291.808	7.49
292.022	7.53
292.235	7.97
292.448	7.7
292.661	7.98
292.875	8.05
293.088	8.61
293.301	8.6
293.514	8.51
293.727	7.89
293.94	8.09
294.153	7.93
294.367	7.73
294.58	7.49
294.793	7.57
295.006	7.63
295.219	7.83
295.432	7.61
295.645	7.45
295.858	7.05
296.071	7.19
296.284	7.35
296.497	7.49
296.71	7.31
296.923	7.69
297.136	7.95
297.349	7.94
297.562	7.87
297.775	7.55
297.988	7.51
298.201	7.61
298.414	7.57
298.626	7.74
298.839	7.75
299.052	7.76
299.265	8.01
299.478	7.82
299.691	7.31
299.903	7.34
300.116	7.83
300.329	7.62
300.542	7.97
300.755	8.42
300.967	8.49
301.18	8.66
301.393	8.56
301.605	8.53
301.818	8.61
302.031	8.36
302.243	8.73
302.456	8.95
302.669	9.09
302.881	9.09
303.094	9.61
303.307	9.51
303.519	9.12
303.732	8.87
303.944	8.96
304.157	9.13
304.37	9.21
304.582	9.44
304.795	9.94
305.007	9.64
305.22	9.86
305.432	9.75
305.645	9.39
305.857	9.32
306.069	9.61
306.282	9.65
306.494	10.17
306.707	10.44
306.919	10.45
307.132	10.47
307.344	10.13
307.556	9.7
307.769	9.76
307.981	9.7
308.193	9.62
308.406	9.77
308.618	9.58
308.83	9.39
309.043	9.57
309.255	9.82
309.467	9.8
309.679	9.85
309.892	9.88
310.104	10.12
310.316	10.22
310.528	10.52
310.74	10.68
310.953	10.84
311.165	10.9
311.377	11.01
311.589	11.24
311.801	10.99
312.013	10.71
312.225	10.44
312.437	10.68
312.649	10.47
312.862	10.74
313.074	11.01
313.286	10.73
313.498	10.66
313.71	10.43
313.922	10.37
314.134	10.36
314.346	10.5
314.558	10.83
314.77	10.7
314.982	10.74
315.193	10.55
315.405	10.87
315.617	10.61
315.829	10.32
316.041	10.41
316.253	10.48
316.465	10.19
316.677	10.33
316.888	10.33
317.1	10.51
317.312	10.27
317.524	10.39
317.736	10.7
317.947	10.85
318.159	10.94
318.371	11.17
318.583	11.43
318.794	11.52
319.006	11.62
319.218	12.26
319.43	12.65
319.641	13.01
319.853	12.78
320.064	13.19
320.276	13.26
320.488	13.31
320.699	13.53
320.911	13.61
321.123	14.02
321.334	13.72
321.546	13.58
321.757	13.21
321.969	13.34
322.18	13.12
322.392	13.16
322.603	13.31
322.815	13.12
323.026	12.75
323.238	12.95
323.449	13.03
323.661	13.13
323.872	13.01
324.083	13.49
324.295	13.77
324.506	14.21
324.718	14.46
324.929	14.33
325.14	14.37
325.352	14.29
325.563	14.45
325.774	15.16
325.986	15.25
326.197	15.18
326.408	15.53
326.62	15.59
326.831	15.9
327.042	16.21
327.253	16.61
327.464	16.5
327.676	17.29
327.887	17.77
328.098	18.26
328.309	18.27
328.52	18.46
328.732	18.79
328.943	18.95
329.154	19.41
329.365	19.48
329.576	19.12
329.787	18.97
329.998	19.04
330.209	19.1
330.42	19.02
330.631	18.97
330.842	19.02
331.053	19.46
331.264	19.46
331.475	19.56
331.686	19.58
331.897	19.43
332.108	19.79
332.319	20.4
332.53	20.58
332.741	20.58
332.952	20.68
333.163	20.5
333.374	20.42
333.585	20.53
333.795	20.2
334.006	20.31
334.217	20.4
334.428	20.3
334.639	20.02
334.849	19.73
335.06	19.37
335.271	19.85
335.482	19.61
335.692	19.97
335.903	20.16
336.114	20.37
336.325	20.25
336.535	20.65
336.746	20.4
336.957	20.34
337.167	20.77
337.378	21.27
337.589	21.22
337.799	21.65
338.01	21.18
338.22	21.03
338.431	20.48
338.642	20.57
338.852	20.52
339.063	20.64
339.273	20.69
339.484	21.01
339.694	21.24
339.905	20.98
340.115	20.42
340.326	20.66
340.536	20.3
340.746	20.51
340.957	20.99
341.167	21.26
341.378	21.05
341.588	20.74
341.799	20.4
342.009	20.32
342.219	19.93
342.43	19.48
342.64	19.73
342.85	19.77
343.061	19.83
343.271	19.86
343.481	19.73
343.691	19.14
343.902	19.21
344.112	19.31
344.322	19.39
344.532	19.57
344.743	19.11
344.953	19.24
345.163	19.16
345.373	18.85
345.583	18.94
345.793	18.88
346.004	18.94
346.214	19
346.424	19.54
346.634	19.36
346.844	19.06
347.054	19.16
347.264	19.25
347.474	19.49
347.684	19.46
347.894	19.68
348.104	19.81
348.314	19.63
348.524	19.26
348.734	19.38
348.944	19.37
349.154	19.37
349.364	19.34
349.574	19.78
349.784	19.63
349.994	19.48
350.204	19.75
350.413	19.45
350.623	19.25
350.833	19
351.043	19.12
351.253	19.22
351.463	18.86
351.672	18.82
351.882	18.51
352.092	18.43
352.302	18.2
352.511	17.99
352.721	18.09
352.931	17.98
353.141	17.9
353.35	17.99
353.56	18.06
353.77	17.94
353.979	18.07
354.189	18.13
354.399	18
354.608	18.15
354.818	18.06
355.027	18.08
355.237	18.09
355.447	18
355.656	17.64
355.866	17.9
356.075	17.86
356.285	17.9
356.494	17.94
356.704	17.77
356.913	17.77
357.123	17.81
357.332	17.7
357.542	17.72
357.751	17.68
357.96	17.94
358.17	17.88
358.379	18.17
358.589	18.05
358.798	17.87
359.007	17.75
359.217	17.63
359.426	17.57
359.635	17.57
359.845	17.64
360.054	17.52
360.263	17.55
360.472	17.44
360.682	17.41
360.891	17.41
361.1	17.55
361.309	17.67
361.519	17.7
361.728	17.74
361.937	17.84
362.146	17.87
362.355	17.95
362.564	17.71
362.774	17.7
362.983	17.64
363.192	17.65
363.401	17.48
363.61	17.74
363.819	17.55
364.028	17.45
364.237	17.5
364.446	17.48
364.655	17.39
364.864	17.51
365.073	17.34
365.282	17.3
365.491	17.5
365.7	17.48
365.909	17.48
366.118	17.77
366.327	17.42
366.536	17.48
366.745	17.42
366.954	17.5
367.162	17.52
367.371	17.57
367.58	17.33
367.789	17.38
367.998	17.38
368.207	17.2
368.415	17.39
368.624	17.59
368.833	17.37
369.042	17.47
369.25	17.33
369.459	17.53
369.668	17.14
369.877	17.14
370.085	16.9
370.294	17.05
370.503	16.86
370.711	16.75
370.92	16.78
371.129	16.54
371.337	16.06
371.546	16.09
371.754	15.96
371.963	15.86
372.171	15.68
372.38	15.62
372.589	15.59
372.797	15.66
373.006	15.43
373.214	15.8
373.423	15.99
373.631	15.87
373.84	16.17
374.048	16.36
374.256	16.16
374.465	16.13
374.673	16.17
374.882	16.01
375.09	16.36
375.298	16.3
375.507	16.17
375.715	16.12
375.923	15.77
376.132	15.63
376.34	15.56
376.548	15.41
376.757	15.48
376.965	15.54
377.173	15.43
377.381	15.29
377.59	15.25
377.798	14.94
378.006	14.68
378.214	14.61
378.423	14.65
378.631	14.75
378.839	14.86
379.047	14.83
379.255	14.58
379.463	14.3
379.671	14.24
379.879	14.18
380.088	14.23
380.296	14.25
380.504	14.49
380.712	14.61
380.92	14.67
381.128	14.46
381.336	14.3
381.544	14.02
381.752	14.14
381.96	14.12
382.168	14.14
382.376	14.11
382.584	14.11
382.791	14
382.999	14.02
383.207	13.83
383.415	13.92
383.623	13.93
383.831	14.1
384.039	14.17
384.247	14.13
384.454	13.87
384.662	13.82
384.87	13.92
385.078	13.68
385.285	13.55
385.493	13.5
385.701	13.5
385.909	13.56
386.116	13.37
386.324	13.36
386.532	13.22
386.739	13.27
386.947	13.25
387.155	13.28
387.362	13.42
387.57	13.31
387.778	13.5
387.985	13.43
388.193	13.42
388.4	13.42
388.608	13.17
388.816	13.3
389.023	13.21
389.231	13.24
389.438	13.04
389.646	13.12
389.853	13.17
390.061	12.85
390.268	12.74
390.475	12.65
390.683	12.71
390.89	12.66
391.098	12.45
391.305	12.44
391.512	12.38
391.72	12.36
391.927	12.31
392.135	12.12
392.342	12.19
392.549	12.09
392.756	12.02
392.964	12.02
393.171	11.92
393.378	11.93
393.586	11.9
393.793	11.78
394	11.91
394.207	11.74
394.414	11.65
394.622	11.38
394.829	11.63
395.036	11.62
395.243	11.63
395.45	11.75
395.657	11.62
395.864	11.63
396.072	11.49
396.279	11.39
396.486	11.59
396.693	11.5
396.9	11.56
397.107	11.67
397.314	12.03
397.521	11.89
397.728	11.64
397.935	11.61
398.142	11.59
398.349	11.63
398.556	11.61
398.763	11.6
398.97	11.61
399.177	11.46
399.383	11.35
399.59	11.3
399.797	11.26
400.004	11.19
400.211	11.23
400.418	11.24
400.625	11.21
400.831	11.15
401.038	11.12
401.245	11.05
401.452	10.95
401.658	11.08
401.865	11.13
402.072	11.12
402.279	11.1
402.485	10.98
402.692	10.63
402.899	10.5
403.105	10.38
403.312	10.31
403.519	10.31
403.725	10.21
403.932	10.14
404.138	10.21
404.345	10.05
404.552	10.06
404.758	10.14
404.965	9.94
405.171	9.93
405.378	9.95
405.584	9.95
405.791	9.85
405.997	9.86
406.204	9.88
406.41	9.93
406.617	10.01
406.823	9.89
407.029	9.81
407.236	9.73
407.442	9.63
407.649	9.56
407.855	9.49
408.061	9.57
408.268	9.71
408.474	9.86
408.68	9.83
408.887	9.84
409.093	9.76
409.299	9.73
409.505	9.71
409.712	9.77
409.918	9.7
410.124	9.68
410.33	9.85
410.537	9.8
410.743	9.68
410.949	9.42
411.155	9.34
411.361	9.33
411.567	9.04
411.773	8.94
411.98	9.02
412.186	9.09
412.392	8.98
412.598	8.98
412.804	8.93
413.01	8.89
413.216	9
413.422	9.22
413.628	9.25
413.834	9.25
414.04	9.25
414.246	9.4
414.452	9.4
414.658	9.22
414.864	9.16
415.07	9.26
415.275	9.24
415.481	9.18
415.687	9.11
415.893	9.04
416.099	8.98
416.305	8.96
416.511	8.95
416.716	8.9
416.922	8.86
417.128	8.82
417.334	8.9
417.539	8.87
417.745	8.83
417.951	8.8
418.157	8.81
418.362	8.85
418.568	8.83
418.774	8.7
418.979	8.67
419.185	8.59
419.391	8.58
419.596	8.57
419.802	8.59
420.008	8.07
420.213	8.04
420.419	7.98
420.624	7.94
420.83	7.9
421.035	7.88
421.241	7.85
421.446	7.85
421.652	7.87
421.857	7.82
422.063	7.76
422.268	7.65
422.474	7.6
422.679	8
422.885	7.94
423.09	7.9
423.295	7.89
423.501	7.87
423.706	7.8
423.911	7.75
424.117	7.7
424.322	7.64
424.527	7.69
424.733	7.62
424.938	7.65
425.143	7.68
425.349	7.66
425.554	7.74
425.759	7.78
425.964	7.76
426.169	7.77
426.375	7.84
426.58	7.82
426.785	7.93
426.99	7.93
427.195	7.94
427.4	8.03
427.605	8.12
427.811	8.14
428.016	8.13
428.221	8.05
428.426	7.97
428.631	7.92
428.836	7.9
429.041	7.82
429.246	7.82
429.451	7.73
429.656	7.66
429.861	7.68
430.066	7.71
430.271	7.59
430.476	7.51
430.681	7.61
430.886	7.69
431.09	7.7
431.295	7.73
431.5	7.68
431.705	7.72
431.91	7.72
432.115	7.7
432.32	7.7
432.524	7.64
432.729	7.6
432.934	7.6
433.139	7.62
433.343	7.47
433.548	7.29
433.753	7.32
433.958	7.24
434.162	7.25
434.367	7.3
434.572	7.34
434.776	7.44
434.981	7.41
435.186	7.38
435.39	7.28
435.595	7.26
435.799	7.26
436.004	7.29
436.209	7.42
436.413	7.35
436.618	7.42
436.822	7.43
437.027	7.36
437.231	7.17
437.436	7.15
437.64	7.27
437.845	7.33
438.049	7.36
438.253	7.37
438.458	7.31
438.662	7.28
438.867	7.34
439.071	7.26
439.275	7.26
439.48	7.27
439.684	7.22
439.888	7.41
440.093	7.36
440.297	7.35
440.501	7.31
440.706	7.38
440.91	7.37
441.114	7.43
441.318	7.45
441.523	7.38
441.727	7.44
441.931	7.45
442.135	7.43
442.339	7.48
442.543	7.46
442.748	7.48
442.952	7.5
443.156	7.49
443.36	7.45
443.564	7.4
443.768	7.31
443.972	7.33
444.176	7.35
444.38	7.33
444.584	7.28
444.788	7.29
444.992	7.26
445.196	7.2
445.4	7.04
445.604	6.95
445.808	6.92
446.012	6.84
446.216	6.81
446.42	6.83
446.624	6.78
446.828	6.75
447.032	6.77
447.235	6.75
447.439	6.73
447.643	6.72
447.847	6.7
448.051	6.84
448.254	6.85
448.458	6.89
448.662	6.99
448.866	7.06
449.069	7.03
449.273	7.05
449.477	6.99
449.681	6.99
449.884	7.03
450.088	6.99
450.292	6.97
450.495	6.98
450.699	6.95
450.902	6.89
451.106	6.79
451.31	6.7
451.513	6.73
451.717	6.8
451.92	6.8
452.124	6.74
452.327	6.69
452.531	6.71
452.734	6.69
452.938	6.65
453.141	6.57
453.345	6.58
453.548	6.6
453.752	6.69
453.955	6.67
454.158	6.55
454.362	6.49
454.565	6.45
454.769	6.52
454.972	6.55
455.175	6.48
455.379	6.51
455.582	6.53
455.785	6.66
455.988	6.64
456.192	6.57
456.395	6.5
456.598	6.52
456.801	6.58
457.005	6.57
457.208	6.56
457.411	6.59
457.614	6.55
457.817	6.54
458.021	6.49
458.224	6.5
458.427	6.45
458.63	6.43
458.833	6.47
459.036	6.53
459.239	6.5
459.442	6.53
459.645	6.54
459.848	6.63
460.051	6.67
460.254	6.68
460.457	6.7
460.66	6.8
460.863	6.77
461.066	6.77
461.269	6.75
461.472	6.76
461.675	6.6
461.878	6.68
462.081	6.65
462.284	6.58
462.486	6.45
462.689	6.34
462.892	6.32
463.095	6.34
