Data from 2938554_Reflection_1.txt Node
Date: Sun Jun 14 23:51:37 EDT 2015
User: robert
Spectrometer: USB4E03002
Autoset integration time: false
Trigger mode: 4
Integration Time (sec): 1.000000E-1
Scans to average: 10
Electric dark correction enabled: true
Nonlinearity correction enabled: false
Boxcar width: 5
Stray light correction enabled: false
XAxis mode: Wavelengths
Stop averaging: false
Number of Pixels in Spectrum: 3648
>>>>>Begin Spectral Data<<<<<
177.575	196.37
177.794	-478.34
178.014	607.02
178.233	-298.63
178.452	-44.99
178.672	166.41
178.891	66.1
179.11	73.65
179.33	58.76
179.549	61.45
179.768	127.31
179.987	94.84
180.207	113.32
180.426	134.51
180.645	182.34
180.864	134.85
181.084	76.3
181.303	57.16
181.522	55.87
181.741	50.45
181.96	-23.31
182.179	-40.66
182.398	31.37
182.618	63.34
182.837	-28.09
183.056	33.9
183.275	68.51
183.494	62.35
183.713	79.74
183.932	71.52
184.151	49.39
184.37	69.89
184.589	59.6
184.808	150.03
185.027	77.29
185.246	-14.9
185.465	-60.43
185.684	-6.14
185.903	1.99
186.122	92.53
186.341	126.75
186.56	180.92
186.779	157.33
186.998	74.58
187.216	57.03
187.435	44.58
187.654	77.42
187.873	60.96
188.092	92.45
188.311	224.43
188.53	249.82
188.748	-222.02
188.967	-46.47
189.186	-736.97
189.405	-1209.07
189.623	-640.58
189.842	-4405.56
190.061	-585.31
190.28	-1022.01
190.498	186.76
190.717	77.96
190.936	97.81
191.154	56.04
191.373	49.74
191.592	45.87
191.81	25.88
192.029	-5.22
192.248	102.82
192.466	119.4
192.685	27.45
192.904	46.98
193.122	113.37
193.341	-126.83
193.559	-100.31
193.778	249.59
193.996	50.64
194.215	49.74
194.433	54.64
194.652	13.46
194.87	30.11
195.089	42.47
195.307	18.79
195.526	37.69
195.744	27.35
195.963	44.09
196.181	40.34
196.399	47.78
196.618	119
196.836	109.54
197.055	112.61
197.273	144.44
197.491	339.96
197.71	210.49
197.928	163.04
198.146	231.88
198.365	283.42
198.583	394.82
198.801	425.97
199.019	286.4
199.238	670.86
199.456	247.63
199.674	233.44
199.892	194.93
200.111	212.55
200.329	432.9
200.547	324.35
200.765	218.2
200.983	170.38
201.202	150.91
201.42	108.66
201.638	98.4
201.856	103.64
202.074	101.48
202.292	79.99
202.51	63.12
202.728	53.15
202.946	38.94
203.165	-1.5
203.383	-82.67
203.601	-57.43
203.819	127.74
204.037	2197.62
204.255	311.72
204.473	241.54
204.691	159.09
204.909	149.55
205.127	144.93
205.345	222.61
205.562	166.55
205.78	51.81
205.998	-454.01
206.216	-1389.66
206.434	-3167.82
206.652	-220.85
206.87	-133.96
207.088	1676.03
207.306	-1183
207.523	-54.72
207.741	-11.39
207.959	-14.54
208.177	-4.31
208.395	-38.55
208.612	-37.77
208.83	-35.42
209.048	-39.36
209.266	-42.16
209.483	-32.82
209.701	-37.24
209.919	-25.24
210.136	-59.65
210.354	-86.53
210.572	-203.24
210.79	-274.32
211.007	-443.2
211.225	-1909.88
211.442	352.39
211.66	192
211.878	199.73
212.095	-71.68
212.313	-110.03
212.53	-93.89
212.748	-55.55
212.966	-6.61
213.183	7.67
213.401	1.29
213.618	-0.26
213.836	11.03
214.053	5.82
214.271	8.73
214.488	11.48
214.705	35.36
214.923	42.83
215.14	42.44
215.358	34
215.575	23.6
215.793	31.79
216.01	7.27
216.227	-46.26
216.445	13.91
216.662	-26.83
216.879	-56.5
217.097	-151.21
217.314	-96.11
217.531	-108.39
217.749	-118.03
217.966	-123.06
218.183	-220.34
218.4	-60.43
218.618	-77.97
218.835	-68.36
219.052	-59.86
219.269	-36.12
219.487	-35.95
219.704	-41.18
219.921	-42
220.138	-38.35
220.355	-34.76
220.572	-32.05
220.79	-45.41
221.007	-20.87
221.224	-28.99
221.441	-22.63
221.658	-39.67
221.875	-29.78
222.092	-30.73
222.309	-36.27
222.526	-35.43
222.743	-23.74
222.96	-24.04
223.177	-21.01
223.394	-24.4
223.611	-19.35
223.828	-21.1
224.045	-13
224.262	-10.79
224.479	-8.59
224.696	-4.7
224.913	-3.4
225.13	-6.47
225.347	-3.29
225.564	-2.33
225.781	-1.4
225.997	1.16
226.214	4.2
226.431	3.08
226.648	3.55
226.865	5.38
227.082	6.16
227.298	6.06
227.515	6.79
227.732	7.77
227.949	7.54
228.165	7.52
228.382	6.41
228.599	4.63
228.816	6.27
229.032	6.37
229.249	5.7
229.466	6.67
229.682	6.81
229.899	7.04
230.116	6.32
230.332	6.25
230.549	6.83
230.765	5.92
230.982	5.54
231.199	6.39
231.415	5.4
231.632	4.85
231.848	3.44
232.065	2.02
232.281	1.76
232.498	2.6
232.714	3.14
232.931	2.76
233.147	5.16
233.364	7.69
233.58	3.73
233.797	5.02
234.013	5.07
234.23	4.75
234.446	5.09
234.662	5.1
234.879	4.66
235.095	3.6
235.312	2.92
235.528	1.67
235.744	1.32
235.961	5.95
236.177	5.41
236.393	4.9
236.61	4.12
236.826	3.65
237.042	3.19
237.258	3.44
237.475	3.91
237.691	6.94
237.907	7.4
238.123	8.66
238.339	6.49
238.556	5.54
238.772	3.39
238.988	4.9
239.204	7.15
239.42	6.8
239.636	6.49
239.853	6.53
240.069	6.02
240.285	5.76
240.501	5.42
240.717	6.24
240.933	6.16
241.149	7.34
241.365	7.18
241.581	6.08
241.797	6.34
242.013	6.39
242.229	6.2
242.445	5.76
242.661	5.74
242.877	5.94
243.093	5
243.309	5.66
243.525	5.33
243.741	4.5
243.957	4.23
244.173	4.53
244.388	4.73
244.604	4.96
244.82	4.82
245.036	5.23
245.252	4.55
245.468	5.3
245.683	5.26
245.899	5.35
246.115	5.76
246.331	6.03
246.547	5.71
246.762	5.88
246.978	6.43
247.194	6.73
247.409	6.64
247.625	7.31
247.841	6.4
248.057	6.18
248.272	6.27
248.488	6.3
248.703	6.77
248.919	7.4
249.135	6.81
249.35	6.02
249.566	5.08
249.782	5.54
249.997	5.24
250.213	5.75
250.428	6.37
250.644	6.01
250.859	6.44
251.075	5.29
251.29	5.2
251.506	5.98
251.721	4.84
251.937	6
252.152	5.92
252.368	6.56
252.583	6.52
252.798	5.23
253.014	5.66
253.229	3.46
253.445	5.09
253.66	5.36
253.875	3.12
254.091	3.22
254.306	2.69
254.521	1.28
254.737	1.12
254.952	1.34
255.167	1.54
255.383	2.82
255.598	4.06
255.813	3.78
256.028	3.02
256.244	3.8
256.459	4.17
256.674	4.19
256.889	4.31
257.104	4.61
257.32	4.53
257.535	4.7
257.75	4.19
257.965	3.99
258.18	4.04
258.395	4.12
258.61	4.05
258.826	4.06
259.041	3.6
259.256	3.69
259.471	2.97
259.686	2.95
259.901	3.17
260.116	2.95
260.331	2.79
260.546	2.87
260.761	3.07
260.976	2.97
261.191	2.47
261.406	3.36
261.621	3.38
261.836	4.03
262.05	3.94
262.265	3.47
262.48	4.02
262.695	4.28
262.91	3.13
263.125	2.33
263.34	1.54
263.555	2.23
263.769	1.47
263.984	1.42
264.199	1.68
264.414	2.05
264.629	1.9
264.843	1.83
265.058	1.56
265.273	2.13
265.488	2.42
265.702	3.16
265.917	3.42
266.132	3.6
266.346	3.85
266.561	3.31
266.776	2.52
266.99	2.54
267.205	2.5
267.42	2.57
267.634	2.67
267.849	2.36
268.063	2.81
268.278	2.8
268.492	2.76
268.707	2.44
268.922	2.71
269.136	3.1
269.351	3.21
269.565	3.4
269.78	3.62
269.994	3.12
270.209	3.03
270.423	2.9
270.637	2.57
270.852	2.79
271.066	2.74
271.281	2.51
271.495	2.61
271.709	2.42
271.924	2.02
272.138	1.64
272.353	1.56
272.567	1.84
272.781	1.3
272.996	1.31
273.21	0.87
273.424	1.16
273.638	1.83
273.853	2.06
274.067	2.62
274.281	2.54
274.495	2.56
274.71	3.1
274.924	2.95
275.138	3.33
275.352	3.43
275.566	3.67
275.781	3.66
275.995	3.39
276.209	3.19
276.423	3.41
276.637	3.76
276.851	4.16
277.065	4.26
277.279	5.03
277.493	4.86
277.707	4.07
277.921	3.92
278.135	3.4
278.349	3.14
278.563	2.95
278.777	2.5
278.991	2.53
279.205	1.94
279.419	1.91
279.633	1.26
279.847	1.55
280.061	2.23
280.275	2.19
280.489	2.57
280.703	3.21
280.917	2.88
281.131	2.68
281.344	2.06
281.558	2.79
281.772	2.98
281.986	3.12
282.2	2.98
282.414	3.25
282.627	3.36
282.841	3.53
283.055	3
283.269	3.28
283.482	3.42
283.696	3.82
283.91	3.17
284.123	3.02
284.337	3.07
284.551	3.17
284.764	3.33
284.978	3.37
285.192	3.04
285.405	3.28
285.619	3.44
285.833	3.71
286.046	3.68
286.26	3.94
286.473	3.86
286.687	4.13
286.9	4.05
287.114	3.54
287.327	3.52
287.541	3.54
287.754	3.24
287.968	3.2
288.181	3.19
288.395	3.27
288.608	3.05
288.822	3.13
289.035	2.68
289.248	2.59
289.462	2.77
289.675	2.7
289.889	2.73
290.102	3.14
290.315	2.94
290.529	3.01
290.742	2.93
290.955	3.11
291.169	3.22
291.382	3.61
291.595	3.9
291.808	4.14
292.022	4.35
292.235	4.65
292.448	4.19
292.661	4.27
292.875	4.08
293.088	4.22
293.301	4.33
293.514	4.43
293.727	4.28
293.94	4.22
294.153	3.9
294.367	3.94
294.58	4.08
294.793	4.34
295.006	4.23
295.219	4.24
295.432	4.16
295.645	4.16
295.858	4.02
296.071	4.03
296.284	4.06
296.497	4.32
296.71	4.36
296.923	3.98
297.136	3.72
297.349	3.79
297.562	3.58
297.775	3.95
297.988	4.22
298.201	4.41
298.414	4.19
298.626	4.41
298.839	4.69
299.052	4.5
299.265	4.68
299.478	4.85
299.691	5.19
299.903	5.2
300.116	5.02
300.329	4.48
300.542	3.89
300.755	4.02
300.967	3.35
301.18	2.96
301.393	2.89
301.605	2.8
301.818	2.97
302.031	2.75
302.243	3.05
302.456	2.96
302.669	3.16
302.881	3.81
303.094	4.28
303.307	4.87
303.519	4.96
303.732	5.3
303.944	5.41
304.157	5.37
304.37	5.55
304.582	5.47
304.795	5.24
305.007	5.23
305.22	5.18
305.432	4.99
305.645	4.78
305.857	4.58
306.069	4.27
306.282	4.32
306.494	3.9
306.707	3.88
306.919	4.08
307.132	4.23
307.344	4.5
307.556	4.43
307.769	4.49
307.981	4.65
308.193	4.92
308.406	5.04
308.618	5.25
308.83	5.58
309.043	5.45
309.255	5.34
309.467	5.56
309.679	5.52
309.892	5.77
310.104	5.73
310.316	5.52
310.528	5.45
310.74	5.68
310.953	5.32
311.165	5.45
311.377	5.07
311.589	5.41
311.801	5.73
312.013	5.81
312.225	5.68
312.437	5.58
312.649	6.3
312.862	6
313.074	5.22
313.286	5.57
313.498	5.32
313.71	5.83
313.922	5.19
314.134	4.89
314.346	4.45
314.558	4.71
314.77	4.97
314.982	4.33
315.193	4.8
315.405	5.42
315.617	5.57
315.829	5.71
316.041	5.89
316.253	6.09
316.465	5.84
316.677	6.48
316.888	6.02
317.1	6.21
317.312	6.07
317.524	6.22
317.736	5.91
317.947	5.67
318.159	5.69
318.371	5.45
318.583	5.69
318.794	5.64
319.006	5.87
319.218	6.06
319.43	5.83
319.641	5.83
319.853	5.72
320.064	6.63
320.276	6.6
320.488	6.95
320.699	7
320.911	7.06
321.123	6.87
321.334	6.91
321.546	6.95
321.757	6.68
321.969	7.28
322.18	6.96
322.392	6.32
322.603	6.51
322.815	6.57
323.026	6.6
323.238	7.09
323.449	7.26
323.661	6.98
323.872	6.79
324.083	7.27
324.295	6.58
324.506	6.77
324.718	7.21
324.929	6.7
325.14	6.25
325.352	6.06
325.563	5.4
325.774	5.67
325.986	5.64
326.197	5.77
326.408	5.75
326.62	6.25
326.831	6.4
327.042	6.24
327.253	6.73
327.464	7.27
327.676	7.27
327.887	7.28
328.098	6.97
328.309	7.33
328.52	7.42
328.732	7.44
328.943	7.4
329.154	7.09
329.365	7.4
329.576	7.48
329.787	7.21
329.998	7.57
330.209	7.7
330.42	7.89
330.631	7.81
330.842	7.78
331.053	7.61
331.264	7.67
331.475	8.17
331.686	8.09
331.897	7.98
332.108	8.07
332.319	8.09
332.53	7.82
332.741	7.96
332.952	7.8
333.163	7.69
333.374	7.96
333.585	8.13
333.795	8
334.006	8.01
334.217	8.09
334.428	8.09
334.639	7.99
334.849	8.37
335.06	8.24
335.271	8.28
335.482	8.42
335.692	8.11
335.903	7.64
336.114	7.63
336.325	7.3
336.535	7.25
336.746	7.18
336.957	7.27
337.167	7.3
337.378	7.5
337.589	7.46
337.799	7.55
338.01	7.9
338.22	8.31
338.431	8.63
338.642	8.63
338.852	8.45
339.063	8.36
339.273	8.51
339.484	8.19
339.694	7.94
339.905	7.51
340.115	7.24
340.326	6.82
340.536	6.68
340.746	6.39
340.957	6.63
341.167	6.57
341.378	7.03
341.588	7.18
341.799	7.06
342.009	7.34
342.219	7.71
342.43	7.98
342.64	8.17
342.85	8.23
343.061	8.69
343.271	8.61
343.481	8.89
343.691	8.63
343.902	8.59
344.112	8.89
344.322	8.93
344.532	8.59
344.743	8.62
344.953	8.46
345.163	8.46
345.373	7.82
345.583	7.87
345.793	7.66
346.004	7.63
346.214	7.43
346.424	7.56
346.634	7.13
346.844	7.59
347.054	7.45
347.264	7.5
347.474	7.44
347.684	8.02
347.894	7.86
348.104	7.85
348.314	7.74
348.524	7.46
348.734	7.46
348.944	7.63
349.154	7.71
349.364	7.87
349.574	7.87
349.784	8.09
349.994	7.56
350.204	7.9
350.413	8.31
350.623	8.52
350.833	9.12
351.043	8.99
351.253	9.19
351.463	8.94
351.672	8.67
351.882	8.67
352.092	8.49
352.302	8.34
352.511	8
352.721	7.81
352.931	7.58
353.141	7.2
353.35	7.35
353.56	7.13
353.77	7.59
353.979	7.57
354.189	7.82
354.399	7.83
354.608	8.02
354.818	7.98
355.027	8
355.237	8.06
355.447	8.26
355.656	8.27
355.866	8.13
356.075	7.8
356.285	8.06
356.494	7.87
356.704	7.91
356.913	7.9
357.123	7.79
357.332	7.85
357.542	7.87
357.751	7.89
357.96	7.72
358.17	7.64
358.379	7.69
358.589	7.72
358.798	7.64
359.007	7.65
359.217	7.64
359.426	7.75
359.635	7.65
359.845	7.73
360.054	7.59
360.263	7.72
360.472	7.95
360.682	7.91
360.891	7.77
361.1	7.81
361.309	7.72
361.519	7.69
361.728	7.62
361.937	7.55
362.146	7.31
362.355	7.13
362.564	7.06
362.774	6.74
362.983	6.74
363.192	6.67
363.401	6.45
363.61	6.44
363.819	6.35
364.028	6.42
364.237	6.23
364.446	6.34
364.655	6.4
364.864	6.1
365.073	6.3
365.282	6.01
365.491	5.92
365.7	6.26
365.909	6.03
366.118	6.19
366.327	6.17
366.536	6.41
366.745	6.57
366.954	6.46
367.162	6.68
367.371	6.58
367.58	6.61
367.789	6.65
367.998	6.63
368.207	6.99
368.415	7.01
368.624	6.8
368.833	6.82
369.042	6.73
369.25	6.8
369.459	7.11
369.668	7.1
369.877	7.23
370.085	7.6
370.294	7.73
370.503	7.52
370.711	7.4
370.92	7.64
371.129	7.43
371.337	7.17
371.546	7.12
371.754	6.64
371.963	6.66
372.171	6.76
372.38	6.53
372.589	6.28
372.797	6.05
373.006	5.94
373.214	5.82
373.423	5.95
373.631	6.34
373.84	6.24
374.048	6.31
374.256	6.19
374.465	5.84
374.673	5.9
374.882	5.84
375.09	6.09
375.298	6.2
375.507	6.26
375.715	6.27
375.923	5.87
376.132	5.91
376.34	6
376.548	6.17
376.757	6.32
376.965	6.08
377.173	5.98
377.381	6.12
377.59	5.97
377.798	6.12
378.006	5.99
378.214	6.09
378.423	6.25
378.631	6.3
378.839	6.15
379.047	6.09
379.255	6.26
379.463	6.36
379.671	6.13
379.879	6.03
380.088	5.86
380.296	5.93
380.504	6.05
380.712	6.02
380.92	6.02
381.128	6.08
381.336	6.2
381.544	6.06
381.752	6.03
381.96	6.04
382.168	6
382.376	5.78
382.584	5.75
382.791	5.56
382.999	5.61
383.207	5.52
383.415	5.51
383.623	5.46
383.831	5.32
384.039	5.25
384.247	5.2
384.454	5.52
384.662	5.76
384.87	5.7
385.078	5.73
385.285	5.65
385.493	5.44
385.701	5.41
385.909	5.43
386.116	5.52
386.324	5.61
386.532	5.71
386.739	5.41
386.947	5.2
387.155	5.37
387.362	5.41
387.57	5.44
387.778	5.55
387.985	5.48
388.193	5.63
388.4	5.86
388.608	5.88
388.816	5.59
389.023	5.67
389.231	6
389.438	5.86
389.646	5.97
389.853	6.01
390.061	5.94
390.268	6.16
390.475	6.04
390.683	6.09
390.89	5.95
391.098	6.24
391.305	6.22
391.512	5.89
391.72	5.91
391.927	6.07
392.135	5.91
392.342	5.97
392.549	5.82
392.756	5.89
392.964	5.53
393.171	5.6
393.378	5.41
393.586	5.3
393.793	5.57
394	5.49
394.207	5.25
394.414	5.18
394.622	5.15
394.829	5.13
395.036	4.94
395.243	4.96
395.45	4.86
395.657	4.85
395.864	5
396.072	5.01
396.279	5.12
396.486	5.1
396.693	5.07
396.9	4.84
397.107	4.81
397.314	4.84
397.521	5.04
397.728	5.35
397.935	5.28
398.142	5.29
398.349	5.25
398.556	5.29
398.763	5.26
398.97	5.36
399.177	5.62
399.383	5.58
399.59	5.67
399.797	5.45
400.004	5.11
400.211	5.47
400.418	5.43
400.625	5.17
400.831	5.14
401.038	5.08
401.245	5.15
401.452	5.12
401.658	5.16
401.865	4.94
402.072	4.85
402.279	4.9
402.485	4.75
402.692	4.72
402.899	4.67
403.105	4.63
403.312	4.76
403.519	4.65
403.725	4.62
403.932	4.7
404.138	4.66
404.345	4.75
404.552	4.79
404.758	4.66
404.965	4.82
405.171	4.9
405.378	4.99
405.584	4.85
405.791	4.96
405.997	4.98
406.204	4.96
406.41	5.21
406.617	5.47
406.823	5.44
407.029	5.58
407.236	5.43
407.442	5.35
407.649	5.11
407.855	5.32
408.061	5.22
408.268	5.21
408.474	5.04
408.68	5.01
408.887	4.8
409.093	4.78
409.299	4.76
409.505	4.85
409.712	4.94
409.918	4.99
410.124	4.84
410.33	4.86
410.537	4.98
410.743	5.08
410.949	5.03
411.155	5.15
411.361	5.09
411.567	4.94
411.773	4.95
411.98	5.14
412.186	5.2
412.392	5.18
412.598	5.1
412.804	4.79
413.01	4.8
413.216	4.91
413.422	4.86
413.628	4.84
413.834	4.87
414.04	4.88
414.246	4.82
414.452	4.54
414.658	4.45
414.864	4.74
415.07	4.82
415.275	4.71
415.481	4.61
415.687	4.62
415.893	4.72
416.099	4.71
416.305	4.64
416.511	4.6
416.716	4.84
416.922	4.92
417.128	4.76
417.334	4.72
417.539	4.74
417.745	4.66
417.951	4.6
418.157	4.63
418.362	4.67
418.568	4.6
418.774	4.56
418.979	4.57
419.185	4.57
419.391	4.58
419.596	4.69
419.802	4.7
420.008	4.83
420.213	4.8
420.419	4.71
420.624	4.75
420.83	4.8
421.035	4.82
421.241	4.77
421.446	4.79
421.652	4.84
421.857	4.77
422.063	4.78
422.268	4.74
422.474	4.83
422.679	4.86
422.885	4.75
423.09	4.77
423.295	4.72
423.501	4.75
423.706	4.71
423.911	4.71
424.117	4.71
424.322	4.75
424.527	4.74
424.733	4.7
424.938	4.74
425.143	4.78
425.349	4.8
425.554	4.88
425.759	4.8
425.964	4.76
426.169	4.69
426.375	4.72
426.58	4.6
426.785	4.54
426.99	4.58
427.195	4.57
427.4	4.55
427.605	4.5
427.811	4.51
428.016	4.68
428.221	4.8
428.426	4.89
428.631	4.83
428.836	4.9
429.041	4.98
429.246	4.86
429.451	4.88
429.656	4.88
429.861	4.94
430.066	4.96
430.271	4.89
430.476	4.77
430.681	4.7
430.886	4.74
431.09	4.76
431.295	4.69
431.5	4.71
431.705	4.79
431.91	4.78
432.115	4.69
432.32	4.65
432.524	4.65
432.729	4.71
432.934	4.79
433.139	4.76
433.343	4.74
433.548	4.65
433.753	4.71
433.958	4.54
434.162	4.51
434.367	4.55
434.572	4.51
434.776	4.58
434.981	4.53
435.186	4.4
435.39	4.38
435.595	4.52
435.799	4.58
436.004	4.62
436.209	4.61
436.413	4.64
436.618	4.65
436.822	4.76
437.027	4.62
437.231	4.6
437.436	4.64
437.64	4.7
437.845	4.64
438.049	4.57
438.253	4.51
438.458	4.56
438.662	4.59
438.867	4.54
439.071	4.48
439.275	4.47
439.48	4.58
439.684	4.56
439.888	4.54
440.093	4.57
440.297	4.69
440.501	4.64
440.706	4.62
440.91	4.62
441.114	4.7
441.318	4.62
441.523	4.69
441.727	4.63
441.931	4.68
442.135	4.7
442.339	4.63
442.543	4.55
442.748	4.66
442.952	4.66
443.156	4.7
443.36	4.67
443.564	4.68
443.768	4.65
443.972	4.53
444.176	4.45
444.38	4.35
444.584	4.25
444.788	4.29
444.992	4.26
445.196	4.27
445.4	4.27
445.604	4.17
445.808	4.2
446.012	4.19
446.216	4.33
446.42	4.3
446.624	4.35
446.828	4.47
447.032	4.42
447.235	4.46
447.439	4.51
447.643	4.45
447.847	4.5
448.051	4.51
448.254	4.42
448.458	4.35
448.662	4.43
448.866	4.44
449.069	4.28
449.273	4.37
449.477	4.25
449.681	4.15
449.884	4.14
450.088	4.1
450.292	4.05
450.495	4.15
450.699	4.08
450.902	4.11
451.106	4.06
451.31	4.21
451.513	4.18
451.717	4.22
451.92	4.23
452.124	4.3
452.327	4.29
452.531	4.29
452.734	4.27
452.938	4.19
453.141	4.16
453.345	4.26
453.548	4.24
453.752	4.21
453.955	4.17
454.158	4.24
454.362	4.13
454.565	4.2
454.769	4.22
454.972	4.32
455.175	4.43
455.379	4.45
455.582	4.39
455.785	4.34
455.988	4.46
456.192	4.48
456.395	4.42
456.598	4.48
456.801	4.39
457.005	4.43
457.208	4.39
457.411	4.4
457.614	4.37
457.817	4.36
458.021	4.42
458.224	4.36
458.427	4.46
458.63	4.44
458.833	4.47
459.036	4.56
459.239	4.5
459.442	4.53
459.645	4.52
459.848	4.56
460.051	4.59
460.254	4.55
460.457	4.57
460.66	4.4
460.863	4.35
461.066	4.39
461.269	4.29
461.472	4.34
461.675	4.3
461.878	4.25
462.081	4.22
462.284	4.25
462.486	4.22
462.689	4.26
462.892	4.3
463.095	4.35
463.298	4.29
463.5	4.5
463.703	4.53
463.906	4.56
464.109	4.76
464.311	4.76
464.514	4.7
464.717	4.75
464.92	4.63
465.122	4.67
465.325	4.75
465.528	4.68
465.73	4.58
465.933	4.57
466.135	4.54
466.338	4.42
466.541	4.37
466.743	4.4
466.946	4.43
467.148	4.44
467.351	4.41
467.553	4.41
467.756	4.45
467.958	4.58
468.161	4.55
468.363	4.58
468.566	4.51
468.768	4.56
468.971	4.67
469.173	4.63
469.375	4.61
469.578	4.52
469.78	4.55
469.983	4.55
470.185	4.4
470.387	4.39
470.59	4.37
470.792	4.45
470.994	4.5
471.196	4.41
