Data from 2938466_Reflection_2.txt Node
Date: Wed Jun 17 13:49:01 EDT 2015
User: robert
Spectrometer: USB4E03002
Autoset integration time: false
Trigger mode: 4
Integration Time (sec): 1.000000E-1
Scans to average: 10
Electric dark correction enabled: true
Nonlinearity correction enabled: false
Boxcar width: 5
Stray light correction enabled: false
XAxis mode: Wavelengths
Stop averaging: false
Number of Pixels in Spectrum: 3648
>>>>>Begin Spectral Data<<<<<
177.575	-135.92
177.794	-266.81
178.014	-70.24
178.233	-131.84
178.452	164.7
178.672	332.5
178.891	-57.1
179.11	-216.93
179.33	2486.46
179.549	-5717.28
179.768	-360.98
179.987	-119.26
180.207	-661.81
180.426	-71.38
180.645	92.19
180.864	80.53
181.084	98.62
181.303	92.93
181.522	111.2
181.741	192.48
181.96	132.74
182.179	149.43
182.398	120.77
182.618	132.45
182.837	138.23
183.056	378.35
183.275	279.93
183.494	259.04
183.713	224.31
183.932	1040.9
184.151	356.41
184.37	243.66
184.589	155.23
184.808	137.85
185.027	329.54
185.246	195.86
185.465	158.19
185.684	134.88
185.903	161.64
186.122	85.85
186.341	82.29
186.56	75.82
186.779	125.01
186.998	130.69
187.216	104.69
187.435	87.78
187.654	101.64
187.873	98.41
188.092	115.79
188.311	104.18
188.53	118.87
188.748	124.36
188.967	134.25
189.186	123.5
189.405	158.05
189.623	78.35
189.842	95.59
190.061	-219.6
190.28	-4.85
190.498	-8.13
190.717	-390.07
190.936	-3.43
191.154	-26.25
191.373	-21.21
191.592	-93.38
191.81	0.13
192.029	26.11
192.248	-163.56
192.466	43.53
192.685	44.15
192.904	28.6
193.122	6
193.341	59.56
193.559	51.44
193.778	39.77
193.996	71.49
194.215	79
194.433	76.88
194.652	97.51
194.87	68.46
195.089	45.22
195.307	37.7
195.526	87.27
195.744	87
195.963	103.21
196.181	76.45
196.399	54.03
196.618	81.47
196.836	85.8
197.055	65.41
197.273	67.53
197.491	68.56
197.71	97.09
197.928	80.43
198.146	61.49
198.365	45.74
198.583	62.82
198.801	61.35
199.019	29.98
199.238	49.73
199.456	53.14
199.674	52.35
199.892	57.61
200.111	3.28
200.329	-12.13
200.547	37.64
200.765	32.11
200.983	35.68
201.202	41.74
201.42	56.88
201.638	41.63
201.856	19.35
202.074	31.27
202.292	34.36
202.51	49.83
202.728	46.4
202.946	45.34
203.165	34.88
203.383	34.37
203.601	38.63
203.819	56.85
204.037	60.22
204.255	63.96
204.473	50.77
204.691	43.12
204.909	51.94
205.127	57.93
205.345	38.11
205.562	59.58
205.78	75.68
205.998	65.76
206.216	56.8
206.434	51.55
206.652	62.22
206.87	59.64
207.088	55.48
207.306	37.62
207.523	39.22
207.741	51.6
207.959	29.94
208.177	20.31
208.395	33.63
208.612	22.38
208.83	13.01
209.048	0.77
209.266	5.06
209.483	18.54
209.701	44.55
209.919	34.16
210.136	46.87
210.354	50.74
210.572	53.03
210.79	41.21
211.007	56.43
211.225	60.63
211.442	74.72
211.66	74.62
211.878	59.63
212.095	50.03
212.313	65.52
212.53	58.19
212.748	47.9
212.966	23.05
213.183	22.97
213.401	14.42
213.618	17.9
213.836	24.85
214.053	36
214.271	41.36
214.488	28.51
214.705	25.07
214.923	12.66
215.14	19.26
215.358	44.38
215.575	55.64
215.793	61.95
216.01	61.84
216.227	54.47
216.445	57.09
216.662	53.89
216.879	57.65
217.097	46.17
217.314	42.24
217.531	28.33
217.749	20.74
217.966	-10.41
218.183	-35.6
218.4	-40.69
218.618	-40.45
218.835	-85.62
219.052	-49.1
219.269	-75.59
219.487	-45.53
219.704	-20.72
219.921	-1.6
220.138	-24.41
220.355	-7.85
220.572	1.85
220.79	9.96
221.007	18.48
221.224	26.87
221.441	24.06
221.658	27.53
221.875	30.2
222.092	32.79
222.309	38.29
222.526	48.86
222.743	46.4
222.96	46.8
223.177	47.46
223.394	45.25
223.611	40.23
223.828	40.81
224.045	38.33
224.262	29.89
224.479	25.38
224.696	25.27
224.913	23.34
225.13	21.51
225.347	17.99
225.564	15.85
225.781	15.09
225.997	15.19
226.214	15.59
226.431	14.04
226.648	15.9
226.865	15.46
227.082	15.77
227.298	15.49
227.515	15.51
227.732	16.07
227.949	15.98
228.165	15.47
228.382	14.61
228.599	12.88
228.816	14.07
229.032	14.14
229.249	14.27
229.466	13.9
229.682	13.66
229.899	14.89
230.116	14.76
230.332	14.46
230.549	14.78
230.765	17.08
230.982	18.47
231.199	19.12
231.415	17.76
231.632	19.82
231.848	19.24
232.065	19.59
232.281	16.51
232.498	15.06
232.714	14.33
232.931	13.31
233.147	13.1
233.364	11.88
233.58	11.77
233.797	11.93
234.013	9.85
234.23	7.68
234.446	8.68
234.662	9.48
234.879	8.57
235.095	8.28
235.312	9.75
235.528	8.23
235.744	7.29
235.961	7.13
236.177	4.76
236.393	5.79
236.61	6.76
236.826	4.87
237.042	6.72
237.258	10.04
237.475	10.68
237.691	10.99
237.907	9.56
238.123	9.98
238.339	11.08
238.556	15.25
238.772	14.28
238.988	12.97
239.204	11.77
239.42	11.66
239.636	11.46
239.853	11.97
240.069	11.86
240.285	11.97
240.501	12.49
240.717	12.03
240.933	10.67
241.149	11.3
241.365	12.59
241.581	13.52
241.797	13.63
242.013	13.3
242.229	13.16
242.445	13.19
242.661	13.49
242.877	14.55
243.093	13.93
243.309	14.28
243.525	13.39
243.741	11.98
243.957	10.77
244.173	10.29
244.388	9.99
244.604	9.61
244.82	9.39
245.036	9.56
245.252	8.68
245.468	8.53
245.683	8.92
245.899	9.55
246.115	9.6
246.331	9.77
246.547	9.62
246.762	9.91
246.978	10.03
247.194	10.38
247.409	10.54
247.625	10.61
247.841	10.84
248.057	10.43
248.272	9.38
248.488	10.01
248.703	10.31
248.919	10.12
249.135	9.57
249.35	9.88
249.566	9.83
249.782	9.19
249.997	9.6
250.213	9.71
250.428	9.21
250.644	9.36
250.859	8.87
251.075	8.11
251.29	8.47
251.506	7.98
251.721	7.9
251.937	7.08
252.152	7.46
252.368	7.75
252.583	8.02
252.798	7.96
253.014	8.38
253.229	8.86
253.445	8.79
253.66	8.41
253.875	9.49
254.091	10.13
254.306	10.44
254.521	9.99
254.737	8.69
254.952	8.48
255.167	7.75
255.383	8.19
255.598	7.4
255.813	7.78
256.028	8.08
256.244	7.36
256.459	6.16
256.674	6.08
256.889	6.15
257.104	6.3
257.32	6.48
257.535	6.74
257.75	6.55
257.965	6.59
258.18	6.59
258.395	6.41
258.61	6.62
258.826	7.01
259.041	7.12
259.256	7.47
259.471	7.49
259.686	7.42
259.901	7.74
260.116	7.79
260.331	8.21
260.546	7.93
260.761	7.94
260.976	8
261.191	7.73
261.406	8.04
261.621	7.34
261.836	7.42
262.05	7.83
262.265	7.89
262.48	7.51
262.695	6.63
262.91	7.81
263.125	7.61
263.34	7.57
263.555	7.06
263.769	6.8
263.984	6.71
264.199	7.21
264.414	6.64
264.629	6.59
264.843	6.58
265.058	6.3
265.273	5.75
265.488	5.72
265.702	6.1
265.917	6.55
266.132	6.49
266.346	6.42
266.561	6.23
266.776	6.78
266.99	6.43
267.205	6.2
267.42	6.18
267.634	6.57
267.849	6.71
268.063	6.46
268.278	7.18
268.492	6.64
268.707	6.93
268.922	6.38
269.136	5.99
269.351	5.7
269.565	6.27
269.78	6.45
269.994	6.4
270.209	6.51
270.423	6.48
270.637	5.91
270.852	6.39
271.066	6.48
271.281	6.79
271.495	6.4
271.709	6.86
271.924	6.45
272.138	6.44
272.353	6.57
272.567	6.36
272.781	5.87
272.996	6.27
273.21	5.98
273.424	5.53
273.638	5.49
273.853	6.06
274.067	5.88
274.281	6.12
274.495	6.18
274.71	5.96
274.924	6.1
275.138	6.67
275.352	5.35
275.566	5.23
275.781	5.71
275.995	5.85
276.209	5.3
276.423	5.11
276.637	4.67
276.851	4.51
277.065	4.38
277.279	4.63
277.493	4.48
277.707	5.82
277.921	5.89
278.135	5.39
278.349	5.27
278.563	5.51
278.777	5.24
278.991	5.39
279.205	5.99
279.419	5.9
279.633	6.32
279.847	6.62
280.061	6.07
280.275	6.12
280.489	6.19
280.703	6.12
280.917	6.36
281.131	7
281.344	6.91
281.558	6.46
281.772	6.78
281.986	6.32
282.2	6.08
282.414	6.08
282.627	6.2
282.841	6.1
283.055	6.04
283.269	6.01
283.482	6.05
283.696	6.31
283.91	6.27
284.123	6.08
284.337	6.05
284.551	6.17
284.764	6.49
284.978	6.42
285.192	6.66
285.405	6.9
285.619	6.64
285.833	6.22
286.046	5.83
286.26	6.4
286.473	6.7
286.687	6.57
286.9	6.72
287.114	6.42
287.327	6.11
287.541	5.62
287.754	5.63
287.968	5.28
288.181	5.32
288.395	6.07
288.608	5.81
288.822	5.24
289.035	5.3
289.248	5.14
289.462	4.95
289.675	5.2
289.889	5.41
290.102	4.92
290.315	5.24
290.529	5.66
290.742	5.16
290.955	5.2
291.169	5.57
291.382	6.01
291.595	6.27
291.808	6.49
292.022	6.22
292.235	6.13
292.448	6.77
292.661	6.99
292.875	6.69
293.088	6.91
293.301	6.5
293.514	6.18
293.727	6
293.94	5.84
294.153	5.88
294.367	5.76
294.58	5.93
294.793	5.61
295.006	5.97
295.219	6.23
295.432	6.08
295.645	6.35
295.858	6.73
296.071	6.49
296.284	6.3
296.497	6.45
296.71	6.92
296.923	7.43
297.136	7.36
297.349	7.39
297.562	7.35
297.775	7.46
297.988	7.54
298.201	7.2
298.414	7.59
298.626	7.71
298.839	7.57
299.052	6.94
299.265	5.96
299.478	6.35
299.691	6.41
299.903	6.1
300.116	6
300.329	5.23
300.542	5.44
300.755	5.19
300.967	5.58
301.18	5.87
301.393	6.18
301.605	6.53
301.818	6.56
302.031	6.27
302.243	6.47
302.456	6.75
302.669	7.22
302.881	7.11
303.094	6.89
303.307	6.78
303.519	7.07
303.732	7.37
303.944	7.2
304.157	6.78
304.37	6.18
304.582	6.27
304.795	6.07
305.007	6.52
305.22	6.7
305.432	7.04
305.645	6.51
305.857	5.99
306.069	6.45
306.282	6.39
306.494	6.74
306.707	7.32
306.919	7.05
307.132	6.93
307.344	6.66
307.556	6.91
307.769	6.96
307.981	7.2
308.193	7.13
308.406	6.09
308.618	6.67
308.83	6.6
309.043	6.28
309.255	6.52
309.467	6.26
309.679	6.08
309.892	5.83
310.104	5.44
310.316	5.43
310.528	5.51
310.74	5.95
310.953	5.58
311.165	5.4
311.377	5.71
311.589	5.54
311.801	6.15
312.013	6.3
312.225	6.31
312.437	6.67
312.649	6.82
312.862	6.81
313.074	6.9
313.286	6.66
313.498	6.73
313.71	6.76
313.922	6.51
314.134	6.31
314.346	6.13
314.558	6.28
314.77	6.66
314.982	6.39
315.193	6.28
315.405	6.48
315.617	6.93
315.829	7.51
316.041	7.49
316.253	7.74
316.465	7.48
316.677	7.84
316.888	7.93
317.1	7.66
317.312	7.97
317.524	8.35
317.736	8.13
317.947	8.23
318.159	7.77
318.371	7.62
318.583	7.84
318.794	7.82
319.006	7.77
319.218	7.4
319.43	7.48
319.641	7.45
319.853	7.14
320.064	7.12
320.276	6.97
320.488	6.91
320.699	6.88
320.911	6.71
321.123	6.78
321.334	6.97
321.546	7.08
321.757	6.68
321.969	6.84
322.18	6.65
322.392	6.7
322.603	6.79
322.815	6.95
323.026	7.27
323.238	7.11
323.449	6.95
323.661	6.74
323.872	6.77
324.083	7.15
324.295	6.92
324.506	7.35
324.718	7.45
324.929	7.96
325.14	8.18
325.352	8.11
325.563	8.44
325.774	9.08
325.986	9.58
326.197	9.74
326.408	9.6
326.62	9.52
326.831	9.43
327.042	9.29
327.253	8.76
327.464	8.58
327.676	8.59
327.887	8.15
328.098	7.96
328.309	7.69
328.52	7.77
328.732	7.84
328.943	8.03
329.154	7.93
329.365	8.18
329.576	7.93
329.787	8.13
329.998	8.2
330.209	8.78
330.42	8.7
330.631	8.36
330.842	8.35
331.053	8.17
331.264	8.25
331.475	8.07
331.686	7.97
331.897	8.12
332.108	7.89
332.319	7.71
332.53	7.76
332.741	7.66
332.952	7.74
333.163	7.39
333.374	7.31
333.585	7.39
333.795	7.91
334.006	8.05
334.217	8.25
334.428	8.39
334.639	8.02
334.849	7.8
335.06	7.84
335.271	7.8
335.482	7.79
335.692	8.1
335.903	7.9
336.114	7.43
336.325	7.39
336.535	7.4
336.746	7.04
336.957	7.36
337.167	7.53
337.378	7.49
337.589	7.52
337.799	7.56
338.01	7.81
338.22	7.76
338.431	8
338.642	7.71
338.852	7.7
339.063	7.94
339.273	8.02
339.484	7.99
339.694	7.73
339.905	7.84
340.115	8.75
340.326	8.68
340.536	8.94
340.746	8.57
340.957	8.57
341.167	8.29
341.378	8.16
341.588	8.01
341.799	8.03
342.009	8.29
342.219	7.98
342.43	7.38
342.64	7.08
342.85	7.08
343.061	6.96
343.271	7.03
343.481	7.32
343.691	7.24
343.902	7.11
344.112	6.67
344.322	6.78
344.532	7.07
344.743	6.7
344.953	6.91
345.163	6.69
345.373	7.01
345.583	7.05
345.793	6.93
346.004	7.25
346.214	7.43
346.424	7.92
346.634	7.61
346.844	7.76
347.054	8.27
347.264	8.09
347.474	8.26
347.684	8.2
347.894	8.23
348.104	8.28
348.314	8.24
348.524	8.11
348.734	7.7
348.944	8.02
349.154	7.79
349.364	7.3
349.574	6.98
349.784	6.61
349.994	6.58
350.204	6.65
350.413	6.91
350.623	6.79
350.833	6.92
351.043	7
351.253	6.73
351.463	6.33
351.672	6.44
351.882	6.67
352.092	6.94
352.302	7.1
352.511	6.61
352.721	6.38
352.931	6.54
353.141	6.15
353.35	6.2
353.56	6.3
353.77	6.42
353.979	6.27
354.189	6.02
354.399	5.82
354.608	5.56
354.818	5.63
355.027	5.44
355.237	5.26
355.447	5.34
355.656	5.4
355.866	5.39
356.075	5.71
356.285	5.96
356.494	6.06
356.704	6.11
356.913	6.14
357.123	6.38
357.332	6.49
357.542	6.52
357.751	6.85
357.96	6.55
358.17	6.48
358.379	6.25
358.589	6.31
358.798	6.39
359.007	6.21
359.217	6.18
359.426	6.07
359.635	5.91
359.845	5.9
360.054	5.75
360.263	5.91
360.472	5.83
360.682	5.94
360.891	5.82
361.1	5.91
361.309	6.03
361.519	6
361.728	6.01
361.937	6.09
362.146	6.03
362.355	5.92
362.564	5.68
362.774	5.73
362.983	5.72
363.192	5.55
363.401	5.29
363.61	5.28
363.819	5.56
364.028	5.38
364.237	5.27
364.446	5.22
364.655	5.34
364.864	5.61
365.073	5.6
365.282	5.59
365.491	5.69
365.7	5.68
365.909	5.69
366.118	5.8
366.327	5.8
366.536	6.09
366.745	6.45
366.954	6.4
367.162	6.26
367.371	6.37
367.58	6.37
367.789	6.31
367.998	5.99
368.207	5.95
368.415	5.66
368.624	5.7
368.833	5.6
369.042	5.02
369.25	5.11
369.459	5.46
369.668	5.25
369.877	5.27
370.085	5.31
370.294	5.58
370.503	5.38
370.711	5.57
370.92	5.71
371.129	5.45
371.337	5.75
371.546	5.59
371.754	5.58
371.963	5.72
372.171	5.64
372.38	5.71
372.589	6.04
372.797	6.35
373.006	6.12
373.214	6.36
373.423	6.43
373.631	6.5
373.84	6.43
374.048	6.27
374.256	6.28
374.465	6.25
374.673	6.15
374.882	5.92
375.09	5.54
375.298	5.35
375.507	5.09
375.715	5.2
375.923	5.22
376.132	5.29
376.34	4.99
376.548	5
376.757	5.05
376.965	5.18
377.173	5.16
377.381	5.37
377.59	5.57
377.798	5.78
378.006	5.78
378.214	5.54
378.423	5.46
378.631	5.61
378.839	5.42
379.047	5.26
379.255	5.11
379.463	5.03
379.671	5.02
379.879	4.99
380.088	4.92
380.296	4.8
380.504	4.83
380.712	5.08
380.92	5.09
381.128	5.3
381.336	5.32
381.544	5.21
381.752	5.14
381.96	4.96
382.168	4.97
382.376	4.81
382.584	4.81
382.791	4.75
382.999	4.75
383.207	4.59
383.415	4.43
383.623	4.54
383.831	4.63
384.039	4.9
384.247	5.22
384.454	5.06
384.662	4.97
384.87	4.99
385.078	5.07
385.285	4.85
385.493	5.14
385.701	5.19
385.909	5.23
386.116	5.45
386.324	5.06
386.532	4.66
386.739	4.79
386.947	4.93
387.155	5.01
387.362	5.09
387.57	5.18
387.778	5.14
387.985	5.18
388.193	4.96
388.4	4.6
388.608	4.82
388.816	4.88
389.023	4.9
389.231	4.64
389.438	4.71
389.646	4.74
389.853	4.57
390.061	4.25
390.268	4.38
390.475	4.41
390.683	4.42
390.89	4.39
391.098	4.6
391.305	4.6
391.512	4.62
391.72	4.58
391.927	4.39
392.135	4.3
392.342	4.62
392.549	4.54
392.756	4.62
392.964	4.69
393.171	4.77
393.378	4.57
393.586	4.56
393.793	4.68
394	4.37
394.207	4.53
394.414	4.59
394.622	4.49
394.829	4.37
395.036	4.18
395.243	4.05
395.45	4.05
395.657	4.16
395.864	4.17
396.072	4.18
396.279	4.33
396.486	4.21
396.693	4.45
396.9	4.34
397.107	4.33
397.314	4.53
397.521	4.57
397.728	4.62
397.935	4.86
398.142	4.79
398.349	4.7
398.556	4.82
398.763	4.9
398.97	4.79
399.177	5.08
399.383	5.22
399.59	5.15
399.797	5.29
400.004	5.23
400.211	5.11
400.418	5.1
400.625	5.17
400.831	4.76
401.038	4.69
401.245	4.81
401.452	4.67
401.658	4.55
401.865	4.37
402.072	4.18
402.279	4.18
402.485	4.11
402.692	4.24
402.899	4.29
403.105	4.54
403.312	4.49
403.519	4.36
403.725	4.27
403.932	4.18
404.138	4.3
404.345	4.52
404.552	4.38
404.758	4.39
404.965	4.18
405.171	4.14
405.378	4.27
405.584	4.34
405.791	4.32
405.997	4.44
406.204	4.6
406.41	4.71
406.617	4.61
406.823	4.88
407.029	4.96
407.236	5.29
407.442	5.22
407.649	5.15
407.855	4.97
408.061	4.88
408.268	4.72
408.474	4.51
408.68	4.36
408.887	4.47
409.093	4.24
409.299	4.19
409.505	4.07
409.712	4.22
409.918	4.17
410.124	4.13
410.33	4.06
410.537	4.1
410.743	4.11
410.949	4.14
411.155	3.93
411.361	3.86
411.567	3.78
411.773	3.59
411.98	3.5
412.186	3.46
412.392	3.65
412.598	3.84
412.804	3.77
413.01	3.95
413.216	3.87
413.422	4.05
413.628	4.1
413.834	4.01
414.04	4
414.246	3.85
414.452	3.86
414.658	3.76
414.864	3.63
415.07	3.69
415.275	3.6
415.481	3.58
415.687	3.38
415.893	3.3
416.099	3.24
416.305	3.21
416.511	3.42
416.716	3.41
416.922	3.48
417.128	3.53
417.334	3.51
417.539	3.5
417.745	3.53
417.951	3.62
418.157	3.67
418.362	3.64
418.568	3.58
418.774	3.43
418.979	3.49
419.185	3.47
419.391	3.43
419.596	3.45
419.802	3.42
420.008	3.39
420.213	3.28
420.419	3.24
420.624	3.27
420.83	3.31
421.035	3.32
421.241	3.24
421.446	3.23
421.652	3.26
421.857	3.17
422.063	3.19
422.268	3.19
422.474	3.27
422.679	3.34
422.885	3.34
423.09	3.34
423.295	3.29
423.501	3.27
423.706	3.27
423.911	3.28
424.117	3.41
424.322	3.42
424.527	3.37
424.733	3.4
424.938	3.41
425.143	3.41
425.349	3.4
425.554	3.46
425.759	3.5
425.964	3.47
426.169	3.49
426.375	3.39
426.58	3.48
426.785	3.57
426.99	3.56
427.195	3.51
427.4	3.52
427.605	3.52
427.811	3.5
428.016	3.5
428.221	3.49
428.426	3.43
428.631	3.39
428.836	3.38
429.041	3.39
429.246	3.26
429.451	3.27
429.656	3.34
429.861	3.37
430.066	3.48
430.271	3.53
430.476	3.62
430.681	3.71
430.886	3.65
431.09	3.56
431.295	3.58
431.5	3.54
431.705	3.44
431.91	3.53
432.115	3.47
432.32	3.37
432.524	3.32
432.729	3.25
432.934	3.21
433.139	3.3
433.343	3.33
433.548	3.36
433.753	3.46
433.958	3.39
434.162	3.27
434.367	3.31
434.572	3.33
434.776	3.26
434.981	3.16
435.186	3
435.39	3.01
435.595	3.05
435.799	2.89
436.004	2.94
436.209	3
436.413	3.06
436.618	3.01
436.822	3.04
437.027	3.1
437.231	3.22
437.436	3.27
437.64	3.35
437.845	3.24
438.049	3.36
438.253	3.35
438.458	3.3
438.662	3.24
438.867	3.34
439.071	3.4
439.275	3.35
439.48	3.29
439.684	3.29
439.888	3.16
440.093	3.28
440.297	3.18
440.501	3.16
440.706	3.29
440.91	3.34
441.114	3.3
441.318	3.17
441.523	3.18
441.727	3.24
441.931	3.37
442.135	3.32
442.339	3.19
442.543	3.29
442.748	3.27
442.952	3.21
443.156	3.22
443.36	3.21
443.564	3.24
443.768	3.2
443.972	3.17
444.176	3.08
444.38	3.09
444.584	3.02
444.788	3.03
444.992	2.99
445.196	3.03
445.4	3.04
445.604	2.96
445.808	2.98
446.012	3.05
446.216	3.05
446.42	3.04
446.624	3.08
446.828	3.16
447.032	3.16
447.235	3.2
447.439	3.15
447.643	3.16
447.847	3.27
448.051	3.35
448.254	3.35
448.458	3.35
448.662	3.39
448.866	3.35
449.069	3.31
449.273	3.26
449.477	3.3
449.681	3.26
449.884	3.2
450.088	3.17
450.292	3.19
450.495	3.05
450.699	3.07
450.902	3.05
451.106	3.14
451.31	3.15
451.513	3.18
451.717	3.16
451.92	3.12
452.124	3.04
452.327	3.12
452.531	3.09
452.734	3.12
452.938	3.12
453.141	3.17
453.345	3.07
453.548	3.01
453.752	3.03
453.955	3.04
454.158	2.99
454.362	3.05
454.565	3.02
454.769	3.01
454.972	3.17
455.175	3.2
455.379	3.19
455.582	3.22
455.785	3.32
455.988	3.29
456.192	3.16
456.395	3.29
456.598	3.29
456.801	3.24
457.005	3.14
457.208	3.02
457.411	2.98
457.614	2.91
457.817	2.88
458.021	2.81
458.224	2.87
458.427	2.89
458.63	2.86
458.833	2.87
459.036	2.91
459.239	2.89
459.442	2.83
459.645	2.82
459.848	2.82
460.051	2.84
460.254	2.99
460.457	3.02
460.66	3.14
460.863	3.14
461.066	3.13
461.269	3.05
461.472	3.22
461.675	3.26
461.878	3.33
462.081	3.42
462.284	3.43
462.486	3.22
462.689	3.05
462.892	3.02
463.095	3.04
463.298	3.03
463.5	3.08
463.703	2.93
463.906	3.06
464.109	2.99
464.311	2.93
464.514	2.96
464.717	3.15
464.92	3.23
465.122	3.17
465.325	3.19
465.528	3.16
465.73	3.21
465.933	3.09
466.135	3.04
466.338	3.06
466.541	3.07
466.743	3.06
466.946	3.01
467.148	2.98
467.351	2.98
467.553	2.92
467.756	3.01
467.958	2.94
468.161	3.13
468.363	3.1
468.566	3.1
468.768	3.13
468.971	3.11
469.173	3.13
469.375	3.07
469.578	3.08
469.78	3.19
469.983	3.16
470.185	3.25
470.387	3.26
470.59	3.41
470.792	3.34
470.994	3.35
