Data from 2938439_Reflection_3.txt Node
Date: Fri Jun 19 18:26:54 EDT 2015
User: robert
Spectrometer: USB4E03002
Autoset integration time: false
Trigger mode: 4
Integration Time (sec): 1.000000E-1
Scans to average: 10
Electric dark correction enabled: true
Nonlinearity correction enabled: false
Boxcar width: 5
Stray light correction enabled: false
XAxis mode: Wavelengths
Stop averaging: false
Number of Pixels in Spectrum: 3648
>>>>>Begin Spectral Data<<<<<
177.575	72.55
177.794	99.91
178.014	89.48
178.233	64.12
178.452	43.87
178.672	47.01
178.891	-81.86
179.11	79.65
179.33	94.74
179.549	81.23
179.768	75.84
179.987	77.35
180.207	102.08
180.426	93.01
180.645	64.29
180.864	61.31
181.084	69.71
181.303	73.18
181.522	87.68
181.741	81.68
181.96	81.59
182.179	88.73
182.398	78.86
182.618	71.03
182.837	61.03
183.056	75.24
183.275	78.98
183.494	76.29
183.713	67.97
183.932	58.3
184.151	53.88
184.37	72.1
184.589	69.02
184.808	78.36
185.027	87.49
185.246	96.47
185.465	99.28
185.684	86.25
185.903	80.9
186.122	86.66
186.341	79.75
186.56	88.01
186.779	66.15
186.998	67.36
187.216	63.58
187.435	59.92
187.654	68.27
187.873	65.4
188.092	69.68
188.311	70.47
188.53	67.42
188.748	78.63
188.967	71.36
189.186	79.63
189.405	72.83
189.623	88.22
189.842	93.16
190.061	88.2
190.28	95.78
190.498	111.93
190.717	148.06
190.936	146.01
191.154	150.94
191.373	138.62
191.592	172.04
191.81	146.42
192.029	130.97
192.248	163.09
192.466	217.77
192.685	180.93
192.904	156.71
193.122	116.09
193.341	141.42
193.559	121.45
193.778	220.54
193.996	193.31
194.215	240.67
194.433	215.6
194.652	122.62
194.87	134.63
195.089	147.53
195.307	126.03
195.526	115.05
195.744	87.69
195.963	85.08
196.181	52.02
196.399	53.03
196.618	61.79
196.836	52.29
197.055	82.19
197.273	74.82
197.491	70.79
197.71	73.91
197.928	80.44
198.146	82.08
198.365	89.36
198.583	114.21
198.801	114.77
199.019	124.82
199.238	138.64
199.456	116.62
199.674	100.38
199.892	100.6
200.111	70.9
200.329	78.33
200.547	70.94
200.765	64.42
200.983	52.32
201.202	41.64
201.42	24.3
201.638	14.23
201.856	17.72
202.074	20.88
202.292	15.8
202.51	41.3
202.728	30.56
202.946	58.22
203.165	51.47
203.383	35.58
203.601	44.84
203.819	55.15
204.037	56.23
204.255	61.67
204.473	62.98
204.691	73.14
204.909	61.64
205.127	66.45
205.345	58.89
205.562	63.79
205.78	75.4
205.998	64.67
206.216	73.36
206.434	75.91
206.652	84.16
206.87	99.04
207.088	89.27
207.306	94.85
207.523	92.26
207.741	92.66
207.959	110.2
208.177	114.46
208.395	114.19
208.612	92
208.83	90.35
209.048	71.63
209.266	55.49
209.483	66.73
209.701	71.7
209.919	66
210.136	75.34
210.354	68.78
210.572	60.99
210.79	64.4
211.007	71.4
211.225	65.95
211.442	66.54
211.66	73.03
211.878	70.94
212.095	118.03
212.313	135.21
212.53	131.73
212.748	147.53
212.966	155.91
213.183	151.14
213.401	157.76
213.618	164.78
213.836	169.37
214.053	174.74
214.271	161.57
214.488	63.84
214.705	54.63
214.923	57.33
215.14	50.71
215.358	41.62
215.575	38.04
215.793	40.24
216.01	44.48
216.227	48.93
216.445	56.72
216.662	55.71
216.879	58.62
217.097	61.43
217.314	55.84
217.531	53.43
217.749	51.38
217.966	50.67
218.183	46.22
218.4	49.79
218.618	40.95
218.835	47.46
219.052	47.47
219.269	45.68
219.487	38.12
219.704	41.85
219.921	50.96
220.138	58.24
220.355	54.4
220.572	49.12
220.79	55.37
221.007	65.71
221.224	57.3
221.441	61.72
221.658	66.87
221.875	68
222.092	67.84
222.309	60.08
222.526	58.51
222.743	57.58
222.96	57.37
223.177	44.7
223.394	43.63
223.611	39.46
223.828	31.07
224.045	29.27
224.262	36.54
224.479	34.79
224.696	40.29
224.913	34.13
225.13	29.7
225.347	24.8
225.564	30.32
225.781	30.78
225.997	34.12
226.214	33.04
226.431	29.88
226.648	26.44
226.865	25.94
227.082	23.65
227.298	23.13
227.515	25.06
227.732	26.81
227.949	25.22
228.165	24.99
228.382	23.27
228.599	23.76
228.816	24.98
229.032	23.88
229.249	24.48
229.466	24.25
229.682	25.54
229.899	24.5
230.116	24.36
230.332	23.49
230.549	22.25
230.765	23.65
230.982	20.44
231.199	17.41
231.415	18.05
231.632	14.6
231.848	14.11
232.065	12.16
232.281	8.87
232.498	8.12
232.714	9.49
232.931	10.56
233.147	9.33
233.364	11.92
233.58	14.75
233.797	18.08
234.013	19.11
234.23	19.11
234.446	21.15
234.662	22.43
234.879	23.23
235.095	23.3
235.312	22.73
235.528	21.68
235.744	21.93
235.961	21.48
236.177	19.08
236.393	20.32
236.61	22.37
236.826	23.49
237.042	22.37
237.258	21.01
237.475	21.71
237.691	21.06
237.907	23.01
238.123	23.12
238.339	22.13
238.556	25.26
238.772	25.58
238.988	25.25
239.204	22.37
239.42	22.21
239.636	22.16
239.853	20.9
240.069	21.07
240.285	20.01
240.501	19.09
240.717	18.42
240.933	16.87
241.149	16.02
241.365	15.6
241.581	17.04
241.797	17.18
242.013	18.14
242.229	18.77
242.445	18.67
242.661	19.11
242.877	19.44
243.093	20.64
243.309	19.4
243.525	19.33
243.741	19.27
243.957	17.73
244.173	16.74
244.388	15.77
244.604	15.14
244.82	14.71
245.036	14.74
245.252	14.96
245.468	14.68
245.683	14.29
245.899	14.19
246.115	13.54
246.331	13.33
246.547	13.62
246.762	13.88
246.978	13.87
247.194	13.81
247.409	14.04
247.625	13.47
247.841	12.66
248.057	13.67
248.272	13.4
248.488	14.03
248.703	14.2
248.919	13.98
249.135	12.56
249.35	13.37
249.566	13.94
249.782	13.84
249.997	14.31
250.213	14.24
250.428	13.03
250.644	13.64
250.859	13.86
251.075	14.15
251.29	14.38
251.506	14.02
251.721	13.64
251.937	13.55
252.152	12.75
252.368	11.38
252.583	12.7
252.798	13.76
253.014	12.63
253.229	12.42
253.445	11.47
253.66	12.1
253.875	14.46
254.091	13.97
254.306	14.4
254.521	14.67
254.737	16.43
254.952	16
255.167	15.24
255.383	15.82
255.598	14.87
255.813	16.1
256.028	15.17
256.244	14.04
256.459	13.85
256.674	12.18
256.889	12.02
257.104	11.77
257.32	10.92
257.535	10.6
257.75	10.55
257.965	10.85
258.18	10.17
258.395	10.21
258.61	10.07
258.826	9.93
259.041	10.47
259.256	10.38
259.471	10.62
259.686	11.27
259.901	11.61
260.116	11.59
260.331	11.34
260.546	11.99
260.761	12.06
260.976	12.52
261.191	12.9
261.406	12.81
261.621	12.4
261.836	11.36
262.05	10.41
262.265	10.81
262.48	10.22
262.695	10.64
262.91	11.66
263.125	11.33
263.34	12.35
263.555	12.14
263.769	12.28
263.984	13.46
264.199	13.5
264.414	13.83
264.629	13.94
264.843	14.88
265.058	14.65
265.273	13.4
265.488	13.36
265.702	11.89
265.917	11.32
266.132	11.45
266.346	11.14
266.561	11.3
266.776	11.51
266.99	11.15
267.205	10.79
267.42	10.84
267.634	11.42
267.849	11.8
268.063	12.39
268.278	13.03
268.492	12.62
268.707	12.36
268.922	12.75
269.136	12.93
269.351	12.92
269.565	12.11
269.78	11.23
269.994	11.19
270.209	11.2
270.423	10.65
270.637	10.42
270.852	10.55
271.066	10.8
271.281	10.35
271.495	9.98
271.709	9.69
271.924	10.37
272.138	11.28
272.353	10.79
272.567	11.28
272.781	12.04
272.996	12.41
273.21	12.17
273.424	11.94
273.638	12.09
273.853	12.55
274.067	13.26
274.281	12.94
274.495	12.62
274.71	12.06
274.924	11.27
275.138	10.71
275.352	10.98
275.566	11.57
275.781	11.92
275.995	12.29
276.209	11.85
276.423	12.04
276.637	12.01
276.851	11.51
277.065	12.35
277.279	13.75
277.493	13.76
277.707	13.41
277.921	13.02
278.135	13.02
278.349	12.16
278.563	12.39
278.777	12.06
278.991	12.11
279.205	12.54
279.419	11.99
279.633	10.01
279.847	10.22
280.061	9.88
280.275	10.33
280.489	10.34
280.703	11.01
280.917	10.4
281.131	9.92
281.344	10.12
281.558	10.38
281.772	10.87
281.986	12.05
282.2	12.19
282.414	11.92
282.627	11.46
282.841	11.08
283.055	10.95
283.269	11.61
283.482	11.7
283.696	11.76
283.91	11.77
284.123	11.47
284.337	10.42
284.551	9.91
284.764	10
284.978	9.96
285.192	10.48
285.405	10.16
285.619	9.6
285.833	9.68
286.046	9.01
286.26	9.04
286.473	9.3
286.687	10.29
286.9	11.23
287.114	11.65
287.327	11.9
287.541	11.41
287.754	11.48
287.968	11.73
288.181	11.84
288.395	12.39
288.608	12.67
288.822	13.16
289.035	13.14
289.248	12.41
289.462	12.62
289.675	13.18
289.889	13.48
290.102	13.9
290.315	13.81
290.529	13.6
290.742	13.04
290.955	12.73
291.169	11.66
291.382	12.05
291.595	12.45
291.808	12.06
292.022	11.75
292.235	11.64
292.448	11.8
292.661	11.87
292.875	11.8
293.088	12.07
293.301	12.2
293.514	12.13
293.727	11.88
293.94	11.71
294.153	12.21
294.367	12.28
294.58	12.15
294.793	11.73
295.006	12.26
295.219	11.83
295.432	12.36
295.645	12.41
295.858	12.61
296.071	12.34
296.284	12.3
296.497	11.55
296.71	11.21
296.923	11.73
297.136	12
297.349	11.86
297.562	12.3
297.775	11.52
297.988	10.9
298.201	10.92
298.414	10.64
298.626	10.7
298.839	11.09
299.052	11.44
299.265	10.31
299.478	9.79
299.691	9.73
299.903	9.98
300.116	10.22
300.329	10.98
300.542	11.86
300.755	12.61
300.967	12.84
301.18	12.89
301.393	12.53
301.605	12.9
301.818	13.11
302.031	12.79
302.243	12.92
302.456	13.22
302.669	13.62
302.881	13.2
303.094	12.94
303.307	12.79
303.519	12.42
303.732	12.33
303.944	12.73
304.157	13.34
304.37	13.1
304.582	13.16
304.795	13.13
305.007	12.73
305.22	12.65
305.432	12.42
305.645	12.95
305.857	13.53
306.069	13.98
306.282	13.32
306.494	13.25
306.707	13.64
306.919	13.3
307.132	13.7
307.344	14.04
307.556	13.86
307.769	14.42
307.981	13.86
308.193	14.02
308.406	13.91
308.618	14.25
308.83	13.73
309.043	14
309.255	14.63
309.467	15.01
309.679	14.78
309.892	14.7
310.104	14.51
310.316	14.76
310.528	14.58
310.74	14.81
310.953	14.96
311.165	15.14
311.377	14.99
311.589	14.93
311.801	14.65
312.013	13.66
312.225	13.64
312.437	13.24
312.649	12.78
312.862	12.52
313.074	12.11
313.286	11.9
313.498	12.49
313.71	12.23
313.922	11.14
314.134	10.36
314.346	11.39
314.558	12.13
314.77	12.12
314.982	13.33
315.193	13.92
315.405	13.72
315.617	12.83
315.829	11.99
316.041	12.15
316.253	12.9
316.465	13.71
316.677	13.03
316.888	12.73
317.1	13.16
317.312	12.62
317.524	12.33
317.736	12.98
317.947	14.17
318.159	14.69
318.371	14.99
318.583	15.02
318.794	14.06
319.006	14.62
319.218	14.35
319.43	14.35
319.641	13.71
319.853	13.93
320.064	14.31
320.276	14.31
320.488	14.08
320.699	13.41
320.911	12.84
321.123	12.84
321.334	12.69
321.546	13.61
321.757	14.31
321.969	14.45
322.18	14.27
322.392	13.52
322.603	13.59
322.815	14.15
323.026	14.94
323.238	15.26
323.449	15.62
323.661	15.54
323.872	14.32
324.083	13.49
324.295	14.11
324.506	14.9
324.718	14.73
324.929	15.01
325.14	15.01
325.352	15.24
325.563	15.29
325.774	15.8
325.986	15.99
326.197	16.06
326.408	16.82
326.62	16.63
326.831	16.52
327.042	17.05
327.253	17.44
327.464	17.44
327.676	17
327.887	16.74
328.098	16.02
328.309	16.14
328.52	16.23
328.732	16.17
328.943	15.66
329.154	15.51
329.365	14.95
329.576	14.18
329.787	14.15
329.998	14.08
330.209	14.36
330.42	15.65
330.631	16.16
330.842	16.81
331.053	17.2
331.264	17.97
331.475	18.05
331.686	19
331.897	19.21
332.108	19.29
332.319	18.91
332.53	19.7
332.741	18.96
332.952	18.76
333.163	18.05
333.374	17.23
333.585	17.05
333.795	16.84
334.006	16.2
334.217	16.28
334.428	15.84
334.639	16.52
334.849	16.2
335.06	15.81
335.271	15.95
335.482	16.16
335.692	15.98
335.903	16.52
336.114	16.6
336.325	17
336.535	17.05
336.746	16.59
336.957	16.31
337.167	16.07
337.378	17.2
337.589	16.93
337.799	16.97
338.01	17.5
338.22	16.37
338.431	16.76
338.642	16.03
338.852	15.68
339.063	16.2
339.273	16.55
339.484	16.9
339.694	16.36
339.905	16.87
340.115	17.56
340.326	17.22
340.536	18.02
340.746	17.8
340.957	18.54
341.167	18.96
341.378	19.81
341.588	19.87
341.799	19.43
342.009	19.15
342.219	18.66
342.43	18.51
342.64	19.01
342.85	18.87
343.061	19
343.271	18.56
343.481	18.54
343.691	18.02
343.902	17.46
344.112	17.26
344.322	17.65
344.532	17.81
344.743	18.78
344.953	18.47
345.163	18.27
345.373	17.9
345.583	17.8
345.793	17.78
346.004	17.89
346.214	17.9
346.424	18.17
346.634	18.37
346.844	17.83
347.054	17.19
347.264	17.34
347.474	17.74
347.684	17.72
347.894	17.98
348.104	18.38
348.314	18.4
348.524	18.88
348.734	18.66
348.944	18.46
349.154	18.37
349.364	17.94
349.574	17.52
349.784	17.66
349.994	17.54
350.204	17.8
350.413	17.62
350.623	17.53
350.833	16.94
351.043	17.11
351.253	16.7
351.463	17.14
351.672	17.34
351.882	17.44
352.092	17.73
352.302	18.08
352.511	18.1
352.721	17.26
352.931	16.96
353.141	17.37
353.35	17.81
353.56	18.02
353.77	18.34
353.979	17.83
354.189	17.81
354.399	17.41
354.608	17.09
354.818	16.48
355.027	16.73
355.237	17.11
355.447	17.46
355.656	17.19
355.866	16.96
356.075	16.78
356.285	16.97
356.494	16.96
356.704	16.62
356.913	16.55
357.123	16.78
357.332	17.05
357.542	16.49
357.751	16.33
357.96	16.14
358.17	16.07
358.379	16.24
358.589	16.36
358.798	16.29
359.007	16.62
359.217	16.64
359.426	16.6
359.635	16.32
359.845	16.71
360.054	16.23
360.263	16.02
360.472	15.96
360.682	15.61
360.891	15.51
361.1	15.8
361.309	15.17
361.519	14.97
361.728	15.02
361.937	15.12
362.146	14.8
362.355	15.1
362.564	15.53
362.774	16.07
362.983	16.1
363.192	16.05
363.401	15.78
363.61	15.8
363.819	16.15
364.028	15.72
364.237	15.28
364.446	15.62
364.655	15.55
364.864	15.28
365.073	14.59
365.282	14.52
365.491	14.42
365.7	14.26
365.909	14.29
366.118	14.47
366.327	14.5
366.536	14.66
366.745	14.11
366.954	14.32
367.162	14.41
367.371	14.87
367.58	14.91
367.789	15.04
367.998	14.76
368.207	14.84
368.415	14.53
368.624	15.02
368.833	15.07
369.042	15.29
369.25	15.23
369.459	15.19
369.668	14.58
369.877	14.31
370.085	14.2
370.294	14.54
370.503	14.27
370.711	14.26
370.92	14.17
371.129	13.99
371.337	13.7
371.546	13.33
371.754	13.24
371.963	13.65
372.171	13.95
372.38	14.16
372.589	14.01
372.797	14.08
373.006	13.88
373.214	13.92
373.423	14.05
373.631	13.96
373.84	13.85
374.048	13.95
374.256	13.2
374.465	13.15
374.673	12.7
374.882	12.74
375.09	13.14
375.298	13.03
375.507	12.73
375.715	12.3
375.923	12.53
376.132	12.3
376.34	11.86
376.548	12
376.757	11.88
376.965	12.25
377.173	11.82
377.381	11.45
377.59	11.51
377.798	11.56
378.006	11.6
378.214	11.33
378.423	11.52
378.631	11.75
378.839	12.04
379.047	11.99
379.255	11.76
379.463	11.95
379.671	12.12
379.879	11.87
380.088	11.44
380.296	11.81
380.504	11.65
380.712	11.83
380.92	11.9
381.128	11.88
381.336	11.59
381.544	11.27
381.752	11.15
381.96	10.86
382.168	11.07
382.376	11.36
382.584	10.98
382.791	11.23
382.999	10.96
383.207	10.74
383.415	10.52
383.623	10.46
383.831	10.32
384.039	10.26
384.247	10.26
384.454	10.03
384.662	9.62
384.87	9.42
385.078	9.34
385.285	9.22
385.493	9.22
385.701	9
385.909	9.13
386.116	9.28
386.324	9.28
386.532	9.04
386.739	8.8
386.947	8.97
387.155	8.97
387.362	8.8
387.57	8.68
387.778	8.28
387.985	8.38
388.193	8.07
388.4	8.04
388.608	8.28
388.816	8.52
389.023	8.53
389.231	8.42
389.438	8.31
389.646	8.27
389.853	8.08
390.061	8.2
390.268	8.16
390.475	8.18
390.683	7.92
390.89	7.5
391.098	7.26
391.305	7.08
391.512	7.02
391.72	7.26
391.927	7.01
392.135	7.14
392.342	6.9
392.549	6.8
392.756	6.82
392.964	6.73
393.171	6.84
393.378	6.89
393.586	7.1
393.793	7.21
394	6.88
394.207	7.1
394.414	7.14
394.622	7.24
394.829	7.29
395.036	7.16
395.243	7.04
395.45	6.9
395.657	6.66
395.864	6.41
396.072	6.28
396.279	6.34
396.486	6.09
396.693	5.93
396.9	5.9
397.107	5.74
397.314	5.88
397.521	6.09
397.728	6.07
397.935	5.96
398.142	5.96
398.349	5.68
398.556	5.66
398.763	5.81
398.97	5.62
399.177	5.91
399.383	5.87
399.59	5.81
399.797	5.63
400.004	5.57
400.211	5.8
400.418	6.03
400.625	6.04
400.831	6.21
401.038	6.1
401.245	6.14
401.452	5.81
401.658	5.9
401.865	5.87
402.072	5.99
402.279	6
402.485	6.03
402.692	5.87
402.899	5.95
403.105	5.77
403.312	5.78
403.519	5.81
403.725	5.68
403.932	5.66
404.138	5.68
404.345	5.57
404.552	5.52
404.758	5.55
404.965	5.53
405.171	5.44
405.378	5.32
405.584	5.32
405.791	5.31
405.997	5.51
406.204	5.49
406.41	5.49
406.617	5.64
406.823	5.71
407.029	5.62
407.236	5.64
407.442	5.94
407.649	5.97
407.855	5.89
408.061	5.92
408.268	6.06
408.474	6.04
408.68	5.68
408.887	5.6
409.093	5.58
409.299	5.56
409.505	5.5
409.712	5.29
409.918	5.32
410.124	5.36
410.33	5.17
410.537	4.99
410.743	5.01
410.949	5.09
411.155	5.1
411.361	4.88
411.567	4.82
411.773	4.93
411.98	4.88
412.186	4.98
412.392	4.86
412.598	5.09
412.804	5.08
413.01	5.13
413.216	5.27
413.422	5.32
413.628	5.47
413.834	5.54
414.04	5.29
414.246	5.33
414.452	5.31
414.658	5.27
414.864	5.09
415.07	4.96
415.275	4.93
415.481	4.79
415.687	4.62
415.893	4.7
416.099	4.59
416.305	4.71
416.511	4.55
416.716	4.5
416.922	4.43
417.128	4.57
417.334	4.65
417.539	4.62
417.745	4.69
417.951	4.7
418.157	4.54
418.362	4.47
418.568	4.34
418.774	4.36
418.979	4.31
419.185	4.35
419.391	4.3
419.596	4.26
419.802	4.24
420.008	4.21
420.213	4.23
420.419	4.3
420.624	4.42
420.83	4.49
421.035	4.54
421.241	4.58
421.446	4.55
421.652	4.56
421.857	4.53
422.063	4.49
422.268	4.48
422.474	4.45
422.679	4.4
422.885	4.33
423.09	4.29
423.295	4.21
423.501	4.24
423.706	4.25
423.911	4.22
424.117	4.19
424.322	4.19
424.527	4.16
424.733	4.14
424.938	4.17
425.143	4.1
425.349	4.11
425.554	4.15
425.759	4.08
425.964	4.15
426.169	4.15
426.375	4.21
426.58	4.27
426.785	4.34
426.99	4.4
427.195	4.36
427.4	4.43
427.605	4.38
427.811	4.4
428.016	4.41
428.221	4.31
428.426	4.34
428.631	4.32
428.836	4.21
429.041	4.16
429.246	4.19
429.451	4.17
429.656	4.21
429.861	4.28
430.066	4.26
430.271	4.24
430.476	4.33
430.681	4.18
430.886	4.22
431.09	4.23
431.295	4.19
431.5	4.09
431.705	4.13
431.91	4.19
432.115	4.22
432.32	4.19
432.524	4.19
432.729	4.14
432.934	4.21
433.139	4.09
433.343	4.07
433.548	4.1
433.753	4.16
433.958	4.16
434.162	4.14
434.367	4.09
434.572	4.11
434.776	4.11
434.981	4.01
435.186	4.04
435.39	4.14
435.595	4.2
435.799	4.18
436.004	4.12
436.209	4.14
436.413	4.08
436.618	4.05
436.822	4.11
437.027	4.07
437.231	4.18
437.436	4.21
437.64	4.18
437.845	4.09
438.049	4.08
438.253	4.09
438.458	4.1
438.662	4.08
438.867	4.13
439.071	4.12
439.275	4.1
439.48	4.13
439.684	4.07
439.888	4.06
440.093	4.12
440.297	4.11
440.501	4.11
440.706	4.07
440.91	4.07
441.114	4.01
441.318	3.96
441.523	3.92
441.727	3.78
441.931	3.8
442.135	3.8
442.339	3.68
442.543	3.67
442.748	3.66
442.952	3.77
443.156	3.72
443.36	3.7
443.564	3.67
443.768	3.69
443.972	3.7
444.176	3.73
444.38	3.73
444.584	3.86
444.788	3.88
444.992	3.84
445.196	3.78
445.4	3.81
445.604	3.85
445.808	3.87
446.012	3.9
446.216	3.88
446.42	3.78
446.624	3.72
446.828	3.74
447.032	3.68
447.235	3.69
447.439	3.64
447.643	3.63
447.847	3.67
448.051	3.73
448.254	3.76
448.458	3.86
448.662	3.92
448.866	3.95
449.069	3.85
449.273	3.85
449.477	3.83
449.681	3.83
449.884	3.83
450.088	3.71
450.292	3.58
450.495	3.49
450.699	3.44
450.902	3.48
451.106	3.5
451.31	3.46
451.513	3.61
451.717	3.66
451.92	3.67
452.124	3.62
452.327	3.64
452.531	3.71
452.734	3.77
452.938	3.89
453.141	3.83
453.345	3.82
453.548	3.91
453.752	3.78
453.955	3.82
454.158	3.82
454.362	3.94
454.565	4.07
454.769	4.05
454.972	4
455.175	3.86
455.379	3.84
455.582	3.82
455.785	3.77
455.988	3.85
456.192	3.77
456.395	3.74
456.598	3.66
456.801	3.48
457.005	3.43
457.208	3.43
457.411	3.37
457.614	3.46
457.817	3.48
458.021	3.49
458.224	3.51
458.427	3.53
458.63	3.53
458.833	3.48
459.036	3.49
459.239	3.56
459.442	3.61
459.645	3.68
459.848	3.67
460.051	3.7
460.254	3.69
460.457	3.71
460.66	3.67
460.863	3.75
461.066	3.84
461.269	3.99
461.472	3.97
461.675	3.98
461.878	4
462.081	4
