Data from 2938467_Reflection_1.txt Node
Date: Wed Jun 17 13:45:17 EDT 2015
User: robert
Spectrometer: USB4E03002
Autoset integration time: false
Trigger mode: 4
Integration Time (sec): 1.000000E-1
Scans to average: 10
Electric dark correction enabled: true
Nonlinearity correction enabled: false
Boxcar width: 5
Stray light correction enabled: false
XAxis mode: Wavelengths
Stop averaging: false
Number of Pixels in Spectrum: 3648
>>>>>Begin Spectral Data<<<<<
177.575	-23.07
177.794	-130.97
178.014	-3.07
178.233	-0.14
178.452	0.48
178.672	-150.29
178.891	35.94
179.11	43.03
179.33	321.35
179.549	-2093.83
179.768	-90.44
179.987	-92.45
180.207	-569.1
180.426	-76.86
180.645	37.52
180.864	32.03
181.084	10.45
181.303	30.19
181.522	37.64
181.741	41.19
181.96	12.8
182.179	33.15
182.398	10
182.618	52.23
182.837	94.79
183.056	331.5
183.275	290.36
183.494	349.55
183.713	311.6
183.932	1790.75
184.151	465.54
184.37	213.58
184.589	151.28
184.808	121.25
185.027	140.67
185.246	76.44
185.465	99.62
185.684	90.11
185.903	99.53
186.122	48.24
186.341	70.35
186.56	90.44
186.779	143.49
186.998	134.84
187.216	132.91
187.435	125.54
187.654	128.24
187.873	113.95
188.092	125.56
188.311	105.41
188.53	107.19
188.748	109.8
188.967	128.85
189.186	134.02
189.405	153.4
189.623	76.45
189.842	49.46
190.061	158.8
190.28	60.48
190.498	123.33
190.717	242.51
190.936	194.78
191.154	197.82
191.373	207.52
191.592	1040.46
191.81	-64.43
192.029	277.96
192.248	-228.71
192.466	-86.37
192.685	1.52
192.904	-3.82
193.122	-13.91
193.341	26.62
193.559	78.43
193.778	56.06
193.996	49.79
194.215	52.38
194.433	31.82
194.652	64.53
194.87	63.14
195.089	78.85
195.307	72.97
195.526	144.97
195.744	131.06
195.963	38.81
196.181	44.55
196.399	62
196.618	56.93
196.836	67.73
197.055	56.63
197.273	53.1
197.491	77.51
197.71	97.55
197.928	81.12
198.146	58.36
198.365	63.06
198.583	71.72
198.801	65.21
199.019	42.04
199.238	49.6
199.456	60.07
199.674	52.77
199.892	28.48
200.111	8.04
200.329	4.84
200.547	49.9
200.765	47
200.983	34.48
201.202	53.95
201.42	82.16
201.638	68.32
201.856	62.72
202.074	71.37
202.292	62.68
202.51	43.98
202.728	43.76
202.946	49.59
203.165	29.81
203.383	36.17
203.601	46.94
203.819	63.81
204.037	68.05
204.255	51.13
204.473	60.48
204.691	84.45
204.909	101.83
205.127	94.23
205.345	72.66
205.562	106.53
205.78	128.31
205.998	123.85
206.216	109.27
206.434	99.34
206.652	100.98
206.87	93.3
207.088	80.88
207.306	77.57
207.523	77.19
207.741	91.71
207.959	96.97
208.177	85.22
208.395	77.11
208.612	73.22
208.83	88.34
209.048	86.95
209.266	87.55
209.483	98.05
209.701	89.29
209.919	80.69
210.136	83.08
210.354	61.59
210.572	58.44
210.79	58.56
211.007	68.3
211.225	65.18
211.442	72.58
211.66	65.96
211.878	61.1
212.095	70.25
212.313	64.02
212.53	58.3
212.748	66.62
212.966	49.56
213.183	42.61
213.401	19.58
213.618	15.44
213.836	14.49
214.053	19.47
214.271	16.68
214.488	7.65
214.705	15.6
214.923	7.48
215.14	10.52
215.358	28.15
215.575	25.06
215.793	35.98
216.01	23.25
216.227	19.04
216.445	32.15
216.662	36.18
216.879	39.41
217.097	37.12
217.314	37.48
217.531	30.51
217.749	33.47
217.966	21.07
218.183	-12.41
218.4	-8.76
218.618	-3.53
218.835	-33.86
219.052	-12.59
219.269	-53.08
219.487	-61.08
219.704	-45.06
219.921	-35.02
220.138	-39.97
220.355	-33.45
220.572	-9.22
220.79	6.59
221.007	14.9
221.224	14.47
221.441	2.5
221.658	11.2
221.875	20.36
222.092	25.93
222.309	29.14
222.526	29.52
222.743	35.37
222.96	36.51
223.177	32.65
223.394	28.82
223.611	27.59
223.828	27.53
224.045	24.07
224.262	23.32
224.479	19.13
224.696	21.02
224.913	17.34
225.13	14.12
225.347	11.23
225.564	11.06
225.781	10.58
225.997	10.78
226.214	12.92
226.431	13.44
226.648	13.06
226.865	13.13
227.082	13.37
227.298	14.67
227.515	16.2
227.732	15.78
227.949	15.72
228.165	16.37
228.382	16.43
228.599	15.62
228.816	15.18
229.032	15.46
229.249	15.12
229.466	15.31
229.682	14.95
229.899	13.91
230.116	15.15
230.332	14.67
230.549	14.41
230.765	15.16
230.982	16.6
231.199	19.49
231.415	17.63
231.632	20.8
231.848	21.83
232.065	21.78
232.281	21.29
232.498	19.56
232.714	19.11
232.931	20.54
233.147	21.24
233.364	18.33
233.58	19.24
233.797	21.07
234.013	19.22
234.23	15.63
234.446	17.02
234.662	15.39
234.879	13.93
235.095	14.37
235.312	14.12
235.528	11.64
235.744	12.96
235.961	11.25
236.177	9.4
236.393	9.26
236.61	10.01
236.826	7.94
237.042	7.45
237.258	12.84
237.475	12.36
237.691	12.16
237.907	11.66
238.123	12.17
238.339	11.65
238.556	12.74
238.772	12.61
238.988	12.84
239.204	12.42
239.42	14.18
239.636	12.73
239.853	12.62
240.069	12.43
240.285	12.24
240.501	12.38
240.717	12.36
240.933	12.56
241.149	12.52
241.365	12.94
241.581	13.74
241.797	13.17
242.013	13.48
242.229	13.76
242.445	13.3
242.661	13.32
242.877	13.68
243.093	13.12
243.309	12.99
243.525	12.89
243.741	12.09
243.957	11.18
244.173	11.09
244.388	10.48
244.604	10.95
244.82	10.59
245.036	10.49
245.252	10.14
245.468	10.54
245.683	10.7
245.899	10.73
246.115	10.78
246.331	11.17
246.547	11.03
246.762	11
246.978	10.73
247.194	11.55
247.409	12.23
247.625	12.11
247.841	12.07
248.057	11.31
248.272	11.38
248.488	11.48
248.703	10.81
248.919	10.7
249.135	10.54
249.35	10.05
249.566	9.73
249.782	9.04
249.997	8.79
250.213	8.24
250.428	8.36
250.644	8
250.859	8.05
251.075	7.74
251.29	8.73
251.506	8.57
251.721	8.78
251.937	7.79
252.152	7.73
252.368	8.79
252.583	9.95
252.798	10.15
253.014	10.59
253.229	10.54
253.445	10.81
253.66	10.25
253.875	11.51
254.091	12.51
254.306	12.21
254.521	11.57
254.737	10.42
254.952	9.28
255.167	8.95
255.383	9.18
255.598	8.99
255.813	9.8
256.028	9.02
256.244	8.36
256.459	7.39
256.674	7.66
256.889	8.19
257.104	7.93
257.32	8.41
257.535	8.15
257.75	7.87
257.965	7.75
258.18	7.24
258.395	7.42
258.61	7.72
258.826	8.12
259.041	8.12
259.256	8.17
259.471	8.63
259.686	8.69
259.901	8.91
260.116	8.83
260.331	9.16
260.546	9.24
260.761	8.87
260.976	8.72
261.191	7.87
261.406	8.41
261.621	8.2
261.836	7.93
262.05	7.21
262.265	7.62
262.48	7.27
262.695	6.15
262.91	6.43
263.125	6.58
263.34	6.49
263.555	7.52
263.769	7.28
263.984	7.38
264.199	7.57
264.414	7.86
264.629	7.57
264.843	8.14
265.058	7.7
265.273	8.39
265.488	8.61
265.702	8.64
265.917	7.8
266.132	7.58
266.346	7.87
266.561	7.69
266.776	7.56
266.99	7.54
267.205	7.26
267.42	7.35
267.634	7.41
267.849	7.53
268.063	7.34
268.278	8.24
268.492	8.22
268.707	7.65
268.922	7.2
269.136	6.78
269.351	6.69
269.565	6.97
269.78	7.37
269.994	7.26
270.209	6.98
270.423	6.98
270.637	6.67
270.852	6.96
271.066	7.28
271.281	7.48
271.495	7.63
271.709	8.22
271.924	8.04
272.138	8.01
272.353	7.75
272.567	7.8
272.781	7.87
272.996	7.8
273.21	7.31
273.424	6.94
273.638	7.16
273.853	7.2
274.067	6.69
274.281	7.02
274.495	7.01
274.71	6.98
274.924	7.01
275.138	7.17
275.352	6.74
275.566	6.44
275.781	6.68
275.995	6.83
276.209	6.73
276.423	6.39
276.637	5.73
276.851	5.94
277.065	5.88
277.279	6.24
277.493	6.17
277.707	6.45
277.921	6.54
278.135	6.37
278.349	5.86
278.563	6.29
278.777	6.09
278.991	6.33
279.205	6.71
279.419	6.57
279.633	6.3
279.847	6.34
280.061	6.51
280.275	6.94
280.489	7.42
280.703	7.36
280.917	6.87
281.131	7.11
281.344	7.04
281.558	6.83
281.772	7.17
281.986	7.33
282.2	6.92
282.414	6.92
282.627	6.72
282.841	6.43
283.055	6.72
283.269	7.12
283.482	7.36
283.696	7.4
283.91	7.21
284.123	6.94
284.337	6.72
284.551	6.88
284.764	7.2
284.978	7.38
285.192	7.41
285.405	7.24
285.619	7.22
285.833	7.16
286.046	6.93
286.26	7.33
286.473	7.6
286.687	8.37
286.9	8.7
287.114	8.38
287.327	8.13
287.541	7.98
287.754	8.33
287.968	7.94
288.181	7.58
288.395	8.39
288.608	7.93
288.822	7.28
289.035	6.64
289.248	6.72
289.462	6.55
289.675	6.59
289.889	6.43
290.102	5.89
290.315	5.65
290.529	6.04
290.742	5.29
290.955	5.62
291.169	5.7
291.382	6.26
291.595	6.05
291.808	6.17
292.022	6.19
292.235	6.15
292.448	6.61
292.661	7.47
292.875	7.2
293.088	7.77
293.301	7.79
293.514	7.91
293.727	7.66
293.94	7.75
294.153	7.87
294.367	7.65
294.58	7.91
294.793	7.87
295.006	7.97
295.219	8.72
295.432	8.32
295.645	8.24
295.858	8.5
296.071	8.25
296.284	8.01
296.497	7.93
296.71	8.32
296.923	8.61
297.136	8.44
297.349	8.59
297.562	8.38
297.775	8.7
297.988	9.05
298.201	9.29
298.414	9.71
298.626	9.9
298.839	9.98
299.052	9.53
299.265	9.12
299.478	9.41
299.691	9.22
299.903	8.96
300.116	8.82
300.329	8.4
300.542	8.46
300.755	8.33
300.967	8.82
301.18	9.19
301.393	9.64
301.605	9.63
301.818	9.44
302.031	9.27
302.243	8.78
302.456	8.9
302.669	8.72
302.881	8.15
303.094	8.02
303.307	7.78
303.519	8.23
303.732	8.09
303.944	8.15
304.157	8.04
304.37	7.9
304.582	8.43
304.795	8.47
305.007	8.79
305.22	9.24
305.432	9.1
305.645	8.44
305.857	7.77
306.069	8.1
306.282	8.48
306.494	8.89
306.707	9.15
306.919	9.25
307.132	8.97
307.344	8.91
307.556	8.96
307.769	9.38
307.981	10.01
308.193	10
308.406	9.62
308.618	9.61
308.83	9.54
309.043	9.4
309.255	9.46
309.467	9.44
309.679	9.51
309.892	9.4
310.104	9.11
310.316	8.71
310.528	8.67
310.74	8.68
310.953	8.3
311.165	7.99
311.377	8.02
311.589	7.69
311.801	8.34
312.013	8.16
312.225	8.07
312.437	8.26
312.649	8.66
312.862	8.68
313.074	9.17
313.286	9.29
313.498	10
313.71	10.1
313.922	9.95
314.134	9.38
314.346	9.42
314.558	9.38
314.77	9.85
314.982	9.61
315.193	9.86
315.405	9.96
315.617	10.52
315.829	10.31
316.041	10.28
316.253	10.5
316.465	10.44
316.677	10.88
316.888	11.18
317.1	10.82
317.312	11.44
317.524	11.18
317.736	10.91
317.947	10.46
318.159	10.66
318.371	10.67
318.583	10.96
318.794	11.45
319.006	11.19
319.218	10.99
319.43	10.97
319.641	10.64
319.853	10.64
320.064	10.53
320.276	10.05
320.488	9.71
320.699	9.8
320.911	9.62
321.123	9.56
321.334	9.63
321.546	9.64
321.757	9.21
321.969	9.37
322.18	9.31
322.392	9.27
322.603	10.3
322.815	10.6
323.026	10.73
323.238	10.68
323.449	10.28
323.661	10.05
323.872	10.19
324.083	10.5
324.295	10.22
324.506	10.24
324.718	10.51
324.929	10.47
325.14	10.54
325.352	10.17
325.563	10.46
325.774	11.04
325.986	11.39
326.197	11.59
326.408	11.64
326.62	11.61
326.831	11.79
327.042	11.93
327.253	11.61
327.464	11.13
327.676	11.5
327.887	11.21
328.098	11.1
328.309	10.82
328.52	10.42
328.732	10.94
328.943	11.31
329.154	11.09
329.365	10.74
329.576	10.82
329.787	11.03
329.998	11.26
330.209	11.36
330.42	10.99
330.631	11.24
330.842	11.37
331.053	10.45
331.264	10.43
331.475	10.15
331.686	10.43
331.897	9.61
332.108	9.63
332.319	9.24
332.53	9.06
332.741	9.79
332.952	9.6
333.163	9.83
333.374	9.88
333.585	9.94
333.795	10.41
334.006	10.29
334.217	10.97
334.428	10.94
334.639	10.81
334.849	11
335.06	10.39
335.271	10.49
335.482	10.03
335.692	10.5
335.903	10.53
336.114	10.42
336.325	10.18
336.535	9.91
336.746	10.11
336.957	10.3
337.167	10.46
337.378	10.28
337.589	9.92
337.799	9.75
338.01	10.16
338.22	9.88
338.431	10.14
338.642	10.31
338.852	10.69
339.063	10.62
339.273	10.69
339.484	10.37
339.694	10.13
339.905	10.55
340.115	11.5
340.326	11.3
340.536	11.38
340.746	11.02
340.957	10.58
341.167	10.34
341.378	10.16
341.588	10.01
341.799	10.37
342.009	10.95
342.219	10.99
342.43	10.7
342.64	10.46
342.85	10.67
343.061	10.51
343.271	10.94
343.481	11.2
343.691	11.04
343.902	10.98
344.112	10.42
344.322	10.52
344.532	10.23
344.743	9.81
344.953	9.71
345.163	9.25
345.373	9.33
345.583	9.14
345.793	9.16
346.004	9.64
346.214	9.6
346.424	10.12
346.634	9.7
346.844	9.8
347.054	10.1
347.264	10.14
347.474	10.45
347.684	10.35
347.894	10.44
348.104	10.19
348.314	10
348.524	9.83
348.734	9.61
348.944	9.93
349.154	9.93
349.364	9.49
349.574	9.15
349.784	9.1
349.994	9.65
350.204	10
350.413	10.24
350.623	10.05
350.833	10.62
351.043	10.66
351.253	10.46
351.463	10.21
351.672	10.37
351.882	10.47
352.092	10.33
352.302	10.22
352.511	9.97
352.721	9.84
352.931	9.61
353.141	9.24
353.35	9.24
353.56	9.02
353.77	8.99
353.979	8.93
354.189	8.97
354.399	8.81
354.608	8.28
354.818	8.35
355.027	8.19
355.237	8.35
355.447	8.37
355.656	8.28
355.866	8.24
356.075	8.51
356.285	8.35
356.494	8.32
356.704	8.61
356.913	8.34
357.123	8.02
357.332	7.82
357.542	7.96
357.751	7.87
357.96	7.65
358.17	7.83
358.379	7.73
358.589	8.07
358.798	8.02
359.007	7.63
359.217	7.92
359.426	8.04
359.635	8.1
359.845	7.98
360.054	8.02
360.263	8.17
360.472	8.08
360.682	7.91
360.891	7.99
361.1	8.17
361.309	8.32
361.519	8.42
361.728	8.24
361.937	8.25
362.146	8.3
362.355	8.22
362.564	8.19
362.774	8.19
362.983	8.29
363.192	8.08
363.401	7.75
363.61	7.47
363.819	7.45
364.028	7.35
364.237	7.25
364.446	7.32
364.655	7.16
364.864	7.11
365.073	7.13
365.282	7.27
365.491	7.23
365.7	7.41
365.909	7.62
366.118	7.89
366.327	7.88
366.536	8.13
366.745	8.09
366.954	8.22
367.162	8.36
367.371	8.25
367.58	8.18
367.789	8.06
367.998	7.85
368.207	7.76
368.415	7.56
368.624	7.89
368.833	7.83
369.042	7.43
369.25	7.58
369.459	7.71
369.668	7.67
369.877	7.64
370.085	7.85
370.294	7.74
370.503	7.6
370.711	7.6
370.92	7.34
371.129	7.21
371.337	7.43
371.546	7.24
371.754	6.92
371.963	6.89
372.171	6.65
372.38	6.49
372.589	7.12
372.797	7.4
373.006	7.14
373.214	7.41
373.423	7.24
373.631	7.15
373.84	6.95
374.048	7.15
374.256	7.37
374.465	7.64
374.673	7.61
374.882	7.09
375.09	6.97
375.298	6.91
375.507	6.68
375.715	6.81
375.923	6.94
376.132	7.33
376.34	7.23
376.548	7.17
376.757	7
376.965	7.1
377.173	7.18
377.381	7.41
377.59	7.55
377.798	7.81
378.006	7.82
378.214	7.68
378.423	7.41
378.631	7.03
378.839	6.79
379.047	6.9
379.255	6.87
379.463	6.77
379.671	6.27
379.879	6.19
380.088	6.17
380.296	6.21
380.504	6.2
380.712	6.38
380.92	6.64
381.128	6.74
381.336	6.52
381.544	6.28
381.752	6.06
381.96	6.23
382.168	6.33
382.376	6.23
382.584	6
382.791	6.06
382.999	5.85
383.207	5.67
383.415	5.64
383.623	5.79
383.831	5.82
384.039	5.98
384.247	6.07
384.454	5.84
384.662	5.74
384.87	5.91
385.078	5.83
385.285	5.71
385.493	5.98
385.701	6.08
385.909	6.09
386.116	6.31
386.324	6.25
386.532	6.16
386.739	6.23
386.947	6.27
387.155	6.09
387.362	6.22
387.57	6.4
387.778	6.19
387.985	6.02
388.193	5.73
388.4	5.48
388.608	5.65
388.816	5.54
389.023	5.64
389.231	5.47
389.438	5.54
389.646	5.5
389.853	5.46
390.061	5.49
390.268	5.42
390.475	5.5
390.683	5.56
390.89	5.5
391.098	5.6
391.305	5.39
391.512	5.29
391.72	5.28
391.927	5.12
392.135	4.81
392.342	4.72
392.549	4.85
392.756	4.93
392.964	4.9
393.171	4.67
393.378	4.56
393.586	4.65
393.793	4.76
394	4.54
394.207	4.73
394.414	4.86
394.622	4.89
394.829	5.04
395.036	4.95
395.243	4.81
395.45	5.06
395.657	5.23
395.864	5.34
396.072	5.37
396.279	5.63
396.486	5.42
396.693	5.44
396.9	5.4
397.107	5.16
397.314	5.22
397.521	5.27
397.728	5.25
397.935	5.37
398.142	5.27
398.349	5.17
398.556	5.24
398.763	5.25
398.97	5.47
399.177	5.66
399.383	5.72
399.59	5.6
399.797	5.44
400.004	5.35
400.211	5.09
400.418	5.18
400.625	5.34
400.831	5.02
401.038	4.91
401.245	4.95
401.452	4.84
401.658	4.75
401.865	4.89
402.072	4.98
402.279	5.07
402.485	5.22
402.692	5.23
402.899	5.18
403.105	5.27
403.312	5.33
403.519	5.22
403.725	5.2
403.932	5.36
404.138	5.27
404.345	5.31
404.552	5.27
404.758	5.21
404.965	5.26
405.171	5.3
405.378	5.47
405.584	5.64
405.791	5.56
405.997	5.46
406.204	5.35
406.41	5.41
406.617	5.42
406.823	5.49
407.029	5.46
407.236	5.41
407.442	5.32
407.649	5.22
407.855	5.1
408.061	5.11
408.268	5.2
408.474	5.07
408.68	5.08
408.887	5.16
409.093	5.01
409.299	4.94
409.505	4.81
409.712	4.83
409.918	4.74
410.124	4.81
410.33	4.85
410.537	4.84
410.743	4.9
410.949	4.85
411.155	4.74
411.361	4.69
411.567	4.84
411.773	4.84
411.98	5.03
412.186	4.97
412.392	4.91
412.598	4.94
412.804	4.64
413.01	4.77
413.216	4.69
413.422	4.77
413.628	4.74
413.834	4.63
414.04	4.52
414.246	4.15
414.452	4.22
414.658	4.31
414.864	4.34
415.07	4.48
415.275	4.36
415.481	4.41
415.687	4.26
415.893	4.31
416.099	4.23
416.305	4.27
416.511	4.49
416.716	4.59
416.922	4.58
417.128	4.58
417.334	4.6
417.539	4.6
417.745	4.57
417.951	4.61
418.157	4.67
418.362	4.62
418.568	4.68
418.774	4.53
418.979	4.42
419.185	4.34
419.391	4.29
419.596	4.33
419.802	4.32
420.008	4.28
420.213	4.87
420.419	4.84
420.624	4.88
420.83	4.84
421.035	4.88
421.241	4.92
421.446	4.89
421.652	4.88
421.857	4.83
422.063	4.84
422.268	4.89
422.474	4.39
422.679	4.4
422.885	4.37
423.09	4.34
423.295	4.31
423.501	4.26
423.706	4.3
423.911	4.32
424.117	4.36
424.322	4.3
424.527	4.27
424.733	4.21
424.938	4.19
425.143	4.25
425.349	4.37
425.554	4.39
425.759	4.44
425.964	4.38
426.169	4.37
426.375	4.22
426.58	4.39
426.785	4.4
426.99	4.35
427.195	4.4
427.4	4.34
427.605	4.31
427.811	4.35
428.016	4.29
428.221	4.31
428.426	4.23
428.631	4.39
428.836	4.27
429.041	4.27
429.246	4.27
429.451	4.26
429.656	4.36
429.861	4.31
430.066	4.37
430.271	4.44
430.476	4.51
430.681	4.59
430.886	4.51
431.09	4.62
431.295	4.55
431.5	4.49
431.705	4.47
431.91	4.51
432.115	4.5
432.32	4.38
432.524	4.39
432.729	4.35
432.934	4.32
433.139	4.43
433.343	4.41
433.548	4.54
433.753	4.58
433.958	4.56
434.162	4.46
434.367	4.49
434.572	4.6
434.776	4.48
434.981	4.47
435.186	4.4
435.39	4.29
435.595	4.29
435.799	4.24
436.004	4.27
436.209	4.12
436.413	4.16
436.618	4.03
436.822	4.04
437.027	4.15
437.231	4.19
437.436	4.21
437.64	4.26
437.845	4.18
438.049	4.23
438.253	4.29
438.458	4.42
438.662	4.42
438.867	4.46
439.071	4.52
439.275	4.49
439.48	4.42
439.684	4.44
439.888	4.38
440.093	4.46
440.297	4.39
440.501	4.32
440.706	4.32
440.91	4.38
441.114	4.34
441.318	4.2
441.523	4.21
441.727	4.33
441.931	4.48
442.135	4.49
442.339	4.4
442.543	4.48
442.748	4.48
442.952	4.41
443.156	4.25
443.36	4.27
443.564	4.32
443.768	4.23
443.972	4.16
444.176	4.04
444.38	4.05
444.584	4.01
444.788	3.98
444.992	3.89
445.196	3.94
445.4	3.96
445.604	3.94
445.808	3.92
446.012	3.99
446.216	3.97
446.42	3.99
446.624	4.02
446.828	4.11
447.032	4.03
447.235	4.08
447.439	4.07
447.643	4.03
447.847	4.06
448.051	4.08
448.254	4.08
448.458	4.18
448.662	4.12
448.866	4.1
449.069	4.03
449.273	4.03
449.477	4.12
449.681	4.2
449.884	4.28
450.088	4.33
450.292	4.37
450.495	4.18
450.699	4.12
450.902	4.22
451.106	4.18
451.31	4.15
451.513	4.19
451.717	4.14
451.92	3.98
452.124	3.87
452.327	3.92
452.531	3.92
452.734	4.01
452.938	3.95
453.141	3.84
453.345	3.78
453.548	3.77
453.752	3.86
453.955	3.95
454.158	3.98
454.362	4.04
454.565	4.03
454.769	4.01
454.972	4.15
455.175	4.17
455.379	4.21
455.582	4.34
455.785	4.4
455.988	4.33
456.192	4.22
456.395	4.24
456.598	4.27
456.801	4.27
457.005	4.23
457.208	4.11
457.411	4.11
457.614	4.04
457.817	3.99
458.021	3.99
458.224	4.05
458.427	4.12
458.63	4.07
458.833	4.04
459.036	4.08
459.239	4.1
459.442	4.17
459.645	4.1
459.848	4.08
460.051	4.05
460.254	4.13
460.457	4.01
460.66	4
460.863	4.04
461.066	4.05
461.269	3.92
461.472	3.98
461.675	3.9
461.878	4
462.081	4.12
462.284	4.21
462.486	4.05
462.689	4.12
462.892	4.01
463.095	4.06
463.298	4.14
463.5	4.22
463.703	4.12
463.906	4.2
464.109	4.14
464.311	4.16
464.514	4.16
464.717	4.28
464.92	4.25
465.122	4.29
465.325	4.29
465.528	4.22
465.73	4.25
465.933	4.23
466.135	4.19
466.338	4.19
466.541	4.17
466.743	4.1
466.946	4.06
467.148	4
467.351	4
467.553	3.94
467.756	3.9
467.958	3.84
468.161	3.91
468.363	3.92
468.566	3.94
