Data from 2938516_Reflection_1.txt Node
Date: Tue Jun 16 22:32:58 EDT 2015
User: robert
Spectrometer: USB4E03002
Autoset integration time: false
Trigger mode: 4
Integration Time (sec): 1.000000E-1
Scans to average: 10
Electric dark correction enabled: true
Nonlinearity correction enabled: false
Boxcar width: 5
Stray light correction enabled: false
XAxis mode: Wavelengths
Stop averaging: false
Number of Pixels in Spectrum: 3648
>>>>>Begin Spectral Data<<<<<
177.575	73.28
177.794	42.22
178.014	41.72
178.233	51.96
178.452	88.44
178.672	31.73
178.891	-483.94
179.11	205.91
179.33	464.19
179.549	26.31
179.768	11.13
179.987	57.37
180.207	-8.86
180.426	2.16
180.645	-649.16
180.864	133.64
181.084	87.92
181.303	104.5
181.522	94.81
181.741	87.37
181.96	67.35
182.179	73.66
182.398	73.3
182.618	49.88
182.837	53.69
183.056	21.2
183.275	45.39
183.494	-53.53
183.713	228.18
183.932	395.32
184.151	342.59
184.37	1014.08
184.589	-42.29
184.808	42.06
185.027	98.4
185.246	77.48
185.465	116.39
185.684	77.62
185.903	112.11
186.122	93.04
186.341	103.24
186.56	111.26
186.779	177.29
186.998	242.71
187.216	416.23
187.435	227.76
187.654	203.65
187.873	254
188.092	262.43
188.311	183.26
188.53	120.19
188.748	-181.56
188.967	-2455.91
189.186	-163.68
189.405	0.31
189.623	-50.48
189.842	-27.93
190.061	-36.69
190.28	-52.4
190.498	-15.85
190.717	22.03
190.936	53.6
191.154	68.83
191.373	78.05
191.592	81.22
191.81	84.13
192.029	113.84
192.248	107.97
192.466	111.66
192.685	141.62
192.904	238.07
193.122	309.54
193.341	-172.05
193.559	-57.19
193.778	-62.03
193.996	-61.62
194.215	-334.53
194.433	-231.14
194.652	-426.17
194.87	1646.18
195.089	193.05
195.307	137.57
195.526	103.93
195.744	116.24
195.963	140.17
196.181	114.62
196.399	95.76
196.618	106.62
196.836	74.5
197.055	68.73
197.273	88.4
197.491	113.28
197.71	79.93
197.928	94.91
198.146	111.17
198.365	73.26
198.583	85.08
198.801	105.67
199.019	66.96
199.238	71.51
199.456	117.61
199.674	56.96
199.892	40.16
200.111	61.92
200.329	34.12
200.547	15.67
200.765	18.76
200.983	18.83
201.202	1.99
201.42	-5.62
201.638	7.92
201.856	37.61
202.074	39.57
202.292	54.05
202.51	56.51
202.728	56.11
202.946	100.23
203.165	96.7
203.383	114.35
203.601	113.21
203.819	171.46
204.037	157.58
204.255	117.61
204.473	142.09
204.691	128.48
204.909	144.46
205.127	204.82
205.345	187.63
205.562	183.12
205.78	153.86
205.998	151.97
206.216	127.89
206.434	133.8
206.652	213.05
206.87	207.36
207.088	220.51
207.306	194.07
207.523	123.86
207.741	150.26
207.959	145.83
208.177	131.06
208.395	111.12
208.612	93.76
208.83	82.47
209.048	81.98
209.266	74.04
209.483	59.9
209.701	60.12
209.919	63.13
210.136	42.5
210.354	31.78
210.572	26.74
210.79	26.82
211.007	29.4
211.225	29.65
211.442	29.39
211.66	21.52
211.878	24.5
212.095	12.82
212.313	13.3
212.53	13.15
212.748	11.05
212.966	12.44
213.183	29.35
213.401	24.39
213.618	28.93
213.836	24.24
214.053	32.93
214.271	39.06
214.488	66.5
214.705	66.75
214.923	85.97
215.14	64.51
215.358	47.02
215.575	32.37
215.793	30.46
216.01	30.64
216.227	29.13
216.445	24.28
216.662	14.11
216.879	32.86
217.097	21.23
217.314	-2.99
217.531	5.49
217.749	5.95
217.966	23.86
218.183	24.58
218.4	12.94
218.618	5.4
218.835	6.14
219.052	-10.97
219.269	-28.46
219.487	-24.8
219.704	-9.84
219.921	-3.42
220.138	6.67
220.355	-0.3
220.572	-0.6
220.79	10.83
221.007	24.47
221.224	24.83
221.441	31.54
221.658	36.91
221.875	43.63
222.092	46.3
222.309	49.19
222.526	41.67
222.743	37.15
222.96	36.79
223.177	30.83
223.394	31.29
223.611	28.63
223.828	30.59
224.045	30.02
224.262	25.11
224.479	21.96
224.696	19.99
224.913	18.83
225.13	21.4
225.347	21.87
225.564	19.92
225.781	16.76
225.997	15.86
226.214	15.46
226.431	14.5
226.648	13.52
226.865	13.23
227.082	12.8
227.298	12.18
227.515	11.19
227.732	10.39
227.949	10.97
228.165	9.52
228.382	9.59
228.599	9.17
228.816	9.02
229.032	10.07
229.249	9.87
229.466	10.47
229.682	9.95
229.899	10
230.116	9.3
230.332	8.07
230.549	10.47
230.765	10.08
230.982	9.62
231.199	11.25
231.415	9.83
231.632	10.89
231.848	9.34
232.065	11.34
232.281	9.75
232.498	9.96
232.714	9.66
232.931	8.43
233.147	7.06
233.364	7.46
233.58	5.08
233.797	4.85
234.013	4.08
234.23	4.98
234.446	5.71
234.662	7.27
234.879	8.84
235.095	10.76
235.312	12.25
235.528	15
235.744	15.74
235.961	17.21
236.177	19.17
236.393	21.3
236.61	21.37
236.826	19.73
237.042	18.4
237.258	16.58
237.475	15.88
237.691	15.39
237.907	13.37
238.123	12.11
238.339	11.73
238.556	12.13
238.772	10.41
238.988	10.63
239.204	11.27
239.42	11.64
239.636	11.55
239.853	10.88
240.069	11.32
240.285	11.41
240.501	11.68
240.717	11.34
240.933	11.36
241.149	11.1
241.365	10.4
241.581	9.85
241.797	9.27
242.013	9.44
242.229	9.54
242.445	8.81
242.661	8.65
242.877	8.3
243.093	8.46
243.309	8.07
243.525	7.96
243.741	8.32
243.957	8.93
244.173	9.07
244.388	9.33
244.604	9.36
244.82	9.13
245.036	9.41
245.252	9.48
245.468	9.14
245.683	8.92
245.899	8.76
246.115	8.81
246.331	8.59
246.547	8.51
246.762	8.41
246.978	8.7
247.194	8.75
247.409	8.56
247.625	8.38
247.841	8.22
248.057	8.28
248.272	8.83
248.488	8.67
248.703	8.82
248.919	9.41
249.135	9.72
249.35	9.11
249.566	9.28
249.782	8.37
249.997	8.76
250.213	9.86
250.428	9.65
250.644	9.17
250.859	8.98
251.075	9.39
251.29	8.5
251.506	8.03
251.721	8.08
251.937	8.45
252.152	9.24
252.368	8.87
252.583	8.89
252.798	9.69
253.014	10.06
253.229	10.39
253.445	9.52
253.66	9.99
253.875	9.38
254.091	9.4
254.306	9.55
254.521	9.15
254.737	9.22
254.952	8.69
255.167	7.66
255.383	7.47
255.598	7.54
255.813	7.57
256.028	7.28
256.244	7.54
256.459	7.12
256.674	6.42
256.889	7.2
257.104	6.65
257.32	6.45
257.535	6.32
257.75	6.33
257.965	6.13
258.18	6.27
258.395	6.35
258.61	6.29
258.826	6.55
259.041	6.75
259.256	6.33
259.471	6.57
259.686	6.96
259.901	7.15
260.116	7.02
260.331	7.19
260.546	7.11
260.761	6.8
260.976	7.05
261.191	6.83
261.406	6.29
261.621	6.54
261.836	6.68
262.05	6.59
262.265	6.86
262.48	7.29
262.695	7.24
262.91	7.16
263.125	7.17
263.34	7.3
263.555	7.11
263.769	7.87
263.984	7.17
264.199	7.1
264.414	6.41
264.629	6.12
264.843	5.86
265.058	6.35
265.273	6.72
265.488	7.75
265.702	7.59
265.917	7.55
266.132	7.66
266.346	8.22
266.561	7.72
266.776	7.67
266.99	7.37
267.205	7.73
267.42	6.94
267.634	6.41
267.849	5.87
268.063	5.61
268.278	5.49
268.492	4.87
268.707	4.71
268.922	4.91
269.136	5.65
269.351	5.8
269.565	5.67
269.78	6.26
269.994	6.19
270.209	6.38
270.423	6.02
270.637	6.31
270.852	6.81
271.066	6.39
271.281	6.7
271.495	6.21
271.709	6.3
271.924	6.06
272.138	5.93
272.353	6.7
272.567	6.3
272.781	6.75
272.996	6.44
273.21	6.03
273.424	6.41
273.638	5.98
273.853	5.76
274.067	5.9
274.281	6.21
274.495	6.45
274.71	5.74
274.924	5.76
275.138	6.01
275.352	6.01
275.566	6.31
275.781	6.32
275.995	6.35
276.209	6.71
276.423	6.63
276.637	6.31
276.851	6.24
277.065	6.11
277.279	6.27
277.493	6.22
277.707	5.86
277.921	5.7
278.135	6.25
278.349	6.43
278.563	6.21
278.777	6.02
278.991	6.77
279.205	6.26
279.419	6.26
279.633	6.2
279.847	6.39
280.061	6.87
280.275	6.97
280.489	6.73
280.703	6.53
280.917	6.6
281.131	6.59
281.344	5.85
281.558	6.16
281.772	6.2
281.986	5.91
282.2	6.04
282.414	5.56
282.627	5.36
282.841	5.45
283.055	5.47
283.269	5.37
283.482	5.53
283.696	5.75
283.91	5.22
284.123	5.31
284.337	5.7
284.551	5.71
284.764	6.11
284.978	5.96
285.192	5.76
285.405	5.99
285.619	6.11
285.833	6.26
286.046	6.72
286.26	6.94
286.473	7.39
286.687	7.42
286.9	6.89
287.114	7.05
287.327	7.34
287.541	7.3
287.754	7.2
287.968	7.45
288.181	7.4
288.395	6.7
288.608	7.05
288.822	6.83
289.035	6.43
289.248	7.06
289.462	6.93
289.675	6.89
289.889	6.79
290.102	6.88
290.315	6.48
290.529	6.54
290.742	7.25
290.955	7.11
291.169	7.07
291.382	7.27
291.595	6.89
291.808	7.05
292.022	7
292.235	7.25
292.448	7.45
292.661	7.79
292.875	7.47
293.088	6.95
293.301	7
293.514	6.56
293.727	6.92
293.94	6.81
294.153	6.83
294.367	6.97
294.58	7
294.793	7.04
295.006	6.64
295.219	6.67
295.432	6.7
295.645	6.6
295.858	7.08
296.071	6.9
296.284	6.82
296.497	6.66
296.71	6.8
296.923	6.83
297.136	6.73
297.349	7.19
297.562	7.28
297.775	7.19
297.988	7.5
298.201	7.43
298.414	7.26
298.626	7.63
298.839	7.76
299.052	7.32
299.265	7.61
299.478	7.39
299.691	7.18
299.903	7.33
300.116	7.48
300.329	6.95
300.542	6.95
300.755	7.4
300.967	7.04
301.18	7.41
301.393	7.37
301.605	7.26
301.818	7.5
302.031	7.53
302.243	7.72
302.456	7.48
302.669	8.06
302.881	7.89
303.094	7.59
303.307	7.74
303.519	7.48
303.732	8.11
303.944	7.94
304.157	7.75
304.37	7.15
304.582	7.06
304.795	7.24
305.007	7.2
305.22	7.29
305.432	7.62
305.645	7.82
305.857	7.49
306.069	7.29
306.282	7.36
306.494	7.32
306.707	7.88
306.919	7.65
307.132	7.83
307.344	7.8
307.556	7.66
307.769	7.35
307.981	7.15
308.193	7.55
308.406	7.23
308.618	7.11
308.83	7.41
309.043	7.65
309.255	7.64
309.467	7.48
309.679	7.49
309.892	7.65
310.104	7.69
310.316	7.53
310.528	7.39
310.74	7.5
310.953	7.59
311.165	7.64
311.377	7.65
311.589	8.12
311.801	8.51
312.013	8.71
312.225	8.6
312.437	8.63
312.649	9.12
312.862	8.9
313.074	9.12
313.286	9.05
313.498	9.08
313.71	8.35
313.922	8.12
314.134	7.38
314.346	7
314.558	7.17
314.77	7.35
314.982	7.1
315.193	7.65
315.405	8.05
315.617	8.34
315.829	7.95
316.041	8.39
316.253	8.08
316.465	8.41
316.677	8.34
316.888	8.5
317.1	8.38
317.312	8.24
317.524	7.98
317.736	7.64
317.947	8.07
318.159	8.55
318.371	8.69
318.583	8.16
318.794	7.82
319.006	7.66
319.218	6.95
319.43	7.22
319.641	7.49
319.853	6.9
320.064	6.8
320.276	6.4
320.488	5.95
320.699	5.85
320.911	6.22
321.123	7.22
321.334	7.75
321.546	8.64
321.757	8.05
321.969	7.99
322.18	8.15
322.392	8.22
322.603	8.32
322.815	8.21
323.026	8.36
323.238	8.42
323.449	8.42
323.661	7.82
323.872	7.69
324.083	8.51
324.295	8.77
324.506	9.63
324.718	9.38
324.929	9.15
325.14	9.65
325.352	9.41
325.563	9.65
325.774	9.53
325.986	10.03
326.197	9.91
326.408	9.68
326.62	9.83
326.831	9.04
327.042	9.15
327.253	8.72
327.464	8.2
327.676	8.23
327.887	8.48
328.098	7.95
328.309	7.96
328.52	7.82
328.732	7.38
328.943	6.96
329.154	7.22
329.365	7.08
329.576	7.76
329.787	8.26
329.998	7.79
330.209	7.75
330.42	8.22
330.631	7.96
330.842	7.91
331.053	8.65
331.264	8.43
331.475	8.56
331.686	8.75
331.897	8.27
332.108	7.95
332.319	8.7
332.53	8.75
332.741	8.6
332.952	8.58
333.163	8.6
333.374	8.23
333.585	8.1
333.795	7.78
334.006	8.16
334.217	8.16
334.428	8.33
334.639	8
334.849	8.04
335.06	8.35
335.271	7.77
335.482	7.68
335.692	7.43
335.903	7.81
336.114	8.11
336.325	7.64
336.535	8.1
336.746	7.66
336.957	8.21
337.167	7.72
337.378	7.79
337.589	8.37
337.799	8.83
338.01	9.3
338.22	9.09
338.431	8.69
338.642	8.77
338.852	8.48
339.063	8.87
339.273	8.5
339.484	8.53
339.694	8.16
339.905	8.44
340.115	8.2
340.326	7.9
340.536	8.09
340.746	8.34
340.957	8.11
341.167	8.02
341.378	7.69
341.588	7.46
341.799	7.35
342.009	7.29
342.219	6.93
342.43	6.69
342.64	6.68
342.85	6.78
343.061	7.07
343.271	7.35
343.481	7.52
343.691	7.71
343.902	7.71
344.112	8.04
344.322	8.01
344.532	7.99
344.743	8.25
344.953	8.08
345.163	8.46
345.373	7.98
345.583	7.69
345.793	7.39
346.004	7.52
346.214	7.6
346.424	7.44
346.634	7.49
346.844	7.44
347.054	7.3
347.264	7.54
347.474	6.58
347.684	6.72
347.894	6.98
348.104	7.13
348.314	6.62
348.524	6.62
348.734	6.84
348.944	7.04
349.154	7.28
349.364	6.99
349.574	7.2
349.784	7.49
349.994	7.64
350.204	7.57
350.413	7.73
350.623	7.81
350.833	7.98
351.043	7.6
351.253	7.46
351.463	7.45
351.672	7.43
351.882	7.09
352.092	7.33
352.302	7.49
352.511	7.46
352.721	7.3
352.931	7.42
353.141	7.35
353.35	7.51
353.56	7.48
353.77	7.55
353.979	7.88
354.189	8.09
354.399	7.66
354.608	7.44
354.818	7.42
355.027	7.67
355.237	7.59
355.447	7.7
355.656	7.61
355.866	7.63
356.075	7.6
356.285	7.51
356.494	7.28
356.704	7.35
356.913	7.19
357.123	7.09
357.332	6.85
357.542	6.84
357.751	6.59
357.96	6.92
358.17	6.66
358.379	6.81
358.589	6.8
358.798	6.63
359.007	6.68
359.217	6.84
359.426	6.87
359.635	6.83
359.845	6.85
360.054	7
360.263	6.72
360.472	6.74
360.682	6.56
360.891	6.63
361.1	6.73
361.309	6.55
361.519	6.39
361.728	6.44
361.937	6.64
362.146	6.51
362.355	6.27
362.564	6.32
362.774	6.46
362.983	6.57
363.192	6.38
363.401	6.44
363.61	6.7
363.819	6.63
364.028	6.44
364.237	6.17
364.446	6.33
364.655	6.52
364.864	6.33
365.073	6.1
365.282	5.85
365.491	6.01
365.7	6.01
365.909	5.95
366.118	5.94
366.327	5.94
366.536	5.92
366.745	5.97
366.954	5.73
367.162	5.62
367.371	5.65
367.58	5.7
367.789	5.38
367.998	5.52
368.207	5.37
368.415	5.43
368.624	5.56
368.833	5.57
369.042	5.75
369.25	5.9
369.459	5.89
369.668	5.94
369.877	6.08
370.085	6.41
370.294	6.26
370.503	6.37
370.711	6.47
370.92	6.41
371.129	6.26
371.337	6.1
371.546	6.1
371.754	6.24
371.963	6.39
372.171	6.06
372.38	5.9
372.589	5.86
372.797	5.57
373.006	5.55
373.214	5.37
373.423	5.56
373.631	5.64
373.84	5.69
374.048	5.72
374.256	5.63
374.465	5.81
374.673	5.76
374.882	5.74
375.09	5.93
375.298	5.85
375.507	6.11
375.715	6.1
375.923	6.1
376.132	6.16
376.34	5.96
376.548	5.82
376.757	5.85
376.965	5.77
377.173	5.76
377.381	5.87
377.59	5.88
377.798	5.71
378.006	5.72
378.214	5.51
378.423	5.49
378.631	5.58
378.839	5.71
379.047	5.48
379.255	5.52
379.463	5.46
379.671	5.62
379.879	5.62
380.088	5.76
380.296	5.63
380.504	5.76
380.712	5.58
380.92	5.81
381.128	5.73
381.336	5.87
381.544	5.98
381.752	6.19
381.96	5.77
382.168	5.64
382.376	5.36
382.584	5.33
382.791	5.31
382.999	5.19
383.207	5.13
383.415	4.77
383.623	4.72
383.831	4.7
384.039	4.49
384.247	4.53
384.454	4.6
384.662	4.77
384.87	4.81
385.078	4.73
385.285	4.72
385.493	4.4
385.701	4.77
385.909	4.72
386.116	4.52
386.324	4.62
386.532	4.62
386.739	4.67
386.947	4.76
387.155	4.53
387.362	4.56
387.57	4.6
387.778	4.77
387.985	4.77
388.193	4.83
388.4	4.83
388.608	4.76
388.816	4.8
389.023	4.82
389.231	4.72
389.438	4.96
389.646	4.92
389.853	4.86
390.061	4.97
390.268	4.93
390.475	4.79
390.683	4.75
390.89	4.69
391.098	4.87
391.305	5.03
391.512	5.08
391.72	4.87
391.927	4.81
392.135	4.87
392.342	4.81
392.549	4.89
392.756	5.11
392.964	5.28
393.171	5.04
393.378	5
393.586	4.62
393.793	4.59
394	4.83
394.207	4.8
394.414	4.73
394.622	4.65
394.829	4.59
395.036	4.21
395.243	4.14
395.45	4.28
395.657	4.07
395.864	4.29
396.072	4.31
396.279	4.3
396.486	4.21
396.693	4.44
396.9	4.4
397.107	4.39
397.314	4.45
397.521	4.35
397.728	4.49
397.935	4.59
398.142	4.54
398.349	4.56
398.556	4.35
398.763	4.53
398.97	4.36
399.177	4.57
399.383	4.33
399.59	4.34
399.797	4.4
400.004	4.21
400.211	4.15
400.418	4.11
400.625	4.08
400.831	4.2
401.038	4.15
401.245	3.97
401.452	3.79
401.658	3.9
401.865	3.93
402.072	3.94
402.279	4.01
402.485	4.02
402.692	4.01
402.899	3.95
403.105	3.81
403.312	3.61
403.519	3.87
403.725	3.87
403.932	3.91
404.138	3.88
404.345	3.86
404.552	4
404.758	3.94
404.965	3.93
405.171	3.91
405.378	4.03
405.584	4
405.791	3.83
405.997	3.74
406.204	3.73
406.41	3.94
406.617	3.85
406.823	3.82
407.029	3.76
407.236	3.69
407.442	3.68
407.649	3.72
407.855	3.88
408.061	3.85
408.268	3.94
408.474	3.84
408.68	3.67
408.887	3.68
409.093	3.57
409.299	3.63
409.505	3.65
409.712	3.62
409.918	3.47
410.124	3.59
410.33	3.46
410.537	3.31
410.743	3.28
410.949	3.34
411.155	3.45
411.361	3.43
411.567	3.44
411.773	3.64
411.98	3.5
412.186	3.46
412.392	3.36
412.598	3.56
412.804	3.63
413.01	3.86
413.216	3.74
413.422	3.47
413.628	3.54
413.834	3.6
414.04	3.22
414.246	3.36
414.452	3.36
414.658	3.32
414.864	3.24
415.07	3.34
415.275	3.23
415.481	3.21
415.687	3.3
415.893	3.21
416.099	3.2
416.305	3.26
416.511	3.17
416.716	3.32
416.922	3.4
417.128	3.39
417.334	3.33
417.539	3.27
417.745	3.31
417.951	3.28
418.157	3.28
418.362	3.24
418.568	3.32
418.774	3.31
418.979	3.13
419.185	3.14
419.391	3.22
419.596	3.15
419.802	3.14
420.008	3.1
420.213	3.48
420.419	3.47
420.624	3.42
420.83	3.39
421.035	3.43
421.241	3.47
421.446	3.35
421.652	3.25
421.857	3.21
422.063	3.18
422.268	3.15
422.474	2.8
422.679	2.87
422.885	2.81
423.09	2.86
423.295	2.85
423.501	2.86
423.706	2.95
423.911	2.97
424.117	3.08
424.322	3.14
424.527	3.19
424.733	3.13
424.938	3.1
425.143	3.24
425.349	3.14
425.554	3.17
425.759	3.25
425.964	3.2
426.169	3.29
426.375	3.21
426.58	3.15
426.785	3.18
426.99	3.27
427.195	3.26
427.4	3.25
427.605	3.28
427.811	3.3
428.016	3.32
428.221	3.24
428.426	3.17
428.631	3.2
428.836	3.26
429.041	3.25
429.246	3.25
429.451	3.19
429.656	3.25
429.861	3.19
430.066	3.06
430.271	2.94
430.476	2.95
430.681	2.8
430.886	2.88
431.09	2.93
431.295	2.85
431.5	2.87
431.705	2.88
431.91	2.82
432.115	2.82
432.32	2.87
432.524	2.88
432.729	3.04
432.934	3.2
433.139	3.13
433.343	3.06
433.548	2.98
433.753	2.88
433.958	2.87
434.162	2.79
434.367	2.8
434.572	2.8
434.776	2.8
434.981	2.54
435.186	2.41
435.39	2.4
435.595	2.26
435.799	2.29
436.004	2.47
436.209	2.39
436.413	2.51
436.618	2.44
436.822	2.49
437.027	2.46
437.231	2.55
437.436	2.55
437.64	2.54
437.845	2.69
438.049	2.87
438.253	2.74
438.458	2.79
438.662	2.74
438.867	2.82
439.071	2.81
439.275	2.88
439.48	2.96
439.684	3.09
439.888	3.09
440.093	3.01
440.297	2.93
440.501	2.94
440.706	2.94
440.91	2.91
441.114	2.86
441.318	2.78
441.523	2.71
441.727	2.64
441.931	2.56
442.135	2.59
442.339	2.65
442.543	2.6
442.748	2.61
442.952	2.64
443.156	2.68
443.36	2.71
443.564	2.66
443.768	2.7
443.972	2.72
444.176	2.68
444.38	2.67
444.584	2.59
444.788	2.58
444.992	2.54
445.196	2.56
445.4	2.49
445.604	2.52
445.808	2.64
446.012	2.57
446.216	2.56
446.42	2.59
446.624	2.57
446.828	2.64
447.032	2.68
447.235	2.72
447.439	2.69
447.643	2.76
447.847	2.73
448.051	2.71
448.254	2.7
448.458	2.64
448.662	2.51
448.866	2.51
449.069	2.57
449.273	2.59
449.477	2.53
449.681	2.4
449.884	2.37
450.088	2.29
450.292	2.26
450.495	2.43
450.699	2.47
450.902	2.5
451.106	2.55
451.31	2.42
451.513	2.39
451.717	2.35
451.92	2.4
452.124	2.4
452.327	2.45
452.531	2.36
452.734	2.24
452.938	2.19
453.141	2.32
453.345	2.28
453.548	2.35
453.752	2.3
453.955	2.37
454.158	2.37
454.362	2.36
454.565	2.46
454.769	2.53
454.972	2.46
455.175	2.48
455.379	2.46
455.582	2.52
455.785	2.48
455.988	2.48
456.192	2.55
456.395	2.51
456.598	2.52
456.801	2.46
457.005	2.38
457.208	2.42
457.411	2.43
457.614	2.38
457.817	2.35
458.021	2.38
458.224	2.37
458.427	2.31
458.63	2.34
458.833	2.42
459.036	2.37
459.239	2.46
459.442	2.48
459.645	2.51
459.848	2.5
460.051	2.52
460.254	2.51
460.457	2.51
460.66	2.56
460.863	2.63
461.066	2.48
461.269	2.53
461.472	2.47
461.675	2.43
461.878	2.4
462.081	2.34
462.284	2.31
462.486	2.18
462.689	2.26
462.892	2.12
463.095	2.08
463.298	2.18
463.5	2.15
463.703	2.3
463.906	2.35
464.109	2.4
464.311	2.44
464.514	2.4
464.717	2.58
464.92	2.59
465.122	2.66
465.325	2.58
465.528	2.57
465.73	2.59
465.933	2.48
466.135	2.43
466.338	2.36
466.541	2.33
466.743	2.34
466.946	2.32
467.148	2.27
467.351	2.32
467.553	2.42
467.756	2.39
467.958	2.48
468.161	2.51
468.363	2.59
468.566	2.67
468.768	2.76
468.971	2.7
469.173	2.69
469.375	2.72
469.578	2.68
469.78	2.69
469.983	2.73
470.185	2.53
470.387	2.51
470.59	2.47
470.792	2.43
470.994	2.39
471.196	2.5
