Data from 2938508_Reflection_1.txt Node
Date: Tue Jun 16 22:54:00 EDT 2015
User: robert
Spectrometer: USB4E03002
Autoset integration time: false
Trigger mode: 4
Integration Time (sec): 1.000000E-1
Scans to average: 10
Electric dark correction enabled: true
Nonlinearity correction enabled: false
Boxcar width: 5
Stray light correction enabled: false
XAxis mode: Wavelengths
Stop averaging: false
Number of Pixels in Spectrum: 3648
>>>>>Begin Spectral Data<<<<<
177.575	-6.87
177.794	38.6
178.014	39.29
178.233	54.31
178.452	68.94
178.672	84.99
178.891	266.67
179.11	-275
179.33	-478.39
179.549	-28.3
179.768	-12.6
179.987	72.91
180.207	166
180.426	105.34
180.645	603.7
180.864	-479.35
181.084	2.68
181.303	45.14
181.522	51.18
181.741	70.72
181.96	64.29
182.179	84.42
182.398	144
182.618	133.63
182.837	152.38
183.056	119.22
183.275	162.84
183.494	214.3
183.713	-97.2
183.932	-276.59
184.151	-290.42
184.37	-1527.67
184.589	223.19
184.808	122.22
185.027	164.98
185.246	125.79
185.465	184.2
185.684	163.37
185.903	196.81
186.122	170.46
186.341	179.5
186.56	175.51
186.779	298.13
186.998	517.54
187.216	757.84
187.435	484.26
187.654	409.29
187.873	669.63
188.092	643.81
188.311	490.8
188.53	514.96
188.748	1455.46
188.967	8919.35
189.186	252.39
189.405	158.51
189.623	114.78
189.842	126.7
190.061	161.67
190.28	135.06
190.498	123.33
190.717	100.35
190.936	107.82
191.154	101.2
191.373	117.29
191.592	137.15
191.81	120.23
192.029	133.09
192.248	127.4
192.466	149.01
192.685	138.99
192.904	176.97
193.122	272.18
193.341	-152.86
193.559	-65.78
193.778	-37.75
193.996	-81.05
194.215	-575.31
194.433	-360.31
194.652	-938.56
194.87	2579.52
195.089	447.29
195.307	475.93
195.526	291.72
195.744	228.69
195.963	178.71
196.181	162.51
196.399	144.8
196.618	168.18
196.836	153.54
197.055	110.24
197.273	133.47
197.491	153.98
197.71	90.02
197.928	109.07
198.146	101.57
198.365	106.61
198.583	134.1
198.801	155.84
199.019	108.2
199.238	127.75
199.456	236.18
199.674	207.52
199.892	199.22
200.111	174.45
200.329	122.7
200.547	86.96
200.765	75.58
200.983	64.37
201.202	38.47
201.42	44.48
201.638	41.77
201.856	56.65
202.074	42.89
202.292	73.78
202.51	88.58
202.728	82.83
202.946	140.85
203.165	150.41
203.383	149.71
203.601	138.58
203.819	173.94
204.037	179.64
204.255	175.85
204.473	181.57
204.691	131.54
204.909	136.39
205.127	208.13
205.345	153.92
205.562	146.17
205.78	158.79
205.998	143.44
206.216	103.94
206.434	123.53
206.652	152.59
206.87	169.31
207.088	166.35
207.306	186.78
207.523	99.51
207.741	143.1
207.959	144.24
208.177	105.54
208.395	126.53
208.612	117.37
208.83	89.99
209.048	86.33
209.266	81.51
209.483	70.1
209.701	66.77
209.919	79.87
210.136	68.98
210.354	59.68
210.572	79.4
210.79	75.06
211.007	78.29
211.225	87.76
211.442	104.17
211.66	100.68
211.878	106.11
212.095	89.78
212.313	86.01
212.53	85.84
212.748	104.97
212.966	87.98
213.183	94.8
213.401	102.7
213.618	95.86
213.836	75.3
214.053	71.27
214.271	72.36
214.488	71.09
214.705	91.19
214.923	77.53
215.14	67.3
215.358	80.68
215.575	65.34
215.793	45.04
216.01	43.91
216.227	76.44
216.445	92.1
216.662	95.14
216.879	92.55
217.097	73.54
217.314	78.97
217.531	67.89
217.749	59.63
217.966	72.67
218.183	61.73
218.4	56.11
218.618	26.63
218.835	32.98
219.052	10.36
219.269	-9.3
219.487	4.35
219.704	14.54
219.921	19.33
220.138	17.84
220.355	10.85
220.572	24.47
220.79	36.06
221.007	53.47
221.224	55.53
221.441	65.02
221.658	60.69
221.875	57.8
222.092	56.64
222.309	53.75
222.526	57.53
222.743	55.54
222.96	45.88
223.177	43.81
223.394	41.04
223.611	35.34
223.828	34.86
224.045	38.47
224.262	34.93
224.479	35.25
224.696	32.39
224.913	30.59
225.13	29.05
225.347	30.21
225.564	27
225.781	22.77
225.997	21.61
226.214	19.2
226.431	16.65
226.648	15.19
226.865	14.58
227.082	14.06
227.298	13.54
227.515	12.85
227.732	11.63
227.949	11.01
228.165	10.81
228.382	10.26
228.599	10.66
228.816	11.17
229.032	12.44
229.249	11.44
229.466	11.87
229.682	10.35
229.899	11.27
230.116	12.39
230.332	12.92
230.549	12.57
230.765	13.16
230.982	12.68
231.199	13.52
231.415	12.41
231.632	12.05
231.848	11.57
232.065	14.01
232.281	13.91
232.498	13.03
232.714	11.72
232.931	12.36
233.147	11.86
233.364	12.83
233.58	10.57
233.797	9.29
234.013	11.23
234.23	12.21
234.446	13.39
234.662	12.07
234.879	14.08
235.095	16.17
235.312	18.11
235.528	19.5
235.744	19.21
235.961	20.24
236.177	22.17
236.393	22.26
236.61	21.93
236.826	18.77
237.042	19.58
237.258	18.14
237.475	17.65
237.691	15.67
237.907	13.88
238.123	11.38
238.339	12.33
238.556	11.42
238.772	10.7
238.988	10.33
239.204	10.77
239.42	10.17
239.636	10
239.853	9.95
240.069	10.23
240.285	9.81
240.501	10.16
240.717	9.69
240.933	10.16
241.149	10.34
241.365	9.78
241.581	9.52
241.797	9.36
242.013	9.47
242.229	8.73
242.445	8.65
242.661	8.88
242.877	9.11
243.093	9.35
243.309	8.89
243.525	7.85
243.741	8.08
243.957	8.49
244.173	8.18
244.388	8.4
244.604	8.95
244.82	8.38
245.036	8.07
245.252	8.37
245.468	7.87
245.683	7.97
245.899	8.02
246.115	7.85
246.331	7.89
246.547	7.46
246.762	7.25
246.978	7.41
247.194	7.82
247.409	8.46
247.625	7.99
247.841	8.08
248.057	7.77
248.272	8.19
248.488	8.78
248.703	7.82
248.919	9.17
249.135	9.56
249.35	9.59
249.566	9.22
249.782	8.37
249.997	8.91
250.213	9.31
250.428	9.06
250.644	8.66
250.859	8.65
251.075	9.4
251.29	8.9
251.506	8.42
251.721	7.84
251.937	8.13
252.152	8.28
252.368	8.72
252.583	8.84
252.798	9.73
253.014	10.9
253.229	10.78
253.445	11.39
253.66	11.66
253.875	12.17
254.091	12.16
254.306	12.26
254.521	12.15
254.737	11.12
254.952	10.97
255.167	9.84
255.383	8.73
255.598	8.46
255.813	7.71
256.028	6.96
256.244	6.25
256.459	5.95
256.674	5.02
256.889	5.33
257.104	5.22
257.32	5.35
257.535	5.57
257.75	5.62
257.965	5.59
258.18	5.45
258.395	5.73
258.61	5.93
258.826	6.01
259.041	6.42
259.256	6.17
259.471	6.37
259.686	5.99
259.901	5.96
260.116	6.06
260.331	6.18
260.546	6.43
260.761	6.4
260.976	6.84
261.191	7.07
261.406	7.08
261.621	7.6
261.836	7.48
262.05	7.94
262.265	7.75
262.48	7.5
262.695	7.69
262.91	7.37
263.125	7.31
263.34	6.96
263.555	6.84
263.769	7.15
263.984	6.76
264.199	7.31
264.414	7.35
264.629	7.44
264.843	7.76
265.058	7.7
265.273	7.97
265.488	8.17
265.702	7.94
265.917	7.96
266.132	7.66
266.346	7.78
266.561	7.37
266.776	7.42
266.99	7.36
267.205	7.33
267.42	7.11
267.634	6.86
267.849	6.65
268.063	6.55
268.278	6.35
268.492	6.12
268.707	6.45
268.922	6.14
269.136	6.25
269.351	6.11
269.565	6.11
269.78	6.07
269.994	6.23
270.209	6.29
270.423	6.26
270.637	6.23
270.852	6.44
271.066	5.89
271.281	6.2
271.495	6.18
271.709	6.48
271.924	6.09
272.138	5.96
272.353	6.11
272.567	5.98
272.781	5.72
272.996	5.54
273.21	5.11
273.424	5.24
273.638	4.98
273.853	4.69
274.067	4.44
274.281	4.97
274.495	5.4
274.71	5.08
274.924	4.96
275.138	5.38
275.352	5.74
275.566	6.47
275.781	6.75
275.995	6.55
276.209	6.78
276.423	6.65
276.637	6.3
276.851	6.44
277.065	6.69
277.279	6.87
277.493	6.99
277.707	6.52
277.921	5.94
278.135	6.29
278.349	6.72
278.563	6.88
278.777	7.21
278.991	7.69
279.205	7.46
279.419	7.19
279.633	7.18
279.847	7.05
280.061	7.01
280.275	7.39
280.489	6.77
280.703	6.45
280.917	6.21
281.131	5.94
281.344	5.46
281.558	5.67
281.772	5.64
281.986	5.35
282.2	5.74
282.414	5.85
282.627	5.6
282.841	6.09
283.055	5.87
283.269	5.84
283.482	5.8
283.696	5.83
283.91	5.09
284.123	5.25
284.337	5.49
284.551	5.19
284.764	5.17
284.978	5
285.192	4.78
285.405	5.3
285.619	5.26
285.833	5.32
286.046	5.47
286.26	5.86
286.473	5.92
286.687	6.3
286.9	6.13
287.114	6.47
287.327	6.36
287.541	6.51
287.754	6.15
287.968	6.33
288.181	6.54
288.395	6.48
288.608	6.73
288.822	6.6
289.035	6
289.248	6.64
289.462	6.25
289.675	6.41
289.889	6.13
290.102	6.21
290.315	6.2
290.529	6
290.742	5.94
290.955	6.21
291.169	6.22
291.382	6.75
291.595	6.12
291.808	6.66
292.022	6.59
292.235	6.76
292.448	6.89
292.661	6.79
292.875	7.03
293.088	6.87
293.301	6.61
293.514	6.73
293.727	6.4
293.94	6.12
294.153	6.22
294.367	6.37
294.58	6.33
294.793	6.42
295.006	6.39
295.219	6.09
295.432	5.79
295.645	5.72
295.858	5.72
296.071	5.57
296.284	5.67
296.497	5.57
296.71	5.7
296.923	5.86
297.136	5.76
297.349	6.01
297.562	6.35
297.775	6.7
297.988	6.81
298.201	7.05
298.414	7.31
298.626	7.37
298.839	7.24
299.052	7.08
299.265	7.38
299.478	6.93
299.691	6.84
299.903	6.51
300.116	7
300.329	6.49
300.542	6.51
300.755	6.72
300.967	6.75
301.18	7.15
301.393	7.25
301.605	7.1
301.818	7.31
302.031	7.18
302.243	7.49
302.456	7.13
302.669	7.66
302.881	7.32
303.094	7.21
303.307	7.69
303.519	7.49
303.732	8.03
303.944	7.65
304.157	8.14
304.37	8.11
304.582	7.72
304.795	7.73
305.007	7.74
305.22	7.87
305.432	8.05
305.645	7.55
305.857	7.69
306.069	6.89
306.282	7.28
306.494	6.93
306.707	6.96
306.919	7.1
307.132	7
307.344	6.93
307.556	7.01
307.769	6.71
307.981	7.31
308.193	6.82
308.406	6.79
308.618	6.71
308.83	6.86
309.043	7.21
309.255	7.47
309.467	7.38
309.679	7.35
309.892	7.43
310.104	7.41
310.316	7
310.528	7.06
310.74	7.26
310.953	7.68
311.165	7.66
311.377	7.45
311.589	7.48
311.801	7.68
312.013	8
312.225	7.88
312.437	8.21
312.649	8.72
312.862	8.81
313.074	9.22
313.286	8.71
313.498	8.41
313.71	8.13
313.922	8.13
314.134	7.87
314.346	7.43
314.558	7.87
314.77	7.84
314.982	7.36
315.193	7.49
315.405	7.42
315.617	7.69
315.829	7.74
316.041	8.08
316.253	8.22
316.465	8.43
316.677	8.56
316.888	7.93
317.1	7.94
317.312	8.08
317.524	8.1
317.736	7.57
317.947	7.59
318.159	7.75
318.371	7.89
318.583	7.6
318.794	7.69
319.006	8.21
319.218	8.19
319.43	7.99
319.641	7.54
319.853	7.33
320.064	7.63
320.276	7.25
320.488	6.85
320.699	6.5
320.911	6.6
321.123	6.74
321.334	6.88
321.546	7.27
321.757	7.09
321.969	8.1
322.18	8.28
322.392	8.14
322.603	8.87
322.815	9.02
323.026	9.35
323.238	9.37
323.449	9.7
323.661	9.13
323.872	9.01
324.083	9.38
324.295	9.12
324.506	9.72
324.718	9.6
324.929	8.76
325.14	9.19
325.352	9.01
325.563	9.07
325.774	9.05
325.986	8.84
326.197	8.81
326.408	8.74
326.62	8.39
326.831	7.73
327.042	7.88
327.253	8.3
327.464	8.17
327.676	7.98
327.887	7.47
328.098	7.03
328.309	7.25
328.52	7.69
328.732	7.67
328.943	7.66
329.154	7.67
329.365	7.61
329.576	7.92
329.787	8.01
329.998	8.07
330.209	8.92
330.42	9.11
330.631	9.32
330.842	8.6
331.053	9.16
331.264	8.9
331.475	9.21
331.686	9.5
331.897	9.16
332.108	9.06
332.319	9.53
332.53	9.23
332.741	9.01
332.952	8.58
333.163	9.03
333.374	8.48
333.585	8.82
333.795	8.51
334.006	8.41
334.217	8.18
334.428	8.32
334.639	8.36
334.849	8.5
335.06	8.96
335.271	9.05
335.482	8.75
335.692	8.92
335.903	8.92
336.114	9.19
336.325	9.2
336.535	9.29
336.746	9.1
336.957	9.4
337.167	9.16
337.378	9.14
337.589	9.22
337.799	9.56
338.01	9.36
338.22	9.32
338.431	8.86
338.642	8.91
338.852	8.89
339.063	8.92
339.273	8.49
339.484	8.31
339.694	8.07
339.905	8.38
340.115	8.39
340.326	8.63
340.536	8.75
340.746	8.8
340.957	8.24
341.167	8.05
341.378	8.03
341.588	7.95
341.799	7.93
342.009	8
342.219	7.58
342.43	7.41
342.64	7.23
342.85	7.22
343.061	7.4
343.271	7.77
343.481	8.03
343.691	8.29
343.902	7.9
344.112	8.33
344.322	8.13
344.532	8.31
344.743	8.33
344.953	8.1
345.163	8.35
345.373	8.36
345.583	8.21
345.793	7.8
346.004	7.66
346.214	7.72
346.424	7.66
346.634	7.75
346.844	7.37
347.054	7.61
347.264	7.91
347.474	7.53
347.684	7.63
347.894	8.06
348.104	8.64
348.314	8.28
348.524	8.26
348.734	8.06
348.944	8.28
349.154	8.73
349.364	8.37
349.574	8.46
349.784	8.45
349.994	8.31
350.204	8.18
350.413	7.93
350.623	8.15
350.833	8.14
351.043	7.84
351.253	7.67
351.463	7.55
351.672	7.42
351.882	7.22
352.092	7.51
352.302	7.88
352.511	8
352.721	7.79
352.931	7.88
353.141	7.95
353.35	8.2
353.56	8.21
353.77	8.46
353.979	8.21
354.189	8.47
354.399	7.99
354.608	7.72
354.818	7.48
355.027	7.95
355.237	7.83
355.447	7.95
355.656	8.17
355.866	8.09
356.075	7.98
356.285	8.26
356.494	8.22
356.704	8.16
356.913	8.09
357.123	8.29
357.332	7.88
357.542	7.81
357.751	7.35
357.96	7.29
358.17	7.03
358.379	7.02
358.589	6.93
358.798	6.57
359.007	6.79
359.217	6.79
359.426	6.55
359.635	6.66
359.845	6.68
360.054	6.91
360.263	6.83
360.472	7.12
360.682	7.08
360.891	7.08
361.1	7.32
361.309	7.14
361.519	6.86
361.728	7.04
361.937	7.07
362.146	6.85
362.355	6.92
362.564	6.91
362.774	6.78
362.983	6.88
363.192	7.08
363.401	6.95
363.61	7.16
363.819	7.49
364.028	7.03
364.237	6.9
364.446	7.18
364.655	7.18
364.864	7.07
365.073	7
365.282	6.73
365.491	6.5
365.7	6.71
365.909	6.59
366.118	6.56
366.327	6.87
366.536	7.03
366.745	7.01
366.954	6.97
367.162	6.83
367.371	6.9
367.58	6.84
367.789	7.03
367.998	6.76
368.207	6.63
368.415	6.48
368.624	6.49
368.833	6.4
369.042	6.55
369.25	6.56
369.459	6.7
369.668	6.5
369.877	6.58
370.085	6.62
370.294	6.72
370.503	7.02
370.711	7.17
370.92	7.29
371.129	7.24
371.337	7
371.546	7
371.754	6.98
371.963	7.04
372.171	7
372.38	6.7
372.589	6.81
372.797	6.3
373.006	6.35
373.214	5.99
373.423	6.14
373.631	6.08
373.84	6.15
374.048	6.11
374.256	6.12
374.465	6.2
374.673	6.3
374.882	6.14
375.09	6.32
375.298	6.26
375.507	6.46
375.715	6.18
375.923	6.43
376.132	6.34
376.34	6.19
376.548	6.31
376.757	6.33
376.965	6.25
377.173	6.18
377.381	6.17
377.59	6.25
377.798	6.19
378.006	6.14
378.214	6.08
378.423	6.35
378.631	6.51
378.839	6.38
379.047	6.27
379.255	6.26
379.463	6.33
379.671	6.56
379.879	6.42
380.088	6.46
380.296	6.48
380.504	6.42
380.712	6.14
380.92	6.09
381.128	6.08
381.336	6.1
381.544	6.14
381.752	6.16
381.96	5.92
382.168	6.06
382.376	5.73
382.584	5.79
382.791	5.68
382.999	5.7
383.207	5.8
383.415	5.61
383.623	5.49
383.831	5.55
384.039	5.43
384.247	5.68
384.454	5.46
384.662	5.52
384.87	5.66
385.078	5.84
385.285	5.72
385.493	5.54
385.701	5.78
385.909	5.84
386.116	5.78
386.324	5.86
386.532	5.72
386.739	5.8
386.947	6.07
387.155	5.66
387.362	5.49
387.57	5.53
387.778	5.67
387.985	5.72
388.193	5.87
388.4	5.75
388.608	5.88
388.816	5.82
389.023	5.93
389.231	5.8
389.438	6.2
389.646	6.21
389.853	6.19
390.061	6.16
390.268	6
390.475	5.87
390.683	5.9
390.89	5.68
391.098	5.89
391.305	5.85
391.512	5.74
391.72	5.55
391.927	5.57
392.135	5.64
392.342	5.55
392.549	5.64
392.756	5.69
392.964	5.71
393.171	5.67
393.378	5.5
393.586	5.3
393.793	5.43
394	5.55
394.207	5.48
394.414	5.38
394.622	5.36
394.829	5.3
395.036	5.09
395.243	4.96
395.45	5.1
395.657	4.93
395.864	4.99
396.072	5.03
396.279	4.97
396.486	5.07
396.693	5.11
396.9	5.09
397.107	4.98
397.314	5.1
397.521	5.03
397.728	4.94
397.935	5.21
398.142	5.28
398.349	5.28
398.556	5.17
398.763	5.1
398.97	5.08
399.177	5.44
399.383	5.52
399.59	5.62
399.797	5.75
400.004	5.54
400.211	5.35
400.418	5.19
400.625	5.16
400.831	5.1
401.038	5.07
401.245	4.91
401.452	4.6
401.658	4.56
401.865	4.44
402.072	4.43
402.279	4.53
402.485	4.43
402.692	4.5
402.899	4.36
403.105	4.5
403.312	4.23
403.519	4.32
403.725	4.38
403.932	4.43
404.138	4.34
404.345	4.34
404.552	4.53
404.758	4.52
404.965	4.41
405.171	4.36
405.378	4.45
405.584	4.63
405.791	4.68
405.997	4.64
406.204	4.52
406.41	4.65
406.617	4.68
406.823	4.71
407.029	4.75
407.236	4.81
407.442	4.98
407.649	4.82
407.855	4.95
408.061	4.81
408.268	4.72
408.474	4.73
408.68	4.62
408.887	4.6
409.093	4.46
409.299	4.46
409.505	4.49
409.712	4.41
409.918	4.33
410.124	4.22
410.33	4.2
410.537	4.12
410.743	4.09
410.949	4.15
411.155	4.27
411.361	4.18
411.567	4.16
411.773	4.32
411.98	4.35
412.186	4.22
412.392	4.18
412.598	4.19
412.804	4.27
413.01	4.45
413.216	4.43
413.422	4.35
413.628	4.38
413.834	4.58
414.04	4.35
414.246	4.35
414.452	4.52
414.658	4.5
414.864	4.52
415.07	4.58
415.275	4.5
415.481	4.4
415.687	4.3
415.893	4.27
416.099	4.14
416.305	4.28
416.511	4.21
416.716	4.2
416.922	4.32
417.128	4.29
417.334	4.28
417.539	4.26
417.745	4.34
417.951	4.36
418.157	4.36
418.362	4.27
418.568	4.16
418.774	4.1
418.979	4.13
419.185	4.09
419.391	4.09
419.596	3.99
419.802	3.98
420.008	3.91
420.213	4.24
420.419	4.26
420.624	4.3
420.83	4.31
421.035	4.4
421.241	4.35
421.446	4.27
421.652	4.18
421.857	4.14
422.063	4.08
422.268	4.09
422.474	3.75
422.679	3.68
422.885	3.63
423.09	3.66
423.295	3.66
423.501	3.6
423.706	3.62
423.911	3.68
424.117	3.8
424.322	3.82
424.527	3.85
424.733	3.77
424.938	3.79
425.143	3.87
425.349	3.78
425.554	3.7
425.759	3.79
425.964	3.76
426.169	3.8
426.375	3.8
426.58	3.78
426.785	3.86
426.99	3.94
427.195	3.91
427.4	3.89
427.605	3.93
427.811	4.03
428.016	4.12
428.221	4.15
428.426	4.05
428.631	3.88
428.836	4.04
429.041	3.96
429.246	3.93
429.451	3.92
429.656	3.91
429.861	3.95
430.066	3.91
430.271	3.83
430.476	3.82
430.681	3.74
430.886	3.88
431.09	3.8
431.295	3.8
431.5	3.9
431.705	3.9
431.91	3.88
432.115	3.89
432.32	3.82
432.524	3.81
432.729	3.86
432.934	3.98
433.139	3.9
433.343	3.89
433.548	3.8
433.753	3.62
433.958	3.64
434.162	3.57
434.367	3.48
434.572	3.47
434.776	3.44
434.981	3.21
435.186	3.17
435.39	3.23
435.595	3.2
435.799	3.18
436.004	3.3
436.209	3.35
436.413	3.4
436.618	3.44
436.822	3.49
437.027	3.47
437.231	3.62
437.436	3.56
437.64	3.51
437.845	3.51
438.049	3.63
438.253	3.59
438.458	3.53
438.662	3.51
438.867	3.48
439.071	3.37
439.275	3.41
439.48	3.46
439.684	3.51
439.888	3.51
440.093	3.47
440.297	3.44
440.501	3.35
440.706	3.43
440.91	3.48
441.114	3.52
441.318	3.58
441.523	3.54
441.727	3.5
441.931	3.5
442.135	3.5
442.339	3.49
442.543	3.5
442.748	3.67
442.952	3.58
443.156	3.57
443.36	3.6
443.564	3.64
443.768	3.68
443.972	3.61
444.176	3.61
444.38	3.62
444.584	3.64
444.788	3.61
444.992	3.47
445.196	3.53
445.4	3.47
445.604	3.44
445.808	3.5
446.012	3.46
446.216	3.55
446.42	3.53
446.624	3.54
446.828	3.6
447.032	3.61
447.235	3.73
447.439	3.76
447.643	3.86
447.847	3.8
448.051	3.74
448.254	3.71
448.458	3.61
448.662	3.54
448.866	3.51
449.069	3.4
449.273	3.37
449.477	3.4
449.681	3.11
449.884	3
450.088	3.08
450.292	3.1
450.495	3.15
450.699	3.17
450.902	3.27
451.106	3.29
451.31	3.3
451.513	3.3
451.717	3.25
451.92	3.36
452.124	3.39
452.327	3.37
452.531	3.31
452.734	3.24
452.938	3.25
453.141	3.24
453.345	3.2
453.548	3.21
453.752	3.15
453.955	3.27
454.158	3.33
454.362	3.29
454.565	3.34
454.769	3.35
454.972	3.3
455.175	3.36
455.379	3.34
455.582	3.39
455.785	3.33
455.988	3.39
456.192	3.27
456.395	3.13
456.598	3.23
456.801	3.15
457.005	3.09
457.208	3.11
457.411	3.06
457.614	3.03
457.817	3.01
458.021	3.01
458.224	3.01
458.427	2.98
458.63	2.98
458.833	3
459.036	2.99
459.239	3.06
459.442	3.1
459.645	3.12
459.848	3.13
460.051	3.18
460.254	3.24
460.457	3.28
460.66	3.31
460.863	3.42
461.066	3.38
461.269	3.42
461.472	3.46
461.675	3.43
461.878	3.51
462.081	3.42
462.284	3.32
462.486	3.31
462.689	3.21
462.892	3.09
463.095	3.09
463.298	3.04
463.5	3.02
463.703	3.02
463.906	3.04
464.109	2.96
464.311	3
464.514	2.87
464.717	2.87
464.92	3.01
465.122	3.15
465.325	3.12
465.528	3.18
465.73	3.24
465.933	3.19
466.135	3.21
466.338	3.21
466.541	3.31
466.743	3.49
466.946	3.49
467.148	3.48
467.351	3.47
467.553	3.54
467.756	3.53
467.958	3.51
468.161	3.52
468.363	3.51
468.566	3.57
468.768	3.62
468.971	3.56
469.173	3.64
469.375	3.62
469.578	3.58
469.78	3.55
469.983	3.48
470.185	3.48
470.387	3.57
470.59	3.51
