Data from 2938540_Reflection_3.txt Node
Date: Mon Jun 15 23:38:45 EDT 2015
User: robert
Spectrometer: USB4E03002
Autoset integration time: false
Trigger mode: 4
Integration Time (sec): 1.000000E-1
Scans to average: 10
Electric dark correction enabled: true
Nonlinearity correction enabled: false
Boxcar width: 6
Stray light correction enabled: false
XAxis mode: Wavelengths
Stop averaging: false
Number of Pixels in Spectrum: 3648
>>>>>Begin Spectral Data<<<<<
177.575	-4.75
177.794	10.34
178.014	-56.32
178.233	-131.73
178.452	-707.89
178.672	-421.25
178.891	-360
179.11	-104.84
179.33	-59.68
179.549	-99.56
179.768	-63.27
179.987	-154.15
180.207	-25.23
180.426	-41.47
180.645	2.51
180.864	11.42
181.084	-11.7
181.303	-4.88
181.522	0.72
181.741	12.72
181.96	31.26
182.179	50
182.398	70.66
182.618	42.82
182.837	43.4
183.056	9.65
183.275	56.87
183.494	50.1
183.713	21.93
183.932	-11.03
184.151	-39.15
184.37	-54.12
184.589	-1.35
184.808	-6.42
185.027	-170
185.246	-43.18
185.465	-13.97
185.684	-35.2
185.903	1.48
186.122	-493.62
186.341	1800
186.56	533.33
186.779	789.74
186.998	-105.63
187.216	961.54
187.435	179.47
187.654	524.27
187.873	2166.67
188.092	434.38
188.311	374.6
188.53	2233.33
188.748	-2325
188.967	-261.82
189.186	-619.51
189.405	-76.62
189.623	300
189.842	131.68
190.061	1345.45
190.28	69.37
190.498	117.54
190.717	94.59
190.936	242.86
191.154	127.03
191.373	-1822.22
191.592	140.74
191.81	418.92
192.029	538.71
192.248	712.7
192.466	-1304.17
192.685	-218.49
192.904	-280.17
193.122	1144.9
193.341	1951.85
193.559	227.89
193.778	420.13
193.996	201.15
194.215	220.4
194.433	144.58
194.652	154.64
194.87	156.25
195.089	97.39
195.307	94.48
195.526	81.19
195.744	81.15
195.963	128.42
196.181	69.36
196.399	436.36
196.618	-21.37
196.836	54.55
197.055	55.09
197.273	-190.83
197.491	-63.24
197.71	-159.07
197.928	-23.13
198.146	-24.27
198.365	-10.05
198.583	-18.62
198.801	975
199.019	284.21
199.238	336.21
199.456	1071.88
199.674	213.2
199.892	285.9
200.111	996.43
200.329	55.91
200.547	30.49
200.765	56.25
200.983	122.65
201.202	137.89
201.42	241.38
201.638	260.99
201.856	350
202.074	193.04
202.292	162.01
202.51	153.57
202.728	144.71
202.946	88.01
203.165	102.71
203.383	101.54
203.601	90.65
203.819	26.22
204.037	4.95
204.255	11.47
204.473	-4.76
204.691	2.18
204.909	13.28
205.127	-26.5
205.345	-56.08
205.562	-42.07
205.78	-76.13
205.998	-30.23
206.216	-0.57
206.434	13.5
206.652	83.46
206.87	78.29
207.088	81.53
207.306	88.5
207.523	81.53
207.741	114.25
207.959	124.91
208.177	140.67
208.395	113.91
208.612	79.51
208.83	76.13
209.048	71.72
209.266	57.17
209.483	58.75
209.701	103.87
209.919	109.23
210.136	91.08
210.354	85.75
210.572	58.15
210.79	58.7
211.007	32.05
211.225	-1.87
211.442	7.68
211.66	57.12
211.878	-26.31
212.095	-32.9
212.313	-41.2
212.53	-67.65
212.748	-74.69
212.966	-112.61
213.183	-79.26
213.401	-35.97
213.618	-30.4
213.836	-40.3
214.053	-13.53
214.271	-33.33
214.488	-150
214.705	56.27
214.923	40.9
215.14	33.48
215.358	57.22
215.575	63.9
215.793	53.19
216.01	42.47
216.227	34.84
216.445	23.95
216.662	37.05
216.879	31.36
217.097	26.38
217.314	33.46
217.531	25.62
217.749	49.24
217.966	45.77
218.183	43.1
218.4	35.35
218.618	31.07
218.835	26.91
219.052	21.18
219.269	-5.1
219.487	-3.58
219.704	3.05
219.921	15.95
220.138	16.13
220.355	16.54
220.572	10.31
220.79	-0.35
221.007	-4.92
221.224	-11.97
221.441	1.53
221.658	9.91
221.875	2.11
222.092	9.25
222.309	15.04
222.526	12.85
222.743	6.02
222.96	10.56
223.177	12.04
223.394	8.79
223.611	12.13
223.828	14.89
224.045	16.28
224.262	11.16
224.479	4.02
224.696	9.04
224.913	8.38
225.13	4.88
225.347	7.23
225.564	4.91
225.781	3.61
225.997	3.39
226.214	3.6
226.431	3.94
226.648	3.72
226.865	5.75
227.082	6.1
227.298	6.87
227.515	5.97
227.732	6.29
227.949	5.84
228.165	5.9
228.382	7.43
228.599	8.34
228.816	7.72
229.032	8.31
229.249	7.67
229.466	7.74
229.682	7.26
229.899	7.28
230.116	7.38
230.332	6.83
230.549	6.29
230.765	6.64
230.982	6.83
231.199	5.15
231.415	1.1
231.632	0.8
231.848	2.06
232.065	1.44
232.281	0.91
232.498	1.84
232.714	1.36
232.931	2.79
233.147	3.56
233.364	3.92
233.58	4.37
233.797	4.94
234.013	5.44
234.23	7.75
234.446	9.09
234.662	9.36
234.879	9.39
235.095	9.82
235.312	8.53
235.528	8.09
235.744	8.76
235.961	8.49
236.177	10.08
236.393	10.17
236.61	10.24
236.826	11.85
237.042	10.7
237.258	9.85
237.475	8.56
237.691	8.98
237.907	8.13
238.123	9.13
238.339	11.01
238.556	10.84
238.772	10.05
238.988	8.86
239.204	9.59
239.42	8.57
239.636	7.91
239.853	9.54
240.069	9.62
240.285	9.34
240.501	9.82
240.717	10.7
240.933	10.79
241.149	10.41
241.365	10.32
241.581	10.65
241.797	10.34
242.013	10.04
242.229	10.62
242.445	11.12
242.661	10.36
242.877	10.62
243.093	11.4
243.309	10.88
243.525	9.96
243.741	9.4
243.957	9.27
244.173	9.18
244.388	9.52
244.604	10.1
244.82	9.8
245.036	9
245.252	8.53
245.468	8.34
245.683	8.21
245.899	7.88
246.115	8.26
246.331	8.17
246.547	8.02
246.762	7.88
246.978	7.16
247.194	6.7
247.409	6.45
247.625	5.91
247.841	6.47
248.057	5.98
248.272	6.01
248.488	5.66
248.703	5.76
248.919	4.9
249.135	4.7
249.35	5.41
249.566	5.3
249.782	6.12
249.997	6.57
250.213	6.39
250.428	7.01
250.644	6.62
250.859	7.21
251.075	7.03
251.29	6.47
251.506	6.36
251.721	6.23
251.937	6.75
252.152	6.26
252.368	7.15
252.583	7.11
252.798	6.52
253.014	6.46
253.229	5.46
253.445	5.92
253.66	6.09
253.875	6.25
254.091	7.36
254.306	7.02
254.521	6.78
254.737	5.44
254.952	5.13
255.167	3.57
255.383	3.22
255.598	4.26
255.813	3.92
256.028	4.79
256.244	4.34
256.459	4.1
256.674	4.26
256.889	4.24
257.104	3.79
257.32	4.43
257.535	4.91
257.75	4.93
257.965	5.08
258.18	5.39
258.395	5.27
258.61	5.56
258.826	5.57
259.041	5.67
259.256	5.71
259.471	5.51
259.686	5.35
259.901	5.84
260.116	5.61
260.331	5.68
260.546	5.72
260.761	5.62
260.976	5.3
261.191	5.29
261.406	4.55
261.621	4.49
261.836	4.4
262.05	4.4
262.265	4.67
262.48	4.6
262.695	4.2
262.91	3.88
263.125	3.48
263.34	3.79
263.555	4.05
263.769	4.08
263.984	3.97
264.199	4.28
264.414	3.8
264.629	3.68
264.843	4.44
265.058	4.37
265.273	4.53
265.488	4.79
265.702	4.95
265.917	5.19
266.132	5.19
266.346	5
266.561	5.21
266.776	5.4
266.99	5.83
267.205	6.13
267.42	6.03
267.634	5.43
267.849	5.43
268.063	5.63
268.278	5.1
268.492	5.42
268.707	5.22
268.922	4.91
269.136	5.29
269.351	5.49
269.565	5.03
269.78	4.98
269.994	4.89
270.209	4.82
270.423	4.87
270.637	4.95
270.852	4.9
271.066	5.55
271.281	5.73
271.495	5.64
271.709	5.9
271.924	5.84
272.138	5.64
272.353	6.11
272.567	5.93
272.781	5.86
272.996	6.02
273.21	5.99
273.424	6.4
273.638	6.49
273.853	6.25
274.067	6.15
274.281	6.24
274.495	5.63
274.71	5.42
274.924	5.1
275.138	4.4
275.352	4.75
275.566	4.79
275.781	4.47
275.995	4.4
276.209	4.03
276.423	3.67
276.637	3.72
276.851	3.34
277.065	3.66
277.279	4.22
277.493	4.32
277.707	4.25
277.921	4.67
278.135	4.37
278.349	4.59
278.563	4.92
278.777	4.85
278.991	4.42
279.205	4.39
279.419	4.12
279.633	4.15
279.847	4.01
280.061	3.62
280.275	3.55
280.489	3.97
280.703	3.89
280.917	3.77
281.131	3.84
281.344	3.99
281.558	4.02
281.772	4.16
281.986	4.51
282.2	4.6
282.414	4.79
282.627	4.82
282.841	5.34
283.055	5.39
283.269	5.41
283.482	5.33
283.696	5.39
283.91	5.01
284.123	4.94
284.337	5.1
284.551	5.15
284.764	4.91
284.978	4.95
285.192	4.82
285.405	5.02
285.619	4.89
285.833	4.88
286.046	4.8
286.26	4.93
286.473	5.2
286.687	5.82
286.9	5.81
287.114	5.69
287.327	5.59
287.541	5.76
287.754	5.78
287.968	5.94
288.181	5.75
288.395	5.65
288.608	5.83
288.822	5.69
289.035	5.81
289.248	5.7
289.462	5.21
289.675	5.29
289.889	5.24
290.102	5.16
290.315	5.05
290.529	4.75
290.742	4.43
290.955	4.63
291.169	4.75
291.382	4.62
291.595	4.68
291.808	4.49
292.022	4.19
292.235	4.39
292.448	4.4
292.661	4.62
292.875	4.88
293.088	5.19
293.301	5.36
293.514	5.4
293.727	5.15
293.94	5
294.153	4.77
294.367	4.75
294.58	4.75
294.793	5.17
295.006	5.05
295.219	4.98
295.432	4.96
295.645	4.89
295.858	4.57
296.071	4.64
296.284	4.82
296.497	4.88
296.71	5.1
296.923	5.38
297.136	5.48
297.349	5.42
297.562	5.18
297.775	5.19
297.988	5.66
298.201	5.49
298.414	5.5
298.626	5.58
298.839	5.39
299.052	5.33
299.265	5.04
299.478	4.88
299.691	4.66
299.903	4.78
300.116	5.14
300.329	4.9
300.542	5.03
300.755	4.66
300.967	4.76
301.18	4.7
301.393	4.72
301.605	4.9
301.818	4.99
302.031	5.3
302.243	4.94
302.456	4.77
302.669	4.93
302.881	4.97
303.094	5.17
303.307	5.21
303.519	5.21
303.732	5.13
303.944	5.26
304.157	5.3
304.37	5.14
304.582	5.36
304.795	5.31
305.007	5.7
305.22	5.78
305.432	5.36
305.645	5.03
305.857	5.33
306.069	5.27
306.282	5.09
306.494	5.66
306.707	6.01
306.919	5.97
307.132	6.33
307.344	5.93
307.556	5.74
307.769	5.57
307.981	5.87
308.193	5.8
308.406	5.84
308.618	5.81
308.83	5.84
309.043	6.2
309.255	5.86
309.467	5.73
309.679	5.88
309.892	5.74
310.104	6.15
310.316	6.41
310.528	6.62
310.74	6.59
310.953	6.8
311.165	7.06
311.377	6.69
311.589	7.06
311.801	6.71
312.013	7.07
312.225	6.93
312.437	7.17
312.649	6.84
312.862	6.74
313.074	6.63
313.286	6.64
313.498	6.52
313.71	6.43
313.922	6.15
314.134	6.5
314.346	6.42
314.558	6.81
314.77	6.43
314.982	6.68
315.193	6.31
315.405	6.61
315.617	6.54
315.829	6.3
316.041	6.25
316.253	6.19
316.465	5.87
316.677	5.95
316.888	5.86
317.1	5.85
317.312	5.56
317.524	5.72
317.736	5.8
317.947	6.28
318.159	6.47
318.371	6.93
318.583	7.3
318.794	7.29
319.006	7.47
319.218	7.78
319.43	7.99
319.641	8.22
319.853	7.86
320.064	7.68
320.276	7.67
320.488	7.67
320.699	7.47
320.911	7.45
321.123	7.07
321.334	7.06
321.546	7.2
321.757	6.9
321.969	6.92
322.18	6.65
322.392	6.75
322.603	6.73
322.815	6.64
323.026	6.51
323.238	6.49
323.449	6.64
323.661	7
323.872	6.89
324.083	6.86
324.295	6.55
324.506	6.66
324.718	6.84
324.929	6.76
325.14	6.66
325.352	6.67
325.563	6.72
325.774	6.83
325.986	6.92
326.197	6.8
326.408	6.35
326.62	6.25
326.831	6.41
327.042	6.88
327.253	7.22
327.464	6.99
327.676	7.6
327.887	7.5
328.098	7.72
328.309	7.72
328.52	7.44
328.732	7.31
328.943	7.2
329.154	7.53
329.365	7.72
329.576	7.94
329.787	7.18
329.998	7.04
330.209	7.31
330.42	7.05
330.631	7.32
330.842	7.35
331.053	7.62
331.264	7.88
331.475	7.91
331.686	8.1
331.897	7.83
332.108	7.85
332.319	7.83
332.53	8.18
332.741	8.27
332.952	8.25
333.163	8.13
333.374	7.81
333.585	7.75
333.795	7.31
334.006	7.47
334.217	7.47
334.428	7.49
334.639	7.47
334.849	7.22
335.06	6.75
335.271	7.04
335.482	6.71
335.692	6.76
335.903	6.98
336.114	7.3
336.325	7.07
336.535	7.56
336.746	7.38
336.957	7.44
337.167	7.34
337.378	7.66
337.589	8.06
337.799	8.49
338.01	8.35
338.22	8.5
338.431	8.44
338.642	8.46
338.852	8.36
339.063	8.56
339.273	8.49
339.484	8.56
339.694	8.73
339.905	8.72
340.115	8.53
340.326	8.22
340.536	7.89
340.746	7.92
340.957	8.18
341.167	8.26
341.378	8.16
341.588	8.05
341.799	8
342.009	7.99
342.219	7.86
342.43	7.51
342.64	7.49
342.85	7.44
343.061	7.75
343.271	7.93
343.481	7.91
343.691	7.77
343.902	7.66
344.112	7.67
344.322	7.47
344.532	7.59
344.743	7.39
344.953	7.22
345.163	7.13
345.373	7.07
345.583	7.02
345.793	6.71
346.004	7.01
346.214	7.35
346.424	7.06
346.634	7.11
346.844	6.91
347.054	6.89
347.264	7.07
347.474	7.14
347.684	7.03
347.894	7.02
348.104	7.12
348.314	7.23
348.524	7.14
348.734	7.01
348.944	6.83
349.154	7.21
349.364	7.11
349.574	7.19
349.784	7.36
349.994	7.09
350.204	7.26
350.413	7.47
350.623	7.42
350.833	7.13
351.043	7.06
351.253	7.16
351.463	6.81
351.672	6.65
351.882	6.43
352.092	6.16
352.302	5.95
352.511	5.73
352.721	5.83
352.931	5.89
353.141	6
353.35	6.16
353.56	6.24
353.77	6.34
353.979	6.16
354.189	6.22
354.399	6.03
354.608	6.2
354.818	6.49
355.027	6.58
355.237	6.86
355.447	6.67
355.656	6.41
355.866	6.27
356.075	6.22
356.285	6.31
356.494	6.26
356.704	6.34
356.913	6.38
357.123	6.64
357.332	6.82
357.542	6.59
357.751	6.61
357.96	6.53
358.17	6.67
358.379	6.71
358.589	6.71
358.798	6.61
359.007	6.52
359.217	6.38
359.426	6.48
359.635	6.4
359.845	6.18
360.054	5.86
360.263	5.89
360.472	5.95
360.682	6.05
360.891	5.9
361.1	6.06
361.309	6.13
361.519	6.16
361.728	6.28
361.937	6.37
362.146	6.38
362.355	6.39
362.564	6.47
362.774	6.3
362.983	6.4
363.192	6.32
363.401	6.3
363.61	6.68
363.819	6.49
364.028	6.37
364.237	6.45
364.446	6.14
364.655	6.27
364.864	6.4
365.073	6.17
365.282	6.07
365.491	6.35
365.7	6.38
365.909	6.39
366.118	6.31
366.327	6.11
366.536	6.11
366.745	6.1
366.954	6.17
367.162	6.14
367.371	6.1
367.58	5.63
367.789	5.58
367.998	5.65
368.207	5.63
368.415	5.78
368.624	5.69
368.833	5.62
369.042	5.47
369.25	5.46
369.459	5.47
369.668	5.31
369.877	5.48
370.085	5.27
370.294	5.52
370.503	5.88
370.711	5.89
370.92	5.98
371.129	5.68
371.337	5.58
371.546	5.62
371.754	5.7
371.963	5.64
372.171	5.81
372.38	5.94
372.589	6.03
372.797	5.91
373.006	5.8
373.214	5.7
373.423	5.82
373.631	5.5
373.84	5.59
374.048	5.64
374.256	5.66
374.465	5.55
374.673	5.33
374.882	5.17
375.09	5.08
375.298	5.13
375.507	5.19
375.715	5
375.923	4.92
376.132	4.74
376.34	4.94
376.548	4.83
376.757	5.05
376.965	4.97
377.173	5
377.381	5.23
377.59	5.25
377.798	5.05
378.006	4.81
378.214	4.72
378.423	4.87
378.631	4.67
378.839	4.81
379.047	4.83
379.255	4.94
379.463	4.78
379.671	4.9
379.879	4.83
380.088	4.98
380.296	4.93
380.504	5.29
380.712	5.2
380.92	5.29
381.128	5.32
381.336	5.45
381.544	5.18
381.752	5.2
381.96	4.97
382.168	4.92
382.376	4.91
382.584	4.93
382.791	4.73
382.999	4.61
383.207	4.43
383.415	4.67
383.623	4.71
383.831	4.7
384.039	4.7
384.247	4.63
384.454	4.37
384.662	4.48
384.87	4.34
385.078	4.1
385.285	4.08
385.493	3.9
385.701	3.95
385.909	3.99
386.116	3.65
386.324	3.77
386.532	3.86
386.739	3.97
386.947	4.18
387.155	4.3
387.362	4.38
387.57	4.5
387.778	4.64
387.985	4.49
388.193	4.65
388.4	4.69
388.608	4.61
388.816	4.8
389.023	4.65
389.231	4.57
389.438	4.5
389.646	4.47
389.853	4.33
390.061	4.2
390.268	4.13
390.475	4.01
390.683	4.17
390.89	4.05
391.098	4.02
391.305	3.97
391.512	4.02
391.72	3.89
391.927	3.8
392.135	3.73
392.342	3.68
392.549	3.68
392.756	3.68
392.964	3.86
393.171	3.8
393.378	3.86
393.586	3.9
393.793	3.87
394	3.96
394.207	3.88
394.414	3.92
394.622	3.86
394.829	3.89
395.036	3.94
395.243	4.11
395.45	4.1
395.657	3.76
395.864	3.79
396.072	3.68
396.279	3.73
396.486	3.84
396.693	3.68
396.9	3.86
397.107	3.95
397.314	3.92
397.521	3.85
397.728	3.77
397.935	3.72
398.142	3.72
398.349	3.83
398.556	3.78
398.763	3.64
398.97	3.56
399.177	3.46
399.383	3.61
399.59	3.52
399.797	3.59
400.004	3.78
400.211	3.92
400.418	3.95
400.625	3.83
400.831	3.65
401.038	3.72
401.245	3.83
401.452	3.87
401.658	3.91
401.865	3.98
402.072	3.81
402.279	3.66
402.485	3.53
402.692	3.39
402.899	3.28
403.105	3.11
403.312	3.14
403.519	3.31
403.725	3.32
403.932	3.34
404.138	3.37
404.345	3.34
404.552	3.37
404.758	3.42
404.965	3.4
405.171	3.41
405.378	3.46
405.584	3.45
405.791	3.59
405.997	3.49
406.204	3.53
406.41	3.55
406.617	3.5
406.823	3.33
407.029	3.3
407.236	3.25
407.442	3.35
407.649	3.27
407.855	3.21
408.061	3.21
408.268	3.27
408.474	3.25
408.68	3.48
408.887	3.55
409.093	3.47
409.299	3.5
409.505	3.67
409.712	3.77
409.918	3.61
410.124	3.46
410.33	3.51
410.537	3.48
410.743	3.41
410.949	3.32
411.155	3.36
411.361	3.21
411.567	2.95
411.773	2.8
411.98	2.72
412.186	2.68
412.392	2.52
412.598	2.55
412.804	2.61
413.01	2.72
413.216	2.93
413.422	2.91
413.628	2.99
413.834	2.88
414.04	2.93
414.246	3.07
414.452	3.18
414.658	3.17
414.864	3.18
415.07	3.2
415.275	3.28
415.481	3.23
415.687	3.14
415.893	2.99
416.099	3.02
416.305	3.02
416.511	3.07
416.716	3
416.922	3
417.128	3.04
417.334	3.07
417.539	3.08
417.745	3.13
417.951	3.12
418.157	3.18
418.362	3.2
418.568	3.17
418.774	3.14
418.979	3.06
419.185	2.97
419.391	3.03
419.596	3.01
419.802	3.01
420.008	3.06
420.213	3.01
420.419	3.03
420.624	3
420.83	2.97
421.035	3.01
421.241	3.01
421.446	3.01
421.652	3.03
421.857	3.02
422.063	2.98
422.268	2.95
422.474	2.89
422.679	2.81
422.885	2.76
423.09	2.64
423.295	2.6
423.501	2.55
423.706	2.45
423.911	2.47
424.117	2.4
424.322	2.38
424.527	2.44
424.733	2.32
424.938	2.27
425.143	2.28
425.349	2.31
425.554	2.39
425.759	2.46
425.964	2.51
426.169	2.61
426.375	2.68
426.58	2.69
426.785	2.89
426.99	2.96
427.195	2.93
427.4	3.12
427.605	3.17
427.811	3.21
428.016	3.11
428.221	3.03
428.426	2.91
428.631	2.83
428.836	2.73
429.041	2.69
429.246	2.7
429.451	2.55
429.656	2.43
429.861	2.55
430.066	2.55
430.271	2.51
430.476	2.42
430.681	2.46
430.886	2.55
431.09	2.64
431.295	2.71
431.5	2.68
431.705	2.77
431.91	2.68
432.115	2.76
432.32	2.81
432.524	2.74
432.729	2.65
432.934	2.69
433.139	2.72
433.343	2.61
433.548	2.47
433.753	2.52
433.958	2.46
434.162	2.46
434.367	2.4
434.572	2.42
434.776	2.42
434.981	2.39
435.186	2.37
435.39	2.37
435.595	2.26
435.799	2.23
436.004	2.24
436.209	2.3
436.413	2.31
436.618	2.3
436.822	2.32
437.027	2.33
437.231	2.35
437.436	2.29
437.64	2.36
437.845	2.43
438.049	2.47
438.253	2.52
438.458	2.49
438.662	2.6
438.867	2.64
439.071	2.59
439.275	2.65
439.48	2.7
439.684	2.66
439.888	2.71
440.093	2.73
440.297	2.7
440.501	2.59
440.706	2.64
440.91	2.71
441.114	2.85
441.318	2.81
441.523	2.76
441.727	2.74
441.931	2.68
442.135	2.61
442.339	2.67
442.543	2.66
442.748	2.63
442.952	2.6
443.156	2.64
443.36	2.64
443.564	2.56
443.768	2.37
443.972	2.46
444.176	2.53
444.38	2.52
444.584	2.54
444.788	2.57
444.992	2.54
445.196	2.52
445.4	2.47
445.604	2.54
445.808	2.57
446.012	2.48
446.216	2.52
446.42	2.6
446.624	2.46
446.828	2.38
447.032	2.39
447.235	2.44
447.439	2.43
447.643	2.41
447.847	2.45
448.051	2.53
448.254	2.49
448.458	2.42
448.662	2.45
448.866	2.32
449.069	2.3
449.273	2.36
449.477	2.38
449.681	2.4
449.884	2.32
450.088	2.26
450.292	2.29
450.495	2.22
450.699	2.17
450.902	2.13
451.106	2.21
451.31	2.23
451.513	2.32
451.717	2.32
451.92	2.34
452.124	2.31
452.327	2.28
452.531	2.46
452.734	2.46
452.938	2.46
453.141	2.34
453.345	2.28
453.548	2.28
453.752	2.2
453.955	2.16
454.158	2.14
454.362	2.15
454.565	2.19
454.769	2.3
454.972	2.35
455.175	2.19
455.379	2.22
455.582	2.21
455.785	2.4
455.988	2.44
456.192	2.41
456.395	2.44
456.598	2.46
456.801	2.5
457.005	2.51
457.208	2.42
457.411	2.29
457.614	2.24
457.817	2.2
458.021	2.22
458.224	2.25
458.427	2.17
458.63	2.19
458.833	2.16
459.036	2.19
459.239	2.14
459.442	2.17
459.645	2.14
459.848	2.21
460.051	2.31
460.254	2.32
460.457	2.38
460.66	2.4
460.863	2.36
461.066	2.33
461.269	2.32
461.472	2.37
461.675	2.27
461.878	2.39
462.081	2.37
462.284	2.35
462.486	2.28
462.689	2.17
462.892	2.18
463.095	2.24
463.298	2.16
463.5	2.09
463.703	2.08
463.906	2.18
464.109	2.19
464.311	2.24
464.514	2.17
464.717	2.16
464.92	2.18
465.122	2.16
465.325	2.19
465.528	2.14
465.73	1.93
465.933	1.92
466.135	1.93
466.338	1.99
466.541	1.81
466.743	1.67
466.946	1.63
467.148	1.64
467.351	1.64
467.553	1.64
467.756	1.64
467.958	1.62
468.161	1.6
468.363	1.77
468.566	1.77
468.768	1.82
468.971	1.78
469.173	1.76
469.375	1.87
469.578	1.89
469.78	1.94
469.983	1.85
470.185	1.87
470.387	1.86
470.59	1.95
470.792	2.07
470.994	2.01
471.196	1.96
471.399	1.95
471.601	1.99
