Data from 2938469_Reflection_2.txt Node
Date: Wed Jun 17 13:39:14 EDT 2015
User: robert
Spectrometer: USB4E03002
Autoset integration time: false
Trigger mode: 4
Integration Time (sec): 1.000000E-1
Scans to average: 10
Electric dark correction enabled: true
Nonlinearity correction enabled: false
Boxcar width: 5
Stray light correction enabled: false
XAxis mode: Wavelengths
Stop averaging: false
Number of Pixels in Spectrum: 3648
>>>>>Begin Spectral Data<<<<<
177.575	-4.13
177.794	4.1
178.014	-3.39
178.233	5.33
178.452	18.57
178.672	26.28
178.891	95.82
179.11	53.55
179.33	53.11
179.549	46.48
179.768	19.8
179.987	35.98
180.207	14.13
180.426	18.7
180.645	5.72
180.864	-0.35
181.084	47.04
181.303	165.61
181.522	-80.33
181.741	-6.97
181.96	12.55
182.179	-12.42
182.398	7.79
182.618	-19.08
182.837	-12.44
183.056	-86.49
183.275	-117.93
183.494	-26.32
183.713	-27.97
183.932	17.98
184.151	-2.07
184.37	12.76
184.589	27.6
184.808	22.03
185.027	5.96
185.246	22.32
185.465	43.61
185.684	27.22
185.903	45.8
186.122	125.49
186.341	550.62
186.56	993.44
186.779	174.36
186.998	1081.72
187.216	-177.37
187.435	-591.69
187.654	4391.86
187.873	-648.77
188.092	180.93
188.311	260.12
188.53	203.53
188.748	93.77
188.967	57.29
189.186	137.86
189.405	4716.13
189.623	-82.09
189.842	24.94
190.061	63.21
190.28	143.34
190.498	-29.34
190.717	-687.56
190.936	621.17
191.154	-46.74
191.373	-20.11
191.592	53.41
191.81	-23.89
192.029	-65.82
192.248	-155.63
192.466	212.38
192.685	749.16
192.904	-17.6
193.122	-126.74
193.341	-101.05
193.559	-3.73
193.778	52.52
193.996	49.1
194.215	408.11
194.433	152.56
194.652	108.79
194.87	70.2
195.089	155.1
195.307	751.12
195.526	348.6
195.744	233.04
195.963	213.07
196.181	220.45
196.399	182.17
196.618	163.75
196.836	185.4
197.055	217.81
197.273	342.15
197.491	200.83
197.71	133.77
197.928	157.21
198.146	206.93
198.365	237.72
198.583	1732
198.801	-5.75
199.019	-10.66
199.238	-16.93
199.456	89
199.674	78.35
199.892	545.9
200.111	139.85
200.329	245.11
200.547	3321.92
200.765	77.58
200.983	183.44
201.202	66.45
201.42	12.91
201.638	42.43
201.856	119.84
202.074	90.52
202.292	262.65
202.51	186.26
202.728	157.98
202.946	121.3
203.165	125.39
203.383	116.56
203.601	80.36
203.819	56.97
204.037	38.48
204.255	-53.88
204.473	-1907.25
204.691	-14.25
204.909	-160.13
205.127	-144.81
205.345	-299.4
205.562	-106.8
205.78	-128.43
205.998	678.69
206.216	672.44
206.434	376.23
206.652	-46.78
206.87	-82.93
207.088	-215.84
207.306	-154.14
207.523	-85.89
207.741	-66.87
207.959	-68.69
208.177	-34.13
208.395	-0.79
208.612	28.89
208.83	27.91
209.048	28.24
209.266	72.39
209.483	64.96
209.701	39.87
209.919	64.45
210.136	61.52
210.354	46.02
210.572	37.6
210.79	21.96
211.007	-8.26
211.225	-8.01
211.442	-29.92
211.66	-35.35
211.878	-41.18
212.095	-22.84
212.313	-21.75
212.53	-16.16
212.748	-20.8
212.966	-9
213.183	-28.61
213.401	-19.03
213.618	-16.65
213.836	-6.15
214.053	-15.65
214.271	-9.57
214.488	-27.4
214.705	5.89
214.923	-64.28
215.14	-40.28
215.358	-28.25
215.575	3.4
215.793	-97.27
216.01	-16.21
216.227	11.07
216.445	24.78
216.662	15.81
216.879	13.35
217.097	-0.89
217.314	9.61
217.531	27.04
217.749	17.39
217.966	23.36
218.183	37.08
218.4	21.18
218.618	5.27
218.835	5.4
219.052	14.38
219.269	11.8
219.487	9.99
219.704	23.35
219.921	10.04
220.138	12.47
220.355	7.73
220.572	8.15
220.79	23.49
221.007	31.54
221.224	27.5
221.441	23.49
221.658	36.09
221.875	34.21
222.092	25.99
222.309	23.5
222.526	28.5
222.743	24.96
222.96	18.02
223.177	14.17
223.394	19.18
223.611	24.28
223.828	26.61
224.045	20.91
224.262	20.95
224.479	19.78
224.696	18.58
224.913	15.62
225.13	14.86
225.347	12.83
225.564	12.98
225.781	13.25
225.997	10.84
226.214	10.26
226.431	10.42
226.648	11.17
226.865	12.06
227.082	12.41
227.298	13.63
227.515	14.14
227.732	15.05
227.949	14.93
228.165	12.95
228.382	14.72
228.599	16.36
228.816	16.35
229.032	15.96
229.249	14.38
229.466	13.39
229.682	11.86
229.899	13.4
230.116	12.22
230.332	12.25
230.549	14.24
230.765	12.77
230.982	9.68
231.199	11.03
231.415	11.74
231.632	13.13
231.848	16.37
232.065	16.81
232.281	13.28
232.498	12.43
232.714	12.42
232.931	12.83
233.147	12.25
233.364	12.82
233.58	10.62
233.797	10.77
234.013	9.73
234.23	8.73
234.446	6.89
234.662	8.7
234.879	10.24
235.095	10.66
235.312	9.71
235.528	11.15
235.744	12.3
235.961	13.87
236.177	13.99
236.393	13.75
236.61	12.93
236.826	14.42
237.042	12.44
237.258	10.96
237.475	10.24
237.691	12.12
237.907	10.25
238.123	9.33
238.339	10.34
238.556	11.77
238.772	12.91
238.988	12.1
239.204	11.75
239.42	12.39
239.636	12.94
239.853	13
240.069	12.2
240.285	13.26
240.501	12.67
240.717	12.52
240.933	11.41
241.149	11.57
241.365	12.27
241.581	12.32
241.797	11.98
242.013	12.02
242.229	12.1
242.445	11.86
242.661	11.47
242.877	12.21
243.093	11.59
243.309	11.32
243.525	10.75
243.741	10.8
243.957	10.66
244.173	10.78
244.388	10.57
244.604	10.28
244.82	10.95
245.036	10.66
245.252	10.41
245.468	10.36
245.683	11.16
245.899	11.14
246.115	11.25
246.331	11.09
246.547	11.46
246.762	11.58
246.978	11.84
247.194	11.34
247.409	11.25
247.625	11.1
247.841	11.89
248.057	10.86
248.272	11.12
248.488	11.23
248.703	11.72
248.919	11.34
249.135	11.44
249.35	11.07
249.566	11.78
249.782	11.43
249.997	11.81
250.213	10.88
250.428	11.73
250.644	11.82
250.859	11.16
251.075	10.78
251.29	10.1
251.506	9.87
251.721	10.02
251.937	9.31
252.152	9.61
252.368	10.36
252.583	10.21
252.798	10.11
253.014	10.06
253.229	9.91
253.445	11.05
253.66	12.55
253.875	12.01
254.091	11.21
254.306	10.8
254.521	10.92
254.737	9.63
254.952	10.05
255.167	8.99
255.383	9.41
255.598	9.95
255.813	9.33
256.028	9.22
256.244	9.13
256.459	9.76
256.674	9.82
256.889	9.38
257.104	9.02
257.32	9.11
257.535	9.25
257.75	8.75
257.965	8.66
258.18	8.22
258.395	8.29
258.61	8.61
258.826	8.09
259.041	8.22
259.256	8.12
259.471	8.55
259.686	8.14
259.901	8.09
260.116	8.08
260.331	8.05
260.546	8.49
260.761	7.93
260.976	7.61
261.191	8.15
261.406	8.27
261.621	8.58
261.836	7.75
262.05	7.62
262.265	8.26
262.48	8.22
262.695	8.19
262.91	8.37
263.125	9.06
263.34	9.23
263.555	9.15
263.769	8.95
263.984	9.27
264.199	9.58
264.414	9.71
264.629	9.71
264.843	9.66
265.058	8.9
265.273	8.61
265.488	8.57
265.702	8.28
265.917	8.36
266.132	8.26
266.346	7.81
266.561	7.75
266.776	8.21
266.99	7.71
267.205	7.76
267.42	8.23
267.634	8.73
267.849	7.92
268.063	7.73
268.278	8
268.492	7.99
268.707	8.39
268.922	8.27
269.136	7.55
269.351	7.52
269.565	7.13
269.78	6.85
269.994	6.41
270.209	6.95
270.423	6.83
270.637	6.63
270.852	6.84
271.066	6.72
271.281	6.86
271.495	6.99
271.709	7.11
271.924	7.3
272.138	7.47
272.353	8.05
272.567	7.52
272.781	7.71
272.996	7.5
273.21	7.63
273.424	7.52
273.638	8.08
273.853	8.3
274.067	8.14
274.281	8.11
274.495	8.14
274.71	7.5
274.924	8
275.138	7.88
275.352	8.28
275.566	7.89
275.781	7.93
275.995	6.62
276.209	7.33
276.423	6.96
276.637	6.97
276.851	6.65
277.065	6.29
277.279	6.32
277.493	7.06
277.707	6.81
277.921	7.07
278.135	7.34
278.349	7.81
278.563	6.72
278.777	7.4
278.991	7.28
279.205	7.59
279.419	7.78
279.633	7.59
279.847	7.39
280.061	7.32
280.275	7.49
280.489	7.2
280.703	7.44
280.917	7.82
281.131	7.55
281.344	7.6
281.558	7.47
281.772	7.47
281.986	7.42
282.2	7.13
282.414	6.93
282.627	6.57
282.841	6.34
283.055	6.27
283.269	6.11
283.482	6.51
283.696	6.58
283.91	6.72
284.123	6.78
284.337	6.95
284.551	6.71
284.764	7.05
284.978	7.15
285.192	7.32
285.405	7.51
285.619	7.88
285.833	7.43
286.046	7.66
286.26	7.34
286.473	7.5
286.687	7.03
286.9	7.24
287.114	7.31
287.327	7.3
287.541	7.64
287.754	7.67
287.968	7.4
288.181	7.54
288.395	7.58
288.608	8.22
288.822	8.19
289.035	8.8
289.248	9.31
289.462	9.41
289.675	9.35
289.889	9.31
290.102	8.79
290.315	8.78
290.529	8.91
290.742	8.71
290.955	8.55
291.169	8.64
291.382	8.31
291.595	8.65
291.808	8.59
292.022	8.63
292.235	8.87
292.448	8.96
292.661	8.97
292.875	9.01
293.088	9.05
293.301	9.16
293.514	9.02
293.727	8.87
293.94	8.32
294.153	8.31
294.367	8.44
294.58	8.27
294.793	8.58
295.006	8.96
295.219	8.91
295.432	9.01
295.645	8.96
295.858	8.94
296.071	9.11
296.284	9.12
296.497	9.08
296.71	8.94
296.923	8.73
297.136	8.74
297.349	8.61
297.562	8.79
297.775	8.9
297.988	8.61
298.201	8.79
298.414	8.56
298.626	8.5
298.839	8.26
299.052	8.04
299.265	8.27
299.478	8.22
299.691	7.98
299.903	7.94
300.116	8.11
300.329	8.16
300.542	8.47
300.755	8.95
300.967	9.02
301.18	9.39
301.393	9.91
301.605	9.92
301.818	9.92
302.031	9.93
302.243	9.8
302.456	9.75
302.669	10.11
302.881	9.8
303.094	9.86
303.307	9.81
303.519	9.75
303.732	9.72
303.944	9.86
304.157	10.14
304.37	10.52
304.582	10.13
304.795	9.83
305.007	9.63
305.22	9.67
305.432	9.13
305.645	9.3
305.857	9.32
306.069	9.67
306.282	9.72
306.494	9.56
306.707	9.83
306.919	10.38
307.132	10.4
307.344	10.84
307.556	10.93
307.769	11.32
307.981	11.31
308.193	11.18
308.406	10.81
308.618	10.75
308.83	10.57
309.043	10.3
309.255	10.21
309.467	10.34
309.679	10.07
309.892	9.56
310.104	9.37
310.316	9.3
310.528	9.65
310.74	9.63
310.953	9.6
311.165	9.72
311.377	10.02
311.589	9.78
311.801	9.98
312.013	9.96
312.225	10.4
312.437	10.53
312.649	10.63
312.862	10.47
313.074	10.35
313.286	10.01
313.498	9.63
313.71	9.58
313.922	9.8
314.134	9.66
314.346	9.68
314.558	9.98
314.77	10.05
314.982	9.94
315.193	9.85
315.405	9.85
315.617	10.01
315.829	10.37
316.041	9.93
316.253	10.2
316.465	10.22
316.677	10.24
316.888	10.17
317.1	10.28
317.312	10.55
317.524	10.72
317.736	10.75
317.947	11.4
318.159	11.8
318.371	11.75
318.583	11.11
318.794	10.92
319.006	10.53
319.218	10.09
319.43	10.36
319.641	10.59
319.853	10.4
320.064	10.53
320.276	9.96
320.488	9.79
320.699	9.64
320.911	10.63
321.123	10.4
321.334	10.66
321.546	10.85
321.757	9.82
321.969	9.52
322.18	9.35
322.392	9.49
322.603	9.98
322.815	9.42
323.026	9.54
323.238	8.94
323.449	9.09
323.661	9.06
323.872	9.42
324.083	10.4
324.295	10.04
324.506	9.78
324.718	9.77
324.929	9.87
325.14	10.23
325.352	10.4
325.563	10.99
325.774	11.11
325.986	11.17
326.197	10.88
326.408	10.16
326.62	10.16
326.831	10.61
327.042	10.67
327.253	10.01
327.464	10.08
327.676	10.27
327.887	9.6
328.098	9.88
328.309	9.99
328.52	10.03
328.732	10.76
328.943	11.38
329.154	11.58
329.365	11.45
329.576	11.71
329.787	12.01
329.998	11.68
330.209	11.8
330.42	11.37
330.631	11.09
330.842	11.18
331.053	10.8
331.264	10.02
331.475	9.76
331.686	9.67
331.897	9.84
332.108	9.44
332.319	9.25
332.53	9.72
332.741	9.64
332.952	9.62
333.163	9.71
333.374	10.01
333.585	10.19
333.795	10.8
334.006	10.92
334.217	10.98
334.428	11.46
334.639	11.94
334.849	12.1
335.06	12.49
335.271	12.63
335.482	12.46
335.692	11.99
335.903	12.13
336.114	11.44
336.325	11.18
336.535	11.6
336.746	11.31
336.957	11.26
337.167	10.97
337.378	10.33
337.589	10.65
337.799	10.55
338.01	11.21
338.22	11.62
338.431	11.49
338.642	11.68
338.852	11.24
339.063	11.1
339.273	10.5
339.484	10.24
339.694	10.38
339.905	10.05
340.115	10.23
340.326	9.65
340.536	9.56
340.746	9.63
340.957	9.9
341.167	9.64
341.378	9.5
341.588	10.23
341.799	10.3
342.009	10.46
342.219	10.39
342.43	10.28
342.64	10.6
342.85	10.19
343.061	10.22
343.271	9.86
343.481	10.06
343.691	10.24
343.902	10.01
344.112	10
344.322	10.1
344.532	9.89
344.743	10.12
344.953	9.88
345.163	10.1
345.373	10.16
345.583	10.06
345.793	10.01
346.004	10.14
346.214	10.06
346.424	10.26
346.634	10.2
346.844	10.85
347.054	10.5
347.264	10.76
347.474	10.82
347.684	10.75
347.894	11
348.104	10.98
348.314	10.83
348.524	10.78
348.734	10.78
348.944	10.65
349.154	10.21
349.364	10.43
349.574	10.11
349.784	10.04
349.994	10.22
350.204	10.11
350.413	10.17
350.623	10.07
350.833	9.77
351.043	9.65
351.253	9.89
351.463	9.77
351.672	9.59
351.882	9.6
352.092	9.19
352.302	9.31
352.511	9.4
352.721	9.12
352.931	9.17
353.141	9.52
353.35	9.3
353.56	9.15
353.77	9.57
353.979	9.16
354.189	9.54
354.399	9.93
354.608	9.61
354.818	9.69
355.027	9.9
355.237	9.76
355.447	9.3
355.656	9.21
355.866	8.94
356.075	8.64
356.285	8.91
356.494	8.51
356.704	8.38
356.913	8.44
357.123	8.21
357.332	7.96
357.542	7.99
357.751	8.21
357.96	8.37
358.17	8.66
358.379	8.77
358.589	8.9
358.798	8.88
359.007	8.98
359.217	8.82
359.426	9.07
359.635	9.13
359.845	8.99
360.054	8.98
360.263	8.9
360.472	8.76
360.682	8.68
360.891	8.68
361.1	8.83
361.309	8.64
361.519	8.65
361.728	8.25
361.937	8.13
362.146	8.31
362.355	8.29
362.564	8.55
362.774	8.5
362.983	8.46
363.192	8.23
363.401	8.13
363.61	8.07
363.819	8.39
364.028	8.72
364.237	9.03
364.446	9.09
364.655	9.1
364.864	8.86
365.073	8.82
365.282	8.95
365.491	9.08
365.7	9.09
365.909	9.2
366.118	9.05
366.327	8.95
366.536	8.94
366.745	8.77
366.954	8.89
367.162	8.85
367.371	8.74
367.58	8.74
367.789	8.63
367.998	8.26
368.207	8.31
368.415	7.98
368.624	7.78
368.833	7.79
369.042	7.79
369.25	7.8
369.459	7.82
369.668	8.1
369.877	7.98
370.085	8.07
370.294	8.11
370.503	7.99
370.711	8.3
370.92	8.33
371.129	8.08
371.337	7.95
371.546	7.6
371.754	7.47
371.963	7.38
372.171	7.59
372.38	7.42
372.589	7.63
372.797	7.67
373.006	7.38
373.214	7.61
373.423	7.55
373.631	7.73
373.84	7.93
374.048	8.36
374.256	8.29
374.465	7.87
374.673	8
374.882	8.02
375.09	8.28
375.298	8.26
375.507	8.38
375.715	8.32
375.923	8.27
376.132	8.3
376.34	8.05
376.548	8.2
376.757	8.39
376.965	8.09
377.173	7.92
377.381	7.68
377.59	7.66
377.798	7.53
378.006	7.65
378.214	7.63
378.423	7.49
378.631	7.18
378.839	7.07
379.047	7
379.255	7.33
379.463	7.45
379.671	7.34
379.879	7.46
380.088	7.45
380.296	7.59
380.504	7.52
380.712	7.78
380.92	7.84
381.128	7.75
381.336	7.65
381.544	7.57
381.752	7.47
381.96	7.58
382.168	7.5
382.376	7.44
382.584	7.22
382.791	7.15
382.999	6.86
383.207	6.87
383.415	6.98
383.623	7.32
383.831	7.2
384.039	7.28
384.247	7.24
384.454	7.22
384.662	7.18
384.87	7.22
385.078	7.21
385.285	7.25
385.493	7.41
385.701	7.29
385.909	6.92
386.116	7.1
386.324	6.97
386.532	6.81
386.739	6.75
386.947	6.55
387.155	6.5
387.362	6.4
387.57	6.51
387.778	6.32
387.985	6.24
388.193	6.35
388.4	6.25
388.608	6.43
388.816	6.54
389.023	6.66
389.231	6.73
389.438	6.65
389.646	6.72
389.853	6.69
390.061	6.74
390.268	6.9
390.475	6.84
390.683	6.54
390.89	6.48
391.098	6.53
391.305	6.44
391.512	6.36
391.72	6.22
391.927	6.14
392.135	6.14
392.342	6
392.549	5.89
392.756	5.82
392.964	6.09
393.171	6.05
393.378	5.97
393.586	6.06
393.793	6.18
394	6.23
394.207	6.31
394.414	6.29
394.622	6.4
394.829	6.33
395.036	6.31
395.243	6.26
395.45	6.18
395.657	6.19
395.864	6.14
396.072	6.14
396.279	6.25
396.486	6.29
396.693	6.12
396.9	6
397.107	6.04
397.314	6.2
397.521	6.11
397.728	6.14
397.935	5.99
398.142	5.89
398.349	5.8
398.556	5.7
398.763	5.54
398.97	5.53
399.177	5.65
399.383	5.75
399.59	5.75
399.797	5.94
400.004	6.07
400.211	6.22
400.418	6.31
400.625	6.41
400.831	6.33
401.038	6.37
401.245	6.38
401.452	6.29
401.658	6.18
401.865	6.24
402.072	6.02
402.279	5.94
402.485	5.81
402.692	5.72
402.899	5.65
403.105	5.67
403.312	5.9
403.519	5.94
403.725	5.93
403.932	5.93
404.138	5.7
404.345	5.75
404.552	5.53
404.758	5.6
404.965	5.54
405.171	5.54
405.378	5.5
405.584	5.34
405.791	5.19
405.997	5.22
406.204	5.14
406.41	5.29
406.617	5.31
406.823	5.46
407.029	5.22
407.236	5.24
407.442	5.16
407.649	5.41
407.855	5.31
408.061	5.31
408.268	5.24
408.474	5.36
408.68	5.09
408.887	5.15
409.093	5.05
409.299	5.33
409.505	5.43
409.712	5.52
409.918	5.44
410.124	5.36
410.33	5.49
410.537	5.54
410.743	5.41
410.949	5.47
411.155	5.43
411.361	5.28
411.567	5.25
411.773	5.14
411.98	5.04
412.186	5.1
412.392	5.2
412.598	5.2
412.804	5.15
413.01	5.21
413.216	5.27
413.422	5.23
413.628	5.59
413.834	5.53
414.04	5.62
414.246	5.65
414.452	5.63
414.658	5.6
414.864	5.48
415.07	5.58
415.275	5.52
415.481	5.51
415.687	5.61
415.893	5.54
416.099	5.56
416.305	5.52
416.511	5.52
416.716	5.33
416.922	5.32
417.128	5.47
417.334	5.41
417.539	5.4
417.745	5.37
417.951	5.17
418.157	5.11
418.362	5.06
418.568	5.03
418.774	4.96
418.979	5
419.185	4.96
419.391	4.85
419.596	4.81
419.802	4.77
420.008	4.81
420.213	4.98
420.419	5.01
420.624	5.09
420.83	5.02
421.035	5.06
421.241	5.17
421.446	5.2
421.652	5.29
421.857	5.32
422.063	5.29
422.268	5.26
422.474	5.18
422.679	5.18
422.885	5.21
423.09	5.27
423.295	5.22
423.501	5.16
423.706	5.1
423.911	4.95
424.117	4.87
424.322	4.94
424.527	4.91
424.733	4.87
424.938	4.81
425.143	4.65
425.349	4.65
425.554	4.77
425.759	4.72
425.964	4.76
426.169	4.75
426.375	4.87
426.58	4.78
426.785	4.73
426.99	4.67
427.195	4.61
427.4	4.56
427.605	4.55
427.811	4.46
428.016	4.39
428.221	4.46
428.426	4.61
428.631	4.62
428.836	4.65
429.041	4.7
429.246	4.74
429.451	4.71
429.656	4.82
429.861	4.79
430.066	4.72
430.271	4.76
430.476	4.69
430.681	4.67
430.886	4.59
431.09	4.66
431.295	4.72
431.5	4.67
431.705	4.63
431.91	4.57
432.115	4.6
432.32	4.58
432.524	4.43
432.729	4.47
432.934	4.38
433.139	4.43
433.343	4.29
433.548	4.22
433.753	4.3
433.958	4.49
434.162	4.48
434.367	4.46
434.572	4.46
434.776	4.58
434.981	4.62
435.186	4.69
435.39	4.61
435.595	4.7
435.799	4.7
436.004	4.67
436.209	4.59
436.413	4.58
436.618	4.57
436.822	4.61
437.027	4.72
437.231	4.64
437.436	4.57
437.64	4.56
437.845	4.56
438.049	4.58
438.253	4.65
438.458	4.69
438.662	4.7
438.867	4.66
439.071	4.74
439.275	4.67
439.48	4.62
439.684	4.7
439.888	4.67
440.093	4.71
440.297	4.71
440.501	4.61
440.706	4.61
440.91	4.58
441.114	4.6
441.318	4.53
441.523	4.45
441.727	4.54
441.931	4.5
442.135	4.57
442.339	4.49
442.543	4.44
442.748	4.5
442.952	4.38
443.156	4.43
443.36	4.4
443.564	4.44
443.768	4.5
443.972	4.51
444.176	4.5
444.38	4.39
444.584	4.46
444.788	4.54
444.992	4.51
445.196	4.58
445.4	4.59
445.604	4.54
445.808	4.46
446.012	4.45
446.216	4.39
446.42	4.34
446.624	4.37
446.828	4.39
447.032	4.37
447.235	4.37
447.439	4.29
447.643	4.21
447.847	4.37
448.051	4.46
448.254	4.46
448.458	4.53
448.662	4.53
448.866	4.61
449.069	4.49
449.273	4.39
449.477	4.38
449.681	4.5
449.884	4.6
450.088	4.54
450.292	4.42
450.495	4.36
450.699	4.43
450.902	4.5
451.106	4.48
451.31	4.5
451.513	4.5
451.717	4.51
451.92	4.43
452.124	4.3
452.327	4.22
452.531	4.32
452.734	4.41
452.938	4.31
453.141	4.27
453.345	4.34
453.548	4.34
453.752	4.34
453.955	4.28
454.158	4.27
454.362	4.35
454.565	4.44
454.769	4.38
454.972	4.31
455.175	4.29
455.379	4.26
455.582	4.15
455.785	4.05
455.988	3.98
456.192	4.09
456.395	3.99
456.598	4.01
456.801	4.01
457.005	3.95
457.208	4.01
457.411	4.03
457.614	4.05
457.817	4.08
458.021	4.14
458.224	4.28
458.427	4.27
458.63	4.38
458.833	4.4
459.036	4.32
459.239	4.33
459.442	4.25
459.645	4.21
459.848	4.21
460.051	4.22
460.254	4.27
460.457	4.21
460.66	4.18
460.863	4.08
461.066	3.89
461.269	3.95
461.472	4.02
461.675	3.96
461.878	3.97
462.081	4.04
462.284	4.11
462.486	4.11
462.689	4.12
462.892	4.11
463.095	4.26
463.298	4.43
463.5	4.48
463.703	4.55
463.906	4.62
464.109	4.61
464.311	4.51
464.514	4.38
464.717	4.33
464.92	4.37
465.122	4.33
465.325	4.26
465.528	4.29
465.73	4.27
465.933	4.22
466.135	4.21
466.338	4.21
466.541	4.22
466.743	4.25
466.946	4.3
467.148	4.2
467.351	4.19
467.553	4.23
