Data from 2938442_Reflection_2.txt Node
Date: Fri Jun 19 18:17:48 EDT 2015
User: robert
Spectrometer: USB4E03002
Autoset integration time: false
Trigger mode: 4
Integration Time (sec): 1.000000E-1
Scans to average: 10
Electric dark correction enabled: true
Nonlinearity correction enabled: false
Boxcar width: 5
Stray light correction enabled: false
XAxis mode: Wavelengths
Stop averaging: false
Number of Pixels in Spectrum: 3648
>>>>>Begin Spectral Data<<<<<
177.575	-339.73
177.794	-455.56
178.014	-690.96
178.233	1275.22
178.452	926.61
178.672	380.16
178.891	-11.58
179.11	511.29
179.33	767.24
179.549	-299.59
179.768	573.21
179.987	243.63
180.207	-1289.22
180.426	1244.76
180.645	172.39
180.864	70.47
181.084	59.1
181.303	47.65
181.522	57.98
181.741	42.52
181.96	16.62
182.179	37.61
182.398	7.53
182.618	6.18
182.837	-13.41
183.056	-92.49
183.275	5042
183.494	213.8
183.713	-2045.74
183.932	2264.47
184.151	470.78
184.37	1869.33
184.589	288.45
184.808	258.88
185.027	196.67
185.246	193.59
185.465	229.5
185.684	839.6
185.903	851.98
186.122	212.85
186.341	72.76
186.56	51.67
186.779	9.54
186.998	89.14
187.216	141.04
187.435	82.72
187.654	29.45
187.873	-64.56
188.092	-102.94
188.311	511.59
188.53	-336.79
188.748	-195.09
188.967	-169.41
189.186	-387.63
189.405	-453.58
189.623	-2794.02
189.842	927.8
190.061	2462.85
190.28	-323.01
190.498	-647.1
190.717	-59273.33
190.936	-1391.73
191.154	-972.06
191.373	-1354.62
191.592	-32.74
191.81	-28.69
192.029	-47.89
192.248	-55.2
192.466	-38.85
192.685	-56.08
192.904	-39.71
193.122	1.95
193.341	-35.65
193.559	-122.78
193.778	-48.9
193.996	-101.6
194.215	-49.13
194.433	-31.27
194.652	-66.05
194.87	-35.91
195.089	-28.23
195.307	-5.6
195.526	-10.62
195.744	1.99
195.963	-11.55
196.181	-47.8
196.399	-98.28
196.618	-900.9
196.836	1016.01
197.055	837.94
197.273	1167.49
197.491	287.45
197.71	301.05
197.928	185.5
198.146	372.98
198.365	1263.33
198.583	246.68
198.801	207.07
199.019	869.29
199.238	708.5
199.456	2729.44
199.674	646.77
199.892	-168.62
200.111	277.93
200.329	-1363.66
200.547	489.36
200.765	868.77
200.983	-400.33
201.202	-141.3
201.42	-145.49
201.638	-241.49
201.856	-175.06
202.074	-170.2
202.292	-331.46
202.51	-148.63
202.728	-436.25
202.946	-225.66
203.165	-531
203.383	-363.81
203.601	-457.64
203.819	-618.04
204.037	-192.35
204.255	-437.37
204.473	1328.86
204.691	973.49
204.909	-3736.32
205.127	-422.01
205.345	-314.94
205.562	-162.13
205.78	-443.74
205.998	-279.95
206.216	-175.86
206.434	-507.76
206.652	-186.69
206.87	-81.74
207.088	-26.81
207.306	8.81
207.523	-10.67
207.741	26.86
207.959	-111.07
208.177	18.5
208.395	26.58
208.612	-68.69
208.83	-37.49
209.048	-42.92
209.266	-15.68
209.483	38.81
209.701	-50.5
209.919	-10.19
210.136	-51.19
210.354	-16.64
210.572	16.28
210.79	5.32
211.007	3.07
211.225	1.22
211.442	4.69
211.66	-32.52
211.878	-207.77
212.095	-27.07
212.313	-28.68
212.53	-20.07
212.748	-9.56
212.966	3.75
213.183	12.14
213.401	34.22
213.618	29.79
213.836	30.29
214.053	48.02
214.271	52.55
214.488	50.3
214.705	54.66
214.923	39.53
215.14	36.53
215.358	27.75
215.575	25.56
215.793	13.45
216.01	4.1
216.227	5.5
216.445	-19.04
216.662	-33.6
216.879	-123.21
217.097	-68.2
217.314	-66.88
217.531	-34.05
217.749	-252.13
217.966	-204.84
218.183	-432.49
218.4	-224.83
218.618	-250.56
218.835	-348.16
219.052	-513.63
219.269	-194.19
219.487	-167.8
219.704	-206.33
219.921	-155.82
220.138	-56.17
220.355	-60.7
220.572	-31.6
220.79	-17.34
221.007	-9.93
221.224	-11.18
221.441	5.11
221.658	4.21
221.875	-2.34
222.092	7.2
222.309	0.62
222.526	-19.06
222.743	0.81
222.96	4.33
223.177	-9.12
223.394	-12.35
223.611	-5.01
223.828	3.33
224.045	-1.43
224.262	9.2
224.479	5.74
224.696	5.88
224.913	9.26
225.13	4.14
225.347	4.78
225.564	11.94
225.781	12.71
225.997	13.14
226.214	7.96
226.431	10.92
226.648	11.47
226.865	13.56
227.082	13.86
227.298	12.1
227.515	10.67
227.732	11.22
227.949	11.15
228.165	12.89
228.382	12.59
228.599	12.4
228.816	10.18
229.032	7.69
229.249	5.37
229.466	4.04
229.682	6.26
229.899	6
230.116	1.31
230.332	-1.71
230.549	-4.25
230.765	-3.57
230.982	-2.75
231.199	-1.29
231.415	1.87
231.632	5.74
231.848	5.5
232.065	4.57
232.281	5.51
232.498	10.18
232.714	10.67
232.931	8.48
233.147	7.73
233.364	6.08
233.58	11.21
233.797	8.98
234.013	7.12
234.23	4.86
234.446	6.89
234.662	6.55
234.879	6.84
235.095	8.13
235.312	12.99
235.528	14.36
235.744	19.8
235.961	14.61
236.177	13.71
236.393	15.08
236.61	21.67
236.826	18.45
237.042	19.29
237.258	17.59
237.475	14.02
237.691	10.37
237.907	10.52
238.123	8.01
238.339	8.33
238.556	10.71
238.772	11.81
238.988	8.67
239.204	10.42
239.42	11.76
239.636	12.1
239.853	13.67
240.069	15.36
240.285	15.43
240.501	15.02
240.717	15.34
240.933	13.94
241.149	13.47
241.365	12.72
241.581	12.6
241.797	11.3
242.013	10.68
242.229	11.47
242.445	9.09
242.661	8.72
242.877	8.18
243.093	6.92
243.309	7.85
243.525	7.68
243.741	9
243.957	8.38
244.173	9.75
244.388	9.95
244.604	9.81
244.82	11.61
245.036	11.73
245.252	11.96
245.468	11.99
245.683	11.68
245.899	11.19
246.115	11.89
246.331	12.35
246.547	12.24
246.762	11.7
246.978	11.22
247.194	10.64
247.409	10.2
247.625	9.87
247.841	9.59
248.057	10.48
248.272	11.31
248.488	9.85
248.703	10.73
248.919	10.95
249.135	12
249.35	12.28
249.566	11.99
249.782	11.14
249.997	12
250.213	12.33
250.428	11.42
250.644	10.91
250.859	10.34
251.075	7.36
251.29	6.18
251.506	6.7
251.721	6.44
251.937	5.26
252.152	6.3
252.368	5.82
252.583	7.41
252.798	7.42
253.014	8.43
253.229	7.82
253.445	9.14
253.66	10.31
253.875	7.34
254.091	6.22
254.306	7.24
254.521	6.34
254.737	5.4
254.952	3.4
255.167	4.97
255.383	4.91
255.598	8.18
255.813	9
256.028	8.82
256.244	8.49
256.459	8.62
256.674	8.83
256.889	9.33
257.104	9.62
257.32	10.08
257.535	10
257.75	9.59
257.965	9.17
258.18	9.52
258.395	9.03
258.61	9.66
258.826	9.92
259.041	9.97
259.256	9.62
259.471	9.23
259.686	8.79
259.901	9.07
260.116	9.32
260.331	8.73
260.546	8.39
260.761	8.91
260.976	8.5
261.191	7.7
261.406	7.26
261.621	7.73
261.836	8.26
262.05	8.86
262.265	7.79
262.48	6.68
262.695	6.64
262.91	6
263.125	6.72
263.34	7.8
263.555	8.8
263.769	9.07
263.984	9.27
264.199	9.96
264.414	9.84
264.629	9.14
264.843	10.54
265.058	10.88
265.273	10.78
265.488	9.46
265.702	8.37
265.917	8.81
266.132	8.87
266.346	7.79
266.561	6.92
266.776	7.2
266.99	7.41
267.205	6.62
267.42	6.77
267.634	7.04
267.849	7.72
268.063	8.4
268.278	8.31
268.492	7.63
268.707	8.21
268.922	9.1
269.136	8.47
269.351	8.51
269.565	8.93
269.78	8.15
269.994	8.47
270.209	8.95
270.423	8.94
270.637	8.9
270.852	9.11
271.066	9
271.281	8.3
271.495	8.87
271.709	8.42
271.924	8.16
272.138	8.77
272.353	8.26
272.567	7.67
272.781	7.09
272.996	6.7
273.21	6.72
273.424	7.37
273.638	7.67
273.853	7.14
274.067	7.72
274.281	7
274.495	7.8
274.71	7.74
274.924	7.49
275.138	8.53
275.352	8.33
275.566	8.67
275.781	9.02
275.995	8.61
276.209	9.56
276.423	9.5
276.637	9.39
276.851	8.9
277.065	8.45
277.279	9.07
277.493	9.88
277.707	9.93
277.921	10.83
278.135	10.61
278.349	10.88
278.563	10.17
278.777	10.17
278.991	11.37
279.205	11.24
279.419	10.34
279.633	9.98
279.847	9.24
280.061	9.66
280.275	8.78
280.489	8.02
280.703	8.08
280.917	8.58
281.131	8.49
281.344	8.41
281.558	8.18
281.772	9.51
281.986	9.33
282.2	9.66
282.414	9.63
282.627	10.31
282.841	10.77
283.055	10.93
283.269	10.69
283.482	11.23
283.696	11.36
283.91	11.47
284.123	11.32
284.337	11.27
284.551	10.64
284.764	10.85
284.978	10.14
285.192	9.49
285.405	9.1
285.619	8.38
285.833	8.24
286.046	7.29
286.26	7.41
286.473	7.58
286.687	7.52
286.9	8.03
287.114	7.66
287.327	7.72
287.541	8.45
287.754	9.15
287.968	9.63
288.181	9.53
288.395	10.14
288.608	9.67
288.822	9.16
289.035	9.21
289.248	9.04
289.462	8.93
289.675	9.39
289.889	9.87
290.102	8.93
290.315	9.44
290.529	9.47
290.742	9.43
290.955	9.81
291.169	10.39
291.382	10.08
291.595	10.07
291.808	10.78
292.022	9.72
292.235	8.51
292.448	9.81
292.661	8.43
292.875	8.39
293.088	8.85
293.301	9.11
293.514	8.53
293.727	9.06
293.94	9.11
294.153	8.35
294.367	9.1
294.58	9.35
294.793	8.88
295.006	9.88
295.219	9.88
295.432	9.47
295.645	9.35
295.858	8.94
296.071	8.89
296.284	8.46
296.497	9.63
296.71	9.56
296.923	10.15
297.136	9.95
297.349	9.62
297.562	9.87
297.775	10.36
297.988	10.1
298.201	10.97
298.414	10.72
298.626	11.42
298.839	11.03
299.052	11.35
299.265	11.44
299.478	11.34
299.691	11.91
299.903	11.81
300.116	11.53
300.329	12.65
300.542	12.51
300.755	12.3
300.967	12.81
301.18	12.87
301.393	12.52
301.605	11.82
301.818	12.35
302.031	11.94
302.243	11.83
302.456	11.15
302.669	10.9
302.881	11.64
303.094	12.31
303.307	11.27
303.519	10.42
303.732	10.76
303.944	10.74
304.157	11.57
304.37	11.05
304.582	11.07
304.795	11.86
305.007	11.13
305.22	10.12
305.432	10.26
305.645	10.75
305.857	11.16
306.069	11.33
306.282	11.17
306.494	10.34
306.707	11.3
306.919	11.34
307.132	10.64
307.344	10.95
307.556	11.24
307.769	11.61
307.981	11.55
308.193	11.73
308.406	10.91
308.618	11.4
308.83	10.87
309.043	9.99
309.255	9.88
309.467	10.39
309.679	9.91
309.892	9.84
310.104	9.3
310.316	9.73
310.528	9.46
310.74	9.98
310.953	9.06
311.165	8.97
311.377	9.25
311.589	9.03
311.801	9.03
312.013	9.39
312.225	9.49
312.437	9.9
312.649	9.79
312.862	9
313.074	8.84
313.286	9.15
313.498	9.37
313.71	9.82
313.922	8.92
314.134	8.63
314.346	8.23
314.558	8.04
314.77	7.96
314.982	8.15
315.193	8.4
315.405	8.54
315.617	8.77
315.829	8.93
316.041	8.3
316.253	10.01
316.465	10.6
316.677	11.37
316.888	11.63
317.1	11.38
317.312	11.12
317.524	10.68
317.736	11.33
317.947	11.64
318.159	12.83
318.371	13.06
318.583	11.72
318.794	11.59
319.006	10.9
319.218	10.95
319.43	10.26
319.641	9.46
319.853	10.57
320.064	9.75
320.276	9.59
320.488	8.6
320.699	8.19
320.911	9.15
321.123	8.63
321.334	9.18
321.546	9.87
321.757	11.39
321.969	12.14
322.18	11.07
322.392	10.86
322.603	10.53
322.815	10.68
323.026	10.89
323.238	10.42
323.449	10.9
323.661	9.88
323.872	9.49
324.083	9.38
324.295	9.32
324.506	9.76
324.718	9.54
324.929	10.13
325.14	10.3
325.352	11.23
325.563	11.32
325.774	11.37
325.986	11.97
326.197	11.42
326.408	11.17
326.62	10.23
326.831	10.6
327.042	10.41
327.253	9.72
327.464	9.51
327.676	9.39
327.887	9.83
328.098	9.85
328.309	9.89
328.52	10.37
328.732	10.71
328.943	11.79
329.154	12.14
329.365	13.32
329.576	14.28
329.787	14.69
329.998	13.87
330.209	12.82
330.42	12.51
330.631	13.15
330.842	13.36
331.053	12.78
331.264	12.15
331.475	11.1
331.686	11.36
331.897	10.83
332.108	10.29
332.319	10.22
332.53	11.45
332.741	11.87
332.952	10.98
333.163	11.09
333.374	11.76
333.585	11.45
333.795	12.07
334.006	11.95
334.217	12.32
334.428	12.32
334.639	12.44
334.849	11.88
335.06	11.28
335.271	11.78
335.482	10.75
335.692	10.08
335.903	11.34
336.114	10.71
336.325	10.43
336.535	10.75
336.746	10.87
336.957	10.55
337.167	11.47
337.378	11.95
337.589	12.75
337.799	13.37
338.01	13.14
338.22	13.05
338.431	13.96
338.642	13.64
338.852	12.93
339.063	13.07
339.273	12.53
339.484	12.15
339.694	11.25
339.905	10.49
340.115	10.78
340.326	10.86
340.536	10.4
340.746	10.34
340.957	10.73
341.167	10.74
341.378	10.27
341.588	11.25
341.799	11.11
342.009	12.04
342.219	11.86
342.43	12.59
342.64	12.7
342.85	12.56
343.061	12.08
343.271	11.85
343.481	11.73
343.691	12.44
343.902	12.39
344.112	12.58
344.322	12.58
344.532	13.09
344.743	12.69
344.953	12.06
345.163	11.83
345.373	12.43
345.583	12.68
345.793	13.2
346.004	13.52
346.214	12.87
346.424	12.78
346.634	12.31
346.844	12.51
347.054	11.29
347.264	12.16
347.474	12.59
347.684	12.19
347.894	11.65
348.104	11.29
348.314	10.82
348.524	11.08
348.734	10.41
348.944	10.64
349.154	9.63
349.364	10.48
349.574	9.85
349.784	9.64
349.994	9.61
350.204	9.88
350.413	9.58
350.623	9.53
350.833	9.39
351.043	10
351.253	9.28
351.463	10.22
351.672	9.51
351.882	10.08
352.092	10.17
352.302	10.45
352.511	11.22
352.721	11.05
352.931	10.84
353.141	11.47
353.35	11.27
353.56	11.96
353.77	11.36
353.979	11.74
354.189	11.6
354.399	11.35
354.608	11.15
354.818	10.52
355.027	10.87
355.237	10.57
355.447	10.25
355.656	10.65
355.866	10.2
356.075	10.43
356.285	10.5
356.494	10.34
356.704	10.27
356.913	10.47
357.123	10.6
357.332	10.61
357.542	11.22
357.751	11.5
357.96	11.15
358.17	10.5
358.379	10.2
358.589	9.72
358.798	9.89
359.007	9.9
359.217	9.87
359.426	9.9
359.635	10.19
359.845	10.1
360.054	9.68
360.263	9.89
360.472	10.46
360.682	10.29
360.891	10.53
361.1	10.64
361.309	10.71
361.519	10.36
361.728	10.4
361.937	10.36
362.146	10.27
362.355	10.27
362.564	9.77
362.774	9.81
362.983	9.91
363.192	9.74
363.401	9.47
363.61	9.15
363.819	9.59
364.028	9.3
364.237	9.24
364.446	8.68
364.655	8.67
364.864	9.08
365.073	9.41
365.282	9.47
365.491	9.69
365.7	9.92
365.909	10.22
366.118	10
366.327	9.9
366.536	9.6
366.745	10.25
366.954	10.23
367.162	9.93
367.371	9.86
367.58	9.44
367.789	9.06
367.998	8.84
368.207	8.8
368.415	8.68
368.624	8.48
368.833	8.8
369.042	8.16
369.25	8.42
369.459	8.46
369.668	8.1
369.877	8.31
370.085	9.2
370.294	8.79
370.503	8.49
370.711	8.63
370.92	8.84
371.129	8.69
371.337	8.73
371.546	8.63
371.754	8.58
371.963	8.96
372.171	9.23
372.38	8.74
372.589	8.82
372.797	8.93
373.006	8.75
373.214	8.59
373.423	8.33
373.631	8.17
373.84	7.71
374.048	7.94
374.256	7.58
374.465	7.44
374.673	6.89
374.882	6.78
375.09	6.99
375.298	6.56
375.507	7.1
375.715	7.41
375.923	7.38
376.132	7.58
376.34	7.2
376.548	7.15
376.757	7.1
376.965	7.47
377.173	7.65
377.381	7.17
377.59	7.43
377.798	6.85
378.006	6.09
378.214	6.7
378.423	6.63
378.631	6.67
378.839	6.34
379.047	6.3
379.255	6.4
379.463	6.32
379.671	6.33
379.879	6.33
380.088	6.65
380.296	7.24
380.504	6.86
380.712	6.9
380.92	6.5
381.128	6.6
381.336	6.62
381.544	6.48
381.752	6.5
381.96	6.77
382.168	6.84
382.376	6.54
382.584	6.33
382.791	6.27
382.999	6.2
383.207	6.19
383.415	6.24
383.623	6.2
383.831	6.01
384.039	6.1
384.247	5.86
384.454	5.65
384.662	5.44
384.87	5.43
385.078	5.31
385.285	5.42
385.493	5.8
385.701	5.92
385.909	5.87
386.116	5.65
386.324	5.62
386.532	5.87
386.739	6.07
386.947	6.12
387.155	5.95
387.362	5.78
387.57	5.68
387.778	5.42
387.985	5.23
388.193	5.16
388.4	5.5
388.608	5.49
388.816	5.09
389.023	4.99
389.231	5.12
389.438	5.2
389.646	5.63
389.853	5.57
390.061	5.45
390.268	5.36
390.475	5.27
390.683	5.17
390.89	4.84
391.098	4.98
391.305	4.82
391.512	4.58
391.72	4.29
391.927	3.94
392.135	4.03
392.342	4.13
392.549	4.14
392.756	4.11
392.964	3.97
393.171	4.14
393.378	4.19
393.586	4.32
393.793	4.54
394	4.69
394.207	4.82
394.414	4.79
394.622	4.71
394.829	4.57
395.036	4.55
395.243	4.64
395.45	4.75
395.657	4.78
395.864	4.61
396.072	4.37
396.279	4.27
396.486	4.21
396.693	4.08
396.9	4.22
397.107	4.3
397.314	4.31
397.521	4.19
397.728	4
397.935	4.01
398.142	3.98
398.349	4
398.556	3.98
398.763	3.77
398.97	3.75
399.177	3.59
399.383	3.66
399.59	3.5
399.797	3.54
400.004	3.6
400.211	3.5
400.418	3.67
400.625	3.72
400.831	3.84
401.038	3.99
401.245	4.01
401.452	3.99
401.658	3.92
401.865	3.99
402.072	3.89
402.279	3.82
402.485	3.83
402.692	3.75
402.899	3.59
403.105	3.42
403.312	3.49
403.519	3.51
403.725	3.59
403.932	3.53
404.138	3.53
404.345	3.58
404.552	3.68
404.758	3.63
404.965	3.61
405.171	3.76
405.378	3.82
405.584	3.87
405.791	3.77
405.997	3.82
406.204	3.81
406.41	3.73
406.617	3.54
406.823	3.38
407.029	3.45
407.236	3.36
407.442	3.28
407.649	3.28
407.855	3.09
408.061	3.02
408.268	2.91
408.474	3.06
408.68	3.18
408.887	3.37
409.093	3.38
409.299	3.29
409.505	3.19
409.712	3.15
409.918	3.23
410.124	3.23
410.33	3.24
410.537	3.15
410.743	2.98
410.949	2.89
411.155	3.02
411.361	2.91
411.567	2.9
411.773	3.06
411.98	2.97
412.186	2.88
412.392	2.75
412.598	2.85
412.804	2.77
413.01	2.8
413.216	2.78
413.422	2.65
413.628	2.73
413.834	2.73
414.04	2.88
414.246	2.82
414.452	3.07
414.658	3.2
414.864	3.13
415.07	3.21
415.275	3.3
415.481	3.16
415.687	3.19
415.893	3.25
416.099	3.26
416.305	3.15
416.511	3.36
416.716	3.14
416.922	3.15
417.128	3.16
417.334	3.18
417.539	3.12
417.745	3.24
417.951	3.22
418.157	3.14
418.362	3.14
418.568	3.02
418.774	2.94
418.979	3.05
419.185	3.02
419.391	2.99
419.596	3
419.802	3.01
420.008	3.01
420.213	3.02
420.419	3.07
420.624	3.08
420.83	3.22
421.035	3.23
421.241	3.17
421.446	3.19
421.652	3.24
421.857	3.25
422.063	3.27
422.268	3.31
422.474	3.26
422.679	3.25
422.885	3.25
423.09	3.18
423.295	3.17
423.501	3.13
423.706	3.16
423.911	3.08
424.117	3.04
424.322	2.98
424.527	2.92
424.733	3
424.938	2.98
425.143	2.87
425.349	2.85
425.554	2.82
425.759	2.85
425.964	2.74
426.169	2.68
426.375	2.7
426.58	2.76
426.785	2.74
426.99	2.77
427.195	2.84
427.4	2.89
427.605	2.96
427.811	2.94
428.016	2.92
428.221	2.97
428.426	3.06
428.631	2.99
428.836	2.96
429.041	2.84
429.246	2.73
429.451	2.71
429.656	2.73
429.861	2.67
430.066	2.77
430.271	2.74
430.476	2.7
430.681	2.72
430.886	2.77
431.09	2.72
431.295	2.92
431.5	2.91
431.705	2.83
431.91	2.93
432.115	2.91
432.32	2.83
432.524	2.81
432.729	2.93
432.934	3
433.139	2.97
433.343	3
433.548	2.84
433.753	2.79
433.958	2.94
434.162	2.94
434.367	2.88
434.572	2.91
434.776	2.87
434.981	2.72
435.186	2.63
435.39	2.64
435.595	2.69
435.799	2.73
436.004	2.83
436.209	2.67
436.413	2.57
436.618	2.68
436.822	2.65
437.027	2.73
437.231	2.7
437.436	2.7
437.64	2.59
437.845	2.58
438.049	2.52
438.253	2.49
438.458	2.48
438.662	2.4
438.867	2.37
439.071	2.43
439.275	2.45
439.48	2.5
439.684	2.57
439.888	2.69
440.093	2.75
440.297	2.85
440.501	2.82
440.706	2.89
440.91	3
441.114	2.96
441.318	2.91
441.523	2.89
441.727	2.99
441.931	2.86
442.135	2.89
442.339	2.79
442.543	2.77
442.748	2.81
442.952	2.7
443.156	2.66
443.36	2.7
443.564	2.74
443.768	2.73
443.972	2.61
444.176	2.62
444.38	2.53
444.584	2.5
444.788	2.49
444.992	2.49
445.196	2.53
445.4	2.59
445.604	2.49
445.808	2.48
446.012	2.49
446.216	2.53
446.42	2.6
446.624	2.61
446.828	2.61
447.032	2.6
447.235	2.53
447.439	2.53
447.643	2.49
447.847	2.61
448.051	2.61
448.254	2.6
448.458	2.58
448.662	2.52
448.866	2.57
449.069	2.63
449.273	2.73
449.477	2.74
449.681	2.79
449.884	2.74
450.088	2.69
450.292	2.65
450.495	2.7
450.699	2.82
450.902	2.84
451.106	2.85
451.31	2.82
451.513	2.71
451.717	2.72
451.92	2.66
452.124	2.69
452.327	2.74
452.531	2.71
452.734	2.69
452.938	2.56
453.141	2.55
453.345	2.57
453.548	2.56
453.752	2.57
453.955	2.65
454.158	2.64
454.362	2.7
454.565	2.66
454.769	2.74
454.972	2.84
455.175	2.79
455.379	2.78
455.582	2.74
455.785	2.66
455.988	2.63
456.192	2.6
456.395	2.64
456.598	2.52
456.801	2.53
457.005	2.5
457.208	2.42
457.411	2.52
457.614	2.51
457.817	2.49
458.021	2.51
458.224	2.57
458.427	2.54
458.63	2.56
458.833	2.6
459.036	2.6
459.239	2.59
459.442	2.58
459.645	2.62
459.848	2.69
460.051	2.76
460.254	2.78
460.457	2.78
460.66	2.72
460.863	2.71
461.066	2.66
461.269	2.61
461.472	2.69
461.675	2.69
461.878	2.58
462.081	2.54
462.284	2.44
462.486	2.51
462.689	2.52
462.892	2.71
463.095	2.73
463.298	2.77
463.5	2.76
463.703	2.7
463.906	2.68
464.109	2.56
464.311	2.54
464.514	2.59
464.717	2.51
464.92	2.43
465.122	2.33
465.325	2.3
465.528	2.31
