Data from 2938472_Reflection_3.txt Node
Date: Wed Jun 17 13:29:36 EDT 2015
User: robert
Spectrometer: USB4E03002
Autoset integration time: false
Trigger mode: 4
Integration Time (sec): 1.000000E-1
Scans to average: 10
Electric dark correction enabled: true
Nonlinearity correction enabled: false
Boxcar width: 5
Stray light correction enabled: false
XAxis mode: Wavelengths
Stop averaging: false
Number of Pixels in Spectrum: 3648
>>>>>Begin Spectral Data<<<<<
177.575	53.47
177.794	43.5
178.014	27.43
178.233	37.69
178.452	47.19
178.672	55.19
178.891	136.68
179.11	73.63
179.33	52.92
179.549	53.75
179.768	41.65
179.987	34.34
180.207	22.55
180.426	6.75
180.645	20.45
180.864	21.56
181.084	43.54
181.303	151.17
181.522	12.09
181.741	11.47
181.96	2.94
182.179	-34.4
182.398	-43.55
182.618	-59.39
182.837	-66.32
183.056	-62.46
183.275	-61.18
183.494	-40.84
183.713	-47.18
183.932	-21.32
184.151	-45.99
184.37	-40.7
184.589	40.45
184.808	48.7
185.027	35.82
185.246	-8.92
185.465	-22.76
185.684	-66.97
185.903	-88.29
186.122	-153.49
186.341	-696.25
186.56	-298.13
186.779	42.19
186.998	-986.83
187.216	186.51
187.435	363.75
187.654	-1487.21
187.873	335.39
188.092	-40.89
188.311	-173.99
188.53	-300.58
188.748	-294.31
188.967	-1605.03
189.186	414.1
189.405	24967.74
189.623	-623.27
189.842	-235.75
190.061	-153.84
190.28	-171.9
190.498	237.43
190.717	1435.94
190.936	-888.58
191.154	-700.14
191.373	-266.22
191.592	-150.8
191.81	-192.89
192.029	-422.33
192.248	-516.51
192.466	498.22
192.685	747.02
192.904	-59.73
193.122	-54.85
193.341	-106.13
193.559	-97.11
193.778	12.05
193.996	3.97
194.215	-126.43
194.433	55.6
194.652	57.97
194.87	33.92
195.089	37.71
195.307	472.19
195.526	267.05
195.744	307.25
195.963	155.68
196.181	111.54
196.399	100.62
196.618	126.93
196.836	201.19
197.055	193.37
197.273	350.68
197.491	200.86
197.71	151.02
197.928	167.12
198.146	159.12
198.365	232.32
198.583	2398.4
198.801	-83.22
199.019	-77.44
199.238	-37.8
199.456	98.62
199.674	156.28
199.892	751.24
200.111	318.32
200.329	27.39
200.547	135.62
200.765	113.04
200.983	195.79
201.202	19.02
201.42	-141.38
201.638	-144.6
201.856	61.85
202.074	109.45
202.292	228.15
202.51	103.47
202.728	48.42
202.946	35.07
203.165	80.74
203.383	95.93
203.601	40.47
203.819	54.23
204.037	55.44
204.255	14.89
204.473	-1821.74
204.691	-34.39
204.909	-257.29
205.127	-216.89
205.345	-392.02
205.562	-138.69
205.78	-268.19
205.998	816.22
206.216	728.6
206.434	642.65
206.652	-69.97
206.87	-89.78
207.088	-154.2
207.306	-89.7
207.523	-44.8
207.741	-3.48
207.959	-12.97
208.177	2.75
208.395	26.05
208.612	19.37
208.83	11.64
209.048	-12.72
209.266	2.87
209.483	-7.22
209.701	-16.13
209.919	-2.17
210.136	-23.84
210.354	-40.32
210.572	-40.77
210.79	-53.42
211.007	-62.3
211.225	-63.78
211.442	-67.78
211.66	-42.8
211.878	-41.05
212.095	-38.95
212.313	-32.81
212.53	-14.69
212.748	-9.32
212.966	-13.07
213.183	-16.4
213.401	-21.49
213.618	-13.96
213.836	-27.09
214.053	-61.16
214.271	-120.98
214.488	-125.85
214.705	-71.96
214.923	-143.17
215.14	-144.84
215.358	-97.34
215.575	-66.06
215.793	-270.19
216.01	-46.42
216.227	-11.6
216.445	4.13
216.662	20.9
216.879	24.15
217.097	9.9
217.314	12.9
217.531	23.33
217.749	26.35
217.966	17.49
218.183	40.87
218.4	38.99
218.618	37.99
218.835	34.46
219.052	38.71
219.269	25.19
219.487	6.25
219.704	1.71
219.921	-8.95
220.138	-1.87
220.355	10.72
220.572	-3.92
220.79	3.15
221.007	0.83
221.224	12.57
221.441	-4.73
221.658	7.23
221.875	16.01
222.092	19.72
222.309	27.1
222.526	20.26
222.743	12
222.96	19.18
223.177	7.73
223.394	6.4
223.611	2.46
223.828	19.24
224.045	21.45
224.262	22.08
224.479	21.22
224.696	18.23
224.913	15.23
225.13	15.5
225.347	15.29
225.564	17.64
225.781	17.19
225.997	14.92
226.214	12.37
226.431	11.82
226.648	11.16
226.865	10.11
227.082	10.83
227.298	12.37
227.515	11.97
227.732	11.63
227.949	10.76
228.165	11.08
228.382	12.23
228.599	12.95
228.816	13.03
229.032	12.49
229.249	12.74
229.466	12.41
229.682	10.07
229.899	10.01
230.116	7.83
230.332	9.14
230.549	9.74
230.765	9.15
230.982	6.92
231.199	5.71
231.415	4.92
231.632	5.17
231.848	5.5
232.065	4.88
232.281	6.06
232.498	6.74
232.714	5.57
232.931	4.54
233.147	4.7
233.364	5.01
233.58	4.91
233.797	5.69
234.013	4.99
234.23	5.93
234.446	7.45
234.662	9.09
234.879	12.41
235.095	14.21
235.312	13.82
235.528	12.64
235.744	13.08
235.961	14.45
236.177	14.36
236.393	13.93
236.61	13.59
236.826	12.94
237.042	11.02
237.258	8.7
237.475	7.77
237.691	9.21
237.907	10.43
238.123	11.84
238.339	10.45
238.556	10.96
238.772	11.38
238.988	9.81
239.204	9.63
239.42	10
239.636	10.47
239.853	10.15
240.069	10.08
240.285	9.42
240.501	9.16
240.717	9.87
240.933	10.08
241.149	10.97
241.365	11.4
241.581	12.29
241.797	11.65
242.013	11.76
242.229	11.8
242.445	11.68
242.661	12.42
242.877	12.86
243.093	12.17
243.309	11.33
243.525	9.91
243.741	10.5
243.957	9.97
244.173	10.63
244.388	10.41
244.604	10.34
244.82	10.3
245.036	10.11
245.252	9.87
245.468	10.12
245.683	10.72
245.899	10.84
246.115	10.63
246.331	10.38
246.547	10.48
246.762	10.28
246.978	10.37
247.194	10.14
247.409	9.69
247.625	9.63
247.841	9.74
248.057	8.92
248.272	8.63
248.488	8.27
248.703	8.31
248.919	7.71
249.135	7.59
249.35	6.93
249.566	7.72
249.782	7.96
249.997	7.58
250.213	7.54
250.428	8.1
250.644	8.16
250.859	8.02
251.075	8.26
251.29	8.35
251.506	8.83
251.721	9.49
251.937	8.36
252.152	8.22
252.368	9.01
252.583	8.02
252.798	8.28
253.014	8.1
253.229	8.02
253.445	8.18
253.66	8.51
253.875	8.43
254.091	6.94
254.306	8.1
254.521	8.93
254.737	7.69
254.952	8.03
255.167	7.28
255.383	8.69
255.598	10.03
255.813	9.49
256.028	9.68
256.244	9.31
256.459	10.12
256.674	10.15
256.889	9.53
257.104	9.49
257.32	10.02
257.535	9.93
257.75	9.38
257.965	9.06
258.18	8.75
258.395	8.51
258.61	8.78
258.826	8.41
259.041	8.18
259.256	7.9
259.471	8.09
259.686	7.37
259.901	7.32
260.116	7.18
260.331	7.15
260.546	7.17
260.761	6.9
260.976	6.44
261.191	6.66
261.406	6.72
261.621	7.04
261.836	6.88
262.05	7.15
262.265	7.47
262.48	7.77
262.695	7.15
262.91	7.74
263.125	8.2
263.34	8.19
263.555	7.95
263.769	7.51
263.984	7.81
264.199	7.87
264.414	8.2
264.629	8.09
264.843	8.08
265.058	7.79
265.273	7.57
265.488	7.53
265.702	7.59
265.917	7.59
266.132	7.07
266.346	6.63
266.561	6.43
266.776	6.39
266.99	6.4
267.205	5.92
267.42	6.7
267.634	6.85
267.849	6.43
268.063	6.25
268.278	6.86
268.492	7.76
268.707	8.4
268.922	8.17
269.136	7
269.351	6.57
269.565	6.97
269.78	6.1
269.994	6.08
270.209	6.66
270.423	6.76
270.637	6.59
270.852	6.5
271.066	6.19
271.281	6.26
271.495	7.36
271.709	7.63
271.924	7.55
272.138	7.67
272.353	7.7
272.567	6.91
272.781	6.49
272.996	6.01
273.21	6.06
273.424	6.36
273.638	7.02
273.853	6.85
274.067	6.59
274.281	6.72
274.495	7.22
274.71	7.25
274.924	7.4
275.138	7.68
275.352	7.88
275.566	7.8
275.781	7.64
275.995	6.29
276.209	6.56
276.423	6.57
276.637	6.13
276.851	5.66
277.065	5.01
277.279	5.63
277.493	5.91
277.707	5.57
277.921	5.11
278.135	5
278.349	5.21
278.563	4.51
278.777	4.23
278.991	4.24
279.205	4.96
279.419	5.31
279.633	4.66
279.847	4.79
280.061	5.45
280.275	5.95
280.489	5.9
280.703	6.76
280.917	7.23
281.131	7.39
281.344	7.28
281.558	6.79
281.772	6.83
281.986	7.29
282.2	6.89
282.414	6.57
282.627	6.31
282.841	6.14
283.055	5.91
283.269	5.66
283.482	5.92
283.696	6.23
283.91	6.34
284.123	6.49
284.337	6.24
284.551	6.51
284.764	6.78
284.978	6.74
285.192	6.7
285.405	6.67
285.619	6.57
285.833	6.55
286.046	6.58
286.26	6.79
286.473	7.07
286.687	7.05
286.9	7.03
287.114	6.96
287.327	7.46
287.541	8.11
287.754	8.16
287.968	8.28
288.181	8.14
288.395	8.28
288.608	8.36
288.822	7.99
289.035	8.61
289.248	8.61
289.462	8.78
289.675	8.54
289.889	8.38
290.102	8.23
290.315	8.49
290.529	8.77
290.742	8.78
290.955	8.61
291.169	8.53
291.382	8.32
291.595	8.76
291.808	9.03
292.022	9.2
292.235	9.35
292.448	9.74
292.661	10.15
292.875	10.32
293.088	10.38
293.301	10.59
293.514	11.16
293.727	10.94
293.94	10.47
294.153	10.23
294.367	10.57
294.58	10.7
294.793	10.72
295.006	10.78
295.219	10.81
295.432	11.05
295.645	11.03
295.858	10.99
296.071	11.33
296.284	11.66
296.497	11.85
296.71	11.76
296.923	11.64
297.136	11.61
297.349	11.68
297.562	11.65
297.775	11.75
297.988	11.94
298.201	11.87
298.414	11.76
298.626	11.93
298.839	12.1
299.052	12.09
299.265	12.41
299.478	12.81
299.691	12.63
299.903	12.73
300.116	12.7
300.329	12.83
300.542	13.1
300.755	13.46
300.967	13.43
301.18	13.84
301.393	14.01
301.605	14.14
301.818	14.04
302.031	14.02
302.243	14.1
302.456	14.16
302.669	13.83
302.881	13.48
303.094	13.24
303.307	13.38
303.519	12.86
303.732	12.93
303.944	12.95
304.157	13.12
304.37	13.62
304.582	13.65
304.795	13.78
305.007	14.11
305.22	14.82
305.432	14.94
305.645	14.58
305.857	14.79
306.069	15.18
306.282	15.09
306.494	15.19
306.707	15.19
306.919	15.35
307.132	15.08
307.344	15.49
307.556	15.39
307.769	15.3
307.981	15.48
308.193	15.21
308.406	15.03
308.618	14.96
308.83	15.08
309.043	14.9
309.255	15.2
309.467	15.25
309.679	15.19
309.892	14.8
310.104	15.08
310.316	15.46
310.528	16.17
310.74	16.1
310.953	16.35
311.165	16.09
311.377	16.48
311.589	16.28
311.801	16.65
312.013	16.51
312.225	16.67
312.437	16.61
312.649	16.35
312.862	16.27
313.074	16.3
313.286	16.31
313.498	16.05
313.71	15.62
313.922	15.65
314.134	15.9
314.346	15.87
314.558	16.22
314.77	15.96
314.982	15.79
315.193	15.48
315.405	15.44
315.617	15.83
315.829	16.29
316.041	16.54
316.253	16.47
316.465	16.01
316.677	16.19
316.888	16.4
317.1	16.89
317.312	17.3
317.524	17.26
317.736	17.29
317.947	16.98
318.159	16.76
318.371	16.62
318.583	16.23
318.794	16.12
319.006	16.18
319.218	16.07
319.43	16.11
319.641	16.22
319.853	16.08
320.064	16.3
320.276	16.19
320.488	16.28
320.699	15.92
320.911	16.41
321.123	16.57
321.334	16.86
321.546	17.11
321.757	16.87
321.969	16.65
322.18	17.21
322.392	17.2
322.603	17.81
322.815	17.64
323.026	18.19
323.238	18.32
323.449	18.92
323.661	18.46
323.872	18.93
324.083	19.72
324.295	19.99
324.506	20.18
324.718	20.34
324.929	20.52
325.14	21.56
325.352	21.97
325.563	22.84
325.774	22.44
325.986	22.93
326.197	22.71
326.408	22.47
326.62	22.5
326.831	22.5
327.042	23.21
327.253	23.33
327.464	23.21
327.676	23.23
327.887	23.32
328.098	24.27
328.309	24.86
328.52	25.34
328.732	25.73
328.943	26.24
329.154	26.72
329.365	26.78
329.576	26.76
329.787	27.13
329.998	27.39
330.209	27.1
330.42	26.82
330.631	26.93
330.842	26.84
331.053	26.71
331.264	27
331.475	27.22
331.686	27.26
331.897	27.64
332.108	27.8
332.319	28.22
332.53	28.53
332.741	28.81
332.952	28.69
333.163	28.81
333.374	29.43
333.585	29.58
333.795	29.78
334.006	30.06
334.217	30.48
334.428	30.82
334.639	30.97
334.849	31.2
335.06	31.23
335.271	31.31
335.482	31.88
335.692	31.86
335.903	31.8
336.114	31.43
336.325	31.2
336.535	31.65
336.746	31.37
336.957	31.4
337.167	31.29
337.378	31.15
337.589	31.25
337.799	31.02
338.01	30.92
338.22	31.63
338.431	31.89
338.642	32.32
338.852	31.86
339.063	32.09
339.273	31.97
339.484	31.97
339.694	32.34
339.905	32.54
340.115	32.46
340.326	32.55
340.536	31.85
340.746	31.61
340.957	31.41
341.167	31.12
341.378	31
341.588	31.04
341.799	31.02
342.009	30.97
342.219	30.89
342.43	31.12
342.64	31.35
342.85	31.55
343.061	31.61
343.271	31.64
343.481	31.82
343.691	31.92
343.902	31.8
344.112	32.05
344.322	32.18
344.532	32
344.743	31.81
344.953	31.44
345.163	31.57
345.373	31.58
345.583	31.36
345.793	31.27
346.004	30.98
346.214	31.05
346.424	30.45
346.634	30.25
346.844	30.5
347.054	30.57
347.264	30.64
347.474	30.72
347.684	30.97
347.894	31.06
348.104	30.89
348.314	31.27
348.524	31.11
348.734	31.56
348.944	31.42
349.154	31.56
349.364	31.58
349.574	31.5
349.784	31.35
349.994	31.32
350.204	31.46
350.413	31.55
350.623	31.35
350.833	31.58
351.043	31.47
351.253	31.86
351.463	31.57
351.672	31.61
351.882	31.63
352.092	31.18
352.302	31.19
352.511	31.13
352.721	31.28
352.931	30.93
353.141	30.71
353.35	30.64
353.56	30.57
353.77	30.49
353.979	30.38
354.189	30.45
354.399	30.93
354.608	30.87
354.818	30.69
355.027	30.57
355.237	30.71
355.447	30.5
355.656	30.51
355.866	30.12
356.075	30.33
356.285	30.33
356.494	30.48
356.704	30.22
356.913	30.22
357.123	30.31
357.332	30.11
357.542	30.12
357.751	30.38
357.96	30.35
358.17	30.6
358.379	30.61
358.589	30.55
358.798	30.44
359.007	30.44
359.217	30.18
359.426	30.31
359.635	30.48
359.845	30.32
360.054	30.36
360.263	30.35
360.472	30.28
360.682	30.15
360.891	30.1
361.1	30.01
361.309	29.86
361.519	29.95
361.728	29.74
361.937	29.66
362.146	29.75
362.355	29.7
362.564	29.85
362.774	29.57
362.983	29.58
363.192	29.53
363.401	29.37
363.61	29.41
363.819	29.51
364.028	29.62
364.237	29.53
364.446	29.7
364.655	29.47
364.864	29.15
365.073	29.2
365.282	29.13
365.491	29.12
365.7	29.06
365.909	28.85
366.118	28.71
366.327	28.51
366.536	28.71
366.745	28.63
366.954	28.53
367.162	28.71
367.371	28.64
367.58	28.45
367.789	28.2
367.998	28.06
368.207	27.91
368.415	27.68
368.624	27.64
368.833	27.57
369.042	27.54
369.25	27.59
369.459	27.23
369.668	27.27
369.877	27.2
370.085	27.36
370.294	27.47
370.503	27.7
370.711	27.94
370.92	27.73
371.129	27.56
371.337	27.21
371.546	26.96
371.754	26.96
371.963	26.79
372.171	26.9
372.38	26.45
372.589	26.28
372.797	26.07
373.006	25.53
373.214	25.94
373.423	25.66
373.631	25.75
373.84	26.06
374.048	26.18
374.256	26.19
374.465	25.92
374.673	26.13
374.882	26.19
375.09	26.35
375.298	26.55
375.507	26.36
375.715	26.41
375.923	26.25
376.132	25.89
376.34	25.85
376.548	25.85
376.757	26.08
376.965	25.84
377.173	25.72
377.381	25.6
377.59	25.56
377.798	25.41
378.006	25.51
378.214	25.61
378.423	25.62
378.631	25.15
378.839	25.03
379.047	24.74
379.255	25
379.463	24.87
379.671	24.92
379.879	24.83
380.088	24.76
380.296	24.36
380.504	24.1
380.712	24.08
380.92	24.22
381.128	24.18
381.336	24.22
381.544	24.11
381.752	24.2
381.96	23.77
382.168	23.79
382.376	23.65
382.584	23.46
382.791	23.39
382.999	23.29
383.207	23.31
383.415	23.29
383.623	23.09
383.831	22.76
384.039	22.56
384.247	22.75
384.454	22.5
384.662	22.44
384.87	22.6
385.078	22.48
385.285	22.33
385.493	22.16
385.701	22.09
385.909	22.12
386.116	22.23
386.324	22.18
386.532	21.98
386.739	21.92
386.947	21.91
387.155	21.84
387.362	22.04
387.57	22.13
387.778	22.23
387.985	22.21
388.193	22.07
388.4	22.03
388.608	21.91
388.816	21.99
389.023	22.1
389.231	21.95
389.438	21.9
389.646	21.7
389.853	21.59
390.061	21.42
390.268	21.14
390.475	21.22
390.683	21.03
390.89	21.06
391.098	21
391.305	20.82
391.512	20.85
391.72	20.79
391.927	20.74
392.135	20.73
392.342	20.62
392.549	20.58
392.756	20.39
392.964	20.59
393.171	20.55
393.378	20.52
393.586	20.7
393.793	20.65
394	20.51
394.207	20.5
394.414	20.46
394.622	20.43
394.829	20.43
395.036	20.52
395.243	20.34
395.45	20.34
395.657	20.1
395.864	19.86
396.072	19.7
396.279	19.87
396.486	19.94
396.693	19.95
396.9	19.99
397.107	20.12
397.314	20.03
397.521	20.05
397.728	19.99
397.935	19.9
398.142	19.71
398.349	19.86
398.556	19.75
398.763	19.65
398.97	19.51
399.177	19.37
399.383	19.26
399.59	19.22
399.797	19.2
400.004	19.2
400.211	19.24
400.418	19.23
400.625	19.15
400.831	19.07
401.038	19.06
401.245	19.07
401.452	19.13
401.658	19.21
401.865	19.24
402.072	19.17
402.279	19.09
402.485	18.97
402.692	18.99
402.899	18.81
403.105	18.77
403.312	18.85
403.519	18.83
403.725	18.91
403.932	18.77
404.138	18.6
404.345	18.62
404.552	18.5
404.758	18.7
404.965	18.73
405.171	18.87
405.378	18.84
405.584	18.71
405.791	18.62
405.997	18.46
406.204	18.5
406.41	18.76
406.617	18.8
406.823	19.04
407.029	18.64
407.236	18.58
407.442	18.44
407.649	18.71
407.855	18.69
408.061	18.66
408.268	18.61
408.474	18.66
408.68	18.55
408.887	18.37
409.093	18.19
409.299	18.46
409.505	18.47
409.712	18.44
409.918	18.2
410.124	18.14
410.33	18.12
410.537	18.11
410.743	18.06
410.949	17.85
411.155	17.8
411.361	17.81
411.567	17.62
411.773	17.62
411.98	17.62
412.186	17.63
412.392	17.62
412.598	17.75
412.804	17.74
413.01	17.62
413.216	17.77
413.422	17.86
413.628	17.86
413.834	17.9
414.04	17.96
414.246	17.98
414.452	18
414.658	17.99
414.864	17.94
415.07	18.02
415.275	17.99
415.481	17.75
415.687	17.75
415.893	17.76
416.099	17.7
416.305	17.65
416.511	17.5
416.716	17.42
416.922	17.3
417.128	17.28
417.334	17.26
417.539	17.18
417.745	17.24
417.951	17.09
418.157	17.04
418.362	17.13
418.568	17
418.774	17.06
418.979	17.04
419.185	17.04
419.391	16.97
419.596	16.83
419.802	16.83
420.008	16.8
420.213	16.79
420.419	16.71
420.624	16.61
420.83	16.56
421.035	16.55
421.241	16.61
421.446	16.62
421.652	16.61
421.857	16.64
422.063	16.58
422.268	16.59
422.474	16.55
422.679	16.54
422.885	16.49
423.09	16.54
423.295	16.5
423.501	16.33
423.706	16.33
423.911	16.23
424.117	16.12
424.322	16.11
424.527	16.04
424.733	16.04
424.938	16.08
425.143	16.14
425.349	16.01
425.554	16.03
425.759	16.07
425.964	16.01
426.169	16.02
426.375	16.11
426.58	16.13
426.785	16.1
426.99	16.01
427.195	15.78
427.4	15.72
427.605	15.83
427.811	15.54
428.016	15.47
428.221	15.58
428.426	15.61
428.631	15.48
428.836	15.44
429.041	15.46
429.246	15.51
429.451	15.64
429.656	15.62
429.861	15.65
430.066	15.77
430.271	15.83
430.476	15.84
430.681	15.85
430.886	16
431.09	16.09
431.295	16.16
431.5	16.12
431.705	16.12
431.91	16.19
432.115	16.18
432.32	16.2
432.524	16.1
432.729	15.93
432.934	15.84
433.139	15.87
433.343	15.78
433.548	15.66
433.753	15.78
433.958	15.86
434.162	15.74
434.367	15.73
434.572	15.73
434.776	15.79
434.981	15.94
435.186	16.02
435.39	15.89
435.595	15.9
435.799	15.92
436.004	15.82
436.209	15.72
436.413	15.77
436.618	15.8
436.822	15.85
437.027	15.93
437.231	15.84
437.436	15.88
437.64	15.79
437.845	15.8
438.049	15.76
438.253	15.89
438.458	15.9
438.662	15.83
438.867	15.84
439.071	15.81
439.275	15.69
439.48	15.66
439.684	15.62
439.888	15.66
440.093	15.62
440.297	15.68
440.501	15.54
440.706	15.61
440.91	15.68
441.114	15.58
441.318	15.59
441.523	15.59
441.727	15.55
441.931	15.55
442.135	15.56
442.339	15.58
442.543	15.47
442.748	15.52
442.952	15.44
443.156	15.39
443.36	15.52
443.564	15.54
443.768	15.61
443.972	15.69
444.176	15.71
444.38	15.71
444.584	15.74
444.788	15.84
444.992	15.87
445.196	15.77
445.4	15.78
445.604	15.58
445.808	15.5
446.012	15.41
446.216	15.34
446.42	15.23
446.624	15.1
446.828	15.03
447.032	14.94
447.235	14.79
447.439	14.87
447.643	14.76
447.847	14.83
448.051	14.81
448.254	14.84
448.458	14.81
448.662	14.77
448.866	14.9
449.069	14.84
449.273	14.85
449.477	14.87
449.681	14.89
449.884	14.99
450.088	14.97
450.292	14.94
450.495	14.91
450.699	15.01
450.902	15.04
451.106	15.04
451.31	15.01
451.513	15.03
451.717	15
451.92	14.82
452.124	14.81
452.327	14.73
452.531	14.72
452.734	14.81
452.938	14.69
453.141	14.61
453.345	14.63
453.548	14.64
453.752	14.63
453.955	14.6
454.158	14.71
454.362	14.62
454.565	14.65
454.769	14.75
454.972	14.58
455.175	14.63
455.379	14.7
455.582	14.66
455.785	14.58
455.988	14.48
456.192	14.52
456.395	14.49
456.598	14.58
456.801	14.74
457.005	14.68
457.208	14.82
457.411	14.83
457.614	14.78
457.817	14.82
458.021	14.92
458.224	14.99
