Data from 2938448_Reflection_2.txt Node
Date: Fri Jun 19 18:04:39 EDT 2015
User: robert
Spectrometer: USB4E03002
Autoset integration time: false
Trigger mode: 4
Integration Time (sec): 1.000000E-1
Scans to average: 10
Electric dark correction enabled: true
Nonlinearity correction enabled: false
Boxcar width: 5
Stray light correction enabled: false
XAxis mode: Wavelengths
Stop averaging: false
Number of Pixels in Spectrum: 3648
>>>>>Begin Spectral Data<<<<<
177.575	-484.9
177.794	-146.79
178.014	-123.8
178.233	-23.36
178.452	-2.56
178.672	52.66
178.891	119.32
179.11	-472.59
179.33	-594.21
179.549	-278.88
179.768	-239.28
179.987	-231.03
180.207	-285.9
180.426	-503.32
180.645	-282.83
180.864	-517.37
181.084	846.06
181.303	443.15
181.522	243.1
181.741	279.28
181.96	174.38
182.179	137.99
182.398	106.83
182.618	117.85
182.837	130.6
183.056	136.41
183.275	137.95
183.494	144.41
183.713	176.23
183.932	221.79
184.151	228.56
184.37	368.96
184.589	611.61
184.808	563.63
185.027	578.61
185.246	516.67
185.465	1261.68
185.684	815300
185.903	-407.66
186.122	-353.82
186.341	-318.74
186.56	-293.56
186.779	-208.97
186.998	-226.85
187.216	-103.24
187.435	-72.98
187.654	-79.23
187.873	-118.22
188.092	-198.16
188.311	-141.67
188.53	-158.59
188.748	-324.18
188.967	-171.7
189.186	-290.55
189.405	-811.67
189.623	-19217.46
189.842	-1835.55
190.061	-288.83
190.28	-428.84
190.498	-277.61
190.717	431.46
190.936	317.14
191.154	305.81
191.373	179.07
191.592	228.38
191.81	488.7
192.029	970.32
192.248	255.01
192.466	306.45
192.685	361.69
192.904	288.72
193.122	609
193.341	-1953.73
193.559	4731.94
193.778	-10854.61
193.996	-2436.49
194.215	1465.45
194.433	688.21
194.652	-1779.03
194.87	-334.45
195.089	-700.35
195.307	-428.93
195.526	-1665.74
195.744	736.7
195.963	667100
196.181	1960.53
196.399	601.86
196.618	408.19
196.836	484.16
197.055	358.76
197.273	326.75
197.491	365.95
197.71	245.61
197.928	293.21
198.146	263.29
198.365	153.37
198.583	161.69
198.801	278.27
199.019	806.18
199.238	575.98
199.456	563.31
199.674	544.27
199.892	-3377.52
200.111	-388.31
200.329	-311.02
200.547	-186.85
200.765	-116.43
200.983	-130.16
201.202	-112.77
201.42	-128.7
201.638	-148.12
201.856	-139.09
202.074	-243.07
202.292	-304.48
202.51	-289.94
202.728	-265.67
202.946	-1618.84
203.165	-14048.68
203.383	1685.46
203.601	505.27
203.819	1108.25
204.037	-714.95
204.255	-354.44
204.473	-123.72
204.691	-116.98
204.909	-44.1
205.127	-25.18
205.345	6.38
205.562	-32.09
205.78	-4.31
205.998	-13.06
206.216	-204.87
206.434	-1679.21
206.652	813.81
206.87	461.77
207.088	4106.86
207.306	628.6
207.523	251.38
207.741	212.52
207.959	198.77
208.177	195.61
208.395	182.83
208.612	182.97
208.83	163.21
209.048	149.87
209.266	144.2
209.483	113.99
209.701	105.96
209.919	123.28
210.136	154.77
210.354	168.9
210.572	154.39
210.79	187.02
211.007	138.43
211.225	143.19
211.442	159.84
211.66	104.29
211.878	68.44
212.095	-8.46
212.313	-8.73
212.53	-43.96
212.748	-18.36
212.966	-24.42
213.183	-30.21
213.401	-9.65
213.618	-20.96
213.836	-13.75
214.053	-17.37
214.271	-66.64
214.488	168.44
214.705	202.25
214.923	204.3
215.14	160.02
215.358	171.96
215.575	370.74
215.793	306.43
216.01	218.49
216.227	186.19
216.445	264.25
216.662	199.53
216.879	179.97
217.097	141.75
217.314	118.64
217.531	129.67
217.749	97.99
217.966	104.7
218.183	90.89
218.4	73.66
218.618	70.82
218.835	56.9
219.052	78.28
219.269	73.66
219.487	77.54
219.704	80.73
219.921	79.68
220.138	91.96
220.355	86.05
220.572	97.32
220.79	89.8
221.007	89.06
221.224	78.33
221.441	58.28
221.658	53.83
221.875	51.86
222.092	40.23
222.309	46.85
222.526	45.01
222.743	36.29
222.96	33
223.177	38.38
223.394	30.15
223.611	29.49
223.828	34.72
224.045	39.71
224.262	36.05
224.479	41
224.696	36.94
224.913	37.32
225.13	37.95
225.347	34.31
225.564	30.89
225.781	28.67
225.997	30.03
226.214	26.77
226.431	23.07
226.648	21.26
226.865	18.65
227.082	17.68
227.298	16.86
227.515	16.7
227.732	16.96
227.949	16.78
228.165	15.54
228.382	15.53
228.599	14.52
228.816	12.98
229.032	12.83
229.249	12.62
229.466	11.68
229.682	11.5
229.899	10.14
230.116	9.61
230.332	9.97
230.549	11.65
230.765	10.17
230.982	10.04
231.199	12.9
231.415	15.54
231.632	15.11
231.848	16.96
232.065	16.8
232.281	17.68
232.498	17.77
232.714	17.67
232.931	18.47
233.147	17.63
233.364	18.06
233.58	15.59
233.797	16.43
234.013	18.34
234.23	14.95
234.446	16.21
234.662	12.95
234.879	12.52
235.095	11.98
235.312	12.95
235.528	14.37
235.744	12.9
235.961	12.83
236.177	11.46
236.393	12.48
236.61	17.71
236.826	18.27
237.042	20.45
237.258	18.6
237.475	17.45
237.691	15.42
237.907	15.14
238.123	18.72
238.339	18.47
238.556	19.69
238.772	18.01
238.988	16.7
239.204	15.53
239.42	16.67
239.636	16.47
239.853	15.97
240.069	16.1
240.285	15.23
240.501	13.67
240.717	14.27
240.933	12.77
241.149	12.9
241.365	13
241.581	13.21
241.797	12.38
242.013	12.47
242.229	13.01
242.445	13.16
242.661	12.52
242.877	12.36
243.093	12.88
243.309	12.36
243.525	11.9
243.741	11.32
243.957	11.19
244.173	10.14
244.388	9.41
244.604	9.53
244.82	9.17
245.036	9.22
245.252	9.26
245.468	8.63
245.683	8.85
245.899	8.68
246.115	8.37
246.331	7.63
246.547	7.63
246.762	7.96
246.978	7.84
247.194	7.94
247.409	8.02
247.625	8.29
247.841	8.32
248.057	8.8
248.272	8.4
248.488	7.93
248.703	7.71
248.919	8.57
249.135	7.98
249.35	7.11
249.566	6.93
249.782	7.88
249.997	7.28
250.213	7.65
250.428	6.59
250.644	7.88
250.859	9.09
251.075	9.94
251.29	9.99
251.506	10.83
251.721	11.46
251.937	12.29
252.152	11.37
252.368	11.38
252.583	11.94
252.798	12.9
253.014	13.02
253.229	12.48
253.445	11.74
253.66	11.19
253.875	10.46
254.091	9.44
254.306	8.14
254.521	9.27
254.737	8.35
254.952	7.69
255.167	7.13
255.383	7.19
255.598	8.01
255.813	8.63
256.028	8.51
256.244	9.05
256.459	9.1
256.674	9.21
256.889	7.79
257.104	8.46
257.32	7.94
257.535	8.05
257.75	7.57
257.965	7.43
258.18	7.24
258.395	7.58
258.61	7.2
258.826	7.19
259.041	6.81
259.256	7.38
259.471	7.24
259.686	7.76
259.901	7.76
260.116	7.69
260.331	7.62
260.546	8.31
260.761	8.09
260.976	8.26
261.191	8.39
261.406	9.01
261.621	8.68
261.836	8.36
262.05	8.26
262.265	9.23
262.48	9.61
262.695	9.18
262.91	8.94
263.125	8.17
263.34	8.26
263.555	7.54
263.769	6.89
263.984	7.71
264.199	8.13
264.414	7.72
264.629	6.66
264.843	6.79
265.058	7.07
265.273	6.49
265.488	7.65
265.702	7.24
265.917	8.32
266.132	9.1
266.346	8.94
266.561	9.11
266.776	9.22
266.99	9.26
267.205	8.96
267.42	9.97
267.634	9.95
267.849	8.92
268.063	9.78
268.278	9.02
268.492	8.9
268.707	9.05
268.922	8.5
269.136	8.11
269.351	7.59
269.565	8.2
269.78	7.16
269.994	7.47
270.209	8.08
270.423	7.7
270.637	8.21
270.852	8.35
271.066	8.31
271.281	8.63
271.495	9.16
271.709	9.39
271.924	9.2
272.138	9.45
272.353	9.78
272.567	9.67
272.781	10.29
272.996	9.99
273.21	10.04
273.424	9.91
273.638	9.55
273.853	9.57
274.067	9.3
274.281	9.58
274.495	9.05
274.71	8.69
274.924	8.32
275.138	8.16
275.352	7.85
275.566	7.61
275.781	7.77
275.995	8.48
276.209	8.84
276.423	9.14
276.637	8.2
276.851	8.52
277.065	8.01
277.279	8.55
277.493	8.39
277.707	8.38
277.921	7.9
278.135	7.24
278.349	6.08
278.563	5.2
278.777	5.61
278.991	6.3
279.205	6.76
279.419	7.07
279.633	7.51
279.847	7.18
280.061	6.81
280.275	7.43
280.489	7.91
280.703	8.78
280.917	8.84
281.131	8.47
281.344	8.23
281.558	7.54
281.772	7.62
281.986	7.23
282.2	7.36
282.414	7.53
282.627	6.74
282.841	6.56
283.055	6.75
283.269	7
283.482	7.2
283.696	7.22
283.91	7.54
284.123	7.39
284.337	7.35
284.551	7.32
284.764	7.65
284.978	8.02
285.192	7.82
285.405	7.77
285.619	7.7
285.833	8.04
286.046	8.19
286.26	8.6
286.473	9.01
286.687	8.91
286.9	8.89
287.114	8.71
287.327	9.29
287.541	9.08
287.754	8.51
287.968	8.54
288.181	8.54
288.395	8.04
288.608	7.78
288.822	7.18
289.035	7.2
289.248	6.95
289.462	7.03
289.675	6.59
289.889	7.02
290.102	7.16
290.315	6.52
290.529	6.39
290.742	6.54
290.955	6.32
291.169	6.63
291.382	6.95
291.595	7.38
291.808	8.23
292.022	8.15
292.235	8
292.448	8.5
292.661	8.77
292.875	8.61
293.088	9.21
293.301	10.28
293.514	10.11
293.727	9.63
293.94	9.6
294.153	8.82
294.367	8.5
294.58	8.61
294.793	8.16
295.006	8.91
295.219	8.9
295.432	8.85
295.645	8.24
295.858	8.65
296.071	8.67
296.284	8.81
296.497	9.51
296.71	10.01
296.923	10.44
297.136	10.84
297.349	10.55
297.562	10.5
297.775	10.35
297.988	10.39
298.201	10.42
298.414	10.31
298.626	10.56
298.839	9.5
299.052	9.03
299.265	8.59
299.478	8.06
299.691	7.68
299.903	8.08
300.116	8.26
300.329	8.28
300.542	7.95
300.755	8.27
300.967	8.48
301.18	8.88
301.393	9.42
301.605	9.88
301.818	10.23
302.031	10.51
302.243	10.18
302.456	10.17
302.669	10.23
302.881	10.87
303.094	10.98
303.307	10.25
303.519	10.49
303.732	10.29
303.944	9.9
304.157	10.59
304.37	10.65
304.582	11.01
304.795	11.27
305.007	11.91
305.22	11.43
305.432	11.32
305.645	11.16
305.857	11.77
306.069	11.71
306.282	12.05
306.494	11.73
306.707	11.02
306.919	10.96
307.132	10.71
307.344	10.29
307.556	10.35
307.769	10.61
307.981	11.3
308.193	11.12
308.406	10.65
308.618	10.1
308.83	9.49
309.043	9.73
309.255	9.65
309.467	9.35
309.679	9.24
309.892	8.85
310.104	8.57
310.316	8.43
310.528	8.17
310.74	8.54
310.953	8.62
311.165	8.96
311.377	9.25
311.589	9.27
311.801	10.13
312.013	9.6
312.225	9.89
312.437	10.58
312.649	10.59
312.862	10.13
313.074	10.42
313.286	11.4
313.498	11.3
313.71	11.05
313.922	11.13
314.134	10.73
314.346	11.06
314.558	11.28
314.77	10.82
314.982	10.62
315.193	11.18
315.405	10.9
315.617	10.36
315.829	11.21
316.041	11.63
316.253	11.88
316.465	11.65
316.677	11.76
316.888	11.67
317.1	11.85
317.312	12.11
317.524	11.48
317.736	11.93
317.947	12.59
318.159	11.88
318.371	11.41
318.583	11.38
318.794	11.41
319.006	11.8
319.218	11.82
319.43	11.92
319.641	11.84
319.853	12.28
320.064	12.36
320.276	11.81
320.488	11.19
320.699	11.64
320.911	11.86
321.123	11.69
321.334	12.13
321.546	12.58
321.757	12.37
321.969	12.56
322.18	12.62
322.392	12.55
322.603	11.84
322.815	12.26
323.026	12.03
323.238	11.89
323.449	12.13
323.661	11.18
323.872	10.57
324.083	10.41
324.295	10.13
324.506	10.12
324.718	9.91
324.929	10.28
325.14	10.22
325.352	10.34
325.563	10.63
325.774	10.74
325.986	11.37
326.197	11.43
326.408	11.59
326.62	11.98
326.831	12.23
327.042	11.63
327.253	11.44
327.464	11.85
327.676	11.93
327.887	10.66
328.098	10.26
328.309	9.98
328.52	10.85
328.732	10.63
328.943	10.96
329.154	10.86
329.365	11.9
329.576	12.5
329.787	11.91
329.998	12.02
330.209	13.27
330.42	13.12
330.631	13.53
330.842	13.24
331.053	12.95
331.264	12.34
331.475	12.7
331.686	12.14
331.897	12
332.108	12.6
332.319	12.35
332.53	11.88
332.741	11.99
332.952	12.13
333.163	11.89
333.374	12.56
333.585	12.16
333.795	12.01
334.006	12.56
334.217	12.6
334.428	12.19
334.639	12.54
334.849	12.73
335.06	13.01
335.271	12.31
335.482	11.76
335.692	11.44
335.903	11.45
336.114	10.85
336.325	10.98
336.535	10.85
336.746	10.84
336.957	11.3
337.167	11.01
337.378	11.17
337.589	11.77
337.799	11.92
338.01	12.36
338.22	12.43
338.431	12.45
338.642	12.29
338.852	12.11
339.063	12.17
339.273	11.46
339.484	11.56
339.694	11.36
339.905	11.54
340.115	11.8
340.326	11.65
340.536	12.04
340.746	12.33
340.957	11.84
341.167	11.89
341.378	11.95
341.588	11.88
341.799	11.71
342.009	11.23
342.219	10.37
342.43	9.83
342.64	9.41
342.85	9.05
343.061	8.77
343.271	9.12
343.481	9.4
343.691	9.58
343.902	9.45
344.112	9.63
344.322	9.93
344.532	10.19
344.743	10.91
344.953	11.23
345.163	11
345.373	11.24
345.583	10.8
345.793	10.65
346.004	10.98
346.214	10.92
346.424	11.17
346.634	11.15
346.844	11.41
347.054	11.17
347.264	11.34
347.474	11.95
347.684	11.71
347.894	12.05
348.104	12.64
348.314	11.8
348.524	11.8
348.734	11.62
348.944	11.79
349.154	11.61
349.364	11.68
349.574	11.24
349.784	10.69
349.994	10.8
350.204	10.14
350.413	9.33
350.623	9.29
350.833	9.38
351.043	9
351.253	8.85
351.463	8.99
351.672	8.74
351.882	9.12
352.092	9.4
352.302	9.65
352.511	10.4
352.721	10.28
352.931	10.77
353.141	10.86
353.35	10.95
353.56	10.82
353.77	10.27
353.979	10.02
354.189	9.66
354.399	9.67
354.608	9.63
354.818	9.58
355.027	9.71
355.237	9.2
355.447	8.98
355.656	8.97
355.866	9.17
356.075	9.52
356.285	9.66
356.494	10.09
356.704	10.02
356.913	9.88
357.123	9.25
357.332	8.85
357.542	9.1
357.751	9.5
357.96	9.76
358.17	9.47
358.379	9.4
358.589	9.5
358.798	9.36
359.007	9.29
359.217	9.29
359.426	9.42
359.635	9.76
359.845	9.65
360.054	9.27
360.263	9.02
360.472	9.1
360.682	9
360.891	8.86
361.1	8.66
361.309	8.88
361.519	8.95
361.728	8.96
361.937	9.08
362.146	9.03
362.355	8.85
362.564	8.79
362.774	8.7
362.983	8.41
363.192	8.36
363.401	8.26
363.61	7.96
363.819	7.91
364.028	7.96
364.237	7.19
364.446	7.06
364.655	7.1
364.864	7.21
365.073	7.64
365.282	7.77
365.491	7.71
365.7	7.78
365.909	7.77
366.118	7.4
366.327	7.44
366.536	8.04
366.745	8.17
366.954	8.25
367.162	8.37
367.371	8.1
367.58	8.28
367.789	8.21
367.998	7.87
368.207	7.76
368.415	7.89
368.624	8.06
368.833	8
369.042	8.18
369.25	8.76
369.459	8.58
369.668	8.13
369.877	8.12
370.085	8.24
370.294	8.11
370.503	7.8
370.711	7.69
370.92	7.67
371.129	7.4
371.337	6.61
371.546	5.97
371.754	5.77
371.963	5.85
372.171	5.55
372.38	5.29
372.589	5.72
372.797	6.15
373.006	6.45
373.214	6.24
373.423	6.5
373.631	7.18
373.84	7.17
374.048	7.15
374.256	7.24
374.465	7.69
374.673	7.77
374.882	7.53
375.09	7.21
375.298	6.95
375.507	6.94
375.715	6.74
375.923	6.75
376.132	6.49
376.34	6.53
376.548	6.32
376.757	6.07
376.965	6.14
377.173	6.4
377.381	6.83
377.59	6.7
377.798	6.55
378.006	6.55
378.214	6.85
378.423	6.98
378.631	6.94
378.839	7.27
379.047	7.5
379.255	7.29
379.463	6.96
379.671	6.57
379.879	6.85
380.088	6.71
380.296	6.91
380.504	6.6
380.712	6.97
380.92	6.87
381.128	6.73
381.336	6.01
381.544	5.92
381.752	5.91
381.96	6.03
382.168	5.96
382.376	6.02
382.584	5.73
382.791	5.73
382.999	5.41
383.207	5.31
383.415	5.38
383.623	5.66
383.831	5.91
384.039	5.95
384.247	5.75
384.454	5.32
384.662	5.22
384.87	5.16
385.078	4.84
385.285	4.91
385.493	4.92
385.701	4.77
385.909	4.97
386.116	4.9
386.324	4.8
386.532	4.95
386.739	5.35
386.947	5.18
387.155	5.5
387.362	5.69
387.57	5.65
387.778	5.96
387.985	5.91
388.193	5.73
388.4	5.62
388.608	5.65
388.816	5.61
389.023	5.13
389.231	5.08
389.438	4.73
389.646	4.87
389.853	4.7
390.061	4.33
390.268	4.51
390.475	4.45
390.683	4.63
390.89	4.62
391.098	4.6
391.305	5.05
391.512	5.1
391.72	5.12
391.927	4.91
392.135	4.92
392.342	5.13
392.549	4.94
392.756	5.08
392.964	4.86
393.171	4.82
393.378	4.92
393.586	4.81
393.793	4.88
394	4.79
394.207	4.81
394.414	5.06
394.622	5.05
394.829	5.1
395.036	4.94
395.243	4.98
395.45	4.87
395.657	4.7
395.864	4.61
396.072	4.9
396.279	4.83
396.486	4.73
396.693	4.61
396.9	4.34
397.107	4.22
397.314	4.12
397.521	4.03
397.728	4.13
397.935	4.19
398.142	4.18
398.349	3.99
398.556	4.12
398.763	4.11
398.97	3.95
399.177	4.25
399.383	4.26
399.59	4.5
399.797	4.34
400.004	4.31
400.211	4.25
400.418	4.18
400.625	3.98
400.831	4.05
401.038	4.14
401.245	4.26
401.452	3.96
401.658	4.01
401.865	3.82
402.072	3.94
402.279	4.06
402.485	3.91
402.692	3.96
402.899	3.98
403.105	3.89
403.312	3.81
403.519	3.78
403.725	3.81
403.932	3.8
404.138	3.83
404.345	3.83
404.552	3.67
404.758	3.95
404.965	3.85
405.171	3.7
405.378	3.73
405.584	3.69
405.791	3.65
405.997	3.7
406.204	3.72
406.41	3.67
406.617	3.72
406.823	3.71
407.029	3.48
407.236	3.68
407.442	3.91
407.649	4.01
407.855	4.01
408.061	4.05
408.268	4
408.474	3.92
408.68	3.89
408.887	3.88
409.093	3.82
409.299	3.91
409.505	3.7
409.712	3.48
409.918	3.2
410.124	3.28
410.33	3.22
410.537	3.1
410.743	3.14
410.949	3.35
411.155	3.31
411.361	3.25
411.567	3.12
411.773	3.1
411.98	3.26
412.186	3.5
412.392	3.21
412.598	3.13
412.804	3.3
413.01	3.28
413.216	3.14
413.422	3.11
413.628	3.22
413.834	3.27
414.04	3.33
414.246	3.24
414.452	3.06
414.658	3.02
414.864	2.98
415.07	2.88
415.275	2.95
415.481	2.95
415.687	2.86
415.893	2.83
416.099	2.82
416.305	2.87
416.511	2.91
416.716	2.94
416.922	3.06
417.128	3.13
417.334	3.1
417.539	3.02
417.745	2.99
417.951	3.01
418.157	2.97
418.362	3
418.568	2.96
418.774	2.87
418.979	2.79
419.185	2.84
419.391	2.82
419.596	2.9
419.802	2.83
420.008	2.86
420.213	2.45
420.419	2.51
420.624	2.55
420.83	2.49
421.035	2.59
421.241	2.67
421.446	2.67
421.652	2.62
421.857	2.62
422.063	2.62
422.268	2.58
422.474	2.98
422.679	2.93
422.885	2.93
423.09	2.92
423.295	2.88
423.501	2.86
423.706	2.72
423.911	2.73
424.117	2.64
424.322	2.73
424.527	2.76
424.733	2.82
424.938	2.82
425.143	2.77
425.349	2.85
425.554	2.85
425.759	3.02
425.964	3.17
426.169	3.21
426.375	3.33
426.58	3.38
426.785	3.45
426.99	3.46
427.195	3.46
427.4	3.34
427.605	3.28
427.811	3.3
428.016	3.04
428.221	3.04
428.426	3.02
428.631	2.91
428.836	2.8
429.041	2.7
429.246	2.58
429.451	2.66
429.656	2.68
429.861	2.72
430.066	2.63
430.271	2.74
430.476	2.77
430.681	2.85
430.886	2.82
431.09	2.87
431.295	2.85
431.5	2.89
431.705	2.76
431.91	2.76
432.115	2.74
432.32	2.85
432.524	2.85
432.729	2.93
432.934	2.96
433.139	2.96
433.343	2.96
433.548	2.99
433.753	3.07
433.958	3.18
434.162	3.34
434.367	3.37
434.572	3.31
434.776	3.25
434.981	3.1
435.186	3.03
435.39	3.04
435.595	3.06
435.799	3.15
436.004	3.21
436.209	3.08
436.413	2.93
436.618	2.78
436.822	2.78
437.027	2.71
437.231	2.69
437.436	2.63
437.64	2.61
437.845	2.6
438.049	2.46
438.253	2.34
438.458	2.43
438.662	2.5
438.867	2.52
439.071	2.6
439.275	2.65
439.48	2.64
439.684	2.7
439.888	2.7
440.093	2.68
440.297	2.73
440.501	2.74
440.706	2.73
440.91	2.71
441.114	2.75
441.318	2.77
441.523	2.75
441.727	2.81
441.931	2.75
442.135	2.79
442.339	2.82
442.543	2.95
442.748	2.89
442.952	2.88
443.156	2.9
443.36	2.82
443.564	2.84
443.768	2.84
443.972	2.83
444.176	2.93
444.38	2.92
444.584	2.81
444.788	2.65
444.992	2.67
445.196	2.63
445.4	2.5
445.604	2.57
445.808	2.55
446.012	2.53
446.216	2.5
446.42	2.45
446.624	2.47
446.828	2.56
447.032	2.61
447.235	2.61
447.439	2.6
447.643	2.69
447.847	2.7
448.051	2.63
448.254	2.68
448.458	2.69
448.662	2.59
448.866	2.54
449.069	2.42
449.273	2.41
449.477	2.42
449.681	2.47
449.884	2.4
450.088	2.33
450.292	2.35
450.495	2.24
450.699	2.34
450.902	2.44
451.106	2.44
451.31	2.5
451.513	2.46
451.717	2.46
451.92	2.53
452.124	2.52
452.327	2.61
452.531	2.55
452.734	2.54
452.938	2.48
453.141	2.41
453.345	2.39
453.548	2.42
453.752	2.48
453.955	2.63
454.158	2.55
454.362	2.59
454.565	2.7
454.769	2.66
454.972	2.82
455.175	2.87
455.379	2.96
455.582	2.92
455.785	2.92
455.988	2.89
456.192	2.69
456.395	2.64
456.598	2.62
456.801	2.53
457.005	2.68
457.208	2.67
457.411	2.64
457.614	2.6
457.817	2.58
458.021	2.59
458.224	2.67
458.427	2.78
458.63	2.78
458.833	2.81
459.036	2.77
459.239	2.67
459.442	2.61
459.645	2.66
459.848	2.62
460.051	2.73
460.254	2.7
460.457	2.64
460.66	2.59
460.863	2.59
461.066	2.51
461.269	2.53
461.472	2.57
461.675	2.54
461.878	2.45
462.081	2.45
462.284	2.36
462.486	2.36
462.689	2.31
462.892	2.29
463.095	2.32
463.298	2.39
463.5	2.45
463.703	2.47
463.906	2.54
464.109	2.44
464.311	2.5
464.514	2.62
464.717	2.65
464.92	2.62
