Data from 2938450_Reflection_3.txt Node
Date: Fri Jun 19 18:00:44 EDT 2015
User: robert
Spectrometer: USB4E03002
Autoset integration time: false
Trigger mode: 4
Integration Time (sec): 1.000000E-1
Scans to average: 10
Electric dark correction enabled: true
Nonlinearity correction enabled: false
Boxcar width: 5
Stray light correction enabled: false
XAxis mode: Wavelengths
Stop averaging: false
Number of Pixels in Spectrum: 3648
>>>>>Begin Spectral Data<<<<<
177.575	-499.91
177.794	-93.68
178.014	-142.89
178.233	-24.3
178.452	-12.81
178.672	-171.07
178.891	46.94
179.11	-269.88
179.33	-208.04
179.549	-128.58
179.768	-135.58
179.987	-228.68
180.207	-208.34
180.426	-453.85
180.645	-314.3
180.864	-584.03
181.084	971.11
181.303	427.04
181.522	211.99
181.741	253.44
181.96	157.53
182.179	116.48
182.398	66.24
182.618	72.18
182.837	56.89
183.056	23.02
183.275	33.85
183.494	46.36
183.713	54.62
183.932	74.66
184.151	78.55
184.37	149.08
184.589	276.15
184.808	279.44
185.027	265.57
185.246	310.53
185.465	689.76
185.684	353950
185.903	-174.7
186.122	-161.55
186.341	-132.31
186.56	-98.69
186.779	-56.7
186.998	-61.99
187.216	-8.69
187.435	15.95
187.654	33.85
187.873	56.09
188.092	21.67
188.311	50.16
188.53	58.18
188.748	13.27
188.967	26.43
189.186	13.2
189.405	0.47
189.623	-2569.84
189.842	-650.08
190.061	-83.72
190.28	-317.47
190.498	-266.63
190.717	383.82
190.936	201.07
191.154	216.05
191.373	124.89
191.592	184.65
191.81	462.04
192.029	763.77
192.248	221.65
192.466	237.62
192.685	275.81
192.904	160.84
193.122	323.86
193.341	-899.88
193.559	1934.37
193.778	-5011.35
193.996	-954.56
194.215	587.99
194.433	315.13
194.652	-391.47
194.87	-17.74
195.089	-102.43
195.307	-154.62
195.526	-671.14
195.744	464.05
195.963	400750
196.181	1206.69
196.399	414.23
196.618	309.05
196.836	318.49
197.055	282.94
197.273	256.25
197.491	224.84
197.71	139.25
197.928	170.33
198.146	149.59
198.365	86.47
198.583	73.03
198.801	49.49
199.019	-4.21
199.238	58.36
199.456	-26.23
199.674	52.16
199.892	-677.91
200.111	-134.79
200.329	-138.78
200.547	-73.27
200.765	-41.16
200.983	-77.9
201.202	-74.16
201.42	-87.67
201.638	-96.43
201.856	-45.13
202.074	-43.04
202.292	-43.17
202.51	-17.25
202.728	66.04
202.946	-107.12
203.165	-539.47
203.383	56.93
203.601	108.85
203.819	171.59
204.037	-85.14
204.255	-114.49
204.473	-51.97
204.691	-111.35
204.909	-39.78
205.127	-26.46
205.345	3.48
205.562	15.87
205.78	61.28
205.998	96.14
206.216	81.31
206.434	-101.78
206.652	103.1
206.87	78.06
207.088	173.35
207.306	94.11
207.523	63.02
207.741	59.31
207.959	83.98
208.177	106.39
208.395	99.19
208.612	92.9
208.83	82.29
209.048	86.68
209.266	70.08
209.483	61.54
209.701	49.57
209.919	54.25
210.136	61.17
210.354	58.9
210.572	49.58
210.79	55.46
211.007	44.03
211.225	29.62
211.442	22.14
211.66	34.37
211.878	45.79
212.095	71.12
212.313	77.25
212.53	60.4
212.748	43.55
212.966	51.14
213.183	52.55
213.401	43.73
213.618	47.43
213.836	56.16
214.053	49.66
214.271	57.6
214.488	2.15
214.705	-8.5
214.923	-18.46
215.14	16.89
215.358	-24.23
215.575	-30.79
215.793	65.46
216.01	80.18
216.227	82.77
216.445	129.01
216.662	103.85
216.879	113.24
217.097	109.77
217.314	111.07
217.531	111.96
217.749	94.29
217.966	77.59
218.183	72.05
218.4	41.91
218.618	27.29
218.835	33.83
219.052	60.03
219.269	47.12
219.487	45.98
219.704	38.75
219.921	29.43
220.138	55.01
220.355	70.18
220.572	65.58
220.79	81.12
221.007	77.49
221.224	69.3
221.441	42.39
221.658	51.22
221.875	42.42
222.092	23.27
222.309	28.87
222.526	14.08
222.743	8.56
222.96	6.47
223.177	2.07
223.394	1.04
223.611	3.6
223.828	14.27
224.045	13.03
224.262	17.45
224.479	23.76
224.696	19.89
224.913	24.83
225.13	24.49
225.347	24.64
225.564	27.5
225.781	23.8
225.997	20.92
226.214	20.6
226.431	19.38
226.648	16.62
226.865	14.95
227.082	16.71
227.298	14.84
227.515	15.77
227.732	15.91
227.949	15.44
228.165	17.03
228.382	17.03
228.599	15.18
228.816	13.87
229.032	13.18
229.249	14.25
229.466	12.18
229.682	14.08
229.899	10.79
230.116	9.62
230.332	7.69
230.549	7.9
230.765	8.44
230.982	8.83
231.199	11.54
231.415	14.45
231.632	14.83
231.848	15.4
232.065	14.69
232.281	18.04
232.498	19.1
232.714	20.77
232.931	19.92
233.147	18.63
233.364	18.16
233.58	14.01
233.797	16.54
234.013	15.33
234.23	16.54
234.446	17.62
234.662	15.25
234.879	12.03
235.095	9.28
235.312	8.45
235.528	13.45
235.744	12.18
235.961	15.07
236.177	11.06
236.393	14.6
236.61	14.91
236.826	12.97
237.042	14.06
237.258	16.56
237.475	17.14
237.691	16.93
237.907	14.97
238.123	16.96
238.339	16.86
238.556	17.19
238.772	15.47
238.988	14.8
239.204	14.69
239.42	15.4
239.636	14.81
239.853	13.82
240.069	13.65
240.285	13.15
240.501	12.4
240.717	12.4
240.933	11.81
241.149	11.62
241.365	12.2
241.581	13.11
241.797	12.58
242.013	13.25
242.229	13.8
242.445	14.63
242.661	13.55
242.877	13.73
243.093	13.6
243.309	14.13
243.525	14.13
243.741	13.07
243.957	12.13
244.173	11.61
244.388	10.31
244.604	10.96
244.82	10.5
245.036	10.57
245.252	10.22
245.468	10.09
245.683	9.37
245.899	9.1
246.115	8.58
246.331	7.72
246.547	7.43
246.762	7.6
246.978	7.1
247.194	6.89
247.409	6.83
247.625	6.86
247.841	6.32
248.057	6.53
248.272	6.29
248.488	5.97
248.703	6.69
248.919	7.76
249.135	7.6
249.35	7.6
249.566	7.32
249.782	7.8
249.997	7.84
250.213	8.48
250.428	7.99
250.644	8.96
250.859	9.59
251.075	10.07
251.29	10.26
251.506	10.33
251.721	10.82
251.937	11.59
252.152	11.59
252.368	10.71
252.583	11.21
252.798	12.95
253.014	12.14
253.229	12.45
253.445	11.26
253.66	9.13
253.875	8.98
254.091	7.96
254.306	6.13
254.521	6.98
254.737	7.83
254.952	5.71
255.167	4.48
255.383	4.79
255.598	5.2
255.813	5.5
256.028	6.38
256.244	7.12
256.459	7.22
256.674	7.69
256.889	6.63
257.104	6.06
257.32	6.39
257.535	6.49
257.75	6.52
257.965	6.6
258.18	6.57
258.395	6.37
258.61	6.05
258.826	5.84
259.041	5.55
259.256	6.02
259.471	6.24
259.686	6.52
259.901	6.54
260.116	5.93
260.331	5.65
260.546	6.2
260.761	6.06
260.976	5.81
261.191	6.11
261.406	6.98
261.621	6.65
261.836	6.22
262.05	6.35
262.265	6.94
262.48	7.99
262.695	8.39
262.91	7.8
263.125	7.85
263.34	8.42
263.555	8.13
263.769	6.53
263.984	6.88
264.199	7.96
264.414	7.38
264.629	6.61
264.843	6.5
265.058	5.5
265.273	5.56
265.488	6.02
265.702	5.16
265.917	5.68
266.132	6.32
266.346	6
266.561	5.71
266.776	5.77
266.99	5.98
267.205	6.14
267.42	6.99
267.634	6.51
267.849	6.11
268.063	7.01
268.278	6.68
268.492	6.45
268.707	5.99
268.922	5.77
269.136	5.52
269.351	5.46
269.565	5.66
269.78	5.34
269.994	5.55
270.209	5.97
270.423	5.49
270.637	5.81
270.852	5.98
271.066	6.67
271.281	7.43
271.495	7.82
271.709	7.77
271.924	7.57
272.138	7.89
272.353	7.93
272.567	7.98
272.781	8.55
272.996	8.39
273.21	8.94
273.424	8.69
273.638	7.68
273.853	7.48
274.067	6.67
274.281	6.91
274.495	6.56
274.71	7.25
274.924	6.98
275.138	7
275.352	6.47
275.566	6.54
275.781	6.56
275.995	6.97
276.209	7.53
276.423	8.35
276.637	8.17
276.851	8.58
277.065	8.01
277.279	8.07
277.493	8.57
277.707	8.99
277.921	8.19
278.135	7.93
278.349	7.6
278.563	6.83
278.777	6.68
278.991	6.26
279.205	5.94
279.419	5.64
279.633	6.25
279.847	5.89
280.061	5.38
280.275	5.81
280.489	5.71
280.703	6.18
280.917	5.81
281.131	5.78
281.344	6.2
281.558	5.84
281.772	6.28
281.986	6.03
282.2	5.91
282.414	6.04
282.627	5.66
282.841	6.16
283.055	6.01
283.269	6.57
283.482	6.8
283.696	6.7
283.91	7.42
284.123	7.07
284.337	7.22
284.551	6.87
284.764	6.81
284.978	7.01
285.192	6.9
285.405	7.39
285.619	7.45
285.833	7.69
286.046	7.87
286.26	7.69
286.473	8.24
286.687	8.23
286.9	8.61
287.114	8.81
287.327	8.79
287.541	7.91
287.754	6.96
287.968	6.86
288.181	6.53
288.395	6.43
288.608	6.5
288.822	6.51
289.035	6.23
289.248	6.06
289.462	6.52
289.675	6.37
289.889	7.08
290.102	7.43
290.315	7.81
290.529	8.23
290.742	8.42
290.955	8.36
291.169	8.1
291.382	8.71
291.595	8.38
291.808	8.58
292.022	8.4
292.235	8.61
292.448	8.63
292.661	8.38
292.875	8.29
293.088	8.27
293.301	8.79
293.514	8.51
293.727	7.58
293.94	8.17
294.153	7.5
294.367	8.34
294.58	8.27
294.793	8.07
295.006	8
295.219	8.02
295.432	8.37
295.645	7.59
295.858	8.21
296.071	8.62
296.284	8.7
296.497	9.23
296.71	8.75
296.923	8.96
297.136	9.13
297.349	9.09
297.562	9.01
297.775	8.35
297.988	9.27
298.201	8.96
298.414	8.7
298.626	8.8
298.839	8.63
299.052	8.74
299.265	8.48
299.478	8.48
299.691	8.27
299.903	8.44
300.116	9.03
300.329	8.61
300.542	8.43
300.755	8.93
300.967	9.12
301.18	9.04
301.393	9.38
301.605	9.38
301.818	9.84
302.031	9.88
302.243	9.96
302.456	9.2
302.669	9.01
302.881	9.68
303.094	9.98
303.307	9.72
303.519	9.82
303.732	9.71
303.944	10.12
304.157	10.5
304.37	10.97
304.582	10.97
304.795	12.07
305.007	12.62
305.22	12.05
305.432	11.43
305.645	11.38
305.857	11.77
306.069	12.32
306.282	12.04
306.494	11.69
306.707	11.19
306.919	11
307.132	10.51
307.344	10.42
307.556	11.07
307.769	11.37
307.981	11.74
308.193	11.09
308.406	10.03
308.618	10.11
308.83	9.93
309.043	10.53
309.255	10.88
309.467	10.98
309.679	11
309.892	10.4
310.104	10.05
310.316	10.18
310.528	10.73
310.74	11.7
310.953	11.84
311.165	12.13
311.377	12.17
311.589	12.83
311.801	13.51
312.013	13.74
312.225	14.01
312.437	14.82
312.649	14.5
312.862	14.56
313.074	14.08
313.286	14.38
313.498	14.07
313.71	14.45
313.922	13.6
314.134	13.38
314.346	12.84
314.558	13.14
314.77	12.51
314.982	13.06
315.193	13.39
315.405	13.44
315.617	12.99
315.829	14.11
316.041	13.99
316.253	14.27
316.465	13.98
316.677	14.29
316.888	14.27
317.1	14.03
317.312	13.94
317.524	13.31
317.736	13.79
317.947	14.6
318.159	13.83
318.371	13.61
318.583	13.13
318.794	12.92
319.006	13
319.218	12.69
319.43	13.43
319.641	13.16
319.853	12.9
320.064	13.58
320.276	13.44
320.488	12.8
320.699	12.51
320.911	12.71
321.123	12.51
321.334	12.67
321.546	12.98
321.757	13.05
321.969	13.45
322.18	13.95
322.392	13.15
322.603	12.03
322.815	13.01
323.026	13.16
323.238	13.28
323.449	13.3
323.661	13.44
323.872	13.49
324.083	13.32
324.295	12.97
324.506	13.24
324.718	13.29
324.929	13.82
325.14	13.89
325.352	14.05
325.563	14.16
325.774	14.85
325.986	15.17
326.197	15.3
326.408	15.9
326.62	16.17
326.831	16.22
327.042	15.76
327.253	16.76
327.464	16.81
327.676	16.54
327.887	16.67
328.098	16.53
328.309	16.67
328.52	17.36
328.732	16.88
328.943	17.68
329.154	17.91
329.365	18.79
329.576	18.37
329.787	18.38
329.998	19.31
330.209	19.96
330.42	20.91
330.631	20.6
330.842	20.26
331.053	20.53
331.264	19.85
331.475	20.17
331.686	20.33
331.897	20.4
332.108	20.39
332.319	21
332.53	20.99
332.741	20.74
332.952	21.46
333.163	22.08
333.374	22.54
333.585	22.62
333.795	22.23
334.006	22.21
334.217	22.61
334.428	22.9
334.639	22.72
334.849	22.54
335.06	22.37
335.271	22.09
335.482	21.62
335.692	21.12
335.903	21.06
336.114	21.18
336.325	21.26
336.535	21.41
336.746	21.45
336.957	21.64
337.167	21.9
337.378	22.48
337.589	22.8
337.799	22.44
338.01	23.38
338.22	23.56
338.431	23.85
338.642	24.49
338.852	24.01
339.063	23.9
339.273	23.58
339.484	23.06
339.694	22.57
339.905	22.88
340.115	23.21
340.326	22.89
340.536	22.86
340.746	22.87
340.957	22.72
341.167	23.21
341.378	23.11
341.588	23.16
341.799	23.39
342.009	23.23
342.219	22.37
342.43	22.08
342.64	21.71
342.85	21.38
343.061	20.71
343.271	20.34
343.481	20.17
343.691	20.41
343.902	20.46
344.112	20.34
344.322	20.76
344.532	20.54
344.743	20.86
344.953	21.15
345.163	21.38
345.373	21.92
345.583	21.88
345.793	21.59
346.004	21.72
346.214	21.61
346.424	22.25
346.634	21.55
346.844	21.65
347.054	21.04
347.264	21.34
347.474	21.56
347.684	21.58
347.894	21.54
348.104	21.79
348.314	21.31
348.524	20.87
348.734	20.4
348.944	20.83
349.154	21.07
349.364	21.57
349.574	20.76
349.784	21.15
349.994	21.15
350.204	21.57
350.413	21.64
350.623	21.54
350.833	21.56
351.043	21.59
351.253	21.55
351.463	21.54
351.672	21.88
351.882	22.46
352.092	21.77
352.302	22.2
352.511	22.17
352.721	21.75
352.931	22.27
353.141	22.47
353.35	22.31
353.56	22.66
353.77	22.66
353.979	22.3
354.189	22.29
354.399	22.67
354.608	22.3
354.818	21.94
355.027	21.71
355.237	21.37
355.447	21.56
355.656	21.41
355.866	20.88
356.075	21.32
356.285	21.48
356.494	21.55
356.704	21.46
356.913	21.15
357.123	20.76
357.332	20.78
357.542	20.71
357.751	20.63
357.96	21.28
358.17	21.53
358.379	21.31
358.589	21.65
358.798	21.63
359.007	21.44
359.217	21.62
359.426	21.81
359.635	22.1
359.845	22.48
360.054	22.32
360.263	21.79
360.472	21.83
360.682	21.52
360.891	21.15
361.1	20.95
361.309	20.96
361.519	20.78
361.728	20.72
361.937	20.54
362.146	20.14
362.355	20.21
362.564	20.39
362.774	19.99
362.983	19.93
363.192	19.99
363.401	19.93
363.61	20.1
363.819	20.33
364.028	20.74
364.237	20.27
364.446	20.05
364.655	19.3
364.864	19.34
365.073	19.58
365.282	19.36
365.491	19.11
365.7	19.43
365.909	19.25
366.118	18.87
366.327	18.4
366.536	19.14
366.745	19.38
366.954	19.79
367.162	19.38
367.371	19.28
367.58	19.54
367.789	19.44
367.998	18.9
368.207	18.8
368.415	18.99
368.624	19.24
368.833	18.74
369.042	18.54
369.25	18.62
369.459	18.72
369.668	18.45
369.877	18.38
370.085	18.49
370.294	18.15
370.503	17.74
370.711	17.44
370.92	17.22
371.129	17.28
371.337	16.93
371.546	16.52
371.754	16.35
371.963	16.22
372.171	15.81
372.38	15.51
372.589	16.01
372.797	16.46
373.006	16.79
373.214	16.72
373.423	16.62
373.631	16.78
373.84	16.99
374.048	16.91
374.256	17.13
374.465	17.65
374.673	17.52
374.882	17.28
375.09	17.02
375.298	16.62
375.507	16.74
375.715	16.4
375.923	16.58
376.132	16.34
376.34	16.05
376.548	15.62
376.757	15.49
376.965	15.74
377.173	15.66
377.381	15.74
377.59	16.03
377.798	15.59
378.006	15.65
378.214	15.54
378.423	15.61
378.631	15.86
378.839	16.1
379.047	15.83
379.255	15.36
379.463	15.37
379.671	15.11
379.879	14.94
380.088	14.86
380.296	15.04
380.504	14.92
380.712	14.87
380.92	14.76
381.128	14.56
381.336	14.4
381.544	14.3
381.752	14.07
381.96	14.15
382.168	14.13
382.376	14.44
382.584	14.16
382.791	14.24
382.999	14.2
383.207	14.21
383.415	14.15
383.623	14.36
383.831	14.73
384.039	14.61
384.247	14.36
384.454	13.92
384.662	13.49
384.87	13.5
385.078	12.94
385.285	12.67
385.493	12.5
385.701	12.37
385.909	12.1
386.116	11.89
386.324	11.96
386.532	12.05
386.739	12.19
386.947	12.21
387.155	12.18
387.362	12.45
387.57	12.59
387.778	12.74
387.985	12.73
388.193	12.61
388.4	12.28
388.608	12.13
388.816	11.92
389.023	11.79
389.231	11.64
389.438	11.36
389.646	11.42
389.853	11.12
390.061	10.77
390.268	10.64
390.475	10.65
390.683	10.77
390.89	10.76
391.098	11
391.305	11.04
391.512	10.9
391.72	11.03
391.927	10.77
392.135	10.81
392.342	10.92
392.549	11.03
392.756	11.04
392.964	10.8
393.171	10.9
393.378	10.68
393.586	10.44
393.793	10.54
394	10.4
394.207	10.36
394.414	10.46
394.622	10.43
394.829	10.23
395.036	10.19
395.243	10.13
395.45	9.9
395.657	9.83
395.864	9.98
396.072	10.07
396.279	10.06
396.486	10.02
396.693	9.87
396.9	9.66
397.107	9.59
397.314	9.44
397.521	9.57
397.728	9.45
397.935	9.41
398.142	9.32
398.349	9.12
398.556	9.12
398.763	9.06
398.97	9.01
399.177	9.18
399.383	9.06
399.59	9.22
399.797	9.06
400.004	9.09
400.211	9.13
400.418	9.01
400.625	8.87
400.831	8.77
401.038	8.8
401.245	8.83
401.452	8.46
401.658	8.55
401.865	8.17
402.072	8.2
402.279	8.19
402.485	7.92
402.692	7.97
402.899	8
403.105	8.13
403.312	8.2
403.519	8.17
403.725	8.43
403.932	8.48
404.138	8.56
404.345	8.53
404.552	8.33
404.758	8.67
404.965	8.63
405.171	8.52
405.378	8.42
405.584	8.28
405.791	8.46
405.997	8.37
406.204	8.37
406.41	8.39
406.617	8.36
406.823	8.54
407.029	8.27
407.236	8.36
407.442	8.47
407.649	8.56
407.855	8.48
408.061	8.23
408.268	8.29
408.474	8.14
408.68	8.06
408.887	8.17
409.093	8.12
409.299	8.06
409.505	8.05
409.712	7.99
409.918	7.73
410.124	7.73
410.33	7.71
410.537	7.36
410.743	7.32
410.949	7.44
411.155	7.29
411.361	7.27
411.567	7.44
411.773	7.3
411.98	7.31
412.186	7.54
412.392	7.46
412.598	7.47
412.804	7.6
413.01	7.59
413.216	7.41
413.422	7.49
413.628	7.47
413.834	7.37
414.04	7.43
414.246	7.47
414.452	7.42
414.658	7.46
414.864	7.35
415.07	7.44
415.275	7.48
415.481	7.45
415.687	7.32
415.893	7.26
416.099	7.14
416.305	7.13
416.511	7.09
416.716	7.02
416.922	7.04
417.128	7.12
417.334	7.07
417.539	6.99
417.745	6.96
417.951	7.01
418.157	7.01
418.362	6.99
418.568	6.93
418.774	6.84
418.979	6.73
419.185	6.72
419.391	6.7
419.596	6.67
419.802	6.68
420.008	6.72
420.213	6.79
420.419	6.84
420.624	6.91
420.83	6.85
421.035	6.88
421.241	6.9
421.446	6.86
421.652	6.74
421.857	6.72
422.063	6.72
422.268	6.73
422.474	6.58
422.679	6.5
422.885	6.45
423.09	6.46
423.295	6.43
423.501	6.41
423.706	6.31
423.911	6.34
424.117	6.35
424.322	6.33
424.527	6.29
424.733	6.31
424.938	6.26
425.143	6.25
425.349	6.26
425.554	6.25
425.759	6.41
425.964	6.46
426.169	6.5
426.375	6.49
426.58	6.52
426.785	6.57
426.99	6.64
427.195	6.73
427.4	6.63
427.605	6.62
427.811	6.68
428.016	6.54
428.221	6.58
428.426	6.51
428.631	6.58
428.836	6.5
429.041	6.44
429.246	6.27
429.451	6.18
429.656	6.24
429.861	6.29
430.066	6.15
430.271	6.16
430.476	6.24
430.681	6.27
430.886	6.22
431.09	6.2
431.295	6.23
431.5	6.33
431.705	6.36
431.91	6.49
432.115	6.37
432.32	6.53
432.524	6.5
432.729	6.53
432.934	6.59
433.139	6.49
433.343	6.57
433.548	6.49
433.753	6.37
433.958	6.45
434.162	6.33
434.367	6.4
434.572	6.26
434.776	6.24
434.981	6.08
435.186	5.96
435.39	6.08
435.595	6.05
435.799	6.1
436.004	6.2
436.209	6.08
436.413	6.09
436.618	6.1
436.822	6.1
437.027	6.08
437.231	6.1
437.436	6.07
437.64	5.95
437.845	5.93
438.049	5.88
438.253	5.82
438.458	5.9
438.662	5.87
438.867	5.79
439.071	5.83
439.275	5.83
439.48	5.84
439.684	5.93
439.888	5.93
440.093	5.98
440.297	6.04
440.501	6.07
440.706	6.02
440.91	6.02
441.114	6.02
441.318	6.04
441.523	6.03
441.727	5.99
441.931	5.9
442.135	5.91
442.339	5.88
442.543	5.96
442.748	5.87
442.952	5.81
443.156	5.87
443.36	5.91
443.564	5.91
443.768	5.92
443.972	5.94
444.176	5.99
444.38	5.96
444.584	5.84
444.788	5.68
444.992	5.64
445.196	5.62
445.4	5.52
445.604	5.51
445.808	5.59
446.012	5.58
446.216	5.55
446.42	5.53
446.624	5.56
446.828	5.7
447.032	5.78
447.235	5.81
447.439	5.79
447.643	5.85
447.847	5.84
448.051	5.66
448.254	5.73
448.458	5.72
448.662	5.64
448.866	5.58
449.069	5.46
449.273	5.45
449.477	5.52
449.681	5.64
449.884	5.62
450.088	5.57
450.292	5.59
450.495	5.45
450.699	5.43
450.902	5.44
451.106	5.4
451.31	5.38
451.513	5.34
451.717	5.3
451.92	5.24
452.124	5.16
452.327	5.21
452.531	5.16
452.734	5.2
452.938	5.11
453.141	5.13
453.345	5.16
453.548	5.24
453.752	5.26
453.955	5.33
454.158	5.34
454.362	5.39
454.565	5.51
454.769	5.55
454.972	5.64
455.175	5.74
455.379	5.84
455.582	5.8
455.785	5.67
455.988	5.64
456.192	5.51
456.395	5.46
456.598	5.44
456.801	5.35
457.005	5.42
457.208	5.36
457.411	5.35
457.614	5.24
457.817	5.28
458.021	5.32
458.224	5.34
458.427	5.46
458.63	5.45
458.833	5.5
459.036	5.43
459.239	5.38
459.442	5.42
459.645	5.47
459.848	5.48
460.051	5.49
460.254	5.49
460.457	5.52
460.66	5.48
460.863	5.5
461.066	5.48
461.269	5.56
461.472	5.54
461.675	5.43
461.878	5.37
462.081	5.43
462.284	5.46
462.486	5.48
462.689	5.35
462.892	5.44
463.095	5.43
