Data from 2938450_Reflection_2.txt Node
Date: Fri Jun 19 18:00:33 EDT 2015
User: robert
Spectrometer: USB4E03002
Autoset integration time: false
Trigger mode: 4
Integration Time (sec): 1.000000E-1
Scans to average: 10
Electric dark correction enabled: true
Nonlinearity correction enabled: false
Boxcar width: 5
Stray light correction enabled: false
XAxis mode: Wavelengths
Stop averaging: false
Number of Pixels in Spectrum: 3648
>>>>>Begin Spectral Data<<<<<
177.575	-289.72
177.794	-14.47
178.014	19.9
178.233	48.46
178.452	84.85
178.672	41.91
178.891	145.54
179.11	-437.45
179.33	-514.79
179.549	-175.2
179.768	-40.82
179.987	-11.88
180.207	56.71
180.426	191.86
180.645	214.85
180.864	339.29
181.084	-314.75
181.303	-93.1
181.522	-1.43
181.741	3.8
181.96	7.63
182.179	27.9
182.398	37.52
182.618	65.44
182.837	82.64
183.056	92.59
183.275	69
183.494	78.34
183.713	78.7
183.932	77.39
184.151	74.11
184.37	154.11
184.589	271.14
184.808	223.69
185.027	133.98
185.246	139.31
185.465	321.3
185.684	234200
185.903	-100.63
186.122	-72.48
186.341	-64.25
186.56	-85.59
186.779	-19.27
186.998	-48.25
187.216	-1.11
187.435	9.93
187.654	10.78
187.873	20.54
188.092	7.41
188.311	40.23
188.53	12.94
188.748	-10.92
188.967	41.35
189.186	-46.09
189.405	-52.92
189.623	-4009.52
189.842	-588.65
190.061	-41.65
190.28	-248.11
190.498	-280.7
190.717	483.58
190.936	332.44
191.154	346.54
191.373	243.51
191.592	258
191.81	564.23
192.029	1068.62
192.248	304.98
192.466	303.91
192.685	353.84
192.904	229.89
193.122	455.24
193.341	-1425
193.559	3702.78
193.778	-7682.98
193.996	-1544.74
194.215	1260.73
194.433	643.6
194.652	-1281.19
194.87	-287.78
195.089	-528.04
195.307	-271.43
195.526	-909.41
195.744	404.24
195.963	288150
196.181	818.27
196.399	321.33
196.618	142.27
196.836	164.68
197.055	147.08
197.273	109.12
197.491	74.71
197.71	96.12
197.928	99.13
198.146	89.68
198.365	58.94
198.583	68.65
198.801	84.82
199.019	357.02
199.238	275.53
199.456	340.33
199.674	425.13
199.892	-3170.93
200.111	-279.23
200.329	-223.78
200.547	-132.2
200.765	-79.37
200.983	-124.89
201.202	-102.5
201.42	-94.5
201.638	-118.77
201.856	-103.31
202.074	-108.59
202.292	-84.92
202.51	-93.13
202.728	-106.35
202.946	-507.86
203.165	-7873.68
203.383	616.42
203.601	220.53
203.819	548.08
204.037	-296.1
204.255	-164.73
204.473	-91.64
204.691	-203.6
204.909	-121.39
205.127	-50.27
205.345	-35.75
205.562	-6.58
205.78	-23.74
205.998	-35.55
206.216	-92.98
206.434	-595.45
206.652	355.74
206.87	244.66
207.088	1448.55
207.306	233.48
207.523	96.68
207.741	84.45
207.959	109.83
208.177	82.68
208.395	70.91
208.612	90.53
208.83	96.59
209.048	90.59
209.266	75.92
209.483	70.74
209.701	64.47
209.919	86.98
210.136	99.68
210.354	78.77
210.572	107.97
210.79	145.12
211.007	131.59
211.225	101.92
211.442	114.11
211.66	73.57
211.878	58.27
212.095	83.02
212.313	79.97
212.53	77.76
212.748	72.05
212.966	67.49
213.183	51.25
213.401	46.23
213.618	55.78
213.836	57.32
214.053	65.86
214.271	83.27
214.488	4.38
214.705	22.6
214.923	15.27
215.14	-42.17
215.358	-7.16
215.575	3.05
215.793	56.1
216.01	68.56
216.227	64.69
216.445	80.25
216.662	66.17
216.879	85.72
217.097	74.99
217.314	73.55
217.531	92.54
217.749	71.05
217.966	65.05
218.183	53.15
218.4	44.54
218.618	45.8
218.835	48.79
219.052	74.94
219.269	83.96
219.487	78.74
219.704	76.76
219.921	64.82
220.138	68.06
220.355	69.9
220.572	68.25
220.79	65.88
221.007	61.14
221.224	53.23
221.441	40.2
221.658	26.42
221.875	18.2
222.092	10.16
222.309	10.32
222.526	8.78
222.743	6.15
222.96	14.51
223.177	14.48
223.394	7.58
223.611	9.55
223.828	15.85
224.045	22.35
224.262	28.18
224.479	30.19
224.696	29.44
224.913	34.21
225.13	31.55
225.347	27.8
225.564	26.94
225.781	26.75
225.997	26.68
226.214	25.55
226.431	23.37
226.648	20.28
226.865	20.2
227.082	20.98
227.298	17.05
227.515	18.08
227.732	18.09
227.949	17.32
228.165	17.4
228.382	16.25
228.599	15.02
228.816	13.99
229.032	12.8
229.249	12.77
229.466	10.85
229.682	11.98
229.899	8.49
230.116	6.53
230.332	6.76
230.549	6.48
230.765	6.46
230.982	5.54
231.199	6.81
231.415	10.56
231.632	9.58
231.848	13.25
232.065	13.92
232.281	16.18
232.498	16.91
232.714	16.18
232.931	15.36
233.147	15.48
233.364	17.21
233.58	16.46
233.797	18.23
234.013	19.9
234.23	18.39
234.446	19.22
234.662	19.16
234.879	20.2
235.095	20.3
235.312	20.47
235.528	21.1
235.744	18.44
235.961	17.93
236.177	14.22
236.393	13.57
236.61	15.4
236.826	16.82
237.042	17.82
237.258	17.21
237.475	17.96
237.691	16.51
237.907	16.82
238.123	18.58
238.339	18.01
238.556	17.65
238.772	16.7
238.988	15.23
239.204	13.64
239.42	14.62
239.636	14.78
239.853	13.92
240.069	14.18
240.285	12.82
240.501	12.3
240.717	12.22
240.933	12.09
241.149	12.35
241.365	12.18
241.581	12.56
241.797	11.97
242.013	11.97
242.229	11.77
242.445	12.53
242.661	12.7
242.877	12.55
243.093	12.39
243.309	11.97
243.525	11.6
243.741	11.69
243.957	11.69
244.173	10.65
244.388	9.49
244.604	9.49
244.82	9.29
245.036	9.34
245.252	9.27
245.468	9.13
245.683	9.33
245.899	9.23
246.115	8.98
246.331	8.55
246.547	8.97
246.762	9.06
246.978	9.15
247.194	9.17
247.409	9.29
247.625	9.65
247.841	9.74
248.057	10.27
248.272	9.24
248.488	8.94
248.703	8.92
248.919	9.43
249.135	10.16
249.35	10.47
249.566	8.86
249.782	9.36
249.997	9.11
250.213	9.48
250.428	8.33
250.644	9.98
250.859	9.83
251.075	10.32
251.29	9.57
251.506	9.29
251.721	9.24
251.937	11.31
252.152	10.78
252.368	9.72
252.583	11.07
252.798	12.96
253.014	12.85
253.229	13.63
253.445	12.27
253.66	11.18
253.875	10.13
254.091	9.07
254.306	7.14
254.521	7.45
254.737	8.55
254.952	7.55
255.167	6.59
255.383	6.5
255.598	7.19
255.813	7.98
256.028	8.71
256.244	9.24
256.459	8.75
256.674	8.77
256.889	7.68
257.104	6.51
257.32	5.8
257.535	5.92
257.75	5.59
257.965	5.69
258.18	5.31
258.395	5.44
258.61	5.72
258.826	6.03
259.041	5.94
259.256	6.43
259.471	6.94
259.686	7.27
259.901	7.17
260.116	7.11
260.331	6.95
260.546	7.66
260.761	7.64
260.976	7.39
261.191	7.36
261.406	7.97
261.621	7.39
261.836	6.66
262.05	6.58
262.265	6.75
262.48	8
262.695	7.79
262.91	7.5
263.125	6.96
263.34	7.47
263.555	7.39
263.769	6.3
263.984	7.35
264.199	8.47
264.414	8.65
264.629	8.32
264.843	7.64
265.058	7.41
265.273	7.19
265.488	7.6
265.702	6.76
265.917	7.22
266.132	7.46
266.346	7.03
266.561	7.14
266.776	6.98
266.99	6.25
267.205	6.32
267.42	6.63
267.634	7.04
267.849	7.05
268.063	7.53
268.278	7.15
268.492	7.3
268.707	7.52
268.922	6.98
269.136	6.71
269.351	7.63
269.565	7.78
269.78	7.59
269.994	7.35
270.209	7.77
270.423	7.53
270.637	7.83
270.852	7.86
271.066	7.69
271.281	8
271.495	7.92
271.709	7.49
271.924	7.49
272.138	7.95
272.353	8.22
272.567	7.71
272.781	8.06
272.996	7.92
273.21	7.79
273.424	7.81
273.638	7.3
273.853	7.96
274.067	7.82
274.281	7.6
274.495	6.23
274.71	6.05
274.924	5.92
275.138	6.18
275.352	5.99
275.566	6.56
275.781	6.66
275.995	7.55
276.209	7.29
276.423	7.45
276.637	7.69
276.851	8.73
277.065	9.01
277.279	9.62
277.493	9.43
277.707	8.93
277.921	8.23
278.135	8.34
278.349	7.54
278.563	7.42
278.777	7.66
278.991	7.24
279.205	7.04
279.419	6.69
279.633	6.79
279.847	6.51
280.061	6.59
280.275	6.79
280.489	6.35
280.703	6.6
280.917	6.32
281.131	5.89
281.344	6.07
281.558	5.52
281.772	5.46
281.986	5.2
282.2	5.58
282.414	5.69
282.627	5.49
282.841	6.29
283.055	6.93
283.269	7.28
283.482	8.05
283.696	7.91
283.91	8.6
284.123	8.56
284.337	8.45
284.551	8.13
284.764	8.18
284.978	8.46
285.192	8.02
285.405	7.77
285.619	8.05
285.833	7.81
286.046	8.26
286.26	8.21
286.473	8.63
286.687	8.91
286.9	9.3
287.114	9.26
287.327	9.29
287.541	8.91
287.754	8.54
287.968	8.45
288.181	8.21
288.395	8.11
288.608	7.93
288.822	7.82
289.035	7.72
289.248	7.27
289.462	7.29
289.675	6.93
289.889	7.38
290.102	7.15
290.315	6.67
290.529	6.84
290.742	7.1
290.955	7.31
291.169	7.04
291.382	7.29
291.595	7.65
291.808	7.96
292.022	8.06
292.235	8.01
292.448	8.49
292.661	8.67
292.875	8.49
293.088	8.18
293.301	8.7
293.514	8.49
293.727	8.13
293.94	8.23
294.153	8.09
294.367	8.15
294.58	8.32
294.793	7.77
295.006	8.16
295.219	8.23
295.432	8.32
295.645	8.05
295.858	8.7
296.071	8.78
296.284	9.08
296.497	9.35
296.71	9.58
296.923	9.68
297.136	10.19
297.349	9.5
297.562	9.53
297.775	9.04
297.988	9.45
298.201	9.23
298.414	9.15
298.626	8.82
298.839	8.21
299.052	8.44
299.265	8.14
299.478	7.47
299.691	7.56
299.903	8.29
300.116	8.68
300.329	8.22
300.542	8
300.755	8
300.967	8.02
301.18	8.38
301.393	8.17
301.605	8.36
301.818	9.01
302.031	9.25
302.243	8.59
302.456	8.82
302.669	8.51
302.881	8.58
303.094	8.83
303.307	8.56
303.519	9.21
303.732	9.39
303.944	9.31
304.157	9.89
304.37	10.28
304.582	10.43
304.795	10.58
305.007	11.27
305.22	11.49
305.432	10.69
305.645	10.95
305.857	10.62
306.069	10.4
306.282	10.34
306.494	9.65
306.707	9.7
306.919	10.06
307.132	10.06
307.344	9.95
307.556	10.19
307.769	11.13
307.981	11.17
308.193	11.11
308.406	10.59
308.618	10.39
308.83	10.52
309.043	10.36
309.255	10.15
309.467	9.87
309.679	9.62
309.892	8.92
310.104	8.76
310.316	9.02
310.528	9
310.74	9.33
310.953	9.16
311.165	9.54
311.377	9.75
311.589	9.91
311.801	10.39
312.013	10.88
312.225	11.13
312.437	11.61
312.649	11.4
312.862	11.49
313.074	11.35
313.286	12.34
313.498	12.17
313.71	12.24
313.922	11.88
314.134	11.98
314.346	11.18
314.558	11.49
314.77	10.49
314.982	10.34
315.193	10.27
315.405	10.5
315.617	10.14
315.829	10.28
316.041	10.28
316.253	10.5
316.465	9.49
316.677	9.72
316.888	9.73
317.1	10.21
317.312	10.16
317.524	9.14
317.736	9.59
317.947	10.74
318.159	10.51
318.371	10.5
318.583	10.51
318.794	11.09
319.006	10.98
319.218	10.57
319.43	10.79
319.641	10.94
319.853	11.93
320.064	12.31
320.276	10.97
320.488	10.8
320.699	10.4
320.911	10.08
321.123	9.34
321.334	10.07
321.546	10.08
321.757	9.86
321.969	9.7
322.18	10.02
322.392	8.87
322.603	8.64
322.815	8.35
323.026	8.38
323.238	7.89
323.449	8.37
323.661	7.7
323.872	8.04
324.083	7.61
324.295	8.11
324.506	7.55
324.718	7.87
324.929	8.03
325.14	8.59
325.352	8.76
325.563	9.59
325.774	9.97
325.986	10.4
326.197	11.16
326.408	11.64
326.62	11.38
326.831	11.67
327.042	11.33
327.253	11.18
327.464	11.22
327.676	11.14
327.887	10.57
328.098	10.23
328.309	10.45
328.52	10.32
328.732	9.91
328.943	10.46
329.154	10.57
329.365	10.87
329.576	11.28
329.787	11.26
329.998	11.51
330.209	12.4
330.42	13
330.631	12.62
330.842	12.24
331.053	11.99
331.264	11.37
331.475	11.63
331.686	11.97
331.897	12.04
332.108	11.74
332.319	11.45
332.53	11.36
332.741	11.22
332.952	11.83
333.163	11.85
333.374	12.25
333.585	12.18
333.795	12.23
334.006	12.26
334.217	12.65
334.428	12.76
334.639	13.16
334.849	12.89
335.06	12.27
335.271	11.77
335.482	10.85
335.692	10.82
335.903	10.36
336.114	9.69
336.325	9.73
336.535	9.39
336.746	9.27
336.957	8.97
337.167	9.05
337.378	9.79
337.589	10.16
337.799	10.57
338.01	10.64
338.22	11.56
338.431	12.26
338.642	12.46
338.852	12.54
339.063	12.57
339.273	12.16
339.484	11.72
339.694	11.04
339.905	10.73
340.115	10.78
340.326	10.81
340.536	10.46
340.746	10.28
340.957	9.79
341.167	9.66
341.378	9.8
341.588	10.24
341.799	10.12
342.009	10.48
342.219	10.2
342.43	10.11
342.64	9.67
342.85	9.44
343.061	8.86
343.271	8.73
343.481	8.63
343.691	8.32
343.902	8.15
344.112	8.63
344.322	8.6
344.532	8.88
344.743	8.92
344.953	9.48
345.163	9.38
345.373	9.98
345.583	9.98
345.793	9.91
346.004	9.94
346.214	10.38
346.424	10.42
346.634	10.04
346.844	9.75
347.054	9.61
347.264	9.72
347.474	10.04
347.684	9.83
347.894	9.72
348.104	9.92
348.314	10.08
348.524	9.24
348.734	8.85
348.944	9.09
349.154	9.37
349.364	9.65
349.574	8.85
349.784	8.88
349.994	8.99
350.204	8.98
350.413	8.84
350.623	8.67
350.833	8.43
351.043	8.69
351.253	8.22
351.463	8.09
351.672	8.1
351.882	9.04
352.092	8.7
352.302	8.77
352.511	9.06
352.721	8.66
352.931	9.22
353.141	9.83
353.35	9.61
353.56	9.76
353.77	9.73
353.979	9.6
354.189	9.24
354.399	9.19
354.608	8.86
354.818	9
355.027	9.37
355.237	9.09
355.447	9.27
355.656	9.16
355.866	9.18
356.075	9.16
356.285	9.35
356.494	9.48
356.704	9.4
356.913	9.25
357.123	8.77
357.332	8.57
357.542	8.47
357.751	8.45
357.96	8.89
358.17	9.09
358.379	9.33
358.589	9.45
358.798	9.25
359.007	9.46
359.217	9.58
359.426	9.63
359.635	9.76
359.845	9.64
360.054	9.43
360.263	9.47
360.472	9.1
360.682	9.01
360.891	8.63
361.1	8.63
361.309	8.75
361.519	8.69
361.728	8.92
361.937	8.88
362.146	8.66
362.355	8.49
362.564	8.23
362.774	8.56
362.983	8.45
363.192	8.39
363.401	8.34
363.61	8.3
363.819	8.46
364.028	8.58
364.237	7.99
364.446	8.32
364.655	8.15
364.864	8.24
365.073	8.57
365.282	8.17
365.491	8.29
365.7	8.75
365.909	8.71
366.118	8.42
366.327	8.38
366.536	8.79
366.745	8.96
366.954	9.13
367.162	8.93
367.371	8.61
367.58	9.11
367.789	8.77
367.998	7.81
368.207	7.55
368.415	7.57
368.624	7.64
368.833	7.48
369.042	7.14
369.25	7.61
369.459	7.43
369.668	7.33
369.877	6.97
370.085	7.32
370.294	7.57
370.503	7.33
370.711	7.2
370.92	6.86
371.129	7.1
371.337	6.81
371.546	6.48
371.754	6.58
371.963	6.31
372.171	6.3
372.38	6.57
372.589	6.78
372.797	6.98
373.006	7.14
373.214	7.27
373.423	6.93
373.631	7.4
373.84	7.32
374.048	7.23
374.256	7.5
374.465	7.65
374.673	7.31
374.882	7.05
375.09	7.11
375.298	7.06
375.507	7.16
375.715	7.32
375.923	7.08
376.132	6.97
376.34	6.77
376.548	6.39
376.757	6.3
376.965	6.09
377.173	6.02
377.381	6.14
377.59	6.04
377.798	5.78
378.006	5.6
378.214	5.91
378.423	6.01
378.631	6.19
378.839	6.3
379.047	6.49
379.255	6.49
379.463	6.52
379.671	6.22
379.879	6.25
380.088	6.3
380.296	6.5
380.504	6.17
380.712	5.93
380.92	6.12
381.128	6.01
381.336	5.37
381.544	5.35
381.752	5.46
381.96	5.41
382.168	5.49
382.376	5.5
382.584	5.25
382.791	5.49
382.999	5.69
383.207	5.37
383.415	5.25
383.623	5.51
383.831	5.58
384.039	5.66
384.247	5.82
384.454	5.75
384.662	5.59
384.87	5.77
385.078	5.46
385.285	5.23
385.493	5.35
385.701	5.44
385.909	5.48
386.116	5.55
386.324	5.36
386.532	5.3
386.739	5.49
386.947	5.4
387.155	5.42
387.362	5.5
387.57	5.92
387.778	5.87
387.985	5.9
388.193	5.77
388.4	5.64
388.608	5.57
388.816	5.56
389.023	5.23
389.231	5.2
389.438	4.9
389.646	5.08
389.853	4.81
390.061	4.54
390.268	4.81
390.475	4.89
390.683	4.94
390.89	5.02
391.098	4.99
391.305	5.15
391.512	5.1
391.72	5.24
391.927	4.96
392.135	4.92
392.342	5.06
392.549	4.93
392.756	5.13
392.964	4.87
393.171	4.94
393.378	4.99
393.586	4.83
393.793	4.93
394	4.81
394.207	4.76
394.414	4.89
394.622	5.07
394.829	4.83
395.036	4.57
395.243	4.7
395.45	4.53
395.657	4.5
395.864	4.44
396.072	4.52
396.279	4.34
396.486	4.41
396.693	4.25
396.9	3.98
397.107	4.06
397.314	4.05
397.521	4.08
397.728	3.94
397.935	3.97
398.142	3.99
398.349	3.88
398.556	4.08
398.763	4.12
398.97	4.01
399.177	4.22
399.383	4.21
399.59	4.21
399.797	4.1
400.004	4.25
400.211	4.06
400.418	4.05
400.625	3.82
400.831	3.79
401.038	3.86
401.245	3.98
401.452	3.79
401.658	3.92
401.865	3.79
402.072	3.87
402.279	3.88
402.485	3.82
402.692	3.82
402.899	3.99
403.105	4.05
403.312	4.07
403.519	4.02
403.725	4.07
403.932	4.12
404.138	4.17
404.345	4.01
404.552	3.98
404.758	4.09
404.965	3.96
405.171	3.8
405.378	3.84
405.584	3.63
405.791	3.6
405.997	3.68
406.204	3.48
406.41	3.51
406.617	3.69
406.823	3.57
407.029	3.48
407.236	3.64
407.442	3.86
407.649	3.82
407.855	3.96
408.061	3.89
408.268	3.7
408.474	3.66
408.68	3.71
408.887	3.7
409.093	3.84
409.299	3.87
409.505	3.95
409.712	3.69
409.918	3.55
410.124	3.37
410.33	3.38
410.537	3.42
410.743	3.42
410.949	3.48
411.155	3.44
411.361	3.35
411.567	3.43
411.773	3.39
411.98	3.56
412.186	3.67
412.392	3.64
412.598	3.78
412.804	3.77
413.01	3.76
413.216	3.56
413.422	3.49
413.628	3.58
413.834	3.46
414.04	3.38
414.246	3.39
414.452	3.31
414.658	3.24
414.864	3.06
415.07	3.14
415.275	3.19
415.481	3.2
415.687	3.09
415.893	3.01
416.099	3.03
416.305	3
416.511	3.03
416.716	3.03
416.922	3.1
417.128	3.17
417.334	3.18
417.539	3.12
417.745	3.11
417.951	3.18
418.157	3.15
418.362	3.13
418.568	3.09
418.774	3.01
418.979	2.93
419.185	2.97
419.391	2.96
419.596	2.92
419.802	2.91
420.008	2.96
420.213	3.09
420.419	3.17
420.624	3.18
420.83	3.17
421.035	3.19
421.241	3.24
421.446	3.2
421.652	3.15
421.857	3.12
422.063	3.14
422.268	3.09
422.474	2.96
422.679	2.93
422.885	2.95
423.09	2.9
423.295	2.96
423.501	2.91
423.706	2.89
423.911	2.88
424.117	2.91
424.322	2.89
424.527	2.88
424.733	2.86
424.938	2.75
425.143	2.71
425.349	2.85
425.554	2.69
425.759	2.9
425.964	2.9
426.169	3
426.375	2.97
426.58	3.02
426.785	3.21
426.99	3.29
427.195	3.47
427.4	3.46
427.605	3.4
427.811	3.53
428.016	3.24
428.221	3.25
428.426	3.23
428.631	3.28
428.836	3.17
429.041	2.98
429.246	2.82
429.451	2.73
429.656	2.71
429.861	2.69
430.066	2.59
430.271	2.73
430.476	2.83
430.681	2.89
430.886	2.84
431.09	2.85
431.295	2.92
431.5	3.02
431.705	3.04
431.91	3.15
432.115	3.13
432.32	3.25
432.524	3.2
432.729	3.13
432.934	3.03
433.139	3.01
433.343	3.04
433.548	2.93
433.753	2.95
433.958	2.97
434.162	2.91
434.367	2.9
434.572	2.83
434.776	2.89
434.981	2.86
435.186	2.79
435.39	2.83
435.595	2.76
435.799	2.7
436.004	2.68
436.209	2.53
436.413	2.44
436.618	2.39
436.822	2.38
437.027	2.33
437.231	2.36
437.436	2.45
437.64	2.43
437.845	2.47
438.049	2.53
438.253	2.51
438.458	2.64
438.662	2.72
438.867	2.72
439.071	2.8
439.275	2.72
439.48	2.7
439.684	2.7
439.888	2.65
440.093	2.63
440.297	2.64
440.501	2.61
440.706	2.63
440.91	2.62
441.114	2.59
441.318	2.56
441.523	2.63
441.727	2.57
441.931	2.44
442.135	2.54
442.339	2.63
442.543	2.7
442.748	2.64
442.952	2.53
443.156	2.53
443.36	2.62
443.564	2.52
443.768	2.52
443.972	2.51
444.176	2.75
444.38	2.7
444.584	2.57
444.788	2.51
444.992	2.55
445.196	2.58
445.4	2.54
445.604	2.52
445.808	2.66
446.012	2.63
446.216	2.67
446.42	2.48
446.624	2.48
446.828	2.57
447.032	2.58
447.235	2.59
447.439	2.52
447.643	2.41
447.847	2.36
448.051	2.2
448.254	2.3
448.458	2.32
448.662	2.35
448.866	2.31
449.069	2.28
449.273	2.24
449.477	2.25
449.681	2.31
449.884	2.47
450.088	2.43
450.292	2.41
450.495	2.22
450.699	2.26
450.902	2.32
451.106	2.31
451.31	2.31
451.513	2.29
451.717	2.32
451.92	2.36
452.124	2.33
452.327	2.37
452.531	2.39
452.734	2.47
452.938	2.37
453.141	2.36
453.345	2.43
453.548	2.53
453.752	2.56
453.955	2.62
454.158	2.63
454.362	2.68
454.565	2.8
454.769	2.74
454.972	2.77
455.175	2.84
455.379	2.75
455.582	2.66
455.785	2.55
455.988	2.57
456.192	2.36
456.395	2.27
456.598	2.23
456.801	2.17
457.005	2.3
457.208	2.37
457.411	2.43
457.614	2.41
457.817	2.4
458.021	2.42
458.224	2.39
458.427	2.5
458.63	2.49
458.833	2.55
459.036	2.52
459.239	2.46
459.442	2.43
459.645	2.41
459.848	2.43
460.051	2.47
460.254	2.45
460.457	2.53
460.66	2.57
460.863	2.62
461.066	2.5
461.269	2.53
461.472	2.5
461.675	2.46
461.878	2.38
462.081	2.42
462.284	2.35
462.486	2.31
462.689	2.18
462.892	2.09
463.095	2.13
463.298	2.09
463.5	2.08
463.703	2.02
463.906	2.09
464.109	2.09
464.311	2.08
464.514	2.2
464.717	2.35
464.92	2.32
465.122	2.16
465.325	2.19
465.528	2.27
465.73	2.29
465.933	2.33
466.135	2.2
466.338	2.28
466.541	2.41
466.743	2.35
466.946	2.22
467.148	2.38
467.351	2.51
467.553	2.44
