Data from 2938573_Reflection_2.txt Node
Date: Sun Jun 14 21:49:55 EDT 2015
User: robert
Spectrometer: USB4E03002
Autoset integration time: false
Trigger mode: 4
Integration Time (sec): 1.000000E-1
Scans to average: 10
Electric dark correction enabled: true
Nonlinearity correction enabled: false
Boxcar width: 5
Stray light correction enabled: false
XAxis mode: Wavelengths
Stop averaging: false
Number of Pixels in Spectrum: 3648
>>>>>Begin Spectral Data<<<<<
177.575	378.04
177.794	540.72
178.014	7697.4
178.233	-20009.37
178.452	-1365.02
178.672	-853.71
178.891	0.18
179.11	260.82
179.33	196.54
179.549	315.47
179.768	586.46
179.987	430.23
180.207	488.5
180.426	833.55
180.645	865.67
180.864	457.24
181.084	444.31
181.303	565.34
181.522	366.6
181.741	382.62
181.96	283.53
182.179	297.4
182.398	280.38
182.618	288.48
182.837	221.94
183.056	180.32
183.275	218.93
183.494	272.43
183.713	273.53
183.932	258.87
184.151	251.92
184.37	291.01
184.589	263.94
184.808	255.57
185.027	249.22
185.246	329.01
185.465	341.18
185.684	343.36
185.903	381.74
186.122	318.93
186.341	357.34
186.56	346.59
186.779	287.55
186.998	257.89
187.216	288.43
187.435	273.13
187.654	274.9
187.873	305.7
188.092	380.37
188.311	313.99
188.53	373.26
188.748	438.36
188.967	950.02
189.186	763.42
189.405	-2916.86
189.623	-67825
189.842	-1042.89
190.061	-1034.23
190.28	-1270.86
190.498	-2415.01
190.717	-5896.12
190.936	1944.77
191.154	2093.7
191.373	716.7
191.592	1473.87
191.81	449.9
192.029	546.96
192.248	381.2
192.466	296.75
192.685	241.86
192.904	286.04
193.122	286.3
193.341	262.37
193.559	242.63
193.778	272.74
193.996	265.06
194.215	299.78
194.433	269.73
194.652	254.8
194.87	285.73
195.089	277.77
195.307	218.98
195.526	228.2
195.744	268.62
195.963	254.56
196.181	294.63
196.399	315.59
196.618	274.66
196.836	254.92
197.055	265.33
197.273	272.77
197.491	321.48
197.71	374.45
197.928	347.99
198.146	321.15
198.365	399.67
198.583	304.74
198.801	257.16
199.019	282.7
199.238	306.11
199.456	243
199.674	219.35
199.892	205.12
200.111	193.79
200.329	190.03
200.547	180.82
200.765	164.64
200.983	143.2
201.202	135
201.42	137.78
201.638	133
201.856	142.11
202.074	156.18
202.292	169.41
202.51	216.87
202.728	224.71
202.946	237.05
203.165	240.46
203.383	236.71
203.601	229.36
203.819	231.66
204.037	261.74
204.255	313.71
204.473	368.92
204.691	274.5
204.909	244.55
205.127	241.26
205.345	174.9
205.562	180.53
205.78	202.61
205.998	209.69
206.216	192.51
206.434	212.89
206.652	205.99
206.87	204.27
207.088	202.66
207.306	220.79
207.523	233.11
207.741	285.47
207.959	267.69
208.177	234.28
208.395	243.93
208.612	302.88
208.83	239.49
209.048	211.73
209.266	205.5
209.483	247.61
209.701	216.58
209.919	209.76
210.136	208.22
210.354	246.39
210.572	263.32
210.79	287.29
211.007	278.99
211.225	301.3
211.442	255.08
211.66	231.63
211.878	222.79
212.095	238.03
212.313	193.21
212.53	203.9
212.748	178.02
212.966	173.21
213.183	171.36
213.401	158.26
213.618	184.63
213.836	259.62
214.053	259.55
214.271	207.25
214.488	196.23
214.705	230.15
214.923	225.79
215.14	228.91
215.358	200.15
215.575	171.88
215.793	197.65
216.01	184.42
216.227	156.05
216.445	168.45
216.662	152.67
216.879	148.22
217.097	140.87
217.314	130.87
217.531	138.8
217.749	154.33
217.966	181.18
218.183	153.59
218.4	142.11
218.618	150.42
218.835	126.54
219.052	135.92
219.269	137.26
219.487	146.45
219.704	151.5
219.921	139.5
220.138	137.05
220.355	130.36
220.572	125.1
220.79	115.15
221.007	115.02
221.224	112.01
221.441	113.98
221.658	108.64
221.875	102.84
222.092	88.97
222.309	85.22
222.526	81.09
222.743	77.99
222.96	76.12
223.177	81.09
223.394	68.81
223.611	72.58
223.828	67.75
224.045	62.87
224.262	56.4
224.479	57.66
224.696	54.29
224.913	52.47
225.13	47.73
225.347	42.56
225.564	39.23
225.781	37.07
225.997	35.04
226.214	31.16
226.431	29.09
226.648	26.1
226.865	24
227.082	23.32
227.298	22.19
227.515	21.53
227.732	20.59
227.949	19.51
228.165	19.6
228.382	18.74
228.599	18.83
228.816	18.96
229.032	18.73
229.249	19.82
229.466	19.05
229.682	20.52
229.899	21.73
230.116	21.98
230.332	22.64
230.549	22.88
230.765	21.18
230.982	20.13
231.199	20.73
231.415	24.01
231.632	20.04
231.848	21.14
232.065	17.87
232.281	17.81
232.498	18.77
232.714	20.04
232.931	21.52
233.147	23.08
233.364	24.4
233.58	23.7
233.797	26.38
234.013	30.46
234.23	30.42
234.446	32.35
234.662	31.44
234.879	32.4
235.095	29.57
235.312	29.25
235.528	31.41
235.744	30.8
235.961	30.76
236.177	24.64
236.393	25.15
236.61	26.39
236.826	26.76
237.042	26.99
237.258	25.04
237.475	26.02
237.691	24.88
237.907	22.81
238.123	24.61
238.339	25.15
238.556	25.93
238.772	23.87
238.988	21.46
239.204	20.5
239.42	19.43
239.636	19.12
239.853	18.41
240.069	16.96
240.285	15.5
240.501	13.9
240.717	13.27
240.933	12.88
241.149	12.86
241.365	13.28
241.581	13.6
241.797	13.73
242.013	12.88
242.229	13.07
242.445	13.83
242.661	14.66
242.877	15.26
243.093	15.14
243.309	14.56
243.525	14.34
243.741	13.87
243.957	12.99
244.173	12.12
244.388	12.8
244.604	12.11
244.82	11.81
245.036	11.29
245.252	10.75
245.468	10.84
245.683	11.15
245.899	11.23
246.115	10.77
246.331	10.86
246.547	11.23
246.762	11.34
246.978	11.47
247.194	12.12
247.409	12.36
247.625	12.94
247.841	13.06
248.057	13.24
248.272	13.17
248.488	14.36
248.703	13.45
248.919	13.63
249.135	13
249.35	13.12
249.566	12.32
249.782	12.5
249.997	12.46
250.213	11.17
250.428	11.54
250.644	11.92
250.859	11.57
251.075	12.36
251.29	11.69
251.506	12.2
251.721	13.04
251.937	13.5
252.152	14.33
252.368	15.06
252.583	17.69
252.798	17.9
253.014	17.32
253.229	16.77
253.445	17.71
253.66	18.6
253.875	19.01
254.091	18.37
254.306	18.25
254.521	17.39
254.737	15.58
254.952	14.06
255.167	14.34
255.383	14.76
255.598	15.12
255.813	13.81
256.028	13.82
256.244	12.49
256.459	12.06
256.674	11.03
256.889	10.23
257.104	9.99
257.32	9.74
257.535	9.01
257.75	8.54
257.965	8.7
258.18	8.92
258.395	8.59
258.61	8.64
258.826	8.41
259.041	8.45
259.256	8.53
259.471	8.76
259.686	8.78
259.901	9.05
260.116	9.2
260.331	8.65
260.546	8.96
260.761	9.15
260.976	9.34
261.191	9.93
261.406	10.51
261.621	11.23
261.836	11.53
262.05	11.33
262.265	11.22
262.48	12.1
262.695	12.82
262.91	13.74
263.125	13.38
263.34	13.95
263.555	13.9
263.769	13.25
263.984	12.53
264.199	12.58
264.414	12.94
264.629	13.26
264.843	13.19
265.058	13.18
265.273	11.4
265.488	11.45
265.702	10.69
265.917	10.62
266.132	10.7
266.346	11.11
266.561	11.65
266.776	11.38
266.99	11.53
267.205	11.09
267.42	10.51
267.634	10.6
267.849	10.23
268.063	10.64
268.278	10.71
268.492	11.01
268.707	10.33
268.922	9.44
269.136	9.66
269.351	9.23
269.565	9.28
269.78	8.58
269.994	8.82
270.209	9.5
270.423	9.24
270.637	8.85
270.852	8.54
271.066	9.31
271.281	9.45
271.495	9.36
271.709	9.25
271.924	8.93
272.138	10.01
272.353	10.21
272.567	9.91
272.781	10.44
272.996	10.66
273.21	10.88
273.424	10.74
273.638	10.75
273.853	10.45
274.067	10.71
274.281	11.61
274.495	11.21
274.71	11.29
274.924	11.14
275.138	10.71
275.352	10.48
275.566	11.11
275.781	10.94
275.995	11.29
276.209	12.18
276.423	12.11
276.637	11.52
276.851	11.73
277.065	11.45
277.279	11.58
277.493	11.72
277.707	11.57
277.921	10.95
278.135	10.13
278.349	9.67
278.563	8.85
278.777	9.03
278.991	8.56
279.205	8.8
279.419	8.9
279.633	8.79
279.847	8.34
280.061	8.05
280.275	8.08
280.489	8.78
280.703	8.93
280.917	8.85
281.131	8.35
281.344	8.79
281.558	8.55
281.772	8.37
281.986	8.2
282.2	8.23
282.414	8.22
282.627	7.41
282.841	7.13
283.055	7.15
283.269	7.26
283.482	7.4
283.696	7.2
283.91	7.03
284.123	6.54
284.337	6.58
284.551	6.57
284.764	6.92
284.978	7.32
285.192	6.95
285.405	6.93
285.619	7.04
285.833	7.03
286.046	6.72
286.26	7.04
286.473	7.41
286.687	8.07
286.9	8.05
287.114	7.79
287.327	7.98
287.541	8.73
287.754	8.22
287.968	8.1
288.181	8.05
288.395	8.25
288.608	8.26
288.822	7.97
289.035	7.06
289.248	7.26
289.462	7.63
289.675	7.52
289.889	7.43
290.102	7.29
290.315	7.57
290.529	7.84
290.742	8
290.955	7.6
291.169	8.11
291.382	8.81
291.595	9
291.808	9.24
292.022	9.78
292.235	9.42
292.448	10.17
292.661	10.11
292.875	9.97
293.088	10.11
293.301	10.6
293.514	10.28
293.727	9.91
293.94	9.74
294.153	9.49
294.367	8.67
294.58	8.48
294.793	7.88
295.006	7.89
295.219	7.56
295.432	7.56
295.645	7.13
295.858	7.09
296.071	6.89
296.284	6.88
296.497	6.84
296.71	7.12
296.923	7.53
297.136	7.83
297.349	7.82
297.562	7.88
297.775	8.05
297.988	8.39
298.201	8.94
298.414	9.07
298.626	9.16
298.839	9.18
299.052	9.16
299.265	9.28
299.478	9.16
299.691	9.35
299.903	9.4
300.116	8.85
300.329	9.08
300.542	8.73
300.755	8.91
300.967	9.23
301.18	9.03
301.393	9.07
301.605	8.28
301.818	8.5
302.031	8.14
302.243	8.52
302.456	8.92
302.669	8.59
302.881	9.26
303.094	9.31
303.307	9
303.519	9.23
303.732	9.56
303.944	10.18
304.157	10.32
304.37	10.27
304.582	10.1
304.795	10.15
305.007	10.47
305.22	9.98
305.432	9.92
305.645	10.14
305.857	10.18
306.069	9.76
306.282	9.41
306.494	9.01
306.707	9
306.919	8.77
307.132	8.53
307.344	8.23
307.556	8.18
307.769	8.6
307.981	7.97
308.193	7.81
308.406	7.48
308.618	7.75
308.83	7.68
309.043	7.68
309.255	7.82
309.467	7.9
309.679	8.04
309.892	8.15
310.104	7.92
310.316	8.08
310.528	8.2
310.74	8.55
310.953	8.57
311.165	8.62
311.377	8.61
311.589	8.88
311.801	8.98
312.013	8.87
312.225	8.69
312.437	8.84
312.649	9.48
312.862	9.37
313.074	9.63
313.286	9.59
313.498	9.79
313.71	10.22
313.922	9.9
314.134	9.98
314.346	9.92
314.558	10.31
314.77	10.85
314.982	10.71
315.193	11.03
315.405	10.81
315.617	10.49
315.829	10.48
316.041	10.17
316.253	9.98
316.465	10.42
316.677	10.36
316.888	10.61
317.1	10.24
317.312	9.9
317.524	9.53
317.736	9.91
317.947	10.47
318.159	11.22
318.371	11.52
318.583	11.97
318.794	11.32
319.006	11.39
319.218	11
319.43	10.6
319.641	11.32
319.853	11.26
320.064	11.73
320.276	12.01
320.488	11.35
320.699	11.65
320.911	11.36
321.123	11.69
321.334	11.84
321.546	11.77
321.757	12.3
321.969	11.99
322.18	12.56
322.392	12.11
322.603	11.82
322.815	11.85
323.026	11.19
323.238	11.44
323.449	11.52
323.661	11.21
323.872	11.48
324.083	11.68
324.295	11.73
324.506	11.48
324.718	11.2
324.929	11.24
325.14	11.51
325.352	12.05
325.563	12
325.774	11.96
325.986	12.52
326.197	12.53
326.408	12.34
326.62	12.16
326.831	12.56
327.042	13.16
327.253	13.4
327.464	13.49
327.676	13.18
327.887	13.41
328.098	13.56
328.309	13.36
328.52	13.47
328.732	13.54
328.943	13.82
329.154	14.08
329.365	13.61
329.576	13.52
329.787	13.54
329.998	14.22
330.209	14.42
330.42	15.07
330.631	15.08
330.842	15.01
331.053	14.76
331.264	14.71
331.475	14.84
331.686	15.17
331.897	15.16
332.108	15.34
332.319	14.87
332.53	14.93
332.741	14.32
332.952	14.32
333.163	14.07
333.374	14.36
333.585	14.33
333.795	14.07
334.006	14.1
334.217	13.99
334.428	14.04
334.639	14.49
334.849	14.14
335.06	14.01
335.271	13.92
335.482	14.3
335.692	14.28
335.903	14.46
336.114	14.22
336.325	14.15
336.535	14.86
336.746	14.55
336.957	14.43
337.167	14.48
337.378	14.31
337.589	14.86
337.799	14.94
338.01	14.86
338.22	14.6
338.431	14.26
338.642	14.44
338.852	13.6
339.063	13.64
339.273	13.13
339.484	13.31
339.694	13.62
339.905	13.9
340.115	13.36
340.326	13.22
340.536	13.5
340.746	13.75
340.957	13.78
341.167	14.13
341.378	13.94
341.588	14.22
341.799	14.5
342.009	14.47
342.219	13.84
342.43	13.87
342.64	14.18
342.85	13.97
343.061	13.94
343.271	13.99
343.481	13.69
343.691	13.89
343.902	13.9
344.112	13.66
344.322	13.4
344.532	13.49
344.743	13.35
344.953	13.01
345.163	12.89
345.373	12.86
345.583	12.53
345.793	12.7
346.004	12.74
346.214	12.65
346.424	12.65
346.634	12.76
346.844	12.67
347.054	12.81
347.264	12.86
347.474	12.83
347.684	13.11
347.894	13.15
348.104	12.86
348.314	12.54
348.524	12.09
348.734	11.87
348.944	11.73
349.154	11.92
349.364	12.11
349.574	11.94
349.784	11.73
349.994	11.86
350.204	11.54
350.413	11.9
350.623	12.1
350.833	12.34
351.043	12.19
351.253	12.68
351.463	12.11
351.672	12.33
351.882	12.19
352.092	12.53
352.302	12.24
352.511	12.52
352.721	12
352.931	11.99
353.141	12.02
353.35	12.4
353.56	11.81
353.77	12.15
353.979	11.87
354.189	12.23
354.399	12.15
354.608	12.03
354.818	12.26
355.027	12.9
355.237	12.99
355.447	12.86
355.656	12.62
355.866	12.9
356.075	12.97
356.285	12.81
356.494	12.75
356.704	12.73
356.913	12.76
357.123	12.38
357.332	11.75
357.542	11.59
357.751	11.77
357.96	11.96
358.17	11.61
358.379	11.43
358.589	11.51
358.798	11.41
359.007	11.46
359.217	11.3
359.426	11.06
359.635	11.41
359.845	11.36
360.054	11.27
360.263	11.14
360.472	11.33
360.682	11.31
360.891	11.21
361.1	11.13
361.309	11.17
361.519	11.39
361.728	11.71
361.937	11.56
362.146	11.72
362.355	11.92
362.564	12.13
362.774	11.88
362.983	11.69
363.192	11.81
363.401	11.79
363.61	11.7
363.819	11.77
364.028	11.51
364.237	11.61
364.446	11.43
364.655	11
364.864	10.85
365.073	11.32
365.282	11.7
365.491	11.59
365.7	11.64
365.909	11.66
366.118	11.64
366.327	11.59
366.536	11.64
366.745	11.83
366.954	12.19
367.162	12.12
367.371	11.96
367.58	11.96
367.789	11.69
367.998	11.63
368.207	11.84
368.415	11.5
368.624	11.91
368.833	11.72
369.042	11.63
369.25	11.7
369.459	11.68
369.668	11.52
369.877	11.21
370.085	11.61
370.294	11.68
370.503	11.41
370.711	11.82
370.92	11.75
371.129	11.85
371.337	11.88
371.546	11.55
371.754	11.76
371.963	11.8
372.171	11.83
372.38	11.75
372.589	11.84
372.797	12.02
373.006	11.71
373.214	11.53
373.423	11.49
373.631	11.34
373.84	11.49
374.048	11.02
374.256	10.92
374.465	11.23
374.673	11.26
374.882	10.95
375.09	10.77
375.298	10.85
375.507	10.88
375.715	10.88
375.923	10.68
376.132	10.65
376.34	10.64
376.548	10.71
376.757	10.62
376.965	10.57
377.173	10.74
377.381	10.84
377.59	10.82
377.798	10.74
378.006	10.72
378.214	11.1
378.423	11.24
378.631	11.51
378.839	11.73
379.047	11.88
379.255	11.86
379.463	12.02
379.671	11.86
379.879	11.7
380.088	12.07
380.296	12.04
380.504	11.84
380.712	11.95
380.92	11.85
381.128	11.75
381.336	11.36
381.544	11.38
381.752	11.43
381.96	11.38
382.168	11.25
382.376	11.27
382.584	11.37
382.791	11.3
382.999	11.18
383.207	11.19
383.415	11.39
383.623	11.64
383.831	11.65
384.039	11.43
384.247	11.5
384.454	11.72
384.662	11.46
384.87	11.49
385.078	11.75
385.285	11.66
385.493	11.71
385.701	11.16
385.909	11.15
386.116	11.03
386.324	11.18
386.532	11.19
386.739	11.28
386.947	11.32
387.155	11.47
387.362	11.36
387.57	11.35
387.778	11.41
387.985	11.79
388.193	11.8
388.4	11.88
388.608	12.06
388.816	12.29
389.023	12.33
389.231	12.22
389.438	12.01
389.646	12.05
389.853	12.18
390.061	12
390.268	12.02
390.475	12.13
390.683	12.34
390.89	12.18
391.098	12.03
391.305	11.97
391.512	12
391.72	11.87
391.927	11.78
392.135	11.87
392.342	12.1
392.549	11.99
392.756	11.74
392.964	11.49
393.171	11.66
393.378	11.68
393.586	11.61
393.793	11.66
394	11.6
394.207	11.72
394.414	11.6
394.622	11.49
394.829	11.6
395.036	11.58
395.243	11.73
395.45	11.47
395.657	11.48
395.864	11.57
396.072	11.72
396.279	11.87
396.486	11.91
396.693	12.06
396.9	12.07
397.107	12.01
397.314	12.28
397.521	12.33
397.728	12.29
397.935	12.23
398.142	12.16
398.349	11.93
398.556	11.91
398.763	11.75
398.97	11.81
399.177	11.63
399.383	11.78
399.59	11.62
399.797	11.62
400.004	11.73
400.211	11.87
400.418	12.1
400.625	12.25
400.831	12.2
401.038	12.27
401.245	12.08
401.452	12.06
401.658	11.98
401.865	12.1
402.072	11.98
402.279	12.14
402.485	11.97
402.692	11.85
402.899	11.77
403.105	11.87
403.312	11.92
403.519	11.86
403.725	11.95
403.932	12.01
404.138	11.8
404.345	11.84
404.552	11.68
404.758	11.9
404.965	11.95
405.171	11.89
405.378	11.8
405.584	11.79
405.791	11.87
405.997	12.03
406.204	12.23
406.41	12.33
406.617	12.48
406.823	12.44
407.029	12.43
407.236	12.43
407.442	12.7
407.649	12.88
407.855	12.81
408.061	12.87
408.268	12.78
408.474	12.54
408.68	12.57
408.887	12.66
409.093	12.7
409.299	12.63
409.505	12.41
409.712	12.28
409.918	12.1
410.124	11.94
410.33	11.7
410.537	11.75
410.743	11.81
410.949	11.83
411.155	11.67
411.361	11.61
411.567	11.41
411.773	11.44
411.98	11.33
412.186	11.45
412.392	11.55
412.598	11.6
412.804	11.49
413.01	11.19
413.216	11.21
413.422	11.23
413.628	11.2
413.834	11.4
414.04	11.43
414.246	11.45
414.452	11.46
414.658	11.51
414.864	11.58
415.07	11.62
415.275	11.84
415.481	11.88
415.687	11.85
415.893	11.85
416.099	11.68
416.305	11.78
416.511	11.82
416.716	11.73
416.922	11.62
417.128	11.65
417.334	11.56
417.539	11.49
417.745	11.4
417.951	11.37
418.157	11.36
418.362	11.38
418.568	11.38
418.774	11.31
418.979	11.34
419.185	11.31
419.391	11.18
419.596	11.13
419.802	11
420.008	11.01
420.213	10.43
420.419	10.53
420.624	10.52
420.83	10.4
421.035	10.47
421.241	10.44
421.446	10.45
421.652	10.43
421.857	10.44
422.063	10.5
422.268	10.4
422.474	10.87
422.679	10.76
422.885	10.71
423.09	10.74
423.295	10.63
423.501	10.64
423.706	10.67
423.911	10.68
424.117	10.77
424.322	10.79
424.527	10.85
424.733	10.89
424.938	10.91
425.143	11.04
425.349	10.99
425.554	10.94
425.759	11.01
425.964	10.99
426.169	11
426.375	10.93
426.58	10.87
426.785	10.89
426.99	10.97
427.195	10.97
427.4	10.78
427.605	10.93
427.811	11.07
428.016	11.08
428.221	11.16
428.426	11.23
428.631	11.25
428.836	11.25
429.041	11.24
429.246	11.15
429.451	11.19
429.656	11.28
429.861	11.24
430.066	11.27
430.271	11.23
430.476	11.24
430.681	11.27
430.886	11.35
431.09	11.43
431.295	11.45
431.5	11.47
431.705	11.42
431.91	11.41
432.115	11.28
432.32	11.23
432.524	11.05
432.729	11.09
432.934	11.08
433.139	11.11
433.343	11.05
433.548	11.02
433.753	11.04
433.958	11.04
434.162	11.04
434.367	11.14
434.572	11.17
434.776	11.27
434.981	11.12
435.186	11.1
435.39	11
435.595	11.08
435.799	11.02
436.004	10.97
436.209	10.89
436.413	10.9
436.618	10.88
436.822	10.81
437.027	10.86
437.231	10.87
437.436	10.8
437.64	10.71
437.845	10.6
438.049	10.63
438.253	10.64
438.458	10.73
438.662	10.65
438.867	10.65
439.071	10.76
439.275	10.7
439.48	10.75
439.684	10.73
439.888	10.85
440.093	10.86
440.297	10.87
440.501	10.84
440.706	10.68
440.91	10.8
441.114	10.68
441.318	10.62
441.523	10.63
441.727	10.57
441.931	10.66
442.135	10.58
442.339	10.63
442.543	10.6
442.748	10.67
442.952	10.79
443.156	10.71
443.36	10.84
443.564	10.84
443.768	10.79
443.972	10.84
444.176	10.78
444.38	10.75
444.584	10.75
444.788	10.71
444.992	10.64
445.196	10.61
445.4	10.59
445.604	10.45
445.808	10.46
446.012	10.43
446.216	10.4
446.42	10.44
446.624	10.45
446.828	10.45
447.032	10.49
447.235	10.51
447.439	10.47
447.643	10.5
447.847	10.6
448.051	10.68
448.254	10.71
448.458	10.78
448.662	10.71
448.866	10.73
449.069	10.77
449.273	10.7
449.477	10.79
449.681	10.9
449.884	10.89
450.088	10.93
450.292	10.68
450.495	10.69
450.699	10.68
450.902	10.73
451.106	10.66
451.31	10.64
451.513	10.71
451.717	10.6
451.92	10.6
452.124	10.74
452.327	10.82
452.531	10.92
452.734	11
452.938	10.89
453.141	10.81
453.345	10.79
453.548	10.74
453.752	10.86
453.955	10.92
454.158	10.92
454.362	10.74
454.565	10.72
454.769	10.82
454.972	10.89
455.175	10.95
455.379	11.03
455.582	11.07
455.785	11.01
455.988	10.83
456.192	10.77
456.395	10.7
456.598	10.67
456.801	10.69
457.005	10.7
