Data from 2938505_Reflection_3.txt Node
Date: Tue Jun 16 23:06:17 EDT 2015
User: robert
Spectrometer: USB4E03002
Autoset integration time: false
Trigger mode: 4
Integration Time (sec): 1.000000E-1
Scans to average: 10
Electric dark correction enabled: true
Nonlinearity correction enabled: false
Boxcar width: 5
Stray light correction enabled: false
XAxis mode: Wavelengths
Stop averaging: false
Number of Pixels in Spectrum: 3648
>>>>>Begin Spectral Data<<<<<
177.575	3008
177.794	-87.25
178.014	15.24
178.233	1.83
178.452	7.7
178.672	1.1
178.891	-71.37
179.11	687.5
179.33	457.29
179.549	605.85
179.768	77.1
179.987	862.4
180.207	-10.44
180.426	34.51
180.645	52.17
180.864	70.84
181.084	73.91
181.303	66.82
181.522	63.02
181.741	51.98
181.96	59.95
182.179	48.7
182.398	47.03
182.618	57.88
182.837	50.77
183.056	54.08
183.275	45.88
183.494	38.02
183.713	36.47
183.932	49.37
184.151	49.25
184.37	32.92
184.589	23.95
184.808	44.03
185.027	33.21
185.246	42.94
185.465	18.46
185.684	14.75
185.903	17.05
186.122	17.84
186.341	-4.25
186.56	-68.93
186.779	-141.92
186.998	-17.59
187.216	-45.38
187.435	-8.09
187.654	-96.44
187.873	-41.22
188.092	-0.8
188.311	-10.16
188.53	-3.3
188.748	15.8
188.967	17.93
189.186	13.86
189.405	-0.06
189.623	18.3
189.842	6.85
190.061	22.23
190.28	24.69
190.498	25.8
190.717	34.58
190.936	41.42
191.154	54.62
191.373	74.59
191.592	72.57
191.81	100.84
192.029	102.05
192.248	104.69
192.466	97.32
192.685	99.66
192.904	93.76
193.122	72.28
193.341	78.77
193.559	68.18
193.778	60.99
193.996	57.86
194.215	36.89
194.433	40.72
194.652	41.22
194.87	51.87
195.089	65.23
195.307	58.24
195.526	92.25
195.744	74.62
195.963	83.97
196.181	83.11
196.399	65.51
196.618	95.07
196.836	83.11
197.055	79.4
197.273	67.29
197.491	49.8
197.71	53.15
197.928	23.36
198.146	11.22
198.365	13.64
198.583	30.9
198.801	52.83
199.019	43.58
199.238	58.15
199.456	63.47
199.674	55.39
199.892	66.33
200.111	64.57
200.329	79.76
200.547	77.55
200.765	74.5
200.983	72.31
201.202	50.2
201.42	57.79
201.638	20.53
201.856	0.12
202.074	21.73
202.292	6.38
202.51	18.02
202.728	10.1
202.946	26.81
203.165	31.57
203.383	10.26
203.601	17
203.819	-9.91
204.037	5.23
204.255	25.73
204.473	32.78
204.691	25.49
204.909	31.47
205.127	42.12
205.345	47.8
205.562	75.83
205.78	73.76
205.998	98.3
206.216	124.15
206.434	102.51
206.652	89.13
206.87	95.43
207.088	101.63
207.306	97.44
207.523	94.48
207.741	91.4
207.959	81.68
208.177	100.36
208.395	89.11
208.612	77.15
208.83	74.87
209.048	80.15
209.266	56.67
209.483	51.25
209.701	37.34
209.919	27.84
210.136	41.58
210.354	34.03
210.572	14.46
210.79	0.71
211.007	11.85
211.225	15.51
211.442	15.59
211.66	13.45
211.878	8.16
212.095	-68.53
212.313	-59.45
212.53	-68.28
212.748	-101.78
212.966	-104.84
213.183	-63.94
213.401	-83.53
213.618	-87.08
213.836	-116.52
214.053	-87.12
214.271	-97
214.488	-18.6
214.705	-47.19
214.923	-57.38
215.14	-57.94
215.358	-40.42
215.575	-30.16
215.793	-22.24
216.01	2.09
216.227	11.1
216.445	11.55
216.662	31.06
216.879	45.56
217.097	57.91
217.314	59.54
217.531	48.3
217.749	43.09
217.966	38.54
218.183	36
218.4	22.38
218.618	27.3
218.835	40.46
219.052	32.27
219.269	17.07
219.487	15.28
219.704	19.52
219.921	35.65
220.138	38.1
220.355	34.47
220.572	38.47
220.79	48.87
221.007	39.03
221.224	25.79
221.441	26.22
221.658	29.15
221.875	19.61
222.092	15.78
222.309	12.56
222.526	13.36
222.743	13.39
222.96	19.19
223.177	18.84
223.394	16.8
223.611	15.58
223.828	13.81
224.045	12.09
224.262	17.32
224.479	19.02
224.696	17.47
224.913	18.2
225.13	19.99
225.347	14.71
225.564	10.41
225.781	13.27
225.997	15.72
226.214	14.94
226.431	14.45
226.648	13.42
226.865	13.18
227.082	12.61
227.298	11.13
227.515	10.1
227.732	10.45
227.949	11.09
228.165	9.6
228.382	8.12
228.599	8.34
228.816	8.63
229.032	8.75
229.249	9.23
229.466	9.44
229.682	9.83
229.899	10.17
230.116	9.05
230.332	9.61
230.549	13.27
230.765	14.21
230.982	14.15
231.199	14.1
231.415	14.13
231.632	13.25
231.848	13.3
232.065	13.16
232.281	14.43
232.498	16.21
232.714	16.39
232.931	14.6
233.147	14.75
233.364	14.08
233.58	12.4
233.797	10.85
234.013	9.78
234.23	10.76
234.446	12.17
234.662	10.23
234.879	9.49
235.095	6.44
235.312	4.32
235.528	2.01
235.744	2.5
235.961	4.41
236.177	4.32
236.393	5.52
236.61	4.42
236.826	3.63
237.042	2.48
237.258	2.63
237.475	3.39
237.691	4.25
237.907	4.81
238.123	4.2
238.339	3.27
238.556	4.54
238.772	4.68
238.988	5.52
239.204	6.12
239.42	8.43
239.636	7.27
239.853	8.04
240.069	9.16
240.285	9.24
240.501	9.88
240.717	10.99
240.933	9.8
241.149	10.06
241.365	9.91
241.581	9.23
241.797	9.27
242.013	9.81
242.229	9.81
242.445	9.33
242.661	10.09
242.877	9.52
243.093	8.49
243.309	9.8
243.525	9.64
243.741	9.46
243.957	9.91
244.173	9.22
244.388	9.66
244.604	9.33
244.82	8.94
245.036	8.96
245.252	8.94
245.468	9.06
245.683	8.85
245.899	9.11
246.115	9.09
246.331	8.7
246.547	8.8
246.762	8.71
246.978	8.89
247.194	9.17
247.409	9.25
247.625	9.17
247.841	9.21
248.057	9.22
248.272	8.38
248.488	7.85
248.703	7.87
248.919	7.78
249.135	7.82
249.35	7.72
249.566	7.73
249.782	6.81
249.997	7.36
250.213	7.35
250.428	7.17
250.644	7.85
250.859	8.49
251.075	9.15
251.29	9.03
251.506	7.92
251.721	7.43
251.937	6.53
252.152	6.78
252.368	6.31
252.583	5.79
252.798	5.66
253.014	4.89
253.229	5.2
253.445	5.82
253.66	4.48
253.875	6.3
254.091	7.48
254.306	9.16
254.521	10.19
254.737	9.89
254.952	9.48
255.167	9.61
255.383	9.55
255.598	8.41
255.813	7.53
256.028	8.23
256.244	7.72
256.459	6.73
256.674	5.74
256.889	5.14
257.104	5.84
257.32	6.47
257.535	6.38
257.75	6.44
257.965	6.55
258.18	6.97
258.395	6.87
258.61	7.2
258.826	7.42
259.041	7.89
259.256	8.09
259.471	8.05
259.686	7.54
259.901	7.78
260.116	7.56
260.331	7.91
260.546	7.64
260.761	7.63
260.976	7.28
261.191	7.37
261.406	6.37
261.621	6
261.836	5.61
262.05	6.94
262.265	6.79
262.48	7.42
262.695	8.03
262.91	7.7
263.125	7.81
263.34	7.82
263.555	7.57
263.769	8.09
263.984	7.99
264.199	8.01
264.414	7.55
264.629	7.19
264.843	6.76
265.058	5.82
265.273	5.95
265.488	6.65
265.702	6.93
265.917	6.73
266.132	6.6
266.346	7
266.561	7.07
266.776	6.63
266.99	6.45
267.205	6.75
267.42	7.17
267.634	7.03
267.849	6.36
268.063	6.32
268.278	6.95
268.492	7.11
268.707	7.15
268.922	7.16
269.136	7.15
269.351	7.74
269.565	7.74
269.78	7.23
269.994	7.22
270.209	7.58
270.423	7.48
270.637	7.59
270.852	7.56
271.066	7.53
271.281	7.06
271.495	7.08
271.709	6.69
271.924	6.62
272.138	6.9
272.353	6.76
272.567	6.04
272.781	5.82
272.996	5.42
273.21	5.44
273.424	5.4
273.638	5.7
273.853	5.99
274.067	6.35
274.281	6.38
274.495	6.96
274.71	6.65
274.924	7.65
275.138	7.73
275.352	7.63
275.566	7.82
275.781	7.36
275.995	7.88
276.209	7.83
276.423	7.75
276.637	8.03
276.851	6.94
277.065	7.06
277.279	6.9
277.493	7.14
277.707	7.28
277.921	6.67
278.135	6.78
278.349	6.76
278.563	6.78
278.777	6.6
278.991	6.3
279.205	6.96
279.419	7.18
279.633	6.81
279.847	6.63
280.061	6.7
280.275	6.66
280.489	7.16
280.703	7.06
280.917	7.27
281.131	7.48
281.344	7.42
281.558	7.34
281.772	7.35
281.986	7.23
282.2	6.94
282.414	6.37
282.627	6.58
282.841	5.97
283.055	5.93
283.269	5.69
283.482	5.57
283.696	5.48
283.91	5.41
284.123	5.79
284.337	5.81
284.551	6.3
284.764	6.8
284.978	7.07
285.192	7.24
285.405	7.32
285.619	7.78
285.833	8.15
286.046	8.33
286.26	8.4
286.473	7.87
286.687	8
286.9	7.74
287.114	7.42
287.327	7.48
287.541	7.04
287.754	6.69
287.968	6.21
288.181	5.77
288.395	6.01
288.608	5.99
288.822	6.1
289.035	5.91
289.248	5.7
289.462	5.93
289.675	5.39
289.889	5.95
290.102	5.89
290.315	5.58
290.529	5.86
290.742	4.98
290.955	5.11
291.169	5.43
291.382	5.49
291.595	5.42
291.808	5.12
292.022	5.89
292.235	5.97
292.448	5.83
292.661	6.21
292.875	6.19
293.088	6.7
293.301	6.47
293.514	6.44
293.727	6.47
293.94	6.57
294.153	6.74
294.367	6.32
294.58	5.95
294.793	5.99
295.006	5.87
295.219	5.58
295.432	5.59
295.645	5.5
295.858	5.53
296.071	5.87
296.284	6.07
296.497	6
296.71	6.3
296.923	6.74
297.136	6.79
297.349	6.82
297.562	6.82
297.775	6.71
297.988	6.86
298.201	7
298.414	7.03
298.626	6.59
298.839	6.7
299.052	6.69
299.265	6.2
299.478	6.8
299.691	6.83
299.903	6.91
300.116	7.27
300.329	7.24
300.542	7.16
300.755	7.35
300.967	7.7
301.18	7.67
301.393	7.59
301.605	7.43
301.818	6.93
302.031	7.01
302.243	7.09
302.456	6.83
302.669	6.95
302.881	6.96
303.094	5.98
303.307	6.18
303.519	6.55
303.732	6.15
303.944	6.51
304.157	6.75
304.37	6.84
304.582	6.59
304.795	6.16
305.007	6.31
305.22	5.58
305.432	6.16
305.645	5.93
305.857	5.25
306.069	5.68
306.282	5.63
306.494	5.43
306.707	5.4
306.919	5.51
307.132	6.25
307.344	5.89
307.556	6.36
307.769	6.25
307.981	6.16
308.193	6.54
308.406	6.5
308.618	6.41
308.83	6.91
309.043	7.01
309.255	7.46
309.467	7.58
309.679	7.59
309.892	7.92
310.104	8.12
310.316	8.18
310.528	8.02
310.74	7.88
310.953	8.05
311.165	7.53
311.377	7.82
311.589	7.93
311.801	7.46
312.013	7.54
312.225	6.71
312.437	6
312.649	6.12
312.862	6.53
313.074	6.92
313.286	6.81
313.498	7.05
313.71	6.78
313.922	6.18
314.134	6.33
314.346	6
314.558	6.45
314.77	7.22
314.982	7.23
315.193	6.54
315.405	6.29
315.617	6.3
315.829	6.26
316.041	6.26
316.253	6.27
316.465	6.73
316.677	7.02
316.888	6.95
317.1	6.95
317.312	6.74
317.524	6.65
317.736	6.31
317.947	6.1
318.159	5.85
318.371	5.5
318.583	5.75
318.794	5.31
319.006	5.68
319.218	5.56
319.43	5.23
319.641	5.33
319.853	5.66
320.064	5.96
320.276	6.53
320.488	6.84
320.699	7.09
320.911	6.93
321.123	6.92
321.334	6.89
321.546	7.45
321.757	7.62
321.969	7.55
322.18	7.63
322.392	7.68
322.603	7.62
322.815	7.71
323.026	7.53
323.238	7.49
323.449	7.58
323.661	7.63
323.872	7.43
324.083	6.9
324.295	6.81
324.506	7.09
324.718	6.79
324.929	6.82
325.14	6.31
325.352	6.3
325.563	6.29
325.774	6.19
325.986	6.01
326.197	5.92
326.408	6.29
326.62	6.59
326.831	6.34
327.042	6.25
327.253	6.39
327.464	6.88
327.676	7.19
327.887	7.49
328.098	7.38
328.309	7.42
328.52	7.69
328.732	7.91
328.943	7.36
329.154	7.45
329.365	7.56
329.576	6.96
329.787	6.8
329.998	7.1
330.209	7.05
330.42	7.3
330.631	7.37
330.842	6.87
331.053	6.32
331.264	7.02
331.475	7.13
331.686	7.23
331.897	7.37
332.108	7.26
332.319	6.52
332.53	6.11
332.741	6.07
332.952	5.77
333.163	6.22
333.374	6.49
333.585	5.95
333.795	5.82
334.006	5.84
334.217	6.09
334.428	6.06
334.639	6.22
334.849	6.09
335.06	6.34
335.271	6.86
335.482	6.67
335.692	6.92
335.903	6.81
336.114	6.83
336.325	6.77
336.535	6.73
336.746	6.7
336.957	7.13
337.167	7.61
337.378	7.41
337.589	7.01
337.799	7.38
338.01	6.92
338.22	7.2
338.431	7.05
338.642	7.12
338.852	7.05
339.063	7.26
339.273	7.07
339.484	7.12
339.694	6.87
339.905	7.08
340.115	6.87
340.326	7.08
340.536	6.84
340.746	6.79
340.957	6.92
341.167	6.8
341.378	6.58
341.588	6.26
341.799	6.31
342.009	6.05
342.219	5.82
342.43	5.59
342.64	5.78
342.85	5.84
343.061	5.99
343.271	5.82
343.481	5.74
343.691	6.21
343.902	6.24
344.112	6.18
344.322	6.35
344.532	6.49
344.743	6.65
344.953	6.63
345.163	6.78
345.373	6.75
345.583	6.6
345.793	6.91
346.004	6.84
346.214	7.06
346.424	6.98
346.634	7.21
346.844	7.12
347.054	6.92
347.264	6.75
347.474	6.82
347.684	6.89
347.894	7.22
348.104	7.21
348.314	6.85
348.524	6.74
348.734	6.84
348.944	6.67
349.154	6.31
349.364	6.51
349.574	6.44
349.784	6.4
349.994	6.22
350.204	6.2
350.413	5.89
350.623	5.92
350.833	5.56
351.043	5.18
351.253	5.62
351.463	6
351.672	6.24
351.882	6.29
352.092	6.46
352.302	6.45
352.511	6.6
352.721	6.77
352.931	6.72
353.141	7.34
353.35	7.35
353.56	7.01
353.77	7.16
353.979	6.5
354.189	6.78
354.399	6.54
354.608	6.84
354.818	6.42
355.027	6.46
355.237	6.48
355.447	6.28
355.656	6.29
355.866	6.35
356.075	6.18
356.285	6.46
356.494	6.2
356.704	6.17
356.913	6
357.123	6.08
357.332	5.74
357.542	5.69
357.751	5.4
357.96	5.54
358.17	5.24
358.379	5.04
358.589	4.92
358.798	4.88
359.007	4.78
359.217	4.79
359.426	4.82
359.635	4.79
359.845	4.89
360.054	5
360.263	4.95
360.472	5.06
360.682	5.14
360.891	5.19
361.1	5.23
361.309	5.3
361.519	5.26
361.728	5.12
361.937	5.26
362.146	4.95
362.355	5.02
362.564	5.07
362.774	5.08
362.983	4.93
363.192	4.92
363.401	4.88
363.61	4.9
363.819	4.87
364.028	5.13
364.237	5.15
364.446	5.4
364.655	5.42
364.864	5.43
365.073	5.52
365.282	5.74
365.491	5.94
365.7	6.03
365.909	6.1
366.118	5.98
366.327	5.81
366.536	5.88
366.745	6.01
366.954	6.04
367.162	5.9
367.371	6.23
367.58	6.31
367.789	6.19
367.998	5.93
368.207	5.77
368.415	5.67
368.624	5.71
368.833	5.76
369.042	5.72
369.25	5.38
369.459	5.2
369.668	4.65
369.877	4.41
370.085	4.12
370.294	4.11
370.503	4.31
370.711	4.33
370.92	4.14
371.129	3.95
371.337	3.82
371.546	3.86
371.754	4.02
371.963	3.97
372.171	4.02
372.38	4.43
372.589	4.51
372.797	4.52
373.006	4.66
373.214	5.02
373.423	5.13
373.631	5.14
373.84	5.4
374.048	5.37
374.256	5.77
374.465	5.65
374.673	5.57
374.882	5.61
375.09	5.32
375.298	5.22
375.507	4.83
375.715	4.89
375.923	4.99
376.132	4.79
376.34	4.82
376.548	4.81
376.757	4.94
376.965	4.73
377.173	4.65
377.381	4.7
377.59	4.53
377.798	4.73
378.006	4.61
378.214	4.55
378.423	4.72
378.631	4.43
378.839	4.22
379.047	4.41
379.255	4.5
379.463	4.67
379.671	4.8
379.879	5.06
380.088	4.96
380.296	4.65
380.504	4.58
380.712	4.53
380.92	4.77
381.128	4.86
381.336	4.79
381.544	4.93
381.752	4.85
381.96	4.79
382.168	4.63
382.376	4.8
382.584	5.01
382.791	5
382.999	4.79
383.207	4.89
383.415	4.94
383.623	4.64
383.831	4.63
384.039	4.53
384.247	4.54
384.454	4.58
384.662	4.22
384.87	4.26
385.078	4.27
385.285	4.35
385.493	4.45
385.701	4.19
385.909	4.45
386.116	4.23
386.324	4.17
386.532	4.19
386.739	4.29
386.947	4.62
387.155	4.5
387.362	4.5
387.57	4.62
387.778	4.21
387.985	4.26
388.193	4.15
388.4	4.39
388.608	4.51
388.816	4.43
389.023	4.44
389.231	4.61
389.438	4.75
389.646	4.72
389.853	4.56
390.061	4.61
390.268	4.45
390.475	4.55
390.683	4.54
390.89	4.37
391.098	4.4
391.305	4.23
391.512	4.09
391.72	3.8
391.927	3.84
392.135	3.98
392.342	4.09
392.549	4.22
392.756	4.16
392.964	3.91
393.171	3.9
393.378	3.74
393.586	3.86
393.793	3.74
394	3.94
394.207	3.96
394.414	3.81
394.622	3.68
394.829	3.92
395.036	3.77
395.243	3.86
395.45	3.89
395.657	3.98
395.864	3.96
396.072	4.11
396.279	4.23
396.486	4.19
396.693	4.22
396.9	4.32
397.107	4.22
397.314	4.2
397.521	4.25
397.728	4.23
397.935	4.17
398.142	3.98
398.349	3.72
398.556	3.46
398.763	3.22
398.97	3.23
399.177	3.2
399.383	3.02
399.59	3.1
399.797	3.19
400.004	3.07
400.211	3.1
400.418	3.22
400.625	3.36
400.831	3.51
401.038	3.57
401.245	3.41
401.452	3.33
401.658	3.39
401.865	3.37
402.072	3.07
402.279	3.11
402.485	3.25
402.692	3.1
402.899	3.16
403.105	3.21
403.312	3.39
403.519	3.45
403.725	3.45
403.932	3.45
404.138	3.44
404.345	3.49
404.552	3.59
404.758	3.45
404.965	3.58
405.171	3.44
405.378	3.52
405.584	3.37
405.791	3.37
405.997	3.27
406.204	3.28
406.41	3.38
406.617	3.56
406.823	3.47
407.029	3.54
407.236	3.55
407.442	3.6
407.649	3.31
407.855	3.26
408.061	3.19
408.268	3.3
408.474	3.18
408.68	2.99
408.887	2.85
409.093	3.07
409.299	2.9
409.505	2.87
409.712	2.92
409.918	3.08
410.124	3.17
410.33	3.16
410.537	3.07
410.743	3.07
410.949	3.28
411.155	3.49
411.361	3.32
411.567	3.68
411.773	3.75
411.98	3.78
412.186	3.72
412.392	3.73
412.598	3.77
412.804	3.96
413.01	4.1
413.216	3.98
413.422	3.87
413.628	3.83
413.834	3.5
414.04	3.41
414.246	3.19
414.452	3.04
414.658	3.08
414.864	3.12
415.07	2.99
415.275	2.84
415.481	2.73
415.687	2.62
415.893	2.54
416.099	2.6
416.305	2.46
416.511	2.53
416.716	2.48
416.922	2.28
417.128	2.28
417.334	2.34
417.539	2.44
417.745	2.57
417.951	2.6
418.157	2.64
418.362	2.63
418.568	2.74
418.774	2.66
418.979	2.7
419.185	2.81
419.391	2.82
419.596	2.74
419.802	2.58
420.008	2.38
420.213	3.02
420.419	3
420.624	3.01
420.83	3.01
421.035	3.09
421.241	3.12
421.446	3.03
421.652	3.01
421.857	2.97
422.063	3.07
422.268	3.19
422.474	2.5
422.679	2.58
422.885	2.57
423.09	2.64
423.295	2.66
423.501	2.63
423.706	2.7
423.911	2.77
424.117	2.85
424.322	2.82
424.527	2.8
424.733	2.94
424.938	2.9
425.143	2.86
425.349	2.75
425.554	2.79
425.759	2.79
425.964	2.77
426.169	2.56
426.375	2.54
426.58	2.63
426.785	2.57
426.99	2.31
427.195	2.36
427.4	2.38
427.605	2.33
427.811	2.16
428.016	2.1
428.221	2.01
428.426	2.04
428.631	2.04
428.836	1.99
429.041	2
429.246	2.06
429.451	2.02
429.656	2.05
429.861	2.07
430.066	2.09
430.271	2.28
430.476	2.44
430.681	2.57
430.886	2.5
431.09	2.53
431.295	2.58
431.5	2.54
431.705	2.53
431.91	2.55
432.115	2.65
432.32	2.64
432.524	2.55
432.729	2.43
432.934	2.38
433.139	2.38
433.343	2.28
433.548	2.33
433.753	2.37
433.958	2.32
434.162	2.26
434.367	2.09
434.572	2.15
434.776	2.27
434.981	2.23
435.186	2.18
435.39	2.25
435.595	2.25
435.799	2.19
436.004	2.24
436.209	2.22
436.413	2.37
436.618	2.36
436.822	2.34
437.027	2.3
437.231	2.32
437.436	2.39
437.64	2.39
437.845	2.38
438.049	2.28
438.253	2.24
438.458	2.27
438.662	2.19
438.867	2.24
439.071	2.21
439.275	2.15
439.48	2.22
439.684	2.27
439.888	2.22
440.093	2.26
440.297	2.3
440.501	2.32
440.706	2.37
440.91	2.33
441.114	2.26
441.318	2.3
441.523	2.24
441.727	2.3
441.931	2.28
442.135	2.29
442.339	2.27
442.543	2.33
442.748	2.39
442.952	2.33
443.156	2.28
443.36	2.41
443.564	2.36
443.768	2.31
443.972	2.28
444.176	2.18
444.38	2.25
444.584	2.26
444.788	2.18
444.992	2.07
445.196	2.06
445.4	2.14
445.604	2.08
445.808	2.07
446.012	2.16
446.216	2.09
446.42	2.19
446.624	2.06
446.828	2.06
447.032	2.07
447.235	2.1
447.439	2.19
447.643	2.13
447.847	2.15
448.051	2.11
448.254	2.08
448.458	2
448.662	1.95
448.866	2.04
449.069	2.03
449.273	1.98
449.477	2.06
449.681	2.02
449.884	1.99
450.088	1.95
450.292	1.95
450.495	1.98
450.699	2.05
450.902	1.89
451.106	1.87
451.31	1.83
451.513	1.89
451.717	1.77
451.92	1.75
452.124	1.76
452.327	1.77
452.531	1.89
452.734	1.85
452.938	1.83
453.141	1.93
453.345	1.97
453.548	2.06
453.752	2.08
453.955	2.11
454.158	2.07
454.362	1.97
454.565	1.97
454.769	1.82
454.972	1.84
455.175	1.82
455.379	1.86
455.582	1.76
455.785	1.78
455.988	1.78
456.192	1.82
456.395	1.81
456.598	1.98
456.801	2.03
457.005	2.05
457.208	2.06
457.411	2.16
457.614	2.19
457.817	2.26
458.021	2.18
458.224	2.25
458.427	2.26
458.63	2.25
458.833	2.2
459.036	2.15
459.239	2.23
459.442	2.24
459.645	2.22
459.848	2.24
460.051	2.13
460.254	2.16
460.457	2.15
460.66	2.11
460.863	2.1
461.066	2.06
461.269	2.1
461.472	2.01
461.675	2.1
461.878	2.13
462.081	2.08
462.284	2.3
462.486	2.33
462.689	2.23
462.892	2.32
463.095	2.4
463.298	2.55
463.5	2.63
463.703	2.64
463.906	2.47
464.109	2.44
464.311	2.39
464.514	2.23
464.717	2.17
464.92	2.21
465.122	2.21
465.325	2.12
465.528	2
465.73	1.87
465.933	2.05
466.135	2.1
466.338	2.09
466.541	2.14
466.743	2.24
466.946	2.34
467.148	2.28
467.351	2.27
467.553	2.22
467.756	2.27
467.958	2.28
468.161	2.18
468.363	2.18
468.566	2.16
468.768	2.11
468.971	1.97
469.173	1.95
469.375	2.11
469.578	2.09
469.78	2.23
469.983	2.23
470.185	2.28
470.387	2.23
470.59	2.14
470.792	2.18
470.994	2.19
471.196	2.37
471.399	2.41
471.601	2.34
471.803	2.28
472.005	2.17
472.208	2.13
472.41	2.22
