Data from 2938522_Reflection_1.txt Node
Date: Tue Jun 16 22:13:58 EDT 2015
User: robert
Spectrometer: USB4E03002
Autoset integration time: false
Trigger mode: 4
Integration Time (sec): 1.000000E-1
Scans to average: 10
Electric dark correction enabled: true
Nonlinearity correction enabled: false
Boxcar width: 5
Stray light correction enabled: false
XAxis mode: Wavelengths
Stop averaging: false
Number of Pixels in Spectrum: 3648
>>>>>Begin Spectral Data<<<<<
177.575	-149.61
177.794	-163.33
178.014	-61.43
178.233	-60.85
178.452	-27.35
178.672	16.68
178.891	148.42
179.11	1914.05
179.33	4210.73
179.549	1036.98
179.768	386.63
179.987	548.16
180.207	713.27
180.426	256.66
180.645	183.19
180.864	170.27
181.084	145.8
181.303	113.89
181.522	98.08
181.741	102.69
181.96	94.32
182.179	106.57
182.398	87.3
182.618	64.9
182.837	65.16
183.056	67.07
183.275	71.38
183.494	72.48
183.713	77.93
183.932	78.17
184.151	60.21
184.37	60.75
184.589	60.49
184.808	60.26
185.027	76.41
185.246	95.75
185.465	91.38
185.684	90.55
185.903	95.12
186.122	92.51
186.341	90.04
186.56	109.5
186.779	163.19
186.998	193.08
187.216	216.93
187.435	345.94
187.654	325.03
187.873	495.73
188.092	597.31
188.311	-394.84
188.53	-255.83
188.748	-486.69
188.967	-9727.08
189.186	401.9
189.405	202.43
189.623	179.91
189.842	159.76
190.061	116.82
190.28	107.13
190.498	90.08
190.717	109.77
190.936	94.79
191.154	88.25
191.373	92.57
191.592	102.38
191.81	103.47
192.029	97.71
192.248	110.07
192.466	163.84
192.685	158.42
192.904	174.54
193.122	157.86
193.341	155.09
193.559	131.3
193.778	138.15
193.996	171.66
194.215	176.09
194.433	194.54
194.652	166.36
194.87	135.96
195.089	138.73
195.307	134.95
195.526	153.06
195.744	146.28
195.963	164.58
196.181	144.73
196.399	139.43
196.618	118.92
196.836	97.45
197.055	99.97
197.273	107.18
197.491	91.49
197.71	106.89
197.928	82.74
198.146	90.64
198.365	89.65
198.583	99.74
198.801	96.4
199.019	112.23
199.238	134.31
199.456	130.67
199.674	115.29
199.892	117.95
200.111	108.14
200.329	115.25
200.547	87.79
200.765	68.54
200.983	66.34
201.202	55.9
201.42	53.67
201.638	37.8
201.856	46.69
202.074	51.06
202.292	19.92
202.51	17.86
202.728	28.8
202.946	47.56
203.165	47.78
203.383	41.23
203.601	77.79
203.819	58.04
204.037	44.02
204.255	43.15
204.473	43.17
204.691	75.84
204.909	71.87
205.127	77.33
205.345	88.65
205.562	82.45
205.78	88.22
205.998	70.64
206.216	70.94
206.434	91.75
206.652	94.06
206.87	105.97
207.088	104.19
207.306	107.32
207.523	99.3
207.741	93.04
207.959	107.58
208.177	96.83
208.395	99.5
208.612	105.51
208.83	97.54
209.048	91.54
209.266	78.72
209.483	63.58
209.701	56.77
209.919	50.71
210.136	49.09
210.354	43.02
210.572	44.01
210.79	47.93
211.007	45.96
211.225	52.9
211.442	54.31
211.66	62.19
211.878	70.23
212.095	154.06
212.313	181.67
212.53	199.3
212.748	175.57
212.966	167.31
213.183	153.34
213.401	175.43
213.618	157.7
213.836	175.84
214.053	155.84
214.271	163.63
214.488	67.2
214.705	63.8
214.923	66.66
215.14	54.93
215.358	56.42
215.575	66.13
215.793	60.87
216.01	54.89
216.227	51.75
216.445	57.28
216.662	64.12
216.879	67.06
217.097	61.49
217.314	56.38
217.531	64.86
217.749	64.88
217.966	59.72
218.183	51.03
218.4	44.19
218.618	52.09
218.835	49.03
219.052	40.08
219.269	45.01
219.487	41.9
219.704	55.45
219.921	46.27
220.138	48.83
220.355	50.83
220.572	60.35
220.79	62.83
221.007	59.25
221.224	55.46
221.441	57.37
221.658	55.8
221.875	57.52
222.092	40.49
222.309	39.72
222.526	34.98
222.743	35.44
222.96	29.05
223.177	34.11
223.394	31.75
223.611	33.84
223.828	35.8
224.045	31.03
224.262	30.43
224.479	31.2
224.696	30.34
224.913	32.86
225.13	29.15
225.347	27.42
225.564	23.21
225.781	20.58
225.997	18.43
226.214	17.32
226.431	16.8
226.648	15.03
226.865	15.3
227.082	14.7
227.298	12.82
227.515	12.51
227.732	12.94
227.949	12.7
228.165	12.96
228.382	12.99
228.599	13.28
228.816	12.94
229.032	11.91
229.249	11.78
229.466	12.23
229.682	12.92
229.899	14.06
230.116	13.28
230.332	14.26
230.549	14.02
230.765	14.44
230.982	15.96
231.199	16.57
231.415	20.1
231.632	18.93
231.848	18.67
232.065	18.05
232.281	18.45
232.498	19.98
232.714	18.58
232.931	19.65
233.147	19.57
233.364	17.04
233.58	17.3
233.797	15.86
234.013	17.3
234.23	18.64
234.446	17.72
234.662	16.56
234.879	14.89
235.095	16.39
235.312	15.69
235.528	18.66
235.744	18.19
235.961	16.68
236.177	15.06
236.393	14.72
236.61	13.99
236.826	15.23
237.042	16.4
237.258	17.9
237.475	17.9
237.691	18.74
237.907	16.77
238.123	18.11
238.339	19.44
238.556	20.16
238.772	19.84
238.988	18.74
239.204	17.42
239.42	16.29
239.636	14.77
239.853	13.65
240.069	12.3
240.285	11.82
240.501	10.51
240.717	10.01
240.933	9.12
241.149	9.01
241.365	9.33
241.581	9.78
241.797	9.47
242.013	9.5
242.229	10.14
242.445	10.71
242.661	9.83
242.877	10.8
243.093	10.63
243.309	11.76
243.525	10.95
243.741	10.31
243.957	9.85
244.173	9.61
244.388	10.04
244.604	9.32
244.82	8.64
245.036	8.91
245.252	9.02
245.468	9.3
245.683	8.94
245.899	8.8
246.115	9.03
246.331	8.87
246.547	9.08
246.762	9.33
246.978	9.56
247.194	10.06
247.409	10.63
247.625	10.5
247.841	10.21
248.057	10.38
248.272	11.35
248.488	11.51
248.703	11.46
248.919	11.43
249.135	10.06
249.35	9.61
249.566	8.83
249.782	8.16
249.997	8.85
250.213	8.59
250.428	8.81
250.644	8.31
250.859	8.1
251.075	8.78
251.29	8.63
251.506	9.25
251.721	9.21
251.937	9.99
252.152	9.57
252.368	8.69
252.583	9.33
252.798	9.31
253.014	9.96
253.229	10.02
253.445	10.39
253.66	10.21
253.875	8.78
254.091	9.66
254.306	8.91
254.521	10.44
254.737	9.97
254.952	8.91
255.167	8.49
255.383	8.2
255.598	7.09
255.813	5.95
256.028	6.68
256.244	7.63
256.459	7.56
256.674	7.41
256.889	6.6
257.104	6.63
257.32	6.99
257.535	6.88
257.75	6.72
257.965	7.03
258.18	7.11
258.395	7.09
258.61	6.99
258.826	6.73
259.041	7.03
259.256	7.31
259.471	7.17
259.686	7.17
259.901	7.08
260.116	6.8
260.331	6.36
260.546	6.66
260.761	6.14
260.976	6
261.191	6.08
261.406	5.77
261.621	5.42
261.836	5.09
262.05	4.64
262.265	5.02
262.48	5.74
262.695	6.21
262.91	5.76
263.125	6.66
263.34	6.14
263.555	6.16
263.769	6.31
263.984	6.29
264.199	7.28
264.414	7.17
264.629	7.25
264.843	7.19
265.058	7.52
265.273	7.68
265.488	6.97
265.702	7.73
265.917	8.56
266.132	8.55
266.346	8.46
266.561	8.33
266.776	8.37
266.99	8.27
267.205	8.11
267.42	7.96
267.634	7.78
267.849	8.53
268.063	8.32
268.278	7.19
268.492	7.04
268.707	7.41
268.922	7.22
269.136	7.19
269.351	6.82
269.565	6.47
269.78	6.35
269.994	6.53
270.209	6.1
270.423	6.12
270.637	6.44
270.852	5.88
271.066	5.67
271.281	5.78
271.495	5.61
271.709	6.18
271.924	6.09
272.138	6.5
272.353	6.79
272.567	6.97
272.781	6.93
272.996	7.71
273.21	8.46
273.424	8.93
273.638	8.92
273.853	9.84
274.067	9.51
274.281	10.16
274.495	10.04
274.71	9.73
274.924	9.83
275.138	9.71
275.352	8.23
275.566	8.02
275.781	7.84
275.995	7.68
276.209	7.06
276.423	7.1
276.637	7.2
276.851	6.87
277.065	6.77
277.279	7.01
277.493	7.07
277.707	7.92
277.921	7.8
278.135	7.67
278.349	8.16
278.563	8.23
278.777	8.41
278.991	8.09
279.205	7.8
279.419	7.66
279.633	7.24
279.847	6.8
280.061	6.84
280.275	6.97
280.489	6.82
280.703	6.29
280.917	6.33
281.131	6.03
281.344	6.41
281.558	6.6
281.772	6.97
281.986	7.05
282.2	7.23
282.414	6.73
282.627	6.72
282.841	6.76
283.055	7.01
283.269	6.84
283.482	6.78
283.696	6.5
283.91	6.59
284.123	6.17
284.337	6.06
284.551	6.07
284.764	6.25
284.978	6.22
285.192	6.25
285.405	6.15
285.619	5.94
285.833	6.34
286.046	6.24
286.26	5.98
286.473	6.26
286.687	6.45
286.9	6.29
287.114	6.17
287.327	6.23
287.541	6.05
287.754	6.11
287.968	6.74
288.181	6.26
288.395	6.32
288.608	6.71
288.822	6.65
289.035	6.5
289.248	6.41
289.462	6.76
289.675	6.66
289.889	6.94
290.102	6.83
290.315	6.74
290.529	6.86
290.742	6.63
290.955	6.37
291.169	6.38
291.382	7.05
291.595	7.55
291.808	7.37
292.022	7.79
292.235	7.55
292.448	8.06
292.661	7.64
292.875	7.75
293.088	8.3
293.301	8.51
293.514	8.34
293.727	8.19
293.94	8.15
294.153	7.7
294.367	7.38
294.58	6.88
294.793	6.37
295.006	6.2
295.219	6.17
295.432	5.88
295.645	5.41
295.858	5.32
296.071	4.81
296.284	4.8
296.497	5.03
296.71	5.09
296.923	5.46
297.136	5.41
297.349	5.89
297.562	5.83
297.775	5.72
297.988	6.15
298.201	6.49
298.414	6.69
298.626	6.66
298.839	6.68
299.052	6.33
299.265	6.56
299.478	6.6
299.691	6.43
299.903	6.44
300.116	6.6
300.329	6.63
300.542	6.77
300.755	6.52
300.967	6.21
301.18	6.16
301.393	6.42
301.605	5.59
301.818	5.85
302.031	6.07
302.243	5.84
302.456	5.77
302.669	5.46
302.881	5.67
303.094	6.13
303.307	6.24
303.519	6.14
303.732	6.68
303.944	7.11
304.157	7.21
304.37	6.95
304.582	6.95
304.795	7.01
305.007	7.27
305.22	6.72
305.432	6.67
305.645	6.73
305.857	7.4
306.069	7.1
306.282	7.46
306.494	7.05
306.707	6.99
306.919	7.58
307.132	7.38
307.344	7.19
307.556	6.88
307.769	6.8
307.981	6.73
308.193	6.42
308.406	6
308.618	6.13
308.83	6.31
309.043	6.06
309.255	5.72
309.467	5.58
309.679	5.84
309.892	6.1
310.104	6.16
310.316	6.77
310.528	6.68
310.74	7.15
310.953	6.91
311.165	6.72
311.377	6.87
311.589	7.14
311.801	7.26
312.013	7.7
312.225	7.52
312.437	7.31
312.649	7.05
312.862	6.95
313.074	6.66
313.286	6.61
313.498	6.86
313.71	6.99
313.922	7.21
314.134	7.21
314.346	6.67
314.558	6.59
314.77	7.13
314.982	6.81
315.193	6.92
315.405	6.88
315.617	6.85
315.829	6.79
316.041	6.44
316.253	6.05
316.465	6.72
316.677	6.67
316.888	7.05
317.1	6.8
317.312	7.14
317.524	7.04
317.736	7.28
317.947	8.03
318.159	7.82
318.371	7.67
318.583	8.15
318.794	7.69
319.006	7.85
319.218	7.78
319.43	7.75
319.641	7.25
319.853	7.61
320.064	7.69
320.276	7.36
320.488	7.59
320.699	8.06
320.911	7.69
321.123	7.49
321.334	7.55
321.546	7.67
321.757	7.7
321.969	8.16
322.18	7.81
322.392	7.5
322.603	7.16
322.815	7.13
323.026	7.28
323.238	7.27
323.449	7.92
323.661	8.02
323.872	7.71
324.083	7.81
324.295	7.29
324.506	7.25
324.718	7.38
324.929	7.68
325.14	8.12
325.352	8.05
325.563	8.2
325.774	7.97
325.986	7.61
326.197	7.94
326.408	7.59
326.62	7.82
326.831	7.97
327.042	7.98
327.253	8.3
327.464	8.08
327.676	7.77
327.887	7.59
328.098	7.29
328.309	7.55
328.52	7.47
328.732	7.46
328.943	7.52
329.154	7.79
329.365	7.29
329.576	6.8
329.787	6.36
329.998	6.55
330.209	6.55
330.42	6.9
330.631	6.41
330.842	6.53
331.053	6.48
331.264	6.52
331.475	6.2
331.686	6.53
331.897	6.44
332.108	6.79
332.319	6.87
332.53	6.47
332.741	6.15
332.952	6.36
333.163	6.23
333.374	6.39
333.585	6.46
333.795	6.3
334.006	6.61
334.217	6.39
334.428	6.28
334.639	6.58
334.849	6.67
335.06	6.73
335.271	6.92
335.482	6.74
335.692	6.66
335.903	6.09
336.114	6.62
336.325	6.38
336.535	6.89
336.746	7.14
336.957	6.92
337.167	7.55
337.378	7.61
337.589	7.71
337.799	7.82
338.01	8.21
338.22	8.47
338.431	8.68
338.642	8.59
338.852	8.36
339.063	7.99
339.273	7.93
339.484	7.39
339.694	7.01
339.905	6.26
340.115	6.34
340.326	5.94
340.536	5.93
340.746	5.22
340.957	5.23
341.167	5.32
341.378	5.12
341.588	5.04
341.799	5.05
342.009	5.34
342.219	5.94
342.43	5.87
342.64	5.88
342.85	5.84
343.061	6.03
343.271	6.24
343.481	5.59
343.691	5.8
343.902	6.08
344.112	6.12
344.322	5.91
344.532	5.92
344.743	5.63
344.953	5.59
345.163	5.56
345.373	5.33
345.583	5.14
345.793	5.35
346.004	5.34
346.214	4.72
346.424	4.65
346.634	4.9
346.844	5.22
347.054	5.48
347.264	5.43
347.474	5.33
347.684	5.56
347.894	5.52
348.104	5.73
348.314	5.7
348.524	5.69
348.734	5.31
348.944	5.35
349.154	4.75
349.364	4.49
349.574	4.23
349.784	4.18
349.994	4.14
350.204	3.91
350.413	3.98
350.623	3.98
350.833	4.43
351.043	4.79
351.253	4.53
351.463	4.5
351.672	5.13
351.882	5.48
352.092	5.66
352.302	5.54
352.511	5.63
352.721	5.9
352.931	6.22
353.141	6.01
353.35	6.33
353.56	6.27
353.77	6.39
353.979	6.42
354.189	6.19
354.399	6.23
354.608	6.3
354.818	6.42
355.027	6.09
355.237	5.91
355.447	5.8
355.656	5.46
355.866	5.59
356.075	5.53
356.285	5.16
356.494	5.49
356.704	5.66
356.913	6.01
357.123	5.97
357.332	6.02
357.542	5.95
357.751	6.08
357.96	6
358.17	6.12
358.379	6.15
358.589	6.25
358.798	5.78
359.007	5.55
359.217	5.2
359.426	5.14
359.635	5.26
359.845	5.12
360.054	4.97
360.263	5.12
360.472	4.93
360.682	4.93
360.891	4.9
361.1	5.09
361.309	5.28
361.519	5.29
361.728	5.27
361.937	5.15
362.146	5.16
362.355	5.34
362.564	5.18
362.774	5.24
362.983	5.2
363.192	5.27
363.401	5.32
363.61	5.2
363.819	5.16
364.028	5.17
364.237	4.92
364.446	4.96
364.655	4.68
364.864	4.68
365.073	4.66
365.282	4.75
365.491	4.59
365.7	4.5
365.909	4.41
366.118	4.37
366.327	4.32
366.536	4.47
366.745	4.61
366.954	4.83
367.162	5.05
367.371	5.25
367.58	5.25
367.789	5.25
367.998	5.31
368.207	5.23
368.415	5.07
368.624	5.02
368.833	5.01
369.042	4.93
369.25	4.79
369.459	4.7
369.668	4.5
369.877	4.13
370.085	4.05
370.294	4.12
370.503	4.08
370.711	4.41
370.92	4.24
371.129	4.19
371.337	4.1
371.546	4.06
371.754	4.12
371.963	4.01
372.171	4.29
372.38	4.42
372.589	4.67
372.797	4.54
373.006	4.32
373.214	4.89
373.423	5.09
373.631	5.01
373.84	5.15
374.048	5.01
374.256	5.23
374.465	5.24
374.673	5.2
374.882	4.85
375.09	4.83
375.298	5.05
375.507	4.73
375.715	4.77
375.923	4.98
376.132	4.92
376.34	5.01
376.548	4.58
376.757	4.63
376.965	4.68
377.173	4.72
377.381	4.96
377.59	4.98
377.798	5.02
378.006	4.9
378.214	4.65
378.423	4.56
378.631	4.42
378.839	4.77
379.047	4.45
379.255	4.25
379.463	4.24
379.671	3.97
379.879	3.76
380.088	3.6
380.296	3.33
380.504	3.66
380.712	3.9
380.92	3.99
381.128	3.94
381.336	4.11
381.544	4.04
381.752	3.96
381.96	4.2
382.168	3.99
382.376	4.08
382.584	4.52
382.791	4.17
382.999	4.18
383.207	4.09
383.415	4.04
383.623	3.97
383.831	4.16
384.039	4.18
384.247	3.95
384.454	3.99
384.662	3.85
384.87	3.55
385.078	3.72
385.285	3.48
385.493	3.5
385.701	3.5
385.909	3.44
386.116	3.13
386.324	3.08
386.532	3.23
386.739	3.44
386.947	3.59
387.155	3.55
387.362	3.44
387.57	3.53
387.778	3.3
387.985	3.31
388.193	3.25
388.4	3.22
388.608	3.28
388.816	3.15
389.023	3.02
389.231	2.83
389.438	2.96
389.646	2.98
389.853	3.03
390.061	3.29
390.268	3.28
390.475	3.35
390.683	3.47
390.89	3.51
391.098	3.64
391.305	3.77
391.512	3.93
391.72	3.82
391.927	3.6
392.135	3.33
392.342	3.07
392.549	3.07
392.756	3.16
392.964	3.08
393.171	3.04
393.378	3.02
393.586	2.91
393.793	2.81
394	2.9
394.207	3.13
394.414	3.42
394.622	3.51
394.829	3.57
395.036	3.57
395.243	3.68
395.45	3.64
395.657	3.49
395.864	3.47
396.072	3.66
396.279	3.6
396.486	3.56
396.693	3.38
396.9	3.53
397.107	3.32
397.314	3.31
397.521	3.4
397.728	3.39
397.935	3.62
398.142	3.63
398.349	3.41
398.556	3.29
398.763	3.45
398.97	3.55
399.177	3.45
399.383	3.49
399.59	3.29
399.797	3.26
400.004	3.21
400.211	3.04
400.418	2.97
400.625	3.17
400.831	3.35
401.038	3.06
401.245	3.05
401.452	2.93
401.658	3.03
401.865	3.1
402.072	3.08
402.279	3.17
402.485	3.24
402.692	3.29
402.899	3.1
403.105	2.93
403.312	2.93
403.519	2.89
403.725	2.88
403.932	2.84
404.138	2.88
404.345	2.7
404.552	2.72
404.758	2.53
404.965	2.51
405.171	2.52
405.378	2.5
405.584	2.73
405.791	2.68
405.997	2.85
406.204	2.68
406.41	2.74
406.617	2.95
406.823	2.8
407.029	2.82
407.236	2.86
407.442	2.97
407.649	2.95
407.855	2.71
408.061	2.83
408.268	2.62
408.474	2.67
408.68	2.68
408.887	2.55
409.093	2.72
409.299	2.83
409.505	2.76
409.712	2.71
409.918	2.91
410.124	3.06
410.33	3
410.537	3.14
410.743	3.29
410.949	3.01
411.155	3.1
411.361	2.77
411.567	2.75
411.773	2.64
411.98	2.64
412.186	2.48
412.392	2.47
412.598	2.5
412.804	2.39
413.01	2.3
413.216	2.39
413.422	2.4
413.628	2.61
413.834	2.52
414.04	2.52
414.246	2.45
414.452	2.38
414.658	2.41
414.864	2.31
415.07	2.51
415.275	2.63
415.481	2.64
415.687	2.6
415.893	2.53
416.099	2.48
416.305	2.58
416.511	2.57
416.716	2.63
416.922	2.59
417.128	2.64
417.334	2.53
417.539	2.3
417.745	2.27
417.951	2.31
418.157	2.37
418.362	2.43
418.568	2.38
418.774	2.4
418.979	2.38
419.185	2.25
419.391	2.16
419.596	2.13
419.802	2.2
420.008	2.16
420.213	2.82
420.419	2.82
420.624	2.79
420.83	2.77
421.035	2.8
421.241	2.78
421.446	2.82
421.652	2.91
421.857	2.9
422.063	2.92
422.268	2.98
422.474	2.23
422.679	2.23
422.885	2.23
423.09	2.19
423.295	2.09
423.501	2.09
423.706	2.09
423.911	2.03
424.117	2.1
424.322	2.09
424.527	2.1
424.733	2.13
424.938	2.05
425.143	2.09
425.349	2.16
425.554	2.3
425.759	2.35
425.964	2.39
426.169	2.55
426.375	2.45
426.58	2.45
426.785	2.42
426.99	2.47
427.195	2.51
427.4	2.59
427.605	2.68
427.811	2.53
428.016	2.47
428.221	2.5
428.426	2.31
428.631	2.35
428.836	2.46
429.041	2.59
429.246	2.52
429.451	2.42
429.656	2.15
429.861	2.07
430.066	2.21
430.271	2.23
430.476	2.22
430.681	2.35
430.886	2.31
431.09	2.26
431.295	2.12
431.5	2.1
431.705	2.16
431.91	2.27
432.115	2.23
432.32	2.17
432.524	2.14
432.729	2.18
432.934	2.06
433.139	2.16
433.343	2.13
433.548	2.17
433.753	2.2
433.958	2.19
434.162	2.17
434.367	2.21
434.572	2.18
434.776	2.15
434.981	2.17
435.186	2.24
435.39	2.15
435.595	2.14
435.799	2.1
436.004	2.11
436.209	2.12
436.413	2.07
436.618	2.16
436.822	2.18
437.027	2.26
437.231	2.13
437.436	2.1
437.64	2.09
437.845	2.07
438.049	2.05
438.253	2.08
438.458	2.06
438.662	2.07
438.867	2.03
439.071	1.97
439.275	1.93
439.48	2.01
439.684	1.98
439.888	2.08
440.093	2.1
440.297	2.06
440.501	1.99
440.706	2.04
440.91	2.07
441.114	2.04
441.318	2.13
441.523	2.21
441.727	2.19
441.931	2.27
442.135	2.14
442.339	2.09
442.543	2.16
442.748	2.14
442.952	2.11
443.156	2.06
443.36	2.03
443.564	1.97
443.768	1.83
443.972	1.81
444.176	1.85
444.38	1.91
444.584	1.9
444.788	1.92
444.992	1.95
445.196	1.97
445.4	1.95
445.604	1.99
445.808	2.05
446.012	2.04
446.216	2.02
446.42	1.93
446.624	1.88
446.828	1.98
447.032	1.94
447.235	1.96
447.439	1.92
447.643	1.93
447.847	1.83
448.051	1.78
448.254	1.79
448.458	1.79
448.662	1.8
448.866	1.88
449.069	1.81
449.273	1.92
449.477	1.83
449.681	1.76
449.884	1.84
450.088	1.81
450.292	1.84
450.495	1.91
450.699	2
450.902	2.04
451.106	1.85
451.31	1.83
451.513	1.84
451.717	1.92
451.92	1.96
452.124	1.95
452.327	2.09
452.531	2.07
452.734	2.09
452.938	2.13
453.141	2.17
453.345	2.25
453.548	2.2
453.752	2.08
453.955	2.1
454.158	2.17
454.362	2.05
454.565	2.03
454.769	2.04
454.972	2.07
455.175	1.99
455.379	1.97
455.582	2.09
455.785	2.23
455.988	2.15
456.192	2.08
456.395	1.97
456.598	2.07
456.801	1.98
457.005	1.91
457.208	1.84
457.411	1.8
457.614	1.69
457.817	1.64
458.021	1.62
458.224	1.74
458.427	1.66
458.63	1.74
458.833	1.77
459.036	1.76
459.239	1.81
459.442	1.81
459.645	1.85
459.848	1.91
460.051	1.94
460.254	1.91
460.457	1.86
460.66	2.01
460.863	2.03
461.066	2.09
461.269	2.17
461.472	2.25
461.675	2.24
461.878	2.36
462.081	2.29
462.284	2.28
462.486	2.28
462.689	2.29
462.892	2.34
463.095	2.32
463.298	2.1
463.5	2.19
463.703	2.02
463.906	2.14
464.109	2.04
464.311	2.18
464.514	2.26
464.717	2.29
464.92	2.29
465.122	2.27
465.325	2.24
465.528	2.31
465.73	2.23
465.933	2.31
466.135	2.29
466.338	2.24
466.541	2.21
466.743	2.15
466.946	2.16
467.148	2.12
467.351	2.03
467.553	2.05
467.756	2.03
467.958	2.06
468.161	1.98
468.363	1.95
468.566	2
468.768	2.02
468.971	1.98
469.173	1.91
469.375	1.91
469.578	1.92
469.78	1.89
469.983	1.92
470.185	1.88
