Data from 2938474_Reflection_1.txt Node
Date: Wed Jun 17 13:23:22 EDT 2015
User: robert
Spectrometer: USB4E03002
Autoset integration time: false
Trigger mode: 4
Integration Time (sec): 1.000000E-1
Scans to average: 10
Electric dark correction enabled: true
Nonlinearity correction enabled: false
Boxcar width: 5
Stray light correction enabled: false
XAxis mode: Wavelengths
Stop averaging: false
Number of Pixels in Spectrum: 3648
>>>>>Begin Spectral Data<<<<<
177.575	497.01
177.794	215.86
178.014	151.85
178.233	231.06
178.452	237.03
178.672	199.5
178.891	89.3
179.11	-186.98
179.33	-208.07
179.549	-539.02
179.768	-602
179.987	-430.04
180.207	-324.07
180.426	-702.79
180.645	-965.17
180.864	-246.89
181.084	-139.4
181.303	-116.47
181.522	-64.78
181.741	-89.07
181.96	-105.2
182.179	-240.37
182.398	-798.82
182.618	631.37
182.837	536.94
183.056	184.36
183.275	112.99
183.494	94.47
183.713	101.36
183.932	113.37
184.151	151.12
184.37	94.69
184.589	78.62
184.808	99.02
185.027	107.57
185.246	113.89
185.465	132.34
185.684	237.92
185.903	2572.13
186.122	381.22
186.341	255.16
186.56	195.05
186.779	267.26
186.998	524.35
187.216	646.55
187.435	259.48
187.654	268.76
187.873	326.64
188.092	1440.63
188.311	504.29
188.53	-244.17
188.748	-56.71
188.967	-61.75
189.186	-286.65
189.405	-218.91
189.623	-193.81
189.842	-51.29
190.061	-74.83
190.28	-136.15
190.498	-191.3
190.717	-435.56
190.936	-777.28
191.154	918.8
191.373	-5550.67
191.592	-1940.66
191.81	510.21
192.029	498.39
192.248	260.87
192.466	285.89
192.685	250.41
192.904	545.39
193.122	1512.11
193.341	2802.51
193.559	-354.03
193.778	-369.12
193.996	-362.6
194.215	-126.55
194.433	-160
194.652	-198
194.87	-267.61
195.089	-477.04
195.307	764.21
195.526	620.46
195.744	285.38
195.963	223.9
196.181	202.3
196.399	149.76
196.618	152.24
196.836	122.21
197.055	135.95
197.273	161.14
197.491	227.17
197.71	286.99
197.928	233.69
198.146	203.26
198.365	174.04
198.583	138.96
198.801	162.23
199.019	185.19
199.238	238.02
199.456	211.21
199.674	159.36
199.892	109.93
200.111	101.7
200.329	176.75
200.547	195.37
200.765	229.13
200.983	234.69
201.202	259.15
201.42	205.32
201.638	263.99
201.856	225.82
202.074	317.62
202.292	409.98
202.51	396.77
202.728	215.39
202.946	161.22
203.165	140.4
203.383	179.08
203.601	116.9
203.819	98.06
204.037	75.94
204.255	119.38
204.473	85.75
204.691	92.97
204.909	87.39
205.127	105.6
205.345	163.54
205.562	200.24
205.78	166.68
205.998	408.44
206.216	430.78
206.434	915.39
206.652	155.02
206.87	253.05
207.088	202.79
207.306	129.47
207.523	92.08
207.741	91.18
207.959	134.99
208.177	113.09
208.395	82.28
208.612	82.08
208.83	131.25
209.048	160.51
209.266	134.33
209.483	190.96
209.701	171.66
209.919	149.67
210.136	263.42
210.354	147.86
210.572	321.49
210.79	249.84
211.007	66.97
211.225	-312.67
211.442	18.39
211.66	21.67
211.878	36.97
212.095	61.38
212.313	81.8
212.53	71.32
212.748	71.77
212.966	49.84
213.183	62.81
213.401	93.75
213.618	84.48
213.836	67.05
214.053	74.29
214.271	86.05
214.488	71.9
214.705	46.52
214.923	24.5
215.14	14.71
215.358	37.39
215.575	34.28
215.793	29.98
216.01	42.55
216.227	37.92
216.445	38.65
216.662	40.01
216.879	37.48
217.097	50.02
217.314	66.65
217.531	72.55
217.749	67.32
217.966	55.64
218.183	53.24
218.4	47.9
218.618	63.66
218.835	53.92
219.052	47.16
219.269	53.28
219.487	60.8
219.704	56.57
219.921	49.7
220.138	51.16
220.355	52.37
220.572	46.36
220.79	41.16
221.007	39.11
221.224	33.09
221.441	50.6
221.658	59.23
221.875	56.66
222.092	56.85
222.309	50.64
222.526	48.99
222.743	47.59
222.96	49.68
223.177	50.92
223.394	43.93
223.611	44.26
223.828	38.75
224.045	37.53
224.262	33.46
224.479	27.29
224.696	27.27
224.913	25.2
225.13	22.19
225.347	19.92
225.564	20.89
225.781	18.24
225.997	18.38
226.214	16.74
226.431	13.32
226.648	14.02
226.865	14.87
227.082	15.84
227.298	14.89
227.515	14.53
227.732	13.79
227.949	13.09
228.165	12.92
228.382	12.98
228.599	12.21
228.816	12
229.032	11.05
229.249	11.56
229.466	10.86
229.682	12.1
229.899	11.81
230.116	13.72
230.332	13.96
230.549	15.17
230.765	15.29
230.982	17.4
231.199	16.67
231.415	18.47
231.632	17.24
231.848	17.78
232.065	16.87
232.281	16.74
232.498	15.06
232.714	13.65
232.931	13.71
233.147	12.87
233.364	11.88
233.58	12.68
233.797	12.18
234.013	12.58
234.23	13.98
234.446	14.56
234.662	15.6
234.879	17.45
235.095	18.68
235.312	18.4
235.528	17.15
235.744	17.15
235.961	18.94
236.177	19.56
236.393	19.36
236.61	18.1
236.826	16.73
237.042	16.11
237.258	13.76
237.475	12.18
237.691	13.53
237.907	14.53
238.123	15.76
238.339	15.78
238.556	14.48
238.772	13.03
238.988	12.53
239.204	13.8
239.42	14.22
239.636	14.96
239.853	14.5
240.069	13.47
240.285	12.96
240.501	12.04
240.717	11.32
240.933	11.34
241.149	12.35
241.365	12.2
241.581	11.9
241.797	12
242.013	11.3
242.229	11.42
242.445	11.46
242.661	11.95
242.877	11.52
243.093	11.51
243.309	11.41
243.525	10.98
243.741	11.72
243.957	11.36
244.173	10.94
244.388	11.43
244.604	11.84
244.82	11.65
245.036	11.06
245.252	11.15
245.468	10.97
245.683	11.01
245.899	10.85
246.115	10.5
246.331	10.47
246.547	10.13
246.762	10.17
246.978	10.02
247.194	10.3
247.409	10.89
247.625	11.42
247.841	11.46
248.057	11.66
248.272	12.01
248.488	12.35
248.703	12.16
248.919	13.14
249.135	12.25
249.35	12.25
249.566	12.01
249.782	11.92
249.997	10.78
250.213	10.82
250.428	11.02
250.644	11.19
250.859	10.47
251.075	10.87
251.29	11.14
251.506	11.67
251.721	11.49
251.937	11.85
252.152	11.92
252.368	12.92
252.583	14.34
252.798	14.26
253.014	14.23
253.229	15.16
253.445	14.88
253.66	13.87
253.875	12.95
254.091	13.11
254.306	12.91
254.521	13.23
254.737	11.97
254.952	11.6
255.167	10.77
255.383	9.95
255.598	9.45
255.813	9.78
256.028	10.2
256.244	10.65
256.459	10.87
256.674	10.12
256.889	9.42
257.104	9.67
257.32	9.37
257.535	9.42
257.75	9.46
257.965	9.52
258.18	9.29
258.395	8.97
258.61	9.29
258.826	9.12
259.041	9.16
259.256	9.19
259.471	8.85
259.686	8.73
259.901	8.59
260.116	8.92
260.331	8.47
260.546	8.44
260.761	8.62
260.976	8.12
261.191	7.78
261.406	8.18
261.621	7.82
261.836	8.12
262.05	7.36
262.265	7
262.48	6.34
262.695	7.34
262.91	8.38
263.125	7.78
263.34	8.06
263.555	8.44
263.769	8.21
263.984	8.85
264.199	9.17
264.414	9.47
264.629	10.1
264.843	10
265.058	9.27
265.273	8.26
265.488	8.35
265.702	7.83
265.917	7.76
266.132	7.65
266.346	7.52
266.561	7.3
266.776	7.75
266.99	7.48
267.205	7.63
267.42	7.64
267.634	8.3
267.849	8.28
268.063	8.38
268.278	8.63
268.492	8.69
268.707	8.08
268.922	8.19
269.136	7.37
269.351	7.16
269.565	7.26
269.78	7.57
269.994	7.72
270.209	7.73
270.423	8.02
270.637	8.22
270.852	8.26
271.066	8.5
271.281	8.56
271.495	9.17
271.709	9.6
271.924	9.47
272.138	9.56
272.353	8.83
272.567	8.63
272.781	8.43
272.996	8.24
273.21	8.55
273.424	8.98
273.638	9.11
273.853	8.52
274.067	8.7
274.281	8.93
274.495	8.52
274.71	8.78
274.924	9.52
275.138	9.38
275.352	9.1
275.566	8.15
275.781	7.52
275.995	7.48
276.209	8.05
276.423	7.4
276.637	7.08
276.851	7.61
277.065	8.3
277.279	8.39
277.493	8.39
277.707	8.46
277.921	8.95
278.135	9.32
278.349	9.35
278.563	9.13
278.777	9.45
278.991	9.73
279.205	9.23
279.419	8.74
279.633	8.14
279.847	7.8
280.061	7.59
280.275	7.64
280.489	7.43
280.703	7.36
280.917	7.6
281.131	7.62
281.344	7.39
281.558	7.2
281.772	7.16
281.986	7.38
282.2	7.7
282.414	7.87
282.627	7.57
282.841	7.73
283.055	7.95
283.269	7.76
283.482	7.45
283.696	7.45
283.91	7.57
284.123	7.97
284.337	7.76
284.551	8.02
284.764	8.23
284.978	8.61
285.192	8.66
285.405	8.52
285.619	8.47
285.833	8.93
286.046	9.01
286.26	9.51
286.473	9.21
286.687	9.55
286.9	8.77
287.114	8.95
287.327	8.98
287.541	9.03
287.754	8.97
287.968	9.29
288.181	9.48
288.395	9.73
288.608	9.7
288.822	9.57
289.035	9.66
289.248	9.99
289.462	9.75
289.675	9.77
289.889	9.84
290.102	9.74
290.315	9.5
290.529	8.68
290.742	8.59
290.955	8.36
291.169	8.92
291.382	9.09
291.595	9.71
291.808	10.28
292.022	9.77
292.235	10.21
292.448	10.97
292.661	11.58
292.875	12.19
293.088	12.24
293.301	12.27
293.514	11.59
293.727	11.63
293.94	11.47
294.153	11.08
294.367	11.28
294.58	11.11
294.793	10.95
295.006	10.44
295.219	10.56
295.432	10.51
295.645	10.51
295.858	10.81
296.071	10.89
296.284	11.17
296.497	10.97
296.71	10.88
296.923	10.84
297.136	10.64
297.349	10.58
297.562	10.84
297.775	11.09
297.988	11.3
298.201	11.53
298.414	11.19
298.626	11.12
298.839	11.53
299.052	11.99
299.265	12.07
299.478	12.15
299.691	12.53
299.903	12.36
300.116	11.89
300.329	12.37
300.542	11.78
300.755	12.08
300.967	11.91
301.18	11.89
301.393	11.66
301.605	11.26
301.818	11.35
302.031	11.15
302.243	11.24
302.456	11.97
302.669	11.67
302.881	12.67
303.094	12.62
303.307	12.61
303.519	12.52
303.732	12.53
303.944	12.87
304.157	13.04
304.37	13.44
304.582	13.19
304.795	13.03
305.007	12.79
305.22	12.15
305.432	12.39
305.645	12.79
305.857	13.16
306.069	13.53
306.282	13.32
306.494	12.74
306.707	12.73
306.919	12.43
307.132	11.57
307.344	11.89
307.556	11.95
307.769	11.72
307.981	11.8
308.193	12.09
308.406	12.2
308.618	12.47
308.83	13.13
309.043	13.19
309.255	13.45
309.467	14.11
309.679	13.64
309.892	13.95
310.104	13.75
310.316	13.74
310.528	13.35
310.74	13.38
310.953	13.53
311.165	13.05
311.377	12.6
311.589	13.04
311.801	13.28
312.013	13.9
312.225	14.08
312.437	14.2
312.649	13.86
312.862	13.9
313.074	14.21
313.286	14.08
313.498	14.42
313.71	14.78
313.922	14.69
314.134	14.39
314.346	14.77
314.558	14.55
314.77	15.36
314.982	15.92
315.193	16.13
315.405	16.01
315.617	15.85
315.829	15.95
316.041	15.8
316.253	15.78
316.465	15.79
316.677	15.3
316.888	15.06
317.1	14.52
317.312	14.39
317.524	15.01
317.736	15.01
317.947	15.57
318.159	15.41
318.371	15.99
318.583	15.98
318.794	15.72
319.006	16.38
319.218	16.32
319.43	16.73
319.641	16.42
319.853	16.02
320.064	15.75
320.276	15.81
320.488	15.59
320.699	15.59
320.911	15.55
321.123	16.4
321.334	16.21
321.546	16.12
321.757	16.06
321.969	16.8
322.18	16.84
322.392	17.03
322.603	16.88
322.815	16.99
323.026	16.61
323.238	15.96
323.449	14.82
323.661	14.58
323.872	14.98
324.083	15.02
324.295	14.86
324.506	14.62
324.718	14.66
324.929	14.47
325.14	14.58
325.352	14.7
325.563	14.98
325.774	15.84
325.986	15.63
326.197	15.55
326.408	15.67
326.62	15.01
326.831	15.03
327.042	14.97
327.253	14.72
327.464	14.53
327.676	14.7
327.887	14.88
328.098	14.4
328.309	14.38
328.52	14.17
328.732	13.78
328.943	14.03
329.154	14.02
329.365	14.2
329.576	14.44
329.787	14.98
329.998	14.94
330.209	15.06
330.42	15.32
330.631	15.19
330.842	15.56
331.053	15.42
331.264	15.07
331.475	14.61
331.686	14.5
331.897	15.01
332.108	14.46
332.319	14.14
332.53	14.26
332.741	14.32
332.952	14.52
333.163	14.65
333.374	14.96
333.585	15.22
333.795	15.19
334.006	15.15
334.217	14.5
334.428	14.61
334.639	15.29
334.849	14.83
335.06	14.09
335.271	13.91
335.482	13.54
335.692	13.54
335.903	13.57
336.114	13.66
336.325	13.57
336.535	13.63
336.746	13.84
336.957	14.05
337.167	14.23
337.378	15.14
337.589	15.37
337.799	15.11
338.01	14.89
338.22	14.89
338.431	15.33
338.642	15.27
338.852	15.19
339.063	15.07
339.273	14.44
339.484	14.37
339.694	13.63
339.905	13.84
340.115	14.38
340.326	14.61
340.536	14.71
340.746	14.57
340.957	14.41
341.167	14.39
341.378	14.14
341.588	14.26
341.799	14.04
342.009	13.84
342.219	13.45
342.43	13.3
342.64	13.05
342.85	12.66
343.061	12.58
343.271	12.91
343.481	12.84
343.691	13.07
343.902	12.63
344.112	13.4
344.322	13.77
344.532	13.73
344.743	13.44
344.953	13.25
345.163	13.47
345.373	13.4
345.583	13.24
345.793	13.18
346.004	13.38
346.214	12.87
346.424	12.22
346.634	12.09
346.844	12.51
347.054	12.58
347.264	12.46
347.474	12.57
347.684	12.35
347.894	11.63
348.104	11.75
348.314	11.66
348.524	11.96
348.734	11.73
348.944	11.84
349.154	11.27
349.364	11.75
349.574	12.1
349.784	12.01
349.994	12.49
350.204	12.94
350.413	12.7
350.623	12.64
350.833	12.43
351.043	12.6
351.253	12.33
351.463	12.51
351.672	11.68
351.882	11.76
352.092	11.68
352.302	11.41
352.511	11.57
352.721	12.03
352.931	11.77
353.141	12.15
353.35	12.04
353.56	11.82
353.77	11.77
353.979	11.9
354.189	11.53
354.399	11.71
354.608	11.51
354.818	11.35
355.027	11.11
355.237	11.21
355.447	11.35
355.656	11.4
355.866	11.58
356.075	11.41
356.285	11.51
356.494	11.47
356.704	11.47
356.913	11.67
357.123	11.82
357.332	11.56
357.542	11.52
357.751	11.34
357.96	11.3
358.17	11.33
358.379	11.51
358.589	11.03
358.798	10.96
359.007	10.95
359.217	10.84
359.426	10.68
359.635	10.93
359.845	10.91
360.054	10.89
360.263	10.62
360.472	10.77
360.682	10.75
360.891	11.18
361.1	11.45
361.309	11.19
361.519	11.19
361.728	11.01
361.937	10.77
362.146	10.56
362.355	10.54
362.564	10.72
362.774	10.56
362.983	10.45
363.192	10.02
363.401	9.88
363.61	9.61
363.819	9.78
364.028	10.1
364.237	10.29
364.446	10.31
364.655	10.38
364.864	10.45
365.073	10.49
365.282	10.52
365.491	10.85
365.7	10.92
365.909	11.16
366.118	11.03
366.327	10.82
366.536	10.43
366.745	10.63
366.954	10.36
367.162	10.27
367.371	9.94
367.58	9.75
367.789	9.62
367.998	9.39
368.207	9.26
368.415	9.17
368.624	9.27
368.833	9.49
369.042	9.6
369.25	9.73
369.459	9.83
369.668	9.83
369.877	9.84
370.085	9.67
370.294	9.81
370.503	9.89
370.711	10.05
370.92	9.77
371.129	9.38
371.337	9.13
371.546	8.94
371.754	8.65
371.963	8.94
372.171	9.14
372.38	8.85
372.589	8.72
372.797	8.9
373.006	8.67
373.214	8.82
373.423	9.23
373.631	9.08
373.84	9.14
374.048	9.57
374.256	9.31
374.465	9.09
374.673	9.41
374.882	9.49
375.09	8.93
375.298	8.63
375.507	8.51
375.715	8.49
375.923	8.47
376.132	8.5
376.34	8.26
376.548	8.04
376.757	8.2
376.965	8.05
377.173	7.8
377.381	8.05
377.59	8.26
377.798	8.39
378.006	8.38
378.214	8.33
378.423	8.51
378.631	8.4
378.839	8.57
379.047	8.31
379.255	8.52
379.463	8.77
379.671	8.85
379.879	8.8
380.088	8.86
380.296	8.94
380.504	8.88
380.712	8.73
380.92	8.57
381.128	8.62
381.336	8.53
381.544	8.29
381.752	8.07
381.96	7.9
382.168	7.88
382.376	7.57
382.584	7.41
382.791	7.43
382.999	7.24
383.207	7.39
383.415	7.27
383.623	7.2
383.831	7.12
384.039	7.17
384.247	7.31
384.454	7.36
384.662	7.31
384.87	7.06
385.078	7.06
385.285	7.05
385.493	7.24
385.701	7.34
385.909	7.41
386.116	7.58
386.324	7.3
386.532	7.02
386.739	6.77
386.947	6.91
387.155	7.02
387.362	6.91
387.57	6.83
387.778	6.53
387.985	6.45
388.193	6.49
388.4	6.44
388.608	6.66
388.816	6.82
389.023	6.9
389.231	6.9
389.438	6.81
389.646	6.76
389.853	6.74
390.061	6.57
390.268	6.47
390.475	6.38
390.683	6.48
390.89	6.47
391.098	6.21
391.305	6.24
391.512	6.05
391.72	6.07
391.927	6.12
392.135	6.06
392.342	6.07
392.549	6.15
392.756	5.97
392.964	5.87
393.171	5.74
393.378	5.68
393.586	5.8
393.793	5.84
394	5.97
394.207	5.87
394.414	6.13
394.622	6.14
394.829	6.14
395.036	6.14
395.243	5.88
395.45	5.85
395.657	6.1
395.864	6.11
396.072	6.21
396.279	6.12
396.486	6.02
396.693	5.74
396.9	5.83
397.107	5.71
397.314	6
397.521	6.24
397.728	6.06
397.935	6.15
398.142	5.82
398.349	5.69
398.556	5.58
398.763	5.73
398.97	5.59
399.177	5.56
399.383	5.63
399.59	5.39
399.797	5.43
400.004	5.58
400.211	5.3
400.418	5.47
400.625	5.36
400.831	5.28
401.038	5.27
401.245	5.37
401.452	5.41
401.658	5.45
401.865	5.46
402.072	5.35
402.279	5.23
402.485	5.25
402.692	5.33
402.899	5.4
403.105	5.56
403.312	5.69
403.519	5.76
403.725	5.6
403.932	5.49
404.138	5.63
404.345	5.45
404.552	5.53
404.758	5.56
404.965	5.42
405.171	5.32
405.378	5.26
405.584	5.14
405.791	4.99
405.997	5.27
406.204	5.32
406.41	5.23
406.617	5.52
406.823	5.27
407.029	5.28
407.236	5.32
407.442	5.43
407.649	5.41
407.855	5.28
408.061	5.36
408.268	5
408.474	4.99
408.68	5.13
408.887	4.95
409.093	5.36
409.299	5.34
409.505	5.25
409.712	5.23
409.918	5.14
410.124	5.3
410.33	5.32
410.537	5.48
410.743	5.67
410.949	5.32
411.155	5.41
411.361	5.19
411.567	5.18
411.773	5.2
411.98	5.18
412.186	5.2
412.392	5.21
412.598	5.1
412.804	5.14
413.01	4.76
413.216	4.98
413.422	4.94
413.628	5.02
413.834	5.07
414.04	5.02
414.246	4.98
414.452	5.01
414.658	5.03
414.864	5.11
415.07	5.06
415.275	5.18
415.481	5.11
415.687	5.11
415.893	5.1
416.099	5.02
416.305	5.02
416.511	5.02
416.716	5.02
416.922	4.99
417.128	5.06
417.334	5.06
417.539	5.02
417.745	4.94
417.951	4.92
418.157	4.86
418.362	4.84
418.568	4.88
418.774	4.88
418.979	4.91
419.185	4.82
419.391	4.76
419.596	4.75
419.802	4.68
420.008	4.73
420.213	4.25
420.419	4.25
420.624	4.3
420.83	4.28
421.035	4.29
421.241	4.18
421.446	4.2
421.652	4.21
421.857	4.22
422.063	4.27
422.268	4.26
422.474	4.72
422.679	4.65
422.885	4.67
423.09	4.65
423.295	4.6
423.501	4.67
423.706	4.69
423.911	4.7
424.117	4.74
424.322	4.75
424.527	4.81
424.733	4.85
424.938	5.01
425.143	4.98
425.349	4.96
425.554	4.99
425.759	4.97
425.964	5.02
426.169	4.93
426.375	4.8
426.58	4.84
426.785	4.84
426.99	4.74
427.195	4.7
427.4	4.6
427.605	4.62
427.811	4.63
428.016	4.59
428.221	4.57
428.426	4.56
428.631	4.51
428.836	4.43
429.041	4.37
429.246	4.41
429.451	4.43
429.656	4.55
429.861	4.57
430.066	4.6
430.271	4.68
430.476	4.57
430.681	4.65
430.886	4.74
431.09	4.7
431.295	4.67
431.5	4.73
431.705	4.76
431.91	4.67
432.115	4.65
432.32	4.61
432.524	4.58
432.729	4.65
432.934	4.62
433.139	4.64
433.343	4.75
433.548	4.82
433.753	4.72
433.958	4.61
434.162	4.72
434.367	4.79
434.572	4.85
434.776	4.81
434.981	4.76
435.186	4.85
435.39	4.9
435.595	4.85
435.799	4.75
436.004	4.72
436.209	4.74
436.413	4.66
436.618	4.56
436.822	4.52
437.027	4.48
437.231	4.48
437.436	4.33
437.64	4.2
437.845	4.17
438.049	4.13
438.253	4.2
438.458	4.17
438.662	4.18
438.867	4.29
439.071	4.29
439.275	4.33
439.48	4.4
439.684	4.41
439.888	4.43
440.093	4.42
440.297	4.44
440.501	4.51
440.706	4.48
440.91	4.5
441.114	4.46
441.318	4.42
441.523	4.5
441.727	4.51
441.931	4.6
442.135	4.58
442.339	4.57
442.543	4.64
442.748	4.45
442.952	4.49
443.156	4.49
443.36	4.53
443.564	4.5
443.768	4.39
443.972	4.33
444.176	4.26
444.38	4.31
444.584	4.27
444.788	4.22
444.992	4.3
445.196	4.26
445.4	4.22
445.604	4.15
445.808	4.18
446.012	4.2
446.216	4.15
446.42	4.14
446.624	4.16
446.828	4.23
447.032	4.24
447.235	4.28
447.439	4.3
447.643	4.33
447.847	4.37
448.051	4.32
448.254	4.33
448.458	4.46
448.662	4.52
448.866	4.52
449.069	4.56
449.273	4.51
449.477	4.51
449.681	4.5
449.884	4.52
450.088	4.44
450.292	4.44
450.495	4.5
450.699	4.35
450.902	4.32
451.106	4.28
451.31	4.22
451.513	4.28
451.717	4.19
451.92	4.28
452.124	4.29
452.327	4.39
452.531	4.33
452.734	4.24
452.938	4.25
453.141	4.23
453.345	4.19
453.548	4.26
453.752	4.25
453.955	4.31
454.158	4.3
454.362	4.32
454.565	4.27
454.769	4.36
454.972	4.36
455.175	4.51
455.379	4.5
455.582	4.48
455.785	4.41
455.988	4.41
456.192	4.33
456.395	4.25
456.598	4.19
456.801	4.17
457.005	4.32
457.208	4.39
457.411	4.29
457.614	4.23
457.817	4.33
458.021	4.29
458.224	4.29
458.427	4.3
458.63	4.34
458.833	4.36
459.036	4.42
459.239	4.28
459.442	4.24
459.645	4.25
459.848	4.31
460.051	4.3
460.254	4.4
460.457	4.44
460.66	4.42
460.863	4.38
461.066	4.41
461.269	4.36
461.472	4.39
461.675	4.37
461.878	4.37
462.081	4.36
462.284	4.38
462.486	4.25
462.689	4.2
462.892	4.29
463.095	4.33
