Data from 2938467_Reflection_3.txt Node
Date: Wed Jun 17 13:45:40 EDT 2015
User: robert
Spectrometer: USB4E03002
Autoset integration time: false
Trigger mode: 4
Integration Time (sec): 1.000000E-1
Scans to average: 10
Electric dark correction enabled: true
Nonlinearity correction enabled: false
Boxcar width: 5
Stray light correction enabled: false
XAxis mode: Wavelengths
Stop averaging: false
Number of Pixels in Spectrum: 3648
>>>>>Begin Spectral Data<<<<<
177.575	-33.64
177.794	-156.34
178.014	-76.13
178.233	-158.1
178.452	231.08
178.672	205.54
178.891	39.81
179.11	-126.46
179.33	2669.79
179.549	-6151.85
179.768	-366
179.987	-96.03
180.207	-691.33
180.426	-194.57
180.645	147.95
180.864	118.3
181.084	106.53
181.303	137.73
181.522	98.84
181.741	76.51
181.96	131.96
182.179	156.61
182.398	130.34
182.618	111.76
182.837	138.04
183.056	490.82
183.275	432.17
183.494	442.88
183.713	369.66
183.932	3330.75
184.151	1205.76
184.37	457.61
184.589	250.63
184.808	192.92
185.027	656.62
185.246	272.61
185.465	155
185.684	133.12
185.903	170.61
186.122	109.27
186.341	66.69
186.56	55.37
186.779	108.45
186.998	106.63
187.216	114.43
187.435	93.79
187.654	99.93
187.873	119.6
188.092	127.78
188.311	97.19
188.53	103.26
188.748	98.27
188.967	104.65
189.186	88.31
189.405	127.23
189.623	68.47
189.842	106.76
190.061	-402
190.28	47.06
190.498	129.19
190.717	113.68
190.936	96.24
191.154	42.23
191.373	72.47
191.592	108.14
191.81	45.74
192.029	-2.04
192.248	205.68
192.466	208.05
192.685	106.64
192.904	152.21
193.122	150.99
193.341	158.98
193.559	191.12
193.778	171.07
193.996	215.74
194.215	189.93
194.433	180.3
194.652	158.58
194.87	148.82
195.089	183.5
195.307	145.79
195.526	283.92
195.744	202
195.963	154.81
196.181	147.53
196.399	114.24
196.618	128.94
196.836	142.58
197.055	131.38
197.273	105.44
197.491	101.81
197.71	103.19
197.928	97.42
198.146	91.15
198.365	81.38
198.583	69.89
198.801	62.58
199.019	69.26
199.238	61.18
199.456	43.47
199.674	28.59
199.892	35.2
200.111	27.57
200.329	50.53
200.547	72.12
200.765	71.93
200.983	93.69
201.202	81.07
201.42	103.85
201.638	104.88
201.856	90.65
202.074	108.33
202.292	98.46
202.51	95.2
202.728	87.71
202.946	85.27
203.165	80.4
203.383	74.69
203.601	99
203.819	91.4
204.037	92.97
204.255	111.75
204.473	107.22
204.691	112.33
204.909	114.04
205.127	82.12
205.345	79.24
205.562	83.54
205.78	96.89
205.998	75.57
206.216	73.79
206.434	88.35
206.652	71.4
206.87	75.79
207.088	71.88
207.306	71.4
207.523	83.89
207.741	84.75
207.959	87.02
208.177	72.86
208.395	66.74
208.612	58.66
208.83	27.37
209.048	38.34
209.266	37.28
209.483	39.44
209.701	42.44
209.919	38.41
210.136	33.3
210.354	28.21
210.572	42.25
210.79	38.02
211.007	47.82
211.225	54.32
211.442	59.68
211.66	73.43
211.878	62.64
212.095	58.91
212.313	61.99
212.53	59.34
212.748	76.07
212.966	62.97
213.183	63.79
213.401	54.46
213.618	40.66
213.836	38.44
214.053	26.4
214.271	24.42
214.488	28.52
214.705	22.82
214.923	19.64
215.14	22.61
215.358	27.65
215.575	32.58
215.793	37.34
216.01	41.44
216.227	52.89
216.445	57.73
216.662	74.12
216.879	68.63
217.097	66.07
217.314	70.47
217.531	55.87
217.749	65.42
217.966	55.34
218.183	28.54
218.4	23.25
218.618	14.4
218.835	-26.94
219.052	-21.87
219.269	-47
219.487	-42.7
219.704	-25.85
219.921	-10.48
220.138	-14.63
220.355	-5.74
220.572	1.14
220.79	13.66
221.007	14.13
221.224	29.28
221.441	27.4
221.658	26.05
221.875	34.43
222.092	36.23
222.309	43.37
222.526	43.24
222.743	46.11
222.96	47.42
223.177	44.11
223.394	40.91
223.611	36.24
223.828	39.07
224.045	40.46
224.262	32.75
224.479	26.07
224.696	25.33
224.913	23.76
225.13	21.83
225.347	20.36
225.564	19.7
225.781	19.99
225.997	20.16
226.214	18.55
226.431	17.29
226.648	17.69
226.865	18.45
227.082	18.69
227.298	19.03
227.515	18.23
227.732	17.94
227.949	17.7
228.165	17.6
228.382	16.93
228.599	17.26
228.816	17.03
229.032	16.85
229.249	16.74
229.466	16.54
229.682	15.59
229.899	17.19
230.116	18.31
230.332	16.57
230.549	15.68
230.765	17.22
230.982	15.88
231.199	17.86
231.415	18.89
231.632	19.68
231.848	20.16
232.065	19.99
232.281	17.58
232.498	14.98
232.714	16.94
232.931	16.83
233.147	14.87
233.364	12.7
233.58	12.31
233.797	13.36
234.013	12.14
234.23	9.68
234.446	8.84
234.662	9.27
234.879	10
235.095	10.14
235.312	12.81
235.528	13.24
235.744	15.26
235.961	14.86
236.177	10.7
236.393	11.59
236.61	11.58
236.826	12.39
237.042	12.64
237.258	14.86
237.475	13.47
237.691	11.88
237.907	11.24
238.123	11.73
238.339	12.98
238.556	15.92
238.772	14.87
238.988	15.32
239.204	13.87
239.42	13.97
239.636	13.71
239.853	13.82
240.069	13.69
240.285	13.53
240.501	13.7
240.717	13.23
240.933	12.18
241.149	12.67
241.365	12.73
241.581	13.22
241.797	13.33
242.013	13.34
242.229	14.2
242.445	14.61
242.661	14.65
242.877	14.8
243.093	14.61
243.309	14.74
243.525	14.23
243.741	13.34
243.957	12.67
244.173	12.42
244.388	11.72
244.604	11.07
244.82	10.61
245.036	10.85
245.252	10.17
245.468	10.14
245.683	10.45
245.899	10.45
246.115	10.45
246.331	10.48
246.547	10.08
246.762	9.95
246.978	9.89
247.194	10.15
247.409	10.06
247.625	10.18
247.841	10.09
248.057	9.66
248.272	10.06
248.488	10.22
248.703	9.84
248.919	9.92
249.135	10.1
249.35	10.71
249.566	10.77
249.782	10.63
249.997	10.32
250.213	9.9
250.428	9.47
250.644	8.89
250.859	9.05
251.075	10.34
251.29	11.49
251.506	11.4
251.721	11.34
251.937	10.88
252.152	10.28
252.368	11.55
252.583	12.93
252.798	13.63
253.014	14.34
253.229	14.77
253.445	13.99
253.66	13.43
253.875	13.59
254.091	13.27
254.306	13.42
254.521	13.7
254.737	12.21
254.952	10.13
255.167	9.63
255.383	9.31
255.598	8.37
255.813	8.47
256.028	8.06
256.244	8.41
256.459	7.66
256.674	7.56
256.889	7.77
257.104	8.18
257.32	8.6
257.535	8.46
257.75	8.05
257.965	8
258.18	7.62
258.395	7.74
258.61	7.48
258.826	7.65
259.041	7.53
259.256	7.49
259.471	7.6
259.686	7.69
259.901	7.74
260.116	7.92
260.331	8.49
260.546	8.92
260.761	8.39
260.976	8.96
261.191	8.75
261.406	9.13
261.621	8.78
261.836	8.49
262.05	8.3
262.265	8.52
262.48	8.41
262.695	6.68
262.91	7.34
263.125	7.36
263.34	7.02
263.555	7.33
263.769	7.56
263.984	8.04
264.199	8.11
264.414	7.4
264.629	7.71
264.843	7.86
265.058	7.72
265.273	7.72
265.488	8.38
265.702	8.19
265.917	7.99
266.132	8.03
266.346	8.46
266.561	8.55
266.776	9.22
266.99	8.89
267.205	8.67
267.42	8.81
267.634	8.55
267.849	8.27
268.063	8.36
268.278	9.25
268.492	8.93
268.707	8.12
268.922	7.59
269.136	7.22
269.351	7.23
269.565	7.81
269.78	7.82
269.994	8.16
270.209	8.05
270.423	8.26
270.637	7.59
270.852	7.93
271.066	8.28
271.281	8.38
271.495	8.36
271.709	8.53
271.924	7.77
272.138	8.3
272.353	7.77
272.567	7.78
272.781	7.31
272.996	7.41
273.21	7.16
273.424	7.21
273.638	6.93
273.853	7.41
274.067	7.82
274.281	8.38
274.495	8.39
274.71	8.41
274.924	8.22
275.138	8.28
275.352	7.78
275.566	7.08
275.781	6.51
275.995	7.16
276.209	6.34
276.423	5.67
276.637	5.09
276.851	5.29
277.065	5.45
277.279	6.08
277.493	6.04
277.707	7.14
277.921	7.62
278.135	7.79
278.349	7.73
278.563	8.05
278.777	7.99
278.991	7.59
279.205	7.25
279.419	7.24
279.633	6.79
279.847	7.13
280.061	6.76
280.275	6.78
280.489	6.81
280.703	6.85
280.917	6.91
281.131	7.36
281.344	7.85
281.558	7.64
281.772	7.68
281.986	7.53
282.2	7.03
282.414	7.01
282.627	6.89
282.841	7.28
283.055	6.88
283.269	6.87
283.482	6.53
283.696	6.61
283.91	6.77
284.123	6.43
284.337	6.58
284.551	6.86
284.764	7.19
284.978	7.24
285.192	7.18
285.405	7.81
285.619	7.95
285.833	8.14
286.046	7.77
286.26	8.26
286.473	8.37
286.687	8.56
286.9	8.67
287.114	7.87
287.327	7.84
287.541	7.63
287.754	7.32
287.968	7.11
288.181	6.65
288.395	7.31
288.608	7.16
288.822	7.24
289.035	6.81
289.248	6.86
289.462	7.47
289.675	7.32
289.889	7.49
290.102	7.23
290.315	7.29
290.529	7.79
290.742	7.51
290.955	7.53
291.169	7.45
291.382	8.02
291.595	7.96
291.808	7.81
292.022	8.29
292.235	8.01
292.448	8.5
292.661	9.02
292.875	9.04
293.088	9.24
293.301	9.31
293.514	9.22
293.727	9.65
293.94	9.72
294.153	9.65
294.367	9.47
294.58	9.28
294.793	9.1
295.006	9.27
295.219	9.72
295.432	9.71
295.645	9.81
295.858	10.05
296.071	9.42
296.284	9.29
296.497	9.32
296.71	9.54
296.923	9.95
297.136	9.72
297.349	9.62
297.562	9.18
297.775	9.36
297.988	9.08
298.201	9.22
298.414	9.62
298.626	9.63
298.839	10.13
299.052	9.59
299.265	9.32
299.478	9.63
299.691	9.48
299.903	9.35
300.116	9.32
300.329	9.17
300.542	9.24
300.755	9.39
300.967	9.88
301.18	9.8
301.393	10.15
301.605	10.6
301.818	10.66
302.031	11.36
302.243	11.47
302.456	12.05
302.669	12.36
302.881	12.14
303.094	12.18
303.307	12.26
303.519	12.64
303.732	13.26
303.944	13.51
304.157	13.87
304.37	13.36
304.582	13.7
304.795	13.47
305.007	13.72
305.22	14.34
305.432	14.51
305.645	13.95
305.857	13.42
306.069	12.98
306.282	12.71
306.494	12.68
306.707	12.9
306.919	13.05
307.132	13.05
307.344	12.84
307.556	13.17
307.769	13.28
307.981	13.58
308.193	13.54
308.406	13.37
308.618	13.62
308.83	13.74
309.043	13.51
309.255	13.43
309.467	12.94
309.679	13.15
309.892	12.87
310.104	12.58
310.316	12.79
310.528	13.01
310.74	13.46
310.953	13.19
311.165	12.85
311.377	12.97
311.589	13.27
311.801	13.85
312.013	13.84
312.225	13.94
312.437	14.2
312.649	14.34
312.862	14.43
313.074	14.92
313.286	15.37
313.498	15.89
313.71	16.27
313.922	16.06
314.134	15.74
314.346	15.31
314.558	15.48
314.77	15.86
314.982	16.01
315.193	16.18
315.405	15.46
315.617	15.44
315.829	15.57
316.041	15.66
316.253	15.79
316.465	16.22
316.677	16.7
316.888	16.54
317.1	16.98
317.312	17
317.524	17.18
317.736	18.13
317.947	17.75
318.159	17.45
318.371	17.35
318.583	17.36
318.794	17.33
319.006	17.6
319.218	17.63
319.43	17.13
319.641	17.09
319.853	17.05
320.064	16.77
320.276	17.33
320.488	17.39
320.699	17.68
320.911	17.57
321.123	17.21
321.334	17.6
321.546	17.52
321.757	17.48
321.969	17.55
322.18	17.58
322.392	17.51
322.603	17.55
322.815	17.77
323.026	17.54
323.238	17.88
323.449	18.52
323.661	18
323.872	18.23
324.083	18.42
324.295	18.69
324.506	18.93
324.718	19.18
324.929	19.72
325.14	19.96
325.352	19.83
325.563	19.84
325.774	20.11
325.986	21.09
326.197	21.26
326.408	21.58
326.62	21.56
326.831	21.77
327.042	21.7
327.253	21.52
327.464	21.34
327.676	21.93
327.887	22.11
328.098	22.29
328.309	22.04
328.52	22.24
328.732	22.25
328.943	22.51
329.154	22.17
329.365	21.97
329.576	21.92
329.787	22.6
329.998	22.78
330.209	23.14
330.42	23.04
330.631	23.49
330.842	23.77
331.053	24.32
331.264	24.55
331.475	24.83
331.686	25.79
331.897	25.9
332.108	25.81
332.319	26
332.53	25.87
332.741	25.86
332.952	25.4
333.163	25.82
333.374	25.45
333.585	25.36
333.795	25.53
334.006	25.43
334.217	25.58
334.428	25.5
334.639	25.35
334.849	25.53
335.06	25.82
335.271	26.32
335.482	25.52
335.692	25.58
335.903	25.67
336.114	25.89
336.325	26.03
336.535	26.04
336.746	26.33
336.957	26.07
337.167	26.35
337.378	26.22
337.589	26.01
337.799	26.59
338.01	26.8
338.22	26.73
338.431	26.66
338.642	26.38
338.852	26.43
339.063	26.73
339.273	27.3
339.484	27.04
339.694	27.09
339.905	27.15
340.115	27.35
340.326	27.13
340.536	27.42
340.746	27.12
340.957	27.26
341.167	27.5
341.378	26.89
341.588	26.79
341.799	27.04
342.009	26.9
342.219	27.02
342.43	27.07
342.64	27.11
342.85	27.16
343.061	27.35
343.271	27.16
343.481	27.08
343.691	27.46
343.902	27.13
344.112	26.81
344.322	27.11
344.532	27.02
344.743	26.64
344.953	26.77
345.163	26.6
345.373	26.3
345.583	26.36
345.793	26.26
346.004	26.38
346.214	26.75
346.424	27.02
346.634	27.02
346.844	26.92
347.054	26.94
347.264	26.86
347.474	26.55
347.684	26.77
347.894	26.95
348.104	27.03
348.314	27.07
348.524	27.12
348.734	27.07
348.944	27.01
349.154	27.12
349.364	27.25
349.574	26.86
349.784	27.14
349.994	27.39
350.204	27.21
350.413	27.62
350.623	27.61
350.833	27.88
351.043	27.75
351.253	27.75
351.463	27.46
351.672	27.53
351.882	28.34
352.092	28.37
352.302	28.4
352.511	28.43
352.721	28.02
352.931	27.67
353.141	27.17
353.35	27.22
353.56	27.18
353.77	27.48
353.979	27.29
354.189	26.87
354.399	26.85
354.608	26.53
354.818	26.37
355.027	26.24
355.237	26.12
355.447	25.87
355.656	25.72
355.866	25.61
356.075	25.38
356.285	25.36
356.494	25.22
356.704	24.96
356.913	24.96
357.123	25.16
357.332	25.1
357.542	25
357.751	25.26
357.96	25.12
358.17	25.08
358.379	25.1
358.589	25.12
358.798	25.05
359.007	25.02
359.217	25.08
359.426	25.02
359.635	24.95
359.845	25.03
360.054	24.9
360.263	25.04
360.472	24.8
360.682	24.67
360.891	24.77
361.1	24.92
361.309	24.94
361.519	24.82
361.728	24.69
361.937	24.76
362.146	24.77
362.355	24.75
362.564	24.85
362.774	25.15
362.983	25.12
363.192	24.76
363.401	24.53
363.61	24.6
363.819	24.77
364.028	24.64
364.237	24.74
364.446	24.62
364.655	24.54
364.864	24.29
365.073	24.03
365.282	24.03
365.491	24.19
365.7	24.21
365.909	24.06
366.118	24.24
366.327	23.99
366.536	23.87
366.745	23.94
366.954	23.97
367.162	24.07
367.371	24.28
367.58	24.28
367.789	24.28
367.998	24.31
368.207	24.49
368.415	23.9
368.624	24.42
368.833	24.36
369.042	24.21
369.25	24.16
369.459	24.18
369.668	23.82
369.877	24.01
370.085	23.88
370.294	23.7
370.503	23.22
370.711	23.44
370.92	22.96
371.129	22.8
371.337	22.95
371.546	22.73
371.754	22.57
371.963	22.63
372.171	22.19
372.38	22.06
372.589	22.19
372.797	22.57
373.006	22.32
373.214	22.6
373.423	22.66
373.631	22.46
373.84	22.52
374.048	22.54
374.256	22.61
374.465	22.7
374.673	22.7
374.882	22.54
375.09	22.04
375.298	21.96
375.507	21.85
375.715	21.7
375.923	21.69
376.132	21.65
376.34	21.58
376.548	21.56
376.757	21.57
376.965	21.79
377.173	21.55
377.381	21.79
377.59	21.9
377.798	21.81
378.006	21.77
378.214	21.65
378.423	21.68
378.631	21.43
378.839	21.29
379.047	21.18
379.255	20.95
379.463	21.08
379.671	20.81
379.879	20.67
380.088	20.68
380.296	20.47
380.504	20.55
380.712	20.48
380.92	20.56
381.128	20.54
381.336	20.17
381.544	19.97
381.752	19.83
381.96	19.93
382.168	19.85
382.376	19.75
382.584	19.81
382.791	19.73
382.999	19.78
383.207	19.67
383.415	19.73
383.623	20.21
383.831	20.43
384.039	20.52
384.247	20.56
384.454	20.6
384.662	20.59
384.87	20.62
385.078	20.61
385.285	20.32
385.493	20.29
385.701	20.22
385.909	20.04
386.116	19.94
386.324	19.54
386.532	19.29
386.739	19.17
386.947	19.32
387.155	19.35
387.362	19.44
387.57	19.61
387.778	19.71
387.985	19.65
388.193	19.57
388.4	19.38
388.608	19.79
388.816	19.77
389.023	19.78
389.231	19.35
389.438	19.24
389.646	19.09
389.853	18.86
390.061	18.55
390.268	18.41
390.475	18.47
390.683	18.42
390.89	18.21
391.098	18.32
391.305	18.23
391.512	18.36
391.72	18.44
391.927	18.55
392.135	18.56
392.342	18.83
392.549	18.89
392.756	18.81
392.964	18.9
393.171	18.82
393.378	18.62
393.586	18.69
393.793	18.74
394	18.54
394.207	18.36
394.414	18.62
394.622	18.38
394.829	18.32
395.036	18.31
395.243	18.06
395.45	18.44
395.657	18.52
395.864	18.37
396.072	18.3
396.279	18.28
396.486	18.18
396.693	18.12
396.9	18.08
397.107	18.11
397.314	18.09
397.521	18.12
397.728	17.9
397.935	17.98
398.142	18.09
398.349	17.85
398.556	17.95
398.763	17.9
398.97	17.8
399.177	18.02
399.383	18.01
399.59	17.88
399.797	17.93
400.004	17.82
400.211	17.76
400.418	17.73
400.625	17.86
400.831	17.72
401.038	17.58
401.245	17.66
401.452	17.52
401.658	17.4
401.865	17.33
402.072	17.2
402.279	17.18
402.485	17.12
402.692	17.25
402.899	17.22
403.105	17.18
403.312	17.24
403.519	17.11
403.725	17
403.932	17.07
404.138	17.24
404.345	17.41
404.552	17.36
404.758	17.46
404.965	17.25
405.171	17.25
405.378	17.34
405.584	17.35
405.791	17.18
405.997	17.4
406.204	17.21
406.41	17.08
406.617	17.11
406.823	17.34
407.029	17.25
407.236	17.32
407.442	17.26
407.649	17.31
407.855	17.29
408.061	17.32
408.268	17.2
408.474	17.25
408.68	17.31
408.887	17.17
409.093	17.04
409.299	16.98
409.505	16.82
409.712	16.94
409.918	16.8
410.124	16.61
410.33	16.68
410.537	16.63
410.743	16.59
410.949	16.37
411.155	16.32
411.361	16.41
411.567	16.35
411.773	16.36
411.98	16.24
412.186	16.24
412.392	16.46
412.598	16.4
412.804	16.19
413.01	16.27
413.216	16.49
413.422	16.59
413.628	16.45
413.834	16.43
414.04	16.34
414.246	16.27
414.452	16.22
414.658	16.21
414.864	16.08
415.07	16.12
415.275	16.18
415.481	16.11
415.687	15.93
415.893	15.83
416.099	15.65
416.305	15.74
416.511	15.86
416.716	15.9
416.922	15.87
417.128	15.96
417.334	15.97
417.539	15.79
417.745	15.65
417.951	15.68
418.157	15.67
418.362	15.7
418.568	15.61
418.774	15.43
418.979	15.31
419.185	15.28
419.391	15.19
419.596	15.17
419.802	15.12
420.008	15.15
420.213	15.6
420.419	15.52
420.624	15.5
420.83	15.48
421.035	15.44
421.241	15.44
421.446	15.35
421.652	15.31
421.857	15.26
422.063	15.28
422.268	15.24
422.474	14.77
422.679	14.82
422.885	14.88
423.09	14.74
423.295	14.75
423.501	14.73
423.706	14.75
423.911	14.74
424.117	14.78
424.322	14.77
424.527	14.83
424.733	14.85
424.938	14.92
425.143	14.94
425.349	15.06
425.554	15.08
425.759	15.07
425.964	15.05
426.169	15.17
426.375	15.15
426.58	15.18
426.785	15.21
426.99	15.16
427.195	14.95
427.4	14.81
427.605	14.85
427.811	14.84
428.016	14.95
428.221	15.06
428.426	14.87
428.631	14.91
428.836	14.83
429.041	14.69
429.246	14.61
429.451	14.66
429.656	14.76
429.861	14.76
430.066	14.86
430.271	14.81
430.476	14.87
430.681	15.04
430.886	14.93
431.09	14.91
431.295	14.89
431.5	14.82
431.705	14.82
431.91	14.87
432.115	14.9
432.32	14.83
432.524	14.86
432.729	14.72
432.934	14.7
433.139	14.73
433.343	14.87
433.548	14.93
433.753	15
433.958	14.98
434.162	14.91
434.367	14.85
434.572	15
434.776	14.93
434.981	14.95
435.186	14.8
435.39	14.86
435.595	14.85
435.799	14.92
436.004	14.94
436.209	14.95
436.413	14.87
436.618	14.78
436.822	14.69
437.027	14.71
437.231	14.79
437.436	14.83
437.64	14.91
437.845	14.84
438.049	14.87
438.253	14.88
438.458	14.92
438.662	15.1
438.867	15.15
439.071	15.27
439.275	15.33
439.48	15.2
439.684	15.26
439.888	15.16
440.093	15.23
440.297	15.14
440.501	15.09
440.706	15.13
440.91	15.03
441.114	15.1
441.318	14.93
441.523	14.9
441.727	14.97
441.931	15.13
442.135	15.17
442.339	15.06
442.543	15.1
442.748	15.1
442.952	15
443.156	14.98
443.36	14.9
443.564	14.96
443.768	14.91
443.972	14.91
444.176	14.85
444.38	14.76
444.584	14.72
444.788	14.63
444.992	14.66
445.196	14.74
445.4	14.75
445.604	14.71
445.808	14.76
446.012	14.82
446.216	14.77
446.42	14.65
446.624	14.69
446.828	14.74
447.032	14.73
447.235	14.76
447.439	14.67
447.643	14.69
447.847	14.68
448.051	14.67
448.254	14.63
448.458	14.69
448.662	14.81
448.866	14.85
449.069	14.84
449.273	14.83
449.477	14.83
449.681	14.84
449.884	14.79
450.088	14.93
450.292	14.82
450.495	14.76
450.699	14.74
450.902	14.68
451.106	14.66
451.31	14.6
451.513	14.72
451.717	14.61
451.92	14.57
452.124	14.58
452.327	14.4
452.531	14.49
452.734	14.48
452.938	14.47
453.141	14.47
453.345	14.35
453.548	14.41
453.752	14.36
453.955	14.47
454.158	14.47
454.362	14.4
454.565	14.55
454.769	14.54
454.972	14.63
455.175	14.63
455.379	14.6
455.582	14.64
455.785	14.68
455.988	14.78
456.192	14.72
456.395	14.8
456.598	14.88
456.801	14.83
457.005	14.75
457.208	14.72
457.411	14.64
457.614	14.58
457.817	14.58
458.021	14.51
458.224	14.47
458.427	14.41
458.63	14.38
