Data from 2938566_Reflection_2.txt Node
Date: Sun Jun 14 22:23:18 EDT 2015
User: robert
Spectrometer: USB4E03002
Autoset integration time: false
Trigger mode: 4
Integration Time (sec): 1.000000E-1
Scans to average: 10
Electric dark correction enabled: true
Nonlinearity correction enabled: false
Boxcar width: 5
Stray light correction enabled: false
XAxis mode: Wavelengths
Stop averaging: false
Number of Pixels in Spectrum: 3648
>>>>>Begin Spectral Data<<<<<
177.575	-52.01
177.794	243.14
178.014	112.35
178.233	43.5
178.452	-41.81
178.672	-27250
178.891	53.63
179.11	20.33
179.33	53.41
179.549	30.42
179.768	42.77
179.987	-41.47
180.207	53.01
180.426	17.3
180.645	-6.5
180.864	-2.12
181.084	-28.61
181.303	79.94
181.522	287.75
181.741	129.69
181.96	6136.36
182.179	-128.99
182.398	-116.03
182.618	-31.2
182.837	-5.35
183.056	25.65
183.275	52.61
183.494	86.5
183.713	97.21
183.932	121.92
184.151	94.01
184.37	98.46
184.589	78.91
184.808	92.35
185.027	94.98
185.246	97.97
185.465	110.15
185.684	123.64
185.903	31.94
186.122	101.58
186.341	73.35
186.56	49.69
186.779	-18.06
186.998	-72.46
187.216	-738.13
187.435	35.46
187.654	140.46
187.873	102.02
188.092	75.22
188.311	77.88
188.53	74.07
188.748	65.54
188.967	74.22
189.186	85.39
189.405	123.44
189.623	119.32
189.842	108.02
190.061	125.9
190.28	90.36
190.498	113.85
190.717	-913.09
190.936	134.11
191.154	116.27
191.373	76.99
191.592	74.73
191.81	55.77
192.029	51.21
192.248	-44.33
192.466	-92.48
192.685	-63.2
192.904	-210.82
193.122	-49.19
193.341	-11.25
193.559	-25.63
193.778	-9.6
193.996	-6.37
194.215	20.86
194.433	39.37
194.652	79.21
194.87	57.34
195.089	72.5
195.307	95.8
195.526	104.67
195.744	123.28
195.963	141.03
196.181	147.72
196.399	160.26
196.618	164.78
196.836	176.44
197.055	83.01
197.273	-452.34
197.491	-804.94
197.71	265.26
197.928	1128.41
198.146	-617.43
198.365	-112.07
198.583	-39.24
198.801	60.88
199.019	44.45
199.238	87.69
199.456	74.93
199.674	22.98
199.892	39.8
200.111	14.32
200.329	20.38
200.547	24.69
200.765	41.43
200.983	75.15
201.202	78.83
201.42	102.59
201.638	139.11
201.856	159.87
202.074	151.48
202.292	300.8
202.51	271.69
202.728	386.79
202.946	495.25
203.165	329.8
203.383	75.22
203.601	154.57
203.819	268.02
204.037	208.68
204.255	243.66
204.473	-92.24
204.691	50.99
204.909	-31.93
205.127	-0.92
205.345	33.7
205.562	39.06
205.78	44.82
205.998	63.46
206.216	93.44
206.434	97.04
206.652	90.93
206.87	104.3
207.088	122.65
207.306	200.92
207.523	183.77
207.741	180.28
207.959	300.36
208.177	232.54
208.395	239.78
208.612	205.04
208.83	142.25
209.048	169.79
209.266	134.33
209.483	166.53
209.701	125.19
209.919	80.97
210.136	80.96
210.354	41.29
210.572	43.67
210.79	39.08
211.007	32.27
211.225	15.36
211.442	-3.08
211.66	21.08
211.878	17.92
212.095	58.04
212.313	53.96
212.53	51.58
212.748	61.8
212.966	58.46
213.183	65.86
213.401	60.91
213.618	58.01
213.836	61.77
214.053	55.04
214.271	59.6
214.488	-14.01
214.705	-10.08
214.923	-119.12
215.14	-76.31
215.358	-24.46
215.575	-5.18
215.793	-3.39
216.01	19.23
216.227	0.86
216.445	-10.64
216.662	-9.54
216.879	4.93
217.097	15.31
217.314	28.86
217.531	29.3
217.749	17.91
217.966	11.61
218.183	9.09
218.4	14.1
218.618	31.67
218.835	33.79
219.052	27.95
219.269	31.93
219.487	26.66
219.704	19.06
219.921	23.03
220.138	36.13
220.355	34.86
220.572	33.64
220.79	24.25
221.007	5.73
221.224	-2.39
221.441	2.85
221.658	9.23
221.875	12.98
222.092	18.39
222.309	9.09
222.526	3.91
222.743	6.78
222.96	6.04
223.177	8.27
223.394	16.73
223.611	21.32
223.828	19.04
224.045	12.67
224.262	11.16
224.479	5.96
224.696	12.28
224.913	12.34
225.13	12.77
225.347	16.06
225.564	16.34
225.781	14.23
225.997	12.48
226.214	13.2
226.431	11.92
226.648	11.51
226.865	13.6
227.082	11.67
227.298	11.46
227.515	10.8
227.732	11.21
227.949	10.95
228.165	10.97
228.382	10.81
228.599	10.66
228.816	11.32
229.032	10.65
229.249	10.8
229.466	11.13
229.682	11.27
229.899	11.21
230.116	9.97
230.332	9.96
230.549	10.4
230.765	11.96
230.982	9.79
231.199	10.12
231.415	11.18
231.632	10.6
231.848	11.07
232.065	10.37
232.281	13.43
232.498	13.53
232.714	13.07
232.931	13.64
233.147	12.17
233.364	11.64
233.58	10.41
233.797	11
234.013	9.93
234.23	9.52
234.446	11.13
234.662	7.03
234.879	8.1
235.095	11.46
235.312	10.66
235.528	12.47
235.744	14.62
235.961	16.91
236.177	16.53
236.393	17.09
236.61	17.12
236.826	16.8
237.042	16.67
237.258	16.19
237.475	13.72
237.691	14.66
237.907	12.96
238.123	13.22
238.339	12.89
238.556	12.64
238.772	12.23
238.988	11.75
239.204	10.94
239.42	11
239.636	11.29
239.853	11.57
240.069	11.38
240.285	11.56
240.501	11.18
240.717	11.48
240.933	11.77
241.149	11.32
241.365	11.38
241.581	11.95
241.797	13.06
242.013	12.1
242.229	11.06
242.445	11.1
242.661	11.08
242.877	11.83
243.093	10.84
243.309	10.63
243.525	11.17
243.741	12.23
243.957	11.39
244.173	10.1
244.388	10.68
244.604	11.15
244.82	10.8
245.036	10.27
245.252	10.08
245.468	10.03
245.683	9.67
245.899	9.63
246.115	9.57
246.331	9.9
246.547	10.18
246.762	9.83
246.978	9.3
247.194	9.31
247.409	9.74
247.625	9.43
247.841	10.07
248.057	10.7
248.272	10.78
248.488	10.31
248.703	9.49
248.919	8.77
249.135	9.53
249.35	10.4
249.566	10.06
249.782	9.35
249.997	9.36
250.213	9.21
250.428	9.37
250.644	9.02
250.859	8.44
251.075	8.64
251.29	8.3
251.506	8.55
251.721	8.75
251.937	8.37
252.152	8.36
252.368	8.47
252.583	7.5
252.798	6.75
253.014	6.96
253.229	7.14
253.445	7.22
253.66	9.05
253.875	6.67
254.091	5.92
254.306	6.76
254.521	7.22
254.737	7.55
254.952	8.13
255.167	7.85
255.383	8.29
255.598	8.34
255.813	8.49
256.028	7.62
256.244	8.55
256.459	9.37
256.674	9.3
256.889	9.17
257.104	8.99
257.32	9
257.535	8.86
257.75	8.47
257.965	8.65
258.18	8.84
258.395	9.08
258.61	9.1
258.826	8.61
259.041	8.59
259.256	8.68
259.471	8.56
259.686	8.31
259.901	8.8
260.116	9.17
260.331	8.97
260.546	8.76
260.761	8.57
260.976	8.43
261.191	8.78
261.406	9.05
261.621	8.87
261.836	9.11
262.05	9.71
262.265	8.39
262.48	8.15
262.695	8.37
262.91	8.93
263.125	9.07
263.34	9.38
263.555	8.56
263.769	8.82
263.984	8.85
264.199	8.62
264.414	8
264.629	8.51
264.843	8.63
265.058	8.35
265.273	8.09
265.488	8.13
265.702	7.27
265.917	7.94
266.132	7.17
266.346	7.28
266.561	7.24
266.776	7.3
266.99	6.93
267.205	6.83
267.42	6.82
267.634	6.49
267.849	6.28
268.063	7.22
268.278	7.33
268.492	7.77
268.707	7.36
268.922	7.93
269.136	8.02
269.351	8.12
269.565	7.75
269.78	7.9
269.994	7.46
270.209	7.94
270.423	7.65
270.637	7.34
270.852	7.36
271.066	7.3
271.281	7.13
271.495	6.76
271.709	6.97
271.924	7.52
272.138	7.61
272.353	7.7
272.567	6.82
272.781	6.74
272.996	6.64
273.21	6.45
273.424	6.84
273.638	6.55
273.853	6.96
274.067	6.78
274.281	6.6
274.495	6.45
274.71	6.62
274.924	7.09
275.138	6.8
275.352	6.93
275.566	6.92
275.781	7.13
275.995	6.96
276.209	7.38
276.423	7.87
276.637	7.48
276.851	7.45
277.065	8.28
277.279	8.63
277.493	9.08
277.707	8.57
277.921	8.43
278.135	8.19
278.349	8.17
278.563	7.83
278.777	7.62
278.991	7.47
279.205	7.37
279.419	6.94
279.633	6.95
279.847	7.28
280.061	7.52
280.275	7.55
280.489	7.54
280.703	7.67
280.917	7.48
281.131	7.51
281.344	8.05
281.558	8.34
281.772	7.91
281.986	7.52
282.2	7.07
282.414	7.33
282.627	7.16
282.841	6.8
283.055	6.58
283.269	6.66
283.482	6.37
283.696	6.13
283.91	5.54
284.123	5.81
284.337	6.01
284.551	6.31
284.764	6.08
284.978	6.36
285.192	6.63
285.405	6.57
285.619	6.54
285.833	6.91
286.046	7.15
286.26	7.49
286.473	7.48
286.687	7.49
286.9	7.28
287.114	7.83
287.327	7.94
287.541	7.82
287.754	7.93
287.968	8.09
288.181	7.75
288.395	7.59
288.608	7.74
288.822	7.82
289.035	7.74
289.248	7.42
289.462	7.61
289.675	7.25
289.889	7.68
290.102	7.75
290.315	7.83
290.529	8.14
290.742	7.97
290.955	7.62
291.169	7.29
291.382	7.67
291.595	7.58
291.808	7.03
292.022	6.92
292.235	6.47
292.448	6.56
292.661	6.22
292.875	6.31
293.088	6.63
293.301	6.7
293.514	7.06
293.727	6.67
293.94	7.15
294.153	7.11
294.367	7.21
294.58	7.12
294.793	6.8
295.006	6.95
295.219	6.82
295.432	6.86
295.645	7.08
295.858	6.85
296.071	6.88
296.284	6.79
296.497	6.68
296.71	6.43
296.923	6.47
297.136	6.58
297.349	6.56
297.562	6.66
297.775	6.52
297.988	6.64
298.201	6.83
298.414	6.9
298.626	6.82
298.839	6.93
299.052	7.4
299.265	7.68
299.478	7.8
299.691	7.73
299.903	7.81
300.116	7.42
300.329	7.34
300.542	7.23
300.755	7.12
300.967	7.49
301.18	7.51
301.393	7.56
301.605	7.22
301.818	7.4
302.031	7.41
302.243	6.89
302.456	6.96
302.669	6.61
302.881	6.7
303.094	6.57
303.307	6.15
303.519	5.94
303.732	6.02
303.944	6.15
304.157	5.92
304.37	6.17
304.582	6.29
304.795	6.44
305.007	6.51
305.22	6.29
305.432	6.4
305.645	6.62
305.857	7.08
306.069	7.09
306.282	6.98
306.494	6.86
306.707	6.79
306.919	7.1
307.132	7.15
307.344	7.27
307.556	7.5
307.769	7.5
307.981	7.47
308.193	7.07
308.406	6.81
308.618	6.91
308.83	6.67
309.043	6.37
309.255	5.96
309.467	6.15
309.679	6.23
309.892	6.15
310.104	5.94
310.316	6.06
310.528	6.6
310.74	6.48
310.953	6.24
311.165	6.73
311.377	6.88
311.589	7.24
311.801	6.93
312.013	6.78
312.225	7.19
312.437	7.83
312.649	7.9
312.862	7.63
313.074	7.83
313.286	8.42
313.498	8.4
313.71	8.56
313.922	8.14
314.134	8.33
314.346	8.29
314.558	8
314.77	8.05
314.982	7.74
315.193	7.36
315.405	7.39
315.617	7.17
315.829	7.43
316.041	7.09
316.253	7.69
316.465	7.65
316.677	7.25
316.888	7.2
317.1	6.96
317.312	7.71
317.524	8.01
317.736	8.37
317.947	8.43
318.159	8.28
318.371	7.99
318.583	8.01
318.794	8.16
319.006	8.83
319.218	8.59
319.43	8.5
319.641	8.12
319.853	8.14
320.064	7.93
320.276	7.95
320.488	8.01
320.699	8.49
320.911	8.08
321.123	8.08
321.334	7.71
321.546	7.85
321.757	7.87
321.969	7.65
322.18	7.39
322.392	7.26
322.603	7.16
322.815	7.1
323.026	7.68
323.238	7.87
323.449	7.52
323.661	7.69
323.872	7.19
324.083	7.21
324.295	7.28
324.506	7.35
324.718	7.45
324.929	7.58
325.14	7.61
325.352	7.04
325.563	6.98
325.774	7.72
325.986	8.04
326.197	8.38
326.408	8.32
326.62	8.24
326.831	8.2
327.042	8.36
327.253	8.04
327.464	7.94
327.676	8.42
327.887	8.18
328.098	7.69
328.309	7.36
328.52	7.79
328.732	7.85
328.943	8.05
329.154	8.35
329.365	8.25
329.576	8.48
329.787	8.38
329.998	8
330.209	8.74
330.42	8.91
330.631	9.1
330.842	8.83
331.053	8.66
331.264	8.09
331.475	8.37
331.686	8.43
331.897	8.7
332.108	9.11
332.319	9.24
332.53	9.09
332.741	9.1
332.952	9.05
333.163	9.17
333.374	9.12
333.585	9.79
333.795	9.65
334.006	9.37
334.217	9.1
334.428	9.02
334.639	9.17
334.849	8.85
335.06	8.72
335.271	8.99
335.482	8.86
335.692	8.92
335.903	8.49
336.114	8.39
336.325	8.78
336.535	8.85
336.746	8.51
336.957	8.32
337.167	8.25
337.378	8.34
337.589	7.89
337.799	8
338.01	8.18
338.22	8.3
338.431	8.43
338.642	7.93
338.852	7.76
339.063	7.88
339.273	7.78
339.484	7.99
339.694	7.77
339.905	7.98
340.115	7.8
340.326	7.56
340.536	7.86
340.746	7.74
340.957	7.97
341.167	8.43
341.378	8.35
341.588	8.45
341.799	8.52
342.009	8.41
342.219	8.44
342.43	8.56
342.64	8.74
342.85	8.12
343.061	7.98
343.271	7.89
343.481	7.32
343.691	7.59
343.902	7.46
344.112	7.58
344.322	7.48
344.532	7.48
344.743	7.64
344.953	7.6
345.163	8.07
345.373	8.22
345.583	8.51
345.793	8.87
346.004	8.86
346.214	8.85
346.424	8.71
346.634	9.33
346.844	8.99
347.054	8.61
347.264	8.79
347.474	8.79
347.684	8.35
347.894	8.03
348.104	7.65
348.314	7.66
348.524	7.33
348.734	7.49
348.944	7.03
349.154	7.32
349.364	7.51
349.574	7.37
349.784	7.14
349.994	7.35
350.204	7.25
350.413	7.54
350.623	7.26
350.833	7.44
351.043	7.12
351.253	7.23
351.463	7.14
351.672	6.95
351.882	6.97
352.092	7.11
352.302	7.25
352.511	7.59
352.721	7.59
352.931	7.86
353.141	7.93
353.35	8.12
353.56	8.2
353.77	8.04
353.979	8
354.189	7.96
354.399	7.73
354.608	7.93
354.818	7.59
355.027	7.79
355.237	7.64
355.447	7.82
355.656	7.85
355.866	7.88
356.075	7.86
356.285	7.97
356.494	8.03
356.704	8.26
356.913	8.1
357.123	8.2
357.332	7.91
357.542	7.8
357.751	7.69
357.96	7.13
358.17	7
358.379	7.48
358.589	7.51
358.798	7.52
359.007	7.17
359.217	7.18
359.426	7.36
359.635	7.35
359.845	7.61
360.054	7.77
360.263	8.05
360.472	8.12
360.682	7.82
360.891	7.9
361.1	7.75
361.309	8.12
361.519	8.12
361.728	8.11
361.937	8.09
362.146	7.88
362.355	7.62
362.564	7.72
362.774	7.54
362.983	7.44
363.192	7.34
363.401	7.39
363.61	7.2
363.819	7.36
364.028	7.21
364.237	7.24
364.446	7.25
364.655	7.2
364.864	6.96
365.073	6.92
365.282	6.91
365.491	6.81
365.7	6.62
365.909	6.58
366.118	6.3
366.327	6.27
366.536	6.32
366.745	6.6
366.954	6.67
367.162	7.08
367.371	7.04
367.58	7.18
367.789	7.11
367.998	7.01
368.207	7.04
368.415	7.07
368.624	7.19
368.833	7.17
369.042	6.8
369.25	6.73
369.459	6.41
369.668	6.39
369.877	6.35
370.085	6.34
370.294	6.56
370.503	6.72
370.711	6.65
370.92	6.68
371.129	6.76
371.337	6.78
371.546	6.56
371.754	6.7
371.963	6.85
372.171	6.78
372.38	6.75
372.589	6.8
372.797	6.35
373.006	6.47
373.214	6.51
373.423	6.28
373.631	6.22
373.84	6.69
374.048	6.53
374.256	6.57
374.465	6.87
374.673	7.18
374.882	7.08
375.09	7.38
375.298	7.21
375.507	7.18
375.715	7.37
375.923	7.35
376.132	7.17
376.34	7.24
376.548	7.28
376.757	7.3
376.965	7.22
377.173	7.11
377.381	6.93
377.59	6.98
377.798	6.81
378.006	6.6
378.214	6.49
378.423	6.38
378.631	6.36
378.839	6.45
379.047	6.23
379.255	6.07
379.463	6.04
379.671	6.18
379.879	6.39
380.088	6.45
380.296	6.59
380.504	6.45
380.712	6.43
380.92	6.44
381.128	6.17
381.336	6.23
381.544	6.07
381.752	6.2
381.96	6.11
382.168	5.95
382.376	5.97
382.584	6.03
382.791	6.39
382.999	6.42
383.207	6.34
383.415	6.49
383.623	6.38
383.831	6.62
384.039	6.64
384.247	6.62
384.454	6.68
384.662	6.61
384.87	6.7
385.078	6.58
385.285	6.75
385.493	6.83
385.701	6.79
385.909	6.75
386.116	6.81
386.324	7
386.532	7.02
386.739	6.9
386.947	6.96
387.155	6.94
387.362	7.02
387.57	7.04
387.778	6.97
387.985	7.05
388.193	7.07
388.4	7.01
388.608	7.02
388.816	7.11
389.023	7.22
389.231	7.04
389.438	6.96
389.646	6.86
389.853	6.66
390.061	6.58
390.268	6.66
390.475	6.57
390.683	6.55
390.89	6.41
391.098	6.36
391.305	6.11
391.512	6.22
391.72	6.22
391.927	6.39
392.135	6.61
392.342	6.75
392.549	6.58
392.756	6.66
392.964	6.44
393.171	6.4
393.378	6.29
393.586	6.41
393.793	6.32
394	6.37
394.207	6.27
394.414	6.1
394.622	6
394.829	5.91
395.036	5.78
395.243	5.9
395.45	5.99
395.657	6.23
395.864	6.07
396.072	6.21
396.279	5.95
396.486	5.79
396.693	5.8
396.9	5.92
397.107	6.14
397.314	6.44
397.521	6.57
397.728	6.45
397.935	6.33
398.142	6.48
398.349	6.35
398.556	6.41
398.763	6.67
398.97	6.51
399.177	6.47
399.383	6.11
399.59	5.65
399.797	5.44
400.004	5.48
400.211	5.39
400.418	5.43
400.625	5.55
400.831	5.49
401.038	5.11
401.245	5.22
401.452	5.13
401.658	5.4
401.865	5.55
402.072	5.63
402.279	5.6
402.485	5.46
402.692	5.55
402.899	5.71
403.105	5.79
403.312	5.98
403.519	6.03
403.725	6.16
403.932	6.05
404.138	6.09
404.345	6.1
404.552	6.07
404.758	6.33
404.965	6.27
405.171	6.02
405.378	5.99
405.584	6.03
405.791	5.95
405.997	5.94
406.204	5.99
406.41	6.16
406.617	6.13
406.823	6.13
407.029	5.99
407.236	6.07
407.442	6
407.649	6.18
407.855	6.2
408.061	6.25
408.268	5.96
408.474	5.89
408.68	5.57
408.887	5.58
409.093	5.52
409.299	5.51
409.505	5.33
409.712	5.43
409.918	5.42
410.124	5.3
410.33	5.37
410.537	5.52
410.743	5.52
410.949	5.57
411.155	5.54
411.361	5.69
411.567	5.72
411.773	5.68
411.98	5.71
412.186	5.37
412.392	5.48
412.598	5.35
412.804	5.5
413.01	5.54
413.216	5.63
413.422	5.59
413.628	5.62
413.834	5.64
414.04	5.71
414.246	5.74
414.452	5.74
414.658	5.64
414.864	5.56
415.07	5.49
415.275	5.5
415.481	5.52
415.687	5.62
415.893	5.48
416.099	5.41
416.305	5.35
416.511	5.31
416.716	5.33
416.922	5.28
417.128	5.4
417.334	5.38
417.539	5.3
417.745	5.28
417.951	5.22
418.157	5.19
418.362	5.19
418.568	5.22
418.774	5.07
418.979	5.03
419.185	5.07
419.391	5
419.596	4.93
419.802	4.94
420.008	4.92
420.213	5.59
420.419	5.69
420.624	5.67
420.83	5.61
421.035	5.66
421.241	5.8
421.446	5.66
421.652	5.7
421.857	5.73
422.063	5.7
422.268	5.73
422.474	5.06
422.679	5.03
422.885	5
423.09	5.08
423.295	5.09
423.501	5.03
423.706	5.11
423.911	5.12
424.117	5.14
424.322	5.25
424.527	5.2
424.733	5.23
424.938	5.2
425.143	5.23
425.349	5.16
425.554	5.12
425.759	5.07
425.964	5.07
426.169	4.97
426.375	4.94
426.58	4.89
426.785	4.96
426.99	4.89
427.195	4.77
427.4	4.84
427.605	4.81
427.811	4.9
428.016	4.81
428.221	4.88
428.426	4.94
428.631	4.77
428.836	4.85
429.041	4.8
429.246	4.84
429.451	4.94
429.656	4.94
429.861	4.93
430.066	4.83
430.271	5
430.476	4.99
430.681	4.94
430.886	5.07
431.09	5
431.295	4.88
431.5	4.9
431.705	4.83
431.91	4.85
432.115	4.92
432.32	5
432.524	4.98
432.729	4.93
432.934	4.93
433.139	4.91
433.343	4.81
433.548	4.93
433.753	4.9
433.958	5.04
434.162	4.95
434.367	4.96
434.572	4.89
434.776	4.85
434.981	4.89
435.186	4.92
435.39	4.98
435.595	5.03
435.799	5.04
436.004	5.01
436.209	4.89
436.413	4.89
436.618	4.77
436.822	4.84
437.027	4.89
437.231	4.89
437.436	4.93
437.64	4.98
437.845	4.98
438.049	4.89
438.253	4.82
438.458	4.86
438.662	4.92
438.867	4.91
439.071	4.89
439.275	4.81
439.48	4.81
439.684	4.76
439.888	4.68
440.093	4.59
440.297	4.64
440.501	4.68
440.706	4.67
440.91	4.64
441.114	4.77
441.318	4.75
441.523	4.69
441.727	4.68
441.931	4.67
442.135	4.69
442.339	4.77
442.543	4.76
442.748	4.75
442.952	4.72
443.156	4.66
443.36	4.55
443.564	4.66
443.768	4.73
443.972	4.7
444.176	4.72
444.38	4.67
444.584	4.71
444.788	4.63
444.992	4.62
445.196	4.66
445.4	4.7
445.604	4.77
445.808	4.72
446.012	4.66
446.216	4.68
446.42	4.73
446.624	4.73
446.828	4.74
447.032	4.78
447.235	4.84
447.439	4.81
447.643	4.78
447.847	4.73
448.051	4.65
448.254	4.68
448.458	4.69
448.662	4.61
448.866	4.53
449.069	4.45
449.273	4.57
449.477	4.51
449.681	4.56
449.884	4.61
450.088	4.56
450.292	4.46
450.495	4.58
450.699	4.63
450.902	4.71
451.106	4.79
451.31	4.85
451.513	4.69
451.717	4.73
451.92	4.68
452.124	4.75
452.327	4.77
452.531	4.93
452.734	4.77
452.938	4.73
453.141	4.64
453.345	4.59
453.548	4.44
453.752	4.51
453.955	4.55
454.158	4.44
454.362	4.45
454.565	4.45
454.769	4.42
454.972	4.51
455.175	4.55
455.379	4.51
455.582	4.45
455.785	4.57
455.988	4.63
456.192	4.64
456.395	4.64
456.598	4.58
456.801	4.61
457.005	4.63
457.208	4.57
457.411	4.5
457.614	4.47
457.817	4.55
458.021	4.52
458.224	4.5
458.427	4.42
458.63	4.51
458.833	4.46
459.036	4.52
459.239	4.47
459.442	4.55
459.645	4.56
459.848	4.61
460.051	4.57
460.254	4.61
460.457	4.59
460.66	4.65
460.863	4.56
461.066	4.62
461.269	4.57
461.472	4.67
461.675	4.53
461.878	4.57
462.081	4.55
462.284	4.65
462.486	4.63
462.689	4.63
462.892	4.51
463.095	4.58
463.298	4.62
463.5	4.49
463.703	4.47
463.906	4.45
464.109	4.36
464.311	4.49
464.514	4.53
464.717	4.58
464.92	4.62
465.122	4.65
465.325	4.65
465.528	4.63
465.73	4.69
465.933	4.68
466.135	4.72
466.338	4.78
466.541	4.72
466.743	4.65
466.946	4.53
467.148	4.52
467.351	4.59
467.553	4.61
467.756	4.6
467.958	4.61
468.161	4.61
468.363	4.59
468.566	4.6
468.768	4.68
468.971	4.57
469.173	4.61
469.375	4.67
469.578	4.64
469.78	4.63
469.983	4.61
470.185	4.6
470.387	4.58
470.59	4.66
