Data from 2938541_Reflection_2.txt Node
Date: Mon Jun 15 23:34:17 EDT 2015
User: robert
Spectrometer: USB4E03002
Autoset integration time: false
Trigger mode: 4
Integration Time (sec): 1.000000E-1
Scans to average: 10
Electric dark correction enabled: true
Nonlinearity correction enabled: false
Boxcar width: 6
Stray light correction enabled: false
XAxis mode: Wavelengths
Stop averaging: false
Number of Pixels in Spectrum: 3648
>>>>>Begin Spectral Data<<<<<
177.575	17.65
177.794	18.42
178.014	14.03
178.233	-55.99
178.452	-342.48
178.672	217.71
178.891	220
179.11	-70.16
179.33	-91.4
179.549	-123.79
179.768	-81.82
179.987	-147.32
180.207	-26.35
180.426	-32.03
180.645	-13.28
180.864	19.84
181.084	-8.97
181.303	-27.73
181.522	6.34
181.741	-10.57
181.96	-2.38
182.179	14.01
182.398	7.38
182.618	-8.51
182.837	-14.88
183.056	-31.29
183.275	8.42
183.494	0.38
183.713	-32.9
183.932	-14.15
184.151	-46.9
184.37	-110.98
184.589	-41.35
184.808	-77.01
185.027	-180.77
185.246	-53.41
185.465	-79.16
185.684	-156.58
185.903	-117.78
186.122	-1200
186.341	2885
186.56	634.57
186.779	1264.1
186.998	-155.63
187.216	1084.62
187.435	207.22
187.654	661.17
187.873	3147.62
188.092	522.66
188.311	292.06
188.53	1091.67
188.748	-1400
188.967	-141.82
189.186	-617.07
189.405	-484.42
189.623	884.62
189.842	277.64
190.061	3072.73
190.28	-90.09
190.498	-182.46
190.717	-48.65
190.936	292.86
191.154	-29.73
191.373	1555.56
191.592	844.44
191.81	310.81
192.029	237.1
192.248	260.32
192.466	-900
192.685	-171.92
192.904	-142.15
193.122	808.16
193.341	1066.67
193.559	162.95
193.778	333.12
193.996	180.17
194.215	179.26
194.433	167.47
194.652	192.72
194.87	178.41
195.089	146.09
195.307	125.58
195.526	91.86
195.744	111.27
195.963	227.87
196.181	218.5
196.399	969.7
196.618	175.57
196.836	1.6
197.055	37.04
197.273	-4.17
197.491	20.25
197.71	-108.81
197.928	-8.18
198.146	-29.89
198.365	-48.28
198.583	-131.98
198.801	9750
199.019	520
199.238	784.48
199.456	1421.88
199.674	343.15
199.892	385.26
200.111	1839.29
200.329	177.64
200.547	246.75
200.765	213.54
200.983	213.25
201.202	217.19
201.42	294.48
201.638	198.35
201.856	340
202.074	174.78
202.292	203.91
202.51	144.64
202.728	165.1
202.946	127.04
203.165	117.42
203.383	107.47
203.601	86.09
203.819	66.29
204.037	79.5
204.255	56.94
204.473	78.73
204.691	65.67
204.909	50.17
205.127	31.57
205.345	11.64
205.562	43.6
205.78	122.58
205.998	110.29
206.216	65.23
206.434	39.75
206.652	18.35
206.87	40.92
207.088	79.62
207.306	87.23
207.523	97.8
207.741	152.17
207.959	146.86
208.177	181.76
208.395	133.39
208.612	111.69
208.83	133.33
209.048	163.12
209.266	180.22
209.483	192.21
209.701	226.49
209.919	400.77
210.136	202.43
210.354	197.85
210.572	179.08
210.79	176.4
211.007	150.64
211.225	173.77
211.442	132.68
211.66	116.67
211.878	107.42
212.095	118.77
212.313	104.36
212.53	84.48
212.748	83.18
212.966	61.8
213.183	76.8
213.401	78.38
213.618	88.87
213.836	78.44
214.053	44.06
214.271	38.92
214.488	15.91
214.705	23.59
214.923	0.41
215.14	10.66
215.358	23.84
215.575	11.76
215.793	10.97
216.01	9.32
216.227	21.76
216.445	19.04
216.662	22.98
216.879	36.31
217.097	47.31
217.314	44.91
217.531	49.95
217.749	56.97
217.966	37.3
218.183	42.92
218.4	44.78
218.618	37.06
218.835	27.15
219.052	14.5
219.269	4.71
219.487	-9.44
219.704	5.46
219.921	5.2
220.138	14.79
220.355	16.81
220.572	15.16
220.79	14.55
221.007	11.82
221.224	7.11
221.441	14.66
221.658	24.64
221.875	22.53
222.092	20.46
222.309	23.48
222.526	18.78
222.743	8.11
222.96	12.53
223.177	10.72
223.394	13.95
223.611	15.37
223.828	16.19
224.045	19.51
224.262	16.87
224.479	13.36
224.696	13.08
224.913	13.73
225.13	10.71
225.347	10.23
225.564	12.04
225.781	8.6
225.997	8.58
226.214	8.2
226.431	9.43
226.648	9.25
226.865	8.85
227.082	9.97
227.298	9.92
227.515	9.81
227.732	9.47
227.949	9
228.165	9.06
228.382	8.8
228.599	8.92
228.816	8.33
229.032	8.31
229.249	8.29
229.466	8.07
229.682	8.02
229.899	7.79
230.116	6.98
230.332	6.04
230.549	7.18
230.765	9.73
230.982	10.23
231.199	10.87
231.415	10.87
231.632	10.72
231.848	11.27
232.065	8.52
232.281	9.39
232.498	9.23
232.714	7.7
232.931	7.92
233.147	7.88
233.364	7.05
233.58	6
233.797	7.13
234.013	7.53
234.23	7.07
234.446	6.51
234.662	5.38
234.879	7.17
235.095	5.67
235.312	5.61
235.528	4.42
235.744	5.55
235.961	6.52
236.177	6.74
236.393	6.24
236.61	3.72
236.826	4.75
237.042	5.07
237.258	5.93
237.475	6.66
237.691	5.93
237.907	7.72
238.123	8.48
238.339	10.87
238.556	10.98
238.772	10.28
238.988	9.79
239.204	10.47
239.42	10.99
239.636	9.72
239.853	11.03
240.069	11.14
240.285	11.27
240.501	12.05
240.717	12.34
240.933	12.71
241.149	11.65
241.365	11.58
241.581	11.55
241.797	11.48
242.013	11.15
242.229	11.28
242.445	11.66
242.661	10.66
242.877	10.45
243.093	10.71
243.309	9.66
243.525	8.51
243.741	7.71
243.957	8.35
244.173	7.78
244.388	8.29
244.604	8.72
244.82	8.49
245.036	7.92
245.252	7.96
245.468	8.02
245.683	8.08
245.899	8.06
246.115	8.19
246.331	8.14
246.547	8.25
246.762	8.33
246.978	8.11
247.194	8
247.409	8.13
247.625	8.09
247.841	8.89
248.057	8.35
248.272	8.22
248.488	7.97
248.703	7.92
248.919	7.52
249.135	7.74
249.35	7.66
249.566	7.15
249.782	8.06
249.997	8.14
250.213	7.69
250.428	7.82
250.644	7.24
250.859	7.75
251.075	8.51
251.29	8.48
251.506	8.7
251.721	8.96
251.937	8.88
252.152	9.46
252.368	9.29
252.583	8.99
252.798	8.47
253.014	7.87
253.229	7.79
253.445	8.74
253.66	9.1
253.875	8.16
254.091	9.09
254.306	7.74
254.521	8.08
254.737	7.83
254.952	7.39
255.167	7.96
255.383	7.6
255.598	8
255.813	7.99
256.028	8.74
256.244	7.97
256.459	7.41
256.674	7.41
256.889	6.84
257.104	6.82
257.32	6.68
257.535	7.04
257.75	6.63
257.965	6.29
258.18	6.42
258.395	6.36
258.61	6.38
258.826	6.19
259.041	6.13
259.256	6.4
259.471	6.22
259.686	6.08
259.901	6.19
260.116	6.13
260.331	5.98
260.546	6.03
260.761	5.98
260.976	5.63
261.191	5.39
261.406	4.76
261.621	4.58
261.836	4.63
262.05	4.56
262.265	4.76
262.48	4.94
262.695	4.9
262.91	4.43
263.125	4.16
263.34	4.16
263.555	4.39
263.769	4.79
263.984	5.31
264.199	5.95
264.414	5.73
264.629	5.55
264.843	5.56
265.058	5.86
265.273	5.77
265.488	5.71
265.702	6.02
265.917	6.12
266.132	6.3
266.346	6.33
266.561	6.31
266.776	5.71
266.99	5.93
267.205	5.97
267.42	6.12
267.634	6.06
267.849	6.36
268.063	6.6
268.278	6.61
268.492	6.91
268.707	6.73
268.922	6.52
269.136	6.76
269.351	6.88
269.565	6.97
269.78	6.71
269.994	6.53
270.209	6.26
270.423	6.26
270.637	5.75
270.852	5.66
271.066	5.64
271.281	5.78
271.495	5.81
271.709	5.96
271.924	6.05
272.138	5.82
272.353	6.14
272.567	6.39
272.781	6.54
272.996	6.91
273.21	6.98
273.424	7.53
273.638	7.63
273.853	7.88
274.067	7.58
274.281	7.34
274.495	7.15
274.71	6.67
274.924	6.33
275.138	6.22
275.352	6.23
275.566	6.17
275.781	5.99
275.995	5.72
276.209	5.2
276.423	5
276.637	4.5
276.851	4.54
277.065	4.86
277.279	5.05
277.493	4.91
277.707	5.71
277.921	5.69
278.135	5.02
278.349	5.19
278.563	4.9
278.777	4.96
278.991	5.04
279.205	5.17
279.419	5.28
279.633	5.26
279.847	5.07
280.061	5.29
280.275	5.51
280.489	5.28
280.703	5.38
280.917	5.75
281.131	5.76
281.344	6.07
281.558	6.09
281.772	5.95
281.986	5.97
282.2	6.15
282.414	6.16
282.627	6.02
282.841	6.04
283.055	5.99
283.269	6.1
283.482	5.75
283.696	6.1
283.91	5.83
284.123	6
284.337	5.8
284.551	5.8
284.764	5.79
284.978	5.66
285.192	5.57
285.405	6.16
285.619	6.18
285.833	6.32
286.046	6.26
286.26	6.46
286.473	6.14
286.687	6.63
286.9	6.5
287.114	6.66
287.327	6.67
287.541	6.91
287.754	7.05
287.968	7.12
288.181	6.76
288.395	6.73
288.608	6.78
288.822	6.61
289.035	6.61
289.248	6.59
289.462	6.03
289.675	6.01
289.889	5.94
290.102	5.98
290.315	5.51
290.529	5.38
290.742	5.21
290.955	5.63
291.169	5.64
291.382	5.34
291.595	5.38
291.808	5.7
292.022	5.71
292.235	6.02
292.448	6.22
292.661	6.32
292.875	6.76
293.088	7.28
293.301	7.28
293.514	7.2
293.727	6.71
293.94	6.6
294.153	6.86
294.367	7.03
294.58	6.88
294.793	7.03
295.006	7.04
295.219	6.72
295.432	6.67
295.645	6.53
295.858	6.29
296.071	6.26
296.284	6.45
296.497	6.55
296.71	6.59
296.923	6.52
297.136	6.63
297.349	6.55
297.562	6.35
297.775	6.25
297.988	6.61
298.201	6.61
298.414	6.36
298.626	6.13
298.839	5.93
299.052	5.77
299.265	5.82
299.478	5.77
299.691	5.64
299.903	5.51
300.116	5.73
300.329	5.77
300.542	5.67
300.755	5.59
300.967	5.68
301.18	5.94
301.393	6.51
301.605	6.84
301.818	6.85
302.031	6.88
302.243	6.64
302.456	6.65
302.669	6.93
302.881	6.94
303.094	7.04
303.307	7.03
303.519	7.09
303.732	6.91
303.944	6.88
304.157	6.61
304.37	6.67
304.582	7.03
304.795	6.98
305.007	7.47
305.22	7.44
305.432	6.98
305.645	6.76
305.857	6.65
306.069	7.22
306.282	7.06
306.494	7.31
306.707	7.36
306.919	7.22
307.132	7.26
307.344	7.09
307.556	6.89
307.769	6.44
307.981	6.6
308.193	6.6
308.406	6.78
308.618	6.71
308.83	6.32
309.043	6.35
309.255	6.45
309.467	6.37
309.679	6.63
309.892	6.62
310.104	6.86
310.316	7.09
310.528	7.34
310.74	7.4
310.953	7.68
311.165	7.93
311.377	8.13
311.589	8.59
311.801	8.38
312.013	8.56
312.225	8.5
312.437	8.64
312.649	8.46
312.862	8.34
313.074	8.39
313.286	8.84
313.498	8.66
313.71	8.37
313.922	7.92
314.134	7.94
314.346	7.55
314.558	8.02
314.77	7.48
314.982	7.37
315.193	7.45
315.405	7.35
315.617	7.23
315.829	6.83
316.041	6.18
316.253	6.39
316.465	6.22
316.677	6.22
316.888	6.12
317.1	6.44
317.312	6.02
317.524	6.38
317.736	6.58
317.947	6.5
318.159	6.84
318.371	7.25
318.583	7.61
318.794	7.91
319.006	8.01
319.218	8.43
319.43	8.5
319.641	8.6
319.853	8.39
320.064	8.95
320.276	8.99
320.488	9.19
320.699	9.14
320.911	9.11
321.123	9.16
321.334	9.02
321.546	8.68
321.757	8.22
321.969	8.46
322.18	8.53
322.392	9
322.603	8.69
322.815	8.71
323.026	8.55
323.238	8.52
323.449	8.44
323.661	8.75
323.872	8.65
324.083	9.05
324.295	9.27
324.506	9.52
324.718	9.2
324.929	9.07
325.14	8.85
325.352	9.11
325.563	8.67
325.774	9.07
325.986	9.21
326.197	9.33
326.408	9.34
326.62	9.41
326.831	9.34
327.042	9.73
327.253	10.1
327.464	9.83
327.676	10.08
327.887	10.08
328.098	10.43
328.309	10.66
328.52	10.64
328.732	10.72
328.943	10.68
329.154	10.8
329.365	11
329.576	10.94
329.787	10.4
329.998	10.12
330.209	10.66
330.42	10.74
330.631	10.76
330.842	10.67
331.053	10.59
331.264	10.43
331.475	10.41
331.686	10.6
331.897	10.24
332.108	10.12
332.319	10.48
332.53	10.68
332.741	10.63
332.952	10.38
333.163	10.06
333.374	9.9
333.585	10.08
333.795	9.85
334.006	10.07
334.217	10.25
334.428	10.15
334.639	10.15
334.849	9.8
335.06	9.38
335.271	9.59
335.482	9.53
335.692	9.89
335.903	10.09
336.114	10.32
336.325	10.13
336.535	10.84
336.746	10.71
336.957	10.68
337.167	10.74
337.378	11.28
337.589	11.21
337.799	11.59
338.01	11.43
338.22	11.4
338.431	11.06
338.642	11.47
338.852	11.37
339.063	11.44
339.273	11.22
339.484	11.4
339.694	11.43
339.905	11.41
340.115	10.91
340.326	11.05
340.536	10.5
340.746	10.35
340.957	10.66
341.167	10.87
341.378	10.63
341.588	10.58
341.799	10.41
342.009	10
342.219	9.92
342.43	9.74
342.64	9.43
342.85	9.48
343.061	9.49
343.271	9.65
343.481	9.79
343.691	9.44
343.902	9.36
344.112	9.26
344.322	9.24
344.532	9.26
344.743	9.53
344.953	9.11
345.163	9.03
345.373	9.09
345.583	9.16
345.793	9.33
346.004	9.58
346.214	9.73
346.424	9.87
346.634	9.82
346.844	9.7
347.054	9.71
347.264	10.03
347.474	9.76
347.684	10.16
347.894	10.21
348.104	10.15
348.314	10.13
348.524	9.71
348.734	9.82
348.944	9.71
349.154	9.68
349.364	9.85
349.574	10.01
349.784	10.01
349.994	9.54
350.204	9.7
350.413	9.34
350.623	9.26
350.833	9.37
351.043	9.26
351.253	9.43
351.463	9.06
351.672	9.24
351.882	9.32
352.092	9.17
352.302	9.13
352.511	8.85
352.721	9.15
352.931	9.3
353.141	9.48
353.35	9.53
353.56	9.51
353.77	9.43
353.979	9.54
354.189	9.52
354.399	9.35
354.608	9.41
354.818	9.45
355.027	9.44
355.237	9.58
355.447	9.35
355.656	9.1
355.866	8.93
356.075	9.05
356.285	9.36
356.494	9.49
356.704	9.22
356.913	9.34
357.123	9.32
357.332	9.19
357.542	9.02
357.751	8.9
357.96	8.98
358.17	9.03
358.379	9.17
358.589	9.34
358.798	9.04
359.007	8.64
359.217	8.38
359.426	8.62
359.635	8.56
359.845	8.76
360.054	8.66
360.263	8.8
360.472	8.76
360.682	8.66
360.891	8.67
361.1	8.66
361.309	8.69
361.519	8.68
361.728	8.78
361.937	8.99
362.146	8.72
362.355	8.8
362.564	8.48
362.774	8.47
362.983	8.36
363.192	8.36
363.401	8.33
363.61	8.73
363.819	8.69
364.028	8.47
364.237	8.56
364.446	8.33
364.655	8.2
364.864	8.49
365.073	8.37
365.282	8.37
365.491	8.51
365.7	8.46
365.909	8.31
366.118	8.46
366.327	7.96
366.536	7.93
366.745	7.91
366.954	7.95
367.162	8.17
367.371	8.26
367.58	8.16
367.789	8.11
367.998	7.87
368.207	7.88
368.415	8.06
368.624	8.26
368.833	8.29
369.042	8.34
369.25	8.21
369.459	8.36
369.668	8.37
369.877	8.28
370.085	8.11
370.294	8.08
370.503	8.16
370.711	8.38
370.92	8.58
371.129	8.33
371.337	8.21
371.546	8.21
371.754	8.26
371.963	8.41
372.171	8.43
372.38	8.12
372.589	8.17
372.797	8.24
373.006	8.11
373.214	8.24
373.423	8.23
373.631	7.84
373.84	8.2
374.048	8.34
374.256	8.26
374.465	8.36
374.673	8.25
374.882	8.1
375.09	8.34
375.298	8.38
375.507	8.32
375.715	8.3
375.923	8.01
376.132	8.03
376.34	8.31
376.548	8.03
376.757	7.96
376.965	7.87
377.173	7.66
377.381	7.73
377.59	7.74
377.798	7.51
378.006	7.31
378.214	7.3
378.423	7.3
378.631	7.16
378.839	6.91
379.047	6.68
379.255	6.78
379.463	6.6
379.671	6.61
379.879	6.79
380.088	6.71
380.296	6.65
380.504	6.92
380.712	6.89
380.92	6.83
381.128	6.89
381.336	6.81
381.544	6.87
381.752	7.02
381.96	6.78
382.168	6.89
382.376	6.92
382.584	6.76
382.791	6.81
382.999	6.73
383.207	6.66
383.415	6.68
383.623	6.79
383.831	6.88
384.039	7.29
384.247	7.21
384.454	7.01
384.662	7.15
384.87	7.16
385.078	7.11
385.285	7.1
385.493	6.96
385.701	7.01
385.909	7.02
386.116	6.89
386.324	6.87
386.532	6.85
386.739	6.75
386.947	6.96
387.155	6.98
387.362	6.93
387.57	6.96
387.778	6.89
387.985	6.79
388.193	6.96
388.4	7.17
388.608	7.15
388.816	7.3
389.023	7.39
389.231	7.27
389.438	7.15
389.646	7.15
389.853	7.17
390.061	7.14
390.268	6.98
390.475	6.98
390.683	7.07
390.89	6.92
391.098	6.77
391.305	6.71
391.512	6.81
391.72	6.7
391.927	6.64
392.135	6.61
392.342	6.7
392.549	6.65
392.756	6.64
392.964	6.67
393.171	6.66
393.378	6.67
393.586	6.69
393.793	6.7
394	6.72
394.207	6.55
394.414	6.47
394.622	6.51
394.829	6.47
395.036	6.48
395.243	6.6
395.45	6.44
395.657	6.38
395.864	6.38
396.072	6.29
396.279	6.32
396.486	6.21
396.693	6.22
396.9	6.35
397.107	6.49
397.314	6.5
397.521	6.47
397.728	6.22
397.935	6.04
398.142	6.21
398.349	6.31
398.556	6.45
398.763	6.4
398.97	6.34
399.177	6.47
399.383	6.43
399.59	6.43
399.797	6.42
400.004	6.63
400.211	6.7
400.418	6.65
400.625	6.71
400.831	6.61
401.038	6.63
401.245	6.56
401.452	6.53
401.658	6.56
401.865	6.53
402.072	6.54
402.279	6.51
402.485	6.38
402.692	6.11
402.899	6.22
403.105	6.15
403.312	6.14
403.519	6.09
403.725	6.01
403.932	5.95
404.138	5.97
404.345	6.03
404.552	6.08
404.758	6.03
404.965	6
405.171	6.03
405.378	6.04
405.584	5.96
405.791	6.02
405.997	6.05
406.204	6.08
406.41	6.17
406.617	6.06
406.823	6.07
407.029	5.97
407.236	5.9
407.442	5.87
407.649	5.91
407.855	5.95
408.061	6.07
408.268	6.05
408.474	6.03
408.68	6.05
408.887	6.15
409.093	6.11
409.299	6.25
409.505	6.14
409.712	6.12
409.918	6.06
410.124	6.14
410.33	5.98
410.537	5.92
410.743	5.78
410.949	5.7
411.155	5.76
411.361	5.71
411.567	5.52
411.773	5.38
411.98	5.36
412.186	5.42
412.392	5.42
412.598	5.37
412.804	5.37
413.01	5.51
413.216	5.72
413.422	5.84
413.628	5.84
413.834	5.8
414.04	5.71
414.246	5.94
414.452	6.04
414.658	6
414.864	6.06
415.07	6.21
415.275	6.27
415.481	6.24
415.687	6.06
415.893	5.81
416.099	5.76
416.305	5.83
416.511	5.85
416.716	5.9
416.922	5.74
417.128	5.79
417.334	5.77
417.539	5.68
417.745	5.6
417.951	5.62
418.157	5.59
418.362	5.65
418.568	5.71
418.774	5.63
418.979	5.52
419.185	5.44
419.391	5.48
419.596	5.52
419.802	5.56
420.008	5.67
420.213	5.65
420.419	5.67
420.624	5.64
420.83	5.59
421.035	5.61
421.241	5.57
421.446	5.61
421.652	5.6
421.857	5.6
422.063	5.54
422.268	5.53
422.474	5.44
422.679	5.37
422.885	5.42
423.09	5.37
423.295	5.37
423.501	5.38
423.706	5.32
423.911	5.34
424.117	5.27
424.322	5.34
424.527	5.38
424.733	5.3
424.938	5.22
425.143	5.21
425.349	5.16
425.554	5.11
425.759	5.15
425.964	5.15
426.169	5.21
426.375	5.26
426.58	5.2
426.785	5.29
426.99	5.25
427.195	5.23
427.4	5.38
427.605	5.47
427.811	5.52
428.016	5.46
428.221	5.47
428.426	5.39
428.631	5.35
428.836	5.3
429.041	5.2
429.246	5.21
429.451	5.2
429.656	5.16
429.861	5.24
430.066	5.17
430.271	5.13
430.476	5.12
430.681	5.18
430.886	5.26
431.09	5.31
431.295	5.23
431.5	5.21
431.705	5.32
431.91	5.45
432.115	5.51
432.32	5.6
432.524	5.57
432.729	5.58
432.934	5.53
433.139	5.54
433.343	5.48
433.548	5.34
433.753	5.33
433.958	5.36
434.162	5.43
434.367	5.5
434.572	5.45
434.776	5.41
434.981	5.27
435.186	5.23
435.39	5.22
435.595	5.35
435.799	5.32
436.004	5.32
436.209	5.48
436.413	5.53
436.618	5.55
436.822	5.44
437.027	5.37
437.231	5.3
437.436	5.28
437.64	5.44
437.845	5.52
438.049	5.53
438.253	5.53
438.458	5.5
438.662	5.55
438.867	5.49
439.071	5.36
439.275	5.37
439.48	5.46
439.684	5.43
439.888	5.51
440.093	5.5
440.297	5.43
440.501	5.37
440.706	5.48
440.91	5.46
441.114	5.58
441.318	5.55
441.523	5.6
441.727	5.7
441.931	5.68
442.135	5.61
442.339	5.68
442.543	5.61
442.748	5.62
442.952	5.57
443.156	5.57
443.36	5.43
443.564	5.4
443.768	5.23
443.972	5.27
444.176	5.27
444.38	5.27
444.584	5.24
444.788	5.3
444.992	5.25
445.196	5.28
445.4	5.2
445.604	5.19
445.808	5.18
446.012	5.15
446.216	5.17
446.42	5.22
446.624	5.12
446.828	5.1
447.032	5.07
447.235	5.13
447.439	5.07
447.643	5.06
447.847	5.01
448.051	5.12
448.254	5.12
448.458	5.07
448.662	5.07
448.866	5.01
449.069	5.01
449.273	5.1
449.477	4.94
449.681	4.95
449.884	4.9
450.088	4.85
450.292	4.88
450.495	4.8
450.699	4.79
450.902	4.8
451.106	4.75
451.31	4.85
451.513	4.86
451.717	4.93
451.92	4.92
452.124	5
452.327	4.94
452.531	5.03
452.734	5.07
452.938	5.08
453.141	5.13
453.345	5.1
453.548	5.08
453.752	5.19
453.955	5.05
454.158	5.03
454.362	4.93
454.565	4.91
454.769	4.94
454.972	4.93
455.175	4.84
455.379	4.78
455.582	4.76
455.785	4.8
455.988	4.85
456.192	4.79
456.395	4.81
456.598	4.87
456.801	4.94
457.005	4.89
457.208	4.82
457.411	4.78
457.614	4.82
457.817	4.83
458.021	4.84
458.224	4.82
458.427	4.81
458.63	4.73
458.833	4.78
459.036	4.82
459.239	4.84
459.442	4.83
459.645	4.9
459.848	5
460.051	5.06
460.254	5.03
460.457	5.08
460.66	5.22
460.863	5.22
461.066	5.24
461.269	5.32
461.472	5.31
461.675	5.2
461.878	5.2
462.081	5.13
462.284	5.05
462.486	5.03
462.689	4.98
462.892	5.02
463.095	5.01
463.298	4.88
463.5	4.91
463.703	4.91
463.906	4.86
464.109	4.83
464.311	4.95
464.514	5.04
464.717	5.14
464.92	5.13
465.122	5.07
465.325	5.12
465.528	5.1
465.73	5
465.933	4.96
466.135	4.95
466.338	4.98
466.541	4.93
466.743	4.97
466.946	4.87
467.148	4.75
467.351	4.68
467.553	4.74
467.756	4.8
467.958	4.73
468.161	4.8
468.363	4.9
468.566	4.87
468.768	4.86
468.971	4.79
469.173	4.83
469.375	4.88
469.578	4.96
469.78	5.08
469.983	5.05
