Data from 2938535_Reflection_2.txt Node
Date: Mon Jun 15 23:52:33 EDT 2015
User: robert
Spectrometer: USB4E03002
Autoset integration time: false
Trigger mode: 4
Integration Time (sec): 1.000000E-1
Scans to average: 10
Electric dark correction enabled: true
Nonlinearity correction enabled: false
Boxcar width: 6
Stray light correction enabled: false
XAxis mode: Wavelengths
Stop averaging: false
Number of Pixels in Spectrum: 3648
>>>>>Begin Spectral Data<<<<<
177.575	-78.13
177.794	-127.47
178.014	-134.09
178.233	-136.65
178.452	-762.03
178.672	-306.27
178.891	60
179.11	-229.84
179.33	-206.99
179.549	-258.15
179.768	-241.09
179.987	-436.59
180.207	-157.88
180.426	-189.86
180.645	-176.44
180.864	-128.26
181.084	-162.38
181.303	-178.32
181.522	-169.02
181.741	-167.56
181.96	-149.91
182.179	-136.35
182.398	-147.6
182.618	-217.02
182.837	-150.73
183.056	-185.41
183.275	-103.26
183.494	-164.05
183.713	-227.68
183.932	-194
184.151	-376.74
184.37	-361.18
184.589	-235.95
184.808	-443.85
185.027	-826.92
185.246	-360.61
185.465	-219.96
185.684	-377.3
185.903	-448.89
186.122	-3172.34
186.341	7320
186.56	1902.47
186.779	3730.77
186.998	-787.32
187.216	4830.77
187.435	527.38
187.654	1413.59
187.873	6247.62
188.092	1117.97
188.311	1008.73
188.53	5475
188.748	-6710
188.967	-1045.45
189.186	-3141.46
189.405	-1600
189.623	2698.08
189.842	859.01
190.061	11618.18
190.28	-1145.05
190.498	-2473.68
190.717	-1875.68
190.936	-10550
191.154	-4248.65
191.373	17622.22
191.592	5866.67
191.81	4262.16
192.029	2530.65
192.248	2822.22
192.466	-6708.33
192.685	-1126.03
192.904	-1471.9
193.122	3712.24
193.341	6081.48
193.559	717.93
193.778	1115.58
193.996	506.32
194.215	533.11
194.433	481.02
194.652	538.08
194.87	751.7
195.089	397.97
195.307	402.91
195.526	298.37
195.744	332.17
195.963	801.64
196.181	823.7
196.399	4251.52
196.618	980.15
196.836	-623.53
197.055	-530.09
197.273	-1096.67
197.491	-368.85
197.71	-743.01
197.928	-281.31
198.146	-291.69
198.365	-285.29
198.583	-451.42
198.801	31825
199.019	1428.42
199.238	2310.34
199.456	4412.5
199.674	803.55
199.892	989.74
200.111	5060.71
200.329	491.05
200.547	609.76
200.765	553.13
200.983	635.04
201.202	700.78
201.42	1233.79
201.638	924.18
201.856	2750
202.074	1329.57
202.292	967.6
202.51	780.36
202.728	736.47
202.946	489.8
203.165	443.67
203.383	434.07
203.601	420.22
203.819	302.44
204.037	341.89
204.255	308.45
204.473	486.98
204.691	432.97
204.909	306.72
205.127	367.28
205.345	362.96
205.562	399.09
205.78	816.13
205.998	412.54
206.216	364.08
206.434	305
206.652	367.7
206.87	325.68
207.088	272.45
207.306	303.1
207.523	287.63
207.741	400
207.959	303.14
208.177	372.96
208.395	334.96
208.612	286.29
208.83	433.55
209.048	457.24
209.266	458.91
209.483	407.98
209.701	586.9
209.919	1410.77
210.136	535.68
210.354	513.71
210.572	470.56
210.79	552.8
211.007	417.31
211.225	428.34
211.442	395.83
211.66	275.52
211.878	279.09
212.095	297.03
212.313	258.26
212.53	227.61
212.748	202.83
212.966	230.63
213.183	238.49
213.401	221.12
213.618	231.73
213.836	229.68
214.053	213.83
214.271	263.23
214.488	484.47
214.705	306.14
214.923	259.71
215.14	274.63
215.358	175.9
215.575	185.89
215.793	148.89
216.01	137.26
216.227	146.82
216.445	121.74
216.662	108.23
216.879	104.83
217.097	79.55
217.314	77.19
217.531	83.78
217.749	99.14
217.966	86.73
218.183	88.6
218.4	84.93
218.618	87.86
218.835	81.3
219.052	69.42
219.269	72.35
219.487	81.24
219.704	77.67
219.921	77.14
220.138	69.75
220.355	68.2
220.572	55
220.79	63.5
221.007	64.6
221.224	67.25
221.441	73.12
221.658	78.57
221.875	70.58
222.092	58.23
222.309	56.1
222.526	52.53
222.743	53.5
222.96	50.04
223.177	48.72
223.394	49.94
223.611	44.93
223.828	42.49
224.045	43.04
224.262	38.74
224.479	32.65
224.696	35.44
224.913	36.8
225.13	33.04
225.347	30.88
225.564	28.46
225.781	27.82
225.997	25.8
226.214	24.1
226.431	22.15
226.648	21.87
226.865	20.78
227.082	21.93
227.298	22.14
227.515	20.86
227.732	20.01
227.949	19.37
228.165	20.03
228.382	20.39
228.599	20.36
228.816	19.81
229.032	20.95
229.249	21.7
229.466	21.92
229.682	20.86
229.899	19.18
230.116	18.19
230.332	17.42
230.549	17.56
230.765	18.84
230.982	18.46
231.199	18.2
231.415	17.65
231.632	16.42
231.848	15.93
232.065	15.11
232.281	15.65
232.498	17.91
232.714	18.51
232.931	19.15
233.147	19.89
233.364	19.96
233.58	19.91
233.797	20.16
234.013	19.73
234.23	19.94
234.446	21.96
234.662	22.53
234.879	22.82
235.095	22.33
235.312	23.28
235.528	21.71
235.744	21.3
235.961	20.8
236.177	22.77
236.393	22.29
236.61	20.56
236.826	22.99
237.042	24.27
237.258	23.91
237.475	21.86
237.691	20.25
237.907	19.94
238.123	17.89
238.339	19.48
238.556	19.99
238.772	20.33
238.988	18.84
239.204	18.69
239.42	18.44
239.636	17.08
239.853	15.83
240.069	16
240.285	15.77
240.501	16.02
240.717	16.45
240.933	16.3
241.149	15.96
241.365	15.8
241.581	15.69
241.797	14.63
242.013	14.55
242.229	14.2
242.445	14.32
242.661	14.23
242.877	13.6
243.093	13.59
243.309	13.73
243.525	12.52
243.741	12.5
243.957	12.07
244.173	11.87
244.388	11.71
244.604	12.45
244.82	11.94
245.036	12.13
245.252	11.73
245.468	11.57
245.683	11.34
245.899	11.42
246.115	11.41
246.331	11.28
246.547	11.24
246.762	11.07
246.978	10.58
247.194	10.58
247.409	10.7
247.625	10.9
247.841	11.23
248.057	11.01
248.272	11.1
248.488	11.19
248.703	11.31
248.919	10.9
249.135	11.17
249.35	11.41
249.566	11.43
249.782	12.45
249.997	11.87
250.213	11.23
250.428	10.91
250.644	10.79
250.859	11.41
251.075	12.11
251.29	12.26
251.506	12.06
251.721	12.13
251.937	12.91
252.152	13
252.368	14.03
252.583	13.96
252.798	14.69
253.014	14.78
253.229	15.29
253.445	15.64
253.66	15.44
253.875	14.68
254.091	15.09
254.306	14.81
254.521	15.02
254.737	13.34
254.952	12.38
255.167	11.2
255.383	10.9
255.598	11.21
255.813	10.87
256.028	10.64
256.244	9.44
256.459	9.04
256.674	8.41
256.889	7.51
257.104	7.63
257.32	7.52
257.535	7.53
257.75	7.57
257.965	7.5
258.18	7.6
258.395	7.39
258.61	7.62
258.826	7.69
259.041	7.89
259.256	7.99
259.471	8.12
259.686	8.66
259.901	8.56
260.116	8.51
260.331	8.97
260.546	8.97
260.761	9.14
260.976	9.2
261.191	9.29
261.406	9.02
261.621	8.9
261.836	8.89
262.05	9.28
262.265	10.06
262.48	9.28
262.695	9.61
262.91	9.58
263.125	9.47
263.34	9.72
263.555	9.21
263.769	8.4
263.984	9.19
264.199	9.6
264.414	9.61
264.629	9.4
264.843	9.33
265.058	8.58
265.273	8.47
265.488	8.32
265.702	8.08
265.917	8.2
266.132	8.6
266.346	9.13
266.561	9.87
266.776	9.59
266.99	9.89
267.205	9.53
267.42	9.42
267.634	9.27
267.849	9.93
268.063	10.67
268.278	10.32
268.492	10.54
268.707	10.2
268.922	9.51
269.136	9.5
269.351	9.13
269.565	8.41
269.78	8.46
269.994	8.46
270.209	8.37
270.423	8.26
270.637	7.77
270.852	7.77
271.066	8.44
271.281	8.58
271.495	8.91
271.709	9.26
271.924	9.26
272.138	9.48
272.353	9.94
272.567	9.78
272.781	10.3
272.996	10.79
273.21	11.24
273.424	11.8
273.638	11.63
273.853	11.29
274.067	11.38
274.281	10.95
274.495	10.62
274.71	10.48
274.924	10.13
275.138	9.97
275.352	10.22
275.566	9.99
275.781	9.78
275.995	9.69
276.209	9.42
276.423	8.7
276.637	8.04
276.851	7.81
277.065	8.25
277.279	8.67
277.493	8.92
277.707	8.98
277.921	9.19
278.135	8.22
278.349	8.06
278.563	8.12
278.777	7.94
278.991	8.01
279.205	8.46
279.419	8.88
279.633	8.89
279.847	8.3
280.061	8.57
280.275	8.52
280.489	8.67
280.703	8.6
280.917	8.58
281.131	8.83
281.344	8.81
281.558	8.77
281.772	8.2
281.986	8.3
282.2	8.37
282.414	8.17
282.627	8.17
282.841	7.78
283.055	7.7
283.269	7.56
283.482	7.3
283.696	7.54
283.91	6.92
284.123	6.8
284.337	6.54
284.551	6.68
284.764	6.45
284.978	6.04
285.192	6.06
285.405	6.41
285.619	6.5
285.833	6.34
286.046	6.35
286.26	6.27
286.473	6.51
286.687	6.85
286.9	7.02
287.114	7.15
287.327	7.24
287.541	7.36
287.754	8.12
287.968	8.08
288.181	7.58
288.395	7.6
288.608	7.62
288.822	7.53
289.035	8.15
289.248	8.07
289.462	7.98
289.675	7.96
289.889	7.74
290.102	7.95
290.315	7.85
290.529	7.35
290.742	7.33
290.955	7.91
291.169	7.96
291.382	8.18
291.595	8.31
291.808	7.65
292.022	7.42
292.235	7.81
292.448	7.75
292.661	8.39
292.875	8.44
293.088	8.93
293.301	8.85
293.514	8.8
293.727	8.57
293.94	8.47
294.153	8.16
294.367	8
294.58	8.11
294.793	8.42
295.006	8.37
295.219	8.25
295.432	7.99
295.645	7.73
295.858	7.18
296.071	7.22
296.284	7.37
296.497	7.28
296.71	7.41
296.923	7.67
297.136	7.72
297.349	7.75
297.562	7.46
297.775	7.42
297.988	7.78
298.201	7.84
298.414	7.92
298.626	7.9
298.839	7.81
299.052	7.81
299.265	7.85
299.478	7.65
299.691	7.36
299.903	7.73
300.116	8.11
300.329	7.83
300.542	7.83
300.755	7.73
300.967	7.65
301.18	7.42
301.393	7.9
301.605	8.35
301.818	8.31
302.031	8.46
302.243	8.62
302.456	8.74
302.669	8.88
302.881	8.76
303.094	9.21
303.307	9.06
303.519	9.21
303.732	9.1
303.944	9.54
304.157	9.39
304.37	9.22
304.582	9.59
304.795	9.7
305.007	9.28
305.22	9.07
305.432	8.48
305.645	8.54
305.857	8.74
306.069	8.85
306.282	8.7
306.494	9.17
306.707	9.05
306.919	8.96
307.132	9.04
307.344	8.8
307.556	8.76
307.769	8.79
307.981	9.07
308.193	8.93
308.406	8.7
308.618	8.37
308.83	8.37
309.043	8.11
309.255	7.95
309.467	7.95
309.679	8.21
309.892	7.86
310.104	8.04
310.316	7.94
310.528	8.26
310.74	8.25
310.953	8.36
311.165	8.6
311.377	8.68
311.589	8.65
311.801	8.58
312.013	8.85
312.225	9.1
312.437	9.49
312.649	9.55
312.862	9.28
313.074	9.66
313.286	9.13
313.498	8.94
313.71	9.17
313.922	9.04
314.134	9.37
314.346	9.56
314.558	9.89
314.77	9.75
314.982	9.51
315.193	9.14
315.405	9.17
315.617	9.56
315.829	9.14
316.041	9.39
316.253	9.7
316.465	9.13
316.677	9.43
316.888	9.28
317.1	9.22
317.312	9.24
317.524	9.13
317.736	9.43
317.947	9.62
318.159	10.03
318.371	10.18
318.583	10.53
318.794	11.16
319.006	11.14
319.218	11.85
319.43	11.61
319.641	11.42
319.853	11.58
320.064	11.71
320.276	11.99
320.488	12.15
320.699	11.92
320.911	11.71
321.123	11.35
321.334	11.35
321.546	10.64
321.757	10.62
321.969	10.63
322.18	10.7
322.392	11.01
322.603	10.83
322.815	10.47
323.026	9.98
323.238	9.92
323.449	9.93
323.661	10.26
323.872	10.36
324.083	10.26
324.295	10.05
324.506	9.83
324.718	9.69
324.929	9.14
325.14	9.04
325.352	8.87
325.563	8.88
325.774	9.43
325.986	9.34
326.197	9.37
326.408	9.34
326.62	9.07
326.831	9.25
327.042	9.65
327.253	9.81
327.464	9.72
327.676	10.28
327.887	10.25
328.098	10.63
328.309	10.87
328.52	10.6
328.732	10.34
328.943	10
329.154	9.87
329.365	9.83
329.576	9.64
329.787	9.54
329.998	9.6
330.209	9.92
330.42	9.58
330.631	9.84
330.842	9.72
331.053	9.66
331.264	9.7
331.475	10
331.686	10.32
331.897	10.13
332.108	10.71
332.319	10.66
332.53	10.69
332.741	10.85
332.952	10.43
333.163	10.64
333.374	10.01
333.585	10.14
333.795	9.97
334.006	9.95
334.217	10.17
334.428	10.36
334.639	10.41
334.849	9.81
335.06	9.52
335.271	9.47
335.482	9.03
335.692	9.4
335.903	9.42
336.114	9.99
336.325	9.94
336.535	10.42
336.746	10.53
336.957	10.52
337.167	10.27
337.378	11
337.589	11.07
337.799	11.61
338.01	11.59
338.22	11.75
338.431	11.62
338.642	11.62
338.852	11.4
339.063	11.28
339.273	10.82
339.484	10.59
339.694	10.7
339.905	10.69
340.115	10.1
340.326	10.33
340.536	9.87
340.746	9.92
340.957	9.98
341.167	9.77
341.378	9.83
341.588	9.64
341.799	9.29
342.009	9.2
342.219	9.14
342.43	8.47
342.64	8.41
342.85	8.13
343.061	8.24
343.271	8.36
343.481	8.24
343.691	7.95
343.902	8.28
344.112	8.13
344.322	8.19
344.532	8.43
344.743	8
344.953	7.94
345.163	8.03
345.373	8.01
345.583	8.34
345.793	8.11
346.004	8.07
346.214	8.46
346.424	8.98
346.634	8.82
346.844	8.65
347.054	8.93
347.264	9.41
347.474	9.92
347.684	10.06
347.894	10.28
348.104	10.15
348.314	10.2
348.524	9.92
348.734	10.19
348.944	10.17
349.154	10.01
349.364	9.84
349.574	10.06
349.784	9.89
349.994	9.5
350.204	9.52
350.413	9.45
350.623	9.13
350.833	9.08
351.043	8.83
351.253	8.97
351.463	8.72
351.672	8.46
351.882	8.43
352.092	8.36
352.302	8.3
352.511	7.93
352.721	8
352.931	8.13
353.141	8.15
353.35	8.18
353.56	8.34
353.77	8.4
353.979	8.42
354.189	8.21
354.399	8.17
354.608	8.18
354.818	8.51
355.027	8.41
355.237	8.53
355.447	8.44
355.656	8.02
355.866	7.78
356.075	7.84
356.285	7.74
356.494	7.78
356.704	7.62
356.913	7.62
357.123	7.75
357.332	7.7
357.542	7.54
357.751	7.56
357.96	7.57
358.17	7.41
358.379	7.79
358.589	7.9
358.798	7.72
359.007	7.62
359.217	7.22
359.426	7.4
359.635	7.57
359.845	7.41
360.054	7.11
360.263	7.17
360.472	7.12
360.682	7.2
360.891	7.09
361.1	7.08
361.309	7.1
361.519	7.26
361.728	7.48
361.937	7.72
362.146	7.75
362.355	7.7
362.564	7.59
362.774	7.72
362.983	7.44
363.192	7.27
363.401	7.08
363.61	7.62
363.819	7.46
364.028	7.35
364.237	7.19
364.446	6.94
364.655	6.93
364.864	6.92
365.073	7.04
365.282	6.91
365.491	6.97
365.7	7.02
365.909	7.23
366.118	7.4
366.327	7.12
366.536	7.19
366.745	7.39
366.954	7.59
367.162	7.54
367.371	7.77
367.58	7.52
367.789	7.22
367.998	7.56
368.207	7.58
368.415	7.59
368.624	7.55
368.833	7.57
369.042	7.53
369.25	7.57
369.459	7.55
369.668	7.3
369.877	7.45
370.085	7.11
370.294	7.2
370.503	7.41
370.711	7.27
370.92	7.53
371.129	7.55
371.337	7.32
371.546	7.47
371.754	7.2
371.963	7.01
372.171	6.81
372.38	6.85
372.589	6.85
372.797	6.77
373.006	6.87
373.214	6.82
373.423	7.03
373.631	6.69
373.84	6.94
374.048	6.91
374.256	6.83
374.465	7.1
374.673	7.03
374.882	7.06
375.09	7.17
375.298	7.19
375.507	7.39
375.715	7.08
375.923	6.95
376.132	6.61
376.34	6.67
376.548	6.52
376.757	6.78
376.965	6.64
377.173	6.54
377.381	6.62
377.59	6.7
377.798	6.37
378.006	6.2
378.214	6.02
378.423	6.14
378.631	6
378.839	6.22
379.047	6.25
379.255	6.27
379.463	5.97
379.671	5.89
379.879	5.81
380.088	5.92
380.296	5.97
380.504	6.3
380.712	6.26
380.92	6.39
381.128	6.45
381.336	6.59
381.544	6.46
381.752	6.47
381.96	6.22
382.168	6.44
382.376	6.49
382.584	6.56
382.791	6.56
382.999	6.4
383.207	6.29
383.415	6.38
383.623	6.27
383.831	6.38
384.039	6.21
384.247	6.37
384.454	6.14
384.662	6.27
384.87	6.04
385.078	5.95
385.285	5.74
385.493	5.43
385.701	5.4
385.909	5.47
386.116	5.26
386.324	5.28
386.532	5.18
386.739	5.39
386.947	5.22
387.155	5.3
387.362	5.36
387.57	5.59
387.778	5.63
387.985	5.7
388.193	5.87
388.4	5.95
388.608	5.8
388.816	5.97
389.023	5.96
389.231	5.96
389.438	5.85
389.646	5.79
389.853	5.71
390.061	5.6
390.268	5.5
390.475	5.55
390.683	5.54
390.89	5.42
391.098	5.4
391.305	5.4
391.512	5.4
391.72	5.19
391.927	5.08
392.135	4.97
392.342	5.12
392.549	5.14
392.756	4.95
392.964	4.98
393.171	4.76
393.378	4.91
393.586	4.9
393.793	4.8
394	4.81
394.207	4.72
394.414	4.81
394.622	4.73
394.829	4.76
395.036	4.7
395.243	4.77
395.45	4.89
395.657	4.69
395.864	4.88
396.072	4.78
396.279	4.97
396.486	5.03
396.693	5.04
396.9	5.16
397.107	5.42
397.314	5.53
397.521	5.5
397.728	5.37
397.935	5.2
398.142	5.2
398.349	5.3
398.556	5.24
398.763	5.23
398.97	5.09
399.177	4.99
399.383	4.99
399.59	4.89
399.797	4.85
400.004	5.04
400.211	5.08
400.418	5.13
400.625	5.13
400.831	5.04
401.038	5.13
401.245	5.14
401.452	5.05
401.658	5.1
401.865	5.16
402.072	5.14
402.279	5.04
402.485	4.8
402.692	4.59
402.899	4.54
403.105	4.36
403.312	4.33
403.519	4.39
403.725	4.22
403.932	4.24
404.138	4.26
404.345	4.15
404.552	4.14
404.758	4.14
404.965	4.06
405.171	4.11
405.378	4.08
405.584	4.09
405.791	4.21
405.997	4.4
406.204	4.45
406.41	4.65
406.617	4.55
406.823	4.44
407.029	4.48
407.236	4.37
407.442	4.42
407.649	4.4
407.855	4.43
408.061	4.41
408.268	4.42
408.474	4.3
408.68	4.29
408.887	4.25
409.093	4.07
409.299	4.07
409.505	4
409.712	3.89
409.918	3.89
410.124	3.82
410.33	3.76
410.537	3.76
410.743	3.74
410.949	3.76
411.155	3.94
411.361	3.8
411.567	3.63
411.773	3.58
411.98	3.6
412.186	3.77
412.392	3.83
412.598	3.97
412.804	3.99
413.01	4.11
413.216	4.17
413.422	4.21
413.628	4.15
413.834	4.15
414.04	4.18
414.246	4.4
414.452	4.42
414.658	4.31
414.864	4.26
415.07	4.24
415.275	4.11
415.481	4.1
415.687	4.06
415.893	3.83
416.099	3.79
416.305	3.78
416.511	3.67
416.716	3.63
416.922	3.64
417.128	3.78
417.334	3.87
417.539	3.85
417.745	3.86
417.951	3.92
418.157	3.84
418.362	3.87
418.568	3.88
418.774	3.8
418.979	3.74
419.185	3.76
419.391	3.75
419.596	3.64
419.802	3.6
420.008	3.76
420.213	3.76
420.419	3.75
420.624	3.68
420.83	3.68
421.035	3.69
421.241	3.72
421.446	3.81
421.652	3.83
421.857	3.75
422.063	3.71
422.268	3.7
422.474	3.61
422.679	3.42
422.885	3.37
423.09	3.32
423.295	3.32
423.501	3.34
423.706	3.24
423.911	3.22
424.117	3.18
424.322	3.16
424.527	3.28
424.733	3.23
424.938	3.2
425.143	3.19
425.349	3.17
425.554	3.28
425.759	3.32
425.964	3.35
426.169	3.37
426.375	3.43
426.58	3.45
426.785	3.51
426.99	3.56
427.195	3.44
427.4	3.61
427.605	3.78
427.811	3.88
428.016	3.87
428.221	3.74
428.426	3.67
428.631	3.67
428.836	3.63
429.041	3.53
429.246	3.53
429.451	3.49
429.656	3.42
429.861	3.48
430.066	3.42
430.271	3.28
430.476	3.19
430.681	3.22
430.886	3.27
431.09	3.3
431.295	3.32
431.5	3.29
431.705	3.39
431.91	3.35
432.115	3.39
432.32	3.39
432.524	3.39
432.729	3.34
432.934	3.4
433.139	3.46
433.343	3.34
433.548	3.29
433.753	3.41
433.958	3.34
434.162	3.32
434.367	3.37
434.572	3.45
434.776	3.48
434.981	3.5
435.186	3.51
435.39	3.52
435.595	3.48
435.799	3.43
436.004	3.46
436.209	3.56
436.413	3.39
436.618	3.4
436.822	3.45
437.027	3.38
437.231	3.25
437.436	3.13
437.64	3.23
437.845	3.26
438.049	3.31
438.253	3.35
438.458	3.35
438.662	3.34
438.867	3.35
439.071	3.27
439.275	3.32
439.48	3.3
439.684	3.28
439.888	3.38
440.093	3.38
440.297	3.3
440.501	3.21
440.706	3.22
440.91	3.2
441.114	3.21
441.318	3.26
441.523	3.21
441.727	3.33
441.931	3.34
442.135	3.31
442.339	3.43
442.543	3.45
442.748	3.46
442.952	3.45
443.156	3.52
443.36	3.52
443.564	3.46
443.768	3.35
443.972	3.36
444.176	3.37
444.38	3.38
444.584	3.26
444.788	3.3
444.992	3.22
445.196	3.18
445.4	3.05
445.604	3.09
445.808	2.99
446.012	2.88
446.216	2.82
446.42	2.9
446.624	2.76
446.828	2.69
447.032	2.63
447.235	2.66
447.439	2.61
447.643	2.56
447.847	2.54
448.051	2.69
448.254	2.64
448.458	2.7
448.662	2.72
448.866	2.73
449.069	2.75
449.273	2.81
449.477	2.8
449.681	2.86
449.884	2.9
450.088	2.93
450.292	2.91
450.495	2.95
450.699	2.93
450.902	2.87
451.106	2.87
451.31	2.92
451.513	3.01
451.717	2.97
451.92	3.05
452.124	3.1
452.327	3.06
452.531	3.16
452.734	3.13
452.938	3.2
453.141	3.08
453.345	2.97
453.548	3.01
453.752	3.04
453.955	2.97
454.158	2.93
454.362	2.92
454.565	2.88
454.769	2.92
454.972	2.88
455.175	2.81
455.379	2.81
455.582	2.77
455.785	2.88
455.988	3
456.192	2.95
456.395	2.92
456.598	2.97
456.801	3
457.005	3.07
457.208	3
457.411	2.92
457.614	2.9
457.817	2.81
458.021	2.8
458.224	2.78
458.427	2.78
458.63	2.77
458.833	2.78
459.036	2.8
459.239	2.71
459.442	2.71
459.645	2.64
459.848	2.71
460.051	2.75
460.254	2.8
460.457	2.91
460.66	2.97
460.863	2.96
461.066	2.84
461.269	2.89
461.472	2.9
461.675	2.82
461.878	2.88
462.081	2.86
462.284	2.83
462.486	2.79
462.689	2.75
462.892	2.65
463.095	2.69
463.298	2.59
463.5	2.63
463.703	2.72
463.906	2.76
464.109	2.71
464.311	2.8
464.514	2.94
464.717	3.02
464.92	3.11
465.122	3.14
465.325	3.23
465.528	3.29
465.73	3.19
465.933	3.13
466.135	3.09
466.338	3.03
466.541	2.86
