Data from 2938536_Reflection_4.txt Node
Date: Mon Jun 15 23:48:53 EDT 2015
User: robert
Spectrometer: USB4E03002
Autoset integration time: false
Trigger mode: 4
Integration Time (sec): 1.000000E-1
Scans to average: 10
Electric dark correction enabled: true
Nonlinearity correction enabled: false
Boxcar width: 6
Stray light correction enabled: false
XAxis mode: Wavelengths
Stop averaging: false
Number of Pixels in Spectrum: 3648
>>>>>Begin Spectral Data<<<<<
177.575	-124.3
177.794	-129.73
178.014	-153.96
178.233	-158.03
178.452	-739.47
178.672	-57.22
178.891	220
179.11	-172.58
179.33	-209.68
179.549	-287.22
179.768	-320
179.987	-526.34
180.207	-236.49
180.426	-293.55
180.645	-263.91
180.864	-184.37
181.084	-184.21
181.303	-181.05
181.522	-161.23
181.741	-174.91
181.96	-174.59
182.179	-131.56
182.398	-125.28
182.618	-165.96
182.837	-97.27
183.056	-102.35
183.275	-23.2
183.494	-38.43
183.713	-91.91
183.932	-90.89
184.151	-204.65
184.37	-203.92
184.589	-103.24
184.808	-290.91
185.027	-560.77
185.246	-281.06
185.465	-233.04
185.684	-393.75
185.903	-427.78
186.122	-2768.09
186.341	6700
186.56	1506.17
186.779	3051.28
186.998	-561.27
187.216	3538.46
187.435	440.68
187.654	1007.77
187.873	4842.86
188.092	717.97
188.311	509.52
188.53	2645.83
188.748	-2450
188.967	-181.82
189.186	-1143.9
189.405	-832.47
189.623	1703.85
189.842	704.97
190.061	8581.82
190.28	-711.71
190.498	-1452.63
190.717	-1155.41
190.936	-7042.86
191.154	-2635.14
191.373	10355.56
191.592	4225.93
191.81	3694.59
192.029	1988.71
192.248	1941.27
192.466	-4162.5
192.685	-638.36
192.904	-822.31
193.122	2153.06
193.341	3674.07
193.559	429.08
193.778	759.74
193.996	372.99
194.215	483.28
194.433	440.06
194.652	503.97
194.87	780.11
195.089	420.58
195.307	411.34
195.526	299.1
195.744	350
195.963	890.16
196.181	951.45
196.399	5081.82
196.618	1115.27
196.836	-709.63
197.055	-549.07
197.273	-1008.33
197.491	-343.61
197.71	-602.59
197.928	-238.08
198.146	-233.93
198.365	-228.43
198.583	-388.66
198.801	26600
199.019	1173.68
199.238	1658.62
199.456	3350
199.674	570.56
199.892	682.05
200.111	3839.29
200.329	330.03
200.547	434.15
200.765	393.75
200.983	450
201.202	450
201.42	727.59
201.638	522.53
201.856	1311.67
202.074	740
202.292	560.89
202.51	442.86
202.728	388.63
202.946	242.6
203.165	247.29
203.383	275.16
203.601	238.48
203.819	188.76
204.037	206.08
204.255	162.37
204.473	230.16
204.691	194.55
204.909	131.38
205.127	135.25
205.345	147.35
205.562	198.48
205.78	435.48
205.998	235.37
206.216	204.89
206.434	203
206.652	241.6
206.87	228.6
207.088	228.5
207.306	251.64
207.523	269.49
207.741	384.06
207.959	306.45
208.177	327.04
208.395	259.48
208.612	227.99
208.83	320.43
209.048	320.14
209.266	312.17
209.483	284.41
209.701	424.11
209.919	997.69
210.136	421.89
210.354	419.09
210.572	395.38
210.79	430.09
211.007	347.65
211.225	346.84
211.442	292.76
211.66	236.81
211.878	137.61
212.095	145.54
212.313	135.39
212.53	121.9
212.748	87.89
212.966	95.14
213.183	85.06
213.401	89.93
213.618	105.81
213.836	91.21
214.053	118.2
214.271	131.83
214.488	199.62
214.705	291.65
214.923	239.67
215.14	223.88
215.358	146.39
215.575	165.15
215.793	149.17
216.01	137.95
216.227	132.03
216.445	107.31
216.662	109.61
216.879	118.9
217.097	110.26
217.314	113.18
217.531	108.39
217.749	131.87
217.966	109.28
218.183	110.69
218.4	108.25
218.618	101.28
218.835	90.32
219.052	87.52
219.269	96.08
219.487	111.39
219.704	90.84
219.921	85.9
220.138	76.57
220.355	86.4
220.572	77.19
220.79	86.96
221.007	82.27
221.224	76.73
221.441	85.46
221.658	90.09
221.875	84.83
222.092	75.7
222.309	69.37
222.526	64.64
222.743	63.62
222.96	57.85
223.177	51.85
223.394	53.23
223.611	48.6
223.828	51.07
224.045	53.72
224.262	48.08
224.479	43.53
224.696	40.39
224.913	37.3
225.13	35.12
225.347	32.6
225.564	29.56
225.781	28.82
225.997	25.31
226.214	22.85
226.431	22.83
226.648	21.33
226.865	19.92
227.082	19.64
227.298	19.78
227.515	19.28
227.732	19.39
227.949	17.82
228.165	18.69
228.382	19.53
228.599	18.88
228.816	18.74
229.032	20.05
229.249	19.96
229.466	20.43
229.682	20.95
229.899	20.99
230.116	20.46
230.332	20.49
230.549	20.72
230.765	22.56
230.982	21.34
231.199	21.85
231.415	22.38
231.632	21.79
231.848	20.11
232.065	19.25
232.281	18.98
232.498	19.9
232.714	19.19
232.931	19.38
233.147	19.48
233.364	17.53
233.58	17.29
233.797	16.66
234.013	15.11
234.23	15.68
234.446	16.43
234.662	17.51
234.879	18.06
235.095	18.63
235.312	19.29
235.528	17.45
235.744	17.52
235.961	16.8
236.177	20.42
236.393	19.68
236.61	19.31
236.826	19.62
237.042	19.48
237.258	20.36
237.475	18.43
237.691	17.63
237.907	17.3
238.123	16.02
238.339	18.17
238.556	19.19
238.772	19.45
238.988	17.83
239.204	18.38
239.42	18.41
239.636	17.75
239.853	17.26
240.069	16.46
240.285	16.48
240.501	16.77
240.717	16.65
240.933	17.03
241.149	16.43
241.365	15.92
241.581	15.74
241.797	15.23
242.013	15.18
242.229	15.38
242.445	15.55
242.661	15.53
242.877	15.92
243.093	15.97
243.309	15.06
243.525	14.07
243.741	12.98
243.957	12.66
244.173	12.24
244.388	12.46
244.604	12.6
244.82	11.68
245.036	11.03
245.252	10.79
245.468	10.74
245.683	10.33
245.899	10.36
246.115	10.35
246.331	10.36
246.547	10.13
246.762	10.27
246.978	10.17
247.194	10.24
247.409	9.97
247.625	10.31
247.841	11.29
248.057	11.19
248.272	10.64
248.488	10.05
248.703	10.43
248.919	9.81
249.135	9.56
249.35	9.88
249.566	10.12
249.782	10.32
249.997	9.56
250.213	9.87
250.428	9.73
250.644	9.2
250.859	9.17
251.075	9.95
251.29	10.96
251.506	10.58
251.721	10.81
251.937	11.48
252.152	12.2
252.368	12.45
252.583	12.38
252.798	12.39
253.014	11.86
253.229	12.65
253.445	12.86
253.66	13.52
253.875	13.24
254.091	12.82
254.306	11.73
254.521	12.47
254.737	11.06
254.952	10.45
255.167	9.29
255.383	8.64
255.598	9.78
255.813	10.21
256.028	9.68
256.244	8.89
256.459	8.23
256.674	8.12
256.889	7.87
257.104	7.92
257.32	7.89
257.535	8.2
257.75	7.78
257.965	7.65
258.18	8.16
258.395	7.65
258.61	7.63
258.826	7.47
259.041	7.39
259.256	7.48
259.471	7.29
259.686	7.28
259.901	7.12
260.116	6.99
260.331	6.82
260.546	7.11
260.761	7.35
260.976	6.95
261.191	7.13
261.406	6.93
261.621	7.02
261.836	7.33
262.05	7.6
262.265	7.68
262.48	7.61
262.695	8.07
262.91	8.04
263.125	8.32
263.34	7.98
263.555	7.64
263.769	7.25
263.984	7.56
264.199	7.49
264.414	7.36
264.629	7.14
264.843	7.56
265.058	7.99
265.273	7.64
265.488	7.97
265.702	7.98
265.917	8.29
266.132	8.86
266.346	9.11
266.561	9.27
266.776	8.77
266.99	9.05
267.205	8.85
267.42	8.82
267.634	8.51
267.849	8.61
268.063	9.13
268.278	8.25
268.492	8.49
268.707	8.43
268.922	7.78
269.136	8.12
269.351	7.92
269.565	7.56
269.78	7.63
269.994	7.76
270.209	7.53
270.423	7.4
270.637	6.96
270.852	6.82
271.066	7.31
271.281	7.43
271.495	7.34
271.709	7.53
271.924	7.51
272.138	7.78
272.353	8.49
272.567	8.41
272.781	8.02
272.996	8.6
273.21	8.59
273.424	8.95
273.638	9.44
273.853	9.52
274.067	9.36
274.281	8.98
274.495	8.95
274.71	8.4
274.924	8.02
275.138	7.64
275.352	7.44
275.566	8.15
275.781	7.84
275.995	7.85
276.209	7.88
276.423	7.33
276.637	6.78
276.851	6.63
277.065	6.84
277.279	6.9
277.493	7.2
277.707	7.91
277.921	8.09
278.135	7.83
278.349	7.53
278.563	7.48
278.777	7.56
278.991	7.01
279.205	7.35
279.419	7.78
279.633	7.89
279.847	7.99
280.061	7.97
280.275	7.83
280.489	7.35
280.703	7.35
280.917	7.4
281.131	7.97
281.344	8.13
281.558	7.77
281.772	7.75
281.986	7.38
282.2	7.34
282.414	7.24
282.627	7.01
282.841	7.04
283.055	6.86
283.269	7.17
283.482	6.82
283.696	7.03
283.91	6.16
284.123	6.12
284.337	6.17
284.551	6.25
284.764	6.27
284.978	5.89
285.192	5.84
285.405	6.24
285.619	6.09
285.833	6.24
286.046	6.02
286.26	6.11
286.473	6.31
286.687	6.93
286.9	7.07
287.114	7.18
287.327	7.43
287.541	7.62
287.754	8.27
287.968	8.2
288.181	7.79
288.395	7.72
288.608	7.64
288.822	7.29
289.035	7.39
289.248	7.09
289.462	7.16
289.675	6.95
289.889	6.83
290.102	6.75
290.315	6.83
290.529	6.46
290.742	6.44
290.955	6.84
291.169	6.83
291.382	7.04
291.595	7.47
291.808	7.2
292.022	7.36
292.235	6.98
292.448	6.92
292.661	7.47
292.875	7.33
293.088	7.66
293.301	7.69
293.514	7.72
293.727	7.51
293.94	7.66
294.153	7.29
294.367	6.93
294.58	7.1
294.793	7.21
295.006	7.4
295.219	7.42
295.432	7
295.645	7.07
295.858	6.57
296.071	6.58
296.284	6.79
296.497	6.51
296.71	6.58
296.923	6.87
297.136	7.24
297.349	7.11
297.562	6.97
297.775	7
297.988	7.39
298.201	7.58
298.414	7.58
298.626	7.58
298.839	7.6
299.052	7.64
299.265	7.75
299.478	7.41
299.691	7.05
299.903	7.2
300.116	7.65
300.329	7.19
300.542	6.86
300.755	6.69
300.967	6.55
301.18	6.47
301.393	6.73
301.605	6.8
301.818	6.48
302.031	6.59
302.243	6.84
302.456	6.89
302.669	6.99
302.881	7.01
303.094	7.46
303.307	7.4
303.519	7.34
303.732	7.21
303.944	7.4
304.157	7.42
304.37	7.27
304.582	7.49
304.795	7.87
305.007	7.94
305.22	7.96
305.432	7.43
305.645	6.97
305.857	7.04
306.069	7.23
306.282	7.11
306.494	7.51
306.707	7.43
306.919	6.97
307.132	7.13
307.344	6.92
307.556	6.54
307.769	6.29
307.981	6.29
308.193	6.34
308.406	6.55
308.618	6.33
308.83	6.23
309.043	6.25
309.255	6.07
309.467	6.28
309.679	6.7
309.892	6.5
310.104	6.69
310.316	6.59
310.528	6.83
310.74	7.04
310.953	7.24
311.165	7.3
311.377	7.31
311.589	7.84
311.801	7.47
312.013	7.82
312.225	7.7
312.437	8
312.649	8.12
312.862	8.18
313.074	8.51
313.286	8.29
313.498	8.16
313.71	8.28
313.922	8.33
314.134	8.58
314.346	8.26
314.558	8.81
314.77	8.81
314.982	8.77
315.193	8.4
315.405	8.31
315.617	8.04
315.829	7.71
316.041	7.55
316.253	7.84
316.465	7.24
316.677	7.14
316.888	7.25
317.1	7.37
317.312	7.06
317.524	6.93
317.736	7.18
317.947	7.25
318.159	7.5
318.371	7.56
318.583	7.64
318.794	8.29
319.006	8.24
319.218	8.28
319.43	8.19
319.641	7.64
319.853	7.61
320.064	7.72
320.276	7.53
320.488	7.56
320.699	7.83
320.911	8.01
321.123	8.35
321.334	8.47
321.546	7.82
321.757	7.35
321.969	7.79
322.18	7.49
322.392	8.02
322.603	8.1
322.815	8.13
323.026	7.71
323.238	7.65
323.449	7.54
323.661	7.5
323.872	7.58
324.083	7.67
324.295	7.77
324.506	7.89
324.718	7.43
324.929	7.45
325.14	7.21
325.352	7.12
325.563	6.94
325.774	7.35
325.986	7.28
326.197	7.19
326.408	6.93
326.62	6.7
326.831	6.73
327.042	7.16
327.253	7.32
327.464	7.73
327.676	8.3
327.887	8.2
328.098	8.23
328.309	8.42
328.52	8.45
328.732	8.32
328.943	8.06
329.154	8.24
329.365	7.93
329.576	7.87
329.787	7.39
329.998	7.41
330.209	7.17
330.42	6.86
330.631	6.99
330.842	7.03
331.053	7.25
331.264	7.23
331.475	7.44
331.686	7.74
331.897	7.61
332.108	8.11
332.319	8.15
332.53	8.16
332.741	8.43
332.952	8.08
333.163	7.95
333.374	8.2
333.585	7.98
333.795	7.59
334.006	7.61
334.217	7.51
334.428	7.72
334.639	7.58
334.849	7.13
335.06	6.81
335.271	6.99
335.482	6.77
335.692	7.43
335.903	7.88
336.114	7.7
336.325	8.06
336.535	8.69
336.746	8.86
336.957	9.19
337.167	9.06
337.378	9.68
337.589	9.91
337.799	10.37
338.01	10.28
338.22	9.85
338.431	9.64
338.642	9.49
338.852	9.43
339.063	9.35
339.273	9.02
339.484	9.06
339.694	8.88
339.905	8.63
340.115	8.25
340.326	8.2
340.536	8.02
340.746	8.23
340.957	8.71
341.167	8.82
341.378	8.7
341.588	8.5
341.799	8.16
342.009	7.9
342.219	7.5
342.43	7.32
342.64	7.19
342.85	6.97
343.061	7.32
343.271	7.27
343.481	7.21
343.691	6.81
343.902	6.75
344.112	6.84
344.322	6.94
344.532	7.03
344.743	7.07
344.953	7.12
345.163	7.23
345.373	7.29
345.583	7.38
345.793	7.16
346.004	7.24
346.214	7.39
346.424	7.58
346.634	7.54
346.844	7.06
347.054	7.12
347.264	7.41
347.474	7.31
347.684	7.4
347.894	7.37
348.104	7.38
348.314	7.4
348.524	7.22
348.734	7.43
348.944	7.18
349.154	7.23
349.364	7.38
349.574	7.71
349.784	7.55
349.994	7.29
350.204	7.54
350.413	7.38
350.623	7.33
350.833	7.16
351.043	7.07
351.253	6.89
351.463	6.41
351.672	6.51
351.882	6.36
352.092	6.02
352.302	6.04
352.511	5.93
352.721	5.85
352.931	5.85
353.141	5.96
353.35	5.8
353.56	6.13
353.77	6.13
353.979	6.4
354.189	6.32
354.399	6.17
354.608	6.35
354.818	6.74
355.027	6.52
355.237	6.6
355.447	6.58
355.656	6.22
355.866	6.16
356.075	6.22
356.285	6
356.494	6.01
356.704	6
356.913	6.16
357.123	6.26
357.332	6.24
357.542	5.92
357.751	6.25
357.96	6.36
358.17	6.35
358.379	6.52
358.589	6.42
358.798	6.2
359.007	6.11
359.217	6.07
359.426	6.21
359.635	6.27
359.845	6.2
360.054	6.14
360.263	6.1
360.472	5.9
360.682	5.79
360.891	5.65
361.1	5.83
361.309	5.9
361.519	6.1
361.728	6.29
361.937	6.26
362.146	6.07
362.355	6.02
362.564	5.85
362.774	5.72
362.983	5.64
363.192	5.63
363.401	5.65
363.61	6.37
363.819	6.06
364.028	5.84
364.237	5.78
364.446	5.62
364.655	5.76
364.864	5.84
365.073	5.87
365.282	5.88
365.491	6.22
365.7	6.39
365.909	6.25
366.118	6.28
366.327	5.84
366.536	6.04
366.745	6.29
366.954	6.34
367.162	6.24
367.371	6.27
367.58	5.96
367.789	5.93
367.998	6.12
368.207	5.91
368.415	6.02
368.624	6.23
368.833	6.23
369.042	5.97
369.25	5.96
369.459	6.01
369.668	5.88
369.877	5.92
370.085	5.71
370.294	5.87
370.503	5.87
370.711	5.76
370.92	5.78
371.129	5.58
371.337	5.4
371.546	5.66
371.754	5.84
371.963	5.76
372.171	5.63
372.38	5.61
372.589	5.87
372.797	5.89
373.006	6.01
373.214	6.09
373.423	6.2
373.631	6.15
373.84	6.39
374.048	6.5
374.256	6.14
374.465	6.12
374.673	5.87
374.882	5.96
375.09	5.88
375.298	5.88
375.507	5.92
375.715	5.54
375.923	5.48
376.132	5.41
376.34	5.49
376.548	5.29
376.757	5.41
376.965	5.55
377.173	5.56
377.381	5.9
377.59	5.75
377.798	5.64
378.006	5.46
378.214	5.33
378.423	5.5
378.631	5.27
378.839	5.39
379.047	5.33
379.255	5.44
379.463	5.24
379.671	5.19
379.879	5.09
380.088	4.93
380.296	4.96
380.504	5.34
380.712	5.22
380.92	5.39
381.128	5.34
381.336	5.36
381.544	5.2
381.752	5.3
381.96	5.13
382.168	5.18
382.376	5.17
382.584	5.24
382.791	5.44
382.999	5.42
383.207	5.15
383.415	5.38
383.623	5.3
383.831	5.34
384.039	5.5
384.247	5.6
384.454	5.28
384.662	5.32
384.87	5.22
385.078	5.08
385.285	5.15
385.493	4.87
385.701	4.88
385.909	5.03
386.116	4.95
386.324	5.02
386.532	5.22
386.739	5.15
386.947	5.03
387.155	5.11
387.362	5.19
387.57	5.13
387.778	5.07
387.985	4.94
388.193	5.11
388.4	5.19
388.608	5.21
388.816	5.19
389.023	5.03
389.231	4.87
389.438	4.79
389.646	4.76
389.853	4.76
390.061	4.72
390.268	4.75
390.475	4.88
390.683	4.82
390.89	4.74
391.098	4.6
391.305	4.51
391.512	4.63
391.72	4.72
391.927	4.69
392.135	4.62
392.342	4.62
392.549	4.64
392.756	4.56
392.964	4.67
393.171	4.59
393.378	4.66
393.586	4.69
393.793	4.72
394	4.69
394.207	4.47
394.414	4.37
394.622	4.25
394.829	4.36
395.036	4.52
395.243	4.56
395.45	4.57
395.657	4.45
395.864	4.5
396.072	4.42
396.279	4.34
396.486	4.33
396.693	4.19
396.9	4.46
397.107	4.69
397.314	4.86
397.521	4.79
397.728	4.62
397.935	4.6
398.142	4.63
398.349	4.57
398.556	4.69
398.763	4.68
398.97	4.72
399.177	4.66
399.383	4.81
399.59	4.66
399.797	4.54
400.004	4.76
400.211	4.76
400.418	4.72
400.625	4.63
400.831	4.52
401.038	4.56
401.245	4.35
401.452	4.2
401.658	4.28
401.865	4.36
402.072	4.26
402.279	4.15
402.485	3.99
402.692	3.74
402.899	3.76
403.105	3.66
403.312	3.72
403.519	3.7
403.725	3.8
403.932	3.9
404.138	4.14
404.345	3.98
404.552	4.08
404.758	4.07
404.965	4.06
405.171	4.22
405.378	4.28
405.584	4.34
405.791	4.5
405.997	4.48
406.204	4.61
406.41	4.47
406.617	4.44
406.823	4.32
407.029	4.36
407.236	4.24
407.442	4.43
407.649	4.26
407.855	4.15
408.061	4.08
408.268	4.14
408.474	4.15
408.68	4.32
408.887	4.22
409.093	4.29
409.299	4.26
409.505	4.27
409.712	4.27
409.918	4.19
410.124	4.1
410.33	4.24
410.537	4.26
410.743	4.29
410.949	4.19
411.155	4.11
411.361	3.84
411.567	3.87
411.773	3.81
411.98	3.89
412.186	3.92
412.392	3.92
412.598	3.95
412.804	4.06
413.01	4.12
413.216	4.23
413.422	4.28
413.628	4.3
413.834	4.22
414.04	4.14
414.246	4.12
414.452	4.19
414.658	4.08
414.864	3.99
415.07	4
415.275	4
415.481	3.9
415.687	3.77
415.893	3.63
416.099	3.66
416.305	3.64
416.511	3.7
416.716	3.73
416.922	3.82
417.128	3.85
417.334	3.92
417.539	3.93
417.745	3.92
417.951	3.91
418.157	3.88
418.362	3.93
418.568	3.94
418.774	3.75
418.979	3.64
419.185	3.61
419.391	3.65
419.596	3.55
419.802	3.51
420.008	3.01
420.213	2.97
420.419	2.93
420.624	2.88
420.83	2.88
421.035	2.88
421.241	2.88
421.446	2.98
421.652	3.03
421.857	2.93
422.063	2.87
422.268	2.88
422.474	2.81
422.679	3.27
422.885	3.24
423.09	3.23
423.295	3.25
423.501	3.23
423.706	3.2
423.911	3.19
424.117	3.17
424.322	3.12
424.527	3.19
424.733	3.18
424.938	3.11
425.143	3.17
425.349	3.14
425.554	3.21
425.759	3.26
425.964	3.23
426.169	3.25
426.375	3.2
426.58	3.17
426.785	3.24
426.99	3.3
427.195	3.32
427.4	3.42
427.605	3.58
427.811	3.66
428.016	3.66
428.221	3.54
428.426	3.45
428.631	3.42
428.836	3.46
429.041	3.45
429.246	3.46
429.451	3.39
429.656	3.34
429.861	3.42
430.066	3.38
430.271	3.19
430.476	3.05
430.681	3.06
430.886	3.13
431.09	3.17
431.295	3.24
431.5	3.26
431.705	3.3
431.91	3.35
432.115	3.29
432.32	3.25
432.524	3.24
432.729	3.19
432.934	3.29
433.139	3.34
433.343	3.28
433.548	3.16
433.753	3.2
433.958	3.13
434.162	3.04
434.367	3.16
434.572	3.06
434.776	3.17
434.981	3.15
435.186	3.14
435.39	3.19
435.595	3.03
435.799	3.03
436.004	3.01
436.209	3.09
436.413	3.05
436.618	3.07
436.822	3.12
437.027	3
437.231	2.94
437.436	2.85
437.64	2.93
437.845	2.92
438.049	2.91
438.253	3.02
438.458	3.01
438.662	3.06
438.867	3.14
439.071	3.07
439.275	3.12
439.48	3.1
439.684	3.09
439.888	3.21
440.093	3.25
440.297	3.24
440.501	3.21
440.706	3.3
440.91	3.27
441.114	3.29
441.318	3.26
441.523	3.19
441.727	3.24
441.931	3.21
442.135	3.1
442.339	3.19
442.543	3.15
442.748	3.14
442.952	3.14
443.156	3.16
443.36	3.11
443.564	3.1
443.768	2.99
443.972	3.09
444.176	3.15
444.38	3.13
444.584	3.08
444.788	3.16
444.992	3.14
445.196	3.1
445.4	3.03
445.604	3.01
445.808	3.02
446.012	2.9
446.216	2.92
446.42	2.98
446.624	2.85
446.828	2.78
447.032	2.82
447.235	2.81
447.439	2.79
447.643	2.72
447.847	2.72
448.051	2.86
448.254	2.93
448.458	2.87
448.662	2.93
448.866	2.84
449.069	2.82
449.273	2.88
449.477	2.79
449.681	2.68
449.884	2.75
450.088	2.81
450.292	2.85
450.495	2.84
450.699	2.79
450.902	2.71
451.106	2.77
451.31	2.87
451.513	2.93
451.717	3.05
451.92	3.09
452.124	3.08
452.327	3.14
452.531	3.15
452.734	3.16
452.938	3.2
453.141	3.11
453.345	3.15
453.548	3.15
453.752	3.15
453.955	2.99
454.158	2.96
454.362	2.9
454.565	2.84
454.769	2.95
454.972	2.93
455.175	2.92
455.379	2.85
455.582	2.73
455.785	2.83
455.988	2.8
456.192	2.68
456.395	2.63
456.598	2.68
456.801	2.72
457.005	2.71
457.208	2.63
457.411	2.56
457.614	2.61
457.817	2.55
458.021	2.55
458.224	2.53
458.427	2.57
458.63	2.57
458.833	2.68
459.036	2.72
459.239	2.77
459.442	2.78
459.645	2.77
459.848	2.86
460.051	2.95
460.254	2.96
460.457	3.07
460.66	3.15
460.863	3.26
461.066	3.24
461.269	3.32
461.472	3.21
461.675	3.16
461.878	3.09
462.081	3.1
462.284	3.13
462.486	3.1
462.689	3.1
462.892	3.11
463.095	3.08
463.298	3.01
463.5	3.02
463.703	2.95
463.906	2.96
464.109	3.02
464.311	3.16
464.514	3.3
464.717	3.31
464.92	3.32
465.122	3.32
465.325	3.3
465.528	3.29
465.73	3.16
465.933	3.2
466.135	3.14
466.338	3.18
466.541	3.14
466.743	3.03
466.946	2.8
467.148	2.68
467.351	2.67
