Data from 2938545_Reflection_2.txt Node
Date: Mon Jun 15 00:25:07 EDT 2015
User: robert
Spectrometer: USB4E03002
Autoset integration time: false
Trigger mode: 4
Integration Time (sec): 1.000000E-1
Scans to average: 10
Electric dark correction enabled: true
Nonlinearity correction enabled: false
Boxcar width: 5
Stray light correction enabled: false
XAxis mode: Wavelengths
Stop averaging: false
Number of Pixels in Spectrum: 3648
>>>>>Begin Spectral Data<<<<<
177.575	19.2
177.794	23.36
178.014	47.85
178.233	39.49
178.452	63.89
178.672	45.64
178.891	4.38
179.11	158.36
179.33	151.57
179.549	19.87
179.768	9.76
179.987	5.72
180.207	18.91
180.426	12.83
180.645	32.78
180.864	6.33
181.084	-16.27
181.303	-304.74
181.522	489.89
181.741	-291.46
181.96	2178.13
182.179	170.17
182.398	355.99
182.618	286.25
182.837	-4351.37
183.056	-657.01
183.275	-233.91
183.494	1201.33
183.713	-190.14
183.932	111.55
184.151	99.13
184.37	65.17
184.589	110.62
184.808	158.76
185.027	159.32
185.246	125.69
185.465	120.38
185.684	150.4
185.903	161.89
186.122	216.62
186.341	570.38
186.56	444.96
186.779	-50.89
186.998	7.75
187.216	80.83
187.435	142.68
187.654	133.56
187.873	136.63
188.092	154.13
188.311	113.34
188.53	143.01
188.748	153.1
188.967	128.87
189.186	128.77
189.405	104.98
189.623	93.18
189.842	48.35
190.061	39.08
190.28	38.43
190.498	21.42
190.717	35.59
190.936	-44.87
191.154	-199.1
191.373	-1990
191.592	-242.34
191.81	57.78
192.029	85.96
192.248	123.3
192.466	55.12
192.685	60.88
192.904	44.24
193.122	44.3
193.341	39.93
193.559	-20.25
193.778	-59.75
193.996	-72.28
194.215	-255.48
194.433	-288.38
194.652	-172.8
194.87	-285.38
195.089	2681.92
195.307	220.23
195.526	702.06
195.744	4645.86
195.963	-713.04
196.181	-2722.44
196.399	-863.72
196.618	-612.4
196.836	-350.84
197.055	26.49
197.273	371.1
197.491	5
197.71	62.85
197.928	46.65
198.146	55.66
198.365	17.09
198.583	140.94
198.801	120.59
199.019	-197.19
199.238	3151.72
199.456	46.3
199.674	117.05
199.892	-359.2
200.111	10.82
200.329	-7.46
200.547	-136.85
200.765	-1267.07
200.983	-145.45
201.202	-1302.37
201.42	-990.62
201.638	-350.37
201.856	401.53
202.074	582.69
202.292	-144.37
202.51	-62.9
202.728	-157.46
202.946	431.44
203.165	296.41
203.383	277.46
203.601	178.54
203.819	43.78
204.037	31.85
204.255	5.93
204.473	43.5
204.691	12.33
204.909	23.85
205.127	-21.55
205.345	-116.76
205.562	-124.12
205.78	-149.3
205.998	-326.03
206.216	-272.68
206.434	-3780.31
206.652	380.03
206.87	359.17
207.088	260.48
207.306	62.01
207.523	20.01
207.741	-1.64
207.959	-23.21
208.177	-171.48
208.395	-132.23
208.612	-153.87
208.83	520.87
209.048	200.64
209.266	194.04
209.483	92.7
209.701	67.49
209.919	41.56
210.136	64.9
210.354	61.19
210.572	102.33
210.79	60.21
211.007	72.06
211.225	119.37
211.442	132.28
211.66	101.4
211.878	154.15
212.095	148.81
212.313	125.18
212.53	121.98
212.748	109.95
212.966	97.54
213.183	84.04
213.401	68.86
213.618	25.15
213.836	24.59
214.053	34.04
214.271	39.76
214.488	31.68
214.705	18.84
214.923	33.36
215.14	16.24
215.358	18.87
215.575	30.61
215.793	46.44
216.01	55
216.227	70.11
216.445	62.54
216.662	54.73
216.879	50.58
217.097	22.18
217.314	11.9
217.531	14.27
217.749	18.04
217.966	15.92
218.183	0.89
218.4	-7.99
218.618	-4.83
218.835	-4.13
219.052	-1.11
219.269	-14.24
219.487	9.68
219.704	-0.97
219.921	-0.03
220.138	-5.3
220.355	-8.25
220.572	-11.77
220.79	11.61
221.007	-1.53
221.224	-7.11
221.441	5.66
221.658	29.56
221.875	9.86
222.092	17.53
222.309	12.26
222.526	13.53
222.743	-2.3
222.96	-0.22
223.177	-9.19
223.394	-0.37
223.611	0.35
223.828	-9.16
224.045	-16.81
224.262	-15.5
224.479	-16.98
224.696	-7.81
224.913	-4.13
225.13	1.82
225.347	3.96
225.564	5.86
225.781	3.25
225.997	4.42
226.214	7.52
226.431	6.02
226.648	6.41
226.865	8.48
227.082	7.56
227.298	8.08
227.515	9.35
227.732	9.33
227.949	9.25
228.165	9.94
228.382	10.96
228.599	10.09
228.816	10.94
229.032	11.94
229.249	10.34
229.466	9.75
229.682	9.38
229.899	8.89
230.116	9.28
230.332	9.71
230.549	8.94
230.765	8.05
230.982	9.92
231.199	12.01
231.415	10.84
231.632	12.28
231.848	15.05
232.065	15.2
232.281	15.05
232.498	14.38
232.714	11.58
232.931	12.06
233.147	11.5
233.364	10.04
233.58	8.25
233.797	10.52
234.013	11.6
234.23	10.4
234.446	8.99
234.662	11.08
234.879	10.3
235.095	11.12
235.312	10.35
235.528	12.67
235.744	13.76
235.961	13.84
236.177	11.57
236.393	12.18
236.61	14.17
236.826	13.71
237.042	11.52
237.258	12.47
237.475	12.73
237.691	13.64
237.907	10.45
238.123	9.34
238.339	10.16
238.556	10.64
238.772	9.35
238.988	9.35
239.204	8.76
239.42	9.33
239.636	8.91
239.853	9.44
240.069	9.44
240.285	9.88
240.501	10.22
240.717	9.61
240.933	10.16
241.149	10
241.365	9.75
241.581	10.18
241.797	9.83
242.013	9.67
242.229	9.13
242.445	8.97
242.661	9.32
242.877	9.01
243.093	9.03
243.309	8.77
243.525	8.65
243.741	8.5
243.957	8.5
244.173	8.4
244.388	8.73
244.604	8.77
244.82	9.52
245.036	8.98
245.252	8.89
245.468	8.84
245.683	8.54
245.899	8.32
246.115	8.06
246.331	7.73
246.547	7.44
246.762	7.18
246.978	7.31
247.194	6.54
247.409	6.53
247.625	6.53
247.841	7.1
248.057	7.51
248.272	7.43
248.488	6.73
248.703	7.07
248.919	7.1
249.135	6.95
249.35	6.35
249.566	6.97
249.782	6.63
249.997	6.7
250.213	5.13
250.428	4.98
250.644	5.6
250.859	5.71
251.075	5.68
251.29	6.37
251.506	6.88
251.721	7.25
251.937	6.44
252.152	6.4
252.368	5.91
252.583	6.77
252.798	5.87
253.014	6.1
253.229	5.84
253.445	5.32
253.66	5.32
253.875	5.03
254.091	5.99
254.306	5.79
254.521	5.48
254.737	5.91
254.952	5.77
255.167	5.78
255.383	5.96
255.598	6.95
255.813	6.89
256.028	6.67
256.244	6.07
256.459	5.87
256.674	5.76
256.889	6.01
257.104	6.08
257.32	6.37
257.535	6.24
257.75	6.2
257.965	5.72
258.18	5.85
258.395	5.8
258.61	5.89
258.826	5.81
259.041	6.2
259.256	6.34
259.471	6.43
259.686	5.96
259.901	6.25
260.116	6.21
260.331	6.78
260.546	6.85
260.761	7.11
260.976	7.38
261.191	7.07
261.406	6.14
261.621	6.11
261.836	5.96
262.05	7.06
262.265	7.07
262.48	6.91
262.695	6.75
262.91	6.9
263.125	5.75
263.34	5.43
263.555	5.97
263.769	6.9
263.984	6.74
264.199	6.58
264.414	5.91
264.629	5.6
264.843	5.52
265.058	5.54
265.273	5.46
265.488	5.98
265.702	5.84
265.917	5.98
266.132	5.57
266.346	5.67
266.561	5.27
266.776	5.41
266.99	5.86
267.205	5.67
267.42	5.63
267.634	5.6
267.849	5.99
268.063	6.25
268.278	5.46
268.492	5.23
268.707	4.96
268.922	5.72
269.136	5.67
269.351	5.39
269.565	4.95
269.78	4.97
269.994	5.02
270.209	4.6
270.423	4.76
270.637	4.83
270.852	5
271.066	4.96
271.281	4.66
271.495	4.55
271.709	4.55
271.924	5.15
272.138	5.34
272.353	5.31
272.567	5.45
272.781	4.99
272.996	5.01
273.21	5.34
273.424	5.45
273.638	5.18
273.853	5.47
274.067	5.36
274.281	4.83
274.495	4.3
274.71	4.47
274.924	4.34
275.138	4.62
275.352	4.66
275.566	4.24
275.781	4.5
275.995	4.66
276.209	4.53
276.423	4.91
276.637	5.55
276.851	5.55
277.065	5.54
277.279	5.74
277.493	5.91
277.707	6.1
277.921	6.8
278.135	6.69
278.349	6.41
278.563	5.92
278.777	5.9
278.991	5.79
279.205	5.9
279.419	5.55
279.633	5.5
279.847	5.78
280.061	5.81
280.275	5.67
280.489	5.13
280.703	5.83
280.917	6.1
281.131	5.69
281.344	5.71
281.558	5.69
281.772	5.9
281.986	5.9
282.2	5.88
282.414	5.96
282.627	5.79
282.841	6.24
283.055	6.11
283.269	5.93
283.482	6.5
283.696	6.08
283.91	6.28
284.123	6.3
284.337	6.51
284.551	6.28
284.764	6.36
284.978	6.23
285.192	5.95
285.405	5.45
285.619	5.39
285.833	4.46
286.046	4.6
286.26	4.57
286.473	4.25
286.687	3.98
286.9	3.9
287.114	3.82
287.327	3.92
287.541	4.02
287.754	4.35
287.968	4.63
288.181	5.28
288.395	5.09
288.608	4.92
288.822	5.06
289.035	4.86
289.248	4.7
289.462	4.53
289.675	4.67
289.889	5.33
290.102	5.09
290.315	4.97
290.529	5.01
290.742	5.35
290.955	5.55
291.169	5.22
291.382	5.57
291.595	5.77
291.808	5.98
292.022	6.02
292.235	5.28
292.448	5.62
292.661	5.7
292.875	5.72
293.088	5.76
293.301	5.57
293.514	6.23
293.727	6.27
293.94	6.22
294.153	5.83
294.367	5.42
294.58	5.53
294.793	5.42
295.006	5.44
295.219	5.16
295.432	5.28
295.645	5.58
295.858	5.18
296.071	5.13
296.284	5.1
296.497	5.45
296.71	5.5
296.923	5.74
297.136	5.72
297.349	5.7
297.562	5.86
297.775	5.5
297.988	5.48
298.201	5.37
298.414	5.35
298.626	5.48
298.839	5.54
299.052	5.34
299.265	5.62
299.478	5.77
299.691	5.47
299.903	5.31
300.116	5.51
300.329	5.15
300.542	5.31
300.755	5.16
300.967	5.2
301.18	4.79
301.393	5.39
301.605	4.59
301.818	4.55
302.031	5.15
302.243	5.57
302.456	5.76
302.669	5.75
302.881	6.28
303.094	6.58
303.307	6.48
303.519	6.85
303.732	6.75
303.944	7.23
304.157	7.31
304.37	7.24
304.582	6.8
304.795	6.66
305.007	6.98
305.22	6.51
305.432	6.98
305.645	6.91
305.857	7.02
306.069	6.66
306.282	6.43
306.494	6.47
306.707	6.51
306.919	6.76
307.132	6.56
307.344	6.71
307.556	7.21
307.769	6.53
307.981	6.66
308.193	6.43
308.406	6.78
308.618	6.98
308.83	6.86
309.043	6.4
309.255	6.6
309.467	6.72
309.679	6.81
309.892	6.24
310.104	6.38
310.316	6.36
310.528	6.37
310.74	6.49
310.953	6.31
311.165	6.29
311.377	6.74
311.589	6.55
311.801	6.62
312.013	6.25
312.225	6.35
312.437	6.31
312.649	6.46
312.862	6.44
313.074	5.98
313.286	6.1
313.498	6.32
313.71	6.18
313.922	6.54
314.134	6.14
314.346	6.13
314.558	6.04
314.77	6.37
314.982	6.4
315.193	6.15
315.405	6.42
315.617	6.48
315.829	6.37
316.041	6.45
316.253	5.49
316.465	6.17
316.677	6.16
316.888	6.37
317.1	5.8
317.312	5.79
317.524	6.25
317.736	6.19
317.947	6.06
318.159	5.81
318.371	5.57
318.583	5.81
318.794	5.62
319.006	5.65
319.218	5.93
319.43	6.44
319.641	6.61
319.853	6.57
320.064	6.55
320.276	6.7
320.488	6.98
320.699	7.18
320.911	7.33
321.123	7.34
321.334	7.07
321.546	7.29
321.757	7.28
321.969	6.99
322.18	6.8
322.392	6.87
322.603	7.15
322.815	7.19
323.026	7.13
323.238	7.01
323.449	7.24
323.661	7.38
323.872	7.25
324.083	7.45
324.295	7.71
324.506	8.12
324.718	8.11
324.929	7.83
325.14	7.52
325.352	8.07
325.563	8.37
325.774	8.28
325.986	8.41
326.197	8.46
326.408	8.53
326.62	8.24
326.831	8.35
327.042	8.31
327.253	8.37
327.464	8.51
327.676	8.25
327.887	8.41
328.098	8.44
328.309	8.33
328.52	7.98
328.732	7.7
328.943	8.06
329.154	7.91
329.365	8.46
329.576	7.83
329.787	8.49
329.998	8.29
330.209	8.16
330.42	8.06
330.631	7.8
330.842	8.28
331.053	8.06
331.264	7.72
331.475	7.52
331.686	7.07
331.897	7.47
332.108	6.97
332.319	7
332.53	7.17
332.741	7.31
332.952	7.64
333.163	7.48
333.374	7.79
333.585	7.81
333.795	7.94
334.006	8.05
334.217	8.17
334.428	8.48
334.639	8.5
334.849	8.2
335.06	8.08
335.271	8.18
335.482	7.94
335.692	7.83
335.903	7.75
336.114	7.6
336.325	7.55
336.535	7.9
336.746	7.43
336.957	7.5
337.167	8.03
337.378	7.67
337.589	7.73
337.799	7.74
338.01	7.8
338.22	7.95
338.431	7.79
338.642	7.51
338.852	7.44
339.063	7.56
339.273	7.49
339.484	6.97
339.694	7.37
339.905	7.06
340.115	7.43
340.326	7.53
340.536	7.29
340.746	7.38
340.957	7.61
341.167	7.56
341.378	7.66
341.588	7.36
341.799	7.47
342.009	7.51
342.219	7.85
342.43	7.57
342.64	7.59
342.85	7.81
343.061	7.91
343.271	8.05
343.481	7.72
343.691	7.52
343.902	7.76
344.112	7.89
344.322	7.48
344.532	7.06
344.743	7.16
344.953	7.09
345.163	7.2
345.373	7.22
345.583	6.8
345.793	6.73
346.004	6.92
346.214	6.77
346.424	6.83
346.634	7.35
346.844	7.36
347.054	7.38
347.264	7.07
347.474	6.86
347.684	6.72
347.894	7.21
348.104	7.16
348.314	7.11
348.524	7.37
348.734	7.13
348.944	6.8
349.154	7.57
349.364	7.6
349.574	7.51
349.784	7.84
349.994	8
350.204	7.75
350.413	8.1
350.623	8.09
350.833	8.14
351.043	8.14
351.253	8.18
351.463	7.53
351.672	7.45
351.882	7.85
352.092	7.68
352.302	7.47
352.511	7.14
352.721	6.98
352.931	7.23
353.141	6.85
353.35	6.83
353.56	6.98
353.77	7.14
353.979	7.04
354.189	6.94
354.399	6.98
354.608	6.92
354.818	7.07
355.027	7.15
355.237	6.91
355.447	6.93
355.656	6.9
355.866	6.87
356.075	6.55
356.285	6.71
356.494	6.76
356.704	6.57
356.913	6.6
357.123	6.81
357.332	6.81
357.542	6.85
357.751	6.83
357.96	6.82
358.17	6.63
358.379	6.7
358.589	6.63
358.798	6.33
359.007	6.14
359.217	6.21
359.426	5.96
359.635	6
359.845	5.92
360.054	6.1
360.263	6.29
360.472	6.51
360.682	6.58
360.891	6.62
361.1	6.65
361.309	6.7
361.519	6.64
361.728	6.69
361.937	6.52
362.146	6.61
362.355	6.55
362.564	6.4
362.774	6.28
362.983	6.25
363.192	6.27
363.401	6.49
363.61	6.54
363.819	6.62
364.028	6.93
364.237	7.05
364.446	6.62
364.655	6.57
364.864	6.31
365.073	6.3
365.282	6.16
365.491	6
365.7	5.73
365.909	5.81
366.118	5.87
366.327	5.75
366.536	5.66
366.745	6
366.954	5.79
367.162	5.97
367.371	6.16
367.58	6.24
367.789	6.39
367.998	6.53
368.207	6.54
368.415	6.26
368.624	6.19
368.833	5.9
369.042	6.19
369.25	6.73
369.459	6.81
369.668	6.64
369.877	6.63
370.085	6.53
370.294	6.44
370.503	6.14
370.711	6.37
370.92	6.28
371.129	6.59
371.337	6.32
371.546	5.74
371.754	5.63
371.963	5.51
372.171	5.26
372.38	5.25
372.589	5.12
372.797	5.32
373.006	5.21
373.214	5.47
373.423	5.77
373.631	5.63
373.84	5.84
374.048	5.82
374.256	5.79
374.465	6
374.673	5.83
374.882	6.08
375.09	6.15
375.298	6
375.507	5.81
375.715	5.48
375.923	5.54
376.132	5.74
376.34	5.82
376.548	6.04
376.757	6.22
376.965	6.4
377.173	6.42
377.381	6.2
377.59	6.4
377.798	6.35
378.006	6.36
378.214	6.52
378.423	6.37
378.631	6.28
378.839	5.79
379.047	5.59
379.255	5.49
379.463	5.25
379.671	5.47
379.879	5.62
380.088	5.34
380.296	5.23
380.504	5
380.712	5.27
380.92	5.26
381.128	5.49
381.336	5.55
381.544	5.35
381.752	5.57
381.96	5.57
382.168	5.28
382.376	5.44
382.584	5.61
382.791	5.79
382.999	5.74
383.207	5.68
383.415	5.79
383.623	5.74
383.831	5.89
384.039	5.7
384.247	5.84
384.454	6.07
384.662	6.12
384.87	5.99
385.078	5.81
385.285	5.55
385.493	5.66
385.701	5.56
385.909	5.69
386.116	5.57
386.324	5.58
386.532	5.32
386.739	4.99
386.947	4.98
387.155	5.07
387.362	5.24
387.57	5.05
387.778	4.94
387.985	4.75
388.193	4.59
388.4	4.57
388.608	4.46
388.816	4.36
389.023	4.74
389.231	4.45
389.438	4.31
389.646	4.2
389.853	4.2
390.061	4.4
390.268	4.65
390.475	4.58
390.683	4.5
390.89	4.59
391.098	4.76
391.305	4.59
391.512	4.93
391.72	4.98
391.927	4.97
392.135	5.1
392.342	4.95
392.549	4.85
392.756	5.03
392.964	5.24
393.171	5.15
393.378	5.01
393.586	4.82
393.793	4.72
394	4.9
394.207	4.96
394.414	4.88
394.622	4.77
394.829	4.84
395.036	4.63
395.243	4.48
395.45	4.73
395.657	4.77
395.864	4.92
396.072	4.87
396.279	4.77
396.486	4.72
396.693	4.71
396.9	4.64
397.107	4.42
397.314	4.55
397.521	4.62
397.728	4.47
397.935	4.61
398.142	4.61
398.349	4.61
398.556	4.43
398.763	4.32
398.97	4.27
399.177	4.19
399.383	4.21
399.59	4.15
399.797	4.02
400.004	4.05
400.211	3.88
400.418	3.81
400.625	3.78
400.831	3.94
401.038	4.04
401.245	3.94
401.452	4.09
401.658	4.07
401.865	4.12
402.072	4.09
402.279	4.1
402.485	3.95
402.692	3.97
402.899	3.84
403.105	3.76
403.312	3.62
403.519	3.88
403.725	3.89
403.932	4.01
404.138	3.7
404.345	3.76
404.552	3.75
404.758	3.94
404.965	3.82
405.171	3.95
405.378	3.84
405.584	3.95
405.791	3.72
405.997	3.57
406.204	3.44
406.41	3.75
406.617	3.81
406.823	3.82
407.029	3.86
407.236	3.92
407.442	3.96
407.649	3.88
407.855	3.84
408.061	3.81
408.268	3.95
408.474	4.05
408.68	4.09
408.887	4.06
409.093	3.97
409.299	3.85
409.505	3.91
409.712	3.91
409.918	4.02
410.124	4.06
410.33	4.04
410.537	4.04
410.743	4.15
410.949	3.92
411.155	3.79
411.361	3.78
411.567	3.8
411.773	3.65
411.98	3.68
412.186	3.68
412.392	3.7
412.598	3.66
412.804	3.63
413.01	3.34
413.216	3.5
413.422	3.57
413.628	3.48
413.834	3.54
414.04	3.57
414.246	3.5
414.452	3.51
414.658	3.49
414.864	3.64
415.07	3.7
415.275	3.8
415.481	3.72
415.687	3.69
415.893	3.65
416.099	3.46
416.305	3.49
416.511	3.53
416.716	3.4
416.922	3.38
417.128	3.22
417.334	3.11
417.539	3.05
417.745	3.05
417.951	3.05
418.157	3.12
418.362	3.24
418.568	3.18
418.774	3.1
418.979	3.12
419.185	3.05
419.391	3.15
419.596	3.17
419.802	3.19
420.008	3.18
420.213	3.26
420.419	3.19
420.624	3.24
420.83	3.31
421.035	3.34
421.241	3.42
421.446	3.48
421.652	3.51
421.857	3.46
422.063	3.49
422.268	3.49
422.474	3.4
422.679	3.52
422.885	3.37
423.09	3.33
423.295	3.32
423.501	3.23
423.706	3.19
423.911	3.06
424.117	3.03
424.322	2.92
424.527	2.91
424.733	2.84
424.938	2.77
425.143	2.85
425.349	2.81
425.554	2.73
425.759	2.81
425.964	2.83
426.169	2.96
426.375	3.05
426.58	3.09
426.785	3.01
426.99	3.05
427.195	3.13
427.4	3.02
427.605	2.97
427.811	3.09
428.016	3.1
428.221	3.06
428.426	2.9
428.631	2.84
428.836	2.82
429.041	3.01
429.246	3.09
429.451	2.91
429.656	2.92
429.861	2.99
430.066	2.93
430.271	2.86
430.476	2.85
430.681	2.85
430.886	2.84
431.09	2.84
431.295	2.72
431.5	2.65
431.705	2.69
431.91	2.78
432.115	2.65
432.32	2.72
432.524	2.64
432.729	2.68
432.934	2.67
433.139	2.7
433.343	2.73
433.548	2.79
433.753	2.72
433.958	2.71
434.162	2.61
434.367	2.69
434.572	2.63
434.776	2.6
434.981	2.64
435.186	2.6
435.39	2.61
435.595	2.56
435.799	2.6
436.004	2.66
436.209	2.81
436.413	2.82
436.618	2.86
436.822	2.79
437.027	2.87
437.231	2.79
437.436	2.92
437.64	2.89
437.845	2.87
438.049	2.84
438.253	2.82
438.458	2.72
438.662	2.72
438.867	2.81
439.071	2.96
439.275	2.95
439.48	2.87
439.684	2.82
439.888	2.79
440.093	2.75
440.297	2.77
440.501	2.84
440.706	2.92
440.91	2.89
441.114	2.73
441.318	2.65
441.523	2.59
441.727	2.7
441.931	2.7
442.135	2.78
442.339	2.98
442.543	2.87
442.748	2.84
442.952	2.73
443.156	2.74
443.36	2.75
443.564	2.65
443.768	2.72
443.972	2.7
444.176	2.71
444.38	2.69
444.584	2.57
444.788	2.56
444.992	2.56
445.196	2.65
445.4	2.67
445.604	2.7
445.808	2.74
446.012	2.69
446.216	2.72
446.42	2.63
446.624	2.65
446.828	2.68
447.032	2.71
447.235	2.7
447.439	2.56
447.643	2.58
447.847	2.59
448.051	2.56
448.254	2.65
448.458	2.55
448.662	2.67
448.866	2.72
449.069	2.73
449.273	2.76
449.477	2.65
449.681	2.72
449.884	2.72
450.088	2.76
450.292	2.66
450.495	2.66
450.699	2.75
450.902	2.63
451.106	2.55
451.31	2.5
451.513	2.54
451.717	2.55
451.92	2.59
452.124	2.54
452.327	2.51
452.531	2.7
452.734	2.64
452.938	2.64
453.141	2.69
453.345	2.74
453.548	2.69
453.752	2.66
453.955	2.75
454.158	2.71
454.362	2.78
454.565	2.72
454.769	2.69
454.972	2.72
455.175	2.62
455.379	2.61
455.582	2.49
455.785	2.48
455.988	2.46
456.192	2.46
456.395	2.42
456.598	2.38
456.801	2.46
457.005	2.44
457.208	2.44
457.411	2.52
457.614	2.56
457.817	2.61
458.021	2.61
458.224	2.65
458.427	2.62
458.63	2.7
458.833	2.59
459.036	2.57
459.239	2.59
459.442	2.54
459.645	2.51
459.848	2.55
460.051	2.52
460.254	2.56
460.457	2.47
460.66	2.48
460.863	2.38
461.066	2.47
461.269	2.43
461.472	2.38
461.675	2.42
461.878	2.45
462.081	2.31
462.284	2.27
462.486	2.3
462.689	2.25
462.892	2.24
463.095	2.27
463.298	2.31
463.5	2.4
463.703	2.45
463.906	2.56
464.109	2.53
464.311	2.5
464.514	2.61
464.717	2.61
464.92	2.64
465.122	2.65
465.325	2.66
465.528	2.75
465.73	2.64
465.933	2.6
466.135	2.54
466.338	2.59
466.541	2.72
466.743	2.7
466.946	2.72
467.148	2.77
467.351	2.82
467.553	2.72
467.756	2.48
467.958	2.55
468.161	2.6
468.363	2.58
468.566	2.52
468.768	2.49
468.971	2.37
469.173	2.35
469.375	2.22
469.578	2.13
469.78	2.27
469.983	2.37
470.185	2.38
470.387	2.29
470.59	2.38
