Data from 2938544_Reflection_3.txt Node
Date: Mon Jun 15 00:29:36 EDT 2015
User: robert
Spectrometer: USB4E03002
Autoset integration time: false
Trigger mode: 4
Integration Time (sec): 1.000000E-1
Scans to average: 10
Electric dark correction enabled: true
Nonlinearity correction enabled: false
Boxcar width: 5
Stray light correction enabled: false
XAxis mode: Wavelengths
Stop averaging: false
Number of Pixels in Spectrum: 3648
>>>>>Begin Spectral Data<<<<<
177.575	76.51
177.794	82.2
178.014	59.39
178.233	400.75
178.452	-2980.49
178.672	115.78
178.891	86.44
179.11	76.76
179.33	60.52
179.549	62.83
179.768	75.89
179.987	85.16
180.207	81.71
180.426	-120.82
180.645	-98
180.864	-95.07
181.084	-138.55
181.303	-109.32
181.522	-109.06
181.741	-99.44
181.96	-158.11
182.179	-197.7
182.398	-130.26
182.618	-104.31
182.837	-110.85
183.056	-100.21
183.275	-87.39
183.494	-99.42
183.713	-139.42
183.932	-106.37
184.151	-146.7
184.37	-117.57
184.589	-78.14
184.808	-58.21
185.027	-39.94
185.246	-30.43
185.465	-8.28
185.684	-22.89
185.903	-0.75
186.122	4.89
186.341	1.39
186.56	10.1
186.779	29.71
186.998	33.67
187.216	41.16
187.435	54.21
187.654	56.69
187.873	47.29
188.092	53.06
188.311	58.43
188.53	56.05
188.748	63.99
188.967	65.05
189.186	57.1
189.405	50.85
189.623	39.13
189.842	-5.01
190.061	-4.86
190.28	-10.3
190.498	-7.45
190.717	-8.25
190.936	-20.01
191.154	-38.37
191.373	-18.1
191.592	-36.86
191.81	-34.78
192.029	-29.52
192.248	-17.53
192.466	7.7
192.685	14.42
192.904	11.92
193.122	-9.92
193.341	-1.86
193.559	32.53
193.778	-8.58
193.996	-6.01
194.215	-11.71
194.433	-4.51
194.652	28.26
194.87	0.49
195.089	5.16
195.307	10.88
195.526	-6.27
195.744	-0.96
195.963	1.61
196.181	20.35
196.399	20.73
196.618	-29.59
196.836	-36.48
197.055	-140.72
197.273	-195.87
197.491	-435.36
197.71	-169.16
197.928	-81.67
198.146	-79.05
198.365	-135
198.583	-122.81
198.801	-40.61
199.019	-14.66
199.238	4.35
199.456	2
199.674	-3.35
199.892	-22.17
200.111	-25.23
200.329	-48.72
200.547	-34.5
200.765	-35.15
200.983	-28.53
201.202	-30.6
201.42	-30.3
201.638	-42.03
201.856	-26.36
202.074	-39.66
202.292	-26.65
202.51	-23.88
202.728	-18.54
202.946	-23.84
203.165	-25.66
203.383	-41.06
203.601	-39.23
203.819	-53.43
204.037	-55.94
204.255	-47.74
204.473	-15.19
204.691	-18.86
204.909	2.02
205.127	9.5
205.345	22.67
205.562	20.13
205.78	23.92
205.998	22.38
206.216	30.42
206.434	43.74
206.652	56.98
206.87	19.11
207.088	17.98
207.306	1.28
207.523	0.13
207.741	-0.42
207.959	-1.34
208.177	5.11
208.395	8.06
208.612	17
208.83	17.29
209.048	10.18
209.266	27.3
209.483	32.78
209.701	27.78
209.919	19.85
210.136	15.03
210.354	18.03
210.572	8.79
210.79	6.67
211.007	3.85
211.225	-0.18
211.442	19.56
211.66	15.77
211.878	23.78
212.095	-53.86
212.313	-37.02
212.53	-42.51
212.748	-29.04
212.966	-18.2
213.183	-15.77
213.401	-28.88
213.618	-16.83
213.836	-26.31
214.053	-32.89
214.271	-42.72
214.488	12.59
214.705	-2.89
214.923	-8.36
215.14	-8.15
215.358	-13.9
215.575	-13.08
215.793	4.44
216.01	9.44
216.227	5.89
216.445	13.67
216.662	16.11
216.879	14.54
217.097	33.61
217.314	33.24
217.531	19.7
217.749	16.17
217.966	26.6
218.183	22.28
218.4	13.57
218.618	9.1
218.835	1.61
219.052	-3.38
219.269	-3.11
219.487	-2.73
219.704	1.78
219.921	7.52
220.138	15.63
220.355	1.76
220.572	-0.86
220.79	7.08
221.007	13.73
221.224	11.78
221.441	13.66
221.658	12.18
221.875	7.33
222.092	1.04
222.309	-1.17
222.526	-7.1
222.743	-1.15
222.96	4.06
223.177	1.47
223.394	0.26
223.611	2.48
223.828	-5.72
224.045	-9.01
224.262	-11.2
224.479	-0.66
224.696	1.86
224.913	1.72
225.13	-1.41
225.347	-0.04
225.564	1.81
225.781	1.95
225.997	2.02
226.214	5.5
226.431	5.8
226.648	5.28
226.865	2.8
227.082	2.8
227.298	2.93
227.515	3.49
227.732	3.98
227.949	3.82
228.165	5.19
228.382	5.99
228.599	6.19
228.816	6.96
229.032	8.47
229.249	11.15
229.466	12.15
229.682	13.44
229.899	13.92
230.116	12.99
230.332	13.38
230.549	10.99
230.765	11.47
230.982	12.72
231.199	11.12
231.415	12.19
231.632	9.17
231.848	6.05
232.065	6.55
232.281	4.95
232.498	3.9
232.714	2.83
232.931	4.28
233.147	3.57
233.364	1.85
233.58	3.96
233.797	2.33
234.013	1.52
234.23	4.06
234.446	3.95
234.662	5.91
234.879	7.73
235.095	6.88
235.312	7.64
235.528	5.19
235.744	4.98
235.961	4.01
236.177	4.1
236.393	5.59
236.61	5.57
236.826	2.84
237.042	1.36
237.258	1.12
237.475	2.5
237.691	2.46
237.907	5.41
238.123	5.88
238.339	5.21
238.556	6.08
238.772	6.18
238.988	6.28
239.204	6.46
239.42	6.29
239.636	5.1
239.853	4.79
240.069	4.15
240.285	3.93
240.501	4.3
240.717	4.2
240.933	4.06
241.149	4.18
241.365	3.91
241.581	4.11
241.797	4.06
242.013	4.86
242.229	4.79
242.445	4.93
242.661	5.55
242.877	5.48
243.093	5.92
243.309	6.28
243.525	5.75
243.741	5.44
243.957	5.89
244.173	5.76
244.388	5.42
244.604	5.64
244.82	6.21
245.036	5.43
245.252	5.44
245.468	5.4
245.683	5.11
245.899	5.49
246.115	6.04
246.331	6.01
246.547	6.42
246.762	6.63
246.978	6.79
247.194	6.07
247.409	6.48
247.625	6.68
247.841	6.88
248.057	6.92
248.272	6.57
248.488	6.7
248.703	6.63
248.919	6.61
249.135	6.27
249.35	5.9
249.566	6.81
249.782	6.21
249.997	5.66
250.213	5.29
250.428	5.89
250.644	5.66
250.859	4.69
251.075	4.24
251.29	4.22
251.506	3.12
251.721	3.04
251.937	2.31
252.152	2.43
252.368	2.21
252.583	1.7
252.798	0.41
253.014	1.24
253.229	1.08
253.445	1.45
253.66	1.01
253.875	2.44
254.091	1.22
254.306	2.59
254.521	3.31
254.737	4.36
254.952	4.79
255.167	5.01
255.383	4.6
255.598	5.08
255.813	5.04
256.028	5.05
256.244	4.84
256.459	5.35
256.674	5.21
256.889	4.97
257.104	4.26
257.32	4.35
257.535	4.03
257.75	3.85
257.965	3.96
258.18	4
258.395	3.76
258.61	3.97
258.826	3.96
259.041	3.68
259.256	3.64
259.471	3.74
259.686	4.1
259.901	4.5
260.116	4.51
260.331	4.3
260.546	3.77
260.761	3.91
260.976	3.92
261.191	3.78
261.406	3.97
261.621	3.91
261.836	3.77
262.05	3.08
262.265	2.95
262.48	2.61
262.695	2.64
262.91	3.21
263.125	3.19
263.34	2.84
263.555	2.43
263.769	2.49
263.984	2.1
264.199	2.39
264.414	2.11
264.629	1.8
264.843	2.4
265.058	2.25
265.273	2.27
265.488	2.17
265.702	2.51
265.917	3.18
266.132	3.04
266.346	2.89
266.561	2.5
266.776	2.51
266.99	2.17
267.205	1.64
267.42	1.38
267.634	1.67
267.849	1.81
268.063	1.51
268.278	0.76
268.492	0.86
268.707	1.19
268.922	1.75
269.136	2.19
269.351	3.06
269.565	3.46
269.78	3.9
269.994	3.81
270.209	4
270.423	3.84
270.637	4.26
270.852	4.23
271.066	4.46
271.281	4.46
271.495	4.08
271.709	3.78
271.924	3.72
272.138	4.07
272.353	3.7
272.567	3.37
272.781	3.66
272.996	3.83
273.21	3.68
273.424	3.13
273.638	3.17
273.853	2.91
274.067	2.88
274.281	2.93
274.495	2.28
274.71	2.39
274.924	2.34
275.138	2.51
275.352	2.59
275.566	2.59
275.781	3.02
275.995	2.86
276.209	3.51
276.423	3.75
276.637	3.64
276.851	3.44
277.065	3.73
277.279	4.16
277.493	3.69
277.707	3.91
277.921	4.25
278.135	4.3
278.349	4.13
278.563	3.79
278.777	3.49
278.991	3.83
279.205	3.87
279.419	3.57
279.633	3.38
279.847	3.78
280.061	3.2
280.275	2.88
280.489	2.55
280.703	2.63
280.917	2.83
281.131	2.88
281.344	2.27
281.558	2.95
281.772	3.29
281.986	3.02
282.2	2.64
282.414	2.97
282.627	3.01
282.841	3.37
283.055	3.17
283.269	3.28
283.482	3.47
283.696	3.85
283.91	3.36
284.123	3.1
284.337	3.02
284.551	3.56
284.764	3.19
284.978	3.58
285.192	3.5
285.405	3.63
285.619	3.78
285.833	3.62
286.046	3.58
286.26	4.16
286.473	4.57
286.687	4.75
286.9	4.62
287.114	5.08
287.327	4.56
287.541	4.66
287.754	4.87
287.968	4.55
288.181	4.17
288.395	4.4
288.608	3.82
288.822	3.61
289.035	3.91
289.248	3.39
289.462	3.34
289.675	3.63
289.889	3.36
290.102	3.39
290.315	3.29
290.529	3.7
290.742	3.35
290.955	3.23
291.169	3.67
291.382	3.42
291.595	3.83
291.808	3.91
292.022	3.88
292.235	3.86
292.448	3.88
292.661	4.09
292.875	4.07
293.088	4.08
293.301	4.27
293.514	3.9
293.727	4.34
293.94	4.58
294.153	4.33
294.367	4.22
294.58	4.15
294.793	4.34
295.006	4.65
295.219	4.77
295.432	5.19
295.645	5.1
295.858	5.44
296.071	4.94
296.284	4.81
296.497	4.9
296.71	4.81
296.923	5.35
297.136	5
297.349	4.68
297.562	4.59
297.775	4.18
297.988	4.34
298.201	4.32
298.414	4.89
298.626	4.76
298.839	4.89
299.052	5.08
299.265	4.73
299.478	4.86
299.691	4.93
299.903	5.16
300.116	5.1
300.329	4.9
300.542	4.74
300.755	4.65
300.967	4.54
301.18	4.03
301.393	4.13
301.605	4.54
301.818	4.61
302.031	4.51
302.243	4.32
302.456	4.46
302.669	4.76
302.881	4.71
303.094	5.07
303.307	5.28
303.519	5.72
303.732	5.67
303.944	5.46
304.157	5.28
304.37	5.32
304.582	5.31
304.795	5.65
305.007	5.38
305.22	5.35
305.432	5.33
305.645	5.22
305.857	5.57
306.069	5.53
306.282	5.49
306.494	5.44
306.707	5.7
306.919	5.54
307.132	5.29
307.344	5.72
307.556	5.51
307.769	4.8
307.981	4.84
308.193	4.71
308.406	4.94
308.618	5.1
308.83	5.52
309.043	5.3
309.255	5.58
309.467	5.48
309.679	4.85
309.892	4.92
310.104	5.08
310.316	5.09
310.528	4.79
310.74	4.95
310.953	4.53
311.165	4.28
311.377	4.31
311.589	4.41
311.801	4.57
312.013	5.25
312.225	5.05
312.437	5.22
312.649	5.16
312.862	5.53
313.074	5.04
313.286	5.65
313.498	5.74
313.71	5.57
313.922	5.18
314.134	5.11
314.346	4.96
314.558	5.32
314.77	5.58
314.982	5.59
315.193	4.99
315.405	4.89
315.617	4.38
315.829	4.2
316.041	4.69
316.253	4.68
316.465	4.51
316.677	4.48
316.888	4.58
317.1	4.85
317.312	5.22
317.524	5.43
317.736	5.86
317.947	5.86
318.159	5.82
318.371	5.57
318.583	5.42
318.794	5.58
319.006	5.47
319.218	5.37
319.43	5.25
319.641	5.19
319.853	5.56
320.064	5.02
320.276	5.17
320.488	5.08
320.699	5.09
320.911	5.94
321.123	6.15
321.334	5.99
321.546	6.17
321.757	5.76
321.969	5.69
322.18	5.94
322.392	6.51
322.603	6.67
322.815	6.79
323.026	6.9
323.238	6.43
323.449	6.41
323.661	6.67
323.872	6.63
324.083	7.07
324.295	7.29
324.506	7.36
324.718	7.45
324.929	7.6
325.14	7.56
325.352	7.93
325.563	7.9
325.774	7.64
325.986	7.89
326.197	7.38
326.408	7.12
326.62	7.13
326.831	6.73
327.042	6.55
327.253	6.42
327.464	6.62
327.676	6.12
327.887	6.1
328.098	6.66
328.309	6.25
328.52	6.67
328.732	6.37
328.943	5.94
329.154	6.26
329.365	6.56
329.576	6.71
329.787	6.95
329.998	7.32
330.209	7.43
330.42	6.91
330.631	7.11
330.842	7.15
331.053	7.14
331.264	7.51
331.475	7.63
331.686	7.68
331.897	7.41
332.108	7.08
332.319	7.25
332.53	7.41
332.741	7.8
332.952	7.82
333.163	7.96
333.374	8
333.585	7.86
333.795	7.76
334.006	7.54
334.217	7.7
334.428	7.85
334.639	7.49
334.849	7.67
335.06	7.77
335.271	7.37
335.482	7.23
335.692	7.29
335.903	7.27
336.114	7.15
336.325	7.13
336.535	6.81
336.746	6.93
336.957	6.64
337.167	6.45
337.378	5.82
337.589	6.18
337.799	6.08
338.01	6.01
338.22	6.1
338.431	5.96
338.642	5.82
338.852	6.24
339.063	6.4
339.273	6.79
339.484	6.57
339.694	6.76
339.905	6.71
340.115	6.98
340.326	7.18
340.536	7.27
340.746	7.63
340.957	7.73
341.167	7.36
341.378	7.29
341.588	7.13
341.799	7.54
342.009	7.29
342.219	7.12
342.43	6.98
342.64	6.72
342.85	6.59
343.061	6.57
343.271	6.78
343.481	6.72
343.691	6.72
343.902	6.79
344.112	6.27
344.322	6.66
344.532	6.83
344.743	6.69
344.953	7.04
345.163	7.05
345.373	6.84
345.583	6.75
345.793	7.16
346.004	7.32
346.214	7.18
346.424	7.49
346.634	7.49
346.844	7.62
347.054	7.66
347.264	7.4
347.474	7.27
347.684	7.09
347.894	6.98
348.104	6.7
348.314	6.28
348.524	6.68
348.734	6.83
348.944	6.74
349.154	6.61
349.364	6.72
349.574	6.86
349.784	6.9
349.994	7.15
350.204	7.37
350.413	7.32
350.623	7.45
350.833	7.33
351.043	7.05
351.253	7.19
351.463	7.17
351.672	7.08
351.882	6.94
352.092	6.93
352.302	6.63
352.511	6.49
352.721	6.69
352.931	6.33
353.141	6.06
353.35	5.94
353.56	5.87
353.77	5.85
353.979	6.02
354.189	6.15
354.399	6.14
354.608	6.41
354.818	6.34
355.027	6.12
355.237	6.56
355.447	6.78
355.656	6.81
355.866	6.56
356.075	6.53
356.285	6.36
356.494	6.33
356.704	6.32
356.913	6.12
357.123	6.19
357.332	6.25
357.542	6.1
357.751	5.93
357.96	5.95
358.17	5.99
358.379	6.09
358.589	6.07
358.798	6.04
359.007	6.05
359.217	6.37
359.426	6.31
359.635	6.3
359.845	6.37
360.054	6.39
360.263	6.48
360.472	6.47
360.682	6.62
360.891	6.62
361.1	6.54
361.309	6.55
361.519	6.22
361.728	5.99
361.937	5.91
362.146	5.69
362.355	5.85
362.564	5.85
362.774	5.76
362.983	5.57
363.192	5.55
363.401	5.63
363.61	5.82
363.819	5.98
364.028	6.03
364.237	6.01
364.446	6.27
364.655	5.92
364.864	5.92
365.073	6.3
365.282	6.43
365.491	6.22
365.7	6.16
365.909	5.86
366.118	5.69
366.327	5.8
366.536	5.97
366.745	5.69
366.954	5.88
367.162	5.46
367.371	5.34
367.58	5.1
367.789	5.42
367.998	5.31
368.207	5.23
368.415	5.25
368.624	5.18
368.833	5.04
369.042	5.13
369.25	5.12
369.459	5.34
369.668	5.03
369.877	4.97
370.085	4.63
370.294	4.87
370.503	4.77
370.711	4.71
370.92	4.59
371.129	4.82
371.337	4.77
371.546	4.57
371.754	4.83
371.963	4.97
372.171	5.17
372.38	5.62
372.589	5.59
372.797	5.92
373.006	5.85
373.214	6.12
373.423	6.01
373.631	6.03
373.84	6.18
374.048	6.07
374.256	6
374.465	5.9
374.673	5.49
374.882	5.16
375.09	5.13
375.298	5.16
375.507	5.1
375.715	5.09
375.923	5.24
376.132	5.31
376.34	5.2
376.548	5.47
376.757	5.36
376.965	5.58
377.173	5.71
377.381	5.53
377.59	5.53
377.798	5.55
378.006	5.52
378.214	5.42
378.423	5.27
378.631	5.29
378.839	5.07
379.047	5.14
379.255	4.98
379.463	5.09
379.671	5.22
379.879	5.17
380.088	5.21
380.296	5.09
380.504	5.07
380.712	5.11
380.92	5.09
381.128	5.02
381.336	4.93
381.544	4.86
381.752	4.91
381.96	4.78
382.168	4.91
382.376	5.02
382.584	5.06
382.791	4.92
382.999	4.83
383.207	4.83
383.415	4.84
383.623	4.88
383.831	4.93
384.039	4.76
384.247	4.81
384.454	4.9
384.662	4.52
384.87	4.49
385.078	4.24
385.285	4.19
385.493	4.16
385.701	4.2
385.909	4.08
386.116	4.24
386.324	4.18
386.532	4.06
386.739	3.85
386.947	4.05
387.155	4.09
387.362	4.3
387.57	4.32
387.778	4.13
387.985	3.86
388.193	3.9
388.4	3.5
388.608	3.47
388.816	3.84
389.023	3.85
389.231	3.9
389.438	3.84
389.646	4
389.853	4.12
390.061	4.16
390.268	4.45
390.475	4.42
390.683	4.7
390.89	4.68
391.098	4.36
391.305	4.34
391.512	4.22
391.72	4.22
391.927	4.14
392.135	3.94
392.342	4.12
392.549	4
392.756	4.19
392.964	4.19
393.171	4.32
393.378	4.43
393.586	4.51
393.793	4.74
394	4.8
394.207	4.81
394.414	4.85
394.622	4.69
394.829	4.67
395.036	4.29
395.243	4.31
395.45	4.25
395.657	4.29
395.864	4.28
396.072	4.04
396.279	3.93
396.486	3.82
396.693	4.06
396.9	3.91
397.107	4.02
397.314	3.95
397.521	3.8
397.728	3.8
397.935	3.57
398.142	3.44
398.349	3.43
398.556	3.27
398.763	3.2
398.97	3.04
399.177	3.26
399.383	3.19
399.59	3.41
399.797	3.38
400.004	3.35
400.211	3.32
400.418	3.44
400.625	3.38
400.831	3.54
401.038	3.7
401.245	3.67
401.452	3.76
401.658	3.78
401.865	3.68
402.072	3.78
402.279	3.76
402.485	3.77
402.692	3.55
402.899	3.55
403.105	3.58
403.312	3.5
403.519	3.46
403.725	3.42
403.932	3.39
404.138	3.38
404.345	3.3
404.552	3.4
404.758	3.57
404.965	3.61
405.171	3.65
405.378	3.56
405.584	3.54
405.791	3.55
405.997	3.45
406.204	3.44
406.41	3.52
406.617	3.58
406.823	3.51
407.029	3.5
407.236	3.69
407.442	3.64
407.649	3.72
407.855	3.77
408.061	3.64
408.268	3.57
408.474	3.55
408.68	3.51
408.887	3.53
409.093	3.49
409.299	3.42
409.505	3.27
409.712	3.26
409.918	3.25
410.124	3.27
410.33	3.45
410.537	3.47
410.743	3.36
410.949	3.32
411.155	3.38
411.361	3.39
411.567	3.25
411.773	3.4
411.98	3.44
412.186	3.33
412.392	3.25
412.598	3.13
412.804	3.06
413.01	3.07
413.216	3.21
413.422	3.01
413.628	3.13
413.834	3.14
414.04	3.15
414.246	2.94
414.452	2.84
414.658	2.79
414.864	2.88
415.07	2.9
415.275	2.88
415.481	2.89
415.687	2.87
415.893	2.81
416.099	2.76
416.305	2.74
416.511	2.81
416.716	2.87
416.922	2.92
417.128	2.92
417.334	2.88
417.539	2.98
417.745	2.91
417.951	2.95
418.157	2.86
418.362	2.99
418.568	2.96
418.774	2.92
418.979	2.97
419.185	3
419.391	2.97
419.596	3.02
419.802	2.95
420.008	2.94
420.213	2.18
420.419	2.29
420.624	2.26
420.83	2.24
421.035	2.31
421.241	2.32
421.446	2.27
421.652	2.23
421.857	2.19
422.063	2.22
422.268	2.24
422.474	3
422.679	2.91
422.885	2.88
423.09	2.94
423.295	2.88
423.501	2.83
423.706	2.86
423.911	2.98
424.117	2.97
424.322	3
424.527	2.96
424.733	2.95
424.938	2.97
425.143	2.95
425.349	2.93
425.554	3.02
425.759	3.03
425.964	3
426.169	2.9
426.375	2.96
426.58	2.81
426.785	2.9
426.99	2.86
427.195	2.92
427.4	2.94
427.605	2.87
427.811	2.75
428.016	2.83
428.221	2.82
428.426	2.73
428.631	2.7
428.836	2.87
429.041	2.71
429.246	2.84
429.451	2.75
429.656	2.73
429.861	2.75
430.066	2.88
430.271	2.72
430.476	2.77
430.681	2.93
430.886	3
431.09	2.99
431.295	3.07
431.5	2.99
431.705	3
431.91	3.01
432.115	2.99
432.32	2.81
432.524	2.94
432.729	2.89
432.934	2.87
433.139	2.82
433.343	2.8
433.548	2.77
433.753	2.77
433.958	2.83
434.162	2.75
434.367	2.79
434.572	3
434.776	2.93
434.981	3.08
435.186	3
435.39	2.99
435.595	2.99
435.799	2.98
436.004	2.91
436.209	2.87
436.413	3
436.618	2.89
436.822	2.76
437.027	2.69
437.231	2.54
437.436	2.63
437.64	2.61
437.845	2.59
438.049	2.59
438.253	2.59
438.458	2.55
438.662	2.43
438.867	2.41
439.071	2.53
439.275	2.58
439.48	2.67
439.684	2.54
439.888	2.51
440.093	2.46
440.297	2.51
440.501	2.55
440.706	2.5
440.91	2.58
441.114	2.6
441.318	2.43
441.523	2.49
441.727	2.3
441.931	2.33
442.135	2.39
442.339	2.41
442.543	2.37
442.748	2.36
442.952	2.38
443.156	2.42
443.36	2.43
443.564	2.48
443.768	2.45
443.972	2.52
444.176	2.46
444.38	2.46
444.584	2.44
444.788	2.47
444.992	2.38
445.196	2.44
445.4	2.39
445.604	2.47
445.808	2.56
446.012	2.59
446.216	2.52
446.42	2.6
446.624	2.56
446.828	2.55
447.032	2.53
447.235	2.61
447.439	2.66
447.643	2.7
447.847	2.56
448.051	2.43
448.254	2.43
448.458	2.49
448.662	2.43
448.866	2.51
449.069	2.54
449.273	2.55
449.477	2.51
449.681	2.49
449.884	2.39
450.088	2.48
450.292	2.43
450.495	2.41
450.699	2.49
450.902	2.54
451.106	2.48
451.31	2.47
451.513	2.39
451.717	2.53
451.92	2.5
452.124	2.58
452.327	2.62
452.531	2.68
452.734	2.63
452.938	2.51
453.141	2.44
453.345	2.48
453.548	2.49
453.752	2.62
453.955	2.52
454.158	2.46
454.362	2.42
454.565	2.24
454.769	2.28
454.972	2.25
455.175	2.31
455.379	2.44
455.582	2.39
455.785	2.41
455.988	2.37
456.192	2.22
456.395	2.17
456.598	2.24
456.801	2.42
457.005	2.34
457.208	2.37
457.411	2.38
457.614	2.32
457.817	2.31
458.021	2.35
458.224	2.34
458.427	2.51
458.63	2.59
458.833	2.54
459.036	2.51
459.239	2.54
459.442	2.5
459.645	2.4
459.848	2.4
460.051	2.43
460.254	2.37
460.457	2.37
460.66	2.3
460.863	2.34
461.066	2.34
461.269	2.3
461.472	2.42
461.675	2.39
461.878	2.53
462.081	2.56
462.284	2.52
462.486	2.56
462.689	2.51
462.892	2.57
463.095	2.43
463.298	2.4
463.5	2.41
463.703	2.27
463.906	2.35
464.109	2.36
464.311	2.36
464.514	2.39
464.717	2.33
464.92	2.38
465.122	2.3
465.325	2.36
465.528	2.41
465.73	2.41
465.933	2.39
466.135	2.43
466.338	2.46
466.541	2.4
466.743	2.38
466.946	2.47
467.148	2.49
467.351	2.53
467.553	2.53
467.756	2.52
467.958	2.55
468.161	2.6
468.363	2.57
468.566	2.55
468.768	2.58
468.971	2.52
469.173	2.44
469.375	2.43
469.578	2.46
469.78	2.45
469.983	2.48
470.185	2.49
470.387	2.54
470.59	2.57
470.792	2.4
470.994	2.47
471.196	2.56
471.399	2.59
471.601	2.57
471.803	2.57
472.005	2.55
472.208	2.62
