Data from 2938537_Reflection_1.txt Node
Date: Mon Jun 15 23:44:41 EDT 2015
User: robert
Spectrometer: USB4E03002
Autoset integration time: false
Trigger mode: 4
Integration Time (sec): 1.000000E-1
Scans to average: 10
Electric dark correction enabled: true
Nonlinearity correction enabled: false
Boxcar width: 6
Stray light correction enabled: false
XAxis mode: Wavelengths
Stop averaging: false
Number of Pixels in Spectrum: 3648
>>>>>Begin Spectral Data<<<<<
177.575	22.89
177.794	99.3
178.014	45.09
178.233	-44.31
178.452	221.43
178.672	457.49
178.891	-80
179.11	-54.84
179.33	-42.47
179.549	-81.5
179.768	-65.82
179.987	-166.83
180.207	-26.58
180.426	-65.44
180.645	-4.01
180.864	9.42
181.084	-19.69
181.303	3.91
181.522	-3.44
181.741	-11.29
181.96	-4.94
182.179	13.48
182.398	24.17
182.618	-9.31
182.837	18.03
183.056	-16.94
183.275	30.24
183.494	10.33
183.713	-39.95
183.932	-82.97
184.151	-203.88
184.37	-181.18
184.589	-138.92
184.808	-328.88
185.027	-546.92
185.246	-252.27
185.465	-172.51
185.684	-290.13
185.903	-323.7
186.122	-2408.51
186.341	5895
186.56	1506.17
186.779	2982.05
186.998	-536.62
187.216	3257.69
187.435	376.81
187.654	887.38
187.873	4466.67
188.092	864.84
188.311	744.44
188.53	4079.17
188.748	-4670
188.967	-735.45
189.186	-2373.17
189.405	-1054.55
189.623	1403.85
189.842	614.91
190.061	8100
190.28	-655.86
190.498	-1547.37
190.717	-1101.35
190.936	-5350
191.154	-1472.97
191.373	6455.56
191.592	2400
191.81	1705.41
192.029	883.87
192.248	1069.84
192.466	-2587.5
192.685	-342.47
192.904	-388.43
193.122	1359.18
193.341	1962.96
193.559	264.14
193.778	460.39
193.996	278.45
194.215	288.63
194.433	214.16
194.652	261.26
194.87	331.25
195.089	203.48
195.307	205.81
195.526	178.48
195.744	200.61
195.963	453.55
196.181	394.8
196.399	1887.88
196.618	372.52
196.836	-149.73
197.055	-80.09
197.273	-283.33
197.491	-68.22
197.71	-278.76
197.928	-77.1
198.146	-74.16
198.365	-59.8
198.583	-155.47
198.801	11850
199.019	749.47
199.238	1286.21
199.456	2790.63
199.674	530.96
199.892	644.87
200.111	3417.86
200.329	297.12
200.547	332.52
200.765	305.56
200.983	394.44
201.202	375.39
201.42	666.9
201.638	479.12
201.856	1195
202.074	447.83
202.292	355.87
202.51	261.61
202.728	259.61
202.946	182.91
203.165	187.1
203.383	183.52
203.601	168.48
203.819	108.63
204.037	104.05
204.255	85.31
204.473	126.35
204.691	97.55
204.909	90.52
205.127	24.19
205.345	28.57
205.562	20.43
205.78	1.29
205.998	9.97
206.216	-2.59
206.434	-0.25
206.652	-8.53
206.87	28.6
207.088	51.43
207.306	78.1
207.523	73.39
207.741	108.94
207.959	122.13
208.177	125.58
208.395	114.43
208.612	106.93
208.83	163.23
209.048	159.28
209.266	147.83
209.483	174.71
209.701	236.61
209.919	448.46
210.136	164.59
210.354	196.24
210.572	162.04
210.79	136.87
211.007	122.44
211.225	113.35
211.442	82.02
211.66	42.19
211.878	-62.23
212.095	-58.92
212.313	-92.56
212.53	-81.05
212.748	-102.67
212.966	-127.75
213.183	-134.45
213.401	-108.09
213.618	-73.42
213.836	-92.21
214.053	-67.52
214.271	-93.12
214.488	-159.85
214.705	62.41
214.923	49.49
215.14	63.97
215.358	54.77
215.575	65.15
215.793	58.33
216.01	37.26
216.227	43.15
216.445	34.57
216.662	42.62
216.879	25.99
217.097	23.5
217.314	39.07
217.531	45.44
217.749	57.82
217.966	48.13
218.183	40.61
218.4	36.2
218.618	18.53
218.835	3.61
219.052	1.93
219.269	-6.18
219.487	-0.98
219.704	22.25
219.921	14.96
220.138	12.05
220.355	13.93
220.572	16.98
220.79	12.28
221.007	8.6
221.224	6.26
221.441	29.82
221.658	41.96
221.875	35.49
222.092	31.37
222.309	29.77
222.526	30.51
222.743	30.32
222.96	24.81
223.177	28.81
223.394	23.51
223.611	27.39
223.828	31.14
224.045	31.37
224.262	24.54
224.479	23.23
224.696	19.49
224.913	20.07
225.13	18.8
225.347	17.69
225.564	18.08
225.781	16.1
225.997	14.5
226.214	12.19
226.431	11.27
226.648	10.48
226.865	11.04
227.082	11.46
227.298	11.2
227.515	11.21
227.732	10.33
227.949	8.94
228.165	8.5
228.382	7.75
228.599	8.51
228.816	7.57
229.032	8.55
229.249	8.66
229.466	8.52
229.682	8.36
229.899	7.84
230.116	7.52
230.332	6.91
230.549	6.64
230.765	8.89
230.982	8.49
231.199	10.17
231.415	9.54
231.632	9.83
231.848	8.47
232.065	7.87
232.281	8.69
232.498	8.38
232.714	8.13
232.931	9.46
233.147	10.38
233.364	10.34
233.58	10.3
233.797	11.06
234.013	9.73
234.23	8.93
234.446	7.97
234.662	9.95
234.879	10.69
235.095	10.88
235.312	12.46
235.528	11.15
235.744	9.98
235.961	9.04
236.177	10.79
236.393	10.54
236.61	9.04
236.826	11.1
237.042	12.81
237.258	13.41
237.475	12.73
237.691	10.84
237.907	10.48
238.123	9.12
238.339	11.18
238.556	13.26
238.772	12.42
238.988	11.01
239.204	10.89
239.42	10.77
239.636	10.03
239.853	10.07
240.069	10.16
240.285	9.84
240.501	10.82
240.717	10.68
240.933	10.98
241.149	10.45
241.365	10.57
241.581	10.89
241.797	10.7
242.013	10.7
242.229	11.51
242.445	11.34
242.661	10.5
242.877	10.28
243.093	10.33
243.309	9.8
243.525	9.72
243.741	9.04
243.957	8.73
244.173	7.97
244.388	8.32
244.604	8.93
244.82	8.3
245.036	7.55
245.252	7.56
245.468	7.57
245.683	7.23
245.899	6.99
246.115	7.07
246.331	6.82
246.547	6.81
246.762	6.94
246.978	6.54
247.194	6.57
247.409	6.77
247.625	7.01
247.841	7.86
248.057	7.49
248.272	7.68
248.488	7.65
248.703	8.21
248.919	7.67
249.135	8.02
249.35	8.34
249.566	7.99
249.782	8.56
249.997	8
250.213	6.97
250.428	6.8
250.644	6.31
250.859	7.29
251.075	7.43
251.29	8.03
251.506	8.23
251.721	8.19
251.937	8.3
252.152	8.57
252.368	9.58
252.583	9.95
252.798	10.65
253.014	11.13
253.229	11.84
253.445	12.67
253.66	11.64
253.875	11.51
254.091	12.42
254.306	11.62
254.521	11.45
254.737	9.84
254.952	9.46
255.167	8.67
255.383	7.73
255.598	7.17
255.813	6.77
256.028	6.37
256.244	5.55
256.459	5.7
256.674	5.77
256.889	4.87
257.104	4.67
257.32	5.11
257.535	5.44
257.75	5.15
257.965	4.96
258.18	5.29
258.395	5.07
258.61	5.35
258.826	5.4
259.041	5.34
259.256	5.17
259.471	4.9
259.686	5.07
259.901	5.21
260.116	4.9
260.331	4.94
260.546	4.93
260.761	5.21
260.976	4.63
261.191	5.03
261.406	4.49
261.621	4.58
261.836	4.59
262.05	4.66
262.265	5.02
262.48	4.62
262.695	4.78
262.91	4.91
263.125	4.9
263.34	4.81
263.555	3.65
263.769	3.63
263.984	3.59
264.199	4.11
264.414	3.75
264.629	3.82
264.843	4.46
265.058	4.25
265.273	4.2
265.488	3.92
265.702	4.01
265.917	4.42
266.132	5.19
266.346	6.22
266.561	6.5
266.776	6.26
266.99	6.39
267.205	6.52
267.42	6.19
267.634	6.42
267.849	6.72
268.063	7.24
268.278	7.17
268.492	7.05
268.707	6.52
268.922	5.63
269.136	5.75
269.351	5.77
269.565	5.67
269.78	5.78
269.994	5.53
270.209	5.38
270.423	5.27
270.637	5.16
270.852	5.2
271.066	5.72
271.281	5.91
271.495	5.97
271.709	6.14
271.924	5.74
272.138	5.7
272.353	6.16
272.567	5.72
272.781	5.84
272.996	6
273.21	5.86
273.424	6.13
273.638	5.97
273.853	5.77
274.067	6.32
274.281	6.35
274.495	6.27
274.71	6.11
274.924	5.95
275.138	5.74
275.352	6
275.566	5.75
275.781	5.74
275.995	5.52
276.209	5.49
276.423	5.21
276.637	4.61
276.851	4.01
277.065	4.37
277.279	5.14
277.493	5.28
277.707	5.29
277.921	5.24
278.135	5.32
278.349	5.78
278.563	5.81
278.777	5.71
278.991	5.21
279.205	5.68
279.419	6.17
279.633	6.01
279.847	5.83
280.061	5.8
280.275	5.74
280.489	5.83
280.703	5.97
280.917	5.76
281.131	5.63
281.344	5.71
281.558	5.78
281.772	5.61
281.986	5.21
282.2	5.01
282.414	5.29
282.627	5.13
282.841	4.78
283.055	4.84
283.269	4.79
283.482	4.51
283.696	4.67
283.91	4.5
284.123	4.61
284.337	4.57
284.551	4.48
284.764	4.46
284.978	4.37
285.192	4.14
285.405	4.57
285.619	4.78
285.833	4.76
286.046	4.76
286.26	4.9
286.473	4.97
286.687	5.36
286.9	5.46
287.114	5.67
287.327	5.99
287.541	6.18
287.754	6.47
287.968	6.41
288.181	5.73
288.395	5.86
288.608	5.88
288.822	5.74
289.035	5.86
289.248	5.72
289.462	5.55
289.675	5.65
289.889	5.33
290.102	5.3
290.315	5.28
290.529	4.92
290.742	5.05
290.955	5.61
291.169	5.29
291.382	5.45
291.595	5.57
291.808	5.2
292.022	5.01
292.235	4.94
292.448	5
292.661	5.4
292.875	5.51
293.088	5.76
293.301	6.03
293.514	5.99
293.727	5.87
293.94	6.02
294.153	5.82
294.367	5.57
294.58	5.79
294.793	6.03
295.006	5.98
295.219	5.73
295.432	5.51
295.645	5.37
295.858	5.07
296.071	4.93
296.284	5.04
296.497	4.9
296.71	4.86
296.923	4.81
297.136	5.13
297.349	5.07
297.562	4.83
297.775	4.95
297.988	5.21
298.201	5.36
298.414	5.26
298.626	5.36
298.839	5.41
299.052	5.28
299.265	5.21
299.478	4.73
299.691	4.94
299.903	5.23
300.116	5.37
300.329	5.41
300.542	5.45
300.755	5.4
300.967	5.24
301.18	5.38
301.393	5.36
301.605	5.49
301.818	5.32
302.031	5.63
302.243	6.15
302.456	6.03
302.669	5.9
302.881	5.97
303.094	5.88
303.307	5.62
303.519	5.76
303.732	5.57
303.944	5.65
304.157	5.91
304.37	5.68
304.582	5.95
304.795	6.02
305.007	5.73
305.22	5.71
305.432	5.41
305.645	5.33
305.857	5.44
306.069	5.76
306.282	5.55
306.494	6.06
306.707	5.95
306.919	5.68
307.132	5.79
307.344	5.88
307.556	5.66
307.769	5.56
307.981	5.49
308.193	5.61
308.406	5.55
308.618	5.47
308.83	5.29
309.043	5.15
309.255	5.16
309.467	5.2
309.679	5.41
309.892	5.3
310.104	5.42
310.316	5.38
310.528	5.63
310.74	5.82
310.953	5.96
311.165	6.24
311.377	6.28
311.589	6.67
311.801	6.68
312.013	6.73
312.225	6.72
312.437	6.98
312.649	7.15
312.862	7.05
313.074	7.38
313.286	7.18
313.498	7.09
313.71	6.99
313.922	6.72
314.134	6.96
314.346	6.62
314.558	6.91
314.77	6.78
314.982	6.93
315.193	6.46
315.405	6.38
315.617	6.34
315.829	5.92
316.041	5.87
316.253	5.83
316.465	5.36
316.677	5.48
316.888	5.26
317.1	5.14
317.312	4.62
317.524	4.91
317.736	4.99
317.947	5.02
318.159	5.29
318.371	4.96
318.583	5.15
318.794	5.58
319.006	6
319.218	6.39
319.43	6.36
319.641	6.47
319.853	6.59
320.064	7.02
320.276	6.71
320.488	6.85
320.699	7.03
320.911	7.13
321.123	7.95
321.334	7.72
321.546	6.97
321.757	6.28
321.969	6.44
322.18	6.49
322.392	6.69
322.603	6.75
322.815	6.69
323.026	6.3
323.238	6.02
323.449	6.32
323.661	6.35
323.872	5.91
324.083	6.31
324.295	6.51
324.506	6.79
324.718	6.65
324.929	6.13
325.14	5.95
325.352	5.62
325.563	5.61
325.774	6.13
325.986	6.36
326.197	6.21
326.408	6.36
326.62	6.18
326.831	6.46
327.042	6.72
327.253	7.12
327.464	7.11
327.676	7.78
327.887	7.86
328.098	8.22
328.309	7.97
328.52	8.08
328.732	8.02
328.943	7.79
329.154	7.76
329.365	7.89
329.576	7.42
329.787	7.12
329.998	7.18
330.209	7.21
330.42	7.02
330.631	7.3
330.842	7.31
331.053	7.11
331.264	7.2
331.475	7.04
331.686	7.23
331.897	6.99
332.108	7.35
332.319	7.55
332.53	7.51
332.741	7.53
332.952	7.19
333.163	7.16
333.374	6.59
333.585	6.76
333.795	7.18
334.006	7.06
334.217	7.19
334.428	7.21
334.639	7.15
334.849	6.59
335.06	6.35
335.271	6.57
335.482	5.85
335.692	6.69
335.903	6.71
336.114	6.7
336.325	6.56
336.535	6.74
336.746	6.35
336.957	6.53
337.167	6.43
337.378	6.77
337.589	7.1
337.799	7.48
338.01	7.61
338.22	7.72
338.431	7.24
338.642	7.45
338.852	7.75
339.063	7.59
339.273	7.42
339.484	7.77
339.694	7.67
339.905	7.28
340.115	7.19
340.326	7.2
340.536	6.78
340.746	6.62
340.957	7.09
341.167	7.03
341.378	6.99
341.588	6.8
341.799	6.6
342.009	6.48
342.219	6.37
342.43	6.2
342.64	6.37
342.85	6.12
343.061	6.16
343.271	5.99
343.481	5.9
343.691	5.53
343.902	5.68
344.112	5.45
344.322	5.47
344.532	5.75
344.743	5.52
344.953	5.25
345.163	5.15
345.373	5.05
345.583	5.11
345.793	5.06
346.004	5.41
346.214	5.8
346.424	5.88
346.634	5.76
346.844	5.86
347.054	6.25
347.264	6.41
347.474	6.62
347.684	6.67
347.894	6.83
348.104	7.07
348.314	7.3
348.524	7.02
348.734	7.12
348.944	7.07
349.154	7.02
349.364	7.2
349.574	7.24
349.784	6.92
349.994	6.74
350.204	6.88
350.413	6.6
350.623	6.61
350.833	6.38
351.043	5.94
351.253	6.03
351.463	5.61
351.672	5.41
351.882	5.54
352.092	5.05
352.302	4.99
352.511	4.93
352.721	5.05
352.931	5.08
353.141	5.52
353.35	5.39
353.56	5.55
353.77	5.72
353.979	5.77
354.189	5.89
354.399	5.89
354.608	5.93
354.818	6.2
355.027	6.06
355.237	6.04
355.447	5.93
355.656	5.55
355.866	5.58
356.075	5.75
356.285	5.81
356.494	5.66
356.704	5.61
356.913	5.55
357.123	5.55
357.332	5.26
357.542	5.25
357.751	5.41
357.96	5.31
358.17	5.18
358.379	5.37
358.589	5.28
358.798	5.1
359.007	4.96
359.217	4.89
359.426	5.1
359.635	5.26
359.845	5.37
360.054	5.37
360.263	5.46
360.472	5.27
360.682	5.43
360.891	5.38
361.1	5.5
361.309	5.57
361.519	5.6
361.728	5.65
361.937	5.76
362.146	5.66
362.355	5.62
362.564	5.44
362.774	5.52
362.983	5.19
363.192	5.19
363.401	4.99
363.61	5.31
363.819	5.08
364.028	4.88
364.237	4.85
364.446	4.76
364.655	4.92
364.864	4.93
365.073	4.87
365.282	4.92
365.491	4.96
365.7	5.27
365.909	5.24
366.118	5.34
366.327	5.24
366.536	5.2
366.745	5.11
366.954	5.34
367.162	5.27
367.371	5.36
367.58	5.09
367.789	4.88
367.998	4.93
368.207	4.69
368.415	4.68
368.624	4.73
368.833	4.86
369.042	4.88
369.25	4.91
369.459	5.04
369.668	4.69
369.877	4.87
370.085	4.57
370.294	4.82
370.503	5.01
370.711	4.76
370.92	5.13
371.129	5.01
371.337	4.85
371.546	4.88
371.754	4.8
371.963	4.92
372.171	4.75
372.38	4.85
372.589	4.75
372.797	4.79
373.006	4.56
373.214	4.71
373.423	4.86
373.631	4.72
373.84	4.87
374.048	5.04
374.256	4.89
374.465	4.9
374.673	4.75
374.882	4.94
375.09	4.97
375.298	5.05
375.507	4.9
375.715	4.8
375.923	4.66
376.132	4.75
376.34	4.84
376.548	4.79
376.757	4.9
376.965	4.93
377.173	4.72
377.381	4.98
377.59	4.95
377.798	4.69
378.006	4.5
378.214	4.62
378.423	4.67
378.631	4.53
378.839	4.49
379.047	4.43
379.255	4.39
379.463	4.13
379.671	4.13
379.879	4.28
380.088	4.3
380.296	4.33
380.504	4.72
380.712	4.78
380.92	4.8
381.128	5.09
381.336	4.96
381.544	4.86
381.752	4.83
381.96	4.73
382.168	4.9
382.376	4.95
382.584	4.88
382.791	4.84
382.999	4.75
383.207	4.64
383.415	4.68
383.623	4.7
383.831	4.82
384.039	4.91
384.247	4.99
384.454	4.75
384.662	4.7
384.87	4.61
385.078	4.39
385.285	4.45
385.493	4.23
385.701	4.29
385.909	4.3
386.116	4.11
386.324	4.12
386.532	3.82
386.739	4.06
386.947	3.98
387.155	4.06
387.362	4.04
387.57	4.08
387.778	4.16
387.985	3.96
388.193	4.07
388.4	4.19
388.608	4.13
388.816	4.26
389.023	4.13
389.231	4.09
389.438	3.89
389.646	3.85
389.853	3.9
390.061	3.92
390.268	3.89
390.475	3.83
390.683	3.79
390.89	3.71
391.098	3.49
391.305	3.5
391.512	3.58
391.72	3.54
391.927	3.6
392.135	3.47
392.342	3.53
392.549	3.41
392.756	3.19
392.964	3.16
393.171	3.2
393.378	3.42
393.586	3.45
393.793	3.44
394	3.39
394.207	3.34
394.414	3.38
394.622	3.13
394.829	3.17
395.036	3.31
395.243	3.51
395.45	3.67
395.657	3.56
395.864	3.47
396.072	3.42
396.279	3.4
396.486	3.32
396.693	3.26
396.9	3.18
397.107	3.34
397.314	3.52
397.521	3.56
397.728	3.56
397.935	3.36
398.142	3.39
398.349	3.45
398.556	3.6
398.763	3.36
398.97	3.41
399.177	3.66
399.383	3.74
399.59	3.62
399.797	3.53
400.004	3.55
400.211	3.48
400.418	3.23
400.625	3.32
400.831	3.31
401.038	3.34
401.245	3.31
401.452	3.42
401.658	3.46
401.865	3.32
402.072	3.3
402.279	3.46
402.485	3.31
402.692	3.25
402.899	3.29
403.105	3.22
403.312	3.09
403.519	3.01
403.725	3.03
403.932	2.96
404.138	3.11
404.345	3.05
404.552	3.19
404.758	3.17
404.965	3.02
405.171	3.2
405.378	3.15
405.584	3.16
405.791	3.16
405.997	3.37
406.204	3.43
406.41	3.43
406.617	3.35
406.823	3.16
407.029	3.06
407.236	2.95
407.442	2.98
407.649	2.86
407.855	2.7
408.061	2.8
408.268	2.79
408.474	2.77
408.68	2.75
408.887	2.83
409.093	2.68
409.299	2.76
409.505	2.79
409.712	2.76
409.918	2.69
410.124	2.71
410.33	2.76
410.537	2.85
410.743	2.83
410.949	2.7
411.155	2.78
411.361	2.74
411.567	2.56
411.773	2.59
411.98	2.61
412.186	2.66
412.392	2.72
412.598	2.83
412.804	2.83
413.01	3.04
413.216	3.06
413.422	3.14
413.628	3.27
413.834	3.27
414.04	3.18
414.246	3.25
414.452	3.24
414.658	3.11
414.864	3.08
415.07	3.06
415.275	2.93
415.481	2.84
415.687	2.69
415.893	2.56
416.099	2.47
416.305	2.54
416.511	2.49
416.716	2.48
416.922	2.55
417.128	2.67
417.334	2.79
417.539	2.76
417.745	2.81
417.951	2.81
418.157	2.82
418.362	2.88
418.568	2.91
418.774	2.9
418.979	2.75
419.185	2.78
419.391	2.89
419.596	2.83
419.802	2.78
420.008	2.86
420.213	2.85
420.419	2.77
420.624	2.73
420.83	2.74
421.035	2.72
421.241	2.72
421.446	2.72
421.652	2.82
421.857	2.75
422.063	2.61
422.268	2.59
422.474	2.54
422.679	2.46
422.885	2.38
423.09	2.4
423.295	2.42
423.501	2.44
423.706	2.38
423.911	2.37
424.117	2.29
424.322	2.26
424.527	2.32
424.733	2.26
424.938	2.19
425.143	2.12
425.349	2.08
425.554	2.15
425.759	2.17
425.964	2.17
426.169	2.22
426.375	2.3
426.58	2.26
426.785	2.43
426.99	2.51
427.195	2.44
427.4	2.63
427.605	2.82
427.811	2.95
428.016	2.91
428.221	2.84
428.426	2.73
428.631	2.85
428.836	2.71
429.041	2.57
429.246	2.67
429.451	2.53
429.656	2.38
429.861	2.49
430.066	2.45
430.271	2.3
430.476	2.26
430.681	2.28
430.886	2.39
431.09	2.45
431.295	2.35
431.5	2.37
431.705	2.48
431.91	2.39
432.115	2.42
432.32	2.44
432.524	2.3
432.729	2.21
432.934	2.25
433.139	2.27
433.343	2.25
433.548	2.14
433.753	2.18
433.958	2.1
434.162	2.04
434.367	2.11
434.572	2.16
434.776	2.18
434.981	2.15
435.186	2.26
435.39	2.34
435.595	2.29
435.799	2.29
436.004	2.24
436.209	2.29
436.413	2.28
436.618	2.31
436.822	2.35
437.027	2.23
437.231	2.17
437.436	2.14
437.64	2.26
437.845	2.27
438.049	2.23
438.253	2.31
438.458	2.3
438.662	2.37
438.867	2.46
439.071	2.39
439.275	2.44
439.48	2.47
439.684	2.51
439.888	2.61
440.093	2.64
440.297	2.6
440.501	2.54
440.706	2.67
440.91	2.69
441.114	2.71
441.318	2.64
441.523	2.6
441.727	2.69
441.931	2.71
442.135	2.63
442.339	2.61
442.543	2.59
442.748	2.58
442.952	2.55
443.156	2.61
443.36	2.57
443.564	2.51
443.768	2.44
443.972	2.5
444.176	2.53
444.38	2.47
444.584	2.38
444.788	2.4
444.992	2.42
445.196	2.42
445.4	2.35
445.604	2.38
445.808	2.35
446.012	2.29
446.216	2.28
446.42	2.27
446.624	2.18
446.828	2.09
447.032	2.07
447.235	2.11
447.439	2.12
447.643	2.06
447.847	2.04
448.051	2.09
448.254	2.01
448.458	1.95
448.662	1.88
448.866	1.82
449.069	1.9
449.273	1.94
449.477	1.96
449.681	1.96
449.884	1.99
450.088	1.98
450.292	2.04
450.495	1.98
450.699	1.93
450.902	1.93
451.106	1.97
451.31	2.1
451.513	2.11
451.717	2.11
451.92	2.2
452.124	2.23
452.327	2.22
452.531	2.29
452.734	2.31
452.938	2.29
453.141	2.27
453.345	2.32
453.548	2.32
453.752	2.37
453.955	2.19
454.158	2.26
454.362	2.16
454.565	2.16
454.769	2.14
454.972	2.16
455.175	2.11
455.379	2.13
455.582	2.12
455.785	2.22
455.988	2.23
456.192	2.22
456.395	2.18
456.598	2.25
456.801	2.21
457.005	2.22
457.208	2.11
457.411	2.11
457.614	2.13
457.817	2.09
458.021	2.05
458.224	2.03
458.427	2.05
458.63	2.02
458.833	2.05
459.036	2.09
459.239	2.08
459.442	2.14
459.645	2.16
459.848	2.23
460.051	2.26
460.254	2.27
460.457	2.32
460.66	2.45
460.863	2.5
461.066	2.43
461.269	2.46
461.472	2.39
461.675	2.38
461.878	2.43
462.081	2.4
462.284	2.35
462.486	2.36
462.689	2.3
462.892	2.22
463.095	2.17
463.298	2.04
463.5	2.02
463.703	2.02
463.906	2.09
464.109	2.11
464.311	2.2
464.514	2.27
464.717	2.25
464.92	2.36
465.122	2.33
465.325	2.35
465.528	2.38
465.73	2.28
465.933	2.2
466.135	2.14
466.338	2.18
466.541	2.02
466.743	1.98
466.946	1.75
467.148	1.64
467.351	1.66
467.553	1.61
467.756	1.56
467.958	1.49
468.161	1.52
468.363	1.64
468.566	1.7
468.768	1.69
468.971	1.61
469.173	1.6
469.375	1.62
