Data from 2938573_Reflection_3.txt Node
Date: Sun Jun 14 21:50:14 EDT 2015
User: robert
Spectrometer: USB4E03002
Autoset integration time: false
Trigger mode: 4
Integration Time (sec): 1.000000E-1
Scans to average: 10
Electric dark correction enabled: true
Nonlinearity correction enabled: false
Boxcar width: 5
Stray light correction enabled: false
XAxis mode: Wavelengths
Stop averaging: false
Number of Pixels in Spectrum: 3648
>>>>>Begin Spectral Data<<<<<
177.575	480.3
177.794	727.21
178.014	10724.68
178.233	-27396.87
178.452	-1917.96
178.672	-1080.57
178.891	23.27
179.11	321.86
179.33	261.02
179.549	336.73
179.768	680.18
179.987	506.67
180.207	555.01
180.426	922.82
180.645	906.34
180.864	469.45
181.084	457.01
181.303	553.71
181.522	340.23
181.741	341.4
181.96	254.83
182.179	264.99
182.398	224.4
182.618	251.71
182.837	209.74
183.056	166.71
183.275	205.25
183.494	269.3
183.713	256.55
183.932	272.37
184.151	250.95
184.37	288.8
184.589	274.38
184.808	277.43
185.027	236.26
185.246	295.96
185.465	309.71
185.684	299.76
185.903	314.84
186.122	258.97
186.341	261.29
186.56	281.57
186.779	235.57
186.998	218.56
187.216	261.61
187.435	291.01
187.654	297.8
187.873	344.13
188.092	443.07
188.311	335.02
188.53	413.78
188.748	496.55
188.967	1045.49
189.186	847.67
189.405	-2998.81
189.623	-69127.78
189.842	-1034.41
190.061	-944.16
190.28	-1118.97
190.498	-2023.58
190.717	-5053.23
190.936	1603.96
191.154	1490.23
191.373	506.55
191.592	1011.51
191.81	324.77
192.029	409.74
192.248	252.32
192.466	222.36
192.685	182.12
192.904	215.09
193.122	235.07
193.341	235.2
193.559	234.77
193.778	262.83
193.996	244.77
194.215	258.82
194.433	228.89
194.652	212.19
194.87	236.96
195.089	250.03
195.307	202.86
195.526	190.42
195.744	233.64
195.963	223.51
196.181	273.13
196.399	303.66
196.618	261.97
196.836	239.92
197.055	250.12
197.273	231.08
197.491	261.22
197.71	280.07
197.928	271.25
198.146	235.25
198.365	269.9
198.583	180.48
198.801	165.03
199.019	198.34
199.238	214.38
199.456	171.91
199.674	193.64
199.892	174.15
200.111	164.7
200.329	161.96
200.547	148.45
200.765	136.9
200.983	123.46
201.202	108.94
201.42	119.51
201.638	128.85
201.856	140.23
202.074	142.85
202.292	160.42
202.51	244.35
202.728	245.37
202.946	237.54
203.165	237.78
203.383	243.12
203.601	223.28
203.819	187.39
204.037	207.91
204.255	246.1
204.473	266.83
204.691	201.72
204.909	159.89
205.127	176.98
205.345	127.58
205.562	117.12
205.78	115.85
205.998	131.41
206.216	142.11
206.434	156.22
206.652	147.92
206.87	145.9
207.088	152.2
207.306	170.34
207.523	178.65
207.741	241.05
207.959	235.53
208.177	216.17
208.395	213.02
208.612	246.93
208.83	194.84
209.048	180.76
209.266	173.06
209.483	186.3
209.701	157.09
209.919	151.2
210.136	148.84
210.354	177.39
210.572	197.58
210.79	225.76
211.007	241.65
211.225	266.31
211.442	236.19
211.66	241.4
211.878	255.83
212.095	374.59
212.313	324.55
212.53	327.63
212.748	274.78
212.966	260.33
213.183	246.22
213.401	214.03
213.618	237.84
213.836	306.84
214.053	284.38
214.271	230.92
214.488	139.92
214.705	154.23
214.923	127.45
215.14	133.09
215.358	121.51
215.575	93.94
215.793	121.83
216.01	106.87
216.227	94.81
216.445	102.23
216.662	87.51
216.879	92.18
217.097	76.88
217.314	85.36
217.531	105.23
217.749	119.78
217.966	149.28
218.183	120.69
218.4	112.28
218.618	113.9
218.835	103.02
219.052	107.28
219.269	102.17
219.487	107.63
219.704	109.63
219.921	96.88
220.138	88.14
220.355	79.49
220.572	78.85
220.79	75.83
221.007	79.01
221.224	70.17
221.441	73.9
221.658	76.57
221.875	73.89
222.092	61.94
222.309	58.12
222.526	60.55
222.743	61.73
222.96	61.29
223.177	65.74
223.394	54.72
223.611	60.06
223.828	57.88
224.045	53.54
224.262	51.71
224.479	53.86
224.696	53.06
224.913	49.27
225.13	44.36
225.347	39.54
225.564	33.84
225.781	32.04
225.997	30.79
226.214	27.64
226.431	25.24
226.648	23.14
226.865	23.32
227.082	21.75
227.298	20.65
227.515	20.21
227.732	19.61
227.949	19.97
228.165	20.03
228.382	19.1
228.599	18.8
228.816	19.1
229.032	18.72
229.249	18.45
229.466	18.91
229.682	20.37
229.899	20.77
230.116	21.08
230.332	20.96
230.549	21.77
230.765	21.23
230.982	20.23
231.199	21.19
231.415	24.08
231.632	22.63
231.848	21.43
232.065	20.54
232.281	22.65
232.498	23.7
232.714	24.49
232.931	24.64
233.147	24.68
233.364	25.97
233.58	24.01
233.797	24.67
234.013	25.3
234.23	25.5
234.446	24.74
234.662	23.66
234.879	24.52
235.095	24.18
235.312	24.76
235.528	28.35
235.744	27.78
235.961	27.41
236.177	22.67
236.393	25.77
236.61	27.07
236.826	27.43
237.042	26.78
237.258	24.38
237.475	23.91
237.691	21.79
237.907	18.28
238.123	18.51
238.339	19.85
238.556	22.61
238.772	19.28
238.988	17.46
239.204	17.31
239.42	17.21
239.636	16.9
239.853	16.38
240.069	16.25
240.285	15.66
240.501	14.43
240.717	14.18
240.933	13.56
241.149	14.05
241.365	14.61
241.581	14.63
241.797	14.71
242.013	14
242.229	13.96
242.445	14.02
242.661	14.36
242.877	15.37
243.093	15.15
243.309	14.53
243.525	13.73
243.741	13.17
243.957	12.29
244.173	10.62
244.388	11.71
244.604	11.03
244.82	10.72
245.036	10.1
245.252	9.75
245.468	9.74
245.683	10.03
245.899	10.23
246.115	9.94
246.331	9.98
246.547	10.47
246.762	10.22
246.978	10.3
247.194	10.7
247.409	11.04
247.625	11.53
247.841	11.38
248.057	11.41
248.272	11.32
248.488	12.05
248.703	11.57
248.919	12.4
249.135	12.4
249.35	12.88
249.566	12.99
249.782	13.27
249.997	13.35
250.213	12.64
250.428	11.97
250.644	12.33
250.859	12.34
251.075	13.15
251.29	12.53
251.506	12.69
251.721	13.19
251.937	12.65
252.152	13.15
252.368	12.94
252.583	14.83
252.798	16.04
253.014	15.75
253.229	14.59
253.445	14.65
253.66	15.29
253.875	15.51
254.091	15.03
254.306	15.45
254.521	14.42
254.737	13.69
254.952	12.53
255.167	11.99
255.383	12.27
255.598	12.83
255.813	12
256.028	11.38
256.244	10.75
256.459	10.1
256.674	9.55
256.889	9.13
257.104	8.71
257.32	8.74
257.535	8.42
257.75	7.63
257.965	7.42
258.18	7.63
258.395	7.69
258.61	7.68
258.826	7.42
259.041	7.56
259.256	7.61
259.471	7.7
259.686	7.65
259.901	7.81
260.116	8.03
260.331	7.82
260.546	7.76
260.761	7.45
260.976	6.89
261.191	7.52
261.406	7.48
261.621	7.68
261.836	7.74
262.05	7.61
262.265	7.65
262.48	8.61
262.695	9.21
262.91	10.3
263.125	10.52
263.34	11.43
263.555	11.54
263.769	11.06
263.984	11.09
264.199	11.69
264.414	11.21
264.629	10.74
264.843	10.22
265.058	10.43
265.273	9.28
265.488	8.93
265.702	8.17
265.917	8.32
266.132	8.92
266.346	9.11
266.561	9.19
266.776	9.96
266.99	10.22
267.205	10.14
267.42	9.49
267.634	9.17
267.849	8.92
268.063	9.5
268.278	9.36
268.492	9.37
268.707	8.67
268.922	8.36
269.136	7.63
269.351	7.46
269.565	7.39
269.78	7.1
269.994	7.23
270.209	7.83
270.423	7.64
270.637	7.51
270.852	7
271.066	7.66
271.281	7.58
271.495	7.77
271.709	7.81
271.924	7.97
272.138	9.11
272.353	9.57
272.567	9.17
272.781	9.63
272.996	9.47
273.21	9.75
273.424	9.34
273.638	9.61
273.853	9.51
274.067	9.77
274.281	9.85
274.495	8.86
274.71	8.87
274.924	8.94
275.138	8.43
275.352	8.42
275.566	8.7
275.781	8.39
275.995	8.56
276.209	9.11
276.423	8.9
276.637	8.82
276.851	8.98
277.065	8.45
277.279	9.06
277.493	9.21
277.707	8.99
277.921	8.54
278.135	8.23
278.349	7.44
278.563	6.75
278.777	6.7
278.991	6.34
279.205	6.88
279.419	6.93
279.633	6.71
279.847	6.92
280.061	6.99
280.275	6.88
280.489	7.83
280.703	8.07
280.917	8.31
281.131	8.09
281.344	8.71
281.558	8.4
281.772	8.34
281.986	7.92
282.2	7.96
282.414	7.59
282.627	7.44
282.841	6.87
283.055	7.03
283.269	7.1
283.482	7.05
283.696	6.5
283.91	6.64
284.123	6.48
284.337	6.63
284.551	6.26
284.764	6.88
284.978	7.14
285.192	7.06
285.405	6.9
285.619	6.92
285.833	7.45
286.046	7.64
286.26	7.69
286.473	7.71
286.687	8.02
286.9	7.88
287.114	7.6
287.327	7.83
287.541	8.18
287.754	7.72
287.968	7.66
288.181	7.21
288.395	7.04
288.608	7.18
288.822	7.28
289.035	6.94
289.248	7.48
289.462	7.72
289.675	7.6
289.889	7.53
290.102	7.49
290.315	7.48
290.529	7.68
290.742	7.67
290.955	7.28
291.169	7.44
291.382	7.48
291.595	7.38
291.808	7.59
292.022	7.84
292.235	7.82
292.448	8.52
292.661	8.55
292.875	8.26
293.088	8.48
293.301	8.88
293.514	8.69
293.727	8.69
293.94	8.09
294.153	7.86
294.367	7.1
294.58	6.82
294.793	6.55
295.006	6.64
295.219	6.63
295.432	6.68
295.645	6.34
295.858	6.34
296.071	6.08
296.284	6.56
296.497	6.68
296.71	6.95
296.923	7.46
297.136	7.49
297.349	7.47
297.562	7.55
297.775	7.63
297.988	7.81
298.201	8.37
298.414	8.5
298.626	8.37
298.839	8.2
299.052	8.43
299.265	8.28
299.478	8.01
299.691	7.82
299.903	7.77
300.116	7.42
300.329	7.64
300.542	7.01
300.755	7
300.967	7.45
301.18	7.28
301.393	6.93
301.605	6.48
301.818	7.02
302.031	7.1
302.243	7.36
302.456	7.46
302.669	7.08
302.881	7.87
303.094	8.19
303.307	7.74
303.519	7.84
303.732	8.3
303.944	8.4
304.157	8.43
304.37	8.59
304.582	8.59
304.795	9.11
305.007	9.38
305.22	8.9
305.432	8.7
305.645	9.06
305.857	9.29
306.069	9.24
306.282	9.17
306.494	9.02
306.707	8.93
306.919	8.49
307.132	8.09
307.344	7.89
307.556	7.97
307.769	8.46
307.981	8.16
308.193	7.81
308.406	7.14
308.618	7.18
308.83	6.96
309.043	6.95
309.255	7.39
309.467	7.39
309.679	7.51
309.892	7.57
310.104	7.42
310.316	7.16
310.528	7.27
310.74	7.65
310.953	7.93
311.165	7.97
311.377	8.07
311.589	8.02
311.801	7.81
312.013	7.86
312.225	7.84
312.437	8.03
312.649	8.88
312.862	8.88
313.074	9.3
313.286	9.41
313.498	9.76
313.71	9.8
313.922	9.73
314.134	10.05
314.346	9.91
314.558	10.22
314.77	10.19
314.982	10.07
315.193	10.43
315.405	10.33
315.617	9.4
315.829	9.14
316.041	8.8
316.253	8.91
316.465	9.62
316.677	9.84
316.888	9.93
317.1	9.94
317.312	9.88
317.524	9.92
317.736	9.95
317.947	11.14
318.159	11.48
318.371	12.01
318.583	12.3
318.794	11.6
319.006	11.76
319.218	11.2
319.43	11.18
319.641	11.6
319.853	11.23
320.064	11.39
320.276	11.29
320.488	11.05
320.699	11.06
320.911	10.81
321.123	11.03
321.334	11.13
321.546	11.51
321.757	11.71
321.969	11.67
322.18	12.16
322.392	11.96
322.603	11.79
322.815	12.04
323.026	11.78
323.238	12.16
323.449	12.38
323.661	12.05
323.872	12.19
324.083	12.36
324.295	12.08
324.506	11.62
324.718	11.33
324.929	11.53
325.14	11.77
325.352	12.13
325.563	12.05
325.774	11.82
325.986	11.98
326.197	11.59
326.408	11.21
326.62	11.07
326.831	11.7
327.042	12.13
327.253	12.21
327.464	12.14
327.676	12.16
327.887	12.15
328.098	12.69
328.309	12.97
328.52	13.82
328.732	14.28
328.943	14.69
329.154	14.71
329.365	14.82
329.576	14.68
329.787	15.11
329.998	15.2
330.209	15.43
330.42	15.26
330.631	15.29
330.842	15.03
331.053	14.83
331.264	14.74
331.475	15.1
331.686	15.22
331.897	15.29
332.108	15.53
332.319	15.47
332.53	15.75
332.741	15.75
332.952	15.66
333.163	15.67
333.374	15.98
333.585	15.88
333.795	15.3
334.006	15.76
334.217	15.86
334.428	15.65
334.639	16.25
334.849	15.66
335.06	15.51
335.271	15.44
335.482	15.35
335.692	15.14
335.903	15.52
336.114	15.68
336.325	15.13
336.535	15.59
336.746	15.53
336.957	15.11
337.167	15.32
337.378	15.26
337.589	15.98
337.799	16.17
338.01	16.55
338.22	16.13
338.431	15.69
338.642	15.73
338.852	15.05
339.063	14.78
339.273	14.54
339.484	14.5
339.694	14.49
339.905	14.44
340.115	14.06
340.326	13.5
340.536	14.11
340.746	14.55
340.957	14.7
341.167	15.1
341.378	15
341.588	15.38
341.799	15.38
342.009	15.66
342.219	15.2
342.43	15.25
342.64	15.56
342.85	15.27
343.061	15.27
343.271	15.46
343.481	14.97
343.691	15.27
343.902	15.1
344.112	15.15
344.322	15
344.532	15
344.743	14.77
344.953	14.51
345.163	14.31
345.373	14.34
345.583	14.15
345.793	14.54
346.004	14.37
346.214	14.24
346.424	14.17
346.634	14.14
346.844	14.37
347.054	14.77
347.264	15.08
347.474	15.36
347.684	15.19
347.894	15.05
348.104	15.15
348.314	15.17
348.524	15.05
348.734	14.74
348.944	14.89
349.154	14.87
349.364	14.96
349.574	14.43
349.784	14.22
349.994	14.67
350.204	14.54
350.413	14.29
350.623	14.56
350.833	14.63
351.043	14.99
351.253	15.06
351.463	14.6
351.672	14.58
351.882	14.72
352.092	14.92
352.302	14.96
352.511	15.22
352.721	14.93
352.931	14.65
353.141	14.69
353.35	14.8
353.56	14.51
353.77	14.58
353.979	14.5
354.189	14.61
354.399	14.44
354.608	13.84
354.818	13.84
355.027	14.3
355.237	14.39
355.447	14.25
355.656	13.95
355.866	13.97
356.075	14.07
356.285	13.98
356.494	14.14
356.704	14.04
356.913	14.3
357.123	14.19
357.332	13.78
357.542	13.7
357.751	13.77
357.96	13.96
358.17	13.79
358.379	13.74
358.589	13.45
358.798	13.5
359.007	13.43
359.217	13.21
359.426	12.96
359.635	13.21
359.845	13.03
360.054	12.89
360.263	12.83
360.472	12.99
360.682	13.02
360.891	13.31
361.1	12.97
361.309	13.17
361.519	13.53
361.728	13.93
361.937	13.92
362.146	14.05
362.355	14.21
362.564	14.44
362.774	14.34
362.983	14.16
363.192	14.19
363.401	14.34
363.61	14.04
363.819	13.86
364.028	13.54
364.237	13.42
364.446	13.43
364.655	13.23
364.864	12.98
365.073	13.25
365.282	13.46
365.491	13.36
365.7	13.22
365.909	13.45
366.118	13.38
366.327	13.36
366.536	13.46
366.745	13.72
366.954	14.14
367.162	14.25
367.371	14.07
367.58	14.09
367.789	13.69
367.998	13.64
368.207	13.55
368.415	13.48
368.624	13.54
368.833	13.42
369.042	13.18
369.25	13.18
369.459	13.4
369.668	13.24
369.877	12.93
370.085	13.33
370.294	13.54
370.503	13.52
370.711	13.95
370.92	13.92
371.129	13.98
371.337	13.84
371.546	13.63
371.754	13.5
371.963	13.59
372.171	13.56
372.38	13.43
372.589	13.54
372.797	13.67
373.006	12.97
373.214	12.79
373.423	12.79
373.631	12.89
373.84	12.82
374.048	12.65
374.256	12.54
374.465	13.06
374.673	13.18
374.882	12.78
375.09	12.67
375.298	12.84
375.507	13.03
375.715	12.97
375.923	12.82
376.132	12.55
376.34	12.37
376.548	12.4
376.757	12.15
376.965	12.03
377.173	12.23
377.381	12.31
377.59	12.54
377.798	12.38
378.006	12.28
378.214	12.35
378.423	12.59
378.631	12.54
378.839	12.68
379.047	12.91
379.255	12.79
379.463	12.94
379.671	12.66
379.879	12.37
380.088	12.63
380.296	12.59
380.504	12.45
380.712	12.6
380.92	12.68
381.128	12.66
381.336	12.15
381.544	12.27
381.752	12.26
381.96	12.36
382.168	12.19
382.376	12.2
382.584	12.39
382.791	12.48
382.999	12.48
383.207	12.42
383.415	12.66
383.623	12.87
383.831	12.86
384.039	12.51
384.247	12.5
384.454	12.97
384.662	12.62
384.87	12.63
385.078	12.77
385.285	12.57
385.493	12.57
385.701	12.12
385.909	12.13
386.116	11.98
386.324	12.2
386.532	12.05
386.739	11.73
386.947	11.87
387.155	12.07
387.362	11.83
387.57	11.68
387.778	11.6
387.985	11.65
388.193	11.57
388.4	11.56
388.608	11.79
388.816	12.08
389.023	12.2
389.231	12.34
389.438	11.89
389.646	12.01
389.853	12.22
390.061	12.22
390.268	12.3
390.475	12.28
390.683	12.43
390.89	12.18
391.098	11.99
391.305	11.9
391.512	11.68
391.72	11.57
391.927	11.47
392.135	11.51
392.342	11.66
392.549	11.72
392.756	11.7
392.964	11.57
393.171	11.72
393.378	11.72
393.586	11.83
393.793	11.82
394	11.78
394.207	11.67
394.414	11.78
394.622	11.6
394.829	11.51
395.036	11.34
395.243	11.25
395.45	11.02
395.657	11.09
395.864	10.88
396.072	11.21
396.279	11.38
396.486	11.6
396.693	11.41
396.9	11.58
397.107	11.42
397.314	11.61
397.521	11.75
397.728	11.77
397.935	11.67
398.142	11.77
398.349	11.64
398.556	11.58
398.763	11.52
398.97	11.59
399.177	11.4
399.383	11.49
399.59	11.38
399.797	11.5
400.004	11.53
400.211	11.71
400.418	11.66
400.625	11.48
400.831	11.57
401.038	11.52
401.245	11.54
401.452	11.44
401.658	11.28
401.865	11.3
402.072	11.17
402.279	11.23
402.485	10.95
402.692	10.82
402.899	10.63
403.105	10.67
403.312	10.66
403.519	10.52
403.725	10.61
403.932	10.87
404.138	10.83
404.345	10.75
404.552	10.58
404.758	10.82
404.965	10.91
405.171	10.95
405.378	10.77
405.584	10.8
405.791	10.77
405.997	10.78
406.204	10.77
406.41	10.84
406.617	10.99
406.823	10.96
407.029	10.96
407.236	10.83
407.442	11.14
407.649	11.38
407.855	11.26
408.061	11.38
408.268	11.35
408.474	11.13
408.68	11.12
408.887	10.98
409.093	11.03
409.299	10.92
409.505	10.74
409.712	10.59
409.918	10.38
410.124	10.44
410.33	10.24
410.537	10.19
410.743	10.33
410.949	10.31
411.155	10.31
411.361	10.3
411.567	10.3
411.773	10.6
411.98	10.45
412.186	10.52
412.392	10.54
412.598	10.59
412.804	10.68
413.01	10.42
413.216	10.39
413.422	10.48
413.628	10.45
413.834	10.33
414.04	10.24
414.246	10.36
414.452	10.32
414.658	10.24
414.864	10.2
415.07	10.09
415.275	10.17
415.481	10.17
415.687	10.09
415.893	10
416.099	9.89
416.305	9.91
416.511	9.86
416.716	9.78
416.922	9.77
417.128	9.87
417.334	9.91
417.539	9.92
417.745	9.9
417.951	9.87
418.157	9.92
418.362	9.95
418.568	9.92
418.774	9.89
418.979	9.9
419.185	9.84
419.391	9.72
419.596	9.6
419.802	9.51
420.008	9.49
420.213	9.63
420.419	9.68
420.624	9.68
420.83	9.67
421.035	9.68
421.241	9.7
421.446	9.73
421.652	9.71
421.857	9.76
422.063	9.71
422.268	9.67
422.474	9.42
422.679	9.32
422.885	9.3
423.09	9.21
423.295	9.13
423.501	9.09
423.706	9.05
423.911	9.05
424.117	9.04
424.322	9.18
424.527	9.19
424.733	9.3
424.938	9.37
425.143	9.35
425.349	9.42
425.554	9.52
425.759	9.57
425.964	9.6
426.169	9.63
426.375	9.72
426.58	9.69
426.785	9.7
426.99	9.7
427.195	9.68
427.4	9.58
427.605	9.69
427.811	9.69
428.016	9.59
428.221	9.73
428.426	9.66
428.631	9.52
428.836	9.46
429.041	9.48
429.246	9.4
429.451	9.33
429.656	9.48
429.861	9.38
430.066	9.38
430.271	9.49
430.476	9.34
430.681	9.39
430.886	9.34
431.09	9.31
431.295	9.31
431.5	9.28
431.705	9.26
431.91	9.22
432.115	9.17
432.32	9.16
432.524	8.98
432.729	9.13
432.934	9.1
433.139	9.29
433.343	9.29
433.548	9.18
433.753	9.28
433.958	9.45
434.162	9.54
434.367	9.61
434.572	9.57
434.776	9.58
434.981	9.46
435.186	9.52
435.39	9.43
435.595	9.48
435.799	9.5
436.004	9.43
436.209	9.21
436.413	9.07
436.618	9.01
436.822	8.98
437.027	9.12
437.231	9.09
437.436	9.13
437.64	9.09
437.845	9.01
438.049	8.97
438.253	8.94
438.458	9
438.662	9.02
438.867	9.07
439.071	9.21
439.275	9.09
439.48	9.1
439.684	8.98
439.888	9
440.093	9.01
440.297	8.98
440.501	9
440.706	8.94
440.91	8.97
441.114	8.87
441.318	8.76
441.523	8.84
441.727	8.77
441.931	8.86
442.135	8.85
442.339	8.86
442.543	8.91
442.748	8.98
442.952	9.05
443.156	9.02
443.36	9.09
443.564	9.13
443.768	9.11
443.972	9.12
444.176	9.02
444.38	9
444.584	8.98
444.788	8.93
444.992	8.84
445.196	8.86
445.4	8.79
445.604	8.66
445.808	8.58
446.012	8.56
446.216	8.56
446.42	8.66
446.624	8.63
446.828	8.58
447.032	8.55
447.235	8.55
447.439	8.47
447.643	8.59
447.847	8.76
448.051	8.82
448.254	8.81
448.458	8.97
448.662	8.87
448.866	8.84
449.069	8.93
449.273	9.01
449.477	9.1
449.681	9.1
449.884	9.05
450.088	9.03
450.292	8.86
450.495	8.78
450.699	8.75
450.902	8.81
451.106	8.83
451.31	8.88
451.513	8.9
451.717	8.85
451.92	8.85
452.124	8.93
452.327	8.96
452.531	9.01
452.734	9.11
452.938	8.95
453.141	8.87
453.345	8.81
453.548	8.77
453.752	8.83
453.955	8.89
454.158	8.9
454.362	8.76
454.565	8.76
454.769	8.98
454.972	9.03
455.175	9.17
455.379	9.23
455.582	9.3
455.785	9.2
455.988	9.06
456.192	8.93
456.395	8.95
456.598	8.91
456.801	8.91
457.005	8.83
457.208	8.8
457.411	8.68
457.614	8.68
457.817	8.66
458.021	8.62
458.224	8.63
458.427	8.76
458.63	8.72
458.833	8.74
459.036	8.71
459.239	8.64
459.442	8.55
459.645	8.61
459.848	8.61
460.051	8.63
460.254	8.7
460.457	8.69
460.66	8.57
460.863	8.71
