Data from 2938530_Reflection_3.txt Node
Date: Tue Jun 16 00:13:22 EDT 2015
User: robert
Spectrometer: USB4E03002
Autoset integration time: false
Trigger mode: 4
Integration Time (sec): 1.000000E-1
Scans to average: 10
Electric dark correction enabled: true
Nonlinearity correction enabled: false
Boxcar width: 6
Stray light correction enabled: false
XAxis mode: Wavelengths
Stop averaging: false
Number of Pixels in Spectrum: 3648
>>>>>Begin Spectral Data<<<<<
177.575	-309.37
177.794	-170.81
178.014	-40.19
178.233	-8.42
178.452	-2.44
178.672	35.71
178.891	-14.29
179.11	-51.85
179.33	5.7
179.549	-9.92
179.768	-10.52
179.987	-75.55
180.207	-93.36
180.426	-135.28
180.645	-117.82
180.864	-45.12
181.084	-60.51
181.303	-157.81
181.522	-150.22
181.741	-154.04
181.96	-115.91
182.179	-87.05
182.398	-102.34
182.618	-28.91
182.837	232.1
183.056	-1142.86
183.275	150
183.494	66.25
183.713	203.53
183.932	17.13
184.151	98.36
184.37	81.73
184.589	157.21
184.808	166.45
185.027	152.73
185.246	129.38
185.465	137.33
185.684	174.01
185.903	171.17
186.122	207.61
186.341	161.62
186.56	124.46
186.779	148.24
186.998	181.36
187.216	173.71
187.435	147.93
187.654	84.71
187.873	70.76
188.092	84.7
188.311	43.06
188.53	8.68
188.748	-20.26
188.967	-11.52
189.186	95.45
189.405	133.71
189.623	226
189.842	142.79
190.061	131.23
190.28	131.28
190.498	179.21
190.717	212.61
190.936	192.44
191.154	167.68
191.373	233.42
191.592	247.35
191.81	391.35
192.029	274.33
192.248	423.23
192.466	-2610
192.685	-1397.44
192.904	469.17
193.122	1067.27
193.341	332.52
193.559	496.51
193.778	226.28
193.996	564.52
194.215	124.45
194.433	122.03
194.652	118.41
194.87	49.41
195.089	78.17
195.307	69.45
195.526	122.38
195.744	311.49
195.963	171.76
196.181	253.23
196.399	205.26
196.618	294.84
196.836	337.34
197.055	436.36
197.273	1103.95
197.491	758.2
197.71	835.71
197.928	719.35
198.146	1161.33
198.365	-694.57
198.583	-541.38
198.801	-205.56
199.019	-51.75
199.238	-32.97
199.456	-100
199.674	-193.02
199.892	-179.65
200.111	-864.52
200.329	597.92
200.547	147.29
200.765	167.62
200.983	211.41
201.202	189.45
201.42	120.53
201.638	200
201.856	153.01
202.074	166.26
202.292	216.18
202.51	286.3
202.728	379.63
202.946	666.36
203.165	342.21
203.383	686.29
203.601	505.13
203.819	3555.56
204.037	480.75
204.255	676.53
204.473	180.08
204.691	-692.5
204.909	6.9
205.127	66.8
205.345	-20.22
205.562	290.48
205.78	88.6
205.998	92.88
206.216	72.49
206.434	85.93
206.652	43.88
206.87	100.39
207.088	56.94
207.306	4.85
207.523	-104.85
207.741	-777.14
207.959	486.71
208.177	348.48
208.395	278.1
208.612	180.11
208.83	214.14
209.048	156.14
209.266	165.1
209.483	146.09
209.701	179.44
209.919	136.8
210.136	160.19
210.354	93.37
210.572	34
210.79	11.11
211.007	19.94
211.225	40.89
211.442	-59.52
211.66	-50.27
211.878	-183.33
212.095	-157.04
212.313	-88.92
212.53	-130.18
212.748	-150.46
212.966	-115.15
213.183	-166.08
213.401	-142.57
213.618	-137.45
213.836	-125.44
214.053	-114.16
214.271	-111.6
214.488	-114.98
214.705	57.11
214.923	43.08
215.14	25.93
215.358	33.9
215.575	55.82
215.793	47.66
216.01	68.64
216.227	79.56
216.445	79.93
216.662	72.63
216.879	71.76
217.097	66.14
217.314	68.97
217.531	79.04
217.749	96.94
217.966	75.4
218.183	73.76
218.4	57.16
218.618	54.89
218.835	43.79
219.052	44.6
219.269	45.61
219.487	48.63
219.704	36.7
219.921	31.18
220.138	18.43
220.355	11.37
220.572	18.69
220.79	26.82
221.007	25.59
221.224	17.54
221.441	30.08
221.658	37.85
221.875	28.25
222.092	25.85
222.309	25.07
222.526	37.38
222.743	43.04
222.96	44.16
223.177	36.42
223.394	28.07
223.611	23.89
223.828	20.28
224.045	27.56
224.262	19.4
224.479	13.22
224.696	16.45
224.913	17.82
225.13	18.26
225.347	15.51
225.564	12.37
225.781	12.49
225.997	15.41
226.214	15.63
226.431	15.73
226.648	15.07
226.865	12.92
227.082	13.41
227.298	12.77
227.515	12.6
227.732	11.8
227.949	10.99
228.165	10.89
228.382	11.34
228.599	11.99
228.816	10.75
229.032	11.03
229.249	9.93
229.466	10.24
229.682	11.13
229.899	11.11
230.116	11.16
230.332	10.3
230.549	11.47
230.765	11.87
230.982	11.59
231.199	10.86
231.415	12.19
231.632	10.49
231.848	10.04
232.065	11.43
232.281	12.34
232.498	13.37
232.714	14.22
232.931	15.49
233.147	15.65
233.364	16.14
233.58	16.43
233.797	16.31
234.013	15.88
234.23	14.45
234.446	16.42
234.662	14.78
234.879	13.79
235.095	13.08
235.312	12.12
235.528	11.3
235.744	10.56
235.961	10.01
236.177	8.61
236.393	7.77
236.61	6.54
236.826	9.89
237.042	8.35
237.258	8.76
237.475	11.78
237.691	11.01
237.907	11.28
238.123	11.14
238.339	10.14
238.556	10.67
238.772	11.34
238.988	11.45
239.204	11.27
239.42	11.34
239.636	10.15
239.853	10.16
240.069	9.32
240.285	8.05
240.501	8.47
240.717	7.53
240.933	8.05
241.149	8.67
241.365	8.08
241.581	8.06
241.797	7.59
242.013	7.85
242.229	8.52
242.445	8.79
242.661	8.44
242.877	9.08
243.093	9.52
243.309	9.46
243.525	9.97
243.741	9.41
243.957	8.44
244.173	8.65
244.388	8.09
244.604	8.53
244.82	8.32
245.036	7.67
245.252	7.2
245.468	7.25
245.683	7.1
245.899	6.84
246.115	6.74
246.331	6.69
246.547	6.61
246.762	7.19
246.978	7.51
247.194	7.58
247.409	7.36
247.625	7.32
247.841	6.94
248.057	7.57
248.272	7.5
248.488	7.44
248.703	7.43
248.919	7.25
249.135	7.28
249.35	7.53
249.566	6.63
249.782	6.35
249.997	6.17
250.213	6.38
250.428	6.59
250.644	7.54
250.859	7.2
251.075	7.6
251.29	7.44
251.506	7.64
251.721	8.5
251.937	8.01
252.152	7.54
252.368	8.65
252.583	8.25
252.798	8.81
253.014	8.55
253.229	8.41
253.445	8.12
253.66	7.4
253.875	7.45
254.091	7.73
254.306	7.69
254.521	7.2
254.737	7.65
254.952	8.4
255.167	7.34
255.383	6.95
255.598	6.49
255.813	6.4
256.028	5.9
256.244	5.75
256.459	6.19
256.674	6.09
256.889	5.82
257.104	6.6
257.32	5.91
257.535	5.82
257.75	5.25
257.965	5.22
258.18	5.58
258.395	5.41
258.61	5.18
258.826	5.31
259.041	5.24
259.256	5.15
259.471	5.37
259.686	5.48
259.901	5.22
260.116	5.49
260.331	5.45
260.546	5.39
260.761	5.37
260.976	5.38
261.191	5.77
261.406	5.8
261.621	5.82
261.836	5.98
262.05	5.83
262.265	5.49
262.48	5.2
262.695	4.99
262.91	5.15
263.125	5.88
263.34	6
263.555	6.35
263.769	5.65
263.984	6.56
264.199	7.06
264.414	6.55
264.629	6.64
264.843	7.05
265.058	6.47
265.273	6.55
265.488	6.24
265.702	6.69
265.917	6.76
266.132	7.27
266.346	7
266.561	6.85
266.776	6.24
266.99	6.52
267.205	6.59
267.42	6.12
267.634	5.37
267.849	5.82
268.063	6.26
268.278	6.19
268.492	6.02
268.707	5.23
268.922	4.42
269.136	4.21
269.351	4.32
269.565	3.8
269.78	3.67
269.994	4.17
270.209	4.52
270.423	4.76
270.637	4.45
270.852	4.39
271.066	4.43
271.281	4.31
271.495	4.69
271.709	5.06
271.924	5.7
272.138	6.18
272.353	6.98
272.567	6.92
272.781	6.72
272.996	7.17
273.21	7.13
273.424	7.84
273.638	7.86
273.853	8.29
274.067	8.53
274.281	8.65
274.495	9.49
274.71	8.33
274.924	7.62
275.138	7.41
275.352	7.19
275.566	7.61
275.781	7.17
275.995	7.5
276.209	7.05
276.423	6.72
276.637	6.18
276.851	5.07
277.065	5.18
277.279	4.41
277.493	4.95
277.707	5.54
277.921	4.76
278.135	4.93
278.349	4.25
278.563	4.47
278.777	4.45
278.991	4.52
279.205	4.4
279.419	4.41
279.633	5.02
279.847	5.04
280.061	4.93
280.275	5.6
280.489	5.25
280.703	5.52
280.917	5.41
281.131	5.85
281.344	5.36
281.558	5.27
281.772	5.2
281.986	5.41
282.2	5.32
282.414	5.26
282.627	4.92
282.841	4.71
283.055	4.11
283.269	4.17
283.482	4.07
283.696	4.16
283.91	3.7
284.123	3.94
284.337	4.21
284.551	4.55
284.764	4.76
284.978	5.12
285.192	5.54
285.405	5.57
285.619	5.65
285.833	5.74
286.046	5.37
286.26	5.67
286.473	5.56
286.687	5.62
286.9	5.76
287.114	6.04
287.327	5.87
287.541	5.76
287.754	5.75
287.968	5.08
288.181	5.14
288.395	5.4
288.608	5.34
288.822	5.79
289.035	6.22
289.248	6.47
289.462	6.8
289.675	7.08
289.889	6.86
290.102	6.66
290.315	6.54
290.529	6.55
290.742	6.88
290.955	7.11
291.169	7.7
291.382	7.84
291.595	8.2
291.808	7.83
292.022	7.8
292.235	7.71
292.448	7.32
292.661	7.58
292.875	7.9
293.088	7.93
293.301	7.65
293.514	7.72
293.727	7.48
293.94	7.19
294.153	7.56
294.367	7.25
294.58	7.19
294.793	7.21
295.006	7.25
295.219	7.29
295.432	7.05
295.645	7.02
295.858	7.09
296.071	7.46
296.284	7.59
296.497	7.93
296.71	8.11
296.923	7.85
297.136	8.04
297.349	8.29
297.562	8.38
297.775	8.79
297.988	8.87
298.201	8.66
298.414	8.96
298.626	9.07
298.839	9.12
299.052	8.76
299.265	8.48
299.478	8.58
299.691	8.68
299.903	8.67
300.116	8.92
300.329	8.71
300.542	8.44
300.755	8.7
300.967	8.95
301.18	8.99
301.393	9.02
301.605	8.78
301.818	9.24
302.031	9.11
302.243	8.66
302.456	8.71
302.669	9.34
302.881	9.56
303.094	9.67
303.307	9.9
303.519	9.88
303.732	9.97
303.944	9.62
304.157	10.05
304.37	9.96
304.582	10.35
304.795	10.74
305.007	10.87
305.22	11.3
305.432	10.81
305.645	10.31
305.857	10.44
306.069	10.22
306.282	10.24
306.494	10.47
306.707	10.56
306.919	10.2
307.132	10.22
307.344	9.83
307.556	10.15
307.769	10.22
307.981	9.73
308.193	9.89
308.406	9.98
308.618	9.86
308.83	9.98
309.043	10.02
309.255	10.2
309.467	10.24
309.679	10.54
309.892	10.72
310.104	10.73
310.316	10.52
310.528	10.65
310.74	10.99
310.953	10.77
311.165	10.73
311.377	11.02
311.589	11.31
311.801	11.77
312.013	11.71
312.225	11.95
312.437	12.07
312.649	12.09
312.862	12.16
313.074	12.32
313.286	12.26
313.498	12.34
313.71	12.48
313.922	12.76
314.134	13.02
314.346	12.67
314.558	12.2
314.77	12.03
314.982	12.11
315.193	12.01
315.405	12.22
315.617	12.67
315.829	12.82
316.041	12.81
316.253	13.1
316.465	13.44
316.677	13.44
316.888	13.49
317.1	13.48
317.312	14.15
317.524	14.34
317.736	14.64
317.947	14.4
318.159	14.19
318.371	13.92
318.583	13.66
318.794	14.02
319.006	13.9
319.218	13.84
319.43	14.1
319.641	13.8
319.853	14.7
320.064	13.81
320.276	13.74
320.488	13.57
320.699	13.68
320.911	13.98
321.123	14.47
321.334	14.91
321.546	15.08
321.757	15.45
321.969	15.88
322.18	15.81
322.392	16.38
322.603	16.11
322.815	16.63
323.026	16.83
323.238	16.82
323.449	17.44
323.661	18.19
323.872	18.16
324.083	18.67
324.295	18.59
324.506	18.64
324.718	18.76
324.929	19.14
325.14	19.14
325.352	19.28
325.563	19.64
325.774	20.21
325.986	20.33
326.197	20.32
326.408	20.19
326.62	20.22
326.831	20.13
327.042	20.39
327.253	20.53
327.464	20.81
327.676	21.08
327.887	21.58
328.098	21.99
328.309	22.43
328.52	22.91
328.732	23.65
328.943	24.27
329.154	24.55
329.365	25.05
329.576	25.45
329.787	26.77
329.998	27.31
330.209	27.76
330.42	27.87
330.631	28
330.842	28.35
331.053	28.3
331.264	28.33
331.475	28.6
331.686	29.18
331.897	29.49
332.108	29.68
332.319	30.03
332.53	29.55
332.741	29.46
332.952	29.6
333.163	29.76
333.374	30
333.585	30.27
333.795	30.57
334.006	30.59
334.217	30.71
334.428	30.47
334.639	30.7
334.849	30.93
335.06	30.78
335.271	31.02
335.482	31.16
335.692	30.92
335.903	30.92
336.114	31.26
336.325	31.34
336.535	31.35
336.746	31.75
336.957	31.62
337.167	31.55
337.378	31.71
337.589	31.72
337.799	31.86
338.01	31.93
338.22	31.88
338.431	32.31
338.642	32.38
338.852	32.03
339.063	31.77
339.273	32.09
339.484	32.09
339.694	32.06
339.905	32.08
340.115	32.02
340.326	32.15
340.536	32.3
340.746	32.28
340.957	32.45
341.167	32.23
341.378	32.37
341.588	32.54
341.799	32.78
342.009	32.27
342.219	31.82
342.43	31.76
342.64	31.65
342.85	31.66
343.061	31.62
343.271	31.66
343.481	31.53
343.691	31.73
343.902	31.73
344.112	31.51
344.322	31.45
344.532	31.06
344.743	31.41
344.953	31.34
345.163	31.7
345.373	32.07
345.583	32.48
345.793	32.27
346.004	32.06
346.214	31.96
346.424	31.84
346.634	31.92
346.844	31.89
347.054	31.85
347.264	32.2
347.474	32.06
347.684	32.32
347.894	32.43
348.104	32.2
348.314	31.8
348.524	31.87
348.734	31.77
348.944	32.01
349.154	31.8
349.364	31.7
349.574	31.81
349.784	31.92
349.994	31.83
350.204	31.83
350.413	31.87
350.623	31.48
350.833	31.64
351.043	31.51
351.253	31.71
351.463	32
351.672	31.76
351.882	31.81
352.092	31.94
352.302	31.99
352.511	31.99
352.721	31.76
352.931	31.76
353.141	31.76
353.35	31.77
353.56	31.68
353.77	31.75
353.979	31.42
354.189	31.39
354.399	31.59
354.608	31.61
354.818	31.56
355.027	31.4
355.237	31.35
355.447	31.45
355.656	31.54
355.866	31.45
356.075	31.49
356.285	31.35
356.494	31.13
356.704	31.07
356.913	30.93
357.123	30.78
357.332	30.76
357.542	30.67
357.751	30.85
357.96	30.74
358.17	30.78
358.379	30.69
358.589	30.53
358.798	30.59
359.007	30.53
359.217	30.84
359.426	31.11
359.635	31.16
359.845	31.06
360.054	31.15
360.263	31.11
360.472	31.17
360.682	31.15
360.891	31.02
361.1	30.98
361.309	30.88
361.519	30.52
361.728	30.71
361.937	30.3
362.146	30.02
362.355	29.84
362.564	29.81
362.774	29.61
362.983	29.63
363.192	29.48
363.401	29.5
363.61	29.59
363.819	29.52
364.028	29.65
364.237	30
364.446	29.66
364.655	29.83
364.864	30.11
365.073	30.1
365.282	30.01
365.491	29.88
365.7	29.61
365.909	29.48
366.118	29.33
366.327	29.15
366.536	29.09
366.745	29.2
366.954	29.09
367.162	28.94
367.371	28.99
367.58	28.73
367.789	28.59
367.998	28.67
368.207	28.65
368.415	28.6
368.624	28.33
368.833	28.29
369.042	28.42
369.25	28.56
369.459	28.35
369.668	28.09
369.877	27.99
370.085	27.89
370.294	27.84
370.503	27.89
370.711	27.61
370.92	27.5
371.129	27.58
371.337	27.57
371.546	27.54
371.754	27.3
371.963	27.2
372.171	27.02
372.38	27.22
372.589	27.18
372.797	27.07
373.006	26.85
373.214	26.58
373.423	26.51
373.631	26.2
373.84	26.2
374.048	26.14
374.256	26.05
374.465	25.95
374.673	25.91
374.882	25.92
375.09	25.65
375.298	25.7
375.507	25.5
375.715	25.33
375.923	25.37
376.132	25.34
376.34	25.39
376.548	25.14
376.757	25.06
376.965	24.88
377.173	24.84
377.381	24.6
377.59	24.4
377.798	24.11
378.006	23.97
378.214	23.88
378.423	23.94
378.631	23.54
378.839	23.56
379.047	23.49
379.255	23.48
379.463	23.38
379.671	23.64
379.879	23.61
380.088	23.66
380.296	23.82
380.504	23.97
380.712	23.71
380.92	23.54
381.128	23.41
381.336	23.68
381.544	23.64
381.752	23.66
381.96	23.52
382.168	23.42
382.376	23.17
382.584	23.17
382.791	23.01
382.999	22.91
383.207	22.77
383.415	22.89
383.623	22.9
383.831	22.9
384.039	22.83
384.247	22.68
384.454	22.5
384.662	22.54
384.87	22.56
385.078	22.35
385.285	22.11
385.493	21.91
385.701	21.79
385.909	21.81
386.116	21.73
386.324	21.66
386.532	21.37
386.739	21.25
386.947	21.32
387.155	21.38
387.362	21.36
387.57	21.47
387.778	21.61
387.985	21.62
388.193	21.8
388.4	21.98
388.608	21.92
388.816	22.04
389.023	22.26
389.231	22.52
389.438	22.54
389.646	22.39
389.853	22.44
390.061	22.43
390.268	22.36
390.475	22.28
390.683	22.18
390.89	22.05
391.098	21.95
391.305	21.97
391.512	21.8
391.72	21.61
391.927	21.59
392.135	21.53
392.342	21.52
392.549	21.45
392.756	21.37
392.964	21.25
393.171	21.2
393.378	21.39
393.586	21.23
393.793	20.94
394	20.83
394.207	20.84
394.414	20.81
394.622	20.61
394.829	20.43
395.036	20.31
395.243	20.26
395.45	20.4
395.657	20.39
395.864	20.34
396.072	19.99
396.279	20.14
396.486	20.25
396.693	20.42
396.9	20.34
397.107	20.38
397.314	20.48
397.521	20.56
397.728	20.54
397.935	20.44
398.142	20.17
398.349	20.11
398.556	20.04
398.763	20.37
398.97	20.29
399.177	20.19
399.383	19.97
399.59	19.92
399.797	19.84
400.004	19.87
400.211	19.98
400.418	19.96
400.625	20.12
400.831	20.07
401.038	20.04
401.245	19.96
401.452	19.74
401.658	19.81
401.865	19.71
402.072	19.75
402.279	19.77
402.485	19.75
402.692	19.78
402.899	19.54
403.105	19.49
403.312	19.43
403.519	19.44
403.725	19.37
403.932	19.47
404.138	19.44
404.345	19.35
404.552	19.51
404.758	19.49
404.965	19.34
405.171	19.38
405.378	19.15
405.584	19.14
405.791	19.21
405.997	19.24
406.204	19.16
406.41	18.94
406.617	18.87
406.823	18.91
407.029	18.91
407.236	18.8
407.442	18.93
407.649	18.87
407.855	18.79
408.061	18.79
408.268	18.87
408.474	18.78
408.68	18.59
408.887	18.68
409.093	18.9
409.299	18.86
409.505	18.77
409.712	18.68
409.918	18.79
410.124	18.68
410.33	18.63
410.537	18.56
410.743	18.59
410.949	18.52
411.155	18.57
411.361	18.51
411.567	18.41
411.773	18.44
411.98	18.56
412.186	18.6
412.392	18.6
412.598	18.34
412.804	18.19
413.01	18.33
413.216	18.38
413.422	18.32
413.628	18.24
413.834	18.13
414.04	18.11
414.246	18.14
414.452	17.96
414.658	17.75
414.864	17.56
415.07	17.5
415.275	17.49
415.481	17.5
415.687	17.37
415.893	17.3
416.099	17.26
416.305	17.32
416.511	17.34
416.716	17.31
416.922	17.24
417.128	17.25
417.334	17.4
417.539	17.42
417.745	17.38
417.951	17.39
418.157	17.31
418.362	17.26
418.568	17.14
418.774	17.12
418.979	17.07
419.185	17.05
419.391	17.02
419.596	17.02
419.802	17.04
420.008	16.87
420.213	16.84
420.419	16.81
420.624	16.77
420.83	16.76
421.035	16.65
421.241	16.67
421.446	16.59
421.652	16.55
421.857	16.54
422.063	16.47
422.268	16.37
422.474	16.21
422.679	16.17
422.885	16.07
423.09	15.99
423.295	15.99
423.501	15.95
423.706	16.08
423.911	16.05
424.117	16.1
424.322	16
424.527	15.86
424.733	15.85
424.938	15.85
425.143	15.85
425.349	15.84
425.554	15.89
425.759	15.97
425.964	15.95
426.169	15.95
426.375	15.91
426.58	15.9
426.785	15.77
426.99	15.81
427.195	15.76
427.4	15.78
427.605	15.68
427.811	15.74
428.016	15.68
428.221	15.68
428.426	15.58
428.631	15.62
428.836	15.6
429.041	15.5
429.246	15.48
429.451	15.53
429.656	15.47
429.861	15.58
430.066	15.56
430.271	15.7
430.476	15.77
430.681	15.78
430.886	15.84
431.09	15.87
431.295	15.84
431.5	15.79
431.705	15.82
431.91	15.86
432.115	15.92
432.32	15.97
432.524	15.92
432.729	15.83
432.934	15.83
433.139	15.71
433.343	15.73
433.548	15.67
433.753	15.69
433.958	15.58
434.162	15.6
434.367	15.58
434.572	15.54
434.776	15.5
434.981	15.48
435.186	15.52
435.39	15.53
435.595	15.37
435.799	15.42
436.004	15.46
436.209	15.38
436.413	15.38
436.618	15.51
436.822	15.48
437.027	15.46
437.231	15.43
437.436	15.36
437.64	15.37
437.845	15.37
438.049	15.46
438.253	15.53
438.458	15.51
438.662	15.45
438.867	15.47
439.071	15.32
439.275	15.25
439.48	15.28
439.684	15.23
439.888	15.26
440.093	15.26
440.297	15.26
440.501	15.22
440.706	15.16
440.91	15.07
441.114	15.04
441.318	15.04
441.523	15.07
441.727	15.18
441.931	15.17
442.135	15.1
442.339	15.18
442.543	15.15
442.748	15.17
442.952	15.18
443.156	15.23
443.36	15.21
443.564	15.25
443.768	15.29
443.972	15.26
444.176	15.23
444.38	15.14
444.584	15.13
444.788	15.14
444.992	15.11
445.196	15.08
445.4	15.04
445.604	14.94
445.808	14.82
446.012	14.81
446.216	14.8
446.42	14.79
446.624	14.75
446.828	14.72
447.032	14.71
447.235	14.69
447.439	14.67
447.643	14.67
447.847	14.67
448.051	14.69
448.254	14.77
448.458	14.84
448.662	14.84
448.866	14.77
449.069	14.67
449.273	14.68
449.477	14.62
449.681	14.65
449.884	14.69
450.088	14.72
450.292	14.61
450.495	14.62
450.699	14.5
450.902	14.38
451.106	14.33
451.31	14.28
451.513	14.37
451.717	14.37
451.92	14.32
452.124	14.51
452.327	14.43
452.531	14.27
452.734	14.21
452.938	14.19
453.141	14.11
453.345	14.04
453.548	14.07
453.752	14.13
453.955	14.14
454.158	14.06
454.362	14.09
454.565	14.16
454.769	13.92
454.972	14
455.175	14.07
455.379	14.03
455.582	14.1
455.785	14.06
455.988	14.14
456.192	14.14
456.395	14.12
456.598	14.13
456.801	14.22
457.005	14.23
457.208	14.26
457.411	14.38
457.614	14.42
457.817	14.44
458.021	14.48
458.224	14.48
458.427	14.46
458.63	14.5
458.833	14.57
