Data from 2938554_Reflection_3.txt Node
Date: Sun Jun 14 23:52:05 EDT 2015
User: robert
Spectrometer: USB4E03002
Autoset integration time: false
Trigger mode: 4
Integration Time (sec): 1.000000E-1
Scans to average: 10
Electric dark correction enabled: true
Nonlinearity correction enabled: false
Boxcar width: 5
Stray light correction enabled: false
XAxis mode: Wavelengths
Stop averaging: false
Number of Pixels in Spectrum: 3648
>>>>>Begin Spectral Data<<<<<
177.575	382.93
177.794	-27
178.014	257.85
178.233	-207.74
178.452	-6.23
178.672	159.82
178.891	122.41
179.11	7.37
179.33	37.09
179.549	107.42
179.768	145.8
179.987	168.88
180.207	137.71
180.426	134.51
180.645	218.23
180.864	181.33
181.084	140.69
181.303	137.63
181.522	164.28
181.741	263.19
181.96	456.64
182.179	359.19
182.398	359.94
182.618	815.89
182.837	346.07
183.056	166.41
183.275	220.66
183.494	202.52
183.713	220.03
183.932	199.84
184.151	202.65
184.37	214.57
184.589	293.93
184.808	440.04
185.027	244.35
185.246	-368.45
185.465	-249.09
185.684	-364.41
185.903	-18.58
186.122	451.39
186.341	270.04
186.56	237.79
186.779	321.72
186.998	222.62
187.216	135.79
187.435	180.56
187.654	195.24
187.873	207.96
188.092	272.88
188.311	640.02
188.53	733.16
188.748	-883.22
188.967	-414.06
189.186	-1505.99
189.405	-1636.67
189.623	-1251.33
189.842	-8707.94
190.061	-1193.21
190.28	-1973.17
190.498	369.46
190.717	183.81
190.936	224.42
191.154	145.53
191.373	153.33
191.592	203.33
191.81	173.71
192.029	330.71
192.248	328.31
192.466	395.89
192.685	189.77
192.904	245.43
193.122	-644.96
193.341	1759.76
193.559	-56.74
193.778	206.71
193.996	16.63
194.215	46.95
194.433	121.52
194.652	104.21
194.87	55.02
195.089	101.89
195.307	143.09
195.526	122.12
195.744	85.72
195.963	86.35
196.181	101.5
196.399	103.77
196.618	141
196.836	40.61
197.055	72.87
197.273	130.07
197.491	211.76
197.71	231.59
197.928	150.85
198.146	244.78
198.365	403.84
198.583	518.67
198.801	563.27
199.019	378.78
199.238	1052.05
199.456	326.06
199.674	368.45
199.892	262.12
200.111	210.7
200.329	527.52
200.547	391.6
200.765	256.54
200.983	178.13
201.202	160.56
201.42	188.52
201.638	186.91
201.856	311.87
202.074	229.75
202.292	192.66
202.51	261.68
202.728	157.42
202.946	201.48
203.165	175.36
203.383	270.65
203.601	1297.39
203.819	-49.32
204.037	-1888.1
204.255	-158.22
204.473	-15.14
204.691	44.05
204.909	18.37
205.127	-87.63
205.345	-203.07
205.562	-234.4
205.78	-471.01
205.998	759.16
206.216	-8143.68
206.434	-7291.95
206.652	-382.72
206.87	-584.54
207.088	5436.36
207.306	-4628
207.523	-161.51
207.741	-42.65
207.959	-29.3
208.177	-34.96
208.395	-70.7
208.612	-119.95
208.83	-98.81
209.048	-99.89
209.266	-84.2
209.483	-80.32
209.701	-97.44
209.919	-115.86
210.136	-177.06
210.354	-203.94
210.572	-385.03
210.79	-476.55
211.007	-778.47
211.225	-3921.4
211.442	891.34
211.66	361.77
211.878	339.09
212.095	-126.38
212.313	-163.51
212.53	-110.85
212.748	-89.15
212.966	-46
213.183	-17.22
213.401	-23.42
213.618	-27.19
213.836	-7.17
214.053	-11.46
214.271	-4.99
214.488	-79.21
214.705	-20.88
214.923	-15.21
215.14	20.85
215.358	-11.41
215.575	-29.95
215.793	-37.05
216.01	-127.85
216.227	-170.95
216.445	-187.13
216.662	-301.4
216.879	-199.57
217.097	-362.9
217.314	-279.79
217.531	-271.11
217.749	-248.43
217.966	-244.99
218.183	-339.95
218.4	-124.3
218.618	-143.17
218.835	-113.37
219.052	-101.42
219.269	-74.41
219.487	-54.95
219.704	-67.19
219.921	-77.91
220.138	-52.9
220.355	-36.21
220.572	-34.44
220.79	-33.55
221.007	-16.87
221.224	-24.31
221.441	-19.54
221.658	-27.51
221.875	-25.76
222.092	-19.48
222.309	-21.23
222.526	-27.55
222.743	-33.06
222.96	-36
223.177	-36.41
223.394	-41.49
223.611	-32.59
223.828	-38.3
224.045	-30.36
224.262	-28.08
224.479	-23.38
224.696	-19.6
224.913	-19.27
225.13	-20.7
225.347	-15.3
225.564	-14.3
225.781	-11.11
225.997	-8.45
226.214	-3.1
226.431	-3.74
226.648	-2.31
226.865	-1.3
227.082	-1.01
227.298	0.22
227.515	1.73
227.732	2.83
227.949	3.42
228.165	3.6
228.382	2.36
228.599	-0.17
228.816	1.49
229.032	0.89
229.249	0
229.466	0.79
229.682	0.16
229.899	-0.84
230.116	-2.11
230.332	-4.04
230.549	-5.97
230.765	-7.4
230.982	-7.38
231.199	-10.54
231.415	-11.83
231.632	-11.48
231.848	-12.71
232.065	-12.82
232.281	-13.66
232.498	-12.28
232.714	-9.51
232.931	-7.57
233.147	-3.35
233.364	-0.22
233.58	1.48
233.797	3.14
234.013	3.79
234.23	4.59
234.446	3.98
234.662	6.4
234.879	6.89
235.095	6.31
235.312	5.39
235.528	3.63
235.744	1.46
235.961	2.61
236.177	1.68
236.393	0.16
236.61	-0.26
236.826	-0.1
237.042	-2.81
237.258	-3.66
237.475	-4.76
237.691	-2.71
237.907	-3.03
238.123	-0.29
238.339	-0.41
238.556	-0.32
238.772	-0.39
238.988	0.7
239.204	2.01
239.42	1.86
239.636	2.42
239.853	3.47
240.069	3.19
240.285	3.52
240.501	2.97
240.717	2.97
240.933	3.04
241.149	3.81
241.365	3.8
241.581	3.14
241.797	3.81
242.013	3.36
242.229	2.96
242.445	2.78
242.661	2.81
242.877	3.39
243.093	2.83
243.309	3.22
243.525	3.24
243.741	2.9
243.957	2.89
244.173	3.36
244.388	3.8
244.604	3.83
244.82	4.05
245.036	4.21
245.252	3.57
245.468	3.8
245.683	3.51
245.899	3.4
246.115	3.61
246.331	3.83
246.547	3.24
246.762	3.42
246.978	3.83
247.194	3.98
247.409	3.79
247.625	3.96
247.841	3.66
248.057	3.42
248.272	3.59
248.488	3.47
248.703	3.02
248.919	3.44
249.135	2.82
249.35	2.32
249.566	1.23
249.782	0.96
249.997	1.63
250.213	2.15
250.428	3.24
250.644	2.73
250.859	2.53
251.075	2.71
251.29	3.19
251.506	3.63
251.721	2.55
251.937	2.6
252.152	3.5
252.368	3.44
252.583	2.93
252.798	1.48
253.014	0.9
253.229	0.52
253.445	0.41
253.66	1.18
253.875	-0.67
254.091	-0.09
254.306	0.73
254.521	-0.29
254.737	0.27
254.952	0.01
255.167	-0.37
255.383	1.01
255.598	1.4
255.813	2.2
256.028	1.11
256.244	1.89
256.459	2.5
256.674	2.26
256.889	2.53
257.104	2.53
257.32	2.79
257.535	3.61
257.75	3.24
257.965	3.3
258.18	2.88
258.395	2.79
258.61	2.74
258.826	2.6
259.041	2.42
259.256	2.45
259.471	1.96
259.686	1.81
259.901	1.56
260.116	1.33
260.331	0.92
260.546	1.14
260.761	1.18
260.976	1.02
261.191	0.82
261.406	1.09
261.621	0.83
261.836	1.31
262.05	1.9
262.265	1.63
262.48	1.87
262.695	1.5
262.91	0.55
263.125	-0.03
263.34	-0.06
263.555	-0.13
263.769	-0.59
263.984	-0.57
264.199	-0.43
264.414	-0.43
264.629	-0.61
264.843	-0.24
265.058	-0.03
265.273	0.58
265.488	0.84
265.702	0.68
265.917	0.74
266.132	0.64
266.346	1.02
266.561	0.59
266.776	0.22
266.99	0.6
267.205	0.61
267.42	1.13
267.634	1.61
267.849	1.68
268.063	2.13
268.278	2.35
268.492	3.12
268.707	2.78
268.922	2.92
269.136	2.99
269.351	2.86
269.565	2.8
269.78	2.55
269.994	1.9
270.209	1.75
270.423	1.75
270.637	1.56
270.852	1.22
271.066	1.05
271.281	0.79
271.495	0.77
271.709	0.9
271.924	0.73
272.138	0.57
272.353	0.42
272.567	0.91
272.781	0.57
272.996	0.59
273.21	0.46
273.424	0.76
273.638	0.86
273.853	0.96
274.067	1
274.281	1.39
274.495	1.34
274.71	2.12
274.924	1.88
275.138	2.1
275.352	2
275.566	2.03
275.781	1.71
275.995	2.38
276.209	2.35
276.423	2.61
276.637	1.9
276.851	1.96
277.065	1.9
277.279	2.27
277.493	2.15
277.707	1.77
277.921	1.85
278.135	1.79
278.349	1.22
278.563	0.61
278.777	0.54
278.991	0.93
279.205	0.95
279.419	1.02
279.633	0.44
279.847	1.06
280.061	1.57
280.275	1.7
280.489	1.88
280.703	2.2
280.917	2.34
281.131	2.07
281.344	1.83
281.558	2.12
281.772	1.87
281.986	1.93
282.2	1.41
282.414	1.56
282.627	1.31
282.841	1.43
283.055	1.14
283.269	1.3
283.482	1.28
283.696	1.34
283.91	1.11
284.123	1.09
284.337	1.42
284.551	1.8
284.764	2.1
284.978	2.12
285.192	1.99
285.405	2.02
285.619	2.48
285.833	2.65
286.046	2.91
286.26	2.87
286.473	2.85
286.687	2.45
286.9	2.53
287.114	1.94
287.327	2.18
287.541	2.25
287.754	2.64
287.968	2.32
288.181	2.58
288.395	2.29
288.608	2.5
288.822	2.55
289.035	2.6
289.248	1.91
289.462	2.08
289.675	1.99
289.889	1.88
290.102	1.64
290.315	1.37
290.529	0.97
290.742	0.86
290.955	0.89
291.169	1.01
291.382	1.58
291.595	2.05
291.808	1.95
292.022	2.01
292.235	2.25
292.448	2.46
292.661	2.73
292.875	2.9
293.088	3.39
293.301	3.3
293.514	3.25
293.727	3.08
293.94	3.06
294.153	3.37
294.367	3.57
294.58	3.7
294.793	3.71
295.006	3.56
295.219	3.45
295.432	3.26
295.645	3.18
295.858	3.18
296.071	3.19
296.284	3.41
296.497	3.32
296.71	3.36
296.923	2.97
297.136	3
297.349	3.17
297.562	3.12
297.775	3.39
297.988	3.58
298.201	3.66
298.414	3.53
298.626	3.47
298.839	3.58
299.052	3.39
299.265	4.17
299.478	4.38
299.691	4.66
299.903	4.89
300.116	4.83
300.329	5
300.542	4.94
300.755	4.64
300.967	4.26
301.18	3.97
301.393	4.21
301.605	3.76
301.818	3.31
302.031	3.25
302.243	3.12
302.456	3.11
302.669	2.95
302.881	3.34
303.094	3.99
303.307	4.17
303.519	4.44
303.732	4.56
303.944	4.37
304.157	4.48
304.37	4.47
304.582	4.49
304.795	4.39
305.007	4.76
305.22	4.75
305.432	4.6
305.645	5.01
305.857	4.89
306.069	4.22
306.282	4.59
306.494	4.41
306.707	4
306.919	4.5
307.132	4.67
307.344	4.34
307.556	4.28
307.769	4.32
307.981	4.14
308.193	4.41
308.406	4.74
308.618	4.67
308.83	5.1
309.043	5.37
309.255	5.11
309.467	5.13
309.679	5.14
309.892	5.12
310.104	5.25
310.316	5.2
310.528	5.31
310.74	5.41
310.953	5.59
311.165	5.32
311.377	5.05
311.589	5.5
311.801	5.82
312.013	5.88
312.225	5.78
312.437	5.59
312.649	6.01
312.862	5.93
313.074	5.73
313.286	5.66
313.498	5.7
313.71	5.88
313.922	5.49
314.134	5.27
314.346	4.9
314.558	4.93
314.77	5.01
314.982	5.01
315.193	4.94
315.405	5.34
315.617	5.34
315.829	5.73
316.041	5.62
316.253	5.7
316.465	5.48
316.677	5.79
316.888	5.57
317.1	5.95
317.312	5.96
317.524	5.94
317.736	5.87
317.947	5.94
318.159	5.68
318.371	5.73
318.583	5.76
318.794	5.76
319.006	6.04
319.218	6.63
319.43	6.47
319.641	5.92
319.853	6.19
320.064	6.41
320.276	6.92
320.488	7.58
320.699	8.05
320.911	7.87
321.123	7.64
321.334	8.12
321.546	8.6
321.757	8.13
321.969	8.41
322.18	8.2
322.392	8.13
322.603	8.1
322.815	8
323.026	8.22
323.238	8.99
323.449	9.16
323.661	9.61
323.872	9.55
324.083	10.12
324.295	10.39
324.506	10.52
324.718	11.09
324.929	10.88
325.14	11.11
325.352	11.31
325.563	11.24
325.774	11.78
325.986	11.42
326.197	11.5
326.408	12.25
326.62	12.78
326.831	13.2
327.042	13.38
327.253	13.99
327.464	14.34
327.676	14.35
327.887	14.56
328.098	14.84
328.309	15.59
328.52	15.95
328.732	15.71
328.943	15.64
329.154	15.88
329.365	15.91
329.576	16.08
329.787	15.81
329.998	16.31
330.209	16.3
330.42	16.7
330.631	17.19
330.842	17.4
331.053	17.97
331.264	18.44
331.475	18.98
331.686	19.38
331.897	19.65
332.108	19.82
332.319	20.36
332.53	20.72
332.741	20.84
332.952	20.77
333.163	20.73
333.374	20.82
333.585	20.91
333.795	20.81
334.006	21.05
334.217	21.07
334.428	21.85
334.639	21.65
334.849	21.82
335.06	22.3
335.271	22.36
335.482	22.62
335.692	22.64
335.903	22.47
336.114	22.52
336.325	22.56
336.535	22.71
336.746	22.56
336.957	22.58
337.167	22.98
337.378	22.89
337.589	22.82
337.799	23.14
338.01	23.3
338.22	23.6
338.431	23.81
338.642	23.31
338.852	23.44
339.063	23.4
339.273	23.39
339.484	22.89
339.694	22.41
339.905	22.53
340.115	22.13
340.326	21.99
340.536	21.85
340.746	21.89
340.957	22.35
341.167	22.46
341.378	22.36
341.588	22.81
341.799	22.93
342.009	23.27
342.219	22.65
342.43	22.89
342.64	22.65
342.85	22.91
343.061	23
343.271	22.85
343.481	22.69
343.691	22.87
343.902	22.67
344.112	22.77
344.322	22.79
344.532	22.81
344.743	22.74
344.953	22.78
345.163	22.61
345.373	22.31
345.583	22.03
345.793	21.84
346.004	21.44
346.214	21.37
346.424	21.35
346.634	21.21
346.844	21.26
347.054	21.04
347.264	21.19
347.474	21.14
347.684	21.42
347.894	21.64
348.104	21.57
348.314	21.72
348.524	21.69
348.734	21.91
348.944	22.18
349.154	22.81
349.364	23.02
349.574	22.82
349.784	23.11
349.994	23.21
350.204	23.39
350.413	23.68
350.623	24.02
350.833	24.03
351.043	24.05
351.253	24
351.463	23.68
351.672	23.33
351.882	23.59
352.092	23.29
352.302	23.05
352.511	22.73
352.721	22.48
352.931	22.33
353.141	22.21
353.35	22.01
353.56	22.08
353.77	22.37
353.979	22.48
354.189	22.67
354.399	22.88
354.608	22.98
354.818	23.15
355.027	23.44
355.237	23.27
355.447	23.51
355.656	23.48
355.866	23.24
356.075	23.14
356.285	23.32
356.494	23.09
356.704	22.83
356.913	22.79
357.123	22.67
357.332	22.65
357.542	22.62
357.751	22.36
357.96	21.99
358.17	22.04
358.379	21.98
358.589	21.84
358.798	21.87
359.007	21.97
359.217	21.82
359.426	21.79
359.635	21.66
359.845	21.88
360.054	21.85
360.263	22.12
360.472	22.17
360.682	22.16
360.891	22.35
361.1	22.3
361.309	22.22
361.519	22.3
361.728	22.39
361.937	22.41
362.146	22.11
362.355	22.13
362.564	22.22
362.774	22.01
362.983	22.09
363.192	21.74
363.401	21.65
363.61	21.56
363.819	21.35
364.028	21.36
364.237	21.17
364.446	21.32
364.655	21.28
364.864	21.11
365.073	21.15
365.282	20.86
365.491	20.75
365.7	20.6
365.909	20.39
366.118	20.37
366.327	20.15
366.536	20.1
366.745	20.06
366.954	19.96
367.162	19.66
367.371	19.44
367.58	19.71
367.789	20.16
367.998	20.23
368.207	20.49
368.415	20.57
368.624	20.44
368.833	20.41
369.042	20.45
369.25	20.17
369.459	20.44
369.668	20.39
369.877	19.97
370.085	19.9
370.294	20.18
370.503	19.92
370.711	19.88
370.92	19.89
371.129	19.78
371.337	19.52
371.546	19.64
371.754	19.32
371.963	19.57
372.171	19.53
372.38	19.47
372.589	19.21
372.797	19.27
373.006	19.01
373.214	19.06
373.423	19.09
373.631	19.36
373.84	19.27
374.048	19.34
374.256	18.95
374.465	18.87
374.673	18.6
374.882	18.34
375.09	18.5
375.298	18.72
375.507	18.68
375.715	18.66
375.923	18.23
376.132	18.5
376.34	18.16
376.548	18.37
376.757	18.36
376.965	18.36
377.173	18.27
377.381	18.15
377.59	17.99
377.798	17.84
378.006	17.82
378.214	17.72
378.423	17.36
378.631	17.74
378.839	17.3
379.047	17.26
379.255	16.95
379.463	17.07
379.671	17
379.879	16.78
380.088	16.8
380.296	16.65
380.504	16.62
380.712	16.72
380.92	16.71
381.128	17.12
381.336	17.18
381.544	17.46
381.752	17.42
381.96	17.3
382.168	17.25
382.376	16.99
382.584	16.89
382.791	16.92
382.999	16.67
383.207	16.65
383.415	16.3
383.623	16.12
383.831	15.89
384.039	15.79
384.247	15.8
384.454	15.93
384.662	15.98
384.87	15.93
385.078	15.84
385.285	15.86
385.493	15.53
385.701	15.77
385.909	15.75
386.116	15.82
386.324	15.9
386.532	15.62
386.739	15.48
386.947	15.51
387.155	15.69
387.362	15.8
387.57	15.97
387.778	15.96
387.985	15.43
388.193	15.47
388.4	15.33
388.608	15.31
388.816	15.17
389.023	15.06
389.231	15.11
389.438	14.82
389.646	14.87
389.853	14.86
390.061	14.9
390.268	15.24
390.475	15.15
390.683	15.29
390.89	15.02
391.098	15.19
391.305	15.28
391.512	15.03
391.72	15.31
391.927	15.26
392.135	15
392.342	15.01
392.549	14.67
392.756	14.69
392.964	14.29
393.171	14.28
393.378	14.17
393.586	13.97
393.793	14
394	13.64
394.207	13.44
394.414	13.42
394.622	13.19
394.829	13.37
395.036	13.14
395.243	13.34
395.45	13.43
395.657	13.35
395.864	13.45
396.072	13.51
396.279	13.61
396.486	13.64
396.693	13.49
396.9	13.41
397.107	13.35
397.314	13.22
397.521	13.17
397.728	13.12
397.935	13.16
398.142	13.21
398.349	13.06
398.556	13.11
398.763	12.94
398.97	13.15
399.177	13.2
399.383	13.23
399.59	13.47
399.797	13.49
400.004	13.4
400.211	13.36
400.418	13.11
400.625	13.03
400.831	12.82
401.038	12.85
401.245	12.68
401.452	12.79
401.658	12.7
401.865	12.36
402.072	12.14
402.279	12.17
402.485	12.31
402.692	12.51
402.899	12.66
403.105	12.82
403.312	12.76
403.519	12.71
403.725	12.38
403.932	12.31
404.138	12.34
404.345	12.47
404.552	12.5
404.758	12.32
404.965	12.04
405.171	11.9
405.378	11.86
405.584	11.9
405.791	11.96
405.997	12.17
406.204	12.23
406.41	12.34
406.617	12.37
406.823	12.23
407.029	12.24
407.236	12.38
407.442	12.45
407.649	12.24
407.855	12.35
408.061	12.29
408.268	12.24
408.474	12.03
408.68	12.15
408.887	12.03
409.093	12.07
409.299	12.12
409.505	12.12
409.712	12.05
409.918	11.87
410.124	11.7
410.33	11.66
410.537	11.7
410.743	11.91
410.949	11.84
411.155	11.71
411.361	11.69
411.567	11.46
411.773	11.28
411.98	11.29
412.186	11.51
412.392	11.38
412.598	11.37
412.804	11.27
413.01	11.25
413.216	11.2
413.422	11.27
413.628	11.28
413.834	11.38
414.04	11.48
414.246	11.48
414.452	11.36
414.658	11.35
414.864	11.53
415.07	11.43
415.275	11.22
415.481	11.19
415.687	11.22
415.893	11.14
416.099	11.07
416.305	10.98
416.511	10.94
416.716	11.03
416.922	11.04
417.128	10.85
417.334	10.86
417.539	10.84
417.745	10.76
417.951	10.71
418.157	10.76
418.362	10.71
418.568	10.67
418.774	10.61
418.979	10.49
419.185	10.5
419.391	10.55
419.596	10.64
419.802	10.69
420.008	10.71
420.213	10.7
420.419	10.57
420.624	10.56
420.83	10.61
421.035	10.58
421.241	10.59
421.446	10.56
421.652	10.56
421.857	10.49
422.063	10.43
422.268	10.35
422.474	10.3
422.679	10.3
422.885	10.22
423.09	10.16
423.295	10.22
423.501	10.22
423.706	10.13
423.911	10.03
424.117	9.89
424.322	9.86
424.527	9.9
424.733	9.85
424.938	9.78
425.143	9.88
425.349	9.83
425.554	9.74
425.759	9.64
425.964	9.66
426.169	9.66
426.375	9.72
426.58	9.71
426.785	9.6
426.99	9.61
427.195	9.67
427.4	9.58
427.605	9.61
427.811	9.6
428.016	9.61
428.221	9.65
428.426	9.61
428.631	9.6
428.836	9.66
429.041	9.77
429.246	9.74
429.451	9.81
429.656	9.77
429.861	9.84
430.066	9.85
430.271	9.87
430.476	9.83
430.681	9.82
430.886	9.87
431.09	9.81
431.295	9.66
431.5	9.72
431.705	9.64
431.91	9.67
432.115	9.52
432.32	9.5
432.524	9.52
432.729	9.5
432.934	9.48
433.139	9.4
433.343	9.38
433.548	9.35
433.753	9.24
433.958	9.18
434.162	9.17
434.367	9.22
434.572	9.25
434.776	9.26
434.981	9.25
435.186	9.35
435.39	9.41
435.595	9.49
435.799	9.54
436.004	9.55
436.209	9.56
436.413	9.52
436.618	9.53
436.822	9.47
437.027	9.42
437.231	9.44
437.436	9.42
437.64	9.44
437.845	9.42
438.049	9.38
438.253	9.41
438.458	9.4
438.662	9.43
438.867	9.39
439.071	9.44
439.275	9.45
439.48	9.42
439.684	9.43
439.888	9.39
440.093	9.34
440.297	9.4
440.501	9.45
440.706	9.56
440.91	9.57
441.114	9.65
441.318	9.61
441.523	9.71
441.727	9.75
441.931	9.72
442.135	9.72
442.339	9.75
442.543	9.75
442.748	9.68
442.952	9.63
443.156	9.69
443.36	9.71
443.564	9.65
443.768	9.56
443.972	9.56
444.176	9.54
444.38	9.49
444.584	9.45
444.788	9.45
444.992	9.45
445.196	9.38
445.4	9.32
445.604	9.25
445.808	9.29
446.012	9.27
446.216	9.2
446.42	9.16
446.624	9.11
446.828	9.09
447.032	9
447.235	9
447.439	9.05
447.643	9.02
447.847	8.91
448.051	8.8
448.254	8.68
448.458	8.76
448.662	8.78
448.866	8.9
449.069	8.76
449.273	8.77
449.477	8.81
449.681	8.72
449.884	8.6
450.088	8.72
450.292	8.66
450.495	8.79
450.699	8.69
450.902	8.67
451.106	8.61
451.31	8.71
451.513	8.76
451.717	8.72
451.92	8.68
452.124	8.84
452.327	8.75
452.531	8.67
452.734	8.56
452.938	8.51
453.141	8.51
453.345	8.48
453.548	8.59
453.752	8.48
453.955	8.41
454.158	8.32
454.362	8.21
454.565	8.27
454.769	8.41
454.972	8.51
455.175	8.62
455.379	8.57
455.582	8.57
455.785	8.48
455.988	8.63
456.192	8.6
456.395	8.87
456.598	8.84
456.801	8.92
457.005	8.89
457.208	8.8
457.411	8.74
457.614	8.71
457.817	8.72
458.021	8.72
458.224	8.66
458.427	8.73
458.63	8.61
458.833	8.64
459.036	8.58
459.239	8.6
459.442	8.63
459.645	8.61
459.848	8.62
460.051	8.65
460.254	8.7
460.457	8.72
460.66	8.65
460.863	8.67
461.066	8.74
461.269	8.75
461.472	8.73
461.675	8.78
