Data from 2938487_Reflection_4.txt Node
Date: Wed Jun 17 00:55:46 EDT 2015
User: robert
Spectrometer: USB4E03002
Autoset integration time: false
Trigger mode: 4
Integration Time (sec): 1.000000E-1
Scans to average: 10
Electric dark correction enabled: true
Nonlinearity correction enabled: false
Boxcar width: 5
Stray light correction enabled: false
XAxis mode: Wavelengths
Stop averaging: false
Number of Pixels in Spectrum: 3648
>>>>>Begin Spectral Data<<<<<
177.575	-401.67
177.794	1763.76
178.014	-103.75
178.233	-99.71
178.452	-30.59
178.672	-25.33
178.891	-4.25
179.11	107.58
179.33	85.25
179.549	117.42
179.768	30.61
179.987	67.34
180.207	84.1
180.426	100.96
180.645	151.72
180.864	231.95
181.084	98.7
181.303	115.85
181.522	41.14
181.741	67.24
181.96	69.23
182.179	748.29
182.398	-3152.67
182.618	-251.82
182.837	-282.55
183.056	-317.92
183.275	-427.57
183.494	-245.82
183.713	-765
183.932	-460.77
184.151	226.5
184.37	1794.19
184.589	6770.42
184.808	-854.49
185.027	-314.91
185.246	832.14
185.465	118.58
185.684	-50.79
185.903	-29.03
186.122	3.27
186.341	-12
186.56	23.77
186.779	39.12
186.998	16.1
187.216	-61.28
187.435	-5.48
187.654	51.11
187.873	-49.03
188.092	-142.55
188.311	324.71
188.53	45.48
188.748	73.93
188.967	129.47
189.186	364.79
189.405	962.92
189.623	-1516.06
189.842	335.19
190.061	898.36
190.28	27.87
190.498	-265.73
190.717	-85.83
190.936	84.84
191.154	62.3
191.373	-58.81
191.592	-87.38
191.81	197.23
192.029	167.49
192.248	373.88
192.466	253.04
192.685	418.42
192.904	2392.74
193.122	448.8
193.341	3.26
193.559	-46.91
193.778	-230.99
193.996	-54.89
194.215	-10.46
194.433	33.49
194.652	68.17
194.87	66.04
195.089	132.54
195.307	366.46
195.526	-1493.85
195.744	-112.95
195.963	-35.51
196.181	-74.65
196.399	-9.18
196.618	-25.45
196.836	40.06
197.055	9.72
197.273	-10.85
197.491	5.01
197.71	5.24
197.928	139.21
198.146	-415.07
198.365	-67.84
198.583	275.7
198.801	-189.78
199.019	-195.44
199.238	494.83
199.456	-3372.22
199.674	-331.74
199.892	40.34
200.111	-34.18
200.329	31.73
200.547	68.8
200.765	41.51
200.983	-117.05
201.202	2.74
201.42	-66.08
201.638	-6834.38
201.856	19.07
202.074	34.1
202.292	34.8
202.51	79.27
202.728	44.88
202.946	324.15
203.165	-1026.43
203.383	-160.98
203.601	-497.68
203.819	-142.55
204.037	-2.92
204.255	-80.61
204.473	-0.81
204.691	-15.19
204.909	-16.76
205.127	-360.24
205.345	695.47
205.562	3809.93
205.78	320.64
205.998	919.89
206.216	1190.45
206.434	427.67
206.652	291.38
206.87	169.99
207.088	195.32
207.306	287.71
207.523	316.88
207.741	-673.76
207.959	264.95
208.177	-1397.4
208.395	-1937.35
208.612	3090.65
208.83	-94.34
209.048	-40.82
209.266	-29.7
209.483	1.31
209.701	-75.56
209.919	41.59
210.136	35.02
210.354	43.19
210.572	65.69
210.79	37.61
211.007	26
211.225	4.03
211.442	-1.75
211.66	11.05
211.878	4.71
212.095	81.69
212.313	52.17
212.53	58.32
212.748	44.81
212.966	53.37
213.183	64.99
213.401	67.83
213.618	92.71
213.836	83.87
214.053	87.62
214.271	98.27
214.488	17.43
214.705	38.11
214.923	45.7
215.14	58.52
215.358	18.47
215.575	11.38
215.793	-9.01
216.01	-20.68
216.227	-39.66
216.445	-42.17
216.662	-62.84
216.879	-67.89
217.097	-57.87
217.314	-44.33
217.531	-89.42
217.749	-61.01
217.966	-30.09
218.183	-9.26
218.4	-14.12
218.618	-2.92
218.835	5.81
219.052	-6.78
219.269	-16.28
219.487	-16.37
219.704	-15.21
219.921	-18.45
220.138	-23.42
220.355	-15.79
220.572	-25.55
220.79	-24.96
221.007	-34.29
221.224	-23.91
221.441	-16.73
221.658	-10.75
221.875	-24.23
222.092	-19.39
222.309	-6.52
222.526	-2.05
222.743	-11.25
222.96	-3.15
223.177	-11.36
223.394	-4.54
223.611	-3.19
223.828	-10.14
224.045	-16.03
224.262	-6.16
224.479	-12.18
224.696	-16.58
224.913	-15.4
225.13	-15.88
225.347	-17.25
225.564	-10.25
225.781	-9.36
225.997	-7.01
226.214	-3.99
226.431	-2.55
226.648	-2.57
226.865	-3.01
227.082	-1.97
227.298	-1.88
227.515	-1.71
227.732	-1.74
227.949	-2.31
228.165	-1.94
228.382	-2.28
228.599	-3.36
228.816	-3.62
229.032	-4.15
229.249	-2.92
229.466	-5.09
229.682	-6.67
229.899	-5.92
230.116	-5.24
230.332	-3.99
230.549	-4.74
230.765	-6.06
230.982	-6.14
231.199	-8.51
231.415	-12.9
231.632	-10.8
231.848	-8.73
232.065	-3.77
232.281	-1.9
232.498	-4.89
232.714	-5.56
232.931	-5.42
233.147	-4.43
233.364	-3.59
233.58	-1.72
233.797	-0.25
234.013	-2.61
234.23	-3.32
234.446	-5.7
234.662	-8.26
234.879	-4.02
235.095	-5.87
235.312	-5.32
235.528	-4.36
235.744	-7.01
235.961	-7.44
236.177	-8.58
236.393	-9.85
236.61	-7.38
236.826	-8.64
237.042	-8.26
237.258	-9.01
237.475	-5.97
237.691	-7.61
237.907	-7.84
238.123	-5.21
238.339	-3.95
238.556	-0.01
238.772	-0.73
238.988	-1.44
239.204	-0.98
239.42	-1.42
239.636	-2.14
239.853	-3.5
240.069	-2.88
240.285	-3.22
240.501	-2.85
240.717	-3.4
240.933	-4.22
241.149	-3.57
241.365	-4.39
241.581	-4.78
241.797	-4.6
242.013	-4.28
242.229	-4.49
242.445	-4.53
242.661	-4.34
242.877	-5.06
243.093	-4.5
243.309	-4.27
243.525	-3.77
243.741	-3.23
243.957	-2.93
244.173	-3.04
244.388	-2.67
244.604	-2.07
244.82	-2.59
245.036	-2.72
245.252	-2.33
245.468	-2.1
245.683	-2.22
245.899	-2.44
246.115	-1.95
246.331	-2.32
246.547	-2.48
246.762	-2.21
246.978	-2.29
247.194	-2.09
247.409	-2.06
247.625	-2.07
247.841	-2.46
248.057	-1.53
248.272	-1.08
248.488	-1.49
248.703	-0.07
248.919	-0.37
249.135	-1.9
249.35	-1.82
249.566	-1.26
249.782	-0.65
249.997	-0.47
250.213	-0.51
250.428	-1.81
250.644	-1.86
250.859	-1.75
251.075	-2.94
251.29	-2.33
251.506	-2.15
251.721	-2.32
251.937	-2.53
252.152	-2.68
252.368	-3.58
252.583	-2.59
252.798	-1.07
253.014	-2.27
253.229	-2.52
253.445	-0.76
253.66	-1.05
253.875	-0.55
254.091	-0.6
254.306	-0.76
254.521	-1.12
254.737	-1.26
254.952	-2.26
255.167	-3.22
255.383	-3.67
255.598	-3.12
255.813	-3.19
256.028	-2.13
256.244	-1.42
256.459	-1.32
256.674	-1.45
256.889	-2.1
257.104	-2.26
257.32	-2.27
257.535	-2.76
257.75	-2.4
257.965	-2.89
258.18	-3.1
258.395	-3.44
258.61	-3.6
258.826	-3.41
259.041	-3.61
259.256	-3.28
259.471	-3.18
259.686	-3.37
259.901	-3.47
260.116	-3.53
260.331	-3.25
260.546	-3.42
260.761	-3.35
260.976	-3.48
261.191	-4.14
261.406	-3.21
261.621	-3.34
261.836	-4.41
262.05	-4.85
262.265	-4.2
262.48	-3.49
262.695	-3.34
262.91	-3.16
263.125	-3.82
263.34	-4.08
263.555	-3.7
263.769	-3.9
263.984	-4.44
264.199	-3.44
264.414	-3.18
264.629	-2.56
264.843	-3.02
265.058	-3.3
265.273	-3.18
265.488	-2.13
265.702	-1.78
265.917	-1.68
266.132	-1.86
266.346	-1.36
266.561	-0.62
266.776	-0.15
266.99	-0.83
267.205	-1.24
267.42	-1.13
267.634	-1.38
267.849	-1.59
268.063	-1.54
268.278	-1.3
268.492	-1.64
268.707	-1.72
268.922	-2.26
269.136	-2.56
269.351	-2.82
269.565	-2.34
269.78	-2.61
269.994	-1.94
270.209	-2.13
270.423	-2.45
270.637	-2.69
270.852	-2.84
271.066	-3.33
271.281	-2.59
271.495	-2.41
271.709	-2.34
271.924	-2.07
272.138	-1.66
272.353	-2.28
272.567	-2.66
272.781	-2.61
272.996	-2.5
273.21	-1.84
273.424	-1.66
273.638	-2.48
273.853	-2.52
274.067	-2.31
274.281	-2.62
274.495	-2.38
274.71	-1.82
274.924	-1.21
275.138	-0.98
275.352	-1.37
275.566	-1.96
275.781	-1.86
275.995	-1.86
276.209	-1.99
276.423	-1.97
276.637	-2.8
276.851	-3.42
277.065	-3.46
277.279	-4.1
277.493	-3.75
277.707	-3.41
277.921	-3.54
278.135	-3.72
278.349	-3.77
278.563	-3.09
278.777	-3.16
278.991	-1.93
279.205	-1.7
279.419	-2.15
279.633	-1.47
279.847	-1.85
280.061	-1.56
280.275	-0.96
280.489	-0.37
280.703	-0.57
280.917	-1.49
281.131	-1.37
281.344	-1.56
281.558	-1.64
281.772	-2.02
281.986	-2.19
282.2	-2.52
282.414	-2.64
282.627	-3.17
282.841	-3.37
283.055	-3.34
283.269	-2.88
283.482	-2.83
283.696	-3
283.91	-3.04
284.123	-2.7
284.337	-3.08
284.551	-2.87
284.764	-2.7
284.978	-2.65
285.192	-2.7
285.405	-2.76
285.619	-2.79
285.833	-2.33
286.046	-1.97
286.26	-2
286.473	-2.29
286.687	-1.95
286.9	-1.61
287.114	-1.98
287.327	-1.92
287.541	-2.11
287.754	-2.03
287.968	-2.33
288.181	-3.07
288.395	-3.76
288.608	-3.76
288.822	-2.94
289.035	-2.89
289.248	-3.44
289.462	-3.57
289.675	-3.51
289.889	-3.36
290.102	-2.96
290.315	-2.41
290.529	-2.12
290.742	-1.98
290.955	-1.73
291.169	-2.17
291.382	-2.48
291.595	-2.32
291.808	-1.95
292.022	-2.15
292.235	-2.15
292.448	-2.71
292.661	-3.31
292.875	-3.45
293.088	-3.45
293.301	-3.89
293.514	-3.85
293.727	-3.79
293.94	-4.21
294.153	-4.77
294.367	-4.14
294.58	-3.86
294.793	-3.78
295.006	-3.77
295.219	-3.92
295.432	-3.72
295.645	-3.68
295.858	-3.82
296.071	-3.85
296.284	-3.35
296.497	-3.15
296.71	-3.53
296.923	-3.6
297.136	-3.64
297.349	-3.59
297.562	-3.48
297.775	-3.6
297.988	-3.2
298.201	-3.29
298.414	-3.33
298.626	-3.08
298.839	-3.4
299.052	-3.14
299.265	-3.4
299.478	-3.51
299.691	-3.27
299.903	-3.08
300.116	-3.22
300.329	-3.22
300.542	-2.82
300.755	-2.98
300.967	-3.69
301.18	-3.18
301.393	-3.23
301.605	-3.03
301.818	-3
302.031	-3.05
302.243	-3.24
302.456	-2.78
302.669	-3.15
302.881	-3.63
303.094	-3.29
303.307	-3.35
303.519	-3.44
303.732	-4.12
303.944	-4.36
304.157	-4.02
304.37	-4.28
304.582	-3.81
304.795	-4
305.007	-3.79
305.22	-3.54
305.432	-3.39
305.645	-2.61
305.857	-2.49
306.069	-2.41
306.282	-2.54
306.494	-3.12
306.707	-3.05
306.919	-3.29
307.132	-3.21
307.344	-3.36
307.556	-3.24
307.769	-3.22
307.981	-3.71
308.193	-3.57
308.406	-2.92
308.618	-2.43
308.83	-2.29
309.043	-2.38
309.255	-2.45
309.467	-2.64
309.679	-2.8
309.892	-2.71
310.104	-2.75
310.316	-2.4
310.528	-2.49
310.74	-2.67
310.953	-2.78
311.165	-2.61
311.377	-2.77
311.589	-2.46
311.801	-2.37
312.013	-1.75
312.225	-1.75
312.437	-2.05
312.649	-2.44
312.862	-2.09
313.074	-1.99
313.286	-2.78
313.498	-2.99
313.71	-2.31
313.922	-2.7
314.134	-2.39
314.346	-2.74
314.558	-2.98
314.77	-2.96
314.982	-3.05
315.193	-3.1
315.405	-3.21
315.617	-2.47
315.829	-1.68
316.041	-1.93
316.253	-2.2
316.465	-1.2
316.677	-1.13
316.888	-0.46
317.1	-0.31
317.312	-0.44
317.524	-0.98
317.736	-1.51
317.947	-1.65
318.159	-2.13
318.371	-1.61
318.583	-1.42
318.794	-3.01
319.006	-3.23
319.218	-3.89
319.43	-3.94
319.641	-3
319.853	-2.72
320.064	-2.69
320.276	-2.71
320.488	-2.64
320.699	-3.49
320.911	-3.61
321.123	-3.5
321.334	-3.64
321.546	-4.01
321.757	-3.97
321.969	-4.53
322.18	-4.5
322.392	-3.86
322.603	-3.61
322.815	-3.44
323.026	-3.26
323.238	-2.92
323.449	-2.97
323.661	-2.43
323.872	-2.14
324.083	-1.7
324.295	-1.29
324.506	-1.49
324.718	-1.99
324.929	-2.57
325.14	-2.91
325.352	-2.85
325.563	-2.81
325.774	-2.68
325.986	-2.41
326.197	-2.42
326.408	-3.12
326.62	-2.91
326.831	-2.9
327.042	-2.43
327.253	-1.73
327.464	-1.3
327.676	-1.16
327.887	-1.5
328.098	-1.26
328.309	-1.61
328.52	-2.18
328.732	-1.51
328.943	-2.07
329.154	-1.99
329.365	-2.05
329.576	-2.31
329.787	-2.6
329.998	-2.29
330.209	-2.22
330.42	-1.58
330.631	-1.56
330.842	-0.32
331.053	-0.69
331.264	-0.73
331.475	-0.67
331.686	-0.83
331.897	-0.38
332.108	-0.31
332.319	-0.71
332.53	-0.25
332.741	-0.9
332.952	-1.44
333.163	-1.46
333.374	-1.42
333.585	-1.43
333.795	-1.45
334.006	-1.59
334.217	-2.28
334.428	-2.39
334.639	-2.09
334.849	-2.59
335.06	-2.34
335.271	-1.65
335.482	-2.26
335.692	-1.95
335.903	-1.5
336.114	-1.68
336.325	-1.53
336.535	-0.87
336.746	-0.71
336.957	-1.1
337.167	-0.77
337.378	-1.11
337.589	-0.93
337.799	-0.98
338.01	-1.13
338.22	-1.34
338.431	-1.06
338.642	-1.12
338.852	-1.52
339.063	-1.64
339.273	-1.34
339.484	-1.42
339.694	-1.74
339.905	-1.79
340.115	-1.43
340.326	-1.72
340.536	-1.87
340.746	-2.44
340.957	-2.65
341.167	-2.42
341.378	-2.65
341.588	-2.8
341.799	-2.88
342.009	-2.71
342.219	-3.04
342.43	-3.19
342.64	-2.92
342.85	-3.11
343.061	-2.83
343.271	-2.27
343.481	-2.86
343.691	-2.37
343.902	-2.45
344.112	-2.16
344.322	-1.83
344.532	-2.04
344.743	-1.8
344.953	-1.75
345.163	-1.57
345.373	-1.49
345.583	-1.51
345.793	-1.04
346.004	-1.3
346.214	-0.99
346.424	-0.58
346.634	-0.84
346.844	-0.88
347.054	-1.26
347.264	-1.61
347.474	-1.5
347.684	-1.17
347.894	-1.49
348.104	-1.71
348.314	-1.74
348.524	-2.13
348.734	-2.42
348.944	-2.06
349.154	-1.94
349.364	-1.96
349.574	-1.6
349.784	-2.03
349.994	-2.58
350.204	-2.28
350.413	-1.82
350.623	-1.92
350.833	-1.56
351.043	-2.17
351.253	-2.37
351.463	-2.24
351.672	-2.17
351.882	-2.48
352.092	-2.1
352.302	-1.67
352.511	-1.93
352.721	-2
352.931	-2.01
353.141	-2.4
353.35	-1.84
353.56	-1.95
353.77	-1.86
353.979	-1.61
354.189	-1.47
354.399	-1.79
354.608	-1.83
354.818	-1.78
355.027	-1.84
355.237	-1.74
355.447	-1.23
355.656	-1.38
355.866	-1.31
356.075	-1.64
356.285	-1.78
356.494	-1.55
356.704	-1.36
356.913	-1.32
357.123	-1.38
357.332	-1.47
357.542	-1.47
357.751	-1.66
357.96	-1.71
358.17	-1.66
358.379	-1.43
358.589	-1.29
358.798	-1.31
359.007	-1.4
359.217	-1.45
359.426	-1.51
359.635	-1.66
359.845	-1.65
360.054	-1.5
360.263	-1.55
360.472	-1.63
360.682	-1.48
360.891	-1.7
361.1	-1.97
361.309	-1.79
361.519	-1.76
361.728	-1.48
361.937	-1.4
362.146	-1.31
362.355	-1.37
362.564	-1.54
362.774	-1.7
362.983	-1.94
363.192	-2.01
363.401	-1.86
363.61	-1.84
363.819	-1.97
364.028	-2.06
364.237	-2.02
364.446	-2.21
364.655	-2.18
364.864	-1.67
365.073	-1.61
365.282	-1.68
365.491	-1.24
365.7	-1.25
365.909	-1.27
366.118	-1.23
366.327	-0.97
366.536	-0.84
366.745	-0.95
366.954	-1.1
367.162	-1.36
367.371	-1.31
367.58	-1.41
367.789	-1.63
367.998	-1.58
368.207	-1.92
368.415	-2.06
368.624	-2.55
368.833	-2.81
369.042	-2.6
369.25	-2.69
369.459	-2.82
369.668	-2.73
369.877	-2.51
370.085	-2.61
370.294	-2.47
370.503	-2.09
370.711	-1.63
370.92	-1.5
371.129	-1.3
371.337	-1.44
371.546	-1.36
371.754	-1.37
371.963	-1.29
372.171	-1.19
372.38	-1.23
372.589	-1.4
372.797	-1.6
373.006	-1.81
373.214	-1.79
373.423	-1.81
373.631	-1.61
373.84	-1.74
374.048	-1.81
374.256	-1.88
374.465	-1.99
374.673	-2.06
374.882	-2.08
375.09	-2.14
375.298	-2.27
375.507	-2.46
375.715	-2.36
375.923	-2.43
376.132	-2.24
376.34	-2.19
376.548	-1.88
376.757	-1.8
376.965	-1.64
377.173	-1.56
377.381	-1.27
377.59	-1.12
377.798	-1.14
378.006	-1.29
378.214	-1.48
378.423	-1.52
378.631	-1.38
378.839	-1.58
379.047	-1.63
379.255	-1.91
379.463	-1.75
379.671	-1.76
379.879	-1.83
380.088	-1.61
380.296	-1.62
380.504	-1.33
380.712	-1.35
380.92	-1.26
381.128	-1.41
381.336	-1.63
381.544	-1.36
381.752	-1.43
381.96	-1.71
382.168	-1.63
382.376	-1.55
382.584	-1.56
382.791	-1.53
382.999	-1.56
383.207	-1.82
383.415	-1.59
383.623	-1.63
383.831	-1.72
384.039	-1.89
384.247	-1.72
384.454	-1.74
384.662	-1.99
384.87	-1.65
385.078	-1.81
385.285	-1.77
385.493	-1.47
385.701	-1.66
385.909	-1.48
386.116	-1.41
386.324	-1.37
386.532	-1.36
386.739	-1.39
386.947	-1.26
387.155	-1.34
387.362	-1.32
387.57	-1.42
387.778	-1.68
387.985	-1.52
388.193	-1.54
388.4	-1.38
388.608	-1.26
388.816	-1.2
389.023	-1.24
389.231	-1.27
389.438	-1.3
389.646	-1.25
389.853	-1.24
390.061	-1.13
390.268	-1.42
390.475	-1.28
390.683	-1.36
390.89	-1.35
391.098	-1.29
391.305	-1.3
391.512	-1.16
391.72	-1.3
391.927	-1.18
392.135	-1.13
392.342	-1.09
392.549	-0.97
392.756	-1.18
392.964	-1.35
393.171	-1.43
393.378	-1.62
393.586	-1.65
393.793	-1.71
394	-1.73
394.207	-1.72
394.414	-1.74
394.622	-1.81
394.829	-1.71
395.036	-1.4
395.243	-1.24
395.45	-1.41
395.657	-1.35
395.864	-1.27
396.072	-1.39
396.279	-1.45
396.486	-1.61
396.693	-1.6
396.9	-1.38
397.107	-1.45
397.314	-1.44
397.521	-1.65
397.728	-1.49
397.935	-1.33
398.142	-1.45
398.349	-1.26
398.556	-1.12
398.763	-1.19
398.97	-1.16
399.177	-1.42
399.383	-1.26
399.59	-1.37
399.797	-1.2
400.004	-1.36
400.211	-1.48
400.418	-1.43
400.625	-1.57
400.831	-1.64
401.038	-1.51
401.245	-1.56
401.452	-1.44
401.658	-1.56
401.865	-1.66
402.072	-1.5
402.279	-1.29
402.485	-1.32
402.692	-1.29
402.899	-1.13
403.105	-1.18
403.312	-1.07
403.519	-1.08
403.725	-1.2
403.932	-1.19
404.138	-1.27
404.345	-1.37
404.552	-1.31
404.758	-1.24
404.965	-1.31
405.171	-1.48
405.378	-1.43
405.584	-1.53
405.791	-1.63
405.997	-1.52
406.204	-1.6
406.41	-1.33
406.617	-1.31
406.823	-1.49
407.029	-1.53
407.236	-1.42
407.442	-1.4
407.649	-1.36
407.855	-1.31
408.061	-1.27
408.268	-1.31
408.474	-1.33
408.68	-1.6
408.887	-1.7
409.093	-1.66
409.299	-1.61
409.505	-1.69
409.712	-1.7
409.918	-1.64
410.124	-1.71
410.33	-1.59
410.537	-1.49
410.743	-1.36
410.949	-1.23
411.155	-1.18
411.361	-1.12
411.567	-1.2
411.773	-1.23
411.98	-1.2
412.186	-1.35
412.392	-1.39
412.598	-1.31
412.804	-1.38
413.01	-1.32
413.216	-1.25
413.422	-1.27
413.628	-1.25
413.834	-1.39
414.04	-1.48
414.246	-1.66
414.452	-1.6
414.658	-1.6
414.864	-1.74
415.07	-1.81
415.275	-1.83
415.481	-1.72
415.687	-1.71
415.893	-1.73
416.099	-1.66
416.305	-1.56
416.511	-1.42
416.716	-1.47
416.922	-1.31
417.128	-1.3
417.334	-1.22
417.539	-1.29
417.745	-1.33
417.951	-1.3
418.157	-1.33
418.362	-1.4
418.568	-1.39
418.774	-1.37
418.979	-1.31
419.185	-1.39
419.391	-1.4
419.596	-1.44
419.802	-1.41
420.008	-1.46
420.213	-0.83
420.419	-0.78
420.624	-0.76
420.83	-0.76
421.035	-0.75
421.241	-0.72
421.446	-0.74
421.652	-0.76
421.857	-0.83
422.063	-0.8
422.268	-0.75
422.474	-1.36
422.679	-1.36
422.885	-1.35
423.09	-1.38
423.295	-1.37
423.501	-1.44
423.706	-1.42
423.911	-1.39
424.117	-1.24
424.322	-1.27
424.527	-1.41
424.733	-1.4
424.938	-1.41
425.143	-1.32
425.349	-1.32
425.554	-1.28
425.759	-1.19
425.964	-1.19
426.169	-1.17
426.375	-1.25
426.58	-1.21
426.785	-1.18
426.99	-1.25
427.195	-1.4
427.4	-1.44
427.605	-1.33
427.811	-1.39
428.016	-1.4
428.221	-1.41
428.426	-1.5
428.631	-1.5
428.836	-1.51
429.041	-1.28
429.246	-1.26
429.451	-1.06
429.656	-1.06
429.861	-1.09
430.066	-1.19
430.271	-1.22
430.476	-1.19
430.681	-1.11
430.886	-1.13
431.09	-1.13
431.295	-1.26
431.5	-1.16
431.705	-1.3
431.91	-1.32
432.115	-1.4
432.32	-1.27
432.524	-1.3
432.729	-1.3
432.934	-1.21
433.139	-1.05
433.343	-0.97
433.548	-0.9
433.753	-0.86
433.958	-0.65
434.162	-0.53
434.367	-0.43
434.572	-0.49
434.776	-0.45
434.981	-0.46
435.186	-0.58
435.39	-0.69
435.595	-0.75
435.799	-0.8
436.004	-0.97
436.209	-1.16
436.413	-1.37
436.618	-1.42
436.822	-1.39
437.027	-1.57
437.231	-1.58
437.436	-1.65
437.64	-1.69
437.845	-1.84
438.049	-1.84
438.253	-1.84
438.458	-1.76
438.662	-1.7
438.867	-1.68
439.071	-1.8
439.275	-1.73
439.48	-1.72
439.684	-1.71
439.888	-1.72
440.093	-1.64
440.297	-1.69
440.501	-1.7
440.706	-1.66
440.91	-1.71
441.114	-1.72
441.318	-1.65
441.523	-1.61
441.727	-1.68
441.931	-1.62
442.135	-1.51
442.339	-1.5
442.543	-1.41
442.748	-1.33
442.952	-1.42
443.156	-1.27
443.36	-1.24
443.564	-1.21
443.768	-1.23
443.972	-1.25
444.176	-1.21
444.38	-1.26
444.584	-1.26
444.788	-1.26
444.992	-1.3
445.196	-1.26
445.4	-1.31
445.604	-1.29
445.808	-1.26
446.012	-1.25
446.216	-1.14
446.42	-1.18
446.624	-1.22
446.828	-1.25
447.032	-1.28
447.235	-1.33
447.439	-1.29
447.643	-1.29
447.847	-1.31
448.051	-1.36
448.254	-1.39
448.458	-1.51
448.662	-1.46
448.866	-1.43
449.069	-1.42
449.273	-1.38
449.477	-1.22
449.681	-1.32
449.884	-1.35
450.088	-1.35
450.292	-1.36
450.495	-1.4
450.699	-1.33
450.902	-1.4
451.106	-1.29
451.31	-1.33
451.513	-1.34
451.717	-1.47
451.92	-1.35
452.124	-1.37
452.327	-1.38
452.531	-1.44
452.734	-1.34
452.938	-1.33
453.141	-1.29
453.345	-1.35
453.548	-1.27
453.752	-1.27
453.955	-1.2
454.158	-1.24
454.362	-1.26
