Data from 2938506_Reflection_3.txt Node
Date: Tue Jun 16 23:03:11 EDT 2015
User: robert
Spectrometer: USB4E03002
Autoset integration time: false
Trigger mode: 4
Integration Time (sec): 1.000000E-1
Scans to average: 10
Electric dark correction enabled: true
Nonlinearity correction enabled: false
Boxcar width: 5
Stray light correction enabled: false
XAxis mode: Wavelengths
Stop averaging: false
Number of Pixels in Spectrum: 3648
>>>>>Begin Spectral Data<<<<<
177.575	989
177.794	-29.49
178.014	30.46
178.233	39.11
178.452	36.56
178.672	95.75
178.891	-41.21
179.11	-8962.5
179.33	1085.42
179.549	-42.44
179.768	22.24
179.987	895.1
180.207	-65.26
180.426	-12.85
180.645	7.92
180.864	27.97
181.084	48.34
181.303	38.72
181.522	24.08
181.741	28.02
181.96	38.78
182.179	33.25
182.398	36.81
182.618	42.75
182.837	48.78
183.056	37.1
183.275	25.52
183.494	33.28
183.713	35.89
183.932	60.71
184.151	67.66
184.37	66.02
184.589	71.92
184.808	80.34
185.027	91.72
185.246	87.11
185.465	79.8
185.684	79.72
185.903	70.57
186.122	54.75
186.341	29.93
186.56	-36.58
186.779	-23.46
186.998	20.5
187.216	18.37
187.435	15.64
187.654	0.5
187.873	58.12
188.092	85.57
188.311	122.63
188.53	122.51
188.748	101.6
188.967	109.09
189.186	57.59
189.405	58.38
189.623	64.97
189.842	65.48
190.061	46.52
190.28	37.85
190.498	32.46
190.717	-5.41
190.936	9.66
191.154	20.03
191.373	30.12
191.592	37.49
191.81	34.17
192.029	19.58
192.248	4.25
192.466	19.65
192.685	-0.73
192.904	14.31
193.122	38.39
193.341	32.43
193.559	37.59
193.778	34.85
193.996	33.52
194.215	23.94
194.433	40.99
194.652	45.31
194.87	47
195.089	55.68
195.307	39.11
195.526	26.19
195.744	33.14
195.963	24.87
196.181	-39.37
196.399	-24.58
196.618	-18.28
196.836	-24.84
197.055	-21.2
197.273	-26.93
197.491	-18.51
197.71	-13.9
197.928	-0.94
198.146	-8.46
198.365	16.84
198.583	38.88
198.801	65.43
199.019	66.77
199.238	62.38
199.456	42.38
199.674	66.8
199.892	74.07
200.111	75
200.329	81.33
200.547	92.76
200.765	80.51
200.983	79.96
201.202	66.51
201.42	100.11
201.638	94.39
201.856	144.75
202.074	70.95
202.292	53.5
202.51	34.55
202.728	11.38
202.946	-15.03
203.165	35.32
203.383	26.87
203.601	32.79
203.819	-7.3
204.037	-9.32
204.255	6.72
204.473	35.89
204.691	22.3
204.909	39.67
205.127	33.14
205.345	27.51
205.562	16.33
205.78	21.59
205.998	9.26
206.216	18.78
206.434	12.62
206.652	17.8
206.87	13.94
207.088	22.26
207.306	24.15
207.523	40.88
207.741	47.4
207.959	40.62
208.177	41.89
208.395	38.21
208.612	39.53
208.83	32.27
209.048	18.03
209.266	8.81
209.483	9.14
209.701	10.73
209.919	6.86
210.136	6.63
210.354	5.9
210.572	5.58
210.79	3.91
211.007	19.88
211.225	24.29
211.442	34.61
211.66	25.41
211.878	40.5
212.095	39.39
212.313	49.03
212.53	62.21
212.748	63.01
212.966	63.39
213.183	67.13
213.401	54.01
213.618	64.44
213.836	54.95
214.053	47.73
214.271	31.8
214.488	19.49
214.705	-7.7
214.923	-15.64
215.14	-45.26
215.358	-13.96
215.575	-15.7
215.793	4.62
216.01	7.76
216.227	14.44
216.445	10.28
216.662	14.88
216.879	21.36
217.097	26.69
217.314	21.65
217.531	25.4
217.749	14.37
217.966	20.63
218.183	12.9
218.4	11.86
218.618	8.39
218.835	27.67
219.052	25.15
219.269	22.91
219.487	30.03
219.704	28.84
219.921	35
220.138	25.16
220.355	14.84
220.572	23.5
220.79	28.85
221.007	25.86
221.224	22.46
221.441	16.13
221.658	22.32
221.875	15.34
222.092	19.76
222.309	22.38
222.526	27.47
222.743	26.68
222.96	29.45
223.177	27.4
223.394	23.26
223.611	24.27
223.828	22.68
224.045	16.64
224.262	20.98
224.479	19.15
224.696	16.84
224.913	13.32
225.13	14.05
225.347	9.99
225.564	8.69
225.781	10.89
225.997	9.91
226.214	11.52
226.431	10.92
226.648	9.85
226.865	8.81
227.082	8.45
227.298	8.83
227.515	7.62
227.732	7.52
227.949	7.36
228.165	7.39
228.382	5.95
228.599	4.85
228.816	5.45
229.032	4.95
229.249	5.5
229.466	5.41
229.682	4.87
229.899	4.03
230.116	4.16
230.332	4.08
230.549	6.12
230.765	7.15
230.982	8.95
231.199	8.89
231.415	9.42
231.632	8.16
231.848	8.38
232.065	11.78
232.281	14.56
232.498	14.43
232.714	14.25
232.931	12.8
233.147	13.83
233.364	12.33
233.58	12
233.797	8.95
234.013	9.59
234.23	9.33
234.446	7.12
234.662	3.97
234.879	4.41
235.095	3.18
235.312	0.31
235.528	-1.02
235.744	-1.38
235.961	-0.09
236.177	2.62
236.393	1.8
236.61	2.48
236.826	1
237.042	1.61
237.258	0.24
237.475	0.8
237.691	1.69
237.907	1.38
238.123	4.04
238.339	4.15
238.556	3.75
238.772	5.74
238.988	5.95
239.204	7.53
239.42	8.29
239.636	8.36
239.853	8.07
240.069	9.11
240.285	8.71
240.501	7.69
240.717	8.08
240.933	7.76
241.149	7.29
241.365	7.61
241.581	6.97
241.797	7
242.013	6.96
242.229	7.54
242.445	6.98
242.661	7.66
242.877	8.01
243.093	7.89
243.309	8.76
243.525	8.75
243.741	7.16
243.957	6.77
244.173	6.3
244.388	6.69
244.604	6.16
244.82	5.89
245.036	5.47
245.252	5.18
245.468	4.85
245.683	4.64
245.899	4.81
246.115	5.16
246.331	5.15
246.547	5.47
246.762	5.32
246.978	5.51
247.194	5.48
247.409	5.99
247.625	6.27
247.841	6.13
248.057	6.38
248.272	5.87
248.488	5.45
248.703	6.49
248.919	5.69
249.135	5.84
249.35	5.34
249.566	5.75
249.782	4.96
249.997	4.95
250.213	5.4
250.428	4.89
250.644	5.67
250.859	6.58
251.075	6.11
251.29	6.17
251.506	5.55
251.721	5.42
251.937	4.92
252.152	5.27
252.368	5.46
252.583	4.64
252.798	5.09
253.014	4.49
253.229	4.05
253.445	4.78
253.66	5.52
253.875	5.77
254.091	6.29
254.306	7.03
254.521	7.74
254.737	7.1
254.952	7.14
255.167	6.67
255.383	6
255.598	5.77
255.813	4.8
256.028	4.53
256.244	4.75
256.459	4.05
256.674	3.5
256.889	3.34
257.104	3.77
257.32	4.06
257.535	3.93
257.75	4.11
257.965	3.78
258.18	3.97
258.395	3.87
258.61	4.31
258.826	4.65
259.041	4.89
259.256	4.99
259.471	4.98
259.686	4.59
259.901	4.86
260.116	4.89
260.331	5.31
260.546	5.54
260.761	5.43
260.976	4.82
261.191	4.91
261.406	4.42
261.621	3.92
261.836	4.35
262.05	5.51
262.265	5.12
262.48	5.19
262.695	5.25
262.91	5.07
263.125	5.39
263.34	5.24
263.555	5
263.769	6.34
263.984	6.42
264.199	6.05
264.414	5.77
264.629	5.44
264.843	5.32
265.058	5.1
265.273	4.92
265.488	5.51
265.702	5.9
265.917	5.48
266.132	4.53
266.346	4.73
266.561	4.21
266.776	3.89
266.99	4.16
267.205	3.76
267.42	3.8
267.634	3.36
267.849	2.64
268.063	2.12
268.278	2.34
268.492	2.44
268.707	2.5
268.922	2.7
269.136	2.55
269.351	2.98
269.565	3.17
269.78	3.2
269.994	3.22
270.209	3.51
270.423	4.05
270.637	4.23
270.852	4.55
271.066	4.51
271.281	4.26
271.495	4.48
271.709	3.94
271.924	4.28
272.138	4.61
272.353	4.63
272.567	4.4
272.781	3.91
272.996	3.95
273.21	3.49
273.424	3.23
273.638	3.53
273.853	3.58
274.067	4.07
274.281	3.63
274.495	3.51
274.71	3.78
274.924	4.25
275.138	3.94
275.352	3.87
275.566	4.02
275.781	3.51
275.995	3.57
276.209	3.92
276.423	3.61
276.637	4.21
276.851	3.53
277.065	3.43
277.279	4.17
277.493	5.36
277.707	5.59
277.921	5.76
278.135	5.99
278.349	5.94
278.563	5.63
278.777	5.69
278.991	5.52
279.205	6.05
279.419	6.05
279.633	5.19
279.847	4.58
280.061	4.44
280.275	4.02
280.489	4.3
280.703	4.65
280.917	4.76
281.131	4.84
281.344	4.26
281.558	4.39
281.772	4.19
281.986	4.13
282.2	3.58
282.414	3.26
282.627	3.5
282.841	3.35
283.055	3.11
283.269	2.98
283.482	3.16
283.696	3.11
283.91	2.84
284.123	3.51
284.337	3.41
284.551	4.06
284.764	4.58
284.978	4.95
285.192	5
285.405	5.18
285.619	5.36
285.833	5.17
286.046	5.7
286.26	5.75
286.473	5.2
286.687	5.48
286.9	5.52
287.114	4.91
287.327	4.77
287.541	4.66
287.754	4.13
287.968	3.93
288.181	4.26
288.395	4.24
288.608	4.41
288.822	4.46
289.035	4.38
289.248	4.02
289.462	4.19
289.675	4.11
289.889	4.43
290.102	4.5
290.315	4.43
290.529	4.13
290.742	3.89
290.955	3.72
291.169	4.1
291.382	4.33
291.595	4.11
291.808	4.38
292.022	4.29
292.235	4.27
292.448	4.4
292.661	4.86
292.875	5.4
293.088	5.51
293.301	5.61
293.514	5.48
293.727	5.34
293.94	5.57
294.153	5.47
294.367	5.63
294.58	5.55
294.793	5.61
295.006	6.01
295.219	5.73
295.432	5.83
295.645	5.86
295.858	5.73
296.071	6
296.284	6.13
296.497	6.14
296.71	6.05
296.923	6.13
297.136	6.31
297.349	5.87
297.562	5.98
297.775	5.72
297.988	5.9
298.201	5.91
298.414	5.71
298.626	5.7
298.839	5.48
299.052	5.88
299.265	5.79
299.478	5.71
299.691	5.42
299.903	5.39
300.116	5.97
300.329	5.97
300.542	6.41
300.755	7.01
300.967	7.21
301.18	7.85
301.393	7.6
301.605	7.85
301.818	8.11
302.031	8.22
302.243	8.22
302.456	8.26
302.669	8.03
302.881	8.1
303.094	7.59
303.307	7.55
303.519	7.48
303.732	7.38
303.944	7.39
304.157	7.31
304.37	7.35
304.582	7.44
304.795	7.53
305.007	7.94
305.22	7.8
305.432	7.72
305.645	7.53
305.857	7.27
306.069	7.57
306.282	7.55
306.494	7.85
306.707	8.13
306.919	8.09
307.132	7.99
307.344	8.05
307.556	8.14
307.769	7.85
307.981	8.09
308.193	8.36
308.406	8.13
308.618	8.18
308.83	8.02
309.043	7.95
309.255	8.14
309.467	8.4
309.679	8.16
309.892	8.17
310.104	8.45
310.316	8.31
310.528	8.47
310.74	8.75
310.953	8.79
311.165	8.6
311.377	9.14
311.589	9.18
311.801	8.81
312.013	8.82
312.225	8.22
312.437	8.11
312.649	8.49
312.862	8.18
313.074	8.41
313.286	7.85
313.498	7.89
313.71	7.46
313.922	7.62
314.134	7.83
314.346	7.73
314.558	8.33
314.77	8.8
314.982	8.79
315.193	8.95
315.405	8.45
315.617	8.96
315.829	9.18
316.041	9.53
316.253	9.22
316.465	9.32
316.677	9.39
316.888	9.43
317.1	9.38
317.312	9.2
317.524	8.97
317.736	8.89
317.947	9.05
318.159	8.93
318.371	8.53
318.583	8.96
318.794	8.94
319.006	9.17
319.218	9.02
319.43	8.32
319.641	8.72
319.853	9.29
320.064	9.4
320.276	9.23
320.488	9.18
320.699	9.49
320.911	9.55
321.123	9.78
321.334	10.35
321.546	10.94
321.757	11.56
321.969	11.32
322.18	11.07
322.392	11.68
322.603	12.25
322.815	12.75
323.026	12.48
323.238	12.42
323.449	12.37
323.661	12.68
323.872	12.83
324.083	12.63
324.295	12.78
324.506	13.59
324.718	13.71
324.929	13.9
325.14	14.03
325.352	14.49
325.563	14.55
325.774	14.96
325.986	14.89
326.197	15.13
326.408	15.72
326.62	16.11
326.831	16.27
327.042	16.05
327.253	16.16
327.464	16.5
327.676	16.64
327.887	17.03
328.098	16.83
328.309	16.74
328.52	17.4
328.732	17.66
328.943	17.46
329.154	17.59
329.365	18.13
329.576	17.99
329.787	18.11
329.998	18.84
330.209	19.31
330.42	20.02
330.631	20.46
330.842	19.85
331.053	20.01
331.264	20.41
331.475	20.12
331.686	20.29
331.897	20.64
332.108	20.68
332.319	20.39
332.53	20.24
332.741	20.26
332.952	20.22
333.163	20.49
333.374	20.81
333.585	21.1
333.795	21.52
334.006	21.34
334.217	21.5
334.428	21.66
334.639	21.91
334.849	22.02
335.06	22
335.271	22.03
335.482	21.92
335.692	21.99
335.903	22.18
336.114	21.94
336.325	22.56
336.535	22.78
336.746	22.82
336.957	22.84
337.167	22.78
337.378	23.25
337.589	23.19
337.799	23.45
338.01	23.21
338.22	23.34
338.431	23.47
338.642	23.15
338.852	23.08
339.063	23.19
339.273	23.17
339.484	23.37
339.694	22.75
339.905	23.44
340.115	23.37
340.326	23.65
340.536	23.34
340.746	23.33
340.957	23.29
341.167	23
341.378	22.83
341.588	22.6
341.799	22.49
342.009	22.42
342.219	21.6
342.43	21.71
342.64	21.16
342.85	21.05
343.061	21.49
343.271	21.27
343.481	21.54
343.691	21.77
343.902	22.1
344.112	22.05
344.322	22.19
344.532	22.49
344.743	22.14
344.953	22.77
345.163	22.89
345.373	22.59
345.583	22.8
345.793	22.8
346.004	22.49
346.214	22.45
346.424	22.5
346.634	22.58
346.844	22.89
347.054	23.43
347.264	23.18
347.474	23.48
347.684	23.56
347.894	23.57
348.104	23.53
348.314	23.62
348.524	23.31
348.734	23.19
348.944	23.16
349.154	22.75
349.364	22.55
349.574	22.62
349.784	22.49
349.994	22.37
350.204	22.64
350.413	22.84
350.623	22.93
350.833	23.18
351.043	23.18
351.253	23.09
351.463	22.93
351.672	23.21
351.882	23.15
352.092	23.18
352.302	23.2
352.511	22.94
352.721	22.67
352.931	22.42
353.141	22.43
353.35	22.61
353.56	22.91
353.77	23.24
353.979	23.12
354.189	23.26
354.399	23.25
354.608	23.35
354.818	23.31
355.027	23.5
355.237	23.84
355.447	23.75
355.656	23.49
355.866	23.16
356.075	22.98
356.285	22.68
356.494	22.45
356.704	22.24
356.913	22.23
357.123	22.13
357.332	21.75
357.542	21.49
357.751	21.67
357.96	22
358.17	22.26
358.379	22.58
358.589	22.77
358.798	22.79
359.007	22.77
359.217	22.71
359.426	22.71
359.635	22.82
359.845	22.93
360.054	22.73
360.263	22.42
360.472	22.1
360.682	21.83
360.891	21.98
361.1	21.97
361.309	21.87
361.519	21.75
361.728	22.07
361.937	22.33
362.146	22.24
362.355	22.46
362.564	22.67
362.774	22.93
362.983	23.01
363.192	22.72
363.401	22.55
363.61	22.72
363.819	22.88
364.028	22.52
364.237	22.15
364.446	22.22
364.655	22.15
364.864	22.28
365.073	22.06
365.282	22.14
365.491	22.25
365.7	22.43
365.909	22.19
366.118	21.96
366.327	22.12
366.536	22.34
366.745	22.4
366.954	22.18
367.162	21.94
367.371	22.17
367.58	22.08
367.789	22.13
367.998	22.16
368.207	22.32
368.415	22.33
368.624	22.31
368.833	22.35
369.042	22.16
369.25	22.12
369.459	22.11
369.668	22.07
369.877	22.04
370.085	21.81
370.294	21.72
370.503	21.87
370.711	21.67
370.92	21.61
371.129	21.42
371.337	21.4
371.546	21.29
371.754	21.07
371.963	20.99
372.171	21.04
372.38	21.36
372.589	21.15
372.797	21.03
373.006	20.99
373.214	21.09
373.423	21.05
373.631	21.19
373.84	21.27
374.048	21.35
374.256	21.45
374.465	21.25
374.673	21.09
374.882	21.22
375.09	21.39
375.298	21.6
375.507	21.37
375.715	21.34
375.923	21.14
376.132	20.97
376.34	21.03
376.548	21
376.757	21.18
376.965	21.14
377.173	21.22
377.381	21.09
377.59	20.84
377.798	20.79
378.006	20.74
378.214	20.72
378.423	20.71
378.631	20.54
378.839	20.63
379.047	20.63
379.255	20.6
379.463	20.41
379.671	20.28
379.879	20.52
380.088	20.56
380.296	20.44
380.504	20.5
380.712	20.73
380.92	20.88
381.128	20.71
381.336	20.5
381.544	20.68
381.752	20.73
381.96	20.7
382.168	20.47
382.376	20.52
382.584	20.71
382.791	20.59
382.999	20.64
383.207	20.78
383.415	20.77
383.623	20.68
383.831	20.39
384.039	20.44
384.247	20.42
384.454	20.33
384.662	20.11
384.87	20.12
385.078	20.09
385.285	19.96
385.493	20.05
385.701	19.81
385.909	20.18
386.116	20.16
386.324	20.03
386.532	20.19
386.739	20.5
386.947	20.79
387.155	20.74
387.362	20.95
387.57	21.04
387.778	20.58
387.985	20.63
388.193	20.37
388.4	20.53
388.608	20.51
388.816	20.59
389.023	20.68
389.231	20.68
389.438	20.83
389.646	20.87
389.853	20.79
390.061	20.95
390.268	20.96
390.475	21.16
390.683	21.35
390.89	21.49
391.098	21.48
391.305	21.31
391.512	21.49
391.72	21.27
391.927	21.33
392.135	21.35
392.342	21.61
392.549	21.85
392.756	21.78
392.964	21.62
393.171	21.63
393.378	21.38
393.586	21.32
393.793	21.18
394	21.42
394.207	21.55
394.414	21.56
394.622	21.22
394.829	21.28
395.036	21.26
395.243	21.22
395.45	21.35
395.657	21.59
395.864	21.85
396.072	21.75
396.279	21.67
396.486	21.52
396.693	21.67
396.9	21.81
397.107	21.82
397.314	21.66
397.521	21.86
397.728	21.73
397.935	21.84
398.142	21.87
398.349	21.89
398.556	22.09
398.763	21.86
398.97	21.83
399.177	21.92
399.383	21.61
399.59	21.78
399.797	21.85
400.004	21.62
400.211	21.61
400.418	21.42
400.625	21.29
400.831	21.09
401.038	21.26
401.245	21.17
401.452	21.21
401.658	21.31
401.865	21.41
402.072	21.03
402.279	21.07
402.485	21.03
402.692	21.03
402.899	21.16
403.105	21.19
403.312	21.14
403.519	21.19
403.725	21.08
403.932	21.02
404.138	20.84
404.345	20.8
404.552	20.94
404.758	20.76
404.965	20.92
405.171	20.83
405.378	20.9
405.584	20.95
405.791	20.89
405.997	20.89
406.204	20.92
406.41	21.07
406.617	21.26
406.823	21.18
407.029	21.26
407.236	21.11
407.442	20.95
407.649	20.78
407.855	20.85
408.061	20.93
408.268	20.91
408.474	20.91
408.68	20.74
408.887	20.73
409.093	20.84
409.299	20.75
409.505	20.77
409.712	21.01
409.918	21.09
410.124	20.88
410.33	20.83
410.537	20.79
410.743	20.89
410.949	20.89
411.155	21.01
411.361	20.96
411.567	20.96
411.773	20.99
411.98	20.85
412.186	20.73
412.392	20.7
412.598	20.68
412.804	20.74
413.01	20.72
413.216	20.76
413.422	20.55
413.628	20.47
413.834	20.47
414.04	20.3
414.246	20.38
414.452	20.42
414.658	20.47
414.864	20.49
415.07	20.32
415.275	20.26
415.481	20.28
415.687	20.3
415.893	20.35
416.099	20.22
416.305	20.11
416.511	20.03
416.716	19.91
416.922	19.72
417.128	19.61
417.334	19.66
417.539	19.62
417.745	19.65
417.951	19.51
418.157	19.34
418.362	19.41
418.568	19.52
418.774	19.51
418.979	19.55
419.185	19.64
419.391	19.72
419.596	19.75
419.802	19.66
420.008	19.54
420.213	20.15
420.419	20.2
420.624	20.17
420.83	20.15
421.035	20.07
421.241	20.02
421.446	19.93
421.652	19.7
421.857	19.6
422.063	19.66
422.268	19.62
422.474	19.08
422.679	19.01
422.885	19
423.09	18.97
423.295	18.98
423.501	18.93
423.706	19.01
423.911	19.15
424.117	19.12
424.322	19
424.527	19.03
424.733	18.99
424.938	18.99
425.143	18.95
425.349	18.95
425.554	18.89
425.759	18.87
425.964	18.83
426.169	18.73
426.375	18.78
426.58	18.78
426.785	18.73
426.99	18.65
427.195	18.78
427.4	18.74
427.605	18.63
427.811	18.62
428.016	18.67
428.221	18.69
428.426	18.69
428.631	18.7
428.836	18.75
429.041	18.83
429.246	18.87
429.451	18.82
429.656	18.82
429.861	18.98
430.066	18.97
430.271	18.94
430.476	18.9
430.681	18.84
430.886	18.77
431.09	18.89
431.295	18.8
431.5	18.7
431.705	18.53
431.91	18.65
432.115	18.65
432.32	18.74
432.524	18.7
432.729	18.67
432.934	18.66
433.139	18.69
433.343	18.44
433.548	18.52
433.753	18.6
433.958	18.65
434.162	18.51
434.367	18.4
434.572	18.36
434.776	18.49
434.981	18.45
435.186	18.33
435.39	18.33
435.595	18.46
435.799	18.33
436.004	18.36
436.209	18.34
436.413	18.4
436.618	18.42
436.822	18.46
437.027	18.39
437.231	18.47
437.436	18.6
437.64	18.63
437.845	18.56
438.049	18.55
438.253	18.55
438.458	18.62
438.662	18.57
438.867	18.54
439.071	18.45
439.275	18.44
439.48	18.43
439.684	18.49
439.888	18.34
440.093	18.44
440.297	18.44
440.501	18.38
440.706	18.28
440.91	18.28
441.114	18.27
441.318	18.28
441.523	18.28
441.727	18.24
441.931	18.21
442.135	18.28
442.339	18.21
442.543	18.24
442.748	18.25
442.952	18.29
443.156	18.22
443.36	18.2
443.564	18.25
443.768	18.2
443.972	18.16
444.176	18.11
444.38	18.1
444.584	18.1
444.788	18.1
444.992	18.08
445.196	18.01
445.4	18
445.604	17.93
445.808	17.82
446.012	17.83
446.216	17.81
446.42	17.77
446.624	17.77
446.828	17.72
447.032	17.65
447.235	17.64
447.439	17.73
447.643	17.7
447.847	17.74
448.051	17.77
448.254	17.87
448.458	17.88
448.662	17.9
448.866	17.92
449.069	17.94
449.273	17.93
449.477	18.03
449.681	18
449.884	17.96
450.088	17.9
450.292	17.79
450.495	17.7
450.699	17.64
450.902	17.55
451.106	17.53
451.31	17.46
451.513	17.47
451.717	17.3
451.92	17.29
452.124	17.32
452.327	17.28
452.531	17.35
452.734	17.28
452.938	17.34
453.141	17.28
453.345	17.3
453.548	17.27
453.752	17.21
453.955	17.29
454.158	17.27
454.362	17.15
454.565	17.23
454.769	17.22
454.972	17.19
455.175	17.21
455.379	17.37
455.582	17.25
455.785	17.27
455.988	17.34
456.192	17.43
456.395	17.37
456.598	17.57
456.801	17.53
457.005	17.54
457.208	17.57
457.411	17.62
457.614	17.6
457.817	17.63
458.021	17.59
458.224	17.6
458.427	17.58
458.63	17.65
458.833	17.63
459.036	17.64
459.239	17.59
459.442	17.65
459.645	17.58
459.848	17.57
460.051	17.49
460.254	17.58
460.457	17.61
460.66	17.58
460.863	17.5
461.066	17.5
461.269	17.49
461.472	17.49
461.675	17.47
461.878	17.67
462.081	17.63
462.284	17.86
462.486	17.86
462.689	17.89
462.892	17.92
