Data from 2938471_Reflection_1.txt Node
Date: Wed Jun 17 13:33:23 EDT 2015
User: robert
Spectrometer: USB4E03002
Autoset integration time: false
Trigger mode: 4
Integration Time (sec): 1.000000E-1
Scans to average: 10
Electric dark correction enabled: true
Nonlinearity correction enabled: false
Boxcar width: 5
Stray light correction enabled: false
XAxis mode: Wavelengths
Stop averaging: false
Number of Pixels in Spectrum: 3648
>>>>>Begin Spectral Data<<<<<
177.575	-27.78
177.794	24.44
178.014	5.1
178.233	18.26
178.452	22
178.672	21.59
178.891	101.78
179.11	-29.31
179.33	-5.24
179.549	14.74
179.768	38.46
179.987	30.32
180.207	22.81
180.426	39.05
180.645	37.85
180.864	30.76
181.084	62.98
181.303	95.23
181.522	-66.67
181.741	53.75
181.96	43.57
182.179	33.42
182.398	13.73
182.618	-9.03
182.837	14.35
183.056	-9.1
183.275	-44.04
183.494	34.78
183.713	27.59
183.932	50.42
184.151	8.04
184.37	66.62
184.589	110.09
184.808	111.19
185.027	122.96
185.246	206.22
185.465	156.45
185.684	201.46
185.903	238.13
186.122	315.37
186.341	2059.37
186.56	2055.31
186.779	239.78
186.998	576.34
187.216	-87.05
187.435	-446.67
187.654	3505.81
187.873	-438.48
188.092	105.63
188.311	260.44
188.53	282.99
188.748	135.48
188.967	525.63
189.186	50.99
189.405	-6874.19
189.623	220.91
189.842	17.8
190.061	56.69
190.28	169.01
190.498	-64.88
190.717	-344.24
190.936	1176.6
191.154	384.92
191.373	228.64
191.592	275.95
191.81	316.43
192.029	240.04
192.248	488.65
192.466	-413.18
192.685	-357.1
192.904	135.86
193.122	219.58
193.341	159.4
193.559	232.53
193.778	183.85
193.996	223.79
194.215	999.1
194.433	302.53
194.652	61.88
194.87	44.22
195.089	43.31
195.307	13.09
195.526	23.77
195.744	-27.73
195.963	21.64
196.181	77.06
196.399	72.9
196.618	67.56
196.836	87.85
197.055	206.66
197.273	441.28
197.491	259.18
197.71	191.61
197.928	225.51
198.146	336.08
198.365	428.96
198.583	4700
198.801	-142.83
199.019	-237.51
199.238	-391.67
199.456	-108.07
199.674	-97.22
199.892	-606.48
200.111	-597.25
200.329	654.78
200.547	7816.44
200.765	-337.65
200.983	-366.89
201.202	509.55
201.42	521.87
201.638	374.14
201.856	215.38
202.074	185.89
202.292	233.46
202.51	179.51
202.728	265.46
202.946	134.93
203.165	121.69
203.383	116.68
203.601	77.42
203.819	73.92
204.037	82.86
204.255	121.63
204.473	639.86
204.691	286.82
204.909	739.61
205.127	424.54
205.345	517.05
205.562	199.36
205.78	281.02
205.998	-709.12
206.216	-939.34
206.434	-986.03
206.652	296.07
206.87	237.54
207.088	210.08
207.306	63.6
207.523	-10.91
207.741	11.9
207.959	-3.17
208.177	-18.07
208.395	-16.78
208.612	-47.71
208.83	-51.74
209.048	-70.63
209.266	-49.31
209.483	-52.37
209.701	-59.76
209.919	-66.67
210.136	-28
210.354	-20.32
210.572	-14.23
210.79	-5.75
211.007	16.52
211.225	23.56
211.442	35.67
211.66	18.14
211.878	14.35
212.095	26.23
212.313	25.52
212.53	18.58
212.748	26.65
212.966	33.45
213.183	22.2
213.401	18.37
213.618	21.94
213.836	8.78
214.053	15.54
214.271	18.33
214.488	17.16
214.705	17.14
214.923	29.21
215.14	1
215.358	0.94
215.575	-2.17
215.793	-150.57
216.01	-24.98
216.227	30.12
216.445	24.83
216.662	6.7
216.879	9.89
217.097	11.29
217.314	16.01
217.531	29.33
217.749	39.82
217.966	47.78
218.183	57.88
218.4	51.12
218.618	44.74
218.835	56.08
219.052	71.02
219.269	64.75
219.487	51.1
219.704	58.39
219.921	52.4
220.138	41.74
220.355	40.01
220.572	45.09
220.79	49.79
221.007	39.66
221.224	42.47
221.441	44.91
221.658	47.34
221.875	55.62
222.092	47.68
222.309	41.22
222.526	40.56
222.743	27.18
222.96	22.59
223.177	15.11
223.394	13.6
223.611	6.8
223.828	15.23
224.045	17.59
224.262	17.61
224.479	18.97
224.696	18.15
224.913	17.48
225.13	15.44
225.347	11.58
225.564	13.75
225.781	13.1
225.997	12.1
226.214	10.65
226.431	9.25
226.648	8.17
226.865	7.67
227.082	7.32
227.298	8.6
227.515	8.66
227.732	8.76
227.949	7.52
228.165	6.82
228.382	8.37
228.599	7.73
228.816	7.64
229.032	7.57
229.249	5.99
229.466	5.1
229.682	2.96
229.899	3.12
230.116	3.01
230.332	3.33
230.549	4.31
230.765	1.07
230.982	-0.3
231.199	-1.56
231.415	-2.38
231.632	-1.14
231.848	3.06
232.065	2.74
232.281	3.22
232.498	3.72
232.714	4.36
232.931	5.33
233.147	4.95
233.364	5.85
233.58	5.81
233.797	7.87
234.013	8.78
234.23	7.1
234.446	8.12
234.662	9.23
234.879	10.71
235.095	12.18
235.312	10.41
235.528	11.49
235.744	9.19
235.961	11.68
236.177	9.03
236.393	7.05
236.61	8.59
236.826	7.16
237.042	6.08
237.258	4.1
237.475	2.13
237.691	3.21
237.907	3.25
238.123	6.3
238.339	4.16
238.556	4.32
238.772	4.99
238.988	2.78
239.204	3.67
239.42	4.57
239.636	4.93
239.853	3.6
240.069	4.07
240.285	3.69
240.501	2.75
240.717	3.16
240.933	3.24
241.149	3.4
241.365	3.69
241.581	3.61
241.797	2.88
242.013	2.6
242.229	4.05
242.445	3.2
242.661	2.84
242.877	3.72
243.093	3.71
243.309	4.37
243.525	4.58
243.741	5.51
243.957	5.89
244.173	5.5
244.388	5.4
244.604	4.87
244.82	5.43
245.036	5.23
245.252	4.84
245.468	4.76
245.683	4.93
245.899	4.45
246.115	4.32
246.331	3.84
246.547	4.05
246.762	3.78
246.978	3.99
247.194	3.45
247.409	3.47
247.625	3.36
247.841	3.72
248.057	2.78
248.272	3.07
248.488	2.96
248.703	3.9
248.919	3.59
249.135	3.38
249.35	2.18
249.566	3.58
249.782	3.62
249.997	4.05
250.213	3.35
250.428	3.5
250.644	3.08
250.859	3.31
251.075	2.85
251.29	2.77
251.506	3.47
251.721	4.49
251.937	3.19
252.152	2.79
252.368	2.87
252.583	2.2
252.798	3.17
253.014	3.56
253.229	3.07
253.445	3.35
253.66	4.31
253.875	4.86
254.091	3.82
254.306	4.13
254.521	5.34
254.737	4.92
254.952	5.96
255.167	4.58
255.383	4.89
255.598	4.64
255.813	4.52
256.028	4.52
256.244	4.11
256.459	4.86
256.674	4.77
256.889	4.16
257.104	3.71
257.32	3.61
257.535	3.42
257.75	2.93
257.965	3
258.18	2.71
258.395	2.73
258.61	2.77
258.826	2.03
259.041	1.98
259.256	2.03
259.471	2.12
259.686	1.91
259.901	1.98
260.116	2.37
260.331	2.48
260.546	2.19
260.761	1.62
260.976	1.19
261.191	1.55
261.406	1.38
261.621	1.43
261.836	1.7
262.05	1.92
262.265	2.12
262.48	1.38
262.695	0.94
262.91	1.82
263.125	2.68
263.34	3.17
263.555	4.15
263.769	4.62
263.984	4.58
264.199	4.62
264.414	3.96
264.629	4.47
264.843	4.74
265.058	4.21
265.273	4.46
265.488	4.19
265.702	4.36
265.917	3.69
266.132	3.36
266.346	3.04
266.561	2.55
266.776	3.14
266.99	2.72
267.205	2.82
267.42	3.33
267.634	2.84
267.849	2.37
268.063	1.49
268.278	1.95
268.492	2.36
268.707	2.56
268.922	2.61
269.136	2.44
269.351	2.24
269.565	1.9
269.78	1.54
269.994	1.71
270.209	2.29
270.423	2.59
270.637	2.36
270.852	2.31
271.066	2.15
271.281	2.2
271.495	2.19
271.709	2.74
271.924	2.78
272.138	3
272.353	3.27
272.567	2.17
272.781	2.09
272.996	1.84
273.21	1.7
273.424	1.72
273.638	1.9
273.853	2.03
274.067	1.86
274.281	2.03
274.495	2.47
274.71	1.88
274.924	2.97
275.138	2.91
275.352	3.76
275.566	3.43
275.781	3.8
275.995	2.92
276.209	3.62
276.423	3.1
276.637	3.08
276.851	2.4
277.065	2.37
277.279	2.64
277.493	2.78
277.707	2.27
277.921	2.27
278.135	2.09
278.349	2.46
278.563	1.35
278.777	1.69
278.991	1.74
279.205	1.87
279.419	1.77
279.633	1.05
279.847	1.63
280.061	1.82
280.275	2.1
280.489	1.88
280.703	2.89
280.917	3.23
281.131	3.41
281.344	3.03
281.558	3.01
281.772	3.12
281.986	3.34
282.2	2.92
282.414	2.49
282.627	2.32
282.841	2.44
283.055	1.91
283.269	1.78
283.482	1.45
283.696	1.7
283.91	1.88
284.123	1.98
284.337	2.28
284.551	2.4
284.764	2.46
284.978	2.54
285.192	2.45
285.405	2.59
285.619	2.51
285.833	2.5
286.046	2.89
286.26	2.64
286.473	2.91
286.687	2.38
286.9	2.3
287.114	2.59
287.327	2.65
287.541	3.12
287.754	2.96
287.968	3.08
288.181	2.87
288.395	2.92
288.608	3.09
288.822	3.04
289.035	3.7
289.248	3.83
289.462	3.81
289.675	3.53
289.889	3.42
290.102	3.33
290.315	3.49
290.529	4.22
290.742	3.86
290.955	4.12
291.169	4.18
291.382	3.93
291.595	4.13
291.808	4.26
292.022	4.88
292.235	4.98
292.448	4.54
292.661	4.51
292.875	4.08
293.088	4.41
293.301	4.54
293.514	4.41
293.727	4.23
293.94	4.13
294.153	4.11
294.367	4.25
294.58	4.15
294.793	5.01
295.006	5.45
295.219	5.59
295.432	5.57
295.645	5.24
295.858	5.23
296.071	5.55
296.284	5.71
296.497	6.08
296.71	5.91
296.923	5.87
297.136	5.83
297.349	5.68
297.562	5.89
297.775	6.17
297.988	6.71
298.201	7.16
298.414	6.97
298.626	6.84
298.839	6.53
299.052	6.46
299.265	6.29
299.478	6.15
299.691	6
299.903	5.88
300.116	5.67
300.329	5.5
300.542	5.51
300.755	5.94
300.967	5.9
301.18	6.48
301.393	6.82
301.605	7.55
301.818	7.44
302.031	7.42
302.243	7.45
302.456	7.69
302.669	7.79
302.881	7.52
303.094	7.44
303.307	7.68
303.519	7.02
303.732	7.07
303.944	7.07
304.157	7.09
304.37	7.36
304.582	7.25
304.795	7.11
305.007	7.07
305.22	7.25
305.432	7.05
305.645	6.98
305.857	7.3
306.069	7.44
306.282	7.22
306.494	7.58
306.707	7.77
306.919	8.19
307.132	8.14
307.344	8.27
307.556	8.34
307.769	8.53
307.981	8.52
308.193	8.3
308.406	8.32
308.618	8.4
308.83	8.4
309.043	8.09
309.255	7.84
309.467	7.91
309.679	7.97
309.892	7.52
310.104	7.36
310.316	7.18
310.528	7.63
310.74	7.62
310.953	7.53
311.165	7.46
311.377	7.86
311.589	7.92
311.801	7.96
312.013	7.86
312.225	8.37
312.437	8.41
312.649	8.62
312.862	8.7
313.074	8.48
313.286	8.77
313.498	8.52
313.71	8.21
313.922	8.5
314.134	8.62
314.346	8.37
314.558	8.31
314.77	8.46
314.982	8.54
315.193	8.43
315.405	8.33
315.617	8.42
315.829	8.62
316.041	8.57
316.253	8.79
316.465	8.88
316.677	9
316.888	9.51
317.1	9.83
317.312	9.82
317.524	9.37
317.736	9.41
317.947	9.29
318.159	9.41
318.371	9.45
318.583	9.25
318.794	9.2
319.006	9.24
319.218	8.3
319.43	8.23
319.641	8.69
319.853	9.13
320.064	9.69
320.276	9.87
320.488	9.74
320.699	9.43
320.911	9.9
321.123	9.71
321.334	10.29
321.546	10.98
321.757	10.77
321.969	10.25
322.18	10.15
322.392	10.19
322.603	10.34
322.815	10.12
323.026	10.75
323.238	10.35
323.449	10.86
323.661	10.38
323.872	10.85
324.083	11.66
324.295	12.24
324.506	12.48
324.718	12.33
324.929	12.51
325.14	13.09
325.352	13.86
325.563	14.72
325.774	14.73
325.986	15.33
326.197	15.3
326.408	15.1
326.62	15.35
326.831	15.64
327.042	15.88
327.253	16.07
327.464	16.65
327.676	16.42
327.887	16.14
328.098	16.98
328.309	17.36
328.52	17.55
328.732	17.77
328.943	17.78
329.154	18.21
329.365	18.92
329.576	19.21
329.787	19.46
329.998	19.61
330.209	19.77
330.42	19.42
330.631	19.2
330.842	19.38
331.053	19.58
331.264	20.1
331.475	20.25
331.686	20.25
331.897	20.44
332.108	20.25
332.319	20.53
332.53	20.78
332.741	20.8
332.952	21.35
333.163	21.91
333.374	22.48
333.585	22.58
333.795	23.04
334.006	23.41
334.217	23.66
334.428	24.26
334.639	24.39
334.849	25.03
335.06	25.36
335.271	25.27
335.482	25.15
335.692	25.33
335.903	25.59
336.114	25.37
336.325	25.25
336.535	25.71
336.746	25.43
336.957	25.39
337.167	25.06
337.378	25.15
337.589	25.3
337.799	24.97
338.01	24.66
338.22	24.49
338.431	24.3
338.642	24.22
338.852	23.84
339.063	23.98
339.273	23.72
339.484	23.63
339.694	23.77
339.905	23.76
340.115	24.04
340.326	24.13
340.536	24.05
340.746	24.16
340.957	24.27
341.167	23.99
341.378	24.04
341.588	24.45
341.799	24.21
342.009	23.95
342.219	23.79
342.43	23.96
342.64	23.69
342.85	23.67
343.061	23.84
343.271	23.83
343.481	23.95
343.691	24.01
343.902	23.79
344.112	24.05
344.322	24.34
344.532	24.53
344.743	24.44
344.953	24.66
345.163	24.69
345.373	24.57
345.583	24.35
345.793	24.35
346.004	24.18
346.214	24.21
346.424	24.08
346.634	24.04
346.844	24.08
347.054	24
347.264	23.82
347.474	23.78
347.684	23.76
347.894	24.11
348.104	23.99
348.314	23.92
348.524	23.94
348.734	24.38
348.944	24.15
349.154	24.2
349.364	24.3
349.574	24.21
349.784	24.45
349.994	24.38
350.204	24.3
350.413	24.3
350.623	24.27
350.833	24
351.043	23.6
351.253	23.65
351.463	23.5
351.672	23.47
351.882	23.69
352.092	23.27
352.302	23.44
352.511	23.33
352.721	23.67
352.931	23.79
353.141	23.93
353.35	23.8
353.56	24.08
353.77	24.16
353.979	23.81
354.189	23.73
354.399	23.96
354.608	23.93
354.818	24.27
355.027	24.12
355.237	23.64
355.447	23.49
355.656	23.61
355.866	23.23
356.075	23.33
356.285	23.63
356.494	23.63
356.704	23.5
356.913	23.29
357.123	23.16
357.332	23.12
357.542	23.35
357.751	23.8
357.96	23.98
358.17	24.26
358.379	24.08
358.589	24.04
358.798	23.94
359.007	23.69
359.217	23.95
359.426	23.73
359.635	23.83
359.845	23.92
360.054	23.68
360.263	23.36
360.472	23.1
360.682	23.21
360.891	23.09
361.1	23.19
361.309	23.38
361.519	23.11
361.728	23.28
361.937	23.19
362.146	23.18
362.355	23.02
362.564	23.45
362.774	23.39
362.983	23.23
363.192	23.35
363.401	23.39
363.61	23.43
363.819	23.71
364.028	23.72
364.237	23.69
364.446	23.75
364.655	23.83
364.864	23.57
365.073	23.59
365.282	23.68
365.491	23.76
365.7	23.64
365.909	23.63
366.118	23.5
366.327	23.38
366.536	23.84
366.745	23.96
366.954	24.11
367.162	24.01
367.371	24.09
367.58	24.23
367.789	24.04
367.998	24.17
368.207	24.27
368.415	23.98
368.624	23.76
368.833	23.32
369.042	23.26
369.25	23.07
369.459	23.21
369.668	23.29
369.877	23.14
370.085	23.3
370.294	23.1
370.503	23.01
370.711	23.47
370.92	23.54
371.129	23.37
371.337	23.1
371.546	22.94
371.754	22.67
371.963	22.49
372.171	22.56
372.38	22.2
372.589	22.12
372.797	22.25
373.006	21.88
373.214	22.01
373.423	22.1
373.631	22.38
373.84	22.75
374.048	23.13
374.256	23.3
374.465	23
374.673	23.18
374.882	23.47
375.09	23.43
375.298	23.47
375.507	23.47
375.715	23.43
375.923	23.37
376.132	23.38
376.34	23.29
376.548	23.18
376.757	23.31
376.965	23.23
377.173	22.93
377.381	22.76
377.59	22.84
377.798	22.99
378.006	22.87
378.214	22.93
378.423	22.85
378.631	22.63
378.839	22.77
379.047	22.91
379.255	23.16
379.463	23.26
379.671	23.32
379.879	23.12
380.088	22.91
380.296	23.08
380.504	22.97
380.712	22.95
380.92	23
381.128	22.75
381.336	22.58
381.544	22.31
381.752	22.41
381.96	22.55
382.168	22.82
382.376	22.5
382.584	22.34
382.791	22.39
382.999	22.42
383.207	22.46
383.415	22.7
383.623	22.81
383.831	22.85
384.039	22.74
384.247	22.58
384.454	22.32
384.662	22.44
384.87	22.57
385.078	22.22
385.285	22.15
385.493	22.06
385.701	21.93
385.909	21.95
386.116	22.12
386.324	22.09
386.532	21.96
386.739	22
386.947	22.15
387.155	22.09
387.362	22.32
387.57	22.39
387.778	22.5
387.985	22.72
388.193	22.66
388.4	22.75
388.608	22.95
388.816	23.23
389.023	23.36
389.231	23.48
389.438	23.62
389.646	23.76
389.853	23.85
390.061	23.86
390.268	23.76
390.475	23.88
390.683	23.64
390.89	23.49
391.098	23.39
391.305	23.44
391.512	23.42
391.72	23.35
391.927	23.28
392.135	23.27
392.342	23.27
392.549	23.25
392.756	23.16
392.964	23.47
393.171	23.58
393.378	23.63
393.586	23.78
393.793	23.78
394	23.92
394.207	23.93
394.414	24.01
394.622	24.06
394.829	24.16
395.036	24.18
395.243	24.02
395.45	24.11
395.657	24.2
395.864	24.09
396.072	24.33
396.279	24.33
396.486	24.38
396.693	24.44
396.9	24.41
397.107	24.41
397.314	24.51
397.521	24.59
397.728	24.74
397.935	24.78
398.142	24.73
398.349	24.46
398.556	24.5
398.763	24.64
398.97	24.54
399.177	24.54
399.383	24.6
399.59	24.61
399.797	24.57
400.004	24.4
400.211	24.44
400.418	24.53
400.625	24.78
400.831	24.61
401.038	24.5
401.245	24.58
401.452	24.83
401.658	24.85
401.865	24.96
402.072	24.89
402.279	24.85
402.485	24.66
402.692	24.57
402.899	24.41
403.105	24.55
403.312	24.71
403.519	24.61
403.725	24.57
403.932	24.54
404.138	24.5
404.345	24.64
404.552	24.59
404.758	24.83
404.965	24.89
405.171	25.01
405.378	24.89
405.584	24.83
405.791	24.91
405.997	24.84
406.204	24.74
406.41	24.75
406.617	24.67
406.823	24.79
407.029	24.59
407.236	24.53
407.442	24.41
407.649	24.54
407.855	24.53
408.061	24.49
408.268	24.32
408.474	24.4
408.68	24.46
408.887	24.56
409.093	24.42
409.299	24.58
409.505	24.58
409.712	24.61
409.918	24.67
410.124	24.56
410.33	24.57
410.537	24.76
410.743	24.75
410.949	24.61
411.155	24.53
411.361	24.56
411.567	24.42
411.773	24.44
411.98	24.42
412.186	24.29
412.392	24.27
412.598	24.31
412.804	24.32
413.01	24.23
413.216	24.16
413.422	24.09
413.628	24.28
413.834	24.37
414.04	24.22
414.246	24.13
414.452	24.11
414.658	24.1
414.864	24.07
415.07	24.2
415.275	24.21
415.481	24.18
415.687	24.21
415.893	24.14
416.099	23.93
416.305	23.96
416.511	23.95
416.716	23.91
416.922	23.88
417.128	23.81
417.334	23.71
417.539	23.58
417.745	23.52
417.951	23.38
418.157	23.34
418.362	23.41
418.568	23.32
418.774	23.35
418.979	23.38
419.185	23.28
419.391	23.24
419.596	23.08
419.802	23.06
420.008	23.04
420.213	23.08
420.419	23.02
420.624	23.03
420.83	23.06
421.035	22.96
421.241	22.94
421.446	22.95
421.652	22.88
421.857	22.88
422.063	22.92
422.268	22.91
422.474	22.86
422.679	22.81
422.885	22.7
423.09	22.67
423.295	22.69
423.501	22.6
423.706	22.54
423.911	22.53
424.117	22.45
424.322	22.39
424.527	22.33
424.733	22.29
424.938	22.25
425.143	22.3
425.349	22.3
425.554	22.34
425.759	22.3
425.964	22.29
426.169	22.27
426.375	22.35
426.58	22.32
426.785	22.23
426.99	22.24
427.195	22.23
427.4	22.07
427.605	22.07
427.811	21.91
428.016	21.91
428.221	22.03
428.426	22.13
428.631	22.23
428.836	22.3
429.041	22.32
429.246	22.25
429.451	22.26
429.656	22.43
429.861	22.5
430.066	22.58
430.271	22.53
430.476	22.55
430.681	22.44
430.886	22.35
431.09	22.33
431.295	22.45
431.5	22.4
431.705	22.35
431.91	22.29
432.115	22.2
432.32	22.06
432.524	21.96
432.729	21.83
432.934	21.79
433.139	21.73
433.343	21.64
433.548	21.61
433.753	21.65
433.958	21.8
434.162	21.74
434.367	21.7
434.572	21.68
434.776	21.77
434.981	21.88
435.186	21.93
435.39	21.95
435.595	22.03
435.799	21.92
436.004	21.97
436.209	21.89
436.413	21.91
436.618	21.99
436.822	22.13
437.027	22.17
437.231	22.09
437.436	22.14
437.64	22.05
437.845	21.96
438.049	21.98
438.253	21.98
438.458	22.05
438.662	22.07
438.867	22
439.071	21.93
439.275	21.82
439.48	21.8
439.684	21.75
439.888	21.78
440.093	21.8
440.297	21.83
440.501	21.72
440.706	21.65
440.91	21.49
441.114	21.48
441.318	21.48
441.523	21.56
441.727	21.59
441.931	21.55
442.135	21.57
442.339	21.64
442.543	21.51
442.748	21.59
442.952	21.38
443.156	21.47
443.36	21.56
443.564	21.56
443.768	21.55
443.972	21.53
444.176	21.51
444.38	21.47
444.584	21.38
444.788	21.43
444.992	21.41
445.196	21.47
445.4	21.4
445.604	21.28
445.808	21.23
446.012	21.15
446.216	21.16
446.42	21.07
446.624	21
446.828	20.96
447.032	20.85
447.235	20.82
447.439	20.82
447.643	20.83
447.847	20.73
448.051	20.7
448.254	20.72
448.458	20.66
448.662	20.68
448.866	20.7
449.069	20.65
449.273	20.79
449.477	20.77
449.681	20.78
449.884	20.84
450.088	20.91
450.292	20.85
450.495	20.72
450.699	20.84
450.902	20.85
451.106	20.96
451.31	21.04
451.513	21.04
451.717	20.89
451.92	20.82
452.124	20.67
452.327	20.63
452.531	20.61
452.734	20.71
452.938	20.56
453.141	20.5
453.345	20.46
453.548	20.34
453.752	20.28
453.955	20.32
454.158	20.32
454.362	20.38
454.565	20.41
454.769	20.57
454.972	20.54
455.175	20.55
455.379	20.57
455.582	20.59
455.785	20.5
455.988	20.4
456.192	20.46
456.395	20.49
456.598	20.55
456.801	20.6
457.005	20.5
457.208	20.56
457.411	20.55
457.614	20.53
457.817	20.58
458.021	20.7
458.224	20.81
458.427	20.83
458.63	20.81
458.833	20.81
459.036	20.77
459.239	20.81
459.442	20.74
459.645	20.74
459.848	20.81
460.051	20.81
460.254	20.87
460.457	20.81
460.66	20.79
460.863	20.87
461.066	20.86
461.269	20.93
