Data from 2938551_Reflection_3.txt Node
Date: Sun Jun 14 23:59:04 EDT 2015
User: robert
Spectrometer: USB4E03002
Autoset integration time: false
Trigger mode: 4
Integration Time (sec): 1.000000E-1
Scans to average: 10
Electric dark correction enabled: true
Nonlinearity correction enabled: false
Boxcar width: 5
Stray light correction enabled: false
XAxis mode: Wavelengths
Stop averaging: false
Number of Pixels in Spectrum: 3648
>>>>>Begin Spectral Data<<<<<
177.575	105.17
177.794	69.97
178.014	62.06
178.233	61.77
178.452	100.1
178.672	49.79
178.891	-13.48
179.11	224.92
179.33	241.01
179.549	98.66
179.768	75.33
179.987	50.82
180.207	35.77
180.426	-9.79
180.645	8.7
180.864	79.29
181.084	27.99
181.303	-43.19
181.522	271.74
181.741	-11.83
181.96	408.33
182.179	98.07
182.398	-33.14
182.618	9.49
182.837	219.86
183.056	181.82
183.275	70.09
183.494	-214.82
183.713	219.44
183.932	-170.17
184.151	-98.72
184.37	-92.83
184.589	-356.52
184.808	-221.27
185.027	-117.24
185.246	-112.06
185.465	-96.41
185.684	-192.69
185.903	-189.54
186.122	-110.05
186.341	-353.71
186.56	-491.77
186.779	419.73
186.998	284.76
187.216	247.02
187.435	248.82
187.654	177.54
187.873	201.05
188.092	166.74
188.311	108.32
188.53	110.86
188.748	160.22
188.967	142.32
189.186	111.74
189.405	78.22
189.623	95.96
189.842	91.1
190.061	138.88
190.28	166.76
190.498	176.84
190.717	197.55
190.936	702.41
191.154	521.75
191.373	3279.17
191.592	621.51
191.81	-122.72
192.029	-50.6
192.248	-24.34
192.466	12.64
192.685	27.76
192.904	36.24
193.122	33.91
193.341	65.54
193.559	30.97
193.778	-58.59
193.996	-31.9
194.215	-174.89
194.433	-178.51
194.652	-107.56
194.87	-220
195.089	2613.56
195.307	243.52
195.526	805.89
195.744	5548.87
195.963	-787.72
196.181	-2832.68
196.399	-1799.56
196.618	-2296.64
196.836	-4943.58
197.055	-626.87
197.273	-1329.52
197.491	-291.59
197.71	-70.18
197.928	-111.9
198.146	-138.55
198.365	-388.41
198.583	-814.5
198.801	1138.63
199.019	-782.95
199.238	13793.1
199.456	162.13
199.674	330.06
199.892	683.61
200.111	237.36
200.329	285.9
200.547	510.95
200.765	854.88
200.983	351.84
201.202	532.63
201.42	117.19
201.638	129.51
201.856	-31.85
202.074	247.56
202.292	-64.37
202.51	22.53
202.728	-39.25
202.946	-61.28
203.165	96.62
203.383	153.01
203.601	56.49
203.819	-118.91
204.037	-72.95
204.255	-121.63
204.473	-185.95
204.691	-117.19
204.909	-60.97
205.127	-90.22
205.345	-229.32
205.562	-257.83
205.78	-375.81
205.998	-606.37
206.216	-494.57
206.434	-6374.02
206.652	581.99
206.87	623.28
207.088	742.16
207.306	191.18
207.523	143.35
207.741	174.23
207.959	214.08
208.177	1866.92
208.395	362.81
208.612	277.57
208.83	-468.02
209.048	-124.85
209.266	-108.01
209.483	-120.75
209.701	-26.09
209.919	-45.98
210.136	-45.05
210.354	-106.72
210.572	-92.14
210.79	-58.8
211.007	-26.57
211.225	-14.53
211.442	-79.21
211.66	-109.95
211.878	-92.22
212.095	-65.94
212.313	10.21
212.53	-0.97
212.748	16.94
212.966	2.51
213.183	24.52
213.401	-12.89
213.618	-36.78
213.836	-39.96
214.053	-19.75
214.271	-30.06
214.488	-47.7
214.705	-77.2
214.923	-66.35
215.14	-60.54
215.358	-22.77
215.575	-50.85
215.793	-18.22
216.01	-35.03
216.227	11.26
216.445	0.74
216.662	6.4
216.879	12.58
217.097	18.47
217.314	11.85
217.531	16.19
217.749	6.47
217.966	9.09
218.183	-4.09
218.4	-0.06
218.618	-11.18
218.835	-9.39
219.052	-10.26
219.269	-17.23
219.487	-21.07
219.704	-20.3
219.921	-23.44
220.138	-26.16
220.355	-32.86
220.572	-42.69
220.79	-39.98
221.007	-40.6
221.224	-69.37
221.441	-48.73
221.658	-34.46
221.875	-25.51
222.092	-18.3
222.309	-25.95
222.526	-17.59
222.743	-28.8
222.96	-23.74
223.177	-21.72
223.394	-13.13
223.611	-3.97
223.828	-7.96
224.045	-6.09
224.262	-7.71
224.479	-13.11
224.696	-5.06
224.913	-6.22
225.13	2.12
225.347	1.81
225.564	2.38
225.781	1.72
225.997	1.62
226.214	2.26
226.431	3.65
226.648	2.85
226.865	4.56
227.082	3.34
227.298	4.21
227.515	4.04
227.732	5.14
227.949	5.43
228.165	5.62
228.382	7.37
228.599	7.09
228.816	6.47
229.032	7.13
229.249	7.15
229.466	7.7
229.682	7
229.899	6.4
230.116	5.74
230.332	3.85
230.549	0.86
230.765	-1.52
230.982	-0.64
231.199	-1.82
231.415	-2.49
231.632	-3.17
231.848	-3.43
232.065	-1.29
232.281	0.23
232.498	-0.14
232.714	-0.11
232.931	1.74
233.147	1.98
233.364	1.87
233.58	2.47
233.797	4.16
234.013	5.22
234.23	6.21
234.446	4.24
234.662	5.85
234.879	6.64
235.095	6.86
235.312	7.96
235.528	9.53
235.744	10.31
235.961	11.23
236.177	10.94
236.393	11.99
236.61	13.67
236.826	13.41
237.042	9.74
237.258	9.52
237.475	8.42
237.691	8.75
237.907	6.91
238.123	6.95
238.339	6.93
238.556	5.39
238.772	4.22
238.988	4.97
239.204	4.61
239.42	5.76
239.636	6.28
239.853	8.39
240.069	7.7
240.285	6.89
240.501	6.78
240.717	6.51
240.933	7.54
241.149	7.35
241.365	6.6
241.581	7
241.797	7.02
242.013	6.8
242.229	6.15
242.445	6.24
242.661	7.67
242.877	7.59
243.093	8.51
243.309	8.87
243.525	9.45
243.741	9.81
243.957	9.89
244.173	9.84
244.388	10.33
244.604	10.33
244.82	10.57
245.036	9.77
245.252	9.49
245.468	9.06
245.683	8.72
245.899	8.27
246.115	7.97
246.331	7.79
246.547	7.41
246.762	6.61
246.978	6.39
247.194	6.66
247.409	6.76
247.625	6.33
247.841	6.02
248.057	5.83
248.272	5.79
248.488	5.18
248.703	5.11
248.919	5.79
249.135	6.42
249.35	6.43
249.566	4.93
249.782	4.68
249.997	4.89
250.213	4.66
250.428	4.65
250.644	5.18
250.859	5.41
251.075	5.13
251.29	5.16
251.506	5.39
251.721	5.18
251.937	5.05
252.152	5.02
252.368	5.78
252.583	5.96
252.798	4.71
253.014	4.69
253.229	4.82
253.445	4.98
253.66	4.58
253.875	4.74
254.091	5.09
254.306	6.01
254.521	4.87
254.737	4.9
254.952	4.33
255.167	5.74
255.383	5.96
255.598	5.56
255.813	5.1
256.028	5.34
256.244	4.75
256.459	4.94
256.674	4.18
256.889	5.15
257.104	4.9
257.32	5.67
257.535	5.35
257.75	5.19
257.965	5.43
258.18	5.56
258.395	5.56
258.61	5.76
258.826	5.54
259.041	5.68
259.256	5.59
259.471	5.8
259.686	5.51
259.901	5.77
260.116	5.84
260.331	5.9
260.546	5.87
260.761	6.07
260.976	5.85
261.191	5.86
261.406	6.02
261.621	5.84
261.836	5.99
262.05	6.32
262.265	6.08
262.48	6.36
262.695	5.96
262.91	5.98
263.125	5.06
263.34	4.65
263.555	4.39
263.769	4.51
263.984	4.42
264.199	4.11
264.414	4.06
264.629	4.66
264.843	4.1
265.058	4.34
265.273	3.9
265.488	4.3
265.702	4.21
265.917	4.69
266.132	4.61
266.346	4.81
266.561	4.28
266.776	4.54
266.99	4.21
267.205	4.55
267.42	4.27
267.634	4.76
267.849	5.06
268.063	5.56
268.278	5.65
268.492	5.18
268.707	5.37
268.922	6.34
269.136	6.36
269.351	6.34
269.565	5.73
269.78	6.46
269.994	6.21
270.209	5.72
270.423	5.72
270.637	5.23
270.852	5.62
271.066	5.21
271.281	4.44
271.495	4.37
271.709	4.43
271.924	4.81
272.138	3.98
272.353	4.24
272.567	4.28
272.781	3.94
272.996	3.93
273.21	3.43
273.424	3.55
273.638	4
273.853	3.8
274.067	3.35
274.281	3.31
274.495	3.45
274.71	3.68
274.924	3.48
275.138	3.53
275.352	3.18
275.566	3.56
275.781	3.49
275.995	3.56
276.209	3.14
276.423	3.4
276.637	3.65
276.851	4.14
277.065	3.94
277.279	4.22
277.493	4.63
277.707	4.99
277.921	5.34
278.135	5.73
278.349	5.11
278.563	5.01
278.777	4.58
278.991	3.92
279.205	3.11
279.419	2.92
279.633	3.3
279.847	3.18
280.061	3.81
280.275	3.92
280.489	3.57
280.703	4.17
280.917	4.49
281.131	4.56
281.344	4.94
281.558	5.63
281.772	5.65
281.986	5.39
282.2	5.52
282.414	5.38
282.627	5.26
282.841	5.28
283.055	4.92
283.269	4.54
283.482	4.95
283.696	4.95
283.91	4.86
284.123	5.01
284.337	5.02
284.551	5.09
284.764	4.92
284.978	4.68
285.192	4.6
285.405	4.44
285.619	4.38
285.833	3.61
286.046	3.16
286.26	3.05
286.473	2.68
286.687	2.54
286.9	2.13
287.114	2.48
287.327	2.94
287.541	3.3
287.754	3.65
287.968	3.82
288.181	4.44
288.395	4.4
288.608	4.15
288.822	4.17
289.035	3.93
289.248	4.11
289.462	3.57
289.675	3.36
289.889	3.29
290.102	2.91
290.315	3.18
290.529	3.26
290.742	3.42
290.955	3.65
291.169	3.41
291.382	3.88
291.595	3.74
291.808	3.87
292.022	4.41
292.235	4.2
292.448	4.78
292.661	4.87
292.875	4.85
293.088	4.95
293.301	4.87
293.514	5.62
293.727	5.53
293.94	5.43
294.153	5.55
294.367	4.87
294.58	5.09
294.793	4.62
295.006	4.64
295.219	4.3
295.432	4.48
295.645	4.45
295.858	4.27
296.071	4.31
296.284	4.37
296.497	4.15
296.71	3.99
296.923	4
297.136	4.23
297.349	3.87
297.562	4.22
297.775	4
297.988	4.14
298.201	3.81
298.414	3.69
298.626	3.67
298.839	4.02
299.052	4.23
299.265	4.29
299.478	4.6
299.691	4.67
299.903	4.46
300.116	4.7
300.329	5.05
300.542	5.1
300.755	5.45
300.967	5.87
301.18	5.76
301.393	6.14
301.605	5.93
301.818	5.81
302.031	6.21
302.243	6.36
302.456	6.4
302.669	5.79
302.881	5.97
303.094	5.83
303.307	5.23
303.519	5.24
303.732	5.32
303.944	5.55
304.157	5.35
304.37	4.97
304.582	4.97
304.795	5.16
305.007	5.83
305.22	5.82
305.432	6.16
305.645	6.4
305.857	6.55
306.069	6.2
306.282	6.01
306.494	6.15
306.707	6.27
306.919	6.17
307.132	5.87
307.344	5.62
307.556	6.12
307.769	5.66
307.981	5.69
308.193	5.31
308.406	5.74
308.618	5.55
308.83	5.93
309.043	5.94
309.255	5.88
309.467	5.8
309.679	6.04
309.892	5.41
310.104	5.31
310.316	5.39
310.528	5.67
310.74	5.52
310.953	5.8
311.165	5.39
311.377	5.43
311.589	5.67
311.801	5.86
312.013	5.61
312.225	5.63
312.437	5.84
312.649	5.58
312.862	5.64
313.074	5.62
313.286	5.61
313.498	5.57
313.71	5.23
313.922	5.16
314.134	5.13
314.346	5.01
314.558	5.34
314.77	5.52
314.982	5.83
315.193	5.5
315.405	5.22
315.617	4.92
315.829	5.24
316.041	5.57
316.253	5.55
316.465	5.18
316.677	5.02
316.888	4.94
317.1	4.24
317.312	4.43
317.524	4.36
317.736	4.73
317.947	4.88
318.159	4.78
318.371	4.68
318.583	4.11
318.794	5.08
319.006	5.02
319.218	5.37
319.43	6.15
319.641	5.9
319.853	6.17
320.064	5.79
320.276	5.99
320.488	6.36
320.699	6.66
320.911	6.92
321.123	6.62
321.334	6.66
321.546	7.01
321.757	6.68
321.969	7.09
322.18	6.53
322.392	6.43
322.603	6.44
322.815	6.09
323.026	6.12
323.238	6.19
323.449	6.25
323.661	6.34
323.872	5.92
324.083	6.19
324.295	5.98
324.506	6.71
324.718	7.11
324.929	7.33
325.14	7.5
325.352	7.83
325.563	7.92
325.774	8.02
325.986	8.04
326.197	8.23
326.408	8.41
326.62	8.29
326.831	8.59
327.042	8.4
327.253	8.4
327.464	8.28
327.676	8.09
327.887	8.26
328.098	8.45
328.309	8.25
328.52	7.85
328.732	7.8
328.943	7.69
329.154	7.17
329.365	7.55
329.576	7.44
329.787	7.67
329.998	7.49
330.209	7.65
330.42	7.19
330.631	7.64
330.842	8.08
331.053	8.16
331.264	8.62
331.475	8.75
331.686	8.74
331.897	8.46
332.108	8.13
332.319	8.39
332.53	8.39
332.741	8.84
332.952	8.74
333.163	8.87
333.374	8.58
333.585	8.47
333.795	8.44
334.006	8.39
334.217	8.81
334.428	9.3
334.639	9.44
334.849	9.38
335.06	9.16
335.271	9.48
335.482	9.65
335.692	9.81
335.903	9.69
336.114	10.04
336.325	10.07
336.535	10.37
336.746	10.04
336.957	9.74
337.167	9.98
337.378	9.92
337.589	9.97
337.799	9.72
338.01	9.85
338.22	9.91
338.431	9.61
338.642	9.07
338.852	8.91
339.063	9.07
339.273	9.12
339.484	8.93
339.694	9.25
339.905	9.18
340.115	9.24
340.326	9.39
340.536	9.41
340.746	9.78
340.957	10.32
341.167	10.34
341.378	10.46
341.588	10.46
341.799	10.6
342.009	10.39
342.219	10.57
342.43	10.71
342.64	10.7
342.85	10.73
343.061	10.2
343.271	10.1
343.481	9.77
343.691	9.56
343.902	9.7
344.112	9.78
344.322	9.83
344.532	9.73
344.743	9.71
344.953	9.67
345.163	9.74
345.373	10.12
345.583	9.99
345.793	10.26
346.004	10.31
346.214	10.45
346.424	10.44
346.634	10.2
346.844	10.19
347.054	10.3
347.264	9.96
347.474	9.97
347.684	10.34
347.894	10.62
348.104	10.32
348.314	10.37
348.524	10.23
348.734	10.05
348.944	10.27
349.154	10.5
349.364	10.04
349.574	10.49
349.784	10.54
349.994	10.22
350.204	10.24
350.413	10.25
350.623	10.18
350.833	10.24
351.043	10.31
351.253	10.34
351.463	10.12
351.672	10.33
351.882	10.02
352.092	9.9
352.302	9.59
352.511	9.2
352.721	9.35
352.931	9.51
353.141	9.33
353.35	9.38
353.56	9.67
353.77	9.39
353.979	9.21
354.189	9.32
354.399	9.45
354.608	9.56
354.818	9.83
355.027	10.04
355.237	9.98
355.447	9.87
355.656	9.98
355.866	9.75
356.075	10
356.285	10.22
356.494	10.28
356.704	10.13
356.913	10.2
357.123	10.32
357.332	10.2
357.542	10.24
357.751	10.3
357.96	10.01
358.17	10.02
358.379	9.71
358.589	9.57
358.798	9.38
359.007	9.24
359.217	9.31
359.426	9.09
359.635	9.05
359.845	8.88
360.054	8.99
360.263	9.13
360.472	8.96
360.682	9.13
360.891	9.27
361.1	9.27
361.309	9.41
361.519	9.26
361.728	9.34
361.937	9.13
362.146	9.22
362.355	9.04
362.564	8.76
362.774	8.75
362.983	8.66
363.192	8.48
363.401	8.51
363.61	8.33
363.819	8.49
364.028	8.47
364.237	8.65
364.446	8.53
364.655	8.54
364.864	8.68
365.073	8.89
365.282	8.93
365.491	8.78
365.7	8.71
365.909	8.81
366.118	8.7
366.327	8.6
366.536	8.37
366.745	8.48
366.954	8.38
367.162	8.35
367.371	8.53
367.58	8.42
367.789	8.63
367.998	8.67
368.207	8.58
368.415	8.32
368.624	8.48
368.833	8.4
369.042	8.48
369.25	8.63
369.459	8.54
369.668	8.25
369.877	8.43
370.085	8.35
370.294	8.4
370.503	8.34
370.711	8.35
370.92	8.21
371.129	8.31
371.337	8.2
371.546	8.16
371.754	8.46
371.963	8.33
372.171	8.01
372.38	7.86
372.589	7.59
372.797	7.68
373.006	7.88
373.214	8.16
373.423	8.4
373.631	8.14
373.84	8.03
374.048	7.62
374.256	7.6
374.465	7.59
374.673	7.54
374.882	7.65
375.09	7.69
375.298	7.49
375.507	7.26
375.715	7
375.923	7.09
376.132	7.32
376.34	7.6
376.548	7.67
376.757	7.73
376.965	7.86
377.173	7.74
377.381	7.58
377.59	7.61
377.798	7.39
378.006	7.61
378.214	7.74
378.423	7.64
378.631	7.33
378.839	7.04
379.047	6.99
379.255	6.99
379.463	7.04
379.671	7.18
379.879	7.33
380.088	7.39
380.296	7.11
380.504	7.07
380.712	7
380.92	7.27
381.128	7.36
381.336	7.32
381.544	7.12
381.752	7.07
381.96	6.99
382.168	6.69
382.376	6.85
382.584	7.03
382.791	7
382.999	7.01
383.207	6.84
383.415	7.03
383.623	6.97
383.831	7.17
384.039	7.11
384.247	6.99
384.454	7.14
384.662	6.97
384.87	6.84
385.078	6.84
385.285	6.76
385.493	6.73
385.701	6.67
385.909	6.79
386.116	6.45
386.324	6.69
386.532	6.86
386.739	6.91
386.947	6.84
387.155	6.87
387.362	6.69
387.57	6.37
387.778	6.12
387.985	5.93
388.193	5.83
388.4	6.05
388.608	5.81
388.816	5.73
389.023	5.71
389.231	5.71
389.438	5.49
389.646	5.6
389.853	5.56
390.061	5.77
390.268	5.91
390.475	6
390.683	5.87
390.89	5.87
391.098	5.83
391.305	5.76
391.512	5.91
391.72	6
391.927	5.87
392.135	6.22
392.342	6.21
392.549	6.19
392.756	5.99
392.964	5.98
393.171	5.93
393.378	5.87
393.586	5.69
393.793	5.76
394	5.9
394.207	6.04
394.414	5.7
394.622	5.57
394.829	5.52
395.036	5.54
395.243	5.52
395.45	5.47
395.657	5.53
395.864	5.62
396.072	5.33
396.279	5.31
396.486	5.28
396.693	5.37
396.9	5.4
397.107	5.24
397.314	5.27
397.521	5.38
397.728	5.51
397.935	5.47
398.142	5.47
398.349	5.52
398.556	5.43
398.763	5.38
398.97	5.48
399.177	5.28
399.383	5.4
399.59	5.38
399.797	5.37
400.004	5.22
400.211	5.35
400.418	5.28
400.625	5.15
400.831	5.05
401.038	5.21
401.245	4.96
401.452	5.2
401.658	5.06
401.865	5.12
402.072	5.05
402.279	5.08
402.485	4.88
402.692	4.94
402.899	4.95
403.105	4.92
403.312	4.75
403.519	5.07
403.725	4.97
403.932	5.15
404.138	4.99
404.345	5.02
404.552	5.16
404.758	5.18
404.965	5.13
405.171	5.24
405.378	5.3
405.584	5.35
405.791	5.12
405.997	5.21
406.204	5.08
406.41	5.18
406.617	5.1
406.823	4.97
407.029	4.86
407.236	4.89
407.442	4.84
407.649	4.76
407.855	4.66
408.061	4.62
408.268	4.56
408.474	4.6
408.68	4.83
408.887	4.85
409.093	4.73
409.299	4.86
409.505	4.87
409.712	5.02
409.918	5.18
410.124	5.36
410.33	5.44
410.537	5.44
410.743	5.49
410.949	5.15
411.155	5
411.361	5.08
411.567	4.94
411.773	4.72
411.98	4.53
412.186	4.43
412.392	4.32
412.598	4.27
412.804	4.36
413.01	4.17
413.216	4.33
413.422	4.29
413.628	4.16
413.834	4.32
414.04	4.57
414.246	4.62
414.452	4.67
414.658	4.75
414.864	4.87
415.07	4.93
415.275	5.02
415.481	4.99
415.687	5.11
415.893	5.06
416.099	4.98
416.305	4.97
416.511	4.84
416.716	4.65
416.922	4.64
417.128	4.54
417.334	4.37
417.539	4.27
417.745	4.27
417.951	4.22
418.157	4.4
418.362	4.48
418.568	4.39
418.774	4.4
418.979	4.42
419.185	4.34
419.391	4.46
419.596	4.52
419.802	4.58
420.008	4.53
420.213	3.82
420.419	3.68
420.624	3.68
420.83	3.71
421.035	3.65
421.241	3.75
421.446	3.79
421.652	3.72
421.857	3.66
422.063	3.67
422.268	3.76
422.474	4.42
422.679	4.53
422.885	4.46
423.09	4.43
423.295	4.47
423.501	4.4
423.706	4.3
423.911	4.23
424.117	4.18
424.322	3.99
424.527	3.92
424.733	3.93
424.938	3.86
425.143	3.91
425.349	3.8
425.554	3.79
425.759	3.79
425.964	3.92
426.169	4.01
426.375	4.12
426.58	4.34
426.785	4.36
426.99	4.34
427.195	4.31
427.4	4.11
427.605	4.2
427.811	4.28
428.016	4.27
428.221	4.17
428.426	4.01
428.631	4.03
428.836	4.06
429.041	4.09
429.246	4.09
429.451	3.96
429.656	4.08
429.861	4.19
430.066	4.24
430.271	4.23
430.476	4.13
430.681	4.14
430.886	4.04
431.09	4.06
431.295	3.95
431.5	4.08
431.705	4.23
431.91	4.23
432.115	4.13
432.32	4.1
432.524	4.06
432.729	4.18
432.934	4.12
433.139	4.18
433.343	4.1
433.548	4.14
433.753	3.99
433.958	3.93
434.162	3.97
434.367	3.9
434.572	3.71
434.776	3.7
434.981	3.7
435.186	3.72
435.39	3.68
435.595	3.63
435.799	3.66
436.004	3.72
436.209	3.76
436.413	3.63
436.618	3.81
436.822	3.9
437.027	3.93
437.231	3.93
437.436	4.05
437.64	4.01
437.845	4.07
438.049	4.14
438.253	4.1
438.458	4.06
438.662	4.14
438.867	4.09
439.071	4.09
439.275	4.03
439.48	3.94
439.684	3.95
439.888	3.96
440.093	3.97
440.297	3.9
440.501	3.99
440.706	4.04
440.91	3.97
441.114	3.89
441.318	3.93
441.523	3.95
441.727	4.09
441.931	4.02
442.135	4.06
442.339	4.07
442.543	4.05
442.748	4.01
442.952	3.97
443.156	3.96
443.36	3.96
443.564	3.92
443.768	3.99
443.972	3.94
444.176	3.95
444.38	3.95
444.584	3.9
444.788	3.93
444.992	3.95
445.196	4.04
445.4	4.09
445.604	4.12
445.808	4.15
446.012	4.08
446.216	4.03
446.42	4
446.624	3.99
446.828	4.04
447.032	4.02
447.235	3.97
447.439	3.82
447.643	3.77
447.847	3.75
448.051	3.65
448.254	3.64
448.458	3.61
448.662	3.67
448.866	3.68
449.069	3.68
449.273	3.65
449.477	3.58
449.681	3.61
449.884	3.56
450.088	3.62
450.292	3.59
450.495	3.65
450.699	3.66
450.902	3.55
451.106	3.49
451.31	3.42
451.513	3.47
451.717	3.51
451.92	3.56
452.124	3.61
452.327	3.55
452.531	3.65
452.734	3.62
452.938	3.69
453.141	3.74
453.345	3.87
453.548	3.83
453.752	3.72
453.955	3.74
454.158	3.71
454.362	3.8
454.565	3.81
454.769	3.78
454.972	3.82
455.175	3.85
455.379	3.87
455.582	3.73
455.785	3.78
455.988	3.81
456.192	3.8
456.395	3.81
456.598	3.7
456.801	3.75
457.005	3.79
457.208	3.79
457.411	3.81
457.614	3.82
457.817	3.91
458.021	3.91
458.224	4.04
458.427	4
458.63	3.98
458.833	3.96
459.036	3.97
459.239	3.99
459.442	3.97
459.645	3.94
459.848	3.99
460.051	3.88
460.254	3.93
460.457	3.8
460.66	3.81
460.863	3.85
461.066	3.88
461.269	3.8
461.472	3.74
461.675	3.79
461.878	3.77
462.081	3.56
462.284	3.56
462.486	3.49
462.689	3.51
462.892	3.57
463.095	3.52
463.298	3.56
463.5	3.58
463.703	3.59
463.906	3.59
464.109	3.54
464.311	3.6
464.514	3.65
464.717	3.53
464.92	3.4
465.122	3.29
465.325	3.34
465.528	3.34
465.73	3.43
465.933	3.39
466.135	3.38
466.338	3.42
466.541	3.51
466.743	3.5
466.946	3.64
467.148	3.72
467.351	3.84
467.553	3.75
467.756	3.71
467.958	3.65
468.161	3.73
468.363	3.68
468.566	3.68
468.768	3.68
