Data from CB_076_Reflection_3.txt Node
Date: Sat Nov 14 11:31:27 EST 2015
User: robert
Spectrometer: USB4E03001
Autoset integration time: false
Trigger mode: 4
Integration Time (sec): 1.000000E-1
Scans to average: 15
Electric dark correction enabled: true
Nonlinearity correction enabled: false
Boxcar width: 5
Stray light correction enabled: false
XAxis mode: Wavelengths
Stop averaging: false
Number of Pixels in Spectrum: 3648
>>>>>Begin Spectral Data<<<<<
177.566	-158.61
177.785	-182.15
178.005	-870.8
178.225	14.53
178.445	44.95
178.665	-258.85
178.885	-98.1
179.105	-132.22
179.324	-225.37
179.544	-470.7
179.764	-105.49
179.984	-138.66
180.204	-141.45
180.423	-511.91
180.643	-236.56
180.863	-404.43
181.083	-2175.61
181.302	-12126.19
181.522	1435.38
181.742	1463.95
181.961	1671.46
182.181	282.66
182.401	220.87
182.621	371.95
182.84	1684.85
183.06	-5399.66
183.279	-681.23
183.499	-464.86
183.719	-523.94
183.938	-369.76
184.158	-289.21
184.377	-285.09
184.597	-148.57
184.816	-82.39
185.036	-137.14
185.256	-147.02
185.475	-423.99
185.695	-299.37
185.914	-338.16
186.134	-309.05
186.353	-282.98
186.572	-244.01
186.792	-562.41
187.011	3918.07
187.231	-2934.74
187.45	-608.7
187.67	-2535.27
187.889	899.61
188.108	497.71
188.328	395.79
188.547	262.95
188.766	227.9
188.986	210.92
189.205	200.25
189.424	235.61
189.644	208.8
189.863	248.04
190.082	311.74
190.302	413.1
190.521	272.35
190.74	276.39
190.959	1212.45
191.178	1040.64
191.398	739.62
191.617	1906.62
191.836	6655.91
192.055	1319.8
192.274	413.3
192.494	490.37
192.713	20528.57
192.932	-2266.57
193.151	428125
193.37	627.57
193.589	-16627.43
193.808	-1590.93
194.027	-2565.94
194.246	4769.78
194.465	-3282.75
194.685	760.32
194.904	847.13
195.123	516.55
195.342	434.27
195.561	367.81
195.78	995.75
195.999	2352.67
196.218	919.84
196.436	792.57
196.655	396.09
196.874	223.66
197.093	463.71
197.312	363.19
197.531	632.94
197.75	893.24
197.969	2198.83
198.188	334.44
198.407	200.18
198.625	196.17
198.844	212.47
199.063	295.19
199.282	639.62
199.501	-2825
199.719	-1388.67
199.938	616.58
200.157	308.67
200.376	-1943.41
200.594	-178.18
200.813	-519.01
201.032	-1602.38
201.251	-708.75
201.469	-868.99
201.688	-1874.63
201.907	3485.75
202.125	1120.82
202.344	4221.28
202.563	22953.62
202.781	1135.4
203	374.82
203.218	306.73
203.437	527.33
203.656	410.94
203.874	915.56
204.093	682.78
204.311	465.11
204.53	1129.23
204.748	332.82
204.967	470.71
205.185	395.33
205.404	457.38
205.622	568.58
205.841	275.37
206.059	185.08
206.278	173.08
206.496	320.09
206.715	387.55
206.933	352.04
207.151	481.55
207.37	321.42
207.588	412.69
207.806	430.87
208.025	637.75
208.243	1081.38
208.461	-84400
208.68	2300.4
208.898	943.59
209.116	592.56
209.335	391.58
209.553	280.75
209.771	263.47
209.989	214.64
210.208	225.51
210.426	199.23
210.644	175.45
210.862	167.7
211.081	166.42
211.299	128.84
211.517	161.94
211.735	150.77
211.953	155.49
212.171	169.22
212.39	176
212.608	139.86
212.826	120.37
213.044	114.67
213.262	119.96
213.48	115.75
213.698	201.15
213.916	111.37
214.134	108.35
214.352	95.3
214.57	39.5
214.788	37.85
215.006	101.52
215.224	221.1
215.442	511.34
215.66	957.73
215.878	312.87
216.096	147
216.314	518.17
216.532	2568.02
216.75	-734.01
216.968	-1242.44
217.185	-12071.68
217.403	2689.65
217.621	-163411.11
217.839	-910.91
218.057	-32481.25
218.275	-1173.66
218.492	-216.46
218.71	-4148.53
218.928	2613.71
219.146	1528.6
219.363	778.79
219.581	881.39
219.799	-4573.52
220.017	517.87
220.234	674.65
220.452	633.34
220.67	946.05
220.887	389.86
221.105	551.56
221.323	321.44
221.54	237.47
221.758	260.58
221.976	224.36
222.193	164
222.411	155.95
222.629	169.15
222.846	163.99
223.064	159.08
223.281	161.32
223.499	170.94
223.716	158.62
223.934	148.88
224.151	130.52
224.369	138.75
224.586	172.21
224.804	187.6
225.021	170.51
225.239	173.64
225.456	149.43
225.674	126.57
225.891	112.68
226.108	102.19
226.326	97.82
226.543	105.17
226.76	97.68
226.978	78.94
227.195	76.37
227.413	66.91
227.63	60.95
227.847	63.2
228.064	61.02
228.282	60.95
228.499	61.62
228.716	56.58
228.934	51.36
229.151	49.5
229.368	42.69
229.585	41.13
229.802	41.87
230.02	42.66
230.237	39.28
230.454	38.67
230.671	38.85
230.888	38.46
231.105	45.57
231.323	48.47
231.54	50.85
231.757	60.51
231.974	63.01
232.191	58.71
232.408	55.77
232.625	63.21
232.842	61.52
233.059	57.43
233.276	55.48
233.493	45.82
233.71	42.67
233.927	37.83
234.144	34.18
234.361	37.26
234.578	40.52
234.795	37.33
235.012	35.33
235.229	36.5
235.446	39.97
235.663	41.03
235.879	41.55
236.096	47.75
236.313	52.81
236.53	49.13
236.747	50.39
236.964	42.42
237.181	50.7
237.397	52.56
237.614	63.93
237.831	67.47
238.048	76.87
238.264	72.94
238.481	59.76
238.698	57.64
238.915	59.77
239.131	55.45
239.348	56.65
239.565	57.95
239.781	56.56
239.998	43.5
240.215	36
240.431	24.98
240.648	28.37
240.865	29.18
241.081	28.69
241.298	27.54
241.514	27.57
241.731	27.41
241.947	23.31
242.164	24.78
242.38	22.91
242.597	19.78
242.814	19.79
243.03	21
243.246	23.68
243.463	23.18
243.679	21.89
243.896	22.74
244.112	20.37
244.329	20.42
244.545	17.45
244.762	21.79
244.978	26.24
245.194	24.26
245.411	22.73
245.627	18.59
245.843	18.86
246.06	20.07
246.276	17.58
246.492	18.07
246.709	18.56
246.925	17.63
247.141	17.2
247.357	17.49
247.574	18.09
247.79	16.45
248.006	15.48
248.222	15.51
248.439	14.01
248.655	14.37
248.871	15.36
249.087	16.3
249.303	17.41
249.519	18.29
249.736	19.57
249.952	20.83
250.168	25.43
250.384	30.17
250.6	28.88
250.816	32.21
251.032	31.44
251.248	29.69
251.464	28.45
251.68	25.75
251.896	21.95
252.112	20.07
252.328	18.94
252.544	18.32
252.76	14.27
252.976	14.07
253.192	12.32
253.408	13.59
253.624	11.4
253.84	11.2
254.056	11.93
254.272	11.57
254.487	9.85
254.703	6.57
254.919	4.67
255.135	9.5
255.351	9.84
255.567	10.8
255.782	12.71
255.998	20.33
256.214	17.62
256.43	16.27
256.646	19.37
256.861	22.69
257.077	23.35
257.293	23.73
257.508	22.75
257.724	22.22
257.94	21.38
258.155	19.48
258.371	16.48
258.587	16.03
258.802	14.86
259.018	12.84
259.234	11.67
259.449	12.08
259.665	11.39
259.88	12.15
260.096	11.94
260.312	11.32
260.527	10.95
260.743	10.56
260.958	10.49
261.174	12.22
261.389	14.5
261.605	13.8
261.82	12.76
262.036	12.59
262.251	10.74
262.466	12.04
262.682	13.25
262.897	13.44
263.113	14.05
263.328	14.27
263.543	12.57
263.759	10.47
263.974	11.85
264.189	12.58
264.405	12.9
264.62	15.17
264.835	12.61
265.051	13.87
265.266	13.32
265.481	15.23
265.696	18.57
265.912	17.1
266.127	15.45
266.342	14.89
266.557	15.74
266.773	15.56
266.988	14.54
267.203	16.01
267.418	15.18
267.633	16.84
267.848	14.95
268.064	11.57
268.279	12.48
268.494	11.85
268.709	12.65
268.924	13.6
269.139	11.79
269.354	12.85
269.569	10.34
269.784	9.08
269.999	8.17
270.214	10.01
270.429	10.71
270.644	11.11
270.859	11.37
271.074	11.37
271.289	12.04
271.504	13.8
271.719	13.18
271.934	15
272.149	14.67
272.363	15.46
272.578	14.38
272.793	14.3
273.008	13.26
273.223	13.69
273.438	12.26
273.653	11.89
273.867	12.76
274.082	13.92
274.297	12.9
274.512	14.32
274.726	13.26
274.941	12.33
275.156	14.59
275.371	14.89
275.585	14.93
275.8	17.68
276.015	17.5
276.229	16.84
276.444	16.07
276.659	16.26
276.873	15.45
277.088	17.75
277.302	20.84
277.517	18.14
277.732	18.84
277.946	18.09
278.161	18.03
278.375	16.99
278.59	16.53
278.804	15.89
279.019	16.69
279.233	16.43
279.448	13.07
279.662	10.27
279.877	12.15
280.091	9.94
280.306	9.54
280.52	6.83
280.735	6.72
280.949	9.53
281.163	11.35
281.378	10.31
281.592	11.27
281.806	12.14
282.021	13.15
282.235	12.08
282.449	14.66
282.664	14.83
282.878	15.94
283.092	16.69
283.307	14.56
283.521	12.91
283.735	14.68
283.949	15.05
284.164	15.14
284.378	14.07
284.592	12.68
284.806	12.39
285.02	12.21
285.234	12
285.449	10.86
285.663	11.13
285.877	10.12
286.091	9.11
286.305	8.65
286.519	8.94
286.733	9.41
286.947	11.45
287.161	10.48
287.375	10.17
287.589	10.73
287.803	12.5
288.017	10.98
288.231	12.68
288.445	13.66
288.659	13.91
288.873	14.51
289.087	14.51
289.301	15.14
289.515	14.82
289.729	16.09
289.943	16.27
290.157	16.12
290.371	17.61
290.584	17.13
290.798	17.24
291.012	17.64
291.226	17.35
291.44	18.25
291.654	17.23
291.867	17.67
292.081	18.72
292.295	19.14
292.509	19.37
292.722	19.07
292.936	19.64
293.15	19.14
293.364	18.08
293.577	17.19
293.791	15.78
294.005	14.62
294.218	16.45
294.432	15.19
294.645	14.16
294.859	13.73
295.073	14.44
295.286	13.85
295.5	14.03
295.713	13.78
295.927	13.51
296.14	12.98
296.354	12.93
296.568	11.49
296.781	10.63
296.994	11.51
297.208	11.02
297.421	10.35
297.635	10.87
297.848	10.19
298.062	10.23
298.275	10.49
298.489	11.76
298.702	12.81
298.915	12.13
299.129	13.82
299.342	13.54
299.555	14.78
299.769	15.39
299.982	15.65
300.195	16.59
300.409	16.72
300.622	17.08
300.835	16.13
301.048	15.41
301.262	15.28
301.475	14.86
301.688	14.5
301.901	14.12
302.115	14.12
302.328	14.31
302.541	13.11
302.754	14.6
302.967	14.51
303.18	15.31
303.393	15.41
303.607	16.76
303.82	17.13
304.033	18.24
304.246	19.02
304.459	19.09
304.672	19.14
304.885	19.15
305.098	18.41
305.311	19.35
305.524	18.13
305.737	19.75
305.95	20.18
306.163	19.72
306.376	18.31
306.589	18.28
306.802	17.81
307.015	18.5
307.228	19.33
307.44	18.72
307.653	18.39
307.866	21.1
308.079	20.35
308.292	19.1
308.505	20.19
308.718	19.58
308.93	19.19
309.143	19.23
309.356	19.34
309.569	18.48
309.781	18.98
309.994	19.13
310.207	17.5
310.42	17.31
310.632	18.33
310.845	17.36
311.058	18.19
311.27	17.03
311.483	17.92
311.696	16.24
311.908	16.38
312.121	15.97
312.333	16.92
312.546	16.96
312.759	15.65
312.971	15.13
313.184	15.57
313.396	15.81
313.609	15.93
313.821	14.64
314.034	15.84
314.246	16.61
314.459	17.33
314.671	15.03
314.884	15.65
315.096	16.83
315.309	17.56
315.521	18.42
315.733	17.72
315.946	17.87
316.158	19.07
316.371	19.37
316.583	18.92
316.795	18.37
317.008	19.46
317.22	18.96
317.432	19.81
317.644	19.48
317.857	18.4
318.069	18.51
318.281	19.81
318.494	19.39
318.706	19.96
318.918	20.58
319.13	21.13
319.342	21.19
319.555	22.33
319.767	21.93
319.979	20.92
320.191	19.8
320.403	21.83
320.615	21.58
320.827	21.75
321.039	20.53
321.252	22.11
321.464	22.6
321.676	21.75
321.888	21.17
322.1	21.63
322.312	22.7
322.524	24.29
322.736	22.37
322.948	22.54
323.16	22.63
323.372	23.53
323.584	21.97
323.796	20.53
324.007	20.71
324.219	21.64
324.431	21.59
324.643	22.76
324.855	23.08
325.067	23.9
325.279	23.57
325.491	24.43
325.702	24.55
325.914	24.87
326.126	26.48
326.338	25.41
326.55	25.41
326.761	25.27
326.973	25.07
327.185	24.85
327.396	25.83
327.608	26.31
327.82	26.18
328.032	26.79
328.243	27.14
328.455	28.4
328.666	30.12
328.878	30.33
329.09	31.03
329.301	30.15
329.513	30.2
329.725	29.1
329.936	30.37
330.148	30.25
330.359	30.47
330.571	31.65
330.782	29.81
330.994	31.39
331.205	31.43
331.417	31.75
331.628	32.28
331.84	32.96
332.051	34.25
332.262	33.98
332.474	33.42
332.685	33.05
332.897	32.8
333.108	34.34
333.319	33.1
333.531	33.07
333.742	32.25
333.953	31.76
334.165	31.58
334.376	31.68
334.587	31.82
334.799	31.58
335.01	31.41
335.221	30.88
335.432	29.55
335.644	29
335.855	28.88
336.066	30.11
336.277	31.31
336.488	31.37
336.7	30.88
336.911	30.7
337.122	31.12
337.333	31.2
337.544	31.98
337.755	32.77
337.966	33.87
338.177	33.7
338.388	33
338.599	33.01
338.811	32.81
339.022	32.93
339.233	33.12
339.444	32.39
339.655	32.21
339.866	31.26
340.076	30.86
340.287	29.82
340.498	29.61
340.709	30.17
340.92	29.48
341.131	30.04
341.342	30.75
341.553	29.59
341.764	31.37
341.975	31.17
342.185	31.5
342.396	31.87
342.607	32.09
342.818	33.01
343.029	32.08
343.239	32.14
343.45	31.08
343.661	30.04
343.872	30.76
344.082	29.64
344.293	30.17
344.504	30.26
344.714	29.61
344.925	30.23
345.136	28.85
345.346	28.05
345.557	28.62
345.768	28.85
345.978	30.19
346.189	29.58
346.399	29.71
346.61	29.18
346.821	29.02
347.031	29.51
347.242	28.73
347.452	28.78
347.663	30.38
347.873	30.43
348.084	30.87
348.294	28.92
348.504	29.78
348.715	30.7
348.925	31.09
349.136	30.29
349.346	29.88
349.557	30.35
349.767	31.36
349.977	31.16
350.188	30.47
350.398	31.33
350.608	31.43
350.819	31.71
351.029	30.65
351.239	30.87
351.449	31.18
351.66	30.29
351.87	29.88
352.08	29.45
352.29	29.37
352.501	29.61
352.711	27.85
352.921	28.81
353.131	27.6
353.341	27.96
353.552	27.33
353.762	27.32
353.972	28.22
354.182	29.05
354.392	28.7
354.602	28.23
354.812	28.13
355.022	27.99
355.232	27.43
355.442	27.3
355.652	27.25
355.862	27.76
356.072	28.35
356.282	27.61
356.492	27.4
356.702	27.31
356.912	27.22
357.122	28.06
357.332	28.58
357.542	27.96
357.752	28.29
357.962	28.19
358.171	27.91
358.381	27.96
358.591	28.26
358.801	28.05
359.011	28.32
359.221	28.86
359.43	28.91
359.64	28.2
359.85	28.14
360.06	28.23
360.269	28.06
360.479	27.91
360.689	27.76
360.899	28.16
361.108	27.85
361.318	27.46
361.528	26.82
361.737	25.66
361.947	26.26
362.156	26.69
362.366	26.52
362.576	26.14
362.785	26.02
362.995	25.59
363.204	25.36
363.414	25.65
363.623	26.06
363.833	26.55
364.042	26.96
364.252	26.51
364.461	26.03
364.671	26.47
364.88	26.52
365.09	26.99
365.299	26.93
365.509	27.24
365.718	27
365.927	27.14
366.137	27.37
366.346	27.16
366.555	27.31
366.765	27.76
366.974	27.26
367.183	26.53
367.393	25.49
367.602	25.3
367.811	24.89
368.021	25.31
368.23	24.86
368.439	24.11
368.648	23.68
368.857	23.2
369.067	22.8
369.276	22.98
369.485	23.72
369.694	24.65
369.903	24.82
370.112	24.79
370.321	24.08
370.531	23.93
370.74	23.39
370.949	23.35
371.158	23.39
371.367	23.14
371.576	22.27
371.785	22.19
371.994	21.74
372.203	21.32
372.412	20.59
372.621	20.19
372.83	20.02
373.039	20.77
373.248	19.97
373.457	19.73
373.666	19.33
373.874	18.85
374.083	18.75
374.292	18.23
374.501	18.36
374.71	18.63
374.919	18.75
375.128	18.6
375.336	18.44
375.545	19.11
375.754	19.35
375.963	19.21
376.171	19.49
376.38	19.27
376.589	19.11
376.798	18.63
377.006	18.79
377.215	18.89
377.424	18.72
377.632	18.07
377.841	18.05
378.05	17.72
378.258	18.06
378.467	18.05
378.675	18.17
378.884	18.49
379.093	18.75
379.301	18.73
379.51	18.33
379.718	18.39
379.927	18.6
380.135	18.4
380.344	17.95
380.552	17.88
380.761	18.07
380.969	17.54
381.177	17.07
381.386	17.36
381.594	16.76
381.803	16.63
382.011	16.46
382.219	16.17
382.428	15.97
382.636	15.92
382.845	15.11
383.053	15.32
383.261	15.32
383.469	15.44
383.678	15.02
383.886	15.16
384.094	15.33
384.302	15.62
384.511	15.49
384.719	15.58
384.927	15.97
385.135	16.51
385.343	15.65
385.552	15.84
385.76	15.46
385.968	15.4
386.176	15.33
386.384	14.61
386.592	13.85
386.8	14.2
387.008	14.29
387.216	14.13
387.424	14.13
387.633	14.18
387.841	14.09
388.049	14.88
388.257	15.09
388.465	14.5
388.672	14.97
388.88	15.18
389.088	14.37
389.296	14.08
389.504	13.77
389.712	13.64
389.92	13.64
390.128	13.45
390.336	12.61
390.544	12.11
390.751	12.29
390.959	11.88
391.167	11.68
391.375	12.17
391.583	12.04
391.79	12.01
391.998	12.15
392.206	12.07
392.414	11.57
392.621	11.77
392.829	11.89
393.037	11.85
393.244	11.94
393.452	11.85
393.66	11.53
393.867	11.31
394.075	11.13
394.283	10.75
394.49	10.56
394.698	10.95
394.905	10.8
395.113	10.76
395.32	10.63
395.528	10.71
395.735	10.89
395.943	10.8
396.15	10.97
396.358	10.98
396.565	11.12
396.773	11.21
396.98	11.15
397.188	10.95
397.395	10.88
397.602	11.38
397.81	11.15
398.017	10.88
398.225	11.25
398.432	10.89
398.639	10.63
398.847	10.17
399.054	10.17
399.261	10.26
399.468	10.08
399.676	10.11
399.883	9.43
400.09	9.67
400.297	9.69
400.505	9.41
400.712	9.86
400.919	10.21
401.126	10.24
401.333	10.02
401.54	9.66
401.748	9.74
401.955	9.2
402.162	9.15
402.369	9.01
402.576	8.81
402.783	8.53
402.99	8.15
403.197	8.03
403.404	8.18
403.611	8.26
403.818	8.41
404.025	8.1
404.232	8.47
404.439	8.62
404.646	8.41
404.853	8.51
405.06	8.33
405.267	8.56
405.474	8.55
405.681	8.67
405.887	8.55
406.094	8.63
406.301	8.71
406.508	8.61
406.715	8.88
406.922	8.77
407.128	8.96
407.335	9.22
407.542	8.99
407.749	8.83
407.955	8.67
408.162	8.41
408.369	8.24
408.575	8.54
408.782	8.97
408.989	8.33
409.195	8.37
409.402	8.51
409.609	8.11
409.815	7.85
410.022	7.97
410.228	7.82
410.435	8.12
410.642	8.25
410.848	7.91
411.055	7.34
411.261	7.61
411.468	7.84
411.674	7.63
411.881	7.84
412.087	8.2
412.294	8.13
412.5	8.12
412.706	8.12
412.913	7.87
413.119	8.03
413.326	7.98
413.532	7.81
413.738	7.76
413.945	7.16
414.151	7.58
414.357	7.44
414.564	7.38
414.77	7.51
414.976	7.48
415.182	7.62
415.389	7.77
415.595	7.56
415.801	7.75
416.007	7.69
416.214	7.79
416.42	7.59
416.626	7.25
416.832	7.34
417.038	7.07
417.244	7
417.45	6.81
417.657	6.64
417.863	6.67
418.069	6.6
418.275	6.45
418.481	6.49
418.687	6.5
418.893	6.6
419.099	6.4
419.305	6.43
419.511	6.39
419.717	6.38
419.923	6.28
420.129	6.25
420.335	6.26
420.541	6.29
420.746	6.16
420.952	6.04
421.158	6.09
421.364	6.08
421.57	6.05
421.776	6.07
421.982	6.02
422.187	6.03
422.393	6.01
422.599	5.93
422.805	5.89
423.01	6.01
423.216	6.02
423.422	6.06
423.628	6.09
423.833	6.01
424.039	6.03
424.245	6.05
424.45	6.04
424.656	5.96
424.862	5.89
425.067	5.89
425.273	5.88
425.478	5.73
425.684	5.7
425.889	5.78
426.095	5.8
426.301	5.77
426.506	5.62
426.712	5.58
426.917	5.73
427.123	5.64
427.328	5.59
427.533	5.58
427.739	5.87
427.944	5.91
428.15	5.76
428.355	5.85
428.561	5.86
428.766	6.05
428.971	5.9
429.177	5.85
429.382	5.8
429.587	5.86
429.793	5.86
429.998	5.63
430.203	5.53
430.408	5.7
430.614	5.55
430.819	5.37
431.024	5.31
431.229	5.67
431.434	5.75
431.64	5.87
431.845	6.05
432.05	6.1
432.255	5.98
432.46	5.97
432.665	5.78
432.87	5.82
433.076	5.89
433.281	5.83
433.486	5.59
433.691	5.44
433.896	5.57
434.101	5.28
434.306	5.18
434.511	5.34
434.716	5.31
434.921	5.39
435.126	5.48
435.331	5.4
435.535	5.49
435.74	5.52
435.945	5.57
436.15	5.55
436.355	5.63
436.56	5.45
436.765	5.41
436.97	5.26
437.174	5.37
437.379	5.28
437.584	5.55
437.789	5.47
437.993	5.57
438.198	5.52
438.403	5.54
438.608	5.56
438.812	5.57
439.017	5.45
439.222	5.56
439.426	5.33
439.631	5.28
439.836	5.15
440.04	5.23
440.245	5.25
440.45	5.27
440.654	5.07
440.859	4.98
441.063	5.07
441.268	5.19
441.472	5.27
441.677	5.26
441.881	5.04
442.086	4.94
442.29	4.83
442.495	4.76
442.699	4.66
442.904	4.66
443.108	4.77
443.312	4.8
443.517	4.7
443.721	4.6
443.925	4.76
444.13	4.93
444.334	4.82
444.538	4.71
444.743	4.65
444.947	4.79
445.151	4.79
445.356	4.76
445.56	4.6
445.764	4.45
445.968	4.47
446.173	4.33
446.377	4.44
446.581	4.49
446.785	4.55
446.989	4.57
447.193	4.59
447.398	4.76
447.602	4.63
447.806	4.76
448.01	4.86
448.214	4.82
448.418	4.78
448.622	4.74
448.826	4.77
449.03	4.7
449.234	4.77
449.438	4.71
449.642	4.63
449.846	4.88
450.05	4.86
450.254	4.83
450.458	4.72
450.662	5.05
450.866	5.15
451.069	5.31
451.273	5.54
451.477	5.37
451.681	5.36
451.885	5.19
452.089	5.05
452.292	4.9
452.496	5.02
452.7	5.07
452.904	4.96
453.107	4.83
453.311	4.57
453.515	4.58
453.719	4.58
453.922	4.53
454.126	4.73
454.33	4.56
454.533	4.55
454.737	4.4
454.94	4.44
455.144	4.5
455.348	4.38
455.551	4.57
455.755	4.39
455.958	4.49
456.162	4.55
456.365	4.4
456.569	4.43
