Data from CB_096_Reflection_2.txt Node
Date: Sat Nov 14 17:30:09 EST 2015
User: robert
Spectrometer: USB4E03001
Autoset integration time: false
Trigger mode: 4
Integration Time (sec): 1.000000E-1
Scans to average: 15
Electric dark correction enabled: true
Nonlinearity correction enabled: false
Boxcar width: 5
Stray light correction enabled: false
XAxis mode: Wavelengths
Stop averaging: false
Number of Pixels in Spectrum: 3648
>>>>>Begin Spectral Data<<<<<
177.566	-16.27
177.785	1574.38
178.005	-317.95
178.225	-78.32
178.445	108.42
178.665	-55.93
178.885	-102.06
179.105	-32.12
179.324	-191.1
179.544	-9.44
179.764	-29.91
179.984	-13.13
180.204	-68.5
180.423	-16.4
180.643	-8.33
180.863	-55.82
181.083	-41.09
181.302	-45.56
181.522	-14.68
181.742	10.72
181.961	-35.07
182.181	-20.02
182.401	-176.12
182.621	-78.85
182.84	-151.81
183.06	-24.54
183.279	6.07
183.499	-3.72
183.719	-29.97
183.938	-65.86
184.158	-57.65
184.377	-16.24
184.597	-11.57
184.816	14.32
185.036	25.92
185.256	11.08
185.475	13.82
185.695	16.79
185.914	30.85
186.134	45.8
186.353	62.78
186.572	64.15
186.792	60.39
187.011	46.57
187.231	29.29
187.45	27.23
187.67	27.06
187.889	22.16
188.108	10.2
188.328	16.3
188.547	10.76
188.766	-7.75
188.986	10.03
189.205	-0.98
189.424	12.81
189.644	20.12
189.863	23.17
190.082	9.49
190.302	-8.46
190.521	13.72
190.74	-8.21
190.959	-44.95
191.178	-47.79
191.398	-77.03
191.617	-68.82
191.836	-58.96
192.055	-0.58
192.274	-44.37
192.494	8.22
192.713	20.92
192.932	84.83
193.151	154.7
193.37	119.19
193.589	67.4
193.808	180.94
194.027	266.52
194.246	-295.15
194.465	-61.11
194.685	83.59
194.904	6.64
195.123	7.26
195.342	-32.32
195.561	-5.72
195.78	9.28
195.999	30.2
196.218	3.63
196.436	21.2
196.655	31.17
196.874	32.19
197.093	30.63
197.312	37.62
197.531	43.09
197.75	42.12
197.969	49.7
198.188	33.59
198.407	34.27
198.625	45.32
198.844	57.61
199.063	44.61
199.282	44.52
199.501	32.28
199.719	45.52
199.938	35.3
200.157	38.05
200.376	27.91
200.594	48.66
200.813	34.84
201.032	26.85
201.251	14.89
201.469	23.2
201.688	23.06
201.907	17.92
202.125	8.2
202.344	21.61
202.563	-2.24
202.781	-3.06
203	5.46
203.218	10.09
203.437	42.51
203.656	25.48
203.874	36.86
204.093	68.97
204.311	63.31
204.53	48.92
204.748	30.46
204.967	49.45
205.185	50.05
205.404	18.47
205.622	11.77
205.841	-14.69
206.059	-9.78
206.278	-4.61
206.496	-14.6
206.715	-20.37
206.933	2.69
207.151	19.1
207.37	14.44
207.588	7.83
207.806	21.68
208.025	47.82
208.243	59.23
208.461	63.57
208.68	56.6
208.898	51.92
209.116	39.44
209.335	40.3
209.553	19.42
209.771	33.5
209.989	37.9
210.208	22.33
210.426	0.66
210.644	-10.1
210.862	-1.78
211.081	-18.25
211.299	-17.28
211.517	3.7
211.735	-18.27
211.953	12.17
212.171	10.66
212.39	21.71
212.608	31.03
212.826	41.23
213.044	51.4
213.262	40.15
213.48	41.74
213.698	58.6
213.916	61.93
214.134	57.82
214.352	53.89
214.57	51.38
214.788	42.46
215.006	33.38
215.224	41.44
215.442	44.57
215.66	53.34
215.878	39.67
216.096	-8.99
216.314	-10.24
216.532	-2.61
216.75	6.64
216.968	-6.34
217.185	-3.93
217.403	-14.85
217.621	-71.82
217.839	-67.67
218.057	-125.14
218.275	-27
218.492	24.94
218.71	57.55
218.928	69.29
219.146	92.32
219.363	87.75
219.581	82.75
219.799	94.79
220.017	86.63
220.234	117.25
220.452	119.28
220.67	134.52
220.887	176.55
221.105	241.77
221.323	4008.59
221.54	398.9
221.758	2454.29
221.976	1112.99
222.193	278.63
222.411	325.05
222.629	551.74
222.846	638.79
223.064	-535.04
223.281	607.42
223.499	414.25
223.716	596.58
223.934	-422.71
224.151	-110.37
224.369	-48.88
224.586	-2.54
224.804	-2.68
225.021	8.8
225.239	-1.8
225.456	1.96
225.674	3.63
225.891	10.54
226.108	-19.48
226.326	0.07
226.543	26.53
226.76	21.98
226.978	25.37
227.195	19.23
227.413	0.76
227.63	5.94
227.847	5.02
228.064	13.58
228.282	13.15
228.499	14.26
228.716	11.09
228.934	6.28
229.151	5.17
229.368	2.01
229.585	-1.14
229.802	3.22
230.02	0.82
230.237	3.17
230.454	1.93
230.671	1.6
230.888	4.45
231.105	1.35
231.323	1.51
231.54	-2.58
231.757	-3.66
231.974	-1.44
232.191	-0.38
232.408	3.39
232.625	-0.67
232.842	2.94
233.059	1.66
233.276	-9.75
233.493	-4.77
233.71	-0.24
233.927	9.7
234.144	12.03
234.361	8.67
234.578	3.46
234.795	7.87
235.012	6.23
235.229	-1.05
235.446	-4.93
235.663	-3.37
235.879	-2.25
236.096	-3.44
236.313	-10.18
236.53	-5.06
236.747	2.23
236.964	5.84
237.181	-1.94
237.397	-5.17
237.614	-4.9
237.831	-1.67
238.048	1.57
238.264	-2.14
238.481	-10.01
238.698	-2.87
238.915	-1.85
239.131	-5.19
239.348	-9.09
239.565	-7.41
239.781	-3.95
239.998	-4.42
240.215	-4.59
240.431	-7.37
240.648	-2.67
240.865	0.3
241.081	-0.85
241.298	-0.5
241.514	0.91
241.731	2.27
241.947	2.39
242.164	2.43
242.38	4.64
242.597	4.79
242.814	8.15
243.03	8.71
243.246	10.03
243.463	9.73
243.679	8.75
243.896	10.18
244.112	10.21
244.329	10.93
244.545	11.49
244.762	11.89
244.978	14.66
245.194	9.89
245.411	7.42
245.627	6.96
245.843	7.69
246.06	7.31
246.276	7.2
246.492	7.47
246.709	7.09
246.925	6.24
247.141	5.92
247.357	5.74
247.574	6.52
247.79	6.82
248.006	7.48
248.222	7.21
248.439	7.36
248.655	6.3
248.871	5.56
249.087	5.95
249.303	7.13
249.519	7.62
249.736	6.47
249.952	7.03
250.168	9.57
250.384	7.49
250.6	8.32
250.816	6.8
251.032	8.96
251.248	9.79
251.464	8.66
251.68	5.76
251.896	4.36
252.112	3.22
252.328	1.46
252.544	-2.75
252.76	-2.73
252.976	-5.6
253.192	-4.83
253.408	-7.37
253.624	-5.9
253.84	-4.95
254.056	-4.71
254.272	-6.11
254.487	-5.34
254.703	-3.7
254.919	-3.6
255.135	-3.72
255.351	-4.31
255.567	-0.84
255.782	2.99
255.998	2.47
256.214	-1.45
256.43	1.39
256.646	2.39
256.861	4.7
257.077	4.29
257.293	8.42
257.508	10.3
257.724	12.62
257.94	13.06
258.155	10.94
258.371	8.9
258.587	9
258.802	9.04
259.018	8.5
259.234	8.49
259.449	8.47
259.665	7.53
259.88	7.02
260.096	7.14
260.312	5.66
260.527	6.31
260.743	6.15
260.958	7.09
261.174	6.54
261.389	7.28
261.605	7.43
261.82	7.44
262.036	7.9
262.251	7.74
262.466	7.47
262.682	8.73
262.897	7.23
263.113	7.55
263.328	7.91
263.543	7.65
263.759	4.93
263.974	1.44
264.189	0.33
264.405	-1.94
264.62	-1.35
264.835	-2.36
265.051	-2.09
265.266	-0.84
265.481	0.68
265.696	-0.67
265.912	0.27
266.127	2.55
266.342	5.66
266.557	5.72
266.773	5.57
266.988	5.33
267.203	6.75
267.418	6.72
267.633	7.83
267.848	8.04
268.064	8.84
268.279	8.26
268.494	6.77
268.709	5.8
268.924	7.58
269.139	7.69
269.354	8.77
269.569	9.24
269.784	9.33
269.999	8.29
270.214	7.26
270.429	6.55
270.644	6.96
270.859	7.81
271.074	7.72
271.289	6.01
271.504	7.03
271.719	6.81
271.934	5.22
272.149	5.32
272.363	5.28
272.578	5.98
272.793	5.81
273.008	4.6
273.223	4.43
273.438	3.83
273.653	5.05
273.867	4.97
274.082	3.4
274.297	3.49
274.512	1.83
274.726	-0.58
274.941	-1.7
275.156	-0.8
275.371	2.06
275.585	3.4
275.8	4.77
276.015	3.43
276.229	3.15
276.444	3.83
276.659	4.23
276.873	6.33
277.088	8.93
277.302	8.25
277.517	7.58
277.732	6.15
277.946	4.56
278.161	3.56
278.375	4.5
278.59	5.4
278.804	4.81
279.019	4.84
279.233	3.78
279.448	2.7
279.662	3.26
279.877	1.9
280.091	3.12
280.306	3.59
280.52	4.17
280.735	3.65
280.949	2.85
281.163	3.26
281.378	3.73
281.592	4.93
281.806	5.93
282.021	6.16
282.235	7.41
282.449	6.08
282.664	5.97
282.878	6.33
283.092	7.25
283.307	7.33
283.521	7.28
283.735	6.31
283.949	5.4
284.164	5.51
284.378	6.95
284.592	6.67
284.806	8.34
285.02	8.85
285.234	8.21
285.449	7.91
285.663	8.38
285.877	8.78
286.091	8.13
286.305	8.19
286.519	7.91
286.733	7.11
286.947	7.15
287.161	6.64
287.375	6.05
287.589	7.4
287.803	7.96
288.017	7.41
288.231	7.59
288.445	8.68
288.659	8.56
288.873	7.94
289.087	8.53
289.301	8.27
289.515	7.45
289.729	7.19
289.943	4.58
290.157	2.95
290.371	3.07
290.584	3.29
290.798	3.35
291.012	4.69
291.226	5.91
291.44	5.23
291.654	5.16
291.867	4.89
292.081	6.07
292.295	8.06
292.509	7.86
292.722	8.33
292.936	8.5
293.15	10.24
293.364	9.27
293.577	8.73
293.791	8.95
294.005	9.69
294.218	9.26
294.432	8.12
294.645	7.47
294.859	9.44
295.073	8.56
295.286	7.33
295.5	6.32
295.713	5.95
295.927	6.28
296.14	5.97
296.354	5.76
296.568	6.83
296.781	7.44
296.994	7.68
297.208	6.34
297.421	6.38
297.635	6.11
297.848	6.01
298.062	6.45
298.275	7.02
298.489	7.08
298.702	6.51
298.915	6.06
299.129	7.18
299.342	7.56
299.555	8.61
299.769	9.27
299.982	10.02
300.195	10.18
300.409	10.45
300.622	8.46
300.835	9.03
301.048	9.53
301.262	10.08
301.475	7.45
301.688	6.92
301.901	6.24
302.115	6.66
302.328	7.98
302.541	8
302.754	7.73
302.967	8.63
303.18	8.19
303.393	8.46
303.607	8.38
303.82	8.53
304.033	8.96
304.246	9.35
304.459	8.46
304.672	7.45
304.885	6.53
305.098	7.11
305.311	6.73
305.524	6.02
305.737	6.14
305.95	6.1
306.163	5.92
306.376	5.05
306.589	5.39
306.802	5.06
307.015	4.28
307.228	5.71
307.44	6.49
307.653	7.58
307.866	7.96
308.079	8.07
308.292	8.52
308.505	9.56
308.718	9.83
308.93	10.09
309.143	10.28
309.356	11.27
309.569	11.07
309.781	11.09
309.994	11.26
310.207	12
310.42	11.94
310.632	12.12
310.845	11.63
311.058	12.19
311.27	11.57
311.483	12.22
311.696	12.18
311.908	11.95
312.121	11.35
312.333	10.33
312.546	10.11
312.759	10.28
312.971	9.99
313.184	10.95
313.396	9.73
313.609	9.96
313.821	9.32
314.034	8.31
314.246	8.45
314.459	8.05
314.671	8.47
314.884	8.85
315.096	7.79
315.309	7.38
315.521	6.76
315.733	8.16
315.946	7.98
316.158	7.92
316.371	9.66
316.583	8.58
316.795	8.84
317.008	9.52
317.22	9.33
317.432	10.44
317.644	8.88
317.857	9.47
318.069	9.25
318.281	8.79
318.494	8.81
318.706	7.92
318.918	7.7
319.13	7.19
319.342	7.57
319.555	6.62
319.767	5.25
319.979	5.62
320.191	5.88
320.403	5.5
320.615	6.85
320.827	6.88
321.039	6.55
321.252	8.83
321.464	9.75
321.676	9.08
321.888	9.37
322.1	10.45
322.312	11.52
322.524	10.87
322.736	12.21
322.948	11.23
323.16	11.2
323.372	10.99
323.584	9.66
323.796	9.46
324.007	9.17
324.219	10.54
324.431	10.12
324.643	10.47
324.855	11.58
325.067	11.52
325.279	12.23
325.491	13.98
325.702	14.68
325.914	15.64
326.126	15.63
326.338	16.7
326.55	17.47
326.761	18.82
326.973	19.63
327.185	20.32
327.396	20.85
327.608	20.59
327.82	19.74
328.032	20.57
328.243	20.54
328.455	21.99
328.666	21.79
328.878	22.03
329.09	21.84
329.301	22.17
329.513	20.91
329.725	20.2
329.936	20.77
330.148	21.15
330.359	20.26
330.571	20.73
330.782	19.97
330.994	21.74
331.205	21.65
331.417	22.2
331.628	22.39
331.84	21.89
332.051	22.74
332.262	24.39
332.474	25.44
332.685	27.43
332.897	27.99
333.108	28.37
333.319	27.34
333.531	26.7
333.742	28.06
333.953	28.28
334.165	28.73
334.376	29.85
334.587	29.76
334.799	30.3
335.01	30.19
335.221	30.91
335.432	31.64
335.644	32.87
335.855	34.03
336.066	33.42
336.277	33.22
336.488	33.46
336.7	31.86
336.911	30.84
337.122	30.35
337.333	30.5
337.544	29.81
337.755	29.21
337.966	29.34
338.177	29.53
338.388	30.03
338.599	30.7
338.811	31.3
339.022	32.19
339.233	33.32
339.444	32.76
339.655	32.63
339.866	32.91
340.076	33.47
340.287	32.39
340.498	31.48
340.709	30.79
340.92	31.51
341.131	31.53
341.342	31.68
341.553	31.27
341.764	31.77
341.975	31.95
342.185	31.79
342.396	31.28
342.607	31.46
342.818	31.2
343.029	30.73
343.239	29.86
343.45	30.11
343.661	29.91
343.872	29.79
344.082	30.21
344.293	29.95
344.504	31.06
344.714	31.27
344.925	31.02
345.136	31.86
345.346	32.26
345.557	32.46
345.768	31.95
345.978	31.43
346.189	31.68
346.399	31.48
346.61	31.24
346.821	30.32
347.031	30.85
347.242	31.27
347.452	30.22
347.663	29.39
347.873	29.4
348.084	29.6
348.294	29.75
348.504	28.83
348.715	28.97
348.925	28.71
349.136	28.77
349.346	28.03
349.557	28.19
349.767	28.61
349.977	29.33
350.188	28.34
350.398	28.72
350.608	29.44
350.819	30.16
351.029	29.73
351.239	30.3
351.449	30.45
351.66	30.21
351.87	29.92
352.08	30.13
352.29	30.89
352.501	31.03
352.711	30.88
352.921	30.83
353.131	31.07
353.341	31.1
353.552	31.07
353.762	31.19
353.972	32.12
354.182	31.49
354.392	30.59
354.602	29.62
354.812	29.78
355.022	29.67
355.232	29.47
355.442	29.24
355.652	29.73
355.862	29.61
356.072	28.99
356.282	28.36
356.492	29.53
356.702	29.74
356.912	29.9
357.122	30.68
357.332	30.77
357.542	30.89
357.752	30.87
357.962	30.98
358.171	30.88
358.381	32.02
358.591	32.28
358.801	31.79
359.011	31.75
359.221	31.87
359.43	31.53
359.64	31.24
359.85	30.74
360.06	30.49
360.269	30.07
360.479	30.05
360.689	29.49
360.899	29.22
361.108	29.06
361.318	29.6
361.528	29.47
361.737	29.36
361.947	29.18
362.156	29.52
362.366	29.48
362.576	29.1
362.785	29.07
362.995	28.97
363.204	28.67
363.414	28.73
363.623	28.36
363.833	28.11
364.042	28.01
364.252	28.41
364.461	27.93
364.671	27.97
364.88	28.33
365.09	28.23
365.299	28.25
365.509	28.47
365.718	28.23
365.927	28.31
366.137	28.68
366.346	28.48
366.555	28.71
366.765	29.01
366.974	28.99
367.183	29.18
367.393	29.13
367.602	28.9
367.811	29.04
368.021	29.03
368.23	28.84
368.439	28.82
368.648	29.15
368.857	28.54
369.067	27.92
369.276	27.17
369.485	26.61
369.694	27.01
369.903	26.98
370.112	26.7
370.321	27.27
370.531	27.32
370.74	27.25
370.949	27.04
371.158	27.6
371.367	28.36
371.576	28.43
371.785	28.52
371.994	27.7
372.203	27.47
372.412	27.4
372.621	27.09
372.83	27.22
373.039	27.15
373.248	26.98
373.457	26.17
373.666	25.61
373.874	24.97
374.083	24.76
374.292	25.22
374.501	25.3
374.71	24.77
374.919	24.21
375.128	24.17
375.336	24.57
375.545	24.63
375.754	25.28
375.963	25.28
376.171	26.04
376.38	26.67
376.589	26.88
376.798	26.75
377.006	27.09
377.215	26.88
377.424	26.56
377.632	26.42
377.841	26.62
378.05	26.05
378.258	25.87
378.467	26.01
378.675	25.26
378.884	24.63
379.093	24.4
379.301	24.38
379.51	24.83
379.718	25.09
379.927	24.69
380.135	24.86
380.344	25.16
380.552	24.77
380.761	24.52
380.969	24.68
381.177	25.22
381.386	25.26
381.594	25.57
381.803	25.32
382.011	24.67
382.219	24.9
382.428	24.15
382.636	23.82
382.845	24.44
383.053	24.91
383.261	24.74
383.469	24.1
383.678	24.13
383.886	23.9
384.094	24.22
384.302	24.51
384.511	24.01
384.719	24.15
384.927	23.84
385.135	23.32
385.343	22.85
385.552	22.7
385.76	22.54
385.968	22.56
386.176	21.99
386.384	21.53
386.592	21.13
386.8	20.99
387.008	20.71
387.216	20.88
387.424	20.86
387.633	21.09
387.841	20.97
388.049	21.35
388.257	21.26
388.465	21.48
388.672	21.31
388.88	21.48
389.088	21.58
389.296	21.62
389.504	21.44
389.712	21.56
389.92	21.08
390.128	20.93
390.336	20.67
390.544	20.79
390.751	20.66
390.959	20.32
391.167	20.46
391.375	20.4
391.583	20.05
391.79	19.99
391.998	19.89
392.206	20.12
392.414	19.86
392.621	19.5
392.829	19.05
393.037	19.19
393.244	19.35
393.452	18.78
393.66	18.89
393.867	18.98
394.075	19
394.283	18.82
394.49	18.39
394.698	18.54
394.905	18.59
395.113	18.51
395.32	18.52
395.528	18.41
395.735	18.68
395.943	18.11
396.15	18.19
396.358	18.26
396.565	18.42
396.773	18.7
396.98	18.75
397.188	19.18
397.395	19.26
397.602	19.19
397.81	19.11
398.017	18.99
398.225	19.17
398.432	19.01
398.639	18.86
398.847	18.99
399.054	18.84
399.261	18.92
399.468	18.61
399.676	18.56
399.883	18.59
400.09	18.69
400.297	18.53
400.505	18.6
400.712	18.48
400.919	18.19
401.126	17.74
401.333	17.74
401.54	17.55
401.748	17.47
401.955	17.25
402.162	17.09
402.369	17.01
402.576	17.13
402.783	17.33
402.99	17.43
403.197	17.59
403.404	17.5
403.611	17.28
403.818	17.45
404.025	17.34
404.232	17.53
404.439	17.4
404.646	17.6
404.853	17.66
405.06	17.27
405.267	17.47
405.474	17.42
405.681	17.37
405.887	17.58
406.094	17.33
406.301	17.39
406.508	17.45
406.715	17.38
406.922	17.18
407.128	17.41
407.335	17.62
407.542	17.25
407.749	17.41
407.955	17.58
408.162	17.78
408.369	17.82
408.575	17.77
408.782	17.63
408.989	17.67
409.195	18.05
409.402	17.81
409.609	17.85
409.815	17.95
410.022	17.89
410.228	17.93
410.435	17.53
410.642	17.73
410.848	17.63
411.055	17.52
411.261	17.55
411.468	17.44
411.674	17.28
411.881	17.04
412.087	17.11
412.294	17.07
412.5	17.12
412.706	17.26
412.913	17.15
413.119	17.36
413.326	17.43
413.532	17.53
413.738	17.31
413.945	17.18
414.151	17.12
414.357	16.91
414.564	16.9
414.77	16.73
414.976	16.46
415.182	16.24
415.389	16.24
415.595	16.45
415.801	16.2
416.007	16.36
416.214	16.29
416.42	16.48
416.626	16.67
416.832	16.69
417.038	16.78
417.244	16.91
417.45	16.95
417.657	16.71
417.863	16.6
418.069	16.66
418.275	16.45
418.481	16.66
418.687	16.77
418.893	16.85
419.099	16.69
419.305	16.59
419.511	16.44
419.717	16.45
419.923	16.46
420.129	16.39
420.335	16.43
420.541	16.61
420.746	16.61
420.952	16.37
421.158	16.29
421.364	16.26
421.57	16.24
421.776	16.26
421.982	16.2
422.187	16.22
422.393	16.33
422.599	16.28
422.805	16.05
423.01	16.1
423.216	16.17
423.422	16.08
423.628	16.25
423.833	16.22
424.039	16.41
424.245	16.49
424.45	16.58
424.656	16.42
424.862	16.38
425.067	16.42
425.273	16.32
425.478	16.29
425.684	16.35
425.889	16.19
426.095	16.46
426.301	16.16
426.506	16.17
426.712	16.12
426.917	16.31
427.123	16.31
427.328	16.43
427.533	16.37
427.739	16.57
427.944	16.46
428.15	16.5
428.355	16.02
428.561	16.26
428.766	16.29
428.971	16.1
429.177	15.91
429.382	16.02
429.587	15.79
429.793	15.65
429.998	15.52
430.203	15.38
430.408	15.59
430.614	15.64
430.819	15.45
431.024	15.32
431.229	15.39
431.434	15.29
431.64	15.26
431.845	15.32
432.05	15.45
432.255	15.37
432.46	15.58
432.665	15.33
432.87	15.5
433.076	15.56
433.281	15.54
433.486	15.54
433.691	15.55
433.896	15.52
434.101	15.49
434.306	15.51
434.511	15.6
434.716	15.53
434.921	15.64
435.126	15.57
435.331	15.67
435.535	15.64
435.74	15.73
435.945	15.81
436.15	15.69
436.355	15.83
436.56	15.9
436.765	15.82
436.97	15.8
437.174	15.79
437.379	15.78
437.584	15.67
437.789	15.76
437.993	15.8
438.198	15.79
438.403	16.03
438.608	15.94
438.812	15.98
439.017	15.88
439.222	16
439.426	15.87
439.631	15.74
439.836	15.76
440.04	15.89
440.245	15.85
440.45	15.85
440.654	15.74
440.859	15.76
441.063	15.73
441.268	15.74
441.472	15.65
441.677	15.85
441.881	16.06
442.086	16.07
442.29	15.82
442.495	15.89
442.699	15.95
442.904	15.9
443.108	15.77
443.312	15.73
443.517	15.78
443.721	15.71
443.925	15.54
444.13	15.43
444.334	15.54
444.538	15.67
444.743	15.5
444.947	15.44
445.151	15.55
445.356	15.62
445.56	15.62
445.764	15.79
445.968	15.9
446.173	15.85
446.377	15.72
446.581	15.66
446.785	15.64
446.989	15.67
447.193	15.61
447.398	15.63
447.602	15.85
447.806	15.82
448.01	15.7
448.214	15.68
448.418	15.71
448.622	15.76
448.826	15.62
449.03	15.68
449.234	15.83
449.438	15.87
449.642	15.87
449.846	15.47
450.05	15.44
450.254	15.33
450.458	15.18
450.662	15.29
450.866	15.34
451.069	15.54
451.273	15.3
451.477	15.13
451.681	15.15
451.885	15.05
452.089	15
452.292	14.94
452.496	14.92
452.7	14.97
452.904	14.97
453.107	14.96
453.311	15
453.515	15.19
453.719	15.2
453.922	15.08
454.126	14.9
454.33	15.08
454.533	15.11
454.737	15.14
454.94	15.21
455.144	15.08
455.348	15.17
455.551	15.14
455.755	15.05
455.958	15
456.162	15.07
456.365	15.23
456.569	15.29
456.772	15.38
456.976	15.31
457.179	15.16
457.383	15.1
457.586	15.12
457.79	15.01
457.993	15.04
458.196	14.96
458.4	15.2
458.603	15.05
458.807	14.98
459.01	14.98
459.213	15.18
459.417	15.39
459.62	15.4
459.823	15.32
460.026	15.28
460.23	15.29
460.433	15.38
460.636	15.36
460.839	15.58
461.042	15.58
