Data from CB_069_Reflection_1.txt Node
Date: Sat Nov 14 10:57:41 EST 2015
User: robert
Spectrometer: USB4E03001
Autoset integration time: false
Trigger mode: 4
Integration Time (sec): 1.000000E-1
Scans to average: 15
Electric dark correction enabled: true
Nonlinearity correction enabled: false
Boxcar width: 5
Stray light correction enabled: false
XAxis mode: Wavelengths
Stop averaging: false
Number of Pixels in Spectrum: 3648
>>>>>Begin Spectral Data<<<<<
177.566	-112.43
177.785	-88.94
178.005	-694.06
178.225	-60.32
178.445	1.3
178.665	-110.66
178.885	122.22
179.105	-39.93
179.324	-61.36
179.544	-182.59
179.764	-53.74
179.984	-68.47
180.204	-76.66
180.423	-362.62
180.643	-175.81
180.863	-300.05
181.083	-1452.74
181.302	-8111.11
181.522	964.72
181.742	1012.39
181.961	1362.06
182.181	216.22
182.401	163.55
182.621	261.25
182.84	1005.95
183.06	-3014.92
183.279	-314.8
183.499	-179.02
183.719	-233.61
183.938	-118.84
184.158	-78.94
184.377	-39.08
184.597	-21.32
184.816	-12.74
185.036	-10.14
185.256	-39.41
185.475	-125.85
185.695	-97.66
185.914	-64.19
186.134	-41.58
186.353	-91.64
186.572	-65.17
186.792	-214.85
187.011	858.4
187.231	151.3
187.45	-69.55
187.67	-75.97
187.889	204.72
188.108	103.98
188.328	122.82
188.547	81.72
188.766	47.73
188.986	40.5
189.205	53.62
189.424	50.59
189.644	77.39
189.863	83.74
190.082	111.45
190.302	147.27
190.521	93.33
190.74	113.22
190.959	348.47
191.178	367.59
191.398	324.94
191.617	879.71
191.836	2643.01
192.055	416.72
192.274	132.32
192.494	247.83
192.713	5087.5
192.932	-806.86
193.151	126475
193.37	244.48
193.589	-6363.72
193.808	-581.38
194.027	-871.62
194.246	2114.99
194.465	-1114.96
194.685	180.22
194.904	39.36
195.123	82.07
195.342	30.76
195.561	63.57
195.78	201.37
195.999	181.49
196.218	-168.37
196.436	-474.36
196.655	-145.35
196.874	-31.79
197.093	74.28
197.312	60.45
197.531	29.05
197.75	25.52
197.969	-666.14
198.188	-57.06
198.407	-0.74
198.625	64.87
198.844	165.33
199.063	172.38
199.282	156.29
199.501	837.11
199.719	74.55
199.938	-101.55
200.157	-60.82
200.376	-576.65
200.594	39.44
200.813	71.81
201.032	398.21
201.251	204.61
201.469	209.14
201.688	-190.94
201.907	1073.71
202.125	279.33
202.344	1474.47
202.563	9894.2
202.781	490.04
203	162.96
203.218	137.18
203.437	238.38
203.656	205.19
203.874	491.81
204.093	480.33
204.311	355.75
204.53	990.34
204.748	245
204.967	329.29
205.185	232.28
205.404	282.2
205.622	342.45
205.841	195.84
206.059	125.98
206.278	141.57
206.496	165.78
206.715	176.99
206.933	159.47
207.151	247.29
207.37	172.28
207.588	199
207.806	261.86
208.025	345.34
208.243	513.62
208.461	-34931.82
208.68	523.35
208.898	369.42
209.116	244.34
209.335	172.78
209.553	200.47
209.771	177.92
209.989	194.95
210.208	125.11
210.426	121.36
210.644	125.06
210.862	118.36
211.081	126.28
211.299	105.26
211.517	116.5
211.735	91.91
211.953	76.76
212.171	78.69
212.39	60.18
212.608	70.16
212.826	78.51
213.044	80.42
213.262	66.14
213.48	60.06
213.698	44.97
213.916	44.53
214.134	61.37
214.352	56.46
214.57	35.93
214.788	7.89
215.006	8.96
215.224	-61.38
215.442	-422.79
215.66	-642.89
215.878	-170.33
216.096	-30.63
216.314	-174.83
216.532	-464.72
216.75	476.56
216.968	383.13
217.185	2494.69
217.403	310.83
217.621	5755.56
217.839	139.89
218.057	2108.33
218.275	217.69
218.492	98.13
218.71	-38.87
218.928	390.48
219.146	449.77
219.363	216.66
219.581	293.83
219.799	-814.64
220.017	197.81
220.234	240.64
220.452	285.96
220.67	494.11
220.887	238.36
221.105	345.3
221.323	182.43
221.54	134.83
221.758	153.61
221.976	139.78
222.193	101.31
222.411	98.76
222.629	119.57
222.846	100.63
223.064	91.22
223.281	86.21
223.499	98.45
223.716	83.94
223.934	75.74
224.151	65.22
224.369	57.23
224.586	84.4
224.804	86.13
225.021	70.9
225.239	79.21
225.456	76.09
225.674	78.27
225.891	63.8
226.108	68.44
226.326	67.46
226.543	65.01
226.76	48.78
226.978	33.87
227.195	34.9
227.413	28.09
227.63	34.88
227.847	35.56
228.064	34
228.282	31.79
228.499	33.19
228.716	28.53
228.934	27.78
229.151	28.84
229.368	27.82
229.585	26.02
229.802	26.96
230.02	22.17
230.237	22.89
230.454	20.86
230.671	22.26
230.888	22.17
231.105	23.08
231.323	20.75
231.54	28.02
231.757	33.72
231.974	36.96
232.191	35.53
232.408	34.65
232.625	34.18
232.842	32.85
233.059	30.46
233.276	25.69
233.493	27.49
233.71	29.87
233.927	23.72
234.144	21.01
234.361	21.61
234.578	24.71
234.795	20.15
235.012	18.7
235.229	17.77
235.446	17.45
235.663	21.51
235.879	20.45
236.096	25.47
236.313	27.54
236.53	21.23
236.747	24.45
236.964	19.78
237.181	33.64
237.397	26.36
237.614	34.49
237.831	42.07
238.048	40.19
238.264	36.13
238.481	35.66
238.698	34.15
238.915	40.4
239.131	33.41
239.348	31.5
239.565	25.41
239.781	27.85
239.998	22.78
240.215	20.92
240.431	21.15
240.648	26.11
240.865	19.39
241.081	18.07
241.298	16.21
241.514	16.9
241.731	18.11
241.947	18.91
242.164	18.72
242.38	16.91
242.597	15.02
242.814	14.9
243.03	14.7
243.246	16.75
243.463	17.25
243.679	17.09
243.896	18.11
244.112	17.18
244.329	17.72
244.545	18.41
244.762	17.78
244.978	15.12
245.194	12.61
245.411	11.81
245.627	10.78
245.843	11.88
246.06	12.79
246.276	10.4
246.492	11.76
246.709	10.51
246.925	10.93
247.141	13.14
247.357	14.02
247.574	14.59
247.79	13.39
248.006	13.59
248.222	14.03
248.439	13.61
248.655	14.55
248.871	13.57
249.087	14.84
249.303	14.6
249.519	12.48
249.736	13.19
249.952	12.97
250.168	18.07
250.384	18.14
250.6	15.56
250.816	16.7
251.032	15.72
251.248	17.94
251.464	16.08
251.68	16.89
251.896	15.63
252.112	15.71
252.328	13.15
252.544	10.78
252.76	10.58
252.976	11.34
253.192	10.33
253.408	9.74
253.624	8.45
253.84	10.25
254.056	8.76
254.272	10.39
254.487	7.71
254.703	6.06
254.919	4.08
255.135	8.91
255.351	10.07
255.567	7.67
255.782	10.49
255.998	11.89
256.214	9.45
256.43	7.19
256.646	8.51
256.861	10.8
257.077	13.75
257.293	12.41
257.508	9.23
257.724	9.24
257.94	9.15
258.155	9.34
258.371	7.82
258.587	7.24
258.802	8.97
259.018	8.96
259.234	8.5
259.449	9.27
259.665	9.36
259.88	9.75
260.096	9.71
260.312	10.12
260.527	9.92
260.743	10.25
260.958	11.43
261.174	12.18
261.389	13.14
261.605	13.55
261.82	12.89
262.036	12.99
262.251	13.27
262.466	13.06
262.682	12.84
262.897	14.2
263.113	15.08
263.328	12.84
263.543	11.84
263.759	11.34
263.974	10.05
264.189	9.98
264.405	9.62
264.62	8.52
264.835	7.54
265.051	9.32
265.266	6.56
265.481	9.24
265.696	13.74
265.912	11.36
266.127	7.95
266.342	7.62
266.557	7.99
266.773	9.29
266.988	9.06
267.203	10.29
267.418	9.74
267.633	10.8
267.848	9.25
268.064	4.91
268.279	7.2
268.494	7.34
268.709	8
268.924	9.4
269.139	7.59
269.354	7.27
269.569	5.49
269.784	4.33
269.999	4.11
270.214	3.52
270.429	4.3
270.644	3.48
270.859	3.05
271.074	3.48
271.289	4.41
271.504	6.08
271.719	6.93
271.934	9.41
272.149	9.54
272.363	10.96
272.578	10.02
272.793	10.59
273.008	9.94
273.223	10.65
273.438	9.68
273.653	9.39
273.867	8.94
274.082	9.44
274.297	8.76
274.512	10.74
274.726	8.46
274.941	8.77
275.156	11.26
275.371	12.2
275.585	13.69
275.8	15.77
276.015	14.03
276.229	15.44
276.444	14.35
276.659	12.94
276.873	10.42
277.088	13.25
277.302	15.38
277.517	11.7
277.732	10.87
277.946	9.78
278.161	9.22
278.375	8.36
278.59	6.81
278.804	6.57
279.019	8.67
279.233	8.57
279.448	5.38
279.662	4.04
279.877	6.34
280.091	5.2
280.306	5.46
280.52	4.43
280.735	5.27
280.949	8.65
281.163	9.25
281.378	8.09
281.592	10.42
281.806	10.99
282.021	10.27
282.235	10.37
282.449	11.98
282.664	12.38
282.878	13.67
283.092	12.8
283.307	8.94
283.521	7.91
283.735	8.07
283.949	7.07
284.164	7.59
284.378	7.3
284.592	6
284.806	7.28
285.02	7.06
285.234	5.1
285.449	5.65
285.663	8.02
285.877	8.12
286.091	8.57
286.305	8.56
286.519	9.38
286.733	9.66
286.947	10.95
287.161	9.64
287.375	9.75
287.589	12.24
287.803	12.65
288.017	11.18
288.231	11.43
288.445	10.89
288.659	10.85
288.873	10.33
289.087	11.19
289.301	11.71
289.515	10.17
289.729	10.35
289.943	9.73
290.157	10.59
290.371	11.42
290.584	11.49
290.798	12.3
291.012	12.13
291.226	10.92
291.44	10.85
291.654	10.03
291.867	11.28
292.081	10.5
292.295	9.52
292.509	9.91
292.722	8.67
292.936	7.71
293.15	6.38
293.364	5.77
293.577	7.28
293.791	8.13
294.005	6.33
294.218	7.58
294.432	7.27
294.645	8.7
294.859	7.98
295.073	10.27
295.286	10.93
295.5	10.71
295.713	10.91
295.927	10.13
296.14	9.11
296.354	9.42
296.568	8.93
296.781	9.86
296.994	9.75
297.208	9.25
297.421	9.13
297.635	10.28
297.848	10.35
298.062	10.05
298.275	10.36
298.489	10.98
298.702	11.68
298.915	11.57
299.129	11.03
299.342	10.61
299.555	11.69
299.769	11.05
299.982	10.72
300.195	11.38
300.409	12.59
300.622	12.84
300.835	11.47
301.048	12.43
301.262	12.44
301.475	13.76
301.688	13.35
301.901	12.2
302.115	11.48
302.328	11.09
302.541	11.74
302.754	11.52
302.967	12.77
303.18	14.47
303.393	13.42
303.607	14.13
303.82	13.37
304.033	14.52
304.246	16.46
304.459	16.94
304.672	16.47
304.885	15.85
305.098	15.64
305.311	15.51
305.524	14.38
305.737	13.92
305.95	13.9
306.163	13.85
306.376	12.64
306.589	11.63
306.802	12.23
307.015	13.32
307.228	13.38
307.44	13.56
307.653	13.02
307.866	14.07
308.079	15.6
308.292	14.19
308.505	15.58
308.718	16.29
308.93	17.79
309.143	17.44
309.356	16.79
309.569	16.89
309.781	16.77
309.994	16.55
310.207	15.29
310.42	14.09
310.632	15.16
310.845	14.29
311.058	14.68
311.27	13.1
311.483	12.9
311.696	12.95
311.908	12.5
312.121	12.73
312.333	13.55
312.546	13.24
312.759	13.32
312.971	12.83
313.184	12.94
313.396	12.28
313.609	12.1
313.821	12.69
314.034	12.6
314.246	11.86
314.459	12.44
314.671	11.68
314.884	12.66
315.096	13.9
315.309	15.27
315.521	15.21
315.733	15.42
315.946	15.99
316.158	15.93
316.371	16.94
316.583	17.44
316.795	16.25
317.008	16.61
317.22	17.16
317.432	16.74
317.644	16.57
317.857	17.55
318.069	16.67
318.281	17.15
318.494	16.23
318.706	16.59
318.918	17.99
319.13	17.82
319.342	17.29
319.555	16.89
319.767	17.63
319.979	16.8
320.191	15.61
320.403	16.68
320.615	16.38
320.827	16.14
321.039	14.77
321.252	14.75
321.464	15.63
321.676	15.73
321.888	16.74
322.1	16.25
322.312	15.91
322.524	17.18
322.736	16.27
322.948	16.28
323.16	17.31
323.372	18.32
323.584	18.57
323.796	18.92
324.007	18.38
324.219	18.58
324.431	19.22
324.643	20.59
324.855	21.19
325.067	21.7
325.279	22.11
325.491	23.13
325.702	23.71
325.914	23.46
326.126	23.6
326.338	23.19
326.55	22.75
326.761	22.44
326.973	22.35
327.185	21.87
327.396	23.91
327.608	25
327.82	23.76
328.032	24.16
328.243	24.67
328.455	25.52
328.666	27.68
328.878	28.76
329.09	30.09
329.301	30.72
329.513	30.91
329.725	30.81
329.936	31
330.148	32.6
330.359	32.9
330.571	34.12
330.782	33.7
330.994	33.82
331.205	34.29
331.417	34.27
331.628	34.19
331.84	35.97
332.051	35.75
332.262	35.66
332.474	35.43
332.685	35.91
332.897	35.16
333.108	36.12
333.319	36.29
333.531	36.37
333.742	35.71
333.953	35.5
334.165	35.19
334.376	35.98
334.587	36.15
334.799	36.2
335.01	35.41
335.221	36.28
335.432	34.84
335.644	34.47
335.855	35.49
336.066	36.18
336.277	36.16
336.488	35.38
336.7	34.39
336.911	35.03
337.122	35.71
337.333	35.92
337.544	35.14
337.755	36.67
337.966	37.14
338.177	36.38
338.388	36.67
338.599	37.35
338.811	37.96
339.022	38.58
339.233	37.99
339.444	37.73
339.655	36.79
339.866	37.95
340.076	37.14
340.287	37.05
340.498	37.11
340.709	36.98
340.92	37.01
341.131	36.81
341.342	37.44
341.553	37.11
341.764	37.64
341.975	38.65
342.185	38.32
342.396	38.81
342.607	38.9
342.818	38.9
343.029	38.38
343.239	38.3
343.45	37.56
343.661	36.19
343.872	36.51
344.082	36.2
344.293	35.83
344.504	36.07
344.714	35.59
344.925	35.44
345.136	34.77
345.346	33.41
345.557	32.91
345.768	33.58
345.978	34.16
346.189	33.87
346.399	33.12
346.61	33.08
346.821	33.04
347.031	34.21
347.242	34.09
347.452	34.28
347.663	35.95
347.873	35.91
348.084	35.82
348.294	35.1
348.504	35.16
348.715	35.82
348.925	36.64
349.136	35.23
349.346	34.26
349.557	34.13
349.767	34.89
349.977	34.58
350.188	34.66
350.398	35.36
350.608	35.63
350.819	36.32
351.029	35.02
351.239	35.54
351.449	36.24
351.66	36.25
351.87	36.26
352.08	36.17
352.29	36.48
352.501	36.45
352.711	35.15
352.921	35.12
353.131	34.17
353.341	35.27
353.552	33.74
353.762	33.6
353.972	33.51
354.182	33.75
354.392	32.16
354.602	32.26
354.812	33
355.022	33.37
355.232	33.69
355.442	33.61
355.652	33.73
355.862	33.98
356.072	34.36
356.282	34.08
356.492	34.41
356.702	35.54
356.912	35.09
357.122	35.02
357.332	35.05
357.542	34.36
357.752	34.4
357.962	34.01
358.171	34.01
358.381	33.5
358.591	33.31
358.801	32.8
359.011	32.45
359.221	32.53
359.43	31.47
359.64	30.66
359.85	30.78
360.06	30.99
360.269	30.61
360.479	30.87
360.689	31.74
360.899	31.83
361.108	31.75
361.318	31.44
361.528	31.17
361.737	31.7
361.947	32.3
362.156	32.78
362.366	32.15
362.576	32.4
362.785	31.96
362.995	31.71
363.204	31.97
363.414	32.06
363.623	32.05
363.833	32.33
364.042	32.16
364.252	32.01
364.461	31.1
364.671	31.15
364.88	31.06
365.09	31.78
365.299	31.26
365.509	31.01
365.718	30.27
365.927	30.31
366.137	30.05
366.346	29.83
366.555	29.71
366.765	30.35
366.974	30.94
367.183	30.85
367.393	29.76
367.602	29.42
367.811	29.35
368.021	30.02
368.23	30
368.439	29.47
368.648	29.39
368.857	28.72
369.067	27.76
369.276	27.8
369.485	27.41
369.694	27.94
369.903	27.97
370.112	27.73
370.321	27.16
370.531	26.85
370.74	27.64
370.949	27.72
371.158	28.07
371.367	28.16
371.576	27.26
371.785	27.13
371.994	27.23
372.203	27.03
372.412	26.78
372.621	26.87
372.83	26.7
373.039	26.12
373.248	25.58
373.457	25.23
373.666	25.06
373.874	25.05
374.083	25.27
374.292	24.82
374.501	24.87
374.71	24.64
374.919	24.49
375.128	24.55
375.336	24.66
375.545	24.91
375.754	24.63
375.963	24.76
376.171	24.54
376.38	23.93
376.589	23.18
376.798	22.49
377.006	22.78
377.215	23.04
377.424	23.08
377.632	22.31
377.841	22.35
378.05	22.5
378.258	22.31
378.467	22.55
378.675	22.44
378.884	23.13
379.093	23.43
379.301	23.08
379.51	22.5
379.718	22.03
379.927	22.62
380.135	22.31
380.344	21.97
380.552	21.95
380.761	21.91
380.969	21.78
381.177	21.13
381.386	22.04
381.594	21.88
381.803	21.43
382.011	21.47
382.219	20.8
382.428	20.67
382.636	20.39
382.845	20.01
383.053	19.32
383.261	19.45
383.469	19.65
383.678	18.4
383.886	18.38
384.094	18.85
384.302	19.46
384.511	19.96
384.719	19.74
384.927	20
385.135	20.16
385.343	20.25
385.552	20.12
385.76	19.77
385.968	19.42
386.176	19.19
386.384	18.61
386.592	17.61
386.8	17.46
387.008	17.55
387.216	17.51
387.424	17.44
387.633	17.07
387.841	17.14
388.049	17.42
388.257	17.85
388.465	17.82
388.672	17.88
388.88	18.19
389.088	17.58
389.296	17.09
389.504	16.63
389.712	16.4
389.92	16.58
390.128	16.5
390.336	16.03
390.544	15.91
390.751	15.71
390.959	15.5
391.167	15.24
391.375	15.58
391.583	15.57
391.79	15.56
391.998	15.89
392.206	15.89
392.414	15.7
392.621	15.71
392.829	15.59
393.037	15.61
393.244	15.55
393.452	15.7
393.66	15.55
393.867	15.46
394.075	15.33
394.283	14.73
394.49	14.59
394.698	14.43
394.905	14.32
395.113	14.1
395.32	13.87
395.528	13.77
395.735	13.56
395.943	13.2
396.15	13.39
396.358	13.24
396.565	13.21
396.773	12.91
396.98	12.89
397.188	12.73
397.395	12.82
397.602	13.07
397.81	13.09
398.017	12.83
398.225	13.01
398.432	12.64
398.639	12.85
398.847	12.63
399.054	12.97
399.261	13.17
399.468	13.19
399.676	13.38
399.883	13.28
400.09	13.22
400.297	13.48
400.505	13.41
400.712	13.56
400.919	13.6
401.126	13.69
401.333	13.26
401.54	13.04
401.748	13.04
401.955	12.52
402.162	12.16
402.369	12.15
402.576	11.95
402.783	11.52
402.99	11.46
403.197	11.04
403.404	11.08
403.611	11.37
403.818	11.4
404.025	11.04
404.232	11.4
404.439	11.44
404.646	11.5
404.853	11.45
405.06	11.4
405.267	11.52
405.474	11.69
405.681	11.75
405.887	11.49
406.094	11.78
406.301	12.09
406.508	12.05
406.715	12.25
406.922	12.08
407.128	12.47
407.335	12.79
407.542	12.48
407.749	12.48
407.955	12.34
408.162	12.42
408.369	11.81
408.575	11.89
408.782	11.91
408.989	11.24
409.195	11.26
409.402	11.03
409.609	10.88
409.815	10.88
410.022	11.04
410.228	11.12
410.435	11.36
410.642	11.67
410.848	11.61
411.055	11.67
411.261	11.72
411.468	11.95
411.674	11.8
411.881	11.97
412.087	12.15
412.294	12.08
412.5	11.97
412.706	11.76
412.913	11.61
413.119	11.21
413.326	10.7
413.532	11.02
413.738	10.73
413.945	10.31
414.151	10.32
414.357	10.08
414.564	10.14
414.77	10.27
414.976	10.2
415.182	10.23
415.389	10.42
415.595	10.34
415.801	10.29
416.007	10.56
416.214	10.58
416.42	10.29
416.626	10.2
416.832	10.02
417.038	9.89
417.244	10
417.45	9.78
417.657	9.86
417.863	9.68
418.069	9.81
418.275	9.56
418.481	9.6
418.687	9.72
418.893	9.95
419.099	9.99
419.305	9.86
419.511	9.82
419.717	9.77
419.923	9.81
420.129	9.96
420.335	9.98
420.541	9.93
420.746	9.79
420.952	9.79
421.158	9.67
421.364	9.6
421.57	9.57
421.776	9.63
421.982	9.81
422.187	9.69
422.393	9.61
422.599	9.48
422.805	9.49
423.01	9.71
423.216	9.68
423.422	9.75
423.628	9.77
423.833	9.83
424.039	9.7
424.245	9.6
424.45	9.56
424.656	9.55
424.862	9.55
425.067	9.44
425.273	9.36
425.478	9.33
425.684	9.21
425.889	9.3
426.095	9.26
426.301	9.23
426.506	9.11
426.712	9.07
426.917	9.15
427.123	9.03
427.328	9.27
427.533	9.25
427.739	9.3
427.944	9.34
428.15	9.11
428.355	9.07
428.561	9.11
428.766	9.12
428.971	9.06
429.177	9.2
429.382	9.16
429.587	8.98
429.793	9.06
429.998	8.91
430.203	8.74
430.408	8.74
430.614	8.84
430.819	8.78
431.024	8.88
431.229	8.98
431.434	8.97
431.64	9
431.845	8.97
432.05	8.93
432.255	8.86
432.46	8.91
432.665	8.86
432.87	8.79
433.076	8.87
433.281	8.91
433.486	8.89
433.691	8.76
433.896	8.84
434.101	8.77
434.306	8.59
434.511	8.73
434.716	8.61
434.921	8.83
435.126	8.88
435.331	8.81
435.535	8.7
435.74	8.65
435.945	8.47
436.15	8.35
436.355	8.71
436.56	8.76
436.765	8.85
436.97	8.92
437.174	8.69
437.379	8.69
437.584	8.8
437.789	8.67
437.993	8.74
438.198	8.93
438.403	9.09
438.608	8.91
438.812	9.05
439.017	8.77
439.222	8.79
439.426	8.88
439.631	8.86
439.836	8.84
440.04	8.89
440.245	8.91
440.45	8.95
440.654	8.96
440.859	8.76
441.063	8.79
441.268	8.93
441.472	8.85
441.677	8.82
441.881	8.7
442.086	8.65
442.29	8.79
442.495	8.67
442.699	8.67
442.904	8.5
443.108	8.72
443.312	8.68
443.517	8.69
443.721	8.78
443.925	8.77
444.13	8.81
444.334	8.6
444.538	8.51
444.743	8.56
444.947	8.35
445.151	8.51
445.356	8.57
445.56	8.56
445.764	8.45
445.968	8.41
446.173	8.31
446.377	8.35
446.581	8.51
446.785	8.45
446.989	8.45
447.193	8.56
447.398	8.59
447.602	8.4
447.806	8.4
448.01	8.4
448.214	8.44
448.418	8.41
448.622	8.4
448.826	8.46
449.03	8.5
449.234	8.5
449.438	8.59
449.642	8.45
449.846	8.59
450.05	8.4
450.254	8.4
450.458	8.27
450.662	8.56
450.866	8.45
451.069	8.25
451.273	8.24
451.477	8.27
451.681	8.18
451.885	8.07
452.089	8.16
452.292	8.09
452.496	8.03
452.7	8.18
452.904	8.03
453.107	8.23
453.311	8.13
453.515	8.13
453.719	8.06
453.922	7.98
454.126	8.12
454.33	7.76
454.533	7.76
454.737	7.84
454.94	7.82
455.144	7.9
455.348	7.79
455.551	8.02
455.755	7.98
455.958	8.1
456.162	8.34
456.365	8.24
456.569	8.43
456.772	8.34
456.976	8.59
457.179	8.61
457.383	8.59
457.586	8.59
457.79	8.55
457.993	8.62
458.196	8.49
458.4	8.37
458.603	8.38
458.807	8.3
459.01	8.64
