Data from CB_035_Reflection_21-31-53-977.txt Node
Date: Wed Nov 11 21:31:53 EST 2015
User: robert
Spectrometer: USB4E03001
Autoset integration time: false
Trigger mode: 4
Integration Time (sec): 1.000000E-1
Scans to average: 15
Electric dark correction enabled: true
Nonlinearity correction enabled: false
Boxcar width: 5
Stray light correction enabled: false
XAxis mode: Wavelengths
Stop averaging: false
Number of Pixels in Spectrum: 3648
>>>>>Begin Spectral Data<<<<<
177.566	-20.35
177.785	480.26
178.005	72.37
178.225	49.83
178.445	44.17
178.665	46.81
178.885	-19.89
179.105	94.04
179.324	103.57
179.544	91.19
179.764	73.9
179.984	1.73
180.204	23.44
180.423	15.2
180.643	30.48
180.863	36.77
181.083	49.45
181.302	36.52
181.522	29.74
181.742	46.41
181.961	51.51
182.181	44.81
182.401	62.23
182.621	56.18
182.84	33.73
183.06	36.64
183.279	41.03
183.499	45.7
183.719	49.14
183.938	50.29
184.158	54.45
184.377	39.79
184.597	51.35
184.816	38.75
185.036	45.23
185.256	64
185.475	75.54
185.695	48
185.914	-10.74
186.134	23.48
186.353	19.7
186.572	-34
186.792	-41.55
187.011	-30.01
187.231	-19.97
187.45	-28.47
187.67	-57.62
187.889	-49.19
188.108	6.83
188.328	18.82
188.547	12.98
188.766	16.5
188.986	38.06
189.205	38.17
189.424	26.06
189.644	10.19
189.863	14.89
190.082	33.67
190.302	24.53
190.521	11.11
190.74	7.25
190.959	-5.58
191.178	7.28
191.398	9.24
191.617	16.88
191.836	21.47
192.055	33.12
192.274	28.43
192.494	35.16
192.713	51.76
192.932	60.52
193.151	54.37
193.37	82.55
193.589	97.51
193.808	117.33
194.027	119.47
194.246	98.93
194.465	87.05
194.685	86.15
194.904	58.63
195.123	35.52
195.342	6.51
195.561	14.21
195.78	8.58
195.999	-5.28
196.218	-7.85
196.436	-14.82
196.655	-28.35
196.874	-27.77
197.093	-2.44
197.312	47.6
197.531	61.59
197.75	80.96
197.969	80.05
198.188	58.29
198.407	40.55
198.625	47.98
198.844	58.87
199.063	50.6
199.282	38.31
199.501	35.02
199.719	15.99
199.938	44.68
200.157	9.54
200.376	28.41
200.594	89.65
200.813	91.46
201.032	87.45
201.251	100.69
201.469	103.55
201.688	91.38
201.907	69.41
202.125	57.74
202.344	40.79
202.563	58.28
202.781	63.78
203	44.68
203.218	36.85
203.437	44.09
203.656	39.16
203.874	36.28
204.093	38.65
204.311	47.14
204.53	44.6
204.748	59.01
204.967	69.6
205.185	82.65
205.404	89.17
205.622	103.25
205.841	87.16
206.059	76.96
206.278	84.51
206.496	91.38
206.715	80.22
206.933	80.58
207.151	71.66
207.37	56.51
207.588	49.54
207.806	45.56
208.025	53.09
208.243	44.04
208.461	62.11
208.68	55.12
208.898	50.13
209.116	51.18
209.335	49.76
209.553	50.12
209.771	70.44
209.989	68.58
210.208	68.44
210.426	58.43
210.644	69.58
210.862	73.46
211.081	102.45
211.299	128.25
211.517	107.86
211.735	83.39
211.953	87.54
212.171	63.7
212.39	48.86
212.608	63.73
212.826	53.75
213.044	57.23
213.262	43.92
213.48	34.57
213.698	18.74
213.916	35.39
214.134	44.65
214.352	65.49
214.57	54.25
214.788	55.97
215.006	25.81
215.224	18.94
215.442	-30.32
215.66	2.92
215.878	-7.31
216.096	15.28
216.314	13.85
216.532	25.42
216.75	17.54
216.968	34.89
217.185	34.34
217.403	46.18
217.621	46.65
217.839	54.58
218.057	51.48
218.275	60.5
218.492	63.91
218.71	49.87
218.928	45.73
219.146	40.78
219.363	34.03
219.581	62.31
219.799	36.32
220.017	44.7
220.234	40.57
220.452	49.96
220.67	44.95
220.887	36.51
221.105	41.29
221.323	31.3
221.54	31.23
221.758	30.54
221.976	17.38
222.193	23.62
222.411	10.84
222.629	9.85
222.846	-5.17
223.064	-24.36
223.281	-23.47
223.499	-10.04
223.716	9.57
223.934	20.45
224.151	15.45
224.369	10.49
224.586	9.21
224.804	21.84
225.021	9.09
225.239	10.41
225.456	34.14
225.674	23.31
225.891	16.44
226.108	10.78
226.326	-9.84
226.543	-10.67
226.76	-13.05
226.978	-18.42
227.195	-20.95
227.413	-3.27
227.63	0.38
227.847	-1.99
228.064	2.18
228.282	2.23
228.499	1.06
228.716	7.37
228.934	10.02
229.151	8.6
229.368	11.07
229.585	13.62
229.802	14.34
230.02	14.05
230.237	12.71
230.454	14.62
230.671	15.89
230.888	15.62
231.105	15.03
231.323	13.45
231.54	18.62
231.757	14.82
231.974	12.87
232.191	8.61
232.408	8.96
232.625	9.02
232.842	8.14
233.059	10.01
233.276	13.34
233.493	15.41
233.71	15.42
233.927	12.62
234.144	16.81
234.361	15.42
234.578	18.02
234.795	18.37
235.012	19.63
235.229	19.48
235.446	20.71
235.663	19.64
235.879	16.87
236.096	18.41
236.313	14.64
236.53	14.68
236.747	15.52
236.964	12.7
237.181	15.93
237.397	15.6
237.614	12.57
237.831	7.13
238.048	12.64
238.264	12.6
238.481	9.06
238.698	13.06
238.915	14.54
239.131	13.09
239.348	14.47
239.565	13.66
239.781	10.3
239.998	14.56
240.215	15.6
240.431	9.68
240.648	13.6
240.865	11.58
241.081	12.79
241.298	12.56
241.514	12.23
241.731	12.98
241.947	12.71
242.164	14.7
242.38	13.04
242.597	11.76
242.814	11.39
243.03	9.93
243.246	12.62
243.463	11.5
243.679	11.73
243.896	13.5
244.112	13.43
244.329	14.85
244.545	13.73
244.762	14.01
244.978	17.36
245.194	19.34
245.411	17.29
245.627	15.54
245.843	16
246.06	14.55
246.276	12.9
246.492	11.66
246.709	10.31
246.925	11.03
247.141	10.83
247.357	9.53
247.574	9.08
247.79	10.32
248.006	10.54
248.222	10.58
248.439	10.91
248.655	11.76
248.871	11.87
249.087	12.21
249.303	12.84
249.519	12.49
249.736	11.77
249.952	12.54
250.168	10.94
250.384	8.97
250.6	7.86
250.816	7.87
251.032	7.53
251.248	9.49
251.464	9.46
251.68	8.71
251.896	9.79
252.112	12.68
252.328	11.53
252.544	11.91
252.76	13.92
252.976	13.64
253.192	13.7
253.408	11.47
253.624	12.63
253.84	12.52
254.056	14.72
254.272	16.43
254.487	15.76
254.703	16.72
254.919	18
255.135	16.26
255.351	17.81
255.567	16.51
255.782	16.86
255.998	14.51
256.214	12.56
256.43	10.63
256.646	9.51
256.861	7.46
257.077	7.54
257.293	5.52
257.508	7.48
257.724	8.75
257.94	9.05
258.155	9.67
258.371	8.15
258.587	9.84
258.802	9.62
259.018	9.77
259.234	9.29
259.449	9.61
259.665	10.34
259.88	9.94
260.096	9.24
260.312	9.18
260.527	9.6
260.743	10.56
260.958	10.31
261.174	9.7
261.389	9.64
261.605	10.81
261.82	11.4
262.036	11.85
262.251	12
262.466	12.97
262.682	13.79
262.897	13.6
263.113	12.79
263.328	12.36
263.543	12.37
263.759	12.46
263.974	12.43
264.189	11.42
264.405	8.75
264.62	7.06
264.835	7.38
265.051	7.79
265.266	8.64
265.481	9.71
265.696	11.01
265.912	10.92
266.127	10.87
266.342	11.76
266.557	10.88
266.773	12.31
266.988	14.4
267.203	11.31
267.418	10.99
267.633	11.42
267.848	11.35
268.064	10.12
268.279	11.42
268.494	10.5
268.709	10.65
268.924	11.81
269.139	11.13
269.354	10.23
269.569	11.69
269.784	12.13
269.999	11.4
270.214	11.24
270.429	12.62
270.644	12.92
270.859	13.93
271.074	13.22
271.289	13.78
271.504	14.68
271.719	14.22
271.934	13.81
272.149	13.83
272.363	14.81
272.578	14.9
272.793	14.88
273.008	13.74
273.223	12.61
273.438	12.19
273.653	12.91
273.867	12.9
274.082	13.81
274.297	14.39
274.512	13.67
274.726	10.88
274.941	12.33
275.156	11.79
275.371	11.3
275.585	11.5
275.8	11.71
276.015	10.15
276.229	9.19
276.444	7.97
276.659	7.96
276.873	8.72
277.088	11.11
277.302	9.09
277.517	8.6
277.732	10.04
277.946	9.67
278.161	10.63
278.375	10.96
278.59	11.54
278.804	12.07
279.019	11.38
279.233	9.85
279.448	8.74
279.662	8.81
279.877	8.49
280.091	7.97
280.306	10.22
280.52	7.73
280.735	7.69
280.949	6.95
281.163	5.9
281.378	5.97
281.592	7.16
281.806	8.3
282.021	7.69
282.235	8.76
282.449	8.73
282.664	7.12
282.878	8.03
283.092	8.39
283.307	9.55
283.521	10.78
283.735	11.65
283.949	11.57
284.164	11.1
284.378	12.34
284.592	12.88
284.806	13.29
285.02	13.7
285.234	14.18
285.449	14.07
285.663	13.93
285.877	14.23
286.091	14.5
286.305	14.38
286.519	14.29
286.733	13.6
286.947	12.57
287.161	12.45
287.375	12.27
287.589	12.36
287.803	11.45
288.017	10.79
288.231	10.64
288.445	11.04
288.659	10.62
288.873	10.82
289.087	11.89
289.301	12.3
289.515	13.1
289.729	13.11
289.943	13.17
290.157	13.76
290.371	13.65
290.584	14.01
290.798	13.89
291.012	14.16
291.226	14.44
291.44	14.05
291.654	14.05
291.867	12.57
292.081	12.25
292.295	12.03
292.509	11.54
292.722	12.12
292.936	10.79
293.15	10.99
293.364	11.2
293.577	11.07
293.791	10.71
294.005	10.48
294.218	12.36
294.432	13.65
294.645	13.75
294.859	13.23
295.073	12.93
295.286	12.92
295.5	12.59
295.713	12.28
295.927	11.4
296.14	11.9
296.354	11.52
296.568	10.67
296.781	10.53
296.994	10.55
297.208	11.6
297.421	11.33
297.635	11.72
297.848	11.14
298.062	11.53
298.275	12.5
298.489	12.3
298.702	13.3
298.915	14.04
299.129	15.2
299.342	15.72
299.555	15.86
299.769	16.69
299.982	16.68
300.195	16.65
300.409	16.63
300.622	16.29
300.835	16.51
301.048	15.73
301.262	15.08
301.475	14.45
301.688	14.21
301.901	13.74
302.115	12.92
302.328	13.35
302.541	13.9
302.754	13.42
302.967	12.88
303.18	13.55
303.393	13.95
303.607	14.57
303.82	13.26
304.033	12.79
304.246	12.36
304.459	12.59
304.672	12.38
304.885	13.92
305.098	14.58
305.311	15.41
305.524	13.95
305.737	14.64
305.95	14.02
306.163	15.3
306.376	16.32
306.589	16.98
306.802	16.41
307.015	17.41
307.228	15.88
307.44	16.12
307.653	16.57
307.866	17.61
308.079	17.01
308.292	17.42
308.505	17.26
308.718	16.76
308.93	16.99
309.143	17.31
309.356	16.78
309.569	17.25
309.781	16.59
309.994	16.17
310.207	15.96
310.42	15.6
310.632	16.14
310.845	16.15
311.058	15.57
311.27	15.4
311.483	15.53
311.696	15.37
311.908	15.52
312.121	15.34
312.333	15.13
312.546	14.66
312.759	14.75
312.971	13.82
313.184	13.44
313.396	14.01
313.609	14.66
313.821	15.13
314.034	15.18
314.246	15.06
314.459	16.02
314.671	16.82
314.884	16.98
315.096	17.03
315.309	15.87
315.521	14.17
315.733	14.22
315.946	13.62
316.158	12.75
316.371	11.95
316.583	11.44
316.795	11.46
317.008	11.46
317.22	12.28
317.432	12.28
317.644	13.83
317.857	16.25
318.069	16.07
318.281	14.13
318.494	15.12
318.706	16.32
318.918	16.64
319.13	16.42
319.342	15.72
319.555	15.91
319.767	15.93
319.979	16.15
320.191	14.95
320.403	16.48
320.615	17.94
320.827	17.8
321.039	16.42
321.252	15.7
321.464	15.77
321.676	15
321.888	15.03
322.1	13.98
322.312	14.19
322.524	15.08
322.736	13.04
322.948	13.94
323.16	13.97
323.372	14.67
323.584	15.96
323.796	16.88
324.007	17.65
324.219	17.96
324.431	19.92
324.643	19.58
324.855	19.54
325.067	20.51
325.279	20.04
325.491	21.42
325.702	21.92
325.914	21.75
326.126	20.88
326.338	20.18
326.55	19.33
326.761	19.4
326.973	19.67
327.185	19.51
327.396	19.49
327.608	19.53
327.82	19.16
328.032	19.37
328.243	19.25
328.455	19.59
328.666	20.34
328.878	20.15
329.09	19.01
329.301	19.19
329.513	19.8
329.725	20
329.936	20.53
330.148	20.29
330.359	18.96
330.571	18.78
330.782	19.71
330.994	19.85
331.205	21.19
331.417	22.86
331.628	22.5
331.84	22.6
332.051	22.62
332.262	22.43
332.474	22.04
332.685	22.82
332.897	22.84
333.108	22.94
333.319	23.25
333.531	23.72
333.742	23.47
333.953	23.43
334.165	23.14
334.376	23.66
334.587	23.54
334.799	23.85
335.01	24.13
335.221	24.54
335.432	23.69
335.644	23.5
335.855	22.5
336.066	22.05
336.277	22.72
336.488	22.67
336.7	21.74
336.911	21.7
337.122	21.78
337.333	21.85
337.544	21.13
337.755	21.7
337.966	21.86
338.177	22.43
338.388	22.16
338.599	22.52
338.811	22.49
339.022	22.98
339.233	23.22
339.444	22.65
339.655	22.52
339.866	23.06
340.076	22.37
340.287	23.4
340.498	23.07
340.709	23.46
340.92	22.91
341.131	22.91
341.342	22.24
341.553	21.93
341.764	21.77
341.975	21.74
342.185	21.94
342.396	21.87
342.607	21.2
342.818	21.1
343.029	20.74
343.239	20.1
343.45	19.83
343.661	19.68
343.872	19.87
344.082	19.83
344.293	20.26
344.504	19.92
344.714	20.51
344.925	20.1
345.136	20.37
345.346	21.48
345.557	21.86
345.768	21.81
345.978	21.88
346.189	22.56
346.399	23.04
346.61	22.81
346.821	22.81
347.031	22.06
347.242	22.44
347.452	22.39
347.663	21.8
347.873	21.64
348.084	22.65
348.294	23.35
348.504	22.27
348.715	21.88
348.925	22.01
349.136	22.24
349.346	21.92
349.557	21.83
349.767	21.58
349.977	20.88
350.188	21.94
350.398	20.92
350.608	20.44
350.819	21.31
351.029	21.64
351.239	21.22
351.449	21.83
351.66	21.3
351.87	21.14
352.08	21.1
352.29	21.57
352.501	20.99
352.711	21.08
352.921	21.35
353.131	20.89
353.341	20.87
353.552	21.22
353.762	20
353.972	21.59
354.182	21
354.392	21.27
354.602	21.14
354.812	20.32
355.022	20.64
355.232	20.68
355.442	21.04
355.652	21.36
355.862	21.18
356.072	20.86
356.282	20.24
356.492	20.61
356.702	20.63
356.912	20.18
357.122	19.95
357.332	20.23
357.542	20.61
357.752	20.64
357.962	20.37
358.171	20.62
358.381	20.91
358.591	20.37
358.801	20.04
359.011	19.55
359.221	20.16
359.43	21.15
359.64	20.42
359.85	20.41
360.06	19.98
360.269	19.84
360.479	19.43
360.689	19.54
360.899	19.95
361.108	20.67
361.318	20.75
361.528	20.72
361.737	19.79
361.947	19.99
362.156	19.46
362.366	19.61
362.576	18.87
362.785	19.18
362.995	19.09
363.204	18.84
363.414	18.38
363.623	18.82
363.833	18.22
364.042	18.38
364.252	18.54
364.461	18.32
364.671	18
364.88	18.98
365.09	18.48
365.299	18.55
365.509	18.88
365.718	18.9
365.927	18.44
366.137	18.5
366.346	18.7
366.555	18.59
366.765	18.88
366.974	18.54
367.183	18.52
367.393	19.27
367.602	19.16
367.811	19.22
368.021	18.52
368.23	18.38
368.439	18.56
368.648	18.65
368.857	18.41
369.067	17.41
369.276	17.5
369.485	17.35
369.694	16.85
369.903	16.71
370.112	16.58
370.321	17.1
370.531	17.31
370.74	17.84
370.949	17.31
371.158	16.84
371.367	17.65
371.576	17.88
371.785	17.79
371.994	17.71
372.203	17.62
372.412	17.85
372.621	17.77
372.83	16.72
373.039	16.4
373.248	16.85
373.457	17.32
373.666	17.3
373.874	17.28
374.083	16.96
374.292	16.39
374.501	16.77
374.71	16.43
374.919	16.61
375.128	17.89
375.336	17.33
375.545	17.19
375.754	17.43
375.963	17.43
376.171	17.22
376.38	17.33
376.589	17.73
376.798	17.53
377.006	17.52
377.215	17.44
377.424	17.09
377.632	16.96
377.841	16.99
378.05	16.62
378.258	16.34
378.467	16.46
378.675	16.38
378.884	16.18
379.093	15.62
379.301	15.48
379.51	15.27
379.718	15.3
379.927	15.41
380.135	15.27
380.344	15.11
380.552	15.39
380.761	14.72
380.969	14.67
381.177	14.76
381.386	15.55
381.594	15.39
381.803	15.29
382.011	14.86
382.219	14.74
382.428	14.94
382.636	14.79
382.845	14.65
383.053	14.77
383.261	15.04
383.469	14.81
383.678	13.96
383.886	14.09
384.094	14.1
384.302	14.46
384.511	14.58
384.719	14.05
384.927	14.29
385.135	14.28
385.343	14.64
385.552	14.35
385.76	14.22
385.968	14.49
386.176	14.48
386.384	14.26
386.592	14.14
386.8	14.34
387.008	14.46
387.216	14.47
387.424	14.7
387.633	14.53
387.841	14.27
388.049	14.25
388.257	14.44
388.465	14.44
388.672	14.55
388.88	14.34
389.088	14.21
389.296	14.27
389.504	13.84
389.712	13.32
389.92	12.93
390.128	12.85
390.336	13.13
390.544	13.14
390.751	12.75
390.959	12.77
391.167	12.55
391.375	12.41
391.583	12.58
391.79	12.63
391.998	12.64
392.206	12.67
392.414	12.56
392.621	12.29
392.829	12.35
393.037	12.54
393.244	12.29
393.452	12.34
393.66	12.12
393.867	11.82
394.075	11.98
394.283	11.86
394.49	11.84
394.698	12.02
394.905	12.09
395.113	11.6
395.32	11.63
395.528	11.71
395.735	11.86
395.943	11.74
396.15	11.77
396.358	11.71
396.565	11.86
396.773	11.82
396.98	11.94
397.188	11.92
397.395	12.07
397.602	11.93
397.81	12.27
398.017	11.91
398.225	11.95
398.432	12.07
398.639	12.06
398.847	11.52
399.054	11.65
399.261	11.27
399.468	11.16
399.676	11.28
399.883	11.17
400.09	10.23
400.297	10.38
400.505	10.12
400.712	9.99
400.919	9.86
401.126	10.05
401.333	9.91
401.54	9.76
401.748	9.64
401.955	9.46
402.162	9.43
402.369	9.8
402.576	9.56
402.783	9.71
402.99	9.36
403.197	9.13
403.404	9.27
403.611	9.56
403.818	9.71
404.025	9.76
404.232	9.82
404.439	9.91
404.646	9.45
404.853	9.43
405.06	9.59
405.267	9.67
405.474	9.71
405.681	9.65
405.887	9.41
406.094	9.5
406.301	9.53
406.508	9.33
406.715	9.3
406.922	9.76
407.128	9.86
407.335	9.7
407.542	9.62
407.749	9.54
407.955	9.58
408.162	9.32
408.369	9
408.575	9.01
408.782	9.28
408.989	9.27
409.195	9.32
409.402	9.29
409.609	9.42
409.815	9.23
410.022	9.33
410.228	9.43
410.435	9.43
410.642	9.41
410.848	9.06
411.055	9.07
411.261	8.88
411.468	8.72
411.674	8.8
411.881	8.75
412.087	8.98
412.294	9.14
412.5	9.12
412.706	9.14
412.913	9.12
413.119	9.42
413.326	9.01
413.532	9.06
413.738	9.01
413.945	8.8
414.151	8.52
414.357	8.37
414.564	8.2
414.77	8.02
414.976	8.13
415.182	8.17
415.389	8.08
415.595	8.13
415.801	8.05
416.007	8.25
416.214	8.2
416.42	8.56
416.626	8.52
416.832	8.65
417.038	8.68
417.244	8.56
417.45	8.46
417.657	8.42
417.863	8.39
418.069	8.26
418.275	8.03
418.481	7.95
418.687	7.93
418.893	8.02
419.099	8.15
419.305	7.9
419.511	7.96
419.717	8.21
419.923	8.19
420.129	8.11
420.335	8.3
420.541	8.37
420.746	8.39
420.952	8.26
421.158	8.08
421.364	7.85
421.57	7.85
421.776	7.89
421.982	7.75
422.187	7.83
422.393	7.75
422.599	7.64
422.805	7.53
423.01	7.63
423.216	7.59
423.422	7.72
423.628	7.71
423.833	7.71
424.039	7.61
424.245	7.64
424.45	7.51
424.656	7.65
424.862	7.61
425.067	7.79
425.273	7.75
425.478	7.62
425.684	7.46
425.889	7.25
426.095	7.39
426.301	7.41
426.506	7.36
426.712	7.33
426.917	7.07
427.123	6.96
427.328	6.73
427.533	6.53
427.739	6.64
427.944	6.8
428.15	7.03
428.355	6.98
428.561	6.97
428.766	6.95
428.971	7.09
429.177	7.38
429.382	7.55
429.587	7.46
429.793	7.57
429.998	7.46
430.203	7.45
430.408	7.34
430.614	7.31
430.819	7.21
431.024	7.27
431.229	7.38
431.434	7.23
431.64	7.38
431.845	7.51
432.05	7.63
432.255	7.63
432.46	7.41
432.665	7.32
432.87	7.4
433.076	7.52
433.281	7.48
433.486	7.28
433.691	7.3
433.896	6.95
434.101	6.93
434.306	6.76
434.511	6.8
434.716	6.86
434.921	7.13
435.126	6.94
435.331	6.77
435.535	6.68
435.74	6.48
435.945	6.23
436.15	6.54
436.355	6.74
436.56	6.94
436.765	6.79
436.97	6.89
437.174	6.71
437.379	6.79
437.584	6.91
437.789	6.82
437.993	7.26
438.198	7.41
438.403	7.26
438.608	7.06
438.812	6.9
439.017	7.09
439.222	7.26
439.426	7.28
439.631	7.22
439.836	7.24
440.04	7.29
440.245	7.02
440.45	7.09
440.654	7.18
440.859	7.11
441.063	7.04
441.268	6.95
441.472	6.81
441.677	6.75
441.881	6.88
442.086	6.86
442.29	6.86
442.495	6.9
442.699	6.86
442.904	6.65
443.108	6.71
443.312	6.67
443.517	6.76
443.721	6.76
443.925	6.69
444.13	6.55
444.334	6.47
444.538	6.35
444.743	6.28
444.947	6.15
445.151	6.09
445.356	6.01
445.56	6.03
445.764	5.99
445.968	5.9
446.173	5.96
446.377	6.05
446.581	6.15
446.785	6.21
446.989	6.23
447.193	6.4
447.398	6.43
447.602	6.42
447.806	6.34
448.01	6.4
448.214	6.52
448.418	6.36
448.622	6.28
448.826	6.02
449.03	5.95
449.234	5.84
449.438	5.76
449.642	5.87
449.846	5.99
450.05	6.2
450.254	6.02
450.458	6.06
450.662	6.29
450.866	6.05
451.069	6.28
451.273	6.17
451.477	6.02
451.681	6.14
451.885	6.11
452.089	5.86
452.292	5.82
452.496	5.88
452.7	5.74
452.904	5.68
453.107	5.86
453.311	5.62
453.515	5.74
453.719	5.99
453.922	5.85
454.126	5.88
454.33	6.02
454.533	6.02
454.737	6.12
454.94	6.07
455.144	6.14
455.348	6.24
455.551	6.45
455.755	6.43
455.958	6.52
456.162	6.45
456.365	6.47
456.569	6.58
456.772	6.64
456.976	6.45
457.179	6.67
457.383	6.51
457.586	6.51
457.79	6.4
457.993	6.24
458.196	6.15
458.4	6.09
458.603	5.93
458.807	5.84
459.01	5.86
459.213	5.95
459.417	5.87
459.62	6.03
459.823	5.95
460.026	6.02
460.23	6.2
460.433	6.14
460.636	6.27
460.839	6.42
461.042	6.51
461.246	6.5
461.449	6.43
461.652	6.31
461.855	6.27
462.058	6.37
