Data from CB_047_Reflection_1.txt Node
Date: Wed Nov 11 22:26:07 EST 2015
User: robert
Spectrometer: USB4E03001
Autoset integration time: false
Trigger mode: 4
Integration Time (sec): 1.000000E-1
Scans to average: 15
Electric dark correction enabled: true
Nonlinearity correction enabled: false
Boxcar width: 5
Stray light correction enabled: false
XAxis mode: Wavelengths
Stop averaging: false
Number of Pixels in Spectrum: 3648
>>>>>Begin Spectral Data<<<<<
177.566	-64.6
177.785	-885.53
178.005	118.58
178.225	437.88
178.445	12.77
178.665	28.55
178.885	567.3
179.105	-55.68
179.324	3.57
179.544	40.66
179.764	69.53
179.984	26.8
180.204	24.75
180.423	10.49
180.643	10.96
180.863	31.97
181.083	34.25
181.302	47.07
181.522	40.19
181.742	35.56
181.961	54.8
182.181	51.87
182.401	70.33
182.621	82.96
182.84	85.83
183.06	85.5
183.279	76.37
183.499	92.76
183.719	86.72
183.938	88.99
184.158	104.99
184.377	82.83
184.597	104.65
184.816	113.4
185.036	88.77
185.256	82.02
185.475	100.01
185.695	116.56
185.914	88.11
186.134	126.36
186.353	118.44
186.572	97.04
186.792	100.82
187.011	72.94
187.231	60.68
187.45	71.4
187.67	54.99
187.889	38.73
188.108	59.83
188.328	58.95
188.547	56.56
188.766	71.2
188.986	56.62
189.205	45.58
189.424	50.73
189.644	62.89
189.863	64.56
190.082	82.2
190.302	65.21
190.521	37.79
190.74	30.93
190.959	38.98
191.178	25.86
191.398	33.57
191.617	29.92
191.836	24.39
192.055	19.41
192.274	18.24
192.494	14.3
192.713	36.54
192.932	64.56
193.151	75.06
193.37	69.69
193.589	102.22
193.808	105.06
194.027	124.34
194.246	109.57
194.465	110.44
194.685	108.13
194.904	91.2
195.123	78.09
195.342	65.4
195.561	63.43
195.78	68.11
195.999	67.92
196.218	71.03
196.436	78.69
196.655	78.11
196.874	87.01
197.093	84.06
197.312	67.86
197.531	49.1
197.75	52.11
197.969	60.4
198.188	38.23
198.407	11.49
198.625	28.49
198.844	27.29
199.063	36
199.282	24.61
199.501	9.95
199.719	-0.03
199.938	55.59
200.157	15.46
200.376	21.29
200.594	44.83
200.813	60.81
201.032	53.87
201.251	48.3
201.469	47.94
201.688	46.18
201.907	49.14
202.125	39.53
202.344	36.63
202.563	64.52
202.781	66.96
203	64.92
203.218	57.85
203.437	71.8
203.656	62.03
203.874	48.65
204.093	53.98
204.311	71.35
204.53	80.7
204.748	72.93
204.967	59.98
205.185	53.34
205.404	59.27
205.622	77.28
205.841	61.89
206.059	58.24
206.278	91.01
206.496	86.28
206.715	76.73
206.933	82.79
207.151	82.44
207.37	77.15
207.588	71.16
207.806	62.93
208.025	64.44
208.243	49.33
208.461	48.43
208.68	33.71
208.898	36.16
209.116	17.39
209.335	24.07
209.553	2.59
209.771	12.28
209.989	32.39
210.208	32.07
210.426	18.77
210.644	39.63
210.862	56.91
211.081	57.96
211.299	54.01
211.517	83.24
211.735	57.25
211.953	72.15
212.171	79.38
212.39	76.55
212.608	81.42
212.826	82.47
213.044	91.34
213.262	77.47
213.48	89.53
213.698	82
213.916	93.55
214.134	102.07
214.352	114.98
214.57	69.04
214.788	92.68
215.006	89.09
215.224	58.81
215.442	-2.85
215.66	-31.38
215.878	22.95
216.096	30.84
216.314	15.18
216.532	19.67
216.75	16.64
216.968	39.08
217.185	37.15
217.403	49.44
217.621	46.66
217.839	53.27
218.057	57.97
218.275	58.86
218.492	60.84
218.71	63.34
218.928	58.73
219.146	60.14
219.363	59.88
219.581	52.94
219.799	33.5
220.017	37.76
220.234	32.18
220.452	31.29
220.67	36.87
220.887	40.91
221.105	44.32
221.323	33.61
221.54	32.81
221.758	41.18
221.976	48.02
222.193	57.72
222.411	61.92
222.629	72.47
222.846	75.4
223.064	66.31
223.281	73.36
223.499	64.75
223.716	66.67
223.934	70.78
224.151	64.32
224.369	67.69
224.586	62.32
224.804	60.45
225.021	48.45
225.239	41.41
225.456	56.16
225.674	43.4
225.891	44.71
226.108	46.77
226.326	29.87
226.543	31.92
226.76	22.94
226.978	16.6
227.195	13.09
227.413	17.16
227.63	23.18
227.847	16.67
228.064	17.18
228.282	13.16
228.499	11.73
228.716	15.2
228.934	13.47
229.151	13.31
229.368	14.18
229.585	15.1
229.802	15.42
230.02	10.28
230.237	8.44
230.454	9.89
230.671	9.77
230.888	9.89
231.105	9.9
231.323	12.7
231.54	20.11
231.757	15.39
231.974	14.66
232.191	8.52
232.408	12.15
232.625	17.87
232.842	18.22
233.059	19.33
233.276	17.49
233.493	17.78
233.71	14.87
233.927	7.33
234.144	15.59
234.361	20.05
234.578	26.81
234.795	26.63
235.012	23.52
235.229	18.57
235.446	24.09
235.663	23.93
235.879	24.5
236.096	22.33
236.313	19.82
236.53	22.33
236.747	23.71
236.964	24.06
237.181	27.45
237.397	24.71
237.614	27.88
237.831	24.37
238.048	26.31
238.264	25.13
238.481	23.17
238.698	21.3
238.915	19.77
239.131	13.96
239.348	13.09
239.565	10.48
239.781	15.1
239.998	14.09
240.215	12.31
240.431	13.45
240.648	15.92
240.865	16.53
241.081	19.91
241.298	17.72
241.514	18.49
241.731	17.87
241.947	17.08
242.164	17.6
242.38	16.94
242.597	17.02
242.814	16.77
243.03	17.3
243.246	19.46
243.463	18.98
243.679	19.33
243.896	21.46
244.112	23.53
244.329	27.01
244.545	25.3
244.762	26.65
244.978	26.5
245.194	26.23
245.411	22.81
245.627	19.92
245.843	17.87
246.06	17.66
246.276	15.5
246.492	14.12
246.709	12.35
246.925	12.83
247.141	12.49
247.357	11.6
247.574	11.82
247.79	12.45
248.006	12.63
248.222	14.02
248.439	13.8
248.655	13.82
248.871	13.26
249.087	13.52
249.303	13.15
249.519	12.83
249.736	13.69
249.952	12
250.168	12.52
250.384	10.32
250.6	7.44
250.816	10.05
251.032	10.16
251.248	10.76
251.464	8.52
251.68	11.73
251.896	13.23
252.112	13.29
252.328	14.02
252.544	12.01
252.76	12.9
252.976	13.74
253.192	11.16
253.408	10.22
253.624	11.82
253.84	12.77
254.056	10.72
254.272	12.12
254.487	12.17
254.703	14.18
254.919	16.3
255.135	16.35
255.351	18.86
255.567	19.85
255.782	20.83
255.998	19.15
256.214	20.88
256.43	20.7
256.646	18.95
256.861	19.16
257.077	16.48
257.293	14.85
257.508	15.96
257.724	13.97
257.94	14.34
258.155	12.85
258.371	12.47
258.587	12.34
258.802	11.61
259.018	11.47
259.234	10.36
259.449	11.39
259.665	11.06
259.88	10.98
260.096	10.35
260.312	9.78
260.527	10.22
260.743	9.87
260.958	9.89
261.174	9.89
261.389	10.19
261.605	10.84
261.82	10.65
262.036	11.3
262.251	11.56
262.466	11.92
262.682	12.73
262.897	13.31
263.113	13.35
263.328	12.77
263.543	12.59
263.759	10.01
263.974	10.58
264.189	9.91
264.405	8.86
264.62	6.35
264.835	6.76
265.051	5.05
265.266	5.8
265.481	6.96
265.696	7.22
265.912	9.25
266.127	11.5
266.342	10.95
266.557	10.84
266.773	10.66
266.988	11.73
267.203	10.44
267.418	11.53
267.633	11.47
267.848	11.96
268.064	9.82
268.279	9.54
268.494	8.21
268.709	8.11
268.924	10.07
269.139	10.14
269.354	10.63
269.569	11.03
269.784	12.35
269.999	11.38
270.214	9.91
270.429	11.76
270.644	10.31
270.859	10.83
271.074	10.03
271.289	8.38
271.504	8.81
271.719	8.07
271.934	8.2
272.149	7.15
272.363	7.84
272.578	9.36
272.793	8.86
273.008	8.74
273.223	8.23
273.438	8.59
273.653	10.6
273.867	11.23
274.082	11.9
274.297	12
274.512	12.42
274.726	10.57
274.941	10.23
275.156	11.64
275.371	12.22
275.585	13
275.8	12.36
276.015	9.33
276.229	8.69
276.444	9.01
276.659	9.48
276.873	9.31
277.088	10.68
277.302	10.5
277.517	9.42
277.732	11
277.946	11.25
278.161	13.65
278.375	14.02
278.59	14.77
278.804	13.9
279.019	13.69
279.233	14.33
279.448	15.23
279.662	14.79
279.877	15.07
280.091	13.69
280.306	13.46
280.52	11.45
280.735	12.03
280.949	11.32
281.163	11.96
281.378	11.01
281.592	8.77
281.806	8.16
282.021	7.72
282.235	7.31
282.449	7.32
282.664	6.63
282.878	6.43
283.092	6.72
283.307	7.93
283.521	7.54
283.735	9.27
283.949	11.04
284.164	11.46
284.378	11.33
284.592	12.06
284.806	12.61
285.02	12.87
285.234	14.15
285.449	13.16
285.663	12.6
285.877	13.16
286.091	12.63
286.305	11.79
286.519	11.16
286.733	11.71
286.947	11.01
287.161	10.72
287.375	10.73
287.589	11.25
287.803	11.33
288.017	10.34
288.231	10.17
288.445	11.26
288.659	10.69
288.873	11.1
289.087	11.29
289.301	11.93
289.515	12.15
289.729	11.67
289.943	9.91
290.157	10.11
290.371	10.45
290.584	10.35
290.798	9.59
291.012	11.2
291.226	11.8
291.44	11
291.654	11.28
291.867	10.86
292.081	11.09
292.295	12.85
292.509	13.07
292.722	13.07
292.936	12.37
293.15	13.25
293.364	13.2
293.577	12.95
293.791	12.52
294.005	11.11
294.218	11.45
294.432	12.82
294.645	11.21
294.859	10.47
295.073	10.72
295.286	10.88
295.5	8.61
295.713	8.55
295.927	7.81
296.14	8.36
296.354	9.43
296.568	9.07
296.781	8.17
296.994	9.24
297.208	10.46
297.421	10.65
297.635	10.85
297.848	11.74
298.062	11.48
298.275	11.73
298.489	11.99
298.702	11.77
298.915	12.78
299.129	13.67
299.342	12.9
299.555	13.16
299.769	13.82
299.982	13.86
300.195	14.18
300.409	13.91
300.622	13.93
300.835	12.74
301.048	11.46
301.262	11.3
301.475	10.49
301.688	10.33
301.901	9.37
302.115	7.74
302.328	8.15
302.541	8.38
302.754	8.69
302.967	8.5
303.18	10.53
303.393	11.08
303.607	11
303.82	11.51
304.033	11.41
304.246	11.24
304.459	12.14
304.672	12.51
304.885	13.02
305.098	12.96
305.311	14.24
305.524	12.34
305.737	13.3
305.95	12.84
306.163	12.56
306.376	13.36
306.589	13.56
306.802	13.67
307.015	14.03
307.228	12.89
307.44	13.19
307.653	13.34
307.866	14.55
308.079	14.88
308.292	13.73
308.505	13.79
308.718	12.84
308.93	14.01
309.143	13.84
309.356	12.96
309.569	13.67
309.781	13.82
309.994	13.2
310.207	13.05
310.42	12.47
310.632	13.72
310.845	13.34
311.058	13.89
311.27	12.98
311.483	13.44
311.696	13.91
311.908	13.82
312.121	13.37
312.333	12.91
312.546	12.84
312.759	13.07
312.971	12.6
313.184	12.61
313.396	12.84
313.609	13.61
313.821	13.54
314.034	13.5
314.246	13.61
314.459	14.41
314.671	15.46
314.884	16.55
315.096	16.87
315.309	16.36
315.521	16.4
315.733	16.49
315.946	16.22
316.158	15.18
316.371	15.09
316.583	14.66
316.795	14.62
317.008	14.45
317.22	14.22
317.432	14.14
317.644	15.18
317.857	16.55
318.069	15.68
318.281	14.12
318.494	14.97
318.706	14.89
318.918	14.92
319.13	15.23
319.342	14.64
319.555	13.84
319.767	14.61
319.979	13.36
320.191	12.16
320.403	14.11
320.615	14.87
320.827	15.57
321.039	15.23
321.252	14.85
321.464	14.57
321.676	14.32
321.888	14.5
322.1	13.3
322.312	14.24
322.524	15.38
322.736	14.2
322.948	14.72
323.16	14
323.372	13.89
323.584	14.64
323.796	15.14
324.007	15.56
324.219	16.61
324.431	16.29
324.643	16.18
324.855	15.67
325.067	15.89
325.279	15.89
325.491	16.15
325.702	16.14
325.914	16.65
326.126	16.51
326.338	14.81
326.55	13.11
326.761	13.68
326.973	14.55
327.185	14.75
327.396	14.9
327.608	14.13
327.82	15.34
328.032	15.61
328.243	15.43
328.455	15.97
328.666	18.32
328.878	19.79
329.09	20.44
329.301	19.35
329.513	19.68
329.725	18.93
329.936	20.74
330.148	19.14
330.359	19.77
330.571	19.73
330.782	19.09
330.994	19.29
331.205	19.04
331.417	18.57
331.628	19.45
331.84	19.46
332.051	19.77
332.262	19.47
332.474	19.83
332.685	20.73
332.897	20.66
333.108	22.08
333.319	21.62
333.531	22.1
333.742	22.07
333.953	21.3
334.165	20.4
334.376	21.98
334.587	21.27
334.799	21.29
335.01	20.44
335.221	20.45
335.432	18.74
335.644	19
335.855	19.65
336.066	19.9
336.277	20.35
336.488	21.14
336.7	20.07
336.911	20.86
337.122	21.28
337.333	21.31
337.544	21.27
337.755	21.76
337.966	21.4
338.177	20.04
338.388	19.93
338.599	20.9
338.811	20.74
339.022	20.04
339.233	19.94
339.444	19.74
339.655	19.25
339.866	19.62
340.076	19.4
340.287	20.5
340.498	21.3
340.709	21.28
340.92	20.55
341.131	20.21
341.342	21.41
341.553	20.85
341.764	20.32
341.975	20.43
342.185	20.14
342.396	20.89
342.607	19.92
342.818	19.62
343.029	18.53
343.239	18.29
343.45	17.88
343.661	17.29
343.872	16.98
344.082	16.68
344.293	16.88
344.504	16.66
344.714	16.74
344.925	16.76
345.136	16.39
345.346	17.74
345.557	17.77
345.768	18.23
345.978	18.62
346.189	20.3
346.399	20.55
346.61	20.08
346.821	20.56
347.031	20.07
347.242	20.77
347.452	22.07
347.663	22.29
347.873	23.23
348.084	23.32
348.294	23.42
348.504	21.71
348.715	22.3
348.925	23.38
349.136	22.76
349.346	22.22
349.557	21.85
349.767	20.9
349.977	20.45
350.188	19.28
350.398	19.11
350.608	18.73
350.819	19.02
351.029	18.96
351.239	17.54
351.449	17.97
351.66	17.17
351.87	18.05
352.08	18.18
352.29	18.42
352.501	19.56
352.711	19.34
352.921	19.26
353.131	19.83
353.341	19.3
353.552	20.1
353.762	19.31
353.972	20.62
354.182	19.02
354.392	19.25
354.602	18.63
354.812	16.93
355.022	17.14
355.232	17.57
355.442	17.65
355.652	17.7
355.862	17.57
356.072	17.73
356.282	17.54
356.492	18.4
356.702	17.83
356.912	17.89
357.122	18.86
357.332	19.23
357.542	19.24
357.752	18.76
357.962	18.61
358.171	19.02
358.381	19.32
358.591	19.37
358.801	18.85
359.011	18.72
359.221	18.9
359.43	19.24
359.64	18.02
359.85	17.73
360.06	17.72
360.269	18.07
360.479	17.73
360.689	17.67
360.899	17.23
361.108	17.55
361.318	17.74
361.528	17.67
361.737	16.47
361.947	17.21
362.156	16.72
362.366	16.81
362.576	16.41
362.785	16.85
362.995	16.68
363.204	16.99
363.414	16.91
363.623	17.18
363.833	17.5
364.042	17.71
364.252	18.13
364.461	18.42
364.671	18.61
364.88	19.3
365.09	18.5
365.299	18.49
365.509	18.08
365.718	18.04
365.927	17.59
366.137	16.98
366.346	17.04
366.555	16.4
366.765	16.25
366.974	16
367.183	15.19
367.393	15.79
367.602	16.14
367.811	16.33
368.021	15.98
368.23	16.06
368.439	16.33
368.648	16.61
368.857	16.52
369.067	16.3
369.276	15.82
369.485	16.37
369.694	16.06
369.903	15.72
370.112	15.75
370.321	15.96
370.531	15.86
370.74	16.03
370.949	15.68
371.158	15.11
371.367	15.34
371.576	15.64
371.785	15.38
371.994	15.21
372.203	15.21
372.412	15.59
372.621	15.54
372.83	14.81
373.039	14.48
373.248	14.36
373.457	14.6
373.666	14.61
373.874	14.44
374.083	13.48
374.292	12.96
374.501	12.9
374.71	12.34
374.919	12.12
375.128	13.33
375.336	13.09
375.545	13.26
375.754	13.75
375.963	13.59
376.171	13.2
376.38	13.16
376.589	13.43
376.798	13.14
377.006	12.68
377.215	12.61
377.424	12.64
377.632	12.8
377.841	12.77
378.05	12.23
378.258	11.84
378.467	11.58
378.675	12.26
378.884	12.23
379.093	12.07
379.301	12.51
379.51	12.47
379.718	11.66
379.927	11.23
380.135	11.14
380.344	11.17
380.552	11.12
380.761	11.33
380.969	10.86
381.177	10.71
381.386	10.61
381.594	10.42
381.803	9.91
382.011	10.06
382.219	10.16
382.428	10.28
382.636	9.97
382.845	10.41
383.053	10.47
383.261	10.37
383.469	10.22
383.678	10.14
383.886	9.81
384.094	9.95
384.302	10.41
384.511	10.24
384.719	9.84
384.927	10.09
385.135	10.07
385.343	9.81
385.552	9.99
385.76	9.88
385.968	9.68
386.176	9.93
386.384	9.69
386.592	9.24
386.8	9.47
387.008	9.98
387.216	9.93
387.424	9.6
387.633	9.65
387.841	9.45
388.049	9.29
388.257	9.77
388.465	9.58
388.672	10.11
388.88	9.77
389.088	9.68
389.296	9.11
389.504	8.9
389.712	8.94
389.92	8.63
390.128	8.73
390.336	9.03
390.544	8.91
390.751	8.9
390.959	8.88
391.167	8.67
391.375	8.62
391.583	8.68
391.79	8.7
391.998	8.62
392.206	8.84
392.414	8.61
392.621	7.98
392.829	7.82
393.037	7.73
393.244	7.75
393.452	7.84
393.66	7.58
393.867	7.41
394.075	7.48
394.283	7.74
394.49	7.67
394.698	7.95
394.905	8.45
395.113	8.12
395.32	7.76
395.528	7.64
395.735	7.76
395.943	7.76
396.15	8.1
396.358	7.88
396.565	7.71
396.773	7.58
396.98	7.15
397.188	6.73
397.395	6.94
397.602	7.27
397.81	7.18
398.017	6.96
398.225	6.84
398.432	6.63
398.639	6.63
398.847	6.07
399.054	6.09
399.261	6.11
399.468	6.25
399.676	6.23
399.883	6.22
400.09	5.77
400.297	5.71
400.505	5.51
400.712	5.42
400.919	5.35
401.126	5.71
401.333	5.77
401.54	5.53
401.748	5.62
401.955	5.79
402.162	5.49
402.369	5.7
402.576	5.8
402.783	5.84
402.99	5.36
403.197	5.09
403.404	5.11
403.611	5.22
403.818	5.48
404.025	5.43
404.232	5.44
404.439	5.57
404.646	5.43
404.853	5.26
405.06	5.41
405.267	5.6
405.474	5.64
405.681	5.55
405.887	5.47
406.094	5.51
406.301	5.67
406.508	5.32
406.715	5.21
406.922	5.42
407.128	5.92
407.335	6.08
407.542	6.08
407.749	6
407.955	6.13
408.162	5.97
408.369	5.64
408.575	5.64
408.782	6.01
408.989	6.02
409.195	5.64
409.402	5.13
409.609	4.78
409.815	5.02
410.022	5.08
410.228	5.02
410.435	5.01
410.642	5.12
410.848	4.65
411.055	4.56
411.261	4.62
411.468	4.88
411.674	5.21
411.881	5.32
412.087	5.25
412.294	5.29
412.5	5.37
412.706	5.28
412.913	5.08
413.119	5.13
413.326	4.93
413.532	4.77
413.738	4.79
413.945	4.35
414.151	4.32
414.357	4.17
414.564	4.2
414.77	4.01
414.976	3.99
415.182	4.31
415.389	4.32
415.595	4.29
415.801	4.37
416.007	4.19
416.214	4.01
416.42	4.09
416.626	3.93
416.832	3.96
417.038	3.94
417.244	3.87
417.45	3.86
417.657	3.98
417.863	4.03
418.069	3.84
418.275	3.92
418.481	4.14
418.687	4.16
418.893	4.14
419.099	4.28
419.305	4.2
419.511	4.28
419.717	4.31
419.923	4.21
420.129	4.07
420.335	4.18
420.541	4.17
420.746	4.01
420.952	3.87
421.158	3.88
421.364	3.71
421.57	3.71
421.776	3.73
421.982	3.65
422.187	3.67
422.393	3.69
422.599	3.73
422.805	3.68
423.01	3.72
423.216	3.66
423.422	3.7
423.628	3.79
423.833	3.68
424.039	3.6
424.245	3.46
424.45	3.48
424.656	3.51
424.862	3.45
425.067	3.69
425.273	3.78
425.478	3.87
425.684	3.89
425.889	3.77
426.095	4.01
426.301	3.94
426.506	4.17
426.712	4.02
426.917	3.95
427.123	3.93
427.328	3.55
427.533	3.37
427.739	3.32
427.944	3.25
428.15	3.25
428.355	3.2
428.561	3.49
428.766	3.47
428.971	3.67
429.177	3.89
429.382	3.81
429.587	3.88
429.793	4.02
429.998	4.01
430.203	4.01
430.408	4.06
430.614	3.94
430.819	3.88
431.024	3.84
431.229	3.95
431.434	3.68
431.64	4.04
431.845	4.01
432.05	3.97
432.255	4.11
432.46	4.05
432.665	4.02
432.87	4.08
433.076	4.05
433.281	3.96
433.486	3.82
433.691	3.86
433.896	3.53
434.101	3.55
434.306	3.37
434.511	3.09
434.716	3.18
434.921	3.31
435.126	3.28
435.331	3.01
435.535	2.95
435.74	2.89
435.945	2.78
436.15	3.15
436.355	3.21
436.56	3.35
436.765	3.26
436.97	3.27
437.174	3.12
437.379	3.14
437.584	3.42
437.789	3.45
437.993	3.59
438.198	3.75
438.403	3.53
438.608	3.34
438.812	3.37
439.017	3.64
439.222	3.61
439.426	3.6
439.631	3.4
439.836	3.35
440.04	3.19
440.245	3
440.45	3.02
440.654	3.1
440.859	3.12
441.063	3.05
441.268	2.96
441.472	2.95
441.677	2.96
441.881	3.2
442.086	3.14
442.29	3.29
442.495	3.49
442.699	3.51
442.904	3.43
443.108	3.48
443.312	3.7
443.517	3.68
443.721	3.82
443.925	3.74
444.13	3.49
444.334	3.46
444.538	3.42
444.743	3.28
444.947	3.15
445.151	3.19
445.356	3.28
445.56	3.14
445.764	3.26
445.968	3.13
446.173	3.19
446.377	3.21
446.581	3.33
446.785	3.42
446.989	3.28
447.193	3.37
447.398	3.27
447.602	3.1
447.806	3.18
448.01	3.18
448.214	3.16
448.418	3.08
448.622	3.06
448.826	2.89
449.03	2.81
449.234	2.89
449.438	2.93
449.642	2.96
449.846	3.13
450.05	3.17
450.254	2.91
450.458	3.15
450.662	3.15
450.866	3.05
451.069	3.16
451.273	2.97
451.477	3.06
451.681	2.97
451.885	2.81
452.089	2.5
452.292	2.4
452.496	2.53
452.7	2.31
452.904	2.31
453.107	2.54
453.311	2.5
453.515	2.72
453.719	2.69
453.922	2.67
454.126	2.92
454.33	3.21
454.533	3.23
454.737	3.41
454.94	3.53
455.144	3.57
455.348	3.54
455.551	3.73
455.755	3.69
455.958	3.82
456.162	3.85
456.365	3.83
456.569	3.71
456.772	3.7
456.976	3.48
457.179	3.49
457.383	3.43
457.586	3.32
457.79	3.07
457.993	2.89
458.196	2.85
458.4	2.64
458.603	2.58
458.807	2.54
459.01	2.5
459.213	2.49
459.417	2.47
459.62	2.49
459.823	2.56
460.026	2.54
460.23	2.6
460.433	2.53
460.636	2.65
460.839	2.74
461.042	2.81
461.246	2.81
461.449	2.89
461.652	2.78
461.855	2.86
462.058	2.84
462.261	2.91
462.464	2.98
462.668	3.08
462.871	3.23
463.074	2.84
463.277	2.67
463.48	2.87
