Data from CB_021_Reflection_2.txt Node
Date: Wed Nov 11 20:09:40 EST 2015
User: robert
Spectrometer: USB4E03001
Autoset integration time: false
Trigger mode: 4
Integration Time (sec): 1.000000E-1
Scans to average: 15
Electric dark correction enabled: true
Nonlinearity correction enabled: false
Boxcar width: 5
Stray light correction enabled: false
XAxis mode: Wavelengths
Stop averaging: false
Number of Pixels in Spectrum: 3648
>>>>>Begin Spectral Data<<<<<
177.566	-60.74
177.785	-202.79
178.005	617.53
178.225	-254.47
178.445	-436.23
178.665	1519.12
178.885	-135.78
179.105	3082.61
179.324	384.13
179.544	427.9
179.764	-405.96
179.984	-551.84
180.204	27272.5
180.423	478.46
180.643	-2323.12
180.863	6594.89
181.083	851.58
181.302	2045.64
181.522	1880.86
181.742	-3734.57
181.961	-761.85
182.181	-5571.5
182.401	3984.68
182.621	-473.6
182.84	-395.4
183.06	-313.13
183.279	-504.92
183.499	-220.92
183.719	-146.51
183.938	-164.21
184.158	-139.55
184.377	-76.2
184.597	-121.34
184.816	-93.25
185.036	-113.37
185.256	-132.75
185.475	-116.4
185.695	-20.2
185.914	-35.87
186.134	-1040.57
186.353	1656.28
186.572	407.13
186.792	458.03
187.011	1272.72
187.231	1696.89
187.45	766.56
187.67	442.31
187.889	354.5
188.108	345.42
188.328	547.7
188.547	876.52
188.766	1290.06
188.986	5014.33
189.205	5973.87
189.424	1676.44
189.644	559.53
189.863	483.21
190.082	1544.02
190.302	225.1
190.521	342.03
190.74	131.85
190.959	142.63
191.178	107.76
191.398	147.21
191.617	211.07
191.836	389.4
192.055	324.44
192.274	478.95
192.494	770.26
192.713	1384.41
192.932	2162.87
193.151	-225.45
193.37	-118.44
193.589	-166.13
193.808	-215.85
194.027	-155.78
194.246	-423.24
194.465	-30.85
194.685	146.54
194.904	132.62
195.123	41.1
195.342	77.35
195.561	34.07
195.78	-1731.07
195.999	-131.57
196.218	-109.52
196.436	-610.68
196.655	939.66
196.874	788.75
197.093	2128.45
197.312	-692.04
197.531	1606.21
197.75	866.79
197.969	892.2
198.188	1354.15
198.407	682.52
198.625	703.08
198.844	1122.28
199.063	-4212.12
199.282	-1844.86
199.501	-1243.39
199.719	-1723.35
199.938	-1302.54
200.157	6588.04
200.376	-706.54
200.594	-2539.29
200.813	-929.61
201.032	982.54
201.251	585.16
201.469	628.46
201.688	432.84
201.907	1077.45
202.125	745.83
202.344	2587.27
202.563	832.89
202.781	771.42
203	445.82
203.218	171
203.437	441.77
203.656	848.02
203.874	682.69
204.093	1641.62
204.311	1172.7
204.53	369.57
204.748	518.03
204.967	834.24
205.185	15094.29
205.404	-539.89
205.622	-231.81
205.841	-160.38
206.059	-150.05
206.278	-96.3
206.496	-188.57
206.715	-387.4
206.933	-185.83
207.151	-343.66
207.37	-436.38
207.588	-670.45
207.806	-347.3
208.025	-467.58
208.243	542.87
208.461	334.72
208.68	295.42
208.898	-2406.91
209.116	-191.99
209.335	-1009.67
209.553	-93.57
209.771	-162.79
209.989	161.29
210.208	116.16
210.426	180.08
210.644	436.42
210.862	772.3
211.081	372.81
211.299	246.17
211.517	210.71
211.735	736.98
211.953	302.86
212.171	522.35
212.39	-3394.12
212.608	-224.41
212.826	-128.67
213.044	-30.37
213.262	-30.64
213.48	-58.12
213.698	-74.83
213.916	-140.81
214.134	-186.83
214.352	-185.72
214.57	-75.57
214.788	-385.41
215.006	-881.94
215.224	378.18
215.442	1063.18
215.66	719.84
215.878	516.61
216.096	317.68
216.314	422.46
216.532	761.49
216.75	1208.12
216.968	428.33
217.185	233.51
217.403	212.86
217.621	638.38
217.839	226.08
218.057	351.91
218.275	828.8
218.492	-1225.19
218.71	476.89
218.928	233.32
219.146	282.9
219.363	1423.53
219.581	-592.14
219.799	-133.4
220.017	-318.73
220.234	-214.11
220.452	-226.71
220.67	-492.01
220.887	3848.77
221.105	-664.14
221.323	-150.06
221.54	-162.98
221.758	-474.86
221.976	-193.04
222.193	-192.99
222.411	-106.09
222.629	-87.96
222.846	-205.58
223.064	-94.32
223.281	-43.01
223.499	-25.95
223.716	-72.76
223.934	-57.69
224.151	-38.48
224.369	-59.25
224.586	-58.41
224.804	-53.08
225.021	-84.09
225.239	-106.28
225.456	-135.21
225.674	-111.58
225.891	-143.04
226.108	-162.33
226.326	-166.37
226.543	-127.82
226.76	-82.46
226.978	-58.24
227.195	-48.07
227.413	-21.48
227.63	-2.94
227.847	-7.2
228.064	-5.03
228.282	1.11
228.499	4.39
228.716	6.47
228.934	7.22
229.151	6.94
229.368	9.02
229.585	9.8
229.802	5.43
230.02	1.08
230.237	1.37
230.454	4.95
230.671	1.63
230.888	5.63
231.105	9.74
231.323	8.59
231.54	7.17
231.757	-1.5
231.974	-5.49
232.191	-2.96
232.408	-1.32
232.625	8.8
232.842	-0.55
233.059	0.03
233.276	-3.58
233.493	-13.5
233.71	-22.55
233.927	-12.82
234.144	-19.4
234.361	-17.2
234.578	-16.99
234.795	-30.35
235.012	-38.5
235.229	-47.04
235.446	-45.12
235.663	-46.34
235.879	-34.4
236.096	-19.33
236.313	-29.38
236.53	-18.38
236.747	-15.98
236.964	-22.6
237.181	-7.19
237.397	-12.65
237.614	-9.91
237.831	-15.08
238.048	-23.28
238.264	-36.83
238.481	-44.04
238.698	-46.52
238.915	-41.88
239.131	-41.15
239.348	-32.02
239.565	-28.86
239.781	-26.78
239.998	-21.5
240.215	-9.83
240.431	-9.09
240.648	-5.45
240.865	-3.62
241.081	0.61
241.298	-2.12
241.514	-1.99
241.731	-0.85
241.947	-1.4
242.164	0.1
242.38	2.43
242.597	-0
242.814	1.6
243.03	3.91
243.246	2.02
243.463	1.57
243.679	2.18
243.896	1.86
244.112	1.88
244.329	5.7
244.545	5.97
244.762	4.02
244.978	5.38
245.194	7.62
245.411	4.73
245.627	6.01
245.843	5.82
246.06	6.8
246.276	7.33
246.492	6.03
246.709	4.87
246.925	5.39
247.141	5.94
247.357	5.45
247.574	5.13
247.79	6
248.006	5.52
248.222	6.59
248.439	5.7
248.655	5.22
248.871	5.82
249.087	4.89
249.303	5.77
249.519	5.29
249.736	5.21
249.952	4.73
250.168	5.06
250.384	6.11
250.6	2.69
250.816	4.38
251.032	6.36
251.248	9.12
251.464	9.72
251.68	7.58
251.896	4.29
252.112	3.07
252.328	3.76
252.544	2.47
252.76	4.12
252.976	7.76
253.192	6.73
253.408	3.51
253.624	-0.11
253.84	-1.38
254.056	-2.88
254.272	0.53
254.487	0.96
254.703	-3.97
254.919	-4.98
255.135	-11.21
255.351	-22.14
255.567	-19
255.782	-14.28
255.998	-14.88
256.214	-15.81
256.43	-18.2
256.646	-18.41
256.861	-14.49
257.077	-10.86
257.293	-9.98
257.508	-8.01
257.724	-3
257.94	-3.38
258.155	0.22
258.371	0.73
258.587	2.91
258.802	3.19
259.018	3.97
259.234	2.56
259.449	3.72
259.665	4.08
259.88	4.72
260.096	4.33
260.312	4.7
260.527	3.08
260.743	3.14
260.958	1.65
261.174	2.59
261.389	1.23
261.605	2.26
261.82	0.69
262.036	1.54
262.251	0.48
262.466	-0.3
262.682	-1.34
262.897	-1.1
263.113	0.63
263.328	3.91
263.543	2.39
263.759	5.68
263.974	4.24
264.189	5.92
264.405	3.54
264.62	2.03
264.835	2.8
265.051	1.19
265.266	1.85
265.481	0.99
265.696	-2.45
265.912	-1.17
266.127	-2.61
266.342	-2.33
266.557	-2.27
266.773	-1.51
266.988	0.03
267.203	-2.31
267.418	-1.75
267.633	-0.87
267.848	-1.09
268.064	0.1
268.279	0.52
268.494	0.63
268.709	1.34
268.924	0.78
269.139	0.9
269.354	0.56
269.569	0.71
269.784	2.19
269.999	3.96
270.214	4.44
270.429	4.24
270.644	5.11
270.859	5.14
271.074	3.1
271.289	1.51
271.504	0.92
271.719	1.48
271.934	2.92
272.149	2.67
272.363	1.37
272.578	0.02
272.793	-0.27
273.008	-1.5
273.223	-1.67
273.438	-1.05
273.653	0.58
273.867	0.8
274.082	-1.04
274.297	-0.4
274.512	-0.89
274.726	-0.44
274.941	-0.66
275.156	-0.09
275.371	-0.09
275.585	-0.96
275.8	-0.06
276.015	0.93
276.229	1.95
276.444	4.74
276.659	4.43
276.873	4.65
277.088	3.58
277.302	3.65
277.517	5.67
277.732	5.24
277.946	6.33
278.161	6.58
278.375	4.43
278.59	3.71
278.804	1.45
279.019	0.11
279.233	-0.34
279.448	0.66
279.662	1.65
279.877	0.3
280.091	1.84
280.306	2.35
280.52	1.59
280.735	0.73
280.949	0.74
281.163	1.75
281.378	2.65
281.592	4.04
281.806	2.95
282.021	4.47
282.235	2.47
282.449	1.44
282.664	1.89
282.878	2.4
283.092	3.38
283.307	2.88
283.521	2.53
283.735	1.84
283.949	-0.11
284.164	0.69
284.378	-0.55
284.592	1.45
284.806	1.58
285.02	0.8
285.234	0.67
285.449	0.43
285.663	0.64
285.877	1.13
286.091	1.49
286.305	1.6
286.519	2.02
286.733	2.51
286.947	2.27
287.161	2.19
287.375	2.66
287.589	3.08
287.803	3
288.017	3
288.231	2.7
288.445	3.68
288.659	4.32
288.873	4.9
289.087	4.31
289.301	3.76
289.515	5.04
289.729	4.45
289.943	2.83
290.157	4.74
290.371	4.77
290.584	4.61
290.798	3.26
291.012	2.79
291.226	0.68
291.44	0.8
291.654	1.2
291.867	-0.52
292.081	-0.77
292.295	-0.12
292.509	-1.42
292.722	-1.64
292.936	-1.38
293.15	-1.18
293.364	-1.39
293.577	0.74
293.791	-0.2
294.005	0.91
294.218	2.39
294.432	3.28
294.645	3.19
294.859	3.63
295.073	3.9
295.286	4.65
295.5	5.77
295.713	7.08
295.927	6.83
296.14	8.27
296.354	7.48
296.568	7.22
296.781	6.88
296.994	7.05
297.208	7.56
297.421	7.79
297.635	7.37
297.848	7.11
298.062	7.24
298.275	8.22
298.489	8.32
298.702	8.73
298.915	8.65
299.129	8.54
299.342	9.36
299.555	8.13
299.769	7.6
299.982	7.05
300.195	5.99
300.409	5.98
300.622	4.67
300.835	3.37
301.048	4.63
301.262	3.67
301.475	3.32
301.688	2.17
301.901	3.25
302.115	3.73
302.328	4.81
302.541	5.95
302.754	5.53
302.967	5.6
303.18	6.65
303.393	4.55
303.607	5.37
303.82	6.6
304.033	7.31
304.246	6.95
304.459	6.67
304.672	6.63
304.885	6.34
305.098	6
305.311	4.56
305.524	4.27
305.737	4.68
305.95	6.26
306.163	3.75
306.376	3.79
306.589	3.65
306.802	5.36
307.015	4.59
307.228	5.27
307.44	5.31
307.653	5.76
307.866	5.04
308.079	5.29
308.292	2.85
308.505	3.61
308.718	3.11
308.93	2.1
309.143	1.1
309.356	2.35
309.569	2.5
309.781	3.03
309.994	3.97
310.207	5.09
310.42	5.44
310.632	5.59
310.845	5.8
311.058	6.52
311.27	8.01
311.483	8.22
311.696	8.67
311.908	7.92
312.121	6.93
312.333	6.67
312.546	6.81
312.759	6.05
312.971	6.49
313.184	6.39
313.396	5.81
313.609	5.45
313.821	4.38
314.034	2.89
314.246	2.91
314.459	3.52
314.671	3.32
314.884	1.91
315.096	1.7
315.309	2.26
315.521	2.67
315.733	2.18
315.946	2.03
316.158	2.34
316.371	3.36
316.583	3.96
316.795	4.95
317.008	6.27
317.22	5.93
317.432	6.04
317.644	5.05
317.857	6.15
318.069	6.53
318.281	6.37
318.494	6.2
318.706	5.9
318.918	5.29
319.13	4.48
319.342	3.34
319.555	4.4
319.767	4.43
319.979	4.79
320.191	3.44
320.403	3.15
320.615	1.89
320.827	2.13
321.039	1.46
321.252	2.64
321.464	3.26
321.676	4.12
321.888	4.46
322.1	5.53
322.312	6.9
322.524	7.71
322.736	8.6
322.948	8.9
323.16	9.2
323.372	10.3
323.584	9.12
323.796	9.28
324.007	8.61
324.219	8.57
324.431	8.63
324.643	8.51
324.855	8.48
325.067	10.17
325.279	11.26
325.491	11.44
325.702	10.34
325.914	11.32
326.126	11.32
326.338	12.14
326.55	12.6
326.761	12.91
326.973	12.6
327.185	11.96
327.396	10.61
327.608	10.64
327.82	10
328.032	10.56
328.243	8.92
328.455	9.66
328.666	9.53
328.878	9.08
329.09	9.92
329.301	10.49
329.513	11.17
329.725	11.56
329.936	11.09
330.148	12.14
330.359	13.54
330.571	15.43
330.782	14.24
330.994	14.29
331.205	14.21
331.417	13.32
331.628	12.27
331.84	13.59
332.051	12.98
332.262	14.43
332.474	14.8
332.685	13.47
332.897	12.93
333.108	13.34
333.319	15.02
333.531	16.21
333.742	16.49
333.953	17.4
334.165	17.81
334.376	17.87
334.587	16.97
334.799	16.07
335.01	16.79
335.221	16.79
335.432	16.5
335.644	14.83
335.855	13.54
336.066	13.35
336.277	12.06
336.488	10.79
336.7	11.51
336.911	11.91
337.122	11.69
337.333	11.81
337.544	11.64
337.755	11.66
337.966	11.96
338.177	11.96
338.388	12.69
338.599	12.84
338.811	13.32
339.022	12.99
339.233	13.49
339.444	14.3
339.655	13.79
339.866	13.79
340.076	15.1
340.287	15.05
340.498	16.38
340.709	15.09
340.92	16.81
341.131	16.69
341.342	16.27
341.553	15.64
341.764	15.99
341.975	15.64
342.185	16.73
342.396	15.58
342.607	15.99
342.818	15.59
343.029	16.5
343.239	15.43
343.45	16.23
343.661	16.8
343.872	16.26
344.082	16.23
344.293	16.95
344.504	15.86
344.714	15.77
344.925	15.68
345.136	15.14
345.346	13.87
345.557	14.42
345.768	13.46
345.978	13.07
346.189	13.89
346.399	13.4
346.61	13.04
346.821	13.48
347.031	12.87
347.242	12.85
347.452	12.79
347.663	13.47
347.873	14.25
348.084	14.56
348.294	14.17
348.504	13.18
348.715	13.94
348.925	13.7
349.136	14.58
349.346	15.65
349.557	14.83
349.767	15.36
349.977	15.46
350.188	14.04
350.398	14.35
350.608	14.91
350.819	15.64
351.029	15.61
351.239	15.62
351.449	14.97
351.66	14.8
351.87	15.34
352.08	14.18
352.29	13.86
352.501	13.91
352.711	13.02
352.921	12.8
353.131	12.96
353.341	12.1
353.552	13.31
353.762	12.91
353.972	12.97
354.182	12.68
354.392	12.76
354.602	12.96
354.812	13.57
355.022	14.78
355.232	13.98
355.442	13.5
355.652	13.27
355.862	12.41
356.072	12.8
356.282	12.35
356.492	11.96
356.702	12.01
356.912	11.59
357.122	10.98
357.332	10.75
357.542	11.34
357.752	11.67
357.962	12.23
358.171	12.37
358.381	12.51
358.591	12.84
358.801	13.26
359.011	14.15
359.221	14.35
359.43	13.87
359.64	13.59
359.85	14.12
360.06	14.14
360.269	14.19
360.479	14.02
360.689	13.4
360.899	13.77
361.108	13.65
361.318	13.41
361.528	13.84
361.737	14.44
361.947	14.49
362.156	14.12
362.366	13.42
362.576	13.47
362.785	13.56
362.995	13.75
363.204	13.04
363.414	13.09
363.623	12.91
363.833	11.96
364.042	11.85
364.252	12.12
364.461	11.93
364.671	12.34
364.88	12.1
365.09	11.78
365.299	12.38
365.509	12.47
365.718	12.68
365.927	12.92
366.137	13.82
366.346	13.73
366.555	13.18
366.765	12.73
366.974	12.9
367.183	11.82
367.393	11.76
367.602	11.07
367.811	11.44
368.021	10.95
368.23	10.2
368.439	10.58
368.648	10.8
368.857	10.7
369.067	11.15
369.276	11.14
369.485	11.97
369.694	11.74
369.903	11.22
370.112	11.03
370.321	11.08
370.531	11.56
370.74	10.99
370.949	10.59
371.158	10.5
371.367	10.23
371.576	10.43
371.785	10.03
371.994	10.58
372.203	11.45
372.412	11.55
372.621	11.92
372.83	12.02
373.039	11.57
373.248	11.33
373.457	11.28
373.666	11.38
373.874	10.92
374.083	11.38
374.292	11.13
374.501	11.04
374.71	11.38
374.919	11.03
375.128	10.01
375.336	10.83
375.545	11.24
375.754	11.77
375.963	11.74
376.171	11.77
376.38	11.68
376.589	11.05
376.798	10.15
377.006	9.79
377.215	9.76
377.424	10.22
377.632	9.17
377.841	8.65
378.05	7.96
378.258	7.79
378.467	7.95
378.675	7.98
378.884	8.58
379.093	9.01
379.301	8.08
379.51	8.23
379.718	8.33
379.927	8.92
380.135	8.94
380.344	8.96
380.552	9.25
380.761	8.67
380.969	8.38
381.177	7.81
381.386	7.95
381.594	8.82
381.803	8.17
382.011	8.03
382.219	7.85
382.428	8.09
382.636	8.01
382.845	7.62
383.053	8.08
383.261	7.92
383.469	7.86
383.678	8.03
383.886	7.7
384.094	7.5
384.302	7.54
384.511	7.4
384.719	7.62
384.927	7.64
385.135	7.45
385.343	7.21
385.552	7.02
385.76	7.03
385.968	6.58
386.176	6.4
386.384	6.54
386.592	6.24
386.8	6.13
387.008	5.75
387.216	5.68
387.424	6.05
387.633	5.59
387.841	5.73
388.049	5.8
388.257	5.66
388.465	5.95
388.672	6.18
388.88	6.33
389.088	6.93
389.296	7.16
389.504	7.44
389.712	7.17
389.92	7.35
390.128	7.57
390.336	7.27
390.544	7.46
390.751	7.05
390.959	6.73
391.167	6.99
391.375	6.38
391.583	6.31
391.79	6.08
391.998	6.07
392.206	6.37
392.414	6.57
392.621	6.6
392.829	6.8
393.037	6.79
393.244	6.95
393.452	6.24
393.66	6.49
393.867	6.38
394.075	6.52
394.283	6.01
394.49	5.93
394.698	5.96
394.905	5.93
395.113	5.79
395.32	5.84
395.528	5.73
395.735	5.89
395.943	5.71
396.15	5.69
396.358	5.34
396.565	5.82
396.773	5.28
396.98	4.86
397.188	5.21
397.395	4.95
397.602	4.94
397.81	4.91
398.017	4.8
398.225	4.78
398.432	4.91
398.639	5.05
398.847	4.52
399.054	4.86
399.261	4.87
399.468	4.81
399.676	4.99
399.883	5.15
400.09	5.13
400.297	5.63
400.505	5.69
400.712	5.26
400.919	5.37
401.126	5.99
401.333	5.81
401.54	5.91
401.748	5.82
401.955	5.45
402.162	5.62
402.369	5.39
402.576	5.18
402.783	5.1
402.99	5.34
403.197	5.39
403.404	5.35
403.611	5.46
403.818	5.31
404.025	5.77
404.232	5.86
404.439	5.61
404.646	5.88
404.853	5.73
405.06	5.71
405.267	5.65
405.474	5.4
405.681	5.07
405.887	4.97
406.094	4.98
406.301	4.43
406.508	4.27
406.715	4.39
406.922	4.45
407.128	4.16
407.335	4.3
407.542	4
407.749	3.79
407.955	4.25
408.162	4.37
408.369	4.16
408.575	4.26
408.782	4.11
408.989	4.03
409.195	3.56
409.402	3.92
409.609	3.51
409.815	3.26
410.022	3.33
410.228	3.25
410.435	3.1
410.642	3.36
410.848	3.1
411.055	3.39
411.261	3.45
411.468	3.62
411.674	3.8
411.881	3.9
412.087	4.14
412.294	4.32
412.5	4.29
412.706	4.42
412.913	4.27
413.119	4.41
413.326	4.36
413.532	4.03
413.738	3.86
413.945	3.7
414.151	3.87
414.357	3.98
414.564	3.95
414.77	3.99
414.976	4.05
415.182	3.96
415.389	4.13
415.595	4.09
415.801	4.14
416.007	4.23
416.214	4.44
416.42	4.21
416.626	4.39
416.832	4.28
417.038	4.12
417.244	4.13
417.45	4.26
417.657	4.07
417.863	4.19
418.069	4.19
418.275	4.35
418.481	4.26
418.687	4.3
418.893	4.27
419.099	4.37
419.305	4.38
419.511	4.32
419.717	4.19
419.923	4.15
420.129	4.13
420.335	4.24
420.541	4.19
420.746	4.01
420.952	4.06
421.158	3.85
421.364	3.77
421.57	3.82
421.776	3.82
421.982	3.8
422.187	3.72
422.393	3.65
422.599	3.58
422.805	3.61
423.01	3.62
423.216	3.49
423.422	3.49
423.628	3.54
423.833	3.61
424.039	3.39
424.245	3.49
424.45	3.78
424.656	3.93
424.862	3.8
425.067	3.74
425.273	3.78
425.478	3.86
425.684	4.07
425.889	4.01
426.095	3.85
426.301	3.96
426.506	3.75
426.712	3.36
426.917	3.18
427.123	3.49
427.328	3.41
427.533	3.42
427.739	3.41
427.944	3.28
428.15	3.36
428.355	3.29
428.561	3.24
428.766	3.5
428.971	3.72
429.177	3.64
429.382	3.14
429.587	3.38
429.793	3.5
429.998	3.32
430.203	3.11
430.408	3.01
430.614	3.1
430.819	3.12
431.024	3.03
431.229	3.01
431.434	3.04
431.64	3.23
431.845	3.12
432.05	3.02
432.255	3.22
432.46	3.51
432.665	3.55
432.87	3.65
433.076	3.77
433.281	3.96
433.486	4.13
433.691	4.34
433.896	4.51
434.101	4.81
434.306	5.12
434.511	5.46
434.716	5.81
434.921	6.2
435.126	6.34
435.331	6.87
435.535	7.02
435.74	7.14
435.945	7.2
436.15	7.37
436.355	6.98
436.56	6.67
436.765	6.14
436.97	5.78
437.174	5.2
437.379	5.09
437.584	4.4
437.789	4.23
437.993	3.9
438.198	3.8
438.403	3.47
438.608	3.5
438.812	3.63
439.017	3.84
439.222	3.77
439.426	3.95
439.631	3.81
439.836	4
440.04	3.95
440.245	3.91
440.45	3.78
440.654	3.59
440.859	3.62
441.063	3.38
441.268	3.24
441.472	3.07
441.677	2.99
441.881	3
442.086	3.05
442.29	2.78
442.495	2.98
442.699	3.15
442.904	3.21
443.108	3.13
443.312	3.11
443.517	3.18
443.721	3.34
443.925	3.29
444.13	3.2
444.334	2.98
444.538	3.07
444.743	2.86
444.947	2.87
445.151	3
445.356	3.02
445.56	3.05
445.764	3.16
445.968	3.05
446.173	3.13
446.377	3.27
446.581	3.29
446.785	3.4
446.989	3.45
447.193	3.4
447.398	3.5
447.602	3.42
447.806	3.47
448.01	3.51
448.214	3.6
448.418	3.59
448.622	3.54
448.826	3.59
449.03	3.48
449.234	3.36
449.438	3.4
449.642	3.42
449.846	3.48
450.05	3.55
450.254	3.51
450.458	3.45
450.662	3.36
450.866	3.41
451.069	3.33
451.273	3.48
451.477	3.49
451.681	3.44
451.885	3.27
452.089	3.31
452.292	3.19
452.496	3.06
452.7	3.35
452.904	3.44
453.107	3.24
453.311	3.16
453.515	3.08
453.719	3.3
453.922	3.32
454.126	3.18
454.33	3.09
454.533	3.08
454.737	3.04
454.94	2.73
455.144	2.51
455.348	2.6
455.551	2.82
455.755	2.76
455.958	2.45
456.162	2.02
456.365	2.21
456.569	2.68
456.772	2.75
456.976	2.83
457.179	2.88
457.383	3.07
457.586	3.07
457.79	2.88
457.993	2.77
458.196	3.04
458.4	3.42
458.603	3.37
458.807	3.22
459.01	3.21
459.213	3.1
459.417	3.25
459.62	3.14
459.823	2.99
460.026	3.01
460.23	3.12
460.433	3.09
460.636	3
460.839	3.1
461.042	2.97
461.246	3.11
461.449	3.14
461.652	3.13
461.855	3.29
462.058	3.48
462.261	3.58
462.464	3.62
462.668	3.56
462.871	3.53
