Data from CB_065_Reflection_1.txt Node
Date: Sat Nov 14 10:41:13 EST 2015
User: robert
Spectrometer: USB4E03001
Autoset integration time: false
Trigger mode: 4
Integration Time (sec): 1.000000E-1
Scans to average: 15
Electric dark correction enabled: true
Nonlinearity correction enabled: false
Boxcar width: 5
Stray light correction enabled: false
XAxis mode: Wavelengths
Stop averaging: false
Number of Pixels in Spectrum: 3648
>>>>>Begin Spectral Data<<<<<
177.566	-151.1
177.785	-256.59
178.005	-1165.63
178.225	-121.25
178.445	-147.15
178.665	-278.92
178.885	-44.02
179.105	-152.54
179.324	-277.54
179.544	-378.25
179.764	-103.24
179.984	-141.53
180.204	-164.83
180.423	-685.69
180.643	-348.59
180.863	-612.76
181.083	-2396.03
181.302	-11854.76
181.522	1300
181.742	1236.05
181.961	1401.04
182.181	209.57
182.401	169.96
182.621	258.46
182.84	899.1
183.06	-2533.9
183.279	-233.57
183.499	-129.68
183.719	-153.3
183.938	-105.8
184.158	-48.19
184.377	-52.14
184.597	-20.71
184.816	6.73
185.036	-2.35
185.256	-0.23
185.475	-91.13
185.695	-11.8
185.914	-59.58
186.134	1.63
186.353	-21.82
186.572	-24.46
186.792	5.39
187.011	-349.58
187.231	426.3
187.45	0.72
187.67	-251.94
187.889	191.8
188.108	208.95
188.328	176.96
188.547	149.8
188.766	122.66
188.986	108.6
189.205	153.99
189.424	185.67
189.644	160.04
189.863	210.94
190.082	259.17
190.302	351.51
190.521	291.43
190.74	276.06
190.959	954.91
191.178	831.03
191.398	651
191.617	1460.59
191.836	4570.97
192.055	992.14
192.274	253.21
192.494	313.25
192.713	10167.86
192.932	-935.62
193.151	181025
193.37	267.2
193.589	-6258.41
193.808	-584.33
194.027	-1061.35
194.246	2743.73
194.465	-1663.91
194.685	470.14
194.904	359.93
195.123	222.89
195.342	177.19
195.561	145.84
195.78	545.82
195.999	1280.15
196.218	523.58
196.436	259.58
196.655	125.71
196.874	74.35
197.093	91.61
197.312	185.86
197.531	277.87
197.75	553
197.969	1297.46
198.188	181.97
198.407	131.31
198.625	160.73
198.844	221.81
199.063	255.81
199.282	587.04
199.501	-3026.56
199.719	-1248.31
199.938	624.32
200.157	265.7
200.376	-1946.11
200.594	-153.9
200.813	-348.15
201.032	-541.67
201.251	-167.54
201.469	-309.79
201.688	-514
201.907	1175.43
202.125	392.18
202.344	1675.38
202.563	9250.72
202.781	640.41
203	211.22
203.218	195
203.437	375.9
203.656	249.36
203.874	446.11
204.093	381.82
204.311	347.73
204.53	926.47
204.748	240.54
204.967	342.11
205.185	208.66
205.404	197.64
205.622	256.43
205.841	141.04
206.059	165.4
206.278	160.9
206.496	206.87
206.715	185.96
206.933	165.2
207.151	191.78
207.37	122.61
207.588	155.48
207.806	189.74
208.025	250.53
208.243	395.18
208.461	-23695.45
208.68	464.78
208.898	332.82
209.116	255.51
209.335	182.93
209.553	189.36
209.771	184.97
209.989	155.98
210.208	153.61
210.426	137.8
210.644	115.37
210.862	116
211.081	130.62
211.299	95.46
211.517	108.22
211.735	95.2
211.953	81.59
212.171	83.99
212.39	78.06
212.608	76.68
212.826	94.63
213.044	104.3
213.262	89.9
213.48	86.54
213.698	176.03
213.916	103.8
214.134	169.88
214.352	263.05
214.57	169.89
214.788	163.23
215.006	114.3
215.224	202.88
215.442	675.22
215.66	1428.66
215.878	473.66
216.096	153.95
216.314	479.41
216.532	1811.42
216.75	-654.78
216.968	-833.19
217.185	-7684.96
217.403	1840.29
217.621	-97933.33
217.839	-462.54
218.057	-11835.42
218.275	-283.71
218.492	-63.29
218.71	-1934.32
218.928	1333.77
219.146	716.79
219.363	437.91
219.581	499.03
219.799	-2527.1
220.017	292.24
220.234	360.41
220.452	492.25
220.67	680.22
220.887	278.97
221.105	457.15
221.323	251.51
221.54	203.47
221.758	194.15
221.976	176.69
222.193	123.74
222.411	113.9
222.629	119.55
222.846	101.91
223.064	92.31
223.281	95.95
223.499	84.59
223.716	82.41
223.934	66.29
224.151	49.13
224.369	38.66
224.586	51.59
224.804	77.06
225.021	63.9
225.239	61.38
225.456	64.59
225.674	51.99
225.891	54.12
226.108	53.75
226.326	48.77
226.543	50.37
226.76	35.43
226.978	33.62
227.195	34.59
227.413	34.28
227.63	39.97
227.847	42.36
228.064	42.34
228.282	35.77
228.499	34.15
228.716	33.31
228.934	34.36
229.151	35.65
229.368	33.31
229.585	31.89
229.802	30.69
230.02	25.35
230.237	26.77
230.454	24.59
230.671	26.05
230.888	27.75
231.105	29.37
231.323	30.74
231.54	36.79
231.757	39.81
231.974	41.94
232.191	42.87
232.408	41.88
232.625	35.41
232.842	34.67
233.059	31.5
233.276	27.09
233.493	23.02
233.71	23.55
233.927	21.03
234.144	16.04
234.361	19.9
234.578	20.12
234.795	17.14
235.012	17.5
235.229	15.47
235.446	25.23
235.663	25.65
235.879	28.09
236.096	30.75
236.313	33.68
236.53	35.6
236.747	31.68
236.964	23.89
237.181	30.35
237.397	33.27
237.614	42.77
237.831	43.69
238.048	45.7
238.264	40.27
238.481	38.75
238.698	34.93
238.915	36.51
239.131	34.37
239.348	31.5
239.565	30.8
239.781	29.43
239.998	23.96
240.215	17.81
240.431	21.8
240.648	26.33
240.865	21.83
241.081	21.16
241.298	20.33
241.514	20.83
241.731	23.89
241.947	21.73
242.164	22.72
242.38	19.53
242.597	18.91
242.814	16.09
243.03	16.25
243.246	17.63
243.463	17.15
243.679	17.11
243.896	16.55
244.112	14.54
244.329	18.73
244.545	19.5
244.762	22.85
244.978	21.93
245.194	22.97
245.411	21.49
245.627	20.63
245.843	21.85
246.06	22.31
246.276	21.72
246.492	24.03
246.709	22.61
246.925	22.15
247.141	22.39
247.357	22.54
247.574	21.91
247.79	21.13
248.006	20.5
248.222	20.73
248.439	19.32
248.655	19.55
248.871	18.55
249.087	19.51
249.303	19.63
249.519	19.18
249.736	19.54
249.952	20.5
250.168	24.25
250.384	26.59
250.6	23.4
250.816	26.29
251.032	24.24
251.248	23.99
251.464	20.54
251.68	17.31
251.896	13.9
252.112	14.71
252.328	13.94
252.544	14.27
252.76	12.59
252.976	12.7
253.192	13.91
253.408	15.8
253.624	14.69
253.84	14.69
254.056	14.91
254.272	17.07
254.487	17.44
254.703	16.51
254.919	15.41
255.135	19.35
255.351	22.71
255.567	19.81
255.782	20.21
255.998	20.33
256.214	19.67
256.43	23.53
256.646	22.87
256.861	22.17
257.077	20.36
257.293	17.13
257.508	15.92
257.724	16.23
257.94	15.23
258.155	14.87
258.371	15.11
258.587	14.78
258.802	13.17
259.018	13.32
259.234	13.11
259.449	14.29
259.665	15.08
259.88	14.7
260.096	13.88
260.312	13.45
260.527	12.84
260.743	13.31
260.958	13.44
261.174	14.55
261.389	15.72
261.605	14.33
261.82	13.17
262.036	12.73
262.251	12.5
262.466	12.52
262.682	12.97
262.897	13.91
263.113	12.31
263.328	10.96
263.543	9.89
263.759	10.4
263.974	12.53
264.189	13.85
264.405	12.56
264.62	12.89
264.835	13.37
265.051	14.2
265.266	14.02
265.481	15.12
265.696	19.36
265.912	17.67
266.127	16.08
266.342	16.74
266.557	18.38
266.773	18.57
266.988	18.65
267.203	18.18
267.418	17.17
267.633	16.25
267.848	15.85
268.064	12.25
268.279	13.06
268.494	12.09
268.709	12.11
268.924	11.46
269.139	10.96
269.354	10.94
269.569	9.63
269.784	10.33
269.999	11.53
270.214	12.19
270.429	12.66
270.644	12.64
270.859	13.09
271.074	11.65
271.289	12.66
271.504	12.88
271.719	12.78
271.934	13.72
272.149	14.02
272.363	13.9
272.578	12.85
272.793	13.86
273.008	13.22
273.223	12.12
273.438	12.57
273.653	11.52
273.867	11.85
274.082	12.11
274.297	12.81
274.512	12.97
274.726	12.5
274.941	13.53
275.156	15.46
275.371	15.34
275.585	16.18
275.8	18.5
276.015	18.73
276.229	19.31
276.444	17.94
276.659	17.57
276.873	16.8
277.088	18.08
277.302	18.22
277.517	15.44
277.732	16.3
277.946	16.61
278.161	15.3
278.375	15.22
278.59	14.06
278.804	15.34
279.019	14.96
279.233	13.87
279.448	12.13
279.662	10.55
279.877	11.08
280.091	8.98
280.306	9.11
280.52	6.35
280.735	5.79
280.949	7.45
281.163	8.4
281.378	7.72
281.592	9.58
281.806	9.79
282.021	10.01
282.235	9.61
282.449	12.02
282.664	11.68
282.878	13.71
283.092	13.66
283.307	12.97
283.521	10.96
283.735	12.26
283.949	12.73
284.164	13.11
284.378	13.91
284.592	14.05
284.806	14.16
285.02	13.36
285.234	12
285.449	12.01
285.663	12.37
285.877	12.38
286.091	10.69
286.305	11.17
286.519	11.56
286.733	11.77
286.947	12.06
287.161	10.98
287.375	11.85
287.589	13.74
287.803	15.18
288.017	14.89
288.231	16.47
288.445	17.82
288.659	16.97
288.873	17.96
289.087	17.13
289.301	17.69
289.515	16.37
289.729	16
289.943	15.56
290.157	14.48
290.371	15.14
290.584	15.18
290.798	15.17
291.012	14.36
291.226	13.03
291.44	13.83
291.654	13.41
291.867	14.55
292.081	15.28
292.295	14.41
292.509	14.43
292.722	12.85
292.936	12.02
293.15	13.17
293.364	13.58
293.577	13.42
293.791	13.03
294.005	11.32
294.218	12.72
294.432	12.67
294.645	13.59
294.859	14.01
295.073	16.12
295.286	15.74
295.5	15.08
295.713	14.85
295.927	15.54
296.14	14.88
296.354	16.38
296.568	15.03
296.781	14.45
296.994	14.98
297.208	15.2
297.421	14.81
297.635	15.8
297.848	15.45
298.062	15.28
298.275	15.54
298.489	15.99
298.702	16.21
298.915	16.42
299.129	17.75
299.342	16.93
299.555	17.41
299.769	17.22
299.982	16.5
300.195	17.11
300.409	16.98
300.622	15.58
300.835	15.01
301.048	15.62
301.262	16.47
301.475	16.47
301.688	16
301.901	15.41
302.115	15.44
302.328	14.75
302.541	15.08
302.754	17.24
302.967	19.33
303.18	21.54
303.393	20.39
303.607	20.38
303.82	20.47
304.033	22.16
304.246	22.64
304.459	21.83
304.672	22.78
304.885	23.45
305.098	22.91
305.311	23.21
305.524	21.81
305.737	21.37
305.95	22.03
306.163	21.57
306.376	21.1
306.589	20.43
306.802	21.3
307.015	22.04
307.228	21.59
307.44	21.48
307.653	19.44
307.866	20.81
308.079	21.73
308.292	21.04
308.505	22.36
308.718	22.34
308.93	23.28
309.143	23.24
309.356	23.48
309.569	22.6
309.781	22.04
309.994	22.29
310.207	21.72
310.42	20.94
310.632	20.78
310.845	19.56
311.058	19.87
311.27	19.04
311.483	18.67
311.696	17.94
311.908	18.32
312.121	18.39
312.333	19.6
312.546	18.6
312.759	18.42
312.971	18.37
313.184	19.04
313.396	18.87
313.609	19.39
313.821	19.3
314.034	18.99
314.246	19.49
314.459	19.6
314.671	17.98
314.884	18.79
315.096	20.81
315.309	22.47
315.521	22.38
315.733	21.88
315.946	21.6
316.158	22.83
316.371	24.71
316.583	22.87
316.795	23.02
317.008	23.51
317.22	23.78
317.432	23.41
317.644	21.62
317.857	22.59
318.069	22.81
318.281	23.58
318.494	23.68
318.706	21.42
318.918	23.04
319.13	22.63
319.342	22.78
319.555	23.11
319.767	23.19
319.979	23.04
320.191	20.89
320.403	22.06
320.615	22.5
320.827	21.82
321.039	23.75
321.252	24.68
321.464	25.37
321.676	25.28
321.888	25.17
322.1	24.79
322.312	25.11
322.524	25.43
322.736	24
322.948	24.23
323.16	23.3
323.372	23.12
323.584	23.63
323.796	23.61
324.007	24.5
324.219	24.66
324.431	25.39
324.643	26.29
324.855	27.7
325.067	27.16
325.279	25.64
325.491	27.19
325.702	26.46
325.914	25.79
326.126	25.13
326.338	23.6
326.55	23.4
326.761	23.51
326.973	23.48
327.185	23.21
327.396	25.24
327.608	26.16
327.82	25.7
328.032	26.71
328.243	27.38
328.455	29.6
328.666	31.43
328.878	32.67
329.09	32.1
329.301	31.5
329.513	30.54
329.725	30.39
329.936	31.3
330.148	31.26
330.359	31.28
330.571	31.34
330.782	30.18
330.994	30.19
331.205	30.52
331.417	31.1
331.628	30.87
331.84	32.84
332.051	33.34
332.262	32.05
332.474	32.4
332.685	33.56
332.897	32.64
333.108	33.13
333.319	32.24
333.531	31.42
333.742	31.16
333.953	31.01
334.165	29.82
334.376	29.93
334.587	31.37
334.799	30.34
335.01	28.68
335.221	29.37
335.432	27.69
335.644	28.68
335.855	29.25
336.066	28.86
336.277	29.97
336.488	30.91
336.7	30.39
336.911	30.32
337.122	31.58
337.333	32.63
337.544	31.78
337.755	34.19
337.966	34.18
338.177	34.05
338.388	34.4
338.599	34.36
338.811	33.6
339.022	33.95
339.233	33.13
339.444	32.33
339.655	31.26
339.866	31.58
340.076	30.26
340.287	29.3
340.498	29.16
340.709	29.44
340.92	29.52
341.131	29.66
341.342	29.66
341.553	29.6
341.764	30.98
341.975	31.59
342.185	32.23
342.396	32.01
342.607	31.29
342.818	31.16
343.029	31.14
343.239	31.26
343.45	31.59
343.661	31.12
343.872	31.83
344.082	30.69
344.293	30.63
344.504	29.93
344.714	30.2
344.925	31.93
345.136	31.96
345.346	30.49
345.557	30.58
345.768	29.73
345.978	30.2
346.189	29.24
346.399	29.03
346.61	29.04
346.821	29.01
347.031	29.11
347.242	28.71
347.452	28.23
347.663	29.41
347.873	29.77
348.084	30.98
348.294	29.96
348.504	29.79
348.715	30.61
348.925	30.08
349.136	28.67
349.346	28.64
349.557	28.38
349.767	29.64
349.977	30.49
350.188	28.9
350.398	28.67
350.608	28.49
350.819	29.9
351.029	28.87
351.239	29.94
351.449	31.16
351.66	30.93
351.87	30.68
352.08	30.03
352.29	29.56
352.501	30.36
352.711	29.58
352.921	30.35
353.131	29.3
353.341	29.9
353.552	28.78
353.762	27.83
353.972	27.8
354.182	27.79
354.392	27.37
354.602	27.05
354.812	27.01
355.022	26.58
355.232	27.07
355.442	27.5
355.652	27.96
355.862	28.33
356.072	29.04
356.282	28.57
356.492	28.84
356.702	28.2
356.912	27.89
357.122	28.38
357.332	29.12
357.542	28.15
357.752	27.59
357.962	26.81
358.171	27.44
358.381	27.43
358.591	27.78
358.801	27.94
359.011	28.34
359.221	28.55
359.43	28.17
359.64	27.58
359.85	28.2
360.06	28.53
360.269	28.62
360.479	27.92
360.689	28.43
360.899	28.76
361.108	28.53
361.318	27.81
361.528	27.71
361.737	27.44
361.947	27.51
362.156	27.14
362.366	26.45
362.576	26.34
362.785	26.21
362.995	25.89
363.204	25.39
363.414	25.66
363.623	25.93
363.833	26.39
364.042	25.97
364.252	26.08
364.461	25.78
364.671	26.12
364.88	26.06
365.09	26.62
365.299	26.93
365.509	27.36
365.718	26.22
365.927	26.72
366.137	25.85
366.346	26.21
366.555	26.27
366.765	26.53
366.974	26.76
367.183	26.62
367.393	25.65
367.602	24.55
367.811	24.5
368.021	24.98
368.23	24.31
368.439	23.98
368.648	23.51
368.857	22.85
369.067	22.78
369.276	22.49
369.485	22.14
369.694	22.41
369.903	22.87
370.112	22.65
370.321	22.3
370.531	22.34
370.74	22.77
370.949	23.11
371.158	23.24
371.367	22.94
371.576	22.86
371.785	23.68
371.994	23.8
372.203	23.4
372.412	22.73
372.621	23.02
372.83	23.32
373.039	23.43
373.248	23.06
373.457	23.2
373.666	23.12
373.874	22.97
374.083	22.74
374.292	22.75
374.501	23.04
374.71	23.1
374.919	22.93
375.128	22.74
375.336	22.7
375.545	22.9
375.754	22.69
375.963	22.15
376.171	22.24
376.38	21.79
376.589	20.98
376.798	20.62
377.006	20.87
377.215	20.79
377.424	20.37
377.632	19.26
377.841	19.2
378.05	18.62
378.258	19.31
378.467	18.99
378.675	18.73
378.884	18.91
379.093	18.74
379.301	18.5
379.51	18.35
379.718	18.43
379.927	19.28
380.135	19.04
380.344	19.3
380.552	19.11
380.761	18.65
380.969	18.48
381.177	18.3
381.386	18.86
381.594	18.69
381.803	18.57
382.011	18.71
382.219	18.46
382.428	18.51
382.636	18.9
382.845	18.15
383.053	18.68
383.261	18.82
383.469	18.97
383.678	18.63
383.886	18.83
384.094	18.97
384.302	18.8
384.511	18.71
384.719	18.8
384.927	18.43
385.135	18.44
385.343	18.38
385.552	18.49
385.76	17.91
385.968	17.38
386.176	16.78
386.384	16.19
386.592	15.74
386.8	15.72
387.008	15.28
387.216	15.11
387.424	15.27
387.633	15.02
387.841	14.82
388.049	15.21
388.257	15.91
388.465	15.88
388.672	15.9
388.88	16.32
389.088	15.71
389.296	15.69
389.504	15.46
389.712	15.34
389.92	15.63
390.128	15.68
390.336	15.71
390.544	15.31
390.751	15.4
390.959	15.4
391.167	15.26
391.375	15.94
391.583	15.67
391.79	15.43
391.998	15.64
392.206	15.44
392.414	15.15
392.621	15.17
392.829	15.14
393.037	15.11
393.244	15.21
393.452	15.16
393.66	14.83
393.867	15.09
394.075	15.22
394.283	15.21
394.49	14.86
394.698	14.59
394.905	14.3
395.113	14.23
395.32	13.98
395.528	14.07
395.735	13.94
395.943	13.74
396.15	13.73
396.358	13.79
396.565	13.52
396.773	13.51
396.98	13.73
397.188	13.38
397.395	13.43
397.602	13.55
397.81	13.18
398.017	13.7
398.225	14.15
398.432	13.87
398.639	14.02
398.847	13.89
399.054	14.04
399.261	14.13
399.468	14.61
399.676	14.76
399.883	14.67
400.09	14.79
400.297	14.28
400.505	13.8
400.712	14.05
400.919	13.89
401.126	14.03
401.333	13.96
401.54	13.8
401.748	13.64
401.955	13.07
402.162	13.06
402.369	12.96
402.576	13.04
402.783	12.96
402.99	12.72
403.197	12.39
403.404	12.28
403.611	12.25
403.818	12.28
404.025	12.23
404.232	12.46
404.439	12.55
404.646	12.46
404.853	12.42
405.06	12.18
405.267	12.23
405.474	12.47
405.681	12.69
405.887	12.63
406.094	13.01
406.301	12.86
406.508	12.96
406.715	13.07
406.922	13.17
407.128	13.39
407.335	13.59
407.542	13.38
407.749	13.22
407.955	13.01
408.162	12.92
408.369	12.3
408.575	12.53
408.782	12.59
408.989	12.24
409.195	11.92
409.402	11.8
409.609	11.51
409.815	11.55
410.022	11.75
410.228	11.69
410.435	11.7
410.642	11.9
410.848	11.63
411.055	11.49
411.261	11.58
411.468	12
411.674	11.84
411.881	12.16
412.087	12.44
412.294	12.38
412.5	12.56
412.706	12.8
412.913	12.85
413.119	12.77
413.326	12.5
413.532	12.44
413.738	12.22
413.945	11.83
414.151	12.07
414.357	11.95
414.564	11.73
414.77	11.51
414.976	11.05
415.182	11.08
415.389	11.19
415.595	11.18
415.801	11.09
416.007	11.18
416.214	11.36
416.42	11.22
416.626	10.97
416.832	11.03
417.038	11.14
417.244	11.35
417.45	11.17
417.657	11.15
417.863	11.15
418.069	11.21
418.275	11.26
418.481	11.22
418.687	11.13
418.893	11.26
419.099	11.32
419.305	11.15
419.511	11.14
419.717	11.06
419.923	11.09
420.129	11.04
420.335	11
420.541	10.9
420.746	10.88
420.952	10.9
421.158	10.94
421.364	10.76
421.57	10.82
421.776	10.68
421.982	10.85
422.187	10.67
422.393	10.69
422.599	10.77
422.805	10.66
423.01	10.67
423.216	10.6
423.422	10.5
423.628	10.66
423.833	10.64
424.039	10.71
424.245	10.57
424.45	10.72
424.656	10.8
424.862	10.72
425.067	10.75
425.273	10.83
425.478	10.89
425.684	10.87
425.889	11.04
426.095	11.04
426.301	11.16
426.506	11.19
426.712	11.2
426.917	11.28
427.123	11.29
427.328	11.39
427.533	11.25
427.739	11.28
427.944	11.33
428.15	10.98
428.355	10.91
428.561	10.78
428.766	10.84
428.971	10.67
429.177	10.6
429.382	10.68
429.587	10.54
429.793	10.55
429.998	10.53
430.203	10.38
430.408	10.65
430.614	10.62
430.819	10.54
431.024	10.29
431.229	10.45
431.434	10.42
431.64	10.24
431.845	10.29
432.05	10.32
432.255	10.13
432.46	10.26
432.665	10.07
432.87	10.12
433.076	10.09
433.281	10.26
433.486	10.15
433.691	10
433.896	10.07
434.101	9.8
434.306	9.84
434.511	9.83
434.716	9.83
434.921	9.91
435.126	9.89
435.331	9.8
435.535	9.72
435.74	9.72
435.945	9.6
436.15	9.63
436.355	9.86
436.56	9.74
436.765	9.89
436.97	9.95
437.174	9.95
437.379	9.88
437.584	10.15
437.789	10.3
437.993	10.32
438.198	10.68
438.403	10.63
438.608	10.75
438.812	10.81
439.017	10.74
439.222	10.67
439.426	10.69
439.631	10.61
439.836	10.58
440.04	10.73
440.245	10.74
440.45	10.66
440.654	10.71
440.859	10.55
441.063	10.46
441.268	10.53
441.472	10.44
441.677	10.25
441.881	10.26
442.086	10.19
442.29	9.92
442.495	9.89
442.699	9.72
442.904	9.55
443.108	9.81
443.312	9.83
443.517	9.94
443.721	10.05
443.925	10.19
444.13	10.17
444.334	10.07
444.538	10.07
444.743	10.13
444.947	10.16
445.151	10.29
445.356	10.2
445.56	10.35
445.764	10.22
445.968	10.26
446.173	10.21
446.377	10.37
446.581	10.56
446.785	10.51
446.989	10.53
447.193	10.62
447.398	10.6
447.602	10.45
447.806	10.41
448.01	10.35
448.214	10.21
448.418	10.07
448.622	10.02
448.826	9.97
449.03	10.03
449.234	9.96
449.438	9.86
449.642	9.85
449.846	9.99
450.05	9.84
450.254	9.74
450.458	9.71
450.662	9.82
450.866	9.67
451.069	9.51
451.273	9.6
451.477	9.67
451.681	9.77
451.885	9.65
452.089	9.74
452.292	9.62
452.496	9.67
452.7	9.88
452.904	10.02
453.107	10.13
453.311	10.11
453.515	10
453.719	9.98
453.922	10.03
454.126	10.21
454.33	9.96
454.533	9.99
454.737	10.08
454.94	9.92
