Data from CB_017_Reflection_1.txt Node
Date: Wed Nov 11 19:10:31 EST 2015
User: robert
Spectrometer: USB4E03001
Autoset integration time: false
Trigger mode: 4
Integration Time (sec): 1.000000E-1
Scans to average: 15
Electric dark correction enabled: true
Nonlinearity correction enabled: false
Boxcar width: 5
Stray light correction enabled: false
XAxis mode: Wavelengths
Stop averaging: false
Number of Pixels in Spectrum: 3648
>>>>>Begin Spectral Data<<<<<
177.566	1.37
177.785	-171.8
178.005	-7.76
178.225	-106.62
178.445	115.03
178.665	135.84
178.885	-4.2
179.105	298.98
179.324	172.57
179.544	-41.64
179.764	76.46
179.984	113.39
180.204	-13.37
180.423	93.66
180.643	257.21
180.863	140.24
181.083	690.91
181.302	320.46
181.522	-561.68
181.742	-212.59
181.961	370.72
182.181	210.35
182.401	253.6
182.621	1546.58
182.84	260.6
183.06	297.05
183.279	282.61
183.499	714.39
183.719	527.17
183.938	402.61
184.158	816.61
184.377	-992.09
184.597	-290.97
184.816	-240.1
185.036	-614.64
185.256	-156.19
185.475	742.88
185.695	-11540.23
185.914	483.8
186.134	346.21
186.353	320.24
186.572	517.01
186.792	323.57
187.011	264.66
187.231	249.59
187.45	314.02
187.67	372.8
187.889	2839.87
188.108	803.8
188.328	1222.73
188.547	-878.96
188.766	-1701.18
188.986	694.6
189.205	-36654.55
189.424	1033.04
189.644	6771.9
189.863	335.19
190.082	238.15
190.302	223.88
190.521	124.41
190.74	87.57
190.959	74.11
191.178	82.7
191.398	67.62
191.617	70.23
191.836	53.55
192.055	43.32
192.274	20.98
192.494	35.8
192.713	31.34
192.932	50.01
193.151	45.37
193.37	59.75
193.589	55.89
193.808	92.06
194.027	97.88
194.246	110.11
194.465	147.23
194.685	145.14
194.904	154.39
195.123	403.49
195.342	2099.55
195.561	280.35
195.78	209.96
195.999	170.96
196.218	253.47
196.436	12.24
196.655	-12.39
196.874	285.71
197.093	179.22
197.312	233.73
197.531	-25.08
197.75	57.88
197.969	65.22
198.188	70.97
198.407	56.29
198.625	57.33
198.844	82.72
199.063	-5.49
199.282	119.82
199.501	52.38
199.719	27.08
199.938	-331.64
200.157	-7.87
200.376	29.17
200.594	127.99
200.813	-9445.71
201.032	783.09
201.251	190.46
201.469	217.97
201.688	216.72
201.907	185.43
202.125	169.66
202.344	124.25
202.563	171.07
202.781	180.43
203	138.78
203.218	112.7
203.437	119.77
203.656	140.31
203.874	112.2
204.093	124.41
204.311	88.14
204.53	75.71
204.748	40.26
204.967	78.29
205.185	68.6
205.404	118.69
205.622	139.52
205.841	145.65
206.059	205.3
206.278	244.41
206.496	189.67
206.715	347.62
206.933	377.9
207.151	295.32
207.37	254.51
207.588	245.32
207.806	212.16
208.025	204.84
208.243	141.91
208.461	43.49
208.68	5.16
208.898	80.76
209.116	70.2
209.335	97.08
209.553	-143.99
209.771	180.93
209.989	-1872.61
210.208	-1078.76
210.426	-397.19
210.644	-159.82
210.862	-136.56
211.081	-161.71
211.299	-161.02
211.517	-336.4
211.735	-314.51
211.953	-623.29
212.171	-242.25
212.39	-1180.72
212.608	-3419.14
212.826	493.74
213.044	267.48
213.262	179.1
213.48	204.61
213.698	298.1
213.916	-1300.91
214.134	-433.64
214.352	-709.35
214.57	649.74
214.788	266.48
215.006	288.59
215.224	263.33
215.442	198.12
215.66	221.61
215.878	241.5
216.096	226.1
216.314	170.54
216.532	197.29
216.75	179.72
216.968	170.41
217.185	218.43
217.403	240.4
217.621	270.14
217.839	320.61
218.057	4979.9
218.275	-1415.73
218.492	-153.67
218.71	-104.97
218.928	-97.77
219.146	-73.36
219.363	-34.94
219.581	-111.78
219.799	-146.21
220.017	-94.63
220.234	-83.57
220.452	-104.87
220.67	-112.83
220.887	-233.34
221.105	-116.71
221.323	-143.97
221.54	-38.26
221.758	-13.64
221.976	-19.21
222.193	-6.95
222.411	-26.73
222.629	-45.06
222.846	-49.39
223.064	-19.8
223.281	-24.25
223.499	-46.78
223.716	-38.39
223.934	-342.81
224.151	-735.97
224.369	-359.5
224.586	156425
224.804	-637.11
225.021	-193.57
225.239	-98.04
225.456	-129.75
225.674	-123.8
225.891	-26.46
226.108	-22.17
226.326	-4.22
226.543	-1.39
226.76	-2.71
226.978	-0.63
227.195	-5.86
227.413	-4.68
227.63	-11.34
227.847	-4.58
228.064	3.7
228.282	3.34
228.499	7.24
228.716	5.42
228.934	5.78
229.151	6.17
229.368	8.96
229.585	7.06
229.802	6.57
230.02	7.08
230.237	4.19
230.454	3.67
230.671	5.95
230.888	-1.61
231.105	-0.95
231.323	3.78
231.54	3.1
231.757	-4.2
231.974	-3.56
232.191	-2.4
232.408	0.79
232.625	-6.53
232.842	-7.88
233.059	-8.83
233.276	-0.78
233.493	-1.9
233.71	-13.89
233.927	-14.72
234.144	-8.27
234.361	-1.09
234.578	-4.56
234.795	-9.95
235.012	-5.5
235.229	-11.04
235.446	-15.49
235.663	-22.23
235.879	-18.52
236.096	-16.61
236.313	-23.12
236.53	-24.61
236.747	-21.03
236.964	-18
237.181	-12.8
237.397	-4.13
237.614	1.42
237.831	-4.59
238.048	-0.41
238.264	-3.73
238.481	-0.61
238.698	2.46
238.915	-2.65
239.131	-12.75
239.348	-16.72
239.565	-18.26
239.781	-20.79
239.998	-19.05
240.215	-13.99
240.431	-13.07
240.648	-8.18
240.865	-5.82
241.081	-4.94
241.298	-2.49
241.514	-0.12
241.731	2.6
241.947	5.43
242.164	5.84
242.38	6.31
242.597	7.28
242.814	8.07
243.03	8.02
243.246	9.13
243.463	10.04
243.679	9.12
243.896	9.72
244.112	9.1
244.329	7.21
244.545	6.36
244.762	6.5
244.978	5.81
245.194	4.02
245.411	2.99
245.627	-0.06
245.843	-0.97
246.06	2.38
246.276	3.19
246.492	3.96
246.709	5.7
246.925	4.8
247.141	4.76
247.357	5.23
247.574	6.01
247.79	6.58
248.006	6.78
248.222	7.88
248.439	7.08
248.655	7.19
248.871	6.2
249.087	5.91
249.303	7.49
249.519	6.53
249.736	4.9
249.952	3.59
250.168	0.28
250.384	1.67
250.6	1.06
250.816	0.54
251.032	-1.12
251.248	0.09
251.464	-0.53
251.68	-1.07
251.896	1.63
252.112	2.43
252.328	5.22
252.544	8.23
252.76	7.76
252.976	6.6
253.192	7
253.408	8.04
253.624	7.72
253.84	5.83
254.056	4.36
254.272	2.45
254.487	1.41
254.703	0.18
254.919	-0.74
255.135	-4.87
255.351	-2.14
255.567	-0.69
255.782	-4.01
255.998	-2.31
256.214	-1.49
256.43	1.33
256.646	0.47
256.861	-0.1
257.077	-3.69
257.293	-7.51
257.508	-4.05
257.724	-5.59
257.94	-8.45
258.155	-5.17
258.371	-3
258.587	-2.28
258.802	-0.83
259.018	1.51
259.234	2.38
259.449	4.8
259.665	4.73
259.88	4.22
260.096	4.29
260.312	5.67
260.527	5.48
260.743	5.31
260.958	5.61
261.174	4.61
261.389	3.41
261.605	3.01
261.82	2.22
262.036	3.14
262.251	3.88
262.466	3.97
262.682	1.95
262.897	1.48
263.113	-0.17
263.328	0.31
263.543	1.81
263.759	2.58
263.974	2.97
264.189	1.44
264.405	1.12
264.62	0.46
264.835	-0.92
265.051	0.25
265.266	0.12
265.481	1.11
265.696	-1.2
265.912	-1.82
266.127	-0.74
266.342	-0.04
266.557	-2.64
266.773	-2.45
266.988	-2.08
267.203	-2.35
267.418	-2.3
267.633	-2.1
267.848	-2.17
268.064	-0.95
268.279	-1.3
268.494	-1.95
268.709	-1.69
268.924	0.41
269.139	0.49
269.354	0.14
269.569	2.34
269.784	2.93
269.999	1.8
270.214	1
270.429	0.43
270.644	1.21
270.859	0.7
271.074	0.75
271.289	1.41
271.504	2.45
271.719	2.2
271.934	2.05
272.149	1.46
272.363	2.78
272.578	2.87
272.793	3.38
273.008	2.73
273.223	3.52
273.438	3.48
273.653	3.07
273.867	2.32
274.082	1.18
274.297	0.81
274.512	0.25
274.726	0.5
274.941	1.01
275.156	0.48
275.371	0.85
275.585	-0.52
275.8	-1.25
276.015	-1.37
276.229	-2.9
276.444	-1.12
276.659	-1.26
276.873	-1.79
277.088	-2.59
277.302	-3.18
277.517	-3.15
277.732	-4.84
277.946	-4.89
278.161	-5.71
278.375	-6.5
278.59	-3.39
278.804	-2.62
279.019	-3.01
279.233	0.43
279.448	0.61
279.662	1.08
279.877	1.14
280.091	4.54
280.306	5.45
280.52	7.28
280.735	7.39
280.949	6.84
281.163	7.87
281.378	7.72
281.592	7.25
281.806	7.61
282.021	8.09
282.235	7.76
282.449	5.81
282.664	5.32
282.878	5.32
283.092	6.73
283.307	7.1
283.521	6.46
283.735	6.97
283.949	6.55
284.164	6.54
284.378	6.9
284.592	6.99
284.806	7.07
285.02	7.45
285.234	7.26
285.449	6.42
285.663	5.98
285.877	5.75
286.091	5.21
286.305	3.86
286.519	2.94
286.733	2.2
286.947	3.06
287.161	2.68
287.375	2.11
287.589	1.16
287.803	1.45
288.017	0.56
288.231	0.15
288.445	1.07
288.659	1.96
288.873	2.32
289.087	2.26
289.301	1.55
289.515	2.78
289.729	2.85
289.943	3.55
290.157	2.07
290.371	1.29
290.584	1.99
290.798	1.74
291.012	1.67
291.226	2.13
291.44	1.53
291.654	1.45
291.867	0.78
292.081	0.28
292.295	-0.12
292.509	0.78
292.722	2.36
292.936	1.87
293.15	1.58
293.364	2.05
293.577	1.92
293.791	3.33
294.005	3.96
294.218	4.43
294.432	4.86
294.645	5.76
294.859	6.03
295.073	5.71
295.286	5.65
295.5	6.85
295.713	7.46
295.927	7.68
296.14	8.26
296.354	7.67
296.568	6.14
296.781	6.34
296.994	5.2
297.208	4.57
297.421	5.35
297.635	5.31
297.848	4.79
298.062	4.94
298.275	4.78
298.489	3.27
298.702	3.76
298.915	5.43
299.129	5.29
299.342	5.89
299.555	6.16
299.769	6.59
299.982	7.02
300.195	7.31
300.409	6.77
300.622	7.04
300.835	8.18
301.048	8.41
301.262	7.51
301.475	8.35
301.688	8.3
301.901	9.46
302.115	8.36
302.328	8.03
302.541	7.1
302.754	6.97
302.967	5.52
303.18	5.55
303.393	5.6
303.607	5.94
303.82	4.53
304.033	4.97
304.246	5.21
304.459	4.81
304.672	4.95
304.885	4.95
305.098	4.5
305.311	6.65
305.524	6.53
305.737	5.36
305.95	6.34
306.163	7.66
306.376	8.82
306.589	8
306.802	7.5
307.015	8.31
307.228	7.18
307.44	9.37
307.653	8.96
307.866	8.96
308.079	9.85
308.292	9.74
308.505	10.81
308.718	9.15
308.93	9.63
309.143	10.74
309.356	9.92
309.569	11.15
309.781	9.79
309.994	8.57
310.207	9.12
310.42	9.34
310.632	8.41
310.845	8.04
311.058	8.91
311.27	8.7
311.483	8.78
311.696	8.72
311.908	8.84
312.121	8.84
312.333	8.64
312.546	9.08
312.759	7.61
312.971	7.42
313.184	7.22
313.396	8.06
313.609	9.79
313.821	9.66
314.034	11.3
314.246	11.28
314.459	11.31
314.671	12.43
314.884	11.88
315.096	14.01
315.309	14.67
315.521	13.25
315.733	11.72
315.946	10.5
316.158	10.5
316.371	8.71
316.583	7.65
316.795	9.03
317.008	9.28
317.22	8.26
317.432	7.28
317.644	6.98
317.857	6.56
318.069	7.03
318.281	6.85
318.494	7.06
318.706	7.8
318.918	8.24
319.13	6.71
319.342	6.69
319.555	6.79
319.767	5.83
319.979	7.71
320.191	9.43
320.403	8.84
320.615	9.25
320.827	8.71
321.039	8.24
321.252	9.25
321.464	9.72
321.676	7.82
321.888	8.67
322.1	9.78
322.312	9
322.524	9.5
322.736	10.62
322.948	10.08
323.16	10.93
323.372	10.96
323.584	10.34
323.796	10.27
324.007	12.29
324.219	11.49
324.431	12.17
324.643	11.34
324.855	10.6
325.067	10.26
325.279	9.91
325.491	8.89
325.702	9.6
325.914	10.93
326.126	10.87
326.338	9.66
326.55	11.45
326.761	12.16
326.973	12.12
327.185	12.27
327.396	11.25
327.608	11
327.82	12.81
328.032	12.85
328.243	13.25
328.455	13.25
328.666	14.59
328.878	13.85
329.09	12.95
329.301	13.51
329.513	14.52
329.725	16.26
329.936	17.32
330.148	16.74
330.359	16.11
330.571	16.05
330.782	16.99
330.994	16.39
331.205	16.26
331.417	17.09
331.628	17.32
331.84	16.84
332.051	15.83
332.262	15.78
332.474	15.62
332.685	16.86
332.897	16.11
333.108	16.4
333.319	19.03
333.531	19.45
333.742	19.08
333.953	19.56
334.165	18.83
334.376	18.88
334.587	18.53
334.799	18.06
335.01	17.24
335.221	17.14
335.432	17.2
335.644	15.79
335.855	15.99
336.066	15.98
336.277	15.54
336.488	16.28
336.7	17.33
336.911	18.34
337.122	18.65
337.333	19.07
337.544	19.44
337.755	19.88
337.966	19.06
338.177	18.78
338.388	18.1
338.599	18.94
338.811	18.89
339.022	18.58
339.233	17.63
339.444	18.23
339.655	18.85
339.866	19.07
340.076	18.09
340.287	19.7
340.498	20.64
340.709	21.82
340.92	21.14
341.131	20.84
341.342	21.05
341.553	21.53
341.764	20.13
341.975	19.02
342.185	19.07
342.396	19.48
342.607	18.73
342.818	16.94
343.029	15.74
343.239	16.05
343.45	16.1
343.661	15.79
343.872	15.84
344.082	17.09
344.293	17.49
344.504	17.16
344.714	18.06
344.925	18.43
345.136	18.75
345.346	20.33
345.557	20.45
345.768	21.19
345.978	21.73
346.189	22.2
346.399	22.35
346.61	22.08
346.821	22.12
347.031	20.97
347.242	20.62
347.452	20.67
347.663	20.03
347.873	19.99
348.084	19.54
348.294	19.26
348.504	18.11
348.715	18.63
348.925	18.98
349.136	18.02
349.346	18.74
349.557	19.25
349.767	19.31
349.977	18.3
350.188	18.05
350.398	18.86
350.608	18.82
350.819	19.78
351.029	19.18
351.239	19.19
351.449	19.24
351.66	19.09
351.87	18.31
352.08	18.86
352.29	20
352.501	20.17
352.711	19.44
352.921	18.75
353.131	18.17
353.341	18.17
353.552	18.42
353.762	19.59
353.972	19.64
354.182	20.05
354.392	19.39
354.602	18.9
354.812	18.22
355.022	17.9
355.232	17.82
355.442	17.64
355.652	17.29
355.862	17.87
356.072	17.14
356.282	17.12
356.492	17.22
356.702	17.92
356.912	17.82
357.122	17.33
357.332	17.29
357.542	17.62
357.752	18.2
357.962	18.21
358.171	17.46
358.381	17.66
358.591	18.52
358.801	18.28
359.011	18.28
359.221	18.32
359.43	19.22
359.64	19.89
359.85	20.48
360.06	20.1
360.269	20.55
360.479	20.27
360.689	20.23
360.899	19.77
361.108	19.6
361.318	19.31
361.528	19.24
361.737	19.22
361.947	19.03
362.156	18.21
362.366	18.47
362.576	18.17
362.785	18.5
362.995	18.54
363.204	17.9
363.414	17.95
363.623	18.21
363.833	17.89
364.042	17.77
364.252	17.42
364.461	18.16
364.671	18.13
364.88	17.79
365.09	17.35
365.299	17.47
365.509	17.41
365.718	17.22
365.927	16.79
366.137	16.93
366.346	16.87
366.555	16.7
366.765	16.03
366.974	15.74
367.183	15.82
367.393	16.01
367.602	15.52
367.811	15.63
368.021	15.85
368.23	16.34
368.439	15.82
368.648	16.04
368.857	16.79
369.067	16.83
369.276	17.07
369.485	16.78
369.694	17.07
369.903	17.22
370.112	16.94
370.321	16.37
370.531	15.33
370.74	15.27
370.949	14.96
371.158	14.15
371.367	14.62
371.576	14.44
371.785	14.91
371.994	14.33
372.203	14.94
372.412	15.36
372.621	16.56
372.83	17.25
373.039	18.15
373.248	18.64
373.457	18.99
373.666	18.3
373.874	17.86
374.083	18.24
374.292	18.45
374.501	17.8
374.71	17.49
374.919	16.48
375.128	16.26
375.336	15.41
375.545	14.84
375.754	14.42
375.963	14.92
376.171	14.7
376.38	13.96
376.589	13.81
376.798	13.54
377.006	13.08
377.215	13.15
377.424	13.09
377.632	13.78
377.841	13.46
378.05	13.03
378.258	12.54
378.467	12.64
378.675	12.23
378.884	12.21
379.093	12.46
379.301	13.15
379.51	13.31
379.718	13.21
379.927	13.13
380.135	13.29
380.344	14.04
380.552	14.01
380.761	14.1
380.969	14.47
381.177	14.39
381.386	13.76
381.594	13.26
381.803	12.59
382.011	12.57
382.219	12.05
382.428	11.58
382.636	11.66
382.845	11.76
383.053	11.85
383.261	12.09
383.469	12.25
383.678	12.81
383.886	13.08
384.094	13.39
384.302	13.32
384.511	13.46
384.719	13.87
384.927	13.66
385.135	13.67
385.343	13.55
385.552	13.42
385.76	12.94
385.968	12.76
386.176	12.34
386.384	12.07
386.592	11.79
386.8	11.62
387.008	11.45
387.216	11.41
387.424	11.7
387.633	12
387.841	11.58
388.049	11.61
388.257	11.71
388.465	11.86
388.672	11.85
388.88	11.98
389.088	11.84
389.296	11.58
389.504	11.78
389.712	11.15
389.92	10.62
390.128	10.81
390.336	10.74
390.544	10.61
390.751	10.65
390.959	10.6
391.167	10.75
391.375	10.74
391.583	10.98
391.79	10.39
391.998	10.86
392.206	10.69
392.414	10.56
392.621	10.73
392.829	10.69
393.037	10.45
393.244	10.42
393.452	9.98
393.66	9.85
393.867	9.82
394.075	9.89
394.283	9.29
394.49	9.52
394.698	9.5
394.905	9.43
395.113	9.27
395.32	8.99
395.528	8.78
395.735	8.75
395.943	8.59
396.15	8.38
396.358	8.24
396.565	8.54
396.773	8.25
396.98	7.82
397.188	7.84
397.395	8.24
397.602	8.34
397.81	8.35
398.017	8.61
398.225	8.73
398.432	8.96
398.639	9.31
398.847	9.43
399.054	9.29
399.261	9.7
399.468	9.57
399.676	9.2
399.883	9.28
400.09	9.64
400.297	9.37
400.505	9.28
400.712	9.2
400.919	9.02
401.126	8.66
401.333	8.99
401.54	8.93
401.748	8.77
401.955	8.68
402.162	8.37
402.369	8.19
402.576	8.58
402.783	8.67
402.99	8.76
403.197	8.93
403.404	8.55
403.611	8.3
403.818	8.21
404.025	8.13
404.232	8.19
404.439	8.28
404.646	7.9
404.853	7.71
405.06	7.76
405.267	7.93
405.474	7.78
405.681	8.1
405.887	8.14
406.094	8.42
406.301	8.56
406.508	8.54
406.715	8.78
406.922	9.12
407.128	9.06
407.335	9.04
407.542	8.57
407.749	8.43
407.955	8.55
408.162	8.77
408.369	8.65
408.575	8.75
408.782	8.87
408.989	8.75
409.195	8.79
409.402	8.87
409.609	8.63
409.815	8.77
410.022	8.79
410.228	8.86
410.435	8.71
410.642	8.5
410.848	8.26
411.055	8.12
411.261	8.08
411.468	8.19
411.674	7.95
411.881	7.83
412.087	7.71
412.294	7.79
412.5	7.53
412.706	7.67
412.913	7.27
413.119	7.53
413.326	7.5
413.532	7.36
413.738	7.32
413.945	7.35
414.151	7.69
414.357	7.72
414.564	7.64
414.77	7.69
414.976	7.53
415.182	7.85
415.389	7.84
415.595	7.97
415.801	8.06
416.007	8.06
416.214	8.08
416.42	8.08
416.626	8.16
416.832	8.16
417.038	8.05
417.244	8.08
417.45	8.23
417.657	8.05
417.863	8.03
418.069	8.09
418.275	8.16
418.481	8.26
418.687	8.15
418.893	8.08
419.099	8.1
419.305	8.26
419.511	8.25
419.717	8.3
419.923	8.4
420.129	8.52
420.335	8.46
420.541	8.4
420.746	8.51
420.952	8.6
421.158	8.72
421.364	8.66
421.57	8.54
421.776	8.5
421.982	8.38
422.187	8.2
422.393	7.99
422.599	8.04
422.805	7.93
423.01	7.82
423.216	7.67
423.422	7.47
423.628	7.39
423.833	7.44
424.039	7.45
424.245	7.49
424.45	7.69
424.656	7.66
424.862	7.68
425.067	7.86
425.273	7.82
425.478	8.03
425.684	8.17
425.889	8.33
426.095	8.27
426.301	8.41
426.506	8.54
426.712	8.47
426.917	8.84
427.123	8.83
427.328	8.46
427.533	8.53
427.739	8.44
427.944	8.26
428.15	8.11
428.355	8.35
428.561	8.23
428.766	7.97
428.971	7.84
429.177	7.32
429.382	7.15
429.587	7.23
429.793	7.06
429.998	6.97
430.203	7.09
430.408	7.22
430.614	6.94
430.819	7.03
431.024	6.79
431.229	6.92
431.434	7.27
431.64	7.22
431.845	7.42
432.05	7.74
432.255	7.57
432.46	7.61
432.665	7.57
432.87	7.57
433.076	7.59
433.281	7.75
433.486	7.74
433.691	7.46
433.896	7.45
434.101	7.48
434.306	7.35
434.511	7.38
434.716	7.31
434.921	7.23
435.126	7.38
435.331	7.23
435.535	7.32
435.74	7.37
435.945	7.7
436.15	7.81
436.355	7.83
436.56	7.86
436.765	7.83
436.97	7.81
437.174	7.89
437.379	7.83
437.584	7.78
437.789	7.67
437.993	7.76
438.198	7.64
438.403	7.74
438.608	7.83
438.812	7.76
439.017	7.92
439.222	8.06
439.426	8.18
439.631	8.03
439.836	8.31
440.04	8.43
440.245	8.34
440.45	8.3
440.654	8.35
440.859	8.14
441.063	8.03
441.268	8
441.472	8.05
441.677	7.81
441.881	7.92
442.086	7.75
442.29	7.67
442.495	7.83
442.699	7.87
442.904	7.75
443.108	7.89
443.312	8.02
443.517	7.86
443.721	7.79
443.925	8.02
444.13	8.01
444.334	8.08
444.538	8.05
444.743	8
444.947	7.89
445.151	8.01
445.356	8.04
445.56	8.05
445.764	8.15
445.968	8.1
446.173	8.09
446.377	7.99
446.581	7.88
446.785	7.97
446.989	7.86
447.193	7.84
447.398	7.77
447.602	7.7
447.806	7.62
448.01	7.57
448.214	7.49
448.418	7.5
448.622	7.6
448.826	7.71
449.03	7.7
449.234	7.59
449.438	7.58
449.642	7.54
449.846	7.4
450.05	7.46
450.254	7.56
450.458	7.6
450.662	7.58
450.866	7.45
451.069	7.28
451.273	7.11
451.477	7.32
451.681	7.48
451.885	7.44
452.089	7.37
452.292	7.3
452.496	7.38
452.7	7.31
452.904	7.16
453.107	7
453.311	6.94
453.515	6.84
453.719	6.81
453.922	6.61
454.126	6.74
454.33	6.87
454.533	6.88
454.737	6.8
454.94	6.74
455.144	6.7
455.348	6.96
455.551	7.01
455.755	7.12
455.958	7.05
456.162	7.23
456.365	6.96
456.569	6.97
456.772	7.01
456.976	6.76
457.179	6.7
457.383	6.8
457.586	6.65
457.79	6.69
457.993	6.58
458.196	6.62
458.4	6.57
458.603	6.82
458.807	6.87
459.01	6.85
459.213	7.09
459.417	7.11
459.62	7.23
459.823	7.23
460.026	7.22
460.23	7.4
460.433	7.32
460.636	7.27
460.839	7.21
461.042	7.13
461.246	7.06
461.449	6.94
461.652	6.89
461.855	6.57
462.058	6.66
462.261	6.55
462.464	6.54
462.668	6.69
462.871	6.68
463.074	6.54
