Data from CB_074_Reflection_3.txt Node
Date: Sat Nov 14 11:21:38 EST 2015
User: robert
Spectrometer: USB4E03001
Autoset integration time: false
Trigger mode: 4
Integration Time (sec): 1.000000E-1
Scans to average: 15
Electric dark correction enabled: true
Nonlinearity correction enabled: false
Boxcar width: 5
Stray light correction enabled: false
XAxis mode: Wavelengths
Stop averaging: false
Number of Pixels in Spectrum: 3648
>>>>>Begin Spectral Data<<<<<
177.566	-270.72
177.785	-429.24
178.005	-1459.43
178.225	-226.38
178.445	-214.98
178.665	-297.49
178.885	-6.35
179.105	-92.56
179.324	-148.79
179.544	-389.94
179.764	-150.31
179.984	-179.45
180.204	-190.74
180.423	-722.27
180.643	-342.63
180.863	-590.16
181.083	-2471.27
181.302	-10396.03
181.522	1071.47
181.742	1063.39
181.961	1014.39
182.181	159.19
182.401	142.86
182.621	266.61
182.84	1058.07
183.06	-3356.27
183.279	-413.43
183.499	-258.82
183.719	-390.72
183.938	-282.12
184.158	-236.86
184.377	-173.63
184.597	-104.25
184.816	-52.66
185.036	-87.89
185.256	-100.45
185.475	-253.74
185.695	-121.07
185.914	-164.93
186.134	-151.66
186.353	-191.97
186.572	-110.13
186.792	-704.07
187.011	3564.71
187.231	-3041.56
187.45	-516.57
187.67	-2064.92
187.889	786.49
188.108	462.57
188.328	311.77
188.547	223.13
188.766	177.11
188.986	161.53
189.205	148.92
189.424	171.2
189.644	140.17
189.863	188.81
190.082	215.62
190.302	319.4
190.521	241
190.74	272.65
190.959	956.64
191.178	926.81
191.398	824.88
191.617	2251.32
191.836	7923.12
192.055	1362.89
192.274	356.84
192.494	521.7
192.713	20373.21
192.932	-1957.81
193.151	365500
193.37	562.05
193.589	-12834.51
193.808	-1117.58
194.027	-1742.15
194.246	3173.71
194.465	-2258.1
194.685	511.75
194.904	470.11
195.123	289.73
195.342	213.41
195.561	161.23
195.78	587.33
195.999	1274.24
196.218	523.08
196.436	203.12
196.655	174.16
196.874	130.6
197.093	309.94
197.312	254.43
197.531	407.01
197.75	555.37
197.969	1596.67
198.188	246.55
198.407	185.61
198.625	201.88
198.844	293.92
199.063	381.85
199.282	716.73
199.501	-3166.8
199.719	-1585.88
199.938	848.49
200.157	597.26
200.376	-3170.66
200.594	-223.23
200.813	-582.75
201.032	-1562.35
201.251	-651.15
201.469	-995.32
201.688	-1982.37
201.907	3755.04
202.125	1142.95
202.344	4293.62
202.563	19756.52
202.781	1039.82
203	293.91
203.218	252.25
203.437	461.46
203.656	364.56
203.874	852.97
204.093	800.8
204.311	510.47
204.53	1369.51
204.748	327.43
204.967	462.47
205.185	446.81
205.404	548.17
205.622	607.78
205.841	300.83
206.059	245.34
206.278	190.76
206.496	295.5
206.715	415.23
206.933	306.28
207.151	421.51
207.37	305.99
207.588	365.85
207.806	445.72
208.025	636.61
208.243	904.52
208.461	-64386.36
208.68	1707.52
208.898	754.7
209.116	446.28
209.335	376.52
209.553	356.16
209.771	260
209.989	247.22
210.208	207.2
210.426	190.76
210.644	162.78
210.862	157.73
211.081	152.14
211.299	124.02
211.517	145.45
211.735	117.75
211.953	114.14
212.171	130.89
212.39	106.74
212.608	101.26
212.826	87.33
213.044	119.33
213.262	114.34
213.48	108.47
213.698	142.06
213.916	97.2
214.134	182.72
214.352	253.43
214.57	176.79
214.788	165.73
215.006	168
215.224	312.96
215.442	827.36
215.66	1475.88
215.878	559.76
216.096	230.11
216.314	649.66
216.532	2664.72
216.75	-828.77
216.968	-1152.34
217.185	-9429.2
217.403	2073.41
217.621	-154788.89
217.839	-863.31
218.057	-28372.92
218.275	-837.57
218.492	-130.31
218.71	-3354.96
218.928	1723.23
219.146	999.54
219.363	519.59
219.581	560.06
219.799	-2509.35
220.017	290.75
220.234	294.41
220.452	323.28
220.67	562.59
220.887	280.57
221.105	426.42
221.323	272.52
221.54	192.14
221.758	193.47
221.976	178.08
222.193	142.09
222.411	137.7
222.629	142.6
222.846	133.64
223.064	116.37
223.281	124.71
223.499	116.85
223.716	101.16
223.934	95.03
224.151	100.84
224.369	111.67
224.586	129.1
224.804	147.78
225.021	136.29
225.239	141.11
225.456	136.95
225.674	114.04
225.891	122.68
226.108	118.28
226.326	112.76
226.543	106.37
226.76	96.89
226.978	80.02
227.195	74.08
227.413	67.56
227.63	63.4
227.847	61.23
228.064	56.45
228.282	51.17
228.499	50.58
228.716	48.33
228.934	45.91
229.151	46.35
229.368	43.15
229.585	40.88
229.802	39.69
230.02	38.33
230.237	36.8
230.454	38.96
230.671	39.54
230.888	42.7
231.105	39.07
231.323	42.64
231.54	43.1
231.757	47.78
231.974	52.62
232.191	55.97
232.408	57.55
232.625	62.14
232.842	53.93
233.059	47.02
233.276	40.81
233.493	42.95
233.71	39.17
233.927	34.5
234.144	32.1
234.361	31.92
234.578	27.84
234.795	28.18
235.012	24.5
235.229	28.26
235.446	35.5
235.663	35.87
235.879	35.69
236.096	40.06
236.313	48.39
236.53	45.47
236.747	40.55
236.964	41.3
237.181	46.04
237.397	49.42
237.614	56.68
237.831	57.47
238.048	58.51
238.264	59.93
238.481	55.46
238.698	48.14
238.915	48.96
239.131	49.45
239.348	46.9
239.565	43.57
239.781	38.32
239.998	34.83
240.215	29.14
240.431	31.9
240.648	31.63
240.865	28.7
241.081	30.77
241.298	30.49
241.514	30.69
241.731	30.13
241.947	28.74
242.164	28.84
242.38	25.33
242.597	23.36
242.814	21.09
243.03	22.64
243.246	24.09
243.463	22.29
243.679	21.01
243.896	19.66
244.112	19.3
244.329	20.51
244.545	24.97
244.762	25.3
244.978	29.74
245.194	27.74
245.411	25.61
245.627	24.46
245.843	25.4
246.06	25.59
246.276	23.67
246.492	25.54
246.709	24.16
246.925	22.17
247.141	22.94
247.357	22.19
247.574	22.44
247.79	21.5
248.006	20.95
248.222	20.95
248.439	20.29
248.655	21.3
248.871	18.91
249.087	19.19
249.303	19.74
249.519	19.91
249.736	19.69
249.952	21.3
250.168	25.16
250.384	26.41
250.6	25.36
250.816	28.04
251.032	26.96
251.248	27.74
251.464	26.17
251.68	22.41
251.896	19.9
252.112	21.15
252.328	21.24
252.544	20.28
252.76	19.19
252.976	17.09
253.192	15.53
253.408	17.53
253.624	19.45
253.84	20.61
254.056	22.28
254.272	22.73
254.487	21.37
254.703	19.85
254.919	19.75
255.135	23.01
255.351	25.81
255.567	28.36
255.782	29.06
255.998	29.71
256.214	26.96
256.43	23.11
256.646	25.4
256.861	26.49
257.077	24.57
257.293	21.3
257.508	19.8
257.724	21.22
257.94	18.68
258.155	17.11
258.371	16.16
258.587	17.25
258.802	17.99
259.018	16.55
259.234	16.15
259.449	16.22
259.665	17.14
259.88	17.2
260.096	16.05
260.312	15.69
260.527	15.72
260.743	15.51
260.958	14.99
261.174	15.87
261.389	17.09
261.605	17.1
261.82	16.74
262.036	16.37
262.251	16.42
262.466	17.21
262.682	17.19
262.897	16.91
263.113	16.7
263.328	16.88
263.543	17.5
263.759	17.43
263.974	16.1
264.189	16.41
264.405	15.86
264.62	15.89
264.835	17.47
265.051	21.82
265.266	21.42
265.481	23.92
265.696	24.97
265.912	21.58
266.127	20.88
266.342	19.56
266.557	20.13
266.773	20.66
266.988	19.97
267.203	19.42
267.418	16.19
267.633	16.79
267.848	15.09
268.064	13.43
268.279	14.13
268.494	12.97
268.709	14.43
268.924	16.95
269.139	15.46
269.354	16.04
269.569	15.11
269.784	16.11
269.999	16.07
270.214	16.22
270.429	18.24
270.644	19.58
270.859	19.47
271.074	19.29
271.289	18.33
271.504	18.55
271.719	17.85
271.934	19.32
272.149	19.01
272.363	18.91
272.578	18.1
272.793	17.31
273.008	17.28
273.223	17.31
273.438	16.4
273.653	15.73
273.867	15.99
274.082	18.06
274.297	16.5
274.512	18.25
274.726	17.1
274.941	16.58
275.156	17.13
275.371	16.42
275.585	16.91
275.8	19.45
276.015	18.76
276.229	18.77
276.444	17.01
276.659	17.06
276.873	15.16
277.088	18.05
277.302	20.25
277.517	19.02
277.732	18.94
277.946	18.77
278.161	18.58
278.375	18.24
278.59	18.2
278.804	18.36
279.019	18.52
279.233	17.9
279.448	14.83
279.662	13.12
279.877	13.81
280.091	11.91
280.306	10.65
280.52	8.72
280.735	9.23
280.949	9.79
281.163	8.54
281.378	7.23
281.592	8.73
281.806	10.32
282.021	10.39
282.235	10.68
282.449	13.75
282.664	14.17
282.878	14
283.092	13.25
283.307	13.25
283.521	12.51
283.735	14.49
283.949	14.8
284.164	13.83
284.378	13.85
284.592	12.97
284.806	11.93
285.02	12.97
285.234	12.28
285.449	13.19
285.663	14.28
285.877	15
286.091	14.12
286.305	13.55
286.519	14.13
286.733	14.45
286.947	15.18
287.161	15.41
287.375	14.63
287.589	17.46
287.803	18.85
288.017	16.94
288.231	17.59
288.445	17.76
288.659	18.49
288.873	19.01
289.087	19.5
289.301	20.1
289.515	18.74
289.729	19.06
289.943	17.67
290.157	16.7
290.371	17.12
290.584	17.54
290.798	18.31
291.012	17.48
291.226	17.02
291.44	17.48
291.654	15.84
291.867	16.86
292.081	17.38
292.295	18.61
292.509	19.39
292.722	19.67
292.936	18.2
293.15	17.35
293.364	17.6
293.577	18.49
293.791	18.36
294.005	19.69
294.218	19.46
294.432	19.66
294.645	17.85
294.859	16.84
295.073	16.93
295.286	17.78
295.5	18.5
295.713	18.24
295.927	17.41
296.14	16.93
296.354	16.41
296.568	16.15
296.781	15.57
296.994	16.73
297.208	16.7
297.421	16.33
297.635	16.47
297.848	16.03
298.062	15.21
298.275	15.4
298.489	15.68
298.702	16.74
298.915	16.41
299.129	16.71
299.342	16.72
299.555	17.29
299.769	17.27
299.982	16.38
300.195	17.11
300.409	18.52
300.622	18.63
300.835	18.76
301.048	17.24
301.262	18.64
301.475	19.61
301.688	18.09
301.901	17.77
302.115	18.08
302.328	18.86
302.541	19.13
302.754	19.97
302.967	20.41
303.18	21.16
303.393	20.69
303.607	20.55
303.82	20.46
304.033	22.05
304.246	22.73
304.459	23.06
304.672	23.74
304.885	23.98
305.098	23.34
305.311	22.19
305.524	21.08
305.737	22.44
305.95	23.64
306.163	22.57
306.376	22.1
306.589	21.35
306.802	22.47
307.015	23.26
307.228	21.75
307.44	21.78
307.653	21.97
307.866	22.95
308.079	22.62
308.292	20.46
308.505	22.49
308.718	23.74
308.93	24.3
309.143	23.88
309.356	23.7
309.569	23.98
309.781	23.99
309.994	25.42
310.207	25.07
310.42	24.27
310.632	25.14
310.845	23.92
311.058	23.14
311.27	22.25
311.483	21.89
311.696	21.11
311.908	21.15
312.121	21.41
312.333	22.21
312.546	22.13
312.759	22.3
312.971	21.71
313.184	22.76
313.396	22.78
313.609	23.33
313.821	23.83
314.034	24.53
314.246	25.24
314.459	25.8
314.671	23.73
314.884	24.18
315.096	25.11
315.309	26.2
315.521	26.16
315.733	25.1
315.946	24.59
316.158	25.06
316.371	25.17
316.583	23.89
316.795	22.44
317.008	22.7
317.22	21.55
317.432	21.26
317.644	20.86
317.857	20.64
318.069	21.71
318.281	22.9
318.494	22.73
318.706	23.84
318.918	25.23
319.13	24.48
319.342	24.88
319.555	25.49
319.767	26.13
319.979	24.67
320.191	23.99
320.403	24.37
320.615	24.02
320.827	23.66
321.039	22.46
321.252	23.42
321.464	25.07
321.676	24.55
321.888	24.43
322.1	23.37
322.312	24.45
322.524	24.91
322.736	24.05
322.948	24.43
323.16	24.63
323.372	24.95
323.584	23.94
323.796	23.05
324.007	23.42
324.219	23.44
324.431	25.14
324.643	25.19
324.855	25.18
325.067	24.97
325.279	24.27
325.491	25
325.702	25.19
325.914	25.14
326.126	25.82
326.338	24.24
326.55	24.36
326.761	22.89
326.973	23.28
327.185	23.05
327.396	24.11
327.608	24.37
327.82	23.4
328.032	23.4
328.243	24
328.455	24.06
328.666	25.11
328.878	26.11
329.09	27.78
329.301	27.69
329.513	28.48
329.725	28.38
329.936	28.61
330.148	28.94
330.359	29.31
330.571	29.89
330.782	29.61
330.994	29.85
331.205	29.38
331.417	28.43
331.628	28.12
331.84	28.71
332.051	29.8
332.262	29.78
332.474	28.75
332.685	29.16
332.897	29.12
333.108	30.32
333.319	30.67
333.531	31.47
333.742	30.81
333.953	30.52
334.165	28.96
334.376	28.8
334.587	29.04
334.799	29.63
335.01	28.18
335.221	27.7
335.432	26.17
335.644	27.02
335.855	25.91
336.066	26.71
336.277	27.67
336.488	27.96
336.7	26.1
336.911	26.59
337.122	27.13
337.333	27.4
337.544	27.12
337.755	28.87
337.966	27.22
338.177	27.22
338.388	26.79
338.599	26.84
338.811	26.15
339.022	27.43
339.233	26.83
339.444	25.59
339.655	24.84
339.866	24.15
340.076	22.45
340.287	22.74
340.498	23.22
340.709	23.31
340.92	23.06
341.131	23.7
341.342	23.27
341.553	23.08
341.764	23.98
341.975	25.3
342.185	24.68
342.396	25.33
342.607	25.44
342.818	24.88
343.029	24.44
343.239	24.79
343.45	23.89
343.661	24.11
343.872	24.08
344.082	23.43
344.293	23.03
344.504	24.29
344.714	24.32
344.925	25.01
345.136	24.83
345.346	23.62
345.557	23.39
345.768	24.25
345.978	24.3
346.189	23.65
346.399	23.82
346.61	23.42
346.821	23.77
347.031	24.07
347.242	22.86
347.452	22.76
347.663	23.99
347.873	24.09
348.084	23.94
348.294	22.82
348.504	23.38
348.715	24.36
348.925	24.8
349.136	22.44
349.346	22.15
349.557	22.46
349.767	22.77
349.977	23.5
350.188	22.65
350.398	23.1
350.608	23.1
350.819	23.56
351.029	21.67
351.239	22.27
351.449	23.82
351.66	23.76
351.87	24.17
352.08	24.32
352.29	22.98
352.501	22.35
352.711	21.56
352.921	22.15
353.131	20.83
353.341	22.43
353.552	21.32
353.762	20.94
353.972	19.9
354.182	20.96
354.392	20.89
354.602	21.32
354.812	22.47
355.022	22.28
355.232	22.89
355.442	23.64
355.652	23.05
355.862	23.34
356.072	24.1
356.282	23.76
356.492	22.47
356.702	22.28
356.912	22.87
357.122	22.96
357.332	23.03
357.542	22.18
357.752	22.1
357.962	21.96
358.171	21.36
358.381	20.62
358.591	21.6
358.801	21.91
359.011	21.55
359.221	21.27
359.43	20.82
359.64	20.57
359.85	20.51
360.06	20.56
360.269	21.04
360.479	21.57
360.689	22.03
360.899	21.94
361.108	21.93
361.318	21.62
361.528	21.06
361.737	20.67
361.947	20.74
362.156	20.55
362.366	20.19
362.576	19.99
362.785	19.78
362.995	19.05
363.204	18.95
363.414	19.08
363.623	19.09
363.833	19.93
364.042	20.44
364.252	20.96
364.461	21.07
364.671	20.95
364.88	20.7
365.09	21.13
365.299	21.92
365.509	22.46
365.718	22.11
365.927	22.8
366.137	22.18
366.346	21.82
366.555	20.78
366.765	21.02
366.974	21.39
367.183	20.65
367.393	19.31
367.602	19
367.811	18.3
368.021	18.55
368.23	18.34
368.439	18.25
368.648	17.86
368.857	18.59
369.067	18.58
369.276	18.78
369.485	19.84
369.694	20.79
369.903	20.9
370.112	20.87
370.321	19.95
370.531	19.29
370.74	19.51
370.949	19.63
371.158	19.23
371.367	19.36
371.576	18.92
371.785	18.35
371.994	18.76
372.203	18.76
372.412	18.66
372.621	19.39
372.83	20.5
373.039	20.75
373.248	20.18
373.457	20.37
373.666	19.71
373.874	19.7
374.083	19.85
374.292	19.02
374.501	18.48
374.71	18.19
374.919	17.84
375.128	17.04
375.336	17.17
375.545	18.29
375.754	18.17
375.963	17.96
376.171	17.51
376.38	17.67
376.589	17.64
376.798	17.19
377.006	17.71
377.215	17.57
377.424	17.03
377.632	15.98
377.841	15.44
378.05	15.19
378.258	15.94
378.467	15.75
378.675	15.27
378.884	15.68
379.093	15.93
379.301	15.42
379.51	15.65
379.718	16.22
379.927	16.69
380.135	17.08
380.344	16.7
380.552	17.04
380.761	17.23
380.969	17.26
381.177	16.64
381.386	17.28
381.594	17.45
381.803	17.11
382.011	17.18
382.219	16.66
382.428	16.55
382.636	17.21
382.845	16.07
383.053	16.85
383.261	16.85
383.469	16.84
383.678	16.67
383.886	16.6
384.094	16.45
384.302	16.3
384.511	16.75
384.719	16.39
384.927	16.04
385.135	16.39
385.343	15.61
385.552	15.86
385.76	15.57
385.968	15.26
386.176	14.82
386.384	14.86
386.592	14.39
386.8	14.1
387.008	14.41
387.216	14.35
387.424	14.06
387.633	14.12
387.841	14.12
388.049	14.81
388.257	14.87
388.465	14.8
388.672	14.61
388.88	14.91
389.088	14.74
389.296	14.2
389.504	13.97
389.712	14.11
389.92	14.42
390.128	14.23
390.336	13.89
390.544	13.59
390.751	13.67
390.959	14.06
391.167	13.87
391.375	14.19
391.583	14.11
391.79	14.34
391.998	14.46
392.206	14.11
392.414	13.61
392.621	13.15
392.829	13.41
393.037	13.52
393.244	13.26
393.452	13.37
393.66	13.25
393.867	13.45
394.075	13.06
394.283	12.92
394.49	12.68
394.698	12.73
394.905	13.15
395.113	13.11
395.32	12.8
395.528	12.78
395.735	12.61
395.943	12.52
396.15	12.33
396.358	12.45
396.565	12.49
396.773	12.7
396.98	13.13
397.188	12.95
397.395	12.97
397.602	13.18
397.81	13.01
398.017	13.21
398.225	13.6
398.432	13.56
398.639	13.73
398.847	13.55
399.054	13.78
399.261	13.81
399.468	13.83
399.676	13.96
399.883	13.94
400.09	14.09
400.297	13.84
400.505	13.43
400.712	13.89
400.919	14
401.126	14
401.333	13.98
401.54	13.78
401.748	13.86
401.955	13.23
402.162	13.03
402.369	13.1
402.576	13.34
402.783	13.15
402.99	12.81
403.197	12.22
403.404	12.15
403.611	11.93
403.818	11.93
404.025	11.68
404.232	12.01
404.439	11.92
404.646	11.54
404.853	11.28
405.06	11.29
405.267	11.19
405.474	11.81
405.681	12.28
405.887	12.31
406.094	12.43
406.301	12.51
406.508	12.6
406.715	13.32
406.922	13.45
407.128	13.86
407.335	13.82
407.542	13.79
407.749	13.38
407.955	12.81
408.162	12.83
408.369	12.9
408.575	13.09
408.782	12.92
408.989	12.05
409.195	11.75
409.402	11.5
409.609	11.13
409.815	11.42
410.022	11.56
410.228	11.66
410.435	11.6
410.642	11.49
410.848	11.06
411.055	11.09
411.261	11.23
411.468	11.71
411.674	11.48
411.881	12.04
412.087	11.88
412.294	11.97
412.5	12.14
412.706	12.05
412.913	11.77
413.119	11.75
413.326	11.53
413.532	11.55
413.738	11.49
413.945	11.35
414.151	11.3
414.357	11.32
414.564	11.34
414.77	11.39
414.976	11.37
415.182	11.64
415.389	11.84
415.595	11.61
415.801	11.78
416.007	11.94
416.214	11.75
416.42	11.53
416.626	11.21
416.832	11.1
417.038	10.86
417.244	11.12
417.45	10.93
417.657	10.77
417.863	10.92
418.069	10.98
418.275	10.67
418.481	10.83
418.687	10.98
418.893	11.04
419.099	11.05
419.305	10.93
419.511	10.74
419.717	10.68
419.923	10.74
420.129	10.77
420.335	10.77
420.541	10.9
420.746	10.85
420.952	10.84
421.158	10.88
421.364	10.74
421.57	10.82
421.776	10.83
421.982	10.96
422.187	10.94
422.393	10.87
422.599	10.78
422.805	10.69
423.01	10.81
423.216	10.74
423.422	10.87
423.628	10.99
423.833	10.92
424.039	10.98
424.245	10.92
424.45	10.9
424.656	10.92
424.862	10.88
425.067	10.76
425.273	10.67
425.478	10.73
425.684	10.52
425.889	10.55
426.095	10.62
426.301	10.52
426.506	10.43
426.712	10.48
426.917	10.71
427.123	10.71
427.328	10.93
427.533	11
427.739	10.97
427.944	11.1
428.15	10.93
428.355	10.91
428.561	11.06
428.766	11.15
428.971	11.06
429.177	10.87
429.382	10.94
429.587	10.86
429.793	10.76
429.998	10.85
430.203	10.72
430.408	10.82
430.614	10.76
430.819	10.49
431.024	10.44
431.229	10.58
431.434	10.54
431.64	10.53
431.845	10.64
432.05	10.79
432.255	10.58
432.46	10.73
432.665	10.54
432.87	10.58
433.076	10.68
433.281	10.89
433.486	10.68
433.691	10.77
433.896	10.68
434.101	10.59
434.306	10.55
434.511	10.61
434.716	10.6
434.921	10.93
435.126	10.94
435.331	10.99
435.535	10.76
435.74	10.81
435.945	10.59
436.15	10.7
436.355	10.82
436.56	10.78
436.765	10.81
436.97	10.76
437.174	10.63
437.379	10.81
437.584	10.94
437.789	10.85
437.993	10.84
438.198	10.97
438.403	10.93
438.608	10.84
438.812	10.72
439.017	10.65
439.222	10.64
439.426	10.55
439.631	10.25
439.836	10.19
440.04	10.2
440.245	10.26
440.45	10.24
440.654	10.2
440.859	10.01
441.063	9.97
441.268	10.02
441.472	9.92
441.677	9.94
441.881	9.88
442.086	9.91
442.29	9.9
442.495	9.87
442.699	9.86
442.904	9.68
443.108	9.96
443.312	10.17
443.517	10.2
443.721	10.23
443.925	10.32
444.13	10.36
444.334	10.03
444.538	10.16
444.743	10.12
444.947	10.04
445.151	10.18
445.356	10
445.56	10.05
445.764	9.96
445.968	10.04
446.173	9.9
446.377	10.07
446.581	10.24
446.785	10.27
446.989	10.39
447.193	10.45
447.398	10.5
447.602	10.54
447.806	10.43
448.01	10.46
448.214	10.42
448.418	10.46
448.622	10.37
448.826	10.41
449.03	10.27
449.234	10.25
449.438	10.24
449.642	10.15
449.846	10.3
450.05	10.23
450.254	10.28
450.458	10.29
450.662	10.39
450.866	10.36
451.069	10.35
451.273	10.35
451.477	10.37
451.681	10.39
451.885	10.35
452.089	10.3
452.292	10.14
452.496	10.06
452.7	10.04
452.904	10.06
453.107	10.11
