Data from CB_041_Reflection_21-55-36-342.txt Node
Date: Wed Nov 11 21:55:36 EST 2015
User: robert
Spectrometer: USB4E03001
Autoset integration time: false
Trigger mode: 4
Integration Time (sec): 1.000000E-1
Scans to average: 15
Electric dark correction enabled: true
Nonlinearity correction enabled: false
Boxcar width: 5
Stray light correction enabled: false
XAxis mode: Wavelengths
Stop averaging: false
Number of Pixels in Spectrum: 3648
>>>>>Begin Spectral Data<<<<<
177.566	-220.16
177.785	-1055.26
178.005	73.35
178.225	305.8
178.445	36.84
178.665	63.39
178.885	710.35
179.105	-134.2
179.324	-111.87
179.544	-17.68
179.764	-33.32
179.984	-13.77
180.204	-8.12
180.423	19.93
180.643	20.5
180.863	37.51
181.083	35.83
181.302	28.12
181.522	16.02
181.742	22.68
181.961	26.12
182.181	42.55
182.401	32.09
182.621	42.78
182.84	35.79
183.06	25.45
183.279	21.79
183.499	40.54
183.719	40.27
183.938	44.55
184.158	54.3
184.377	34.96
184.597	30.27
184.816	48.21
185.036	46.65
185.256	53.79
185.475	68.56
185.695	41.35
185.914	-20.91
186.134	14.2
186.353	-6.26
186.572	-34.37
186.792	-21.04
187.011	-31.29
187.231	-48
187.45	-116.62
187.67	-147.02
187.889	-91.53
188.108	-20.46
188.328	-14.44
188.547	-19.96
188.766	-9.62
188.986	-7.16
189.205	-16.28
189.424	-9.58
189.644	-8.78
189.863	27.79
190.082	52.47
190.302	58.35
190.521	69.68
190.74	95.08
190.959	77.45
191.178	69.99
191.398	60.64
191.617	71.99
191.836	62.74
192.055	52.04
192.274	24.16
192.494	10.49
192.713	6.33
192.932	0.15
193.151	-19.73
193.37	-15.41
193.589	-18.96
193.808	-22.33
194.027	-20.87
194.246	11.19
194.465	21.15
194.685	29.15
194.904	20.99
195.123	16.27
195.342	4.42
195.561	22.49
195.78	13.27
195.999	22.4
196.218	2.13
196.436	13.67
196.655	8.88
196.874	-7.45
197.093	31.8
197.312	42.2
197.531	38.73
197.75	36.45
197.969	34.37
198.188	28.83
198.407	3.77
198.625	15.68
198.844	-5.6
199.063	-11.8
199.282	-3.76
199.501	-26.89
199.719	-58.61
199.938	-28.76
200.157	-76.23
200.376	-28.71
200.594	-22.86
200.813	21.82
201.032	0.9
201.251	7.36
201.469	18.87
201.688	8.02
201.907	0.79
202.125	4.58
202.344	-11.38
202.563	10.02
202.781	-0.93
203	2.67
203.218	-35.63
203.437	-5.36
203.656	7.93
203.874	10.42
204.093	4.22
204.311	9.91
204.53	-11.47
204.748	-14.07
204.967	-9.99
205.185	-7.42
205.404	-10.99
205.622	8.91
205.841	12.69
206.059	-11.73
206.278	9.25
206.496	25.75
206.715	34.52
206.933	40.98
207.151	52.66
207.37	43.45
207.588	33.87
207.806	35.42
208.025	41.95
208.243	26.49
208.461	35.24
208.68	26.52
208.898	14.47
209.116	3.98
209.335	7.84
209.553	-12.07
209.771	-5.31
209.989	16.7
210.208	2.15
210.426	-5.91
210.644	-14.17
210.862	-22.21
211.081	-9.01
211.299	3.26
211.517	21.71
211.735	9.4
211.953	33.75
212.171	29.26
212.39	24.1
212.608	44.09
212.826	36.78
213.044	63.52
213.262	63
213.48	56.53
213.698	61.09
213.916	77.11
214.134	65.23
214.352	46.13
214.57	39.86
214.788	34.31
215.006	10.09
215.224	4.45
215.442	-70.19
215.66	-86.85
215.878	-19.73
216.096	-8.7
216.314	-12.41
216.532	23.69
216.75	31.29
216.968	52.14
217.185	49.29
217.403	58.79
217.621	53.49
217.839	56.38
218.057	57.86
218.275	70.01
218.492	70.91
218.71	60.79
218.928	54.81
219.146	52.67
219.363	41.71
219.581	46.81
219.799	11.75
220.017	27.19
220.234	22.01
220.452	18.63
220.67	14.49
220.887	1.5
221.105	-11.99
221.323	-40.23
221.54	-46.09
221.758	-1.76
221.976	1.33
222.193	22.39
222.411	21.23
222.629	22.67
222.846	10.45
223.064	4.41
223.281	21.64
223.499	31.9
223.716	28.39
223.934	35.06
224.151	18.27
224.369	10.31
224.586	-3.41
224.804	-6.61
225.021	-17.18
225.239	-4.36
225.456	0.5
225.674	-15.6
225.891	-12.77
226.108	12.06
226.326	2.28
226.543	1.19
226.76	6.8
226.978	0.98
227.195	-2.44
227.413	2.58
227.63	5.58
227.847	3.17
228.064	6.49
228.282	4.9
228.499	-2.06
228.716	0.11
228.934	2.33
229.151	0.18
229.368	2.73
229.585	6.93
229.802	5.87
230.02	4.68
230.237	6.06
230.454	7.83
230.671	6.7
230.888	8.04
231.105	7.26
231.323	10.15
231.54	15.11
231.757	14.57
231.974	8.56
232.191	7.94
232.408	11.87
232.625	5.51
232.842	1.53
233.059	5.03
233.276	3.41
233.493	3.61
233.71	1.51
233.927	-2.08
234.144	-3.63
234.361	1.11
234.578	6.1
234.795	3.91
235.012	6.92
235.229	6.67
235.446	8.45
235.663	5.65
235.879	4.21
236.096	1.84
236.313	2.22
236.53	5.73
236.747	8.88
236.964	11.48
237.181	9.54
237.397	12.93
237.614	12.65
237.831	8.21
238.048	14.86
238.264	16.99
238.481	13.51
238.698	16.43
238.915	15.3
239.131	9.25
239.348	6.41
239.565	7.53
239.781	8.27
239.998	11.2
240.215	13.07
240.431	12.95
240.648	15.39
240.865	16.05
241.081	16.22
241.298	16
241.514	15.16
241.731	17.27
241.947	15.62
242.164	15.93
242.38	15.09
242.597	15.59
242.814	14.06
243.03	13.37
243.246	14.48
243.463	14.09
243.679	14.82
243.896	17.88
244.112	16.21
244.329	19.65
244.545	18.66
244.762	16.93
244.978	15.68
245.194	14.17
245.411	11.98
245.627	11.82
245.843	12.03
246.06	10.17
246.276	7.66
246.492	7.38
246.709	5.59
246.925	7.06
247.141	8.69
247.357	8.71
247.574	9.86
247.79	10.49
248.006	10.91
248.222	11.15
248.439	11.91
248.655	13.31
248.871	13.11
249.087	13.11
249.303	12.39
249.519	11.69
249.736	10.96
249.952	10.47
250.168	10.27
250.384	7.73
250.6	5.41
250.816	5.06
251.032	3.72
251.248	6.86
251.464	6.14
251.68	7.36
251.896	9.09
252.112	9.7
252.328	9.34
252.544	10.18
252.76	11
252.976	12.15
253.192	11.27
253.408	11.38
253.624	12.14
253.84	13.17
254.056	12.19
254.272	12.36
254.487	12.95
254.703	13.04
254.919	13.63
255.135	14.33
255.351	12.16
255.567	14.44
255.782	15.16
255.998	13.04
256.214	12.27
256.43	14.25
256.646	12.69
256.861	9.24
257.077	9.92
257.293	9.4
257.508	8.45
257.724	8.84
257.94	7.71
258.155	7.66
258.371	7.43
258.587	9.58
258.802	9.04
259.018	9.02
259.234	8.79
259.449	9.14
259.665	8.52
259.88	9.3
260.096	9.61
260.312	9.55
260.527	9.66
260.743	9.56
260.958	8.61
261.174	8.68
261.389	8.29
261.605	10.01
261.82	10.1
262.036	11.42
262.251	11.09
262.466	11.59
262.682	12.21
262.897	12.61
263.113	11.58
263.328	11.77
263.543	11.64
263.759	12.31
263.974	11.62
264.189	11.59
264.405	10.4
264.62	8.55
264.835	7.46
265.051	8.19
265.266	7.46
265.481	9.07
265.696	8.7
265.912	8.68
266.127	8.87
266.342	9.26
266.557	8.19
266.773	6.78
266.988	7.76
267.203	7.18
267.418	7.32
267.633	7.23
267.848	7.04
268.064	7.45
268.279	7.2
268.494	6.6
268.709	7.38
268.924	9.17
269.139	10.73
269.354	11.24
269.569	11.65
269.784	11.84
269.999	10.28
270.214	9.94
270.429	9.86
270.644	10.32
270.859	10.93
271.074	9.62
271.289	9.52
271.504	8.81
271.719	8.58
271.934	8.08
272.149	6.92
272.363	8.32
272.578	9.43
272.793	9.52
273.008	9.02
273.223	8.91
273.438	8.66
273.653	8.24
273.867	9.49
274.082	8.8
274.297	9.81
274.512	10.51
274.726	8.85
274.941	8.83
275.156	9.22
275.371	8.58
275.585	7.6
275.8	7.82
276.015	8.11
276.229	7.42
276.444	8.35
276.659	8.26
276.873	8.64
277.088	11.49
277.302	11.14
277.517	10.22
277.732	11.78
277.946	12.63
278.161	13.44
278.375	12.32
278.59	12.02
278.804	11.88
279.019	10.66
279.233	8.55
279.448	6.35
279.662	5.87
279.877	7.06
280.091	6.22
280.306	7.01
280.52	5.78
280.735	6.72
280.949	5.98
281.163	6.4
281.378	6.66
281.592	7.69
281.806	8.11
282.021	6.09
282.235	5.11
282.449	5.14
282.664	3.69
282.878	4.61
283.092	4.35
283.307	5.71
283.521	5.04
283.735	5.17
283.949	5.34
284.164	5.94
284.378	7.14
284.592	8.17
284.806	7.74
285.02	8.3
285.234	7.91
285.449	7.33
285.663	6.91
285.877	7.51
286.091	7.78
286.305	7.3
286.519	7.08
286.733	6.74
286.947	6.28
287.161	6.74
287.375	7.3
287.589	8.3
287.803	8.74
288.017	8.28
288.231	8.59
288.445	8.93
288.659	9.84
288.873	10.57
289.087	11.15
289.301	10.99
289.515	11.7
289.729	11.34
289.943	10.61
290.157	10.8
290.371	10.51
290.584	11.19
290.798	11.38
291.012	11.67
291.226	11.43
291.44	12.17
291.654	12.5
291.867	12.04
292.081	12.34
292.295	12.66
292.509	12.66
292.722	13.61
292.936	12.09
293.15	11.83
293.364	10.99
293.577	11.14
293.791	11.3
294.005	9.25
294.218	8.9
294.432	9.32
294.645	8.98
294.859	8.63
295.073	8.47
295.286	8.33
295.5	8.09
295.713	8.48
295.927	6.96
296.14	6.81
296.354	8.12
296.568	7.82
296.781	7.31
296.994	8.11
297.208	9.52
297.421	9.28
297.635	9.98
297.848	10.48
298.062	10.38
298.275	11.64
298.489	11.64
298.702	12.14
298.915	12.89
299.129	13.97
299.342	13.34
299.555	12.96
299.769	13.46
299.982	12.68
300.195	12.38
300.409	12.28
300.622	11.83
300.835	12.36
301.048	10.81
301.262	11.19
301.475	10.27
301.688	10.35
301.901	9.23
302.115	8.26
302.328	8.11
302.541	8.33
302.754	8.01
302.967	8.02
303.18	8.95
303.393	10.14
303.607	9.67
303.82	10.08
304.033	9.51
304.246	9.84
304.459	11.4
304.672	11.75
304.885	12.52
305.098	12.85
305.311	12.66
305.524	10.88
305.737	11.91
305.95	12.09
306.163	12.27
306.376	13.69
306.589	13.57
306.802	13.11
307.015	14.4
307.228	12.93
307.44	13.51
307.653	14.23
307.866	14.96
308.079	14.3
308.292	13.64
308.505	13.05
308.718	13.53
308.93	13.97
309.143	13.43
309.356	13.06
309.569	13.91
309.781	13.52
309.994	12.72
310.207	12.4
310.42	11.54
310.632	12.58
310.845	12.75
311.058	11.87
311.27	11.82
311.483	11.66
311.696	11.59
311.908	11.86
312.121	11.61
312.333	11.42
312.546	11.85
312.759	12.69
312.971	11.8
313.184	11.82
313.396	11.83
313.609	11.35
313.821	11.8
314.034	11.52
314.246	10.6
314.459	11.67
314.671	12.88
314.884	13.55
315.096	13.06
315.309	12.3
315.521	11.58
315.733	12.01
315.946	11.2
316.158	10.99
316.371	11.49
316.583	11.23
316.795	11.14
317.008	11.4
317.22	10.89
317.432	12.18
317.644	12.62
317.857	14.21
318.069	13.76
318.281	14.32
318.494	14.77
318.706	15.88
318.918	16.06
319.13	16.3
319.342	15.81
319.555	13.93
319.767	13.02
319.979	13.82
320.191	12.84
320.403	14.3
320.615	14.08
320.827	13.2
321.039	11.74
321.252	11.54
321.464	11.35
321.676	10.93
321.888	12.86
322.1	13.43
322.312	12.94
322.524	13.47
322.736	12.23
322.948	12.96
323.16	13.1
323.372	12.43
323.584	12.96
323.796	12.65
324.007	13.04
324.219	13.38
324.431	13.02
324.643	13.71
324.855	14.26
325.067	14.1
325.279	15.24
325.491	16.75
325.702	17.34
325.914	18.15
326.126	18.93
326.338	17.72
326.55	17.63
326.761	18.34
326.973	18.28
327.185	17.29
327.396	17.72
327.608	17.73
327.82	17.81
328.032	17.8
328.243	17.09
328.455	16.22
328.666	17.74
328.878	17.4
329.09	17.09
329.301	16.87
329.513	17.08
329.725	16.83
329.936	17.34
330.148	15.51
330.359	16.21
330.571	16.53
330.782	16.61
330.994	17.12
331.205	17.54
331.417	16.71
331.628	17.36
331.84	18.09
332.051	19.01
332.262	18.17
332.474	20.4
332.685	20.56
332.897	20.16
333.108	21.82
333.319	22.22
333.531	22.4
333.742	23.86
333.953	23.82
334.165	23.64
334.376	23.71
334.587	23.36
334.799	22.25
335.01	21.84
335.221	22.8
335.432	22.51
335.644	21.23
335.855	21.58
336.066	21.83
336.277	22.51
336.488	22.76
336.7	22.41
336.911	22.24
337.122	22.49
337.333	22.64
337.544	22.81
337.755	22.63
337.966	24.08
338.177	23.53
338.388	22.86
338.599	22.53
338.811	21.79
339.022	20.88
339.233	21.46
339.444	21.63
339.655	22.15
339.866	21.77
340.076	21.32
340.287	21.04
340.498	21.38
340.709	21.46
340.92	21.69
341.131	21.74
341.342	23.13
341.553	23.05
341.764	22.7
341.975	22.62
342.185	22.93
342.396	22.87
342.607	22.46
342.818	20.99
343.029	20.43
343.239	20.37
343.45	20.78
343.661	19.54
343.872	19.31
344.082	18.47
344.293	18.06
344.504	17.74
344.714	18.01
344.925	17.53
345.136	18.71
345.346	19.5
345.557	19.44
345.768	19.32
345.978	19.84
346.189	20.15
346.399	20.76
346.61	20.92
346.821	20.52
347.031	20.52
347.242	20.64
347.452	20.74
347.663	20.75
347.873	20.28
348.084	20.59
348.294	21.22
348.504	21.1
348.715	21.31
348.925	21.5
349.136	21.44
349.346	20.68
349.557	21.02
349.767	21.36
349.977	21.46
350.188	21.46
350.398	21.19
350.608	21.47
350.819	21.81
351.029	21.63
351.239	20.9
351.449	21.93
351.66	21.59
351.87	21.89
352.08	21.62
352.29	20.78
352.501	21.68
352.711	21.69
352.921	21.01
353.131	20.63
353.341	20.64
353.552	21.12
353.762	19.64
353.972	21.37
354.182	20.31
354.392	20.22
354.602	20.49
354.812	19.62
355.022	19.39
355.232	19.64
355.442	19.43
355.652	20.11
355.862	20.44
356.072	21.21
356.282	20.88
356.492	21.78
356.702	22.2
356.912	22.07
357.122	22.57
357.332	23.24
357.542	23.15
357.752	23.18
357.962	22.28
358.171	21.8
358.381	21.82
358.591	20.98
358.801	20.59
359.011	19.68
359.221	19.98
359.43	19.66
359.64	19
359.85	18.86
360.06	18.76
360.269	19.28
360.479	19.76
360.689	19.57
360.899	20
361.108	20.23
361.318	20.09
361.528	19.88
361.737	19.55
361.947	19.75
362.156	19.4
362.366	19.69
362.576	19.67
362.785	19.31
362.995	19.37
363.204	19.02
363.414	18.68
363.623	19.07
363.833	18.71
364.042	18.67
364.252	19.11
364.461	19.79
364.671	19.56
364.88	19.38
365.09	18.89
365.299	18.49
365.509	18.93
365.718	19.14
365.927	18.98
366.137	18.85
366.346	18.97
366.555	18.47
366.765	18.05
366.974	18.15
367.183	18.14
367.393	18.57
367.602	18.66
367.811	18.43
368.021	17.89
368.23	17.62
368.439	17.98
368.648	18.37
368.857	17.7
369.067	17.38
369.276	17.14
369.485	16.71
369.694	16.97
369.903	17.08
370.112	16.91
370.321	17.28
370.531	17.63
370.74	17.83
370.949	17.63
371.158	17.76
371.367	18.21
371.576	18.35
371.785	18.52
371.994	17.89
372.203	17.14
372.412	17.26
372.621	17.01
372.83	16.69
373.039	16.07
373.248	15.7
373.457	15.89
373.666	15.85
373.874	15.52
374.083	15.31
374.292	15.19
374.501	15.61
374.71	15.47
374.919	15.51
375.128	15.88
375.336	16.24
375.545	15.75
375.754	15.8
375.963	15.06
376.171	14.91
376.38	14.68
376.589	14.64
376.798	14.52
377.006	14.29
377.215	14.33
377.424	13.99
377.632	13.59
377.841	13.94
378.05	13.4
378.258	13.36
378.467	13.18
378.675	13.4
378.884	13.43
379.093	13.54
379.301	13.3
379.51	13.09
379.718	13.03
379.927	13.1
380.135	12.84
380.344	13.31
380.552	13.48
380.761	13.49
380.969	13.48
381.177	13.7
381.386	13.04
381.594	12.84
381.803	12.5
382.011	12.26
382.219	11.93
382.428	12.26
382.636	12.06
382.845	12.1
383.053	12.41
383.261	11.99
383.469	11.65
383.678	11.82
383.886	12.06
384.094	12.03
384.302	12.52
384.511	12.79
384.719	12.47
384.927	12.51
385.135	12.77
385.343	12.55
385.552	12.7
385.76	12.56
385.968	12.67
386.176	12.59
386.384	12.89
386.592	12.58
386.8	12.57
387.008	12.74
387.216	12.69
387.424	12.34
387.633	11.95
387.841	11.73
388.049	11.47
388.257	11.41
388.465	11.4
388.672	11.29
388.88	11.22
389.088	11.26
389.296	10.63
389.504	10.3
389.712	10.06
389.92	10.24
390.128	10.19
390.336	10.23
390.544	10.32
390.751	10.06
390.959	9.81
391.167	9.64
391.375	9.45
391.583	9.92
391.79	9.77
391.998	9.72
392.206	9.76
392.414	9.96
392.621	9.83
392.829	9.82
393.037	9.74
393.244	9.84
393.452	9.62
393.66	9.58
393.867	9.44
394.075	9.61
394.283	9.77
394.49	9.85
394.698	9.97
394.905	10.21
395.113	9.94
395.32	10.14
395.528	9.96
395.735	9.9
395.943	9.92
396.15	9.8
396.358	9.65
396.565	9.82
396.773	9.27
396.98	8.96
397.188	8.6
397.395	8.72
397.602	8.69
397.81	8.96
398.017	9.15
398.225	8.82
398.432	8.86
398.639	8.86
398.847	8.28
399.054	8.6
399.261	8.28
399.468	8.84
399.676	8.96
399.883	8.73
400.09	8.12
400.297	7.94
400.505	7.77
400.712	7.74
400.919	7.72
401.126	8
401.333	7.98
401.54	7.95
401.748	7.84
401.955	7.75
402.162	8.01
402.369	8.2
402.576	8.25
402.783	8.54
402.99	8.33
403.197	8.05
403.404	7.85
403.611	8.24
403.818	8.28
404.025	8.11
404.232	8.01
404.439	7.86
404.646	7.69
404.853	7.76
405.06	7.86
405.267	7.92
405.474	8.06
405.681	8.1
405.887	7.81
406.094	7.92
406.301	7.88
406.508	7.68
406.715	7.62
406.922	7.91
407.128	8.1
407.335	7.8
407.542	7.67
407.749	7.73
407.955	7.84
408.162	7.78
408.369	7.37
408.575	7.51
408.782	7.65
408.989	8.02
409.195	8.02
409.402	7.47
409.609	7.75
409.815	7.72
410.022	7.77
410.228	7.75
410.435	7.72
410.642	7.91
410.848	7.48
411.055	7.43
411.261	7.08
411.468	6.92
411.674	7.26
411.881	6.9
412.087	6.96
412.294	6.83
412.5	6.85
412.706	6.72
412.913	6.74
413.119	6.8
413.326	6.78
413.532	6.82
413.738	6.73
413.945	6.55
414.151	6.71
414.357	6.64
414.564	6.65
414.77	6.43
414.976	6.42
415.182	6.45
415.389	6.64
415.595	6.44
415.801	6.54
416.007	6.49
416.214	6.34
416.42	6.41
416.626	6.46
416.832	6.36
417.038	6.45
417.244	6.45
417.45	6.39
417.657	6.4
417.863	6.59
418.069	6.33
418.275	6.58
418.481	6.58
418.687	6.65
418.893	6.53
419.099	6.86
419.305	6.65
419.511	6.53
419.717	6.65
419.923	6.64
420.129	6.67
420.335	6.85
420.541	6.81
420.746	6.79
420.952	6.59
421.158	6.57
421.364	6.4
421.57	6.37
421.776	6.41
421.982	6.37
422.187	6.25
422.393	6.21
422.599	6.03
422.805	5.82
423.01	5.91
423.216	5.88
423.422	5.97
423.628	5.87
423.833	5.9
424.039	5.93
424.245	5.99
424.45	6.21
424.656	6.13
424.862	6.21
425.067	6.38
425.273	6.41
425.478	6.5
425.684	6.49
425.889	6.38
426.095	6.44
426.301	6.45
426.506	6.43
426.712	6.2
426.917	6.14
427.123	5.93
427.328	5.64
427.533	5.59
427.739	5.38
427.944	5.4
428.15	5.43
428.355	5.58
428.561	5.49
428.766	5.37
428.971	5.49
429.177	5.62
429.382	5.8
429.587	6.06
429.793	6.08
429.998	6.26
430.203	5.98
430.408	6.01
430.614	6.11
430.819	6.03
431.024	6.24
431.229	6.11
431.434	5.8
431.64	5.82
431.845	5.83
432.05	5.87
432.255	5.82
432.46	6.11
432.665	6.09
432.87	6.03
433.076	6.36
433.281	6.19
433.486	6.07
433.691	6.28
433.896	6.32
434.101	6.34
434.306	6.24
434.511	6.25
434.716	6.07
434.921	6.2
435.126	6.07
435.331	5.68
435.535	5.54
435.74	5.46
435.945	5.43
436.15	5.54
436.355	5.37
436.56	5.38
436.765	5.17
436.97	5.24
437.174	5.25
437.379	5.21
437.584	5.52
437.789	5.55
437.993	5.89
438.198	5.89
438.403	5.69
438.608	5.8
438.812	5.9
439.017	6.29
439.222	6.36
439.426	6.18
439.631	6.06
439.836	5.98
440.04	5.95
440.245	5.86
440.45	5.87
440.654	6.07
440.859	6.08
441.063	6
441.268	5.81
441.472	5.77
441.677	5.88
441.881	6.01
442.086	5.84
442.29	5.9
442.495	5.79
442.699	5.83
442.904	5.51
443.108	5.4
443.312	5.29
443.517	5.29
443.721	5.25
443.925	5.3
444.13	5.34
444.334	5.44
444.538	5.48
444.743	5.44
444.947	5.35
445.151	5.31
445.356	5.48
445.56	5.46
445.764	5.55
445.968	5.49
446.173	5.44
446.377	5.4
446.581	5.36
446.785	5.34
446.989	5.4
447.193	5.49
447.398	5.51
447.602	5.34
447.806	5.39
448.01	5.43
448.214	5.56
448.418	5.5
448.622	5.46
448.826	5.47
449.03	5.38
449.234	5.34
449.438	5.27
449.642	5.45
449.846	5.58
450.05	5.57
450.254	5.38
450.458	5.48
450.662	5.49
450.866	5.47
451.069	5.37
451.273	5.42
451.477	5.42
451.681	5.55
451.885	5.37
452.089	5.13
452.292	5.11
452.496	5.17
452.7	4.86
452.904	4.88
453.107	5.16
453.311	5.29
453.515	5.2
453.719	5.34
453.922	5.13
454.126	5.03
454.33	5.05
454.533	5.14
454.737	5.25
454.94	5.44
455.144	5.27
455.348	4.98
455.551	5.04
455.755	5.06
455.958	4.98
456.162	5.11
456.365	5.4
456.569	5.63
456.772	5.71
456.976	5.36
457.179	5.33
457.383	5.53
457.586	5.58
457.79	5.39
457.993	5.31
458.196	5.09
458.4	4.87
458.603	4.65
458.807	4.66
459.01	4.65
459.213	4.84
459.417	4.79
459.62	4.83
459.823	4.89
460.026	4.99
460.23	5.02
460.433	5.18
460.636	5.29
460.839	5.47
461.042	5.4
461.246	5.45
461.449	5.41
461.652	5.4
461.855	5.4
462.058	5.36
462.261	5.26
462.464	5.42
462.668	5.44
462.871	5.47
463.074	5.27
463.277	5.32
463.48	5.29
463.683	5.51
463.886	5.52
464.089	5.59
464.292	5.69
464.495	5.52
