Data from CB_044_Reflection_00003.txt Node
Date: Wed Nov 11 22:11:17 EST 2015
User: robert
Spectrometer: USB4E03001
Autoset integration time: false
Trigger mode: 4
Integration Time (sec): 1.000000E-1
Scans to average: 15
Electric dark correction enabled: true
Nonlinearity correction enabled: false
Boxcar width: 5
Stray light correction enabled: false
XAxis mode: Wavelengths
Stop averaging: false
Number of Pixels in Spectrum: 3648
>>>>>Begin Spectral Data<<<<<
177.566	292.79
177.785	1754.61
178.005	-378.97
178.225	-762.12
178.445	125.45
178.665	72.4
178.885	245.78
179.105	130.6
179.324	160.93
179.544	136.99
179.764	161.24
179.984	124.3
180.204	100.52
180.423	160.15
180.643	111.13
180.863	84.64
181.083	72.48
181.302	68.79
181.522	46.35
181.742	56.21
181.961	53.2
182.181	54.38
182.401	64.86
182.621	80.67
182.84	66.41
183.06	66.65
183.279	66.11
183.499	69.53
183.719	85.22
183.938	112.19
184.158	97.24
184.377	99.11
184.597	106.75
184.816	128.26
185.036	103.4
185.256	100.22
185.475	115.81
185.695	150.97
185.914	173.17
186.134	187.31
186.353	165
186.572	150.17
186.792	149.89
187.011	104.45
187.231	68.57
187.45	81.54
187.67	85.41
187.889	53.12
188.108	54.29
188.328	49.97
188.547	31.01
188.766	37.2
188.986	30.52
189.205	16.56
189.424	33.5
189.644	31.78
189.863	35.28
190.082	35.13
190.302	24.9
190.521	-0.19
190.74	5.53
190.959	14.28
191.178	-2.89
191.398	9.8
191.617	26.43
191.836	11.25
192.055	10.12
192.274	5.92
192.494	2.45
192.713	18.12
192.932	39.03
193.151	26.12
193.37	30.02
193.589	73.67
193.808	74.26
194.027	60.99
194.246	72.09
194.465	86.49
194.685	83.73
194.904	74.38
195.123	68.07
195.342	60.78
195.561	76.14
195.78	84.81
195.999	106.17
196.218	93.36
196.436	87.01
196.655	91.18
196.874	134.37
197.093	168.9
197.312	135.46
197.531	142.63
197.75	133.44
197.969	137.44
198.188	94.15
198.407	77.77
198.625	79.45
198.844	91.3
199.063	89.76
199.282	77.16
199.501	51.75
199.719	70.81
199.938	80.13
200.157	80.35
200.376	76.95
200.594	137.67
200.813	133.28
201.032	128.49
201.251	147.33
201.469	128.25
201.688	125.27
201.907	113.55
202.125	87.83
202.344	70.18
202.563	89.91
202.781	79.54
203	76.17
203.218	62.1
203.437	62.83
203.656	66.97
203.874	72.1
204.093	58.86
204.311	74.39
204.53	82.82
204.748	80.61
204.967	81.08
205.185	97.6
205.404	105.56
205.622	95.9
205.841	111.05
206.059	84.13
206.278	97.35
206.496	106.85
206.715	82.79
206.933	89.63
207.151	90.59
207.37	80.65
207.588	72.1
207.806	70.21
208.025	81.13
208.243	73.61
208.461	87.7
208.68	79.15
208.898	65.85
209.116	67.81
209.335	53.28
209.553	55.83
209.771	62.12
209.989	72.83
210.208	48.37
210.426	45.11
210.644	47.06
210.862	64.68
211.081	82.94
211.299	113.19
211.517	117.89
211.735	111.9
211.953	118.25
212.171	129.43
212.39	113.75
212.608	125.12
212.826	116.05
213.044	121.55
213.262	101.66
213.48	97.3
213.698	91.82
213.916	94.62
214.134	84.44
214.352	95.8
214.57	54.77
214.788	92.83
215.006	86.89
215.224	78.38
215.442	32.95
215.66	40.64
215.878	60.69
216.096	51.17
216.314	68.15
216.532	112.98
216.75	93.78
216.968	105.57
217.185	71.89
217.403	75.39
217.621	68.49
217.839	73.09
218.057	72.45
218.275	76.8
218.492	88.54
218.71	82.42
218.928	77
219.146	73.73
219.363	77.63
219.581	95.89
219.799	89.97
220.017	108.22
220.234	94.46
220.452	82.27
220.67	73.74
220.887	61.88
221.105	51.82
221.323	18.82
221.54	33.76
221.758	36.17
221.976	34.36
222.193	36.84
222.411	30.31
222.629	41.69
222.846	46.04
223.064	31.83
223.281	30.97
223.499	36.31
223.716	40.72
223.934	42.34
224.151	48.13
224.369	45.35
224.586	42.94
224.804	34.98
225.021	19.33
225.239	25.51
225.456	33.98
225.674	34.79
225.891	30.82
226.108	23.92
226.326	7.73
226.543	0.86
226.76	2.8
226.978	-2.34
227.195	12.46
227.413	17.84
227.63	17.86
227.847	13.03
228.064	14.77
228.282	9.91
228.499	11.22
228.716	13.5
228.934	11.69
229.151	9.27
229.368	13.79
229.585	13.1
229.802	10.41
230.02	7.9
230.237	10.63
230.454	8.97
230.671	10.78
230.888	10.29
231.105	13.01
231.323	14.9
231.54	20.46
231.757	13.75
231.974	9.06
232.191	11.27
232.408	15.1
232.625	14.06
232.842	15.12
233.059	15.58
233.276	21.84
233.493	17.86
233.71	13.76
233.927	11.63
234.144	16.14
234.361	20.52
234.578	23.46
234.795	23.82
235.012	22.56
235.229	22.75
235.446	26.17
235.663	21.46
235.879	23.54
236.096	25.84
236.313	24.15
236.53	27.47
236.747	34.26
236.964	33.65
237.181	35.1
237.397	32.32
237.614	33.34
237.831	26.2
238.048	28.13
238.264	28.21
238.481	26.94
238.698	25.04
238.915	22.82
239.131	14.54
239.348	11.86
239.565	6.7
239.781	9.92
239.998	8.43
240.215	12.29
240.431	12.52
240.648	13.77
240.865	12.27
241.081	15.98
241.298	14.48
241.514	13.19
241.731	15.02
241.947	14.41
242.164	13.16
242.38	14.45
242.597	13.21
242.814	14.14
243.03	13.21
243.246	14.75
243.463	13.65
243.679	14.13
243.896	18.82
244.112	17.75
244.329	21.32
244.545	21.04
244.762	19.69
244.978	20.88
245.194	18.15
245.411	17.19
245.627	16.8
245.843	17.71
246.06	16.4
246.276	12.83
246.492	11.87
246.709	10.34
246.925	11.46
247.141	12.33
247.357	11.45
247.574	10.98
247.79	11.13
248.006	10.75
248.222	9.38
248.439	9.58
248.655	11.35
248.871	11.18
249.087	11.1
249.303	11.35
249.519	10.72
249.736	10.8
249.952	10.63
250.168	12.72
250.384	12.48
250.6	13.92
250.816	15
251.032	10.06
251.248	13.02
251.464	11.7
251.68	10.07
251.896	9.36
252.112	8.95
252.328	9.88
252.544	8.99
252.76	10.04
252.976	8.46
253.192	7.15
253.408	8.24
253.624	7.76
253.84	9.61
254.056	11.62
254.272	14.62
254.487	16.21
254.703	16.05
254.919	15.57
255.135	13.49
255.351	18.5
255.567	21.15
255.782	21.46
255.998	19.5
256.214	18.47
256.43	18.14
256.646	15.09
256.861	13.89
257.077	13.42
257.293	10.63
257.508	10
257.724	9.4
257.94	8.46
258.155	8.82
258.371	7.66
258.587	8.32
258.802	8.62
259.018	8.62
259.234	7.85
259.449	8.18
259.665	9.21
259.88	9.84
260.096	9.04
260.312	9.04
260.527	8.78
260.743	9.32
260.958	9.09
261.174	9.33
261.389	9.89
261.605	10.71
261.82	10.68
262.036	10.54
262.251	11.38
262.466	12.02
262.682	11.66
262.897	12.24
263.113	11.78
263.328	10.98
263.543	10.46
263.759	9.98
263.974	10.34
264.189	9.55
264.405	7.5
264.62	5.92
264.835	4.9
265.051	4.49
265.266	3.2
265.481	4.19
265.696	5.14
265.912	3.14
266.127	4.4
266.342	4.62
266.557	4.62
266.773	5.44
266.988	5.68
267.203	4.56
267.418	5.74
267.633	7.21
267.848	7.81
268.064	7.06
268.279	7.34
268.494	5.54
268.709	6.02
268.924	7.47
269.139	8.22
269.354	8.62
269.569	9.33
269.784	10.37
269.999	8.92
270.214	8.31
270.429	8.5
270.644	8.96
270.859	9.42
271.074	8.68
271.289	9.14
271.504	10.03
271.719	9.3
271.934	9.23
272.149	8.58
272.363	9.89
272.578	10.33
272.793	11
273.008	11.05
273.223	11.24
273.438	11.12
273.653	12.09
273.867	10.78
274.082	11.14
274.297	11.82
274.512	11.53
274.726	9.75
274.941	9.87
275.156	10.83
275.371	10.2
275.585	9.59
275.8	10.23
276.015	9.83
276.229	10.65
276.444	10.76
276.659	10.31
276.873	10.58
277.088	11.32
277.302	10.56
277.517	10.02
277.732	11.85
277.946	12.56
278.161	12.58
278.375	11.45
278.59	10.99
278.804	10.6
279.019	10.2
279.233	9.71
279.448	10.63
279.662	11.32
279.877	9.6
280.091	8.76
280.306	8.92
280.52	8.14
280.735	8.08
280.949	7.84
281.163	7.46
281.378	7.24
281.592	6.94
281.806	6.74
282.021	4.96
282.235	5.14
282.449	4.38
282.664	3.78
282.878	4.6
283.092	5.12
283.307	6.04
283.521	6.32
283.735	7.51
283.949	8.4
284.164	8.79
284.378	10.39
284.592	10.76
284.806	11.25
285.02	11.2
285.234	10.97
285.449	10.6
285.663	10.05
285.877	10.24
286.091	10.57
286.305	9.74
286.519	9.8
286.733	9.76
286.947	10.17
287.161	9.94
287.375	10.49
287.589	10.34
287.803	10.16
288.017	9.9
288.231	9.9
288.445	9.82
288.659	9.41
288.873	9.3
289.087	8.89
289.301	8.96
289.515	9.87
289.729	9.01
289.943	9.68
290.157	9.52
290.371	9.08
290.584	9.21
290.798	9.07
291.012	9.73
291.226	9.83
291.44	9.49
291.654	8.85
291.867	8.42
292.081	8.28
292.295	8.55
292.509	8.46
292.722	8.99
292.936	8.55
293.15	7.51
293.364	9
293.577	9.1
293.791	9.71
294.005	9.28
294.218	8.9
294.432	11.49
294.645	10.43
294.859	10.05
295.073	10.13
295.286	10.06
295.5	10.83
295.713	9.88
295.927	8.96
296.14	8.78
296.354	9.16
296.568	9.02
296.781	7.42
296.994	7.87
297.208	9.11
297.421	9.11
297.635	9.02
297.848	9
298.062	8.9
298.275	9.79
298.489	10.04
298.702	10.59
298.915	11.53
299.129	12.3
299.342	12.23
299.555	12.51
299.769	13.17
299.982	13.76
300.195	13.9
300.409	13.38
300.622	13.3
300.835	13.31
301.048	13.04
301.262	12.76
301.475	12.76
301.688	14.5
301.901	13.65
302.115	13.04
302.328	13.3
302.541	13.79
302.754	14.5
302.967	14.4
303.18	15.22
303.393	15.05
303.607	14.95
303.82	15.15
304.033	13.84
304.246	13.05
304.459	13.88
304.672	13.7
304.885	13.43
305.098	13.23
305.311	13.04
305.524	11.34
305.737	11.53
305.95	10.82
306.163	10.88
306.376	11.64
306.589	11.84
306.802	11.28
307.015	11.98
307.228	11.08
307.44	11.83
307.653	12.79
307.866	13.31
308.079	13.88
308.292	13.52
308.505	12.84
308.718	12.82
308.93	14.24
309.143	14.1
309.356	13.88
309.569	14.59
309.781	14.64
309.994	14.57
310.207	15.13
310.42	14.86
310.632	16.31
310.845	16.68
311.058	15.79
311.27	15.51
311.483	15.29
311.696	14.87
311.908	15.65
312.121	14.9
312.333	14.44
312.546	13.91
312.759	13.92
312.971	12.55
313.184	12.52
313.396	12.77
313.609	12.05
313.821	12.49
314.034	13.05
314.246	11.52
314.459	11.75
314.671	11.49
314.884	13.14
315.096	13.21
315.309	13.33
315.521	12.56
315.733	13.16
315.946	12.91
316.158	12.78
316.371	12.54
316.583	12.7
316.795	13.31
317.008	13.68
317.22	12.82
317.432	13.35
317.644	13.68
317.857	14.56
318.069	13.22
318.281	12.28
318.494	12.55
318.706	13
318.918	14.53
319.13	15.19
319.342	15.15
319.555	14.61
319.767	14.17
319.979	13.77
320.191	13.14
320.403	15.09
320.615	16.53
320.827	16.64
321.039	15.56
321.252	14.44
321.464	13.14
321.676	12.38
321.888	12.89
322.1	12.29
322.312	12.94
322.524	14.41
322.736	14.29
322.948	14.86
323.16	15.07
323.372	15.33
323.584	15.77
323.796	16.29
324.007	16.37
324.219	16.28
324.431	16.39
324.643	17.07
324.855	16.22
325.067	14.75
325.279	14.9
325.491	15.61
325.702	15.83
325.914	15.98
326.126	16.02
326.338	16.37
326.55	16.97
326.761	17.76
326.973	17.78
327.185	17.85
327.396	19.42
327.608	18.88
327.82	19.08
328.032	19.82
328.243	19.91
328.455	20.68
328.666	21.52
328.878	21.13
329.09	20.89
329.301	19.94
329.513	20.23
329.725	19.47
329.936	20.04
330.148	19.63
330.359	19.86
330.571	19.71
330.782	19.5
330.994	19.34
331.205	19.76
331.417	20.03
331.628	21.44
331.84	21.65
332.051	22.82
332.262	23.04
332.474	23.99
332.685	23.89
332.897	24.51
333.108	24.66
333.319	25.42
333.531	26.26
333.742	26.68
333.953	26.39
334.165	26.19
334.376	25.91
334.587	25.74
334.799	25.42
335.01	25.57
335.221	25.37
335.432	25.63
335.644	25.17
335.855	24.57
336.066	24.53
336.277	25.23
336.488	25.44
336.7	25.16
336.911	25
337.122	24.8
337.333	24.92
337.544	25.44
337.755	25.22
337.966	25.58
338.177	25.27
338.388	25.33
338.599	25.44
338.811	25.18
339.022	24.79
339.233	25.28
339.444	25.27
339.655	25.62
339.866	23.91
340.076	24.07
340.287	24.36
340.498	25.02
340.709	24.45
340.92	24.11
341.131	24.21
341.342	25.48
341.553	25.72
341.764	25.49
341.975	24.9
342.185	25.96
342.396	25.69
342.607	25.22
342.818	24.48
343.029	24.79
343.239	24.6
343.45	24.52
343.661	23.32
343.872	22.69
344.082	22.18
344.293	22.83
344.504	22.35
344.714	22.26
344.925	21.96
345.136	22.48
345.346	22.59
345.557	22.5
345.768	22.46
345.978	23.69
346.189	24.19
346.399	24.84
346.61	24.43
346.821	24.71
347.031	24.98
347.242	25.71
347.452	25.17
347.663	25.36
347.873	25.41
348.084	26.24
348.294	26.06
348.504	25.68
348.715	25.72
348.925	25.25
349.136	25.15
349.346	25.34
349.557	24.43
349.767	25.44
349.977	25.16
350.188	25.24
350.398	24.2
350.608	23.71
350.819	24.11
351.029	23.7
351.239	24.42
351.449	24.74
351.66	23.47
351.87	24.86
352.08	24.17
352.29	24.29
352.501	24.63
352.711	25.11
352.921	24.63
353.131	25.14
353.341	25.12
353.552	24.99
353.762	24.46
353.972	26.17
354.182	24.41
354.392	24.63
354.602	23.7
354.812	22.72
355.022	22.36
355.232	22.93
355.442	22.47
355.652	22.48
355.862	22.27
356.072	22.27
356.282	20.98
356.492	21.98
356.702	22
356.912	22.52
357.122	22.95
357.332	23.81
357.542	23.76
357.752	23.62
357.962	23.45
358.171	23.56
358.381	23.53
358.591	23.6
358.801	23.38
359.011	22.77
359.221	23.1
359.43	23.22
359.64	22.12
359.85	21.97
360.06	21.85
360.269	22.36
360.479	22.27
360.689	22.48
360.899	22.78
361.108	22.53
361.318	23.2
361.528	22.79
361.737	22.07
361.947	22.59
362.156	21.95
362.366	22.2
362.576	21.7
362.785	21.74
362.995	21.65
363.204	21.45
363.414	21.62
363.623	21.04
363.833	21.04
364.042	21.5
364.252	21.86
364.461	22.44
364.671	21.91
364.88	21.95
365.09	21.75
365.299	22.08
365.509	22.13
365.718	22.09
365.927	22.29
366.137	22.15
366.346	22.08
366.555	21.5
366.765	21.07
366.974	21.2
367.183	21.46
367.393	21.35
367.602	20.72
367.811	20.4
368.021	19.86
368.23	19.82
368.439	19.66
368.648	20.24
368.857	19.91
369.067	19.51
369.276	19.82
369.485	19.55
369.694	19.6
369.903	19.68
370.112	19.41
370.321	19.46
370.531	18.97
370.74	19.51
370.949	18.82
371.158	18.97
371.367	19.86
371.576	20.03
371.785	20.26
371.994	20.08
372.203	20.02
372.412	20.69
372.621	20.68
372.83	20.43
373.039	20.13
373.248	19.93
373.457	19.61
373.666	19.43
373.874	18.76
374.083	17.8
374.292	17.21
374.501	17.61
374.71	16.83
374.919	17.14
375.128	17.79
375.336	17.65
375.545	18
375.754	18.34
375.963	17.75
376.171	17.83
376.38	17.99
376.589	18.19
376.798	16.9
377.006	16.78
377.215	16.79
377.424	16.57
377.632	16.16
377.841	15.82
378.05	15.62
378.258	15.63
378.467	15.46
378.675	15.86
378.884	15.82
379.093	16.38
379.301	16.94
379.51	16.26
379.718	16.24
379.927	16.81
380.135	16.56
380.344	16.02
380.552	15.91
380.761	15.58
380.969	14.95
381.177	15.13
381.386	14.59
381.594	13.75
381.803	14.01
382.011	13.64
382.219	13.03
382.428	13.04
382.636	12.76
382.845	13.13
383.053	13.29
383.261	12.97
383.469	12.57
383.678	13.06
383.886	12.95
384.094	12.64
384.302	13.45
384.511	13.44
384.719	13.18
384.927	13.81
385.135	13.62
385.343	13.57
385.552	14.33
385.76	14.53
385.968	14.2
386.176	14.47
386.384	14.1
386.592	13.57
386.8	13.67
387.008	13.69
387.216	13.27
387.424	13.48
387.633	13.19
387.841	12.85
388.049	12.38
388.257	12.12
388.465	12.05
388.672	12.14
388.88	11.72
389.088	11.78
389.296	11.77
389.504	11.41
389.712	10.94
389.92	10.87
390.128	10.43
390.336	10.46
390.544	10.65
390.751	10.71
390.959	11.16
391.167	11.21
391.375	11.16
391.583	11.23
391.79	11.2
391.998	11.25
392.206	11.34
392.414	11.57
392.621	11.35
392.829	11.49
393.037	11.4
393.244	11.25
393.452	11.06
393.66	10.7
393.867	10.69
394.075	11.06
394.283	10.94
394.49	10.96
394.698	11.05
394.905	11.41
395.113	11.33
395.32	11.32
395.528	11.44
395.735	11.69
395.943	11.53
396.15	11.44
396.358	11.19
396.565	11.41
396.773	11.19
396.98	11.31
397.188	10.87
397.395	10.86
397.602	10.94
397.81	10.99
398.017	10.74
398.225	10.74
398.432	10.71
398.639	10.82
398.847	10.49
399.054	10.52
399.261	10.19
399.468	10.8
399.676	10.73
399.883	10.65
400.09	9.94
400.297	10
400.505	9.92
400.712	9.86
400.919	10.1
401.126	10.16
401.333	9.93
401.54	9.61
401.748	9.31
401.955	9.39
402.162	9.41
402.369	9.53
402.576	9.73
402.783	10
402.99	9.69
403.197	9.21
403.404	9.13
403.611	9.49
403.818	9.69
404.025	9.56
404.232	9.51
404.439	9.37
404.646	9.28
404.853	8.89
405.06	8.87
405.267	9.11
405.474	9.19
405.681	9.18
405.887	9.42
406.094	9.48
406.301	9.49
406.508	9.58
406.715	9.6
406.922	9.91
407.128	10.09
407.335	9.78
407.542	9.6
407.749	9.69
407.955	9.58
408.162	9
408.369	8.57
408.575	8.53
408.782	8.5
408.989	8.43
409.195	8.33
409.402	8.13
409.609	8.31
409.815	8.11
410.022	8.31
410.228	8.49
410.435	8.51
410.642	8.73
410.848	8.52
411.055	8.58
411.261	8.67
411.468	8.54
411.674	8.75
411.881	8.61
412.087	9.05
412.294	8.92
412.5	9.03
412.706	9.09
412.913	9.15
413.119	9.33
413.326	8.88
413.532	8.9
413.738	9.22
413.945	9.21
414.151	9.26
414.357	8.91
414.564	8.59
414.77	8.12
414.976	8.05
415.182	7.91
415.389	7.68
415.595	7.52
415.801	7.29
416.007	6.94
416.214	6.6
416.42	6.75
416.626	6.64
416.832	6.8
417.038	7.17
417.244	7.25
417.45	7.27
417.657	7.67
417.863	7.83
418.069	8.01
418.275	8.13
418.481	8.21
418.687	8.19
418.893	8.37
419.099	8.53
419.305	8.23
419.511	8.24
419.717	8.36
419.923	8.17
420.129	8.24
420.335	8.11
420.541	8.05
420.746	7.88
420.952	7.76
421.158	7.63
421.364	7.47
421.57	7.44
421.776	7.38
421.982	7.24
422.187	7.22
422.393	7.1
422.599	6.99
422.805	6.92
423.01	7.16
423.216	7.23
423.422	7.23
423.628	7.22
423.833	7.21
424.039	7.2
424.245	7.34
424.45	7.37
424.656	7.34
424.862	7.44
425.067	7.6
425.273	7.57
425.478	7.47
425.684	7.51
425.889	7.53
426.095	7.69
426.301	7.66
426.506	7.68
426.712	7.45
426.917	7.47
427.123	7.44
427.328	7.16
427.533	6.83
427.739	6.83
427.944	6.86
428.15	6.77
428.355	6.58
428.561	6.76
428.766	6.47
428.971	6.81
429.177	6.96
429.382	6.88
429.587	7.17
429.793	7.54
429.998	7.62
430.203	7.52
430.408	7.62
430.614	7.89
430.819	7.64
431.024	7.84
431.229	7.78
431.434	7.52
431.64	7.76
431.845	7.59
432.05	7.44
432.255	7.28
432.46	7.26
432.665	7.1
432.87	6.93
433.076	7.18
433.281	7.14
433.486	6.92
433.691	7
433.896	6.85
434.101	6.76
434.306	6.85
434.511	6.77
434.716	6.83
434.921	6.92
435.126	6.85
435.331	6.57
435.535	6.36
435.74	6.46
435.945	6.29
436.15	6.35
436.355	6.46
436.56	6.66
436.765	6.68
436.97	6.72
437.174	6.64
437.379	6.85
437.584	6.96
437.789	7.08
437.993	7.22
438.198	7.36
438.403	7.33
438.608	7.28
438.812	7.07
439.017	7.21
439.222	7.19
439.426	7.18
439.631	6.99
439.836	7.06
440.04	6.89
440.245	6.74
440.45	6.69
440.654	6.67
440.859	6.77
441.063	6.7
441.268	6.74
441.472	6.75
441.677	6.93
441.881	7.03
442.086	7
442.29	7.19
442.495	7.26
442.699	7.37
442.904	7.39
443.108	7.4
443.312	7.4
443.517	7.44
443.721	7.28
443.925	6.97
444.13	6.96
444.334	6.9
444.538	6.79
444.743	6.69
444.947	6.62
445.151	6.58
445.356	6.64
445.56	6.78
445.764	6.89
445.968	6.92
446.173	7.09
446.377	7.07
446.581	7.07
446.785	7.21
446.989	7.19
447.193	7.29
447.398	7.17
447.602	7.02
447.806	6.89
448.01	6.69
448.214	6.7
448.418	6.6
448.622	6.63
448.826	6.56
449.03	6.44
449.234	6.5
449.438	6.44
449.642	6.61
449.846	6.66
450.05	6.94
450.254	6.99
450.458	7.03
450.662	7.16
450.866	7.04
451.069	7.08
451.273	7
451.477	6.97
451.681	7.01
451.885	6.86
452.089	6.79
452.292	6.69
452.496	6.71
452.7	6.78
452.904	6.69
453.107	6.89
453.311	6.98
453.515	7.07
453.719	7.24
453.922	7.13
454.126	7.26
454.33	7.38
454.533	7.54
454.737	7.57
454.94	7.59
455.144	7.38
455.348	7.38
455.551	7.32
455.755	7.31
455.958	7.3
456.162	7.38
456.365	7.64
456.569	7.57
456.772	7.31
456.976	6.9
457.179	6.84
457.383	7.02
457.586	7.03
457.79	6.98
457.993	6.8
458.196	6.54
458.4	6.47
458.603	6.19
458.807	6.28
459.01	6.24
459.213	6.46
459.417	6.44
459.62	6.47
459.823	6.41
460.026	6.43
460.23	6.47
460.433	6.55
460.636	6.52
460.839	6.71
461.042	6.79
461.246	6.92
461.449	6.85
461.652	6.8
461.855	6.84
462.058	6.81
462.261	6.77
462.464	6.77
462.668	6.98
462.871	7.06
463.074	6.75
