Data from CB_018_Reflection_1.txt Node
Date: Wed Nov 11 19:59:07 EST 2015
User: robert
Spectrometer: USB4E03001
Autoset integration time: false
Trigger mode: 4
Integration Time (sec): 1.000000E-1
Scans to average: 15
Electric dark correction enabled: true
Nonlinearity correction enabled: false
Boxcar width: 5
Stray light correction enabled: false
XAxis mode: Wavelengths
Stop averaging: false
Number of Pixels in Spectrum: 3648
>>>>>Begin Spectral Data<<<<<
177.566	-9.6
177.785	-42.99
178.005	253.12
178.225	-86.81
178.445	-17.48
178.665	269.85
178.885	296.16
179.105	1717.39
179.324	92.1
179.544	73.85
179.764	-118.75
179.984	-104.97
180.204	7460
180.423	169.09
180.643	-625.63
180.863	-268.09
181.083	28.81
181.302	67.89
181.522	107.55
181.742	-976.86
181.961	-285.22
182.181	-2754.11
182.401	2859.68
182.621	-247.7
182.84	-215.67
183.06	-170.48
183.279	-486.4
183.499	-213.29
183.719	-197.08
183.938	-230.3
184.158	-200.23
184.377	-152.74
184.597	-196.96
184.816	-96.9
185.036	-177.16
185.256	-118.54
185.475	-153.35
185.695	-125.04
185.914	-238.02
186.134	-1744
186.353	2809.84
186.572	352.06
186.792	269.94
187.011	727.55
187.231	565.15
187.45	190.84
187.67	295.45
187.889	132
188.108	83.37
188.328	96.2
188.547	335.56
188.766	393.79
188.986	1675
189.205	934.23
189.424	35.85
189.644	184.08
189.863	153.69
190.082	-212.64
190.302	103.34
190.521	218.66
190.74	180.51
190.959	112.23
191.178	117.4
191.398	30.16
191.617	153.6
191.836	317.17
192.055	121.15
192.274	156.64
192.494	226.63
192.713	251.92
192.932	-168.81
193.151	96.01
193.37	63.12
193.589	30.27
193.808	-117.64
194.027	8.56
194.246	81.94
194.465	3.38
194.685	-186
194.904	294.55
195.123	-178.34
195.342	-51.09
195.561	-354.54
195.78	-4613.59
195.999	-69.15
196.218	12.17
196.436	-236.65
196.655	649.06
196.874	438.33
197.093	659.16
197.312	-165.53
197.531	455.72
197.75	198.74
197.969	185.48
198.188	164.84
198.407	122.29
198.625	195.27
198.844	187.62
199.063	-560.61
199.282	-173.11
199.501	22.27
199.719	-73.54
199.938	-19.47
200.157	457.42
200.376	67.3
200.594	-167.48
200.813	-43.76
201.032	128.34
201.251	69.1
201.469	84.44
201.688	13.97
201.907	144.22
202.125	69.6
202.344	537.17
202.563	217.45
202.781	213.07
203	127.58
203.218	56.08
203.437	144.21
203.656	313.17
203.874	302.45
204.093	995.95
204.311	563.3
204.53	193.42
204.748	268.53
204.967	477.82
205.185	8908.57
205.404	-251.49
205.622	-133.95
205.841	-71.77
206.059	-55.62
206.278	-14.71
206.496	-28.03
206.715	-102.63
206.933	-25.25
207.151	-61.26
207.37	-56.74
207.588	-65.06
207.806	19.46
208.025	28.78
208.243	82.39
208.461	93.07
208.68	97.22
208.898	-330.32
209.116	50.91
209.335	-185.65
209.553	40.04
209.771	9.86
209.989	-8.07
210.208	36.46
210.426	59.21
210.644	130.2
210.862	232.54
211.081	31.64
211.299	42.16
211.517	42.64
211.735	202.98
211.953	72.1
212.171	82.8
212.39	-752.94
212.608	-80
212.826	-25.31
213.044	-9.68
213.262	-21.42
213.48	-72.83
213.698	-89.84
213.916	-207.7
214.134	-227.26
214.352	-290.82
214.57	-120.01
214.788	-274.44
215.006	-641.7
215.224	343.18
215.442	817.34
215.66	517.85
215.878	404.35
216.096	225.05
216.314	341.63
216.532	593.57
216.75	796.01
216.968	350.14
217.185	162.37
217.403	108
217.621	195.75
217.839	59.85
218.057	143.85
218.275	301.32
218.492	-497.93
218.71	117.67
218.928	98.19
219.146	167.39
219.363	334.64
219.581	-263.55
219.799	-79.22
220.017	-185.1
220.234	-140.65
220.452	-151.56
220.67	-295.36
220.887	2418.71
221.105	-570.44
221.323	-96.48
221.54	-79.6
221.758	-341.7
221.976	-135.67
222.193	-108.17
222.411	-39.11
222.629	-49.8
222.846	-66.1
223.064	-13.28
223.281	11.9
223.499	23.73
223.716	11.45
223.934	15.56
224.151	24.11
224.369	32.22
224.586	20.58
224.804	14.66
225.021	-7.83
225.239	-22.2
225.456	-24.97
225.674	-17.6
225.891	-17.65
226.108	-16.78
226.326	-25.19
226.543	-10.4
226.76	-3.63
226.978	4.7
227.195	13.4
227.413	24.55
227.63	29.08
227.847	22.74
228.064	19.74
228.282	19.45
228.499	12.38
228.716	13.4
228.934	13.4
229.151	12.11
229.368	10.83
229.585	5.91
229.802	5.42
230.02	1.87
230.237	0.81
230.454	0.65
230.671	-1.95
230.888	4.14
231.105	5.8
231.323	4.94
231.54	6.48
231.757	11.61
231.974	15.62
232.191	10.59
232.408	10.6
232.625	15.71
232.842	13.98
233.059	12.65
233.276	9.4
233.493	2.67
233.71	-4.36
233.927	-2.28
234.144	-15.06
234.361	-14.89
234.578	-16.59
234.795	-23.46
235.012	-17.8
235.229	-17.97
235.446	-16.36
235.663	-20.47
235.879	-14
236.096	-1.57
236.313	-5.33
236.53	2.36
236.747	10.22
236.964	11.05
237.181	8.43
237.397	1.77
237.614	1.45
237.831	0.8
238.048	-5.09
238.264	-5.82
238.481	-11.79
238.698	-12.51
238.915	-4.92
239.131	-10.8
239.348	-2.38
239.565	6.62
239.781	4.22
239.998	5.74
240.215	9.91
240.431	11.69
240.648	10.87
240.865	9.38
241.081	4.72
241.298	1.89
241.514	4
241.731	4.1
241.947	1.59
242.164	4.66
242.38	5.26
242.597	4.22
242.814	4.7
243.03	7.13
243.246	7.73
243.463	9.76
243.679	7.28
243.896	7.18
244.112	7.35
244.329	9.54
244.545	6.46
244.762	6.03
244.978	8.56
245.194	11.39
245.411	7.79
245.627	7.82
245.843	9.44
246.06	9.94
246.276	10.12
246.492	9.16
246.709	10.63
246.925	10.78
247.141	10.86
247.357	10.26
247.574	9.22
247.79	10.14
248.006	9.82
248.222	9.35
248.439	10.09
248.655	9.57
248.871	9.15
249.087	7.1
249.303	9.07
249.519	9.95
249.736	9.47
249.952	10.24
250.168	9.94
250.384	10.39
250.6	10.31
250.816	10.98
251.032	11.89
251.248	13.11
251.464	13.75
251.68	11.9
251.896	11.93
252.112	11.6
252.328	13.08
252.544	11.17
252.76	11.8
252.976	11.85
253.192	10.47
253.408	7.75
253.624	6.45
253.84	6.49
254.056	4.98
254.272	1.87
254.487	2.32
254.703	-3.54
254.919	-0.13
255.135	-3.38
255.351	-8.85
255.567	-7.84
255.782	-3.61
255.998	-3.83
256.214	-6.27
256.43	-9.69
256.646	-7.8
256.861	-4.67
257.077	0.02
257.293	-2.67
257.508	1.2
257.724	5.15
257.94	6.64
258.155	7.88
258.371	8.39
258.587	9.71
258.802	10.87
259.018	9.42
259.234	7.54
259.449	6.84
259.665	6.84
259.88	7.08
260.096	6.8
260.312	7.39
260.527	6.15
260.743	5.71
260.958	5.21
261.174	5.14
261.389	4.48
261.605	5.16
261.82	5.18
262.036	5.83
262.251	4.46
262.466	4.47
262.682	4.09
262.897	4.75
263.113	7.27
263.328	8.04
263.543	7.7
263.759	10.11
263.974	9.26
264.189	6.87
264.405	4.27
264.62	4.24
264.835	5.06
265.051	3.2
265.266	6.01
265.481	3.66
265.696	1.63
265.912	1.31
266.127	0.11
266.342	-0.65
266.557	1.88
266.773	3.1
266.988	1.99
267.203	0.62
267.418	1.02
267.633	-0.41
267.848	1.22
268.064	2.32
268.279	2.83
268.494	2.61
268.709	3.2
268.924	3.35
269.139	3.86
269.354	4.52
269.569	3.54
269.784	3.74
269.999	5.47
270.214	3.95
270.429	3.02
270.644	3.13
270.859	4.21
271.074	5.28
271.289	4.39
271.504	4.5
271.719	5.11
271.934	4.89
272.149	5.05
272.363	4.07
272.578	4.31
272.793	4.93
273.008	5.63
273.223	5.33
273.438	3.12
273.653	3.32
273.867	2.61
274.082	1.83
274.297	3.76
274.512	3.33
274.726	3.26
274.941	3.11
275.156	2.37
275.371	1.64
275.585	1.97
275.8	3.1
276.015	3.67
276.229	5.78
276.444	7.24
276.659	7.25
276.873	7.29
277.088	7.91
277.302	8.14
277.517	9.64
277.732	9.32
277.946	10.61
278.161	10.65
278.375	9.53
278.59	8.44
278.804	6.08
279.019	5.42
279.233	4.94
279.448	5.51
279.662	5.54
279.877	4.66
280.091	5.81
280.306	4.63
280.52	5.36
280.735	4.03
280.949	4.76
281.163	5.64
281.378	5.67
281.592	6.5
281.806	4.96
282.021	6.22
282.235	5.4
282.449	4.56
282.664	5.95
282.878	7.03
283.092	8.27
283.307	7.57
283.521	8.24
283.735	9.21
283.949	8.08
284.164	8.17
284.378	6.44
284.592	7.15
284.806	6.24
285.02	4.99
285.234	4.53
285.449	3.56
285.663	3.65
285.877	3.25
286.091	2.06
286.305	2.57
286.519	3.14
286.733	5.58
286.947	5.85
287.161	6.83
287.375	7.25
287.589	6.79
287.803	7.03
288.017	7.79
288.231	7.95
288.445	9.33
288.659	9.32
288.873	9.81
289.087	8.16
289.301	7.88
289.515	8.53
289.729	8.13
289.943	8.23
290.157	10.25
290.371	9.97
290.584	10.17
290.798	10
291.012	9.09
291.226	8.6
291.44	8.12
291.654	8.22
291.867	7.16
292.081	7.93
292.295	8.21
292.509	7.2
292.722	6.04
292.936	5.58
293.15	4.68
293.364	6.26
293.577	7.33
293.791	7.36
294.005	7.89
294.218	8.04
294.432	7.27
294.645	8.15
294.859	9.14
295.073	9.52
295.286	10.39
295.5	10.96
295.713	10.73
295.927	10
296.14	10.36
296.354	10.55
296.568	10.72
296.781	10.99
296.994	9.61
297.208	9.98
297.421	10.24
297.635	10.42
297.848	10.31
298.062	10.99
298.275	11.28
298.489	12.15
298.702	12.62
298.915	12.92
299.129	13.4
299.342	15.44
299.555	14.9
299.769	14.64
299.982	14.26
300.195	13.48
300.409	13.64
300.622	13.98
300.835	12.15
301.048	11.94
301.262	12.05
301.475	11.84
301.688	10.31
301.901	9.55
302.115	10.64
302.328	10.75
302.541	12.76
302.754	12.26
302.967	13.32
303.18	13.86
303.393	13.25
303.607	13.68
303.82	14.4
304.033	13.71
304.246	14.46
304.459	13.97
304.672	13.52
304.885	12.57
305.098	12.44
305.311	10.74
305.524	12.11
305.737	12.7
305.95	12.46
306.163	10.78
306.376	11.61
306.589	11.11
306.802	11.4
307.015	11.72
307.228	12.2
307.44	11.07
307.653	11.37
307.866	9.81
308.079	9.18
308.292	9.64
308.505	9.28
308.718	9.34
308.93	9.4
309.143	8.63
309.356	9.81
309.569	10.13
309.781	10.71
309.994	10.6
310.207	11.54
310.42	11.85
310.632	10.55
310.845	11.16
311.058	11.98
311.27	12.05
311.483	12.39
311.696	12.05
311.908	11.24
312.121	11.32
312.333	11.1
312.546	10.67
312.759	9.94
312.971	11.39
313.184	11.23
313.396	9.55
313.609	10.77
313.821	10.75
314.034	10.19
314.246	10.89
314.459	10.86
314.671	11.27
314.884	10.73
315.096	11.7
315.309	11.24
315.521	11.68
315.733	11.61
315.946	10.57
316.158	11.29
316.371	11.78
316.583	11.2
316.795	12.54
317.008	12.63
317.22	11.75
317.432	11.69
317.644	11.77
317.857	12.63
318.069	14.85
318.281	15.51
318.494	15.07
318.706	15.12
318.918	15.26
319.13	14.11
319.342	14.42
319.555	16.26
319.767	15.07
319.979	14.13
320.191	12.73
320.403	11.35
320.615	10.61
320.827	10.32
321.039	9.7
321.252	11.11
321.464	11.52
321.676	12.43
321.888	12.89
322.1	13.69
322.312	14.36
322.524	13.95
322.736	14.91
322.948	15.07
323.16	14.7
323.372	16.12
323.584	15.54
323.796	15.65
324.007	14.65
324.219	14.88
324.431	15.27
324.643	15.41
324.855	15.84
325.067	16.91
325.279	16.64
325.491	17.65
325.702	17.43
325.914	17.42
326.126	17.4
326.338	16.73
326.55	16.08
326.761	15.41
326.973	15.81
327.185	16.18
327.396	15.21
327.608	15.44
327.82	13.99
328.032	12.92
328.243	11.43
328.455	11.52
328.666	12.29
328.878	12.8
329.09	12.82
329.301	12.28
329.513	12.51
329.725	12.57
329.936	12.43
330.148	13.76
330.359	13.45
330.571	13.88
330.782	13.5
330.994	13.43
331.205	12.16
331.417	12.51
331.628	11.63
331.84	11.34
332.051	10.81
332.262	11.88
332.474	10.88
332.685	11.36
332.897	11.95
333.108	12.93
333.319	12.87
333.531	13.27
333.742	13.88
333.953	14.55
334.165	14.92
334.376	15.06
334.587	12.61
334.799	12.65
335.01	12.73
335.221	12.82
335.432	11.88
335.644	11.53
335.855	11.4
336.066	11.34
336.277	10.88
336.488	9.95
336.7	9.11
336.911	10.52
337.122	9.92
337.333	10.49
337.544	9.69
337.755	9.09
337.966	9.21
338.177	8.87
338.388	8.75
338.599	8.88
338.811	9.23
339.022	9.98
339.233	9.22
339.444	10.12
339.655	9.58
339.866	9.03
340.076	9.66
340.287	9.82
340.498	10.59
340.709	9.46
340.92	10.66
341.131	11.37
341.342	10.97
341.553	11.87
341.764	12.11
341.975	11.16
342.185	12.73
342.396	13.03
342.607	12.91
342.818	13.17
343.029	14.18
343.239	12.97
343.45	13.69
343.661	14.37
343.872	14.92
344.082	14.63
344.293	15.46
344.504	14.95
344.714	14.27
344.925	15.22
345.136	14.13
345.346	13.66
345.557	14.2
345.768	13.01
345.978	13.03
346.189	11.61
346.399	11.62
346.61	12.18
346.821	12.65
347.031	12.86
347.242	11.98
347.452	12.16
347.663	12.44
347.873	13
348.084	12.72
348.294	12.36
348.504	13.23
348.715	13.44
348.925	12.8
349.136	12.87
349.346	12.61
349.557	12.57
349.767	13.08
349.977	13.18
350.188	12.5
350.398	13.06
350.608	13.44
350.819	13.11
351.029	13.27
351.239	12.83
351.449	12.11
351.66	13
351.87	13.19
352.08	12.92
352.29	12.43
352.501	12.33
352.711	12.34
352.921	11.45
353.131	11.72
353.341	10.51
353.552	11.48
353.762	12.17
353.972	11.49
354.182	10.48
354.392	9.74
354.602	10.2
354.812	9.98
355.022	9.69
355.232	9.62
355.442	10.24
355.652	10.56
355.862	10.01
356.072	9.93
356.282	9.84
356.492	10.49
356.702	10.6
356.912	10.43
357.122	10.51
357.332	10.73
357.542	11.06
357.752	10.63
357.962	11.5
358.171	11.12
358.381	10.98
358.591	11.1
358.801	11.23
359.011	11.77
359.221	11.62
359.43	10.95
359.64	10.61
359.85	10.6
360.06	9.87
360.269	9.85
360.479	10.21
360.689	9.77
360.899	9.72
361.108	9.53
361.318	9.77
361.528	10.2
361.737	10.9
361.947	11.06
362.156	11.56
362.366	11.61
362.576	11.49
362.785	11.32
362.995	11.91
363.204	11.95
363.414	12.55
363.623	12.27
363.833	11.62
364.042	10.83
364.252	10.92
364.461	9.96
364.671	10.13
364.88	10.01
365.09	10.05
365.299	10.37
365.509	10.44
365.718	9.83
365.927	9.74
366.137	10.14
366.346	10.81
366.555	9.92
366.765	9.66
366.974	10.4
367.183	9.93
367.393	10.13
367.602	9.39
367.811	8.9
368.021	8.96
368.23	8.89
368.439	8.92
368.648	9.09
368.857	10.11
369.067	10.23
369.276	9.93
369.485	10.52
369.694	10.28
369.903	9.93
370.112	9.79
370.321	9.61
370.531	9.79
370.74	10.16
370.949	10.2
371.158	9.4
371.367	9.76
371.576	9
371.785	8.34
371.994	8.21
372.203	8.44
372.412	9.41
372.621	9.72
372.83	10.05
373.039	9.44
373.248	9.09
373.457	9.31
373.666	9.3
373.874	9.49
374.083	9.56
374.292	9.39
374.501	9.41
374.71	8.85
374.919	8.59
375.128	7.37
375.336	7.43
375.545	7.92
375.754	7.63
375.963	7.62
376.171	7.69
376.38	7.69
376.589	7.38
376.798	7.17
377.006	7.64
377.215	7.6
377.424	7.81
377.632	6.94
377.841	6.37
378.05	6.4
378.258	5.95
378.467	6.2
378.675	5.96
378.884	6.48
379.093	6.63
379.301	5.99
379.51	6.06
379.718	6.11
379.927	6.79
380.135	6.64
380.344	6.69
380.552	6.95
380.761	6.68
380.969	7.23
381.177	7.07
381.386	6.72
381.594	6.73
381.803	6.05
382.011	6.52
382.219	6.61
382.428	6.82
382.636	6.56
382.845	6.43
383.053	6.3
383.261	6.21
383.469	5.93
383.678	6.27
383.886	6.23
384.094	6.45
384.302	6.08
384.511	5.94
384.719	5.86
384.927	5.8
385.135	5.5
385.343	5.35
385.552	4.69
385.76	4.6
385.968	4.38
386.176	4.31
386.384	4.26
386.592	4.03
386.8	4.03
387.008	4
387.216	3.79
387.424	3.94
387.633	3.72
387.841	3.95
388.049	4.21
388.257	4.07
388.465	4.33
388.672	4.33
388.88	4.78
389.088	4.94
389.296	4.82
389.504	5.21
389.712	5.17
389.92	5.1
390.128	5.02
390.336	4.81
390.544	4.71
390.751	4.18
390.959	4.15
391.167	4.17
391.375	3.97
391.583	3.89
391.79	4.13
391.998	4.29
392.206	4.64
392.414	5.16
392.621	5.21
392.829	5.5
393.037	5.71
393.244	5.94
393.452	5.49
393.66	5.64
393.867	5.53
394.075	5.38
394.283	4.73
394.49	4.8
394.698	4.63
394.905	4.65
395.113	4.48
395.32	4.54
395.528	4.08
395.735	3.71
395.943	3.25
396.15	3.43
396.358	2.95
396.565	3.37
396.773	3.13
396.98	2.86
397.188	2.92
397.395	3.04
397.602	2.89
397.81	3.36
398.017	3.51
398.225	3.83
398.432	4
398.639	4.34
398.847	4.08
399.054	4.11
399.261	3.91
399.468	3.69
399.676	3.59
399.883	3.5
400.09	3.13
400.297	3.5
400.505	3.69
400.712	3.65
400.919	4.05
401.126	4.37
401.333	4.34
401.54	4.54
401.748	4.47
401.955	4.12
402.162	4.26
402.369	4.39
402.576	4.2
402.783	3.9
402.99	3.51
403.197	3.26
403.404	3.29
403.611	3.49
403.818	3.24
404.025	3.42
404.232	3.54
404.439	3.47
404.646	3.27
404.853	3.53
405.06	3.45
405.267	3.68
405.474	3.44
405.681	3.26
405.887	2.99
406.094	3.09
406.301	3.27
406.508	3.33
406.715	3.79
406.922	4.25
407.128	3.74
407.335	3.47
407.542	3.08
407.749	3.11
407.955	3.15
408.162	3.1
408.369	3.24
408.575	3.13
408.782	2.93
408.989	2.51
409.195	2.23
409.402	2.34
409.609	2.37
409.815	2.39
410.022	2.43
410.228	2.68
410.435	2.63
410.642	2.53
410.848	2.41
411.055	2.47
411.261	2.45
411.468	2.69
411.674	2.95
411.881	3.04
412.087	3.09
412.294	3.29
412.5	3.15
412.706	3.24
412.913	3.04
413.119	2.91
413.326	3.38
413.532	3.35
413.738	2.99
413.945	2.82
414.151	3.12
414.357	3.21
414.564	2.9
414.77	2.94
414.976	3.11
415.182	3.3
415.389	3.61
415.595	3.28
415.801	3.27
416.007	3.28
416.214	3.54
416.42	3.32
416.626	3.39
416.832	3.39
417.038	3.37
417.244	3.46
417.45	3.62
417.657	3.51
417.863	3.53
418.069	3.44
418.275	3.6
418.481	3.54
418.687	3.46
418.893	3.45
419.099	3.63
419.305	3.71
419.511	3.45
419.717	3.3
419.923	3.2
420.129	3.16
420.335	3.25
420.541	3.15
420.746	3.09
420.952	3.14
421.158	3.08
421.364	3.03
421.57	2.96
421.776	3.01
421.982	2.97
422.187	2.92
422.393	2.81
422.599	2.74
422.805	2.76
423.01	2.67
423.216	2.67
423.422	2.59
423.628	2.48
423.833	2.53
424.039	2.38
424.245	2.38
424.45	2.39
424.656	2.56
424.862	2.41
425.067	2.22
425.273	2.33
425.478	2.28
425.684	2.48
425.889	2.4
426.095	2.28
426.301	2.48
426.506	2.49
426.712	2.35
426.917	2.17
427.123	2.49
427.328	2.71
427.533	2.59
427.739	2.58
427.944	2.24
428.15	2.4
428.355	2.16
428.561	1.89
428.766	1.72
428.971	1.98
429.177	2.06
429.382	1.7
429.587	1.71
429.793	1.72
429.998	1.55
430.203	1.55
430.408	1.34
430.614	1.58
430.819	1.66
431.024	1.69
431.229	1.54
431.434	1.59
431.64	1.67
431.845	1.59
432.05	1.52
432.255	1.83
432.46	2.03
432.665	2.16
432.87	2.29
433.076	2.42
433.281	2.53
433.486	2.6
433.691	2.7
433.896	2.67
434.101	2.69
434.306	2.78
434.511	2.67
434.716	2.68
434.921	2.61
435.126	2.36
435.331	2.18
435.535	1.97
435.74	1.89
435.945	1.77
436.15	1.84
436.355	1.9
436.56	1.85
436.765	1.73
436.97	1.64
437.174	1.64
437.379	1.88
437.584	1.98
437.789	2.32
437.993	2.17
438.198	2.25
438.403	2.28
438.608	2.13
438.812	2.15
439.017	2.39
439.222	2.56
439.426	2.56
439.631	2.59
439.836	2.64
440.04	2.65
440.245	2.9
440.45	2.7
440.654	2.49
440.859	2.61
441.063	2.63
441.268	2.66
441.472	2.57
441.677	2.56
441.881	2.39
442.086	2.53
442.29	2.33
442.495	2.4
442.699	2.49
442.904	2.62
443.108	2.6
443.312	2.56
443.517	2.41
443.721	2.39
443.925	2.4
444.13	2.32
444.334	2.04
444.538	2.08
444.743	1.9
444.947	1.99
445.151	2.03
445.356	1.91
445.56	1.69
445.764	1.77
445.968	1.7
446.173	1.61
446.377	1.78
446.581	1.9
446.785	1.9
446.989	1.87
447.193	1.78
447.398	1.75
447.602	1.85
447.806	1.93
448.01	1.87
448.214	1.93
448.418	1.97
448.622	1.87
448.826	1.91
449.03	1.98
449.234	2
449.438	1.96
449.642	1.98
449.846	1.82
450.05	1.99
450.254	2.13
450.458	2.12
450.662	2.2
450.866	2.29
451.069	2.12
451.273	2.23
451.477	2.05
451.681	2.11
451.885	2.16
452.089	2.28
452.292	2.33
452.496	2.17
452.7	2.23
452.904	2.13
453.107	2.18
453.311	2.19
453.515	2.05
453.719	2.38
453.922	2.4
454.126	2.25
454.33	2.19
454.533	2.06
454.737	1.95
454.94	1.79
455.144	1.78
455.348	1.54
455.551	1.49
455.755	1.54
455.958	1.29
456.162	1.02
456.365	1.37
456.569	1.59
456.772	1.74
456.976	1.8
457.179	1.97
457.383	2.1
457.586	2.21
457.79	2.18
457.993	1.97
458.196	2.11
458.4	2.29
458.603	2.17
458.807	2.15
459.01	2.09
459.213	1.98
459.417	2
459.62	1.94
459.823	1.88
460.026	1.83
460.23	2.02
460.433	1.99
460.636	2.02
460.839	2.07
461.042	1.97
461.246	2.12
461.449	2.17
461.652	2.17
461.855	2.22
462.058	2.32
462.261	2.58
462.464	2.47
462.668	2.34
462.871	2.35
463.074	2.26
463.277	2.33
463.48	2.11
463.683	2.23
463.886	1.95
464.089	1.98
464.292	1.69
464.495	1.62
464.698	1.58
