Data from CB_073_Reflection_1.txt Node
Date: Sat Nov 14 11:17:27 EST 2015
User: robert
Spectrometer: USB4E03001
Autoset integration time: false
Trigger mode: 4
Integration Time (sec): 1.000000E-1
Scans to average: 15
Electric dark correction enabled: true
Nonlinearity correction enabled: false
Boxcar width: 5
Stray light correction enabled: false
XAxis mode: Wavelengths
Stop averaging: false
Number of Pixels in Spectrum: 3648
>>>>>Begin Spectral Data<<<<<
177.566	-325.39
177.785	-526.04
178.005	-1700.52
178.225	-400.92
178.445	-343.57
178.665	-532.87
178.885	-11.43
179.105	-136.78
179.324	-183.52
179.544	-431.55
179.764	-132.95
179.984	-154.11
180.204	-185.56
180.423	-562.43
180.643	-226.93
180.863	-340.1
181.083	-1315.5
181.302	-5584.92
181.522	697.58
181.742	865
181.961	894.78
182.181	141.25
182.401	128.65
182.621	219.18
182.84	917.04
183.06	-3346.1
183.279	-376.97
183.499	-247.27
183.719	-306.76
183.938	-165.77
184.158	-119.76
184.377	-99.21
184.597	-40.59
184.816	-19.6
185.036	-35.09
185.256	-68.74
185.475	-197.59
185.695	-143.84
185.914	-123.84
186.134	-121.01
186.353	-109.68
186.572	-104.75
186.792	-380.08
187.011	2874.79
187.231	-1575.65
187.45	-271.53
187.67	-1006.01
187.889	475.08
188.108	293.53
188.328	263.42
188.547	186.57
188.766	165.87
188.986	142.33
189.205	142.67
189.424	177.51
189.644	159.57
189.863	213.51
190.082	224.79
190.302	289.25
190.521	198.7
190.74	196.61
190.959	684.09
191.178	599.52
191.398	525.3
191.617	1432.5
191.836	5313.98
192.055	983.48
192.274	278.3
192.494	454.45
192.713	19925
192.932	-1746.57
193.151	293575
193.37	384.99
193.589	-10115.93
193.808	-915.59
194.027	-1594.08
194.246	3038.57
194.465	-2277.99
194.685	571.26
194.904	443.96
195.123	258.74
195.342	233.07
195.561	231.82
195.78	744.66
195.999	1417.37
196.218	411.59
196.436	98.96
196.655	100.88
196.874	36.08
197.093	96.79
197.312	165.38
197.531	260.81
197.75	303.07
197.969	825.05
198.188	153.32
198.407	119.36
198.625	170.99
198.844	249.58
199.063	342.46
199.282	624.91
199.501	-2322.27
199.719	-1587.67
199.938	824.01
200.157	596.41
200.376	-3410.78
200.594	-251.05
200.813	-687.35
201.032	-1687.5
201.251	-801.83
201.469	-736.02
201.688	-1690.44
201.907	3016.22
202.125	897.66
202.344	3399.39
202.563	15737.68
202.781	894.76
203	313.92
203.218	230.76
203.437	353.74
203.656	295.63
203.874	764.21
204.093	621.8
204.311	395.07
204.53	731.24
204.748	181.53
204.967	299.09
205.185	246.49
205.404	317.09
205.622	476.05
205.841	288.98
206.059	204.39
206.278	120.03
206.496	210.19
206.715	264.44
206.933	277.34
207.151	339.89
207.37	234.51
207.588	287.44
207.806	304.49
208.025	474.29
208.243	625.1
208.461	-33109.09
208.68	1129.02
208.898	634.59
209.116	398.43
209.335	248.85
209.553	263.84
209.771	237.02
209.989	189.66
210.208	160
210.426	122.97
210.644	110.57
210.862	126.24
211.081	136.84
211.299	96.68
211.517	126.3
211.735	101.38
211.953	94.09
212.171	102.39
212.39	93.3
212.608	97.57
212.826	117.5
213.044	127.3
213.262	122.51
213.48	128.69
213.698	221.78
213.916	119.05
214.134	236.48
214.352	436.45
214.57	217.13
214.788	232.73
215.006	194.27
215.224	290.23
215.442	740.3
215.66	1483.09
215.878	261.81
216.096	95.78
216.314	497.17
216.532	1861.93
216.75	-456.8
216.968	-774.21
217.185	-7815.04
217.403	2099.68
217.621	-133077.78
217.839	-829.6
218.057	-25358.33
218.275	-1072.33
218.492	-196.16
218.71	-2757.91
218.928	1484.42
219.146	926.46
219.363	511.5
219.581	442.37
219.799	-1916.82
220.017	226.31
220.234	269.31
220.452	321.82
220.67	464
220.887	212.51
221.105	403.05
221.323	275.84
221.54	184.68
221.758	161.87
221.976	148.67
222.193	91.06
222.411	89.08
222.629	80.32
222.846	74.15
223.064	62.15
223.281	62.79
223.499	61.36
223.716	54.31
223.934	46.79
224.151	70.78
224.369	78.26
224.586	107.95
224.804	127.71
225.021	125.73
225.239	118.67
225.456	125.96
225.674	118.41
225.891	108.89
226.108	90.36
226.326	83.3
226.543	68.47
226.76	54.86
226.978	42.71
227.195	48.04
227.413	43.47
227.63	47.55
227.847	41.73
228.064	39.52
228.282	35.08
228.499	35.94
228.716	33.8
228.934	33.28
229.151	34.41
229.368	35.27
229.585	28.72
229.802	26.87
230.02	24.35
230.237	24.24
230.454	21.05
230.671	18.58
230.888	19.31
231.105	18.34
231.323	20.17
231.54	23.19
231.757	21.47
231.974	26.96
232.191	32.54
232.408	29.68
232.625	34.35
232.842	37.38
233.059	40.02
233.276	42.96
233.493	44.41
233.71	40.69
233.927	32.42
234.144	35.94
234.361	36.04
234.578	32.6
234.795	32.44
235.012	29.29
235.229	24.49
235.446	28.59
235.663	28.56
235.879	26.2
236.096	31.98
236.313	41.02
236.53	31.98
236.747	32.3
236.964	32.21
237.181	41.63
237.397	46.28
237.614	60.66
237.831	65.07
238.048	67.04
238.264	67.92
238.481	59.11
238.698	51.52
238.915	56.93
239.131	49.17
239.348	48.94
239.565	44.65
239.781	41.84
239.998	37.58
240.215	31.38
240.431	26.32
240.648	28.37
240.865	28.47
241.081	28.5
241.298	25.93
241.514	26.98
241.731	24.25
241.947	22.34
242.164	20.52
242.38	16.34
242.597	15.42
242.814	15.67
243.03	17.3
243.246	17.14
243.463	17.63
243.679	18.13
243.896	16.48
244.112	17.44
244.329	17.81
244.545	20.92
244.762	21.13
244.978	22.99
245.194	21.58
245.411	17.45
245.627	16.97
245.843	18.21
246.06	17.83
246.276	18.03
246.492	19.11
246.709	18.93
246.925	17.43
247.141	18.55
247.357	18.16
247.574	18.34
247.79	17.86
248.006	17.25
248.222	17.65
248.439	16.95
248.655	16.95
248.871	16.24
249.087	16.43
249.303	17.69
249.519	17.14
249.736	19.41
249.952	21.27
250.168	25.48
250.384	26.23
250.6	24.55
250.816	25.75
251.032	24.77
251.248	24.32
251.464	25.25
251.68	21.15
251.896	21.28
252.112	17.91
252.328	16.6
252.544	16.64
252.76	17.84
252.976	16.99
253.192	15.96
253.408	18.7
253.624	18.58
253.84	18.64
254.056	19.8
254.272	20.43
254.487	18.4
254.703	16.64
254.919	13.73
255.135	16.26
255.351	18
255.567	18.85
255.782	19
255.998	17.91
256.214	12.67
256.43	12.5
256.646	13.07
256.861	17.35
257.077	15.7
257.293	16.72
257.508	16.02
257.724	16.89
257.94	17.04
258.155	14.95
258.371	13.88
258.587	15.26
258.802	16.43
259.018	15.36
259.234	14.51
259.449	15.89
259.665	14.85
259.88	13.87
260.096	12.84
260.312	11.71
260.527	12.15
260.743	12.96
260.958	12.91
261.174	13.82
261.389	14.85
261.605	14.11
261.82	12.88
262.036	13.06
262.251	14.46
262.466	15.27
262.682	16.7
262.897	15.94
263.113	16.42
263.328	15.97
263.543	14.44
263.759	14.21
263.974	16.12
264.189	17.29
264.405	14.97
264.62	13.33
264.835	12.21
265.051	15.29
265.266	15.83
265.481	15.28
265.696	18.54
265.912	17.03
266.127	16.19
266.342	15.74
266.557	15.68
266.773	17.26
266.988	17.22
267.203	17.84
267.418	15.53
267.633	15.7
267.848	15.72
268.064	11.79
268.279	10.76
268.494	8.55
268.709	8.15
268.924	10.75
269.139	9.91
269.354	9.97
269.569	8.35
269.784	9.28
269.999	9.18
270.214	9.82
270.429	11.19
270.644	13.16
270.859	13.73
271.074	14.19
271.289	12.04
271.504	13.95
271.719	13.63
271.934	15.15
272.149	15.25
272.363	16.21
272.578	15.21
272.793	15.31
273.008	14.34
273.223	14.6
273.438	13.49
273.653	13.81
273.867	12.75
274.082	13.48
274.297	13.38
274.512	14.3
274.726	13.67
274.941	13.6
275.156	15.04
275.371	15.49
275.585	16.78
275.8	19.54
276.015	18.99
276.229	20.32
276.444	19.81
276.659	19.29
276.873	17.68
277.088	18.09
277.302	18.88
277.517	16.66
277.732	16.45
277.946	16.05
278.161	14.63
278.375	14.66
278.59	12.83
278.804	13.14
279.019	13.84
279.233	14.23
279.448	11.89
279.662	9.67
279.877	10.22
280.091	9.02
280.306	9.19
280.52	8.14
280.735	7.94
280.949	10.28
281.163	10.14
281.378	8.74
281.592	8.57
281.806	8.75
282.021	10.63
282.235	10.83
282.449	11.94
282.664	10.77
282.878	11.39
283.092	11.27
283.307	9.76
283.521	8.14
283.735	9.53
283.949	9.96
284.164	10.58
284.378	10.13
284.592	10.02
284.806	9.37
285.02	9.66
285.234	8.46
285.449	8.53
285.663	8.82
285.877	9.99
286.091	9.44
286.305	10.04
286.519	10.35
286.733	10.71
286.947	12
287.161	12.17
287.375	11.58
287.589	13.87
287.803	15.11
288.017	15.28
288.231	14.7
288.445	15.04
288.659	14.52
288.873	15.66
289.087	16.72
289.301	16.74
289.515	15.99
289.729	15.86
289.943	15.11
290.157	15.24
290.371	15.48
290.584	16.31
290.798	16.23
291.012	16.38
291.226	15.72
291.44	14.61
291.654	12.67
291.867	12.73
292.081	13.98
292.295	13.36
292.509	12.39
292.722	10.47
292.936	8.84
293.15	8.61
293.364	6.84
293.577	6.72
293.791	7.41
294.005	8.29
294.218	10.72
294.432	10.66
294.645	10.93
294.859	10.42
295.073	11.89
295.286	12.74
295.5	12.55
295.713	12.65
295.927	11.95
296.14	10.36
296.354	9.78
296.568	8.97
296.781	8.46
296.994	8.76
297.208	8.85
297.421	9.14
297.635	10.15
297.848	9.99
298.062	10.33
298.275	11
298.489	12.18
298.702	13.23
298.915	12.57
299.129	13.2
299.342	13.48
299.555	14.36
299.769	14.16
299.982	12.3
300.195	13.14
300.409	13.66
300.622	12.73
300.835	11.43
301.048	10.17
301.262	10.8
301.475	10.85
301.688	10.52
301.901	10.29
302.115	9.83
302.328	10.82
302.541	10.09
302.754	10.44
302.967	11.14
303.18	12.22
303.393	12.15
303.607	12.14
303.82	11.55
304.033	11.6
304.246	12.37
304.459	12.65
304.672	12.63
304.885	13.72
305.098	13.19
305.311	13.17
305.524	13.14
305.737	13.22
305.95	13.87
306.163	14.46
306.376	14.68
306.589	13.71
306.802	14.12
307.015	14.6
307.228	14.22
307.44	14.4
307.653	14.43
307.866	14.49
308.079	15.36
308.292	13.71
308.505	13.85
308.718	14.3
308.93	15.48
309.143	15.63
309.356	15.21
309.569	15.36
309.781	15.37
309.994	15.87
310.207	15.99
310.42	15.05
310.632	15.88
310.845	15.55
311.058	15.12
311.27	14.16
311.483	13.65
311.696	13.08
311.908	12.33
312.121	12.51
312.333	12.75
312.546	12.03
312.759	11.87
312.971	11.42
313.184	12.28
313.396	12.09
313.609	12.04
313.821	12.43
314.034	13.06
314.246	12.97
314.459	12.89
314.671	11.27
314.884	11.94
315.096	12.78
315.309	13.18
315.521	12.88
315.733	12.79
315.946	12.44
316.158	11.91
316.371	11.98
316.583	11.61
316.795	10.35
317.008	12.16
317.22	11.39
317.432	11.82
317.644	12.59
317.857	12.67
318.069	13.1
318.281	13.8
318.494	14.76
318.706	15.71
318.918	17.39
319.13	17.84
319.342	16.49
319.555	16.12
319.767	16.24
319.979	15.14
320.191	13.77
320.403	14.73
320.615	16.29
320.827	15.4
321.039	13.51
321.252	15.01
321.464	16.03
321.676	16.95
321.888	18.51
322.1	18.81
322.312	18.69
322.524	19.51
322.736	17.77
322.948	17.27
323.16	17.88
323.372	19.9
323.584	18.56
323.796	18.89
324.007	18.54
324.219	18.74
324.431	19.58
324.643	21.88
324.855	24.08
325.067	24.5
325.279	23.33
325.491	24.18
325.702	24.42
325.914	24.63
326.126	25.48
326.338	24.05
326.55	23.79
326.761	22.84
326.973	21.85
327.185	20.41
327.396	21.96
327.608	24.21
327.82	23.51
328.032	23.34
328.243	24.12
328.455	24.61
328.666	27.12
328.878	27.61
329.09	29.2
329.301	29.35
329.513	29.75
329.725	29.1
329.936	28.03
330.148	27.78
330.359	28.66
330.571	29.28
330.782	28.66
330.994	29.72
331.205	30.24
331.417	30.46
331.628	30.56
331.84	32.03
332.051	33.56
332.262	34.46
332.474	35.26
332.685	35.95
332.897	35.67
333.108	36.07
333.319	34.68
333.531	35.57
333.742	34.8
333.953	35.47
334.165	34.94
334.376	35.19
334.587	36.09
334.799	35.88
335.01	34.81
335.221	34.12
335.432	32.94
335.644	33.71
335.855	33.77
336.066	34.6
336.277	35.57
336.488	35.15
336.7	34.25
336.911	33.66
337.122	34.05
337.333	34.48
337.544	35
337.755	35.55
337.966	35.39
338.177	34.27
338.388	33.48
338.599	32.33
338.811	31.51
339.022	31.33
339.233	30.88
339.444	30.39
339.655	29.53
339.866	30.08
340.076	29.75
340.287	28.5
340.498	28.71
340.709	29.66
340.92	30.27
341.131	31
341.342	30.88
341.553	30.33
341.764	31.9
341.975	32.41
342.185	31.47
342.396	31.78
342.607	32.76
342.818	33.11
343.029	32.74
343.239	32.45
343.45	32.73
343.661	33.1
343.872	33.58
344.082	32.73
344.293	32.33
344.504	32.4
344.714	32.43
344.925	32.71
345.136	32.13
345.346	30.8
345.557	30.12
345.768	29.66
345.978	29.95
346.189	29.91
346.399	29.12
346.61	28.52
346.821	28.28
347.031	28.72
347.242	28.58
347.452	28.25
347.663	28.95
347.873	29.31
348.084	29.35
348.294	28.37
348.504	27.98
348.715	28.98
348.925	29.78
349.136	28.83
349.346	28.04
349.557	27.71
349.767	29.28
349.977	29.66
350.188	29.5
350.398	30.04
350.608	30.56
350.819	31.31
351.029	31.07
351.239	31.69
351.449	32.94
351.66	32.89
351.87	32.79
352.08	31.87
352.29	32.3
352.501	31.86
352.711	30.71
352.921	31.02
353.131	29.36
353.341	29.13
353.552	28.07
353.762	27.34
353.972	27.42
354.182	28.56
354.392	28.25
354.602	28.04
354.812	28.45
355.022	28.49
355.232	28.66
355.442	29.7
355.652	29.76
355.862	29.72
356.072	30.53
356.282	30.29
356.492	29.12
356.702	28.94
356.912	28.78
357.122	30.02
357.332	29.87
357.542	29.39
357.752	28.81
357.962	28.91
358.171	29.22
358.381	28.43
358.591	28.66
358.801	28.75
359.011	28.83
359.221	28.05
359.43	26.84
359.64	26.68
359.85	26.13
360.06	26.66
360.269	26.33
360.479	26.23
360.689	26.46
360.899	26.54
361.108	26.51
361.318	26.27
361.528	26.78
361.737	26.59
361.947	26.93
362.156	27.11
362.366	26.73
362.576	26.53
362.785	26.5
362.995	26.33
363.204	26.3
363.414	26.43
363.623	26.56
363.833	26.7
364.042	26.69
364.252	26.8
364.461	26.58
364.671	26.57
364.88	26.8
365.09	27.05
365.299	26.94
365.509	26.95
365.718	26.1
365.927	26.37
366.137	25.53
366.346	25.91
366.555	25.09
366.765	25.4
366.974	25.53
367.183	24.1
367.393	22.53
367.602	22.56
367.811	22.58
368.021	23.57
368.23	23.41
368.439	23.7
368.648	22.65
368.857	22.98
369.067	22.7
369.276	22.59
369.485	23.95
369.694	25.76
369.903	26.2
370.112	25.91
370.321	25.31
370.531	24.79
370.74	24.77
370.949	25.18
371.158	25.16
371.367	24.91
371.576	24.86
371.785	24.54
371.994	24
372.203	23.49
372.412	23.3
372.621	23.66
372.83	24.21
373.039	24.39
373.248	24.08
373.457	24.57
373.666	24.38
373.874	23.84
374.083	23.59
374.292	23.45
374.501	23.45
374.71	23.35
374.919	23.04
375.128	22.66
375.336	22.33
375.545	22.62
375.754	22.12
375.963	22.2
376.171	22.51
376.38	22.35
376.589	21.56
376.798	20.84
377.006	21.08
377.215	21.18
377.424	21.26
377.632	20.69
377.841	20.53
378.05	20.59
378.258	20.84
378.467	20.44
378.675	20.48
378.884	21.36
379.093	21.43
379.301	21.26
379.51	20.85
379.718	20.8
379.927	21.38
380.135	21
380.344	20.07
380.552	20.24
380.761	20.26
380.969	20.12
381.177	19.48
381.386	20.36
381.594	19.73
381.803	19.62
382.011	19.31
382.219	18.99
382.428	19.25
382.636	19.68
382.845	18.56
383.053	19.2
383.261	19.41
383.469	19.51
383.678	19.12
383.886	19.13
384.094	19.28
384.302	19.34
384.511	19.43
384.719	19.39
384.927	19.36
385.135	19.99
385.343	19.31
385.552	18.95
385.76	18.74
385.968	18.14
386.176	18.06
386.384	17.61
386.592	17.25
386.8	17.01
387.008	16.81
387.216	16.62
387.424	16.58
387.633	16.67
387.841	17.04
388.049	17.61
388.257	17.69
388.465	17.42
388.672	17.79
388.88	17.81
389.088	17.68
389.296	17.58
389.504	17.5
389.712	17.34
389.92	17.12
390.128	17.02
390.336	16.44
390.544	16.52
390.751	16.82
390.959	16.33
391.167	16.29
391.375	16.17
391.583	15.74
391.79	15.88
391.998	15.82
392.206	15.75
392.414	15.23
392.621	15.31
392.829	15.3
393.037	14.91
393.244	14.82
393.452	14.75
393.66	14.89
393.867	15.11
394.075	14.89
394.283	14.4
394.49	14.08
394.698	14.29
394.905	14.1
395.113	14.08
395.32	14.06
395.528	14.26
395.735	14.27
395.943	13.96
396.15	13.93
396.358	13.77
396.565	13.89
396.773	13.94
396.98	13.68
397.188	13.71
397.395	13.51
397.602	13.81
397.81	13.44
398.017	13.4
398.225	13.88
398.432	13.9
398.639	13.72
398.847	13.57
399.054	13.76
399.261	13.84
399.468	13.45
399.676	13.44
399.883	13.05
400.09	13.18
400.297	13.07
400.505	13.01
400.712	12.94
400.919	13.38
401.126	13.58
401.333	13.45
401.54	13.41
401.748	13.76
401.955	13.71
402.162	13.67
402.369	13.6
402.576	13.7
402.783	13.15
402.99	13.44
403.197	12.94
403.404	12.89
403.611	13
403.818	13.09
404.025	12.66
404.232	12.81
404.439	12.91
404.646	12.92
404.853	12.6
405.06	12.8
405.267	12.48
405.474	12.63
405.681	12.88
405.887	12.43
406.094	12.54
406.301	12.65
406.508	12.79
406.715	13.08
406.922	12.92
407.128	13.43
407.335	13.23
407.542	13.14
407.749	13.42
407.955	13.3
408.162	13.45
408.369	13.11
408.575	13.45
408.782	13.25
408.989	12.77
409.195	12.9
409.402	12.63
409.609	12.38
409.815	12.38
410.022	12.04
410.228	12.15
410.435	12.35
410.642	12.63
410.848	12.43
411.055	12.26
411.261	12.49
411.468	12.71
411.674	12.51
411.881	12.67
412.087	12.56
412.294	12.81
412.5	12.66
412.706	12.64
412.913	12.26
413.119	12.12
413.326	11.8
413.532	11.67
413.738	11.26
413.945	10.83
414.151	11.24
414.357	11.38
414.564	11.21
414.77	11.1
414.976	10.96
415.182	11.46
415.389	11.42
415.595	11.42
415.801	11.32
416.007	11.61
416.214	11.75
416.42	11.51
416.626	11.44
416.832	11.43
417.038	11.25
417.244	11.31
417.45	10.86
417.657	10.86
417.863	10.69
418.069	10.8
418.275	10.75
418.481	10.73
418.687	10.68
418.893	10.6
419.099	10.57
419.305	10.57
419.511	10.53
419.717	10.54
419.923	10.39
420.129	10.53
420.335	10.54
420.541	10.56
420.746	10.63
420.952	10.66
421.158	10.66
421.364	10.51
421.57	10.47
421.776	10.44
421.982	10.58
422.187	10.56
422.393	10.5
422.599	10.44
422.805	10.31
423.01	10.29
423.216	10.12
423.422	10.22
423.628	10.31
423.833	10.27
424.039	10.21
424.245	10.19
424.45	10.22
424.656	10.2
424.862	10.2
425.067	10.11
425.273	10.13
425.478	10.15
425.684	9.99
425.889	10.05
426.095	10.19
426.301	10.23
426.506	10.08
426.712	10.14
426.917	10.29
427.123	10.15
427.328	10.24
427.533	10.2
427.739	10.28
427.944	10.42
428.15	10.35
428.355	9.96
428.561	9.96
428.766	9.95
428.971	9.84
429.177	9.66
429.382	9.73
429.587	9.87
429.793	9.78
429.998	9.69
430.203	9.49
430.408	9.57
430.614	9.99
430.819	9.7
431.024	9.65
431.229	9.67
431.434	9.71
431.64	9.57
431.845	9.61
432.05	9.69
432.255	9.53
432.46	9.76
432.665	9.46
432.87	9.3
433.076	9.51
433.281	9.68
433.486	9.57
433.691	9.66
433.896	9.69
434.101	9.4
434.306	9.35
434.511	9.52
434.716	9.4
434.921	9.66
435.126	9.75
435.331	9.59
435.535	9.63
435.74	9.62
435.945	9.56
436.15	9.58
436.355	9.76
436.56	9.88
436.765	10.05
436.97	9.91
437.174	9.94
437.379	9.83
437.584	9.93
437.789	9.81
437.993	10.03
438.198	9.85
438.403	9.86
438.608	9.81
438.812	9.66
439.017	9.47
439.222	9.49
439.426	9.38
439.631	9.34
439.836	9.38
440.04	9.34
440.245	9.4
440.45	9.68
440.654	9.63
440.859	9.54
441.063	9.57
441.268	9.58
441.472	9.57
441.677	9.42
441.881	9.44
442.086	9.5
442.29	9.46
442.495	9.36
442.699	9.28
442.904	9.35
443.108	9.48
443.312	9.48
443.517	9.54
443.721	9.63
443.925	9.77
444.13	9.75
444.334	9.48
444.538	9.55
444.743	9.51
444.947	9.38
445.151	9.37
445.356	9.3
445.56	9.37
445.764	9.19
445.968	9.16
446.173	9.16
446.377	9.03
446.581	9.18
446.785	9.15
446.989	9.23
447.193	9.15
447.398	9.25
447.602	9.09
447.806	8.99
448.01	9.17
448.214	9.33
448.418	9.2
448.622	9.44
448.826	9.42
449.03	9.4
449.234	9.39
449.438	9.59
449.642	9.4
449.846	9.65
450.05	9.6
450.254	9.38
450.458	9.15
450.662	9.34
450.866	9.07
451.069	9.11
451.273	9.12
451.477	8.97
451.681	8.95
451.885	8.91
452.089	9.01
452.292	8.99
452.496	9.06
452.7	9.13
452.904	9.26
453.107	9.45
453.311	9.42
453.515	9.4
453.719	9.56
453.922	9.61
454.126	9.78
454.33	9.53
454.533	9.59
454.737	9.55
454.94	9.53
455.144	9.52
455.348	9.47
455.551	9.4
455.755	9.38
