Data from CB_067_Reflection_1.txt Node
Date: Sat Nov 14 10:49:21 EST 2015
User: robert
Spectrometer: USB4E03001
Autoset integration time: false
Trigger mode: 4
Integration Time (sec): 1.000000E-1
Scans to average: 15
Electric dark correction enabled: true
Nonlinearity correction enabled: false
Boxcar width: 5
Stray light correction enabled: false
XAxis mode: Wavelengths
Stop averaging: false
Number of Pixels in Spectrum: 3648
>>>>>Begin Spectral Data<<<<<
177.566	-101.92
177.785	-217.85
178.005	-1124.81
178.225	-189.91
178.445	-217.35
178.665	-472.27
178.885	201.59
179.105	40.72
179.324	110.39
179.544	-26.19
179.764	23.58
179.984	-1.58
180.204	-4.65
180.423	-38.86
180.643	-25.26
180.863	-86.98
181.083	-839.13
181.302	-2429.37
181.522	139.52
181.742	429.8
181.961	561.72
182.181	123.86
182.401	91.01
182.621	115.18
182.84	728.49
183.06	-1042.03
183.279	-107.23
183.499	-20.68
183.719	-54.91
183.938	-4.9
184.158	38.27
184.377	29.59
184.597	44.15
184.816	62.22
185.036	80.11
185.256	129.96
185.475	145.97
185.695	188.61
185.914	247.64
186.134	220.41
186.353	153
186.572	80.37
186.792	338.26
187.011	-2034.87
187.231	1483.77
187.45	144.27
187.67	157.56
187.889	115.48
188.108	156.61
188.328	166.93
188.547	108.73
188.766	80.11
188.986	60.78
189.205	68.87
189.424	88.31
189.644	98.63
189.863	105.23
190.082	96.45
190.302	128.43
190.521	97.34
190.74	93.92
190.959	180.54
191.178	-0.48
191.398	69.96
191.617	167.21
191.836	1540.86
192.055	291.64
192.274	101.62
192.494	129.66
192.713	-383.93
192.932	-76.79
193.151	43700
193.37	76.82
193.589	-3571.68
193.808	-80.11
194.027	-157.73
194.246	-43.24
194.465	312.5
194.685	-48.82
194.904	-94.83
195.123	13.18
195.342	35.46
195.561	-4.93
195.78	-52.12
195.999	-554.58
196.218	-208.84
196.436	-425.24
196.655	-116.75
196.874	-78.67
197.093	-127.59
197.312	12.43
197.531	-92.13
197.75	-184.52
197.969	-232.88
198.188	25.16
198.407	38.05
198.625	58.79
198.844	158.56
199.063	158.77
199.282	393.65
199.501	-1789.84
199.719	-494.83
199.938	317.66
200.157	79.36
200.376	-344.31
200.594	25.38
200.813	-159.51
201.032	-58.93
201.251	110.18
201.469	82.81
201.688	-403.62
201.907	1052.33
202.125	291.02
202.344	551.06
202.563	5566.67
202.781	363.79
203	111.45
203.218	49.57
203.437	134.78
203.656	156.86
203.874	357.19
204.093	256.72
204.311	164.16
204.53	379.17
204.748	161.38
204.967	210.01
205.185	181.56
205.404	294.64
205.622	379.66
205.841	192.84
206.059	143.42
206.278	138.11
206.496	178.5
206.715	242.12
206.933	180.52
207.151	195.61
207.37	115.75
207.588	118.76
207.806	76.59
208.025	185.85
208.243	245.51
208.461	-9363.64
208.68	-14.64
208.898	54.7
209.116	54.74
209.335	63.34
209.553	44.41
209.771	83.5
209.989	83.13
210.208	81.81
210.426	27.22
210.644	50.88
210.862	47.53
211.081	62.79
211.299	59.17
211.517	52.86
211.735	26.39
211.953	23.02
212.171	22.65
212.39	-2.77
212.608	0.37
212.826	39.03
213.044	27.09
213.262	36.17
213.48	24.71
213.698	24.91
213.916	2.77
214.134	23.17
214.352	88.35
214.57	42.02
214.788	57.93
215.006	55.62
215.224	32.74
215.442	9.65
215.66	113.81
215.878	-12.21
216.096	-9.16
216.314	130.75
216.532	344.67
216.75	-75.83
216.968	-147.77
217.185	-1121.24
217.403	911.78
217.621	-36755.56
217.839	-225.36
218.057	-7406.25
218.275	-203.12
218.492	-28.53
218.71	-1273.73
218.928	1141.41
219.146	612.58
219.363	430.76
219.581	463.31
219.799	-2059.19
220.017	271.06
220.234	313.86
220.452	347.52
220.67	418.43
220.887	159.32
221.105	256.75
221.323	142.72
221.54	114.11
221.758	92.1
221.976	91.41
222.193	53.38
222.411	55.77
222.629	63.12
222.846	47.02
223.064	55.8
223.281	71.98
223.499	58.97
223.716	53
223.934	34.68
224.151	30.48
224.369	38.43
224.586	49.03
224.804	65.67
225.021	69.21
225.239	67.65
225.456	70.89
225.674	64.35
225.891	70.63
226.108	65.61
226.326	68.6
226.543	62.34
226.76	44.1
226.978	37.99
227.195	33.85
227.413	26.75
227.63	30.08
227.847	29.28
228.064	27.87
228.282	24
228.499	23.11
228.716	19.69
228.934	19.62
229.151	21.11
229.368	17.98
229.585	17.44
229.802	15.26
230.02	13.95
230.237	13.14
230.454	13.2
230.671	14.46
230.888	15.7
231.105	16.95
231.323	17.66
231.54	21.28
231.757	27.17
231.974	29.3
232.191	36.23
232.408	34.89
232.625	40.27
232.842	32.63
233.059	29.57
233.276	25.67
233.493	26.57
233.71	25.06
233.927	19.07
234.144	18.28
234.361	17.76
234.578	16.95
234.795	17.19
235.012	11.64
235.229	9.53
235.446	12.77
235.663	14.06
235.879	13.06
236.096	15.92
236.313	19.49
236.53	8.33
236.747	9.43
236.964	5.47
237.181	14.55
237.397	16.63
237.614	23.25
237.831	31.18
238.048	34.16
238.264	33.57
238.481	32.58
238.698	30.72
238.915	38.17
239.131	28.54
239.348	25.87
239.565	18.56
239.781	13.35
239.998	10.29
240.215	5.6
240.431	4.84
240.648	6.39
240.865	5.1
241.081	7.63
241.298	7.81
241.514	11.84
241.731	12.47
241.947	12.17
242.164	13.17
242.38	10.85
242.597	9.84
242.814	11.24
243.03	13.84
243.246	13.61
243.463	12.98
243.679	12.88
243.896	12.69
244.112	12.67
244.329	13.6
244.545	16.35
244.762	17.61
244.978	17.81
245.194	14.14
245.411	12.28
245.627	14.44
245.843	15.73
246.06	15.75
246.276	15.32
246.492	16.69
246.709	17.22
246.925	17.35
247.141	18.74
247.357	18.59
247.574	19.39
247.79	18.31
248.006	17.32
248.222	16.71
248.439	15.07
248.655	14.72
248.871	13.5
249.087	13.19
249.303	12.48
249.519	11.31
249.736	11.08
249.952	9.39
250.168	11.94
250.384	13.13
250.6	11.63
250.816	15.02
251.032	15.06
251.248	16.23
251.464	17.31
251.68	17.33
251.896	15
252.112	15.55
252.328	13.83
252.544	11.13
252.76	11.07
252.976	11.89
253.192	11.99
253.408	12.43
253.624	10.79
253.84	9.41
254.056	6.37
254.272	8.23
254.487	5.86
254.703	5.62
254.919	4.42
255.135	4.62
255.351	5.96
255.567	5.16
255.782	4.62
255.998	5.95
256.214	2.39
256.43	2.35
256.646	1.57
256.861	1.18
257.077	2.41
257.293	4.97
257.508	3.5
257.724	4.65
257.94	3.13
258.155	4.22
258.371	5.18
258.587	6.03
258.802	8.25
259.018	9.29
259.234	10.6
259.449	11.25
259.665	11.12
259.88	11.99
260.096	12.34
260.312	12.27
260.527	12.51
260.743	12.81
260.958	13.1
261.174	13.29
261.389	14.17
261.605	13.56
261.82	12.61
262.036	12.99
262.251	11.28
262.466	8.16
262.682	7.86
262.897	5.58
263.113	4.84
263.328	2.7
263.543	1.85
263.759	-0.57
263.974	-0.37
264.189	0.82
264.405	-1.69
264.62	0.18
264.835	1.83
265.051	4
265.266	5.84
265.481	7.32
265.696	11.93
265.912	10.18
266.127	10.13
266.342	10.46
266.557	11.3
266.773	12.97
266.988	11.81
267.203	12.38
267.418	11.69
267.633	11.17
267.848	10.24
268.064	6.96
268.279	9.15
268.494	8.17
268.709	6.51
268.924	7.09
269.139	4.48
269.354	6.49
269.569	5.51
269.784	7.04
269.999	7.18
270.214	7.85
270.429	9.46
270.644	9.05
270.859	9.82
271.074	9.57
271.289	10.1
271.504	11.51
271.719	10.94
271.934	10.56
272.149	9.47
272.363	10.4
272.578	8.92
272.793	8.36
273.008	7.36
273.223	6.03
273.438	6.59
273.653	5.36
273.867	5.61
274.082	6.21
274.297	6.75
274.512	8.36
274.726	7.11
274.941	7.45
275.156	10.06
275.371	10.9
275.585	12.5
275.8	13.23
276.015	13.21
276.229	13.41
276.444	12.24
276.659	11.67
276.873	8.9
277.088	10.38
277.302	11.82
277.517	10.16
277.732	10.5
277.946	10.43
278.161	10.34
278.375	10.2
278.59	8.43
278.804	8.31
279.019	10.59
279.233	11.58
279.448	9.35
279.662	9.91
279.877	10.43
280.091	8.69
280.306	9.42
280.52	7.2
280.735	7.19
280.949	9.66
281.163	10.67
281.378	9.12
281.592	8.56
281.806	9.56
282.021	7.96
282.235	6.34
282.449	8.07
282.664	8.83
282.878	10.97
283.092	11.21
283.307	9.82
283.521	8.83
283.735	8.66
283.949	9.95
284.164	9.73
284.378	9.92
284.592	10.52
284.806	10.95
285.02	9.82
285.234	8.16
285.449	8.76
285.663	9.6
285.877	9.59
286.091	9.82
286.305	9.3
286.519	9.11
286.733	9.85
286.947	11.29
287.161	11.17
287.375	11.02
287.589	13.31
287.803	13.43
288.017	13.23
288.231	13.98
288.445	14.1
288.659	14.63
288.873	15.23
289.087	14.52
289.301	13.81
289.515	12.35
289.729	12.95
289.943	12.95
290.157	13.26
290.371	12.48
290.584	12.6
290.798	12.82
291.012	12.65
291.226	11.88
291.44	12.67
291.654	12.45
291.867	12.38
292.081	12.4
292.295	11.86
292.509	11.79
292.722	11.42
292.936	10.35
293.15	10.45
293.364	10.36
293.577	11.83
293.791	11.13
294.005	10.28
294.218	12.03
294.432	11.87
294.645	11.73
294.859	9.93
295.073	11.25
295.286	12.27
295.5	12.55
295.713	12.1
295.927	12.01
296.14	10.78
296.354	10.91
296.568	10.31
296.781	10.22
296.994	10.56
297.208	10.46
297.421	9.65
297.635	9.55
297.848	9.42
298.062	8.78
298.275	8.31
298.489	9.28
298.702	10.82
298.915	10.36
299.129	10.22
299.342	10.27
299.555	12.27
299.769	13.3
299.982	13.13
300.195	13.29
300.409	13.79
300.622	13.82
300.835	13.08
301.048	11.35
301.262	11.59
301.475	11.78
301.688	11.09
301.901	8.68
302.115	9.21
302.328	9.09
302.541	8.53
302.754	10.75
302.967	9.84
303.18	11.59
303.393	11.69
303.607	11.83
303.82	12.92
304.033	12.88
304.246	14.41
304.459	13.89
304.672	14.93
304.885	16.26
305.098	15.69
305.311	17.36
305.524	16.67
305.737	16.74
305.95	16.73
306.163	16.49
306.376	15.91
306.589	16.11
306.802	16.04
307.015	15.66
307.228	14.54
307.44	13.65
307.653	13.25
307.866	12.89
308.079	13.45
308.292	12.73
308.505	12.64
308.718	14.27
308.93	14.61
309.143	13.84
309.356	14.01
309.569	14.37
309.781	14.34
309.994	14.73
310.207	14.97
310.42	14.94
310.632	16.27
310.845	16.27
311.058	15.18
311.27	14.53
311.483	15.15
311.696	14.38
311.908	13.45
312.121	13.84
312.333	13.96
312.546	13.53
312.759	12.47
312.971	11.05
313.184	10.35
313.396	11.09
313.609	10.83
313.821	11.73
314.034	11.81
314.246	12.17
314.459	11.91
314.671	11.75
314.884	11.76
315.096	13.63
315.309	13.87
315.521	15.37
315.733	14.88
315.946	14.94
316.158	13.85
316.371	14.06
316.583	13.31
316.795	12.6
317.008	12
317.22	13
317.432	11.44
317.644	12.91
317.857	12.02
318.069	12.67
318.281	13.18
318.494	13.46
318.706	15.74
318.918	18.38
319.13	17.65
319.342	17.17
319.555	16.38
319.767	17.07
319.979	15.99
320.191	15.67
320.403	14.93
320.615	16.4
320.827	16.62
321.039	14.45
321.252	14.76
321.464	16.27
321.676	16.97
321.888	17.92
322.1	17.8
322.312	17.79
322.524	18.22
322.736	16.8
322.948	16.16
323.16	15.51
323.372	15.79
323.584	14.78
323.796	13.18
324.007	13.88
324.219	13.96
324.431	15.62
324.643	17.19
324.855	17.33
325.067	18.33
325.279	18.03
325.491	19.14
325.702	20.31
325.914	20.11
326.126	22.1
326.338	20.15
326.55	20.41
326.761	18.87
326.973	18.31
327.185	19.09
327.396	21.71
327.608	21.63
327.82	20.9
328.032	20.64
328.243	20.75
328.455	21.51
328.666	22.88
328.878	23.48
329.09	23.92
329.301	23.35
329.513	22.36
329.725	20.86
329.936	21.74
330.148	21.7
330.359	21.69
330.571	23.65
330.782	22.98
330.994	24.48
331.205	24.05
331.417	25.76
331.628	27.07
331.84	27.91
332.051	28.26
332.262	28
332.474	28.51
332.685	28.38
332.897	27.04
333.108	27.84
333.319	26.56
333.531	26.17
333.742	25.46
333.953	24.9
334.165	25.08
334.376	25.15
334.587	25.27
334.799	24.75
335.01	24.45
335.221	24.87
335.432	23.24
335.644	23.72
335.855	24.77
336.066	24.78
336.277	25.31
336.488	24.72
336.7	23.94
336.911	24.07
337.122	24.22
337.333	24.99
337.544	24.91
337.755	26.43
337.966	26.09
338.177	25.4
338.388	24.72
338.599	24.26
338.811	24.85
339.022	25.28
339.233	25.29
339.444	25.15
339.655	24.01
339.866	24.31
340.076	23.14
340.287	23.22
340.498	23.51
340.709	23.15
340.92	23.8
341.131	23.49
341.342	24.52
341.553	23.38
341.764	24.25
341.975	24.46
342.185	23.95
342.396	24.62
342.607	25.16
342.818	25.28
343.029	26.25
343.239	25.88
343.45	25.38
343.661	23.86
343.872	24.56
344.082	24.59
344.293	24.79
344.504	24.81
344.714	24.76
344.925	24.32
345.136	24.4
345.346	23.18
345.557	22.45
345.768	22.65
345.978	23.43
346.189	22.93
346.399	21.9
346.61	21.61
346.821	21.88
347.031	21.37
347.242	21.5
347.452	20.65
347.663	21.81
347.873	22.69
348.084	23.18
348.294	22.61
348.504	23.22
348.715	24.28
348.925	24.15
349.136	22.5
349.346	23.46
349.557	23.36
349.767	24.43
349.977	23.85
350.188	23.28
350.398	23.09
350.608	23.33
350.819	23.74
351.029	22.74
351.239	24.28
351.449	25.23
351.66	24.56
351.87	24.36
352.08	23.95
352.29	24.49
352.501	24.85
352.711	24.32
352.921	24.18
353.131	23.48
353.341	24.17
353.552	22.64
353.762	22.01
353.972	21.35
354.182	21.34
354.392	20.78
354.602	19.95
354.812	20.2
355.022	20.03
355.232	20.32
355.442	20.16
355.652	20.15
355.862	20.6
356.072	21.74
356.282	21.64
356.492	21.64
356.702	21.51
356.912	21.65
357.122	21.58
357.332	21.49
357.542	20.95
357.752	20.83
357.962	20.46
358.171	20.17
358.381	19.68
358.591	20.62
358.801	20.85
359.011	20.91
359.221	21.39
359.43	20.78
359.64	20.72
359.85	20.59
360.06	20.62
360.269	20.97
360.479	21.54
360.689	21.54
360.899	21.09
361.108	20.85
361.318	20.6
361.528	20.46
361.737	20.85
361.947	21.15
362.156	21.02
362.366	21.06
362.576	20.82
362.785	20.14
362.995	19.84
363.204	19.75
363.414	19.86
363.623	19.86
363.833	19.86
364.042	19.43
364.252	20
364.461	19.9
364.671	19.93
364.88	20.17
365.09	21.41
365.299	21.41
365.509	21.88
365.718	21.55
365.927	21.84
366.137	20.98
366.346	21.17
366.555	20.26
366.765	20.72
366.974	20.87
367.183	20.83
367.393	19.4
367.602	19.4
367.811	18.93
368.021	19.44
368.23	19.11
368.439	19.6
368.648	19.47
368.857	19.77
369.067	19.13
369.276	19.17
369.485	18.64
369.694	18.95
369.903	18.78
370.112	18.33
370.321	17.67
370.531	17.65
370.74	17.8
370.949	17.32
371.158	17.2
371.367	17.76
371.576	17.12
371.785	17.19
371.994	17.1
372.203	17.06
372.412	17.08
372.621	17.09
372.83	17.2
373.039	17.16
373.248	17.44
373.457	17.16
373.666	16.27
373.874	16.58
374.083	16.39
374.292	16.48
374.501	16.59
374.71	16.86
374.919	16.85
375.128	16.65
375.336	16.27
375.545	16.5
375.754	16.68
375.963	16.75
376.171	16.44
376.38	16.24
376.589	15.94
376.798	15.71
377.006	16.05
377.215	16
377.424	15.74
377.632	15.52
377.841	15.52
378.05	14.89
378.258	15.29
378.467	15.09
378.675	15.29
378.884	15.54
379.093	15.32
379.301	15.28
379.51	14.79
379.718	14.94
379.927	15.37
380.135	14.81
380.344	14.82
380.552	14.81
380.761	14.54
380.969	14.13
381.177	13.45
381.386	14.47
381.594	13.77
381.803	13.57
382.011	13.82
382.219	13.36
382.428	13.19
382.636	13.77
382.845	13.15
383.053	13.49
383.261	13.15
383.469	13.39
383.678	12.79
383.886	13.04
384.094	13.57
384.302	13.35
384.511	13.32
384.719	13.48
384.927	13.24
385.135	13.47
385.343	13.13
385.552	13.51
385.76	13.29
385.968	13.06
386.176	12.64
386.384	12.06
386.592	11.56
386.8	12.14
387.008	12.18
387.216	11.74
387.424	11.54
387.633	11.66
387.841	11.68
388.049	11.88
388.257	11.81
388.465	11.71
388.672	11.83
388.88	12
389.088	11.09
389.296	10.56
389.504	10.4
389.712	10.58
389.92	10.66
390.128	10.54
390.336	10.47
390.544	10.6
390.751	10.81
390.959	11.26
391.167	11.03
391.375	11.47
391.583	11.39
391.79	11.46
391.998	11.46
392.206	11.28
392.414	10.98
392.621	10.84
392.829	10.81
393.037	10.76
393.244	10.51
393.452	10.59
393.66	10.2
393.867	10.45
394.075	10.08
394.283	9.86
394.49	9.49
394.698	9.67
394.905	9.71
395.113	9.55
395.32	9.26
395.528	8.91
395.735	8.98
395.943	9.18
396.15	9.24
396.358	9.54
396.565	9.7
396.773	10.07
396.98	10.19
397.188	9.83
397.395	9.8
397.602	9.97
397.81	10.05
398.017	9.61
398.225	9.59
398.432	9.43
398.639	9.54
398.847	9.18
399.054	9.12
399.261	9.05
399.468	9.43
399.676	9.38
399.883	8.99
400.09	9.16
400.297	9.32
400.505	9.29
400.712	9.66
400.919	9.72
401.126	10.02
401.333	9.96
401.54	9.89
401.748	9.92
401.955	9.86
402.162	9.9
402.369	9.76
402.576	9.75
402.783	9.11
402.99	8.73
403.197	8.6
403.404	8.43
403.611	8.48
403.818	8.56
404.025	8.48
404.232	8.66
404.439	8.72
404.646	8.7
404.853	8.67
405.06	8.51
405.267	8.6
405.474	8.43
405.681	8.53
405.887	8.56
406.094	8.64
406.301	8.5
406.508	8.42
406.715	8.44
406.922	8.48
407.128	8.86
407.335	9.41
407.542	8.95
407.749	8.62
407.955	8.48
408.162	8.26
408.369	7.82
408.575	7.81
408.782	7.84
408.989	7.55
409.195	7.37
409.402	7.18
409.609	6.94
409.815	7.15
410.022	7.38
410.228	7.17
410.435	7.26
410.642	7.54
410.848	7.44
411.055	7.42
411.261	7.63
411.468	7.73
411.674	7.52
411.881	7.81
412.087	8.1
412.294	8.21
412.5	8.31
412.706	8.34
412.913	8.24
413.119	8.13
413.326	7.63
413.532	7.49
413.738	7.55
413.945	7.31
414.151	7.31
414.357	7.26
414.564	7.47
414.77	7.47
414.976	7.35
415.182	7.5
415.389	7.59
415.595	7.75
415.801	7.84
416.007	7.95
416.214	8.01
416.42	7.99
416.626	7.86
416.832	7.64
417.038	7.61
417.244	7.72
417.45	7.41
417.657	7.3
417.863	7.19
418.069	7.37
418.275	7.24
418.481	7.29
418.687	7.22
418.893	7.18
419.099	7.05
419.305	6.97
419.511	6.96
419.717	7.01
419.923	6.98
420.129	7.03
420.335	7.01
420.541	6.87
420.746	6.91
420.952	6.92
421.158	6.97
421.364	6.95
421.57	6.92
421.776	6.74
421.982	6.86
422.187	6.86
422.393	6.86
422.599	6.86
422.805	6.82
423.01	6.77
423.216	6.64
423.422	6.71
423.628	6.8
423.833	6.74
424.039	6.82
424.245	6.8
424.45	6.82
424.656	6.74
424.862	6.61
425.067	6.59
425.273	6.48
425.478	6.44
425.684	6.15
425.889	6.19
426.095	6.27
426.301	6.33
426.506	6.21
426.712	6.24
426.917	6.47
427.123	6.4
427.328	6.48
427.533	6.67
427.739	6.83
427.944	7.01
428.15	6.9
428.355	6.85
428.561	6.7
428.766	6.63
428.971	6.45
429.177	6.15
429.382	6.11
429.587	6.15
429.793	6.1
429.998	6
430.203	5.76
430.408	5.92
430.614	5.95
430.819	5.92
431.024	5.87
431.229	5.83
431.434	6.11
431.64	6.19
431.845	6.17
432.05	6.18
432.255	6.17
432.46	6.41
432.665	6.18
432.87	6.23
433.076	6.25
433.281	6.44
433.486	6.49
433.691	6.29
433.896	6.36
434.101	6.15
434.306	6.02
434.511	6.04
434.716	5.95
434.921	6.08
435.126	6.01
435.331	5.99
435.535	5.77
435.74	5.62
435.945	5.62
436.15	5.55
436.355	5.91
436.56	5.88
436.765	6.03
436.97	6.01
437.174	6.04
437.379	6.1
437.584	6.2
437.789	6.24
437.993	6.4
438.198	6.5
438.403	6.52
438.608	6.54
438.812	6.65
439.017	6.45
439.222	6.41
439.426	6.42
439.631	6.38
439.836	6.43
440.04	6.47
440.245	6.47
440.45	6.48
440.654	6.46
440.859	6.16
441.063	6.22
441.268	6.28
441.472	6.32
441.677	6.07
441.881	5.95
442.086	5.81
442.29	5.75
442.495	5.74
442.699	5.7
442.904	5.65
443.108	5.94
443.312	5.81
443.517	5.89
443.721	5.76
443.925	5.7
444.13	5.74
444.334	5.72
444.538	5.82
444.743	5.78
444.947	5.7
445.151	5.75
445.356	5.59
445.56	5.6
445.764	5.52
445.968	5.65
446.173	5.74
446.377	5.81
446.581	5.92
446.785	5.81
446.989	5.82
447.193	5.83
447.398	5.79
447.602	5.71
447.806	5.71
448.01	5.65
448.214	5.58
448.418	5.47
448.622	5.49
448.826	5.3
449.03	5.35
449.234	5.44
449.438	5.41
449.642	5.44
449.846	5.57
450.05	5.62
450.254	5.77
450.458	5.75
450.662	6
450.866	6
451.069	6.07
451.273	6.08
451.477	5.95
451.681	5.99
451.885	5.73
452.089	5.83
452.292	5.71
452.496	5.55
452.7	5.67
452.904	5.66
453.107	5.78
453.311	5.58
453.515	5.61
453.719	5.53
453.922	5.49
454.126	5.73
454.33	5.57
454.533	5.52
454.737	5.53
454.94	5.35
455.144	5.38
455.348	5.04
455.551	5.35
455.755	5.33
455.958	5.54
456.162	5.56
456.365	5.42
456.569	5.29
456.772	5.3
456.976	5.49
457.179	5.61
457.383	5.6
457.586	5.73
457.79	5.7
457.993	5.62
458.196	5.5
458.4	5.4
458.603	5.49
458.807	5.52
459.01	5.6
459.213	5.53
459.417	5.55
459.62	5.54
459.823	5.56
460.026	5.44
460.23	5.46
460.433	5.42
460.636	5.35
460.839	5.23
