Data from CB_040_Reflection_21-50-10-373.txt Node
Date: Wed Nov 11 21:50:10 EST 2015
User: robert
Spectrometer: USB4E03001
Autoset integration time: false
Trigger mode: 4
Integration Time (sec): 1.000000E-1
Scans to average: 15
Electric dark correction enabled: true
Nonlinearity correction enabled: false
Boxcar width: 5
Stray light correction enabled: false
XAxis mode: Wavelengths
Stop averaging: false
Number of Pixels in Spectrum: 3648
>>>>>Begin Spectral Data<<<<<
177.566	-254.11
177.785	-2025
178.005	315.16
178.225	416.38
178.445	43.53
178.665	27.69
178.885	467.85
179.105	-113.39
179.324	-82.95
179.544	12.13
179.764	-59.23
179.984	-26.85
180.204	7.46
180.423	30.07
180.643	33.62
180.863	59.66
181.083	60.61
181.302	70.09
181.522	62.44
181.742	61.56
181.961	71.56
182.181	78.62
182.401	81.66
182.621	69.37
182.84	45.58
183.06	46.67
183.279	34.77
183.499	46.16
183.719	30.9
183.938	42.23
184.158	47.77
184.377	46.83
184.597	60.16
184.816	63.77
185.036	52.54
185.256	70.63
185.475	84.57
185.695	64.22
185.914	28.35
186.134	70.46
186.353	22.04
186.572	-21.7
186.792	-48.13
187.011	-81.05
187.231	-71.72
187.45	-100.82
187.67	-95.98
187.889	-57.73
188.108	-2.71
188.328	1.99
188.547	-3.45
188.766	3.25
188.986	20.33
189.205	18.84
189.424	33.17
189.644	11.17
189.863	19.24
190.082	22.62
190.302	27.37
190.521	29.98
190.74	27.22
190.959	29.84
191.178	28.54
191.398	21.26
191.617	29.84
191.836	27.19
192.055	37.94
192.274	29.9
192.494	20.67
192.713	4.7
192.932	14.45
193.151	22.19
193.37	21.22
193.589	30.99
193.808	58.21
194.027	42.03
194.246	34.29
194.465	40.36
194.685	44.57
194.904	64.98
195.123	76.92
195.342	69.32
195.561	59.24
195.78	55.95
195.999	61.09
196.218	43.68
196.436	43.91
196.655	70.01
196.874	72.14
197.093	89.4
197.312	61.6
197.531	49.39
197.75	46.48
197.969	52.72
198.188	45.41
198.407	44.76
198.625	50.67
198.844	49.48
199.063	48.05
199.282	53.16
199.501	37.27
199.719	45.21
199.938	70.41
200.157	130.18
200.376	94.27
200.594	152.48
200.813	111.43
201.032	90.96
201.251	135.08
201.469	111.84
201.688	96.3
201.907	85.71
202.125	60.28
202.344	50.21
202.563	51.24
202.781	32.5
203	16.61
203.218	2.41
203.437	28.93
203.656	40.57
203.874	35.41
204.093	28.1
204.311	23.14
204.53	27.34
204.748	34.89
204.967	44.17
205.185	50.85
205.404	67.7
205.622	89.76
205.841	81.33
206.059	48.4
206.278	56.02
206.496	65.8
206.715	69.98
206.933	65.37
207.151	56.13
207.37	45.84
207.588	38.21
207.806	29.51
208.025	26.26
208.243	12.18
208.461	34.87
208.68	29.88
208.898	14.81
209.116	12.68
209.335	1.45
209.553	-3.81
209.771	-2.59
209.989	10.49
210.208	3.19
210.426	-3.49
210.644	22.23
210.862	-7.01
211.081	27.2
211.299	64.39
211.517	89.56
211.735	92.15
211.953	122.44
212.171	123.26
212.39	131.65
212.608	120.17
212.826	111.48
213.044	102.75
213.262	108.58
213.48	116.63
213.698	83.95
213.916	87.11
214.134	83.06
214.352	53.42
214.57	27.14
214.788	-4.9
215.006	4.97
215.224	2.56
215.442	-22.28
215.66	-30.44
215.878	-0.62
216.096	24.07
216.314	-1.83
216.532	-0.4
216.75	0.72
216.968	32.59
217.185	30.89
217.403	30.45
217.621	30.7
217.839	22.59
218.057	22.38
218.275	23.3
218.492	21.48
218.71	33.2
218.928	29.8
219.146	32.65
219.363	15.69
219.581	20.38
219.799	4.21
220.017	25.85
220.234	16.29
220.452	16
220.67	18.83
220.887	2.23
221.105	-30.34
221.323	-55.63
221.54	-43.36
221.758	-10.2
221.976	-1.72
222.193	14.97
222.411	4.7
222.629	9.73
222.846	8.02
223.064	-4.3
223.281	24.12
223.499	25.71
223.716	31.56
223.934	34.12
224.151	15.41
224.369	6.73
224.586	0.65
224.804	-5.31
225.021	-8.96
225.239	-5.7
225.456	1.62
225.674	-4.9
225.891	15.96
226.108	20.75
226.326	3.5
226.543	11.12
226.76	16.63
226.978	9.52
227.195	8.56
227.413	16.27
227.63	21.01
227.847	13.75
228.064	11.61
228.282	6.02
228.499	4.16
228.716	10.76
228.934	10.27
229.151	7.74
229.368	7.86
229.585	8.83
229.802	7.03
230.02	5.69
230.237	9.12
230.454	8.54
230.671	6.81
230.888	6.34
231.105	7.23
231.323	9.72
231.54	13.48
231.757	15.27
231.974	14.77
232.191	15.17
232.408	15.35
232.625	15.11
232.842	13.7
233.059	13.54
233.276	17.3
233.493	9.55
233.71	13.4
233.927	9.83
234.144	8.71
234.361	10.21
234.578	10.78
234.795	8.4
235.012	6.91
235.229	10.69
235.446	15.77
235.663	12.63
235.879	13.64
236.096	7.79
236.313	8.36
236.53	9.92
236.747	11.95
236.964	15.27
237.181	17.46
237.397	15.75
237.614	16.07
237.831	13.6
238.048	19.35
238.264	21.82
238.481	20.36
238.698	21.76
238.915	22.44
239.131	15.42
239.348	13.57
239.565	13.72
239.781	12.79
239.998	12.84
240.215	13.7
240.431	10.56
240.648	10.41
240.865	8.89
241.081	10.9
241.298	11.13
241.514	10.57
241.731	11.94
241.947	10.53
242.164	11.16
242.38	8.45
242.597	8.53
242.814	7.51
243.03	8.94
243.246	10
243.463	8.79
243.679	8.17
243.896	11.53
244.112	10.84
244.329	13.26
244.545	13.73
244.762	17.01
244.978	16.82
245.194	16.38
245.411	13.46
245.627	13.21
245.843	13.43
246.06	13.23
246.276	12.41
246.492	11
246.709	9.18
246.925	10
247.141	10.12
247.357	10.61
247.574	11.84
247.79	12.26
248.006	12.73
248.222	12.97
248.439	12.65
248.655	13.31
248.871	14.09
249.087	15.02
249.303	15.51
249.519	14.51
249.736	13.94
249.952	12.33
250.168	12.91
250.384	12.92
250.6	11.65
250.816	12.39
251.032	9.84
251.248	11.37
251.464	9.55
251.68	9.93
251.896	12.2
252.112	12.44
252.328	11.49
252.544	10.26
252.76	11.16
252.976	11.93
253.192	10.63
253.408	11.81
253.624	10.85
253.84	10.9
254.056	10.73
254.272	13.51
254.487	13.47
254.703	16.38
254.919	18.14
255.135	17.38
255.351	17.41
255.567	20.46
255.782	19.94
255.998	18.99
256.214	20.78
256.43	20.4
256.646	17.53
256.861	16.07
257.077	14.77
257.293	12.18
257.508	13.16
257.724	12.21
257.94	12.24
258.155	11.89
258.371	11.54
258.587	12.85
258.802	12.31
259.018	10.9
259.234	11
259.449	11.64
259.665	11.79
259.88	11.47
260.096	11.5
260.312	10.12
260.527	10.7
260.743	10.65
260.958	9.29
261.174	8.81
261.389	9.32
261.605	9.69
261.82	9.17
262.036	10.09
262.251	9.94
262.466	10.84
262.682	12.6
262.897	11.26
263.113	10.87
263.328	10.88
263.543	10.64
263.759	9.63
263.974	9.58
264.189	10.15
264.405	9.72
264.62	7.8
264.835	6.94
265.051	6.45
265.266	5.59
265.481	7.18
265.696	8.24
265.912	10.21
266.127	11.46
266.342	11.66
266.557	12.24
266.773	10.16
266.988	11.12
267.203	9.56
267.418	9.2
267.633	10.96
267.848	10.85
268.064	9.72
268.279	9.22
268.494	8.66
268.709	8.42
268.924	8.57
269.139	9.94
269.354	10.83
269.569	11.39
269.784	12.17
269.999	11.22
270.214	10.79
270.429	12.16
270.644	12.8
270.859	13.52
271.074	12.54
271.289	12.98
271.504	13.95
271.719	12.92
271.934	12.86
272.149	12.09
272.363	11.92
272.578	11.84
272.793	12.09
273.008	11.27
273.223	10.32
273.438	11
273.653	10.88
273.867	10.19
274.082	10.33
274.297	11.2
274.512	11.75
274.726	11.37
274.941	12.91
275.156	12.88
275.371	12.3
275.585	12.46
275.8	11.64
276.015	10.28
276.229	10.98
276.444	10.9
276.659	10.27
276.873	9.13
277.088	10.48
277.302	9.09
277.517	7.69
277.732	8.75
277.946	7.52
278.161	9.04
278.375	9.56
278.59	8.8
278.804	8.74
279.019	8.62
279.233	9.66
279.448	8.4
279.662	9.54
279.877	10.77
280.091	11.4
280.306	14.02
280.52	13.02
280.735	14.29
280.949	13.91
281.163	13.96
281.378	13.58
281.592	12.55
281.806	13.93
282.021	11.39
282.235	10.69
282.449	10.01
282.664	7.45
282.878	6.85
283.092	5.91
283.307	6.79
283.521	6.06
283.735	6.54
283.949	8.32
284.164	7.58
284.378	9.21
284.592	10.25
284.806	10.99
285.02	11.11
285.234	11.82
285.449	11.48
285.663	10.27
285.877	10.13
286.091	10.56
286.305	8.97
286.519	8.72
286.733	8.67
286.947	8.57
287.161	7.4
287.375	8.53
287.589	9.07
287.803	9.29
288.017	9.98
288.231	10.77
288.445	10.44
288.659	11.26
288.873	12.4
289.087	12.4
289.301	11.91
289.515	13.14
289.729	13
289.943	12
290.157	11.97
290.371	11.27
290.584	11.51
290.798	12.12
291.012	12.36
291.226	12.89
291.44	12.47
291.654	11.8
291.867	10.83
292.081	10.33
292.295	10.69
292.509	10.62
292.722	11.44
292.936	10.56
293.15	9.66
293.364	10.14
293.577	8.41
293.791	8.89
294.005	8.61
294.218	10.47
294.432	11.21
294.645	10.99
294.859	9.52
295.073	9.12
295.286	9.75
295.5	9.15
295.713	8.62
295.927	8.02
296.14	7.97
296.354	8.66
296.568	7.74
296.781	7.89
296.994	8.72
297.208	10.54
297.421	9.93
297.635	9.5
297.848	10.15
298.062	9.75
298.275	10.76
298.489	11.39
298.702	11.57
298.915	12.42
299.129	13.58
299.342	12.22
299.555	12.31
299.769	13.54
299.982	14.67
300.195	14.64
300.409	15.76
300.622	16.06
300.835	14.58
301.048	13.02
301.262	11.82
301.475	10.35
301.688	11.92
301.901	10.44
302.115	10.7
302.328	10.11
302.541	10.86
302.754	9.6
302.967	9.37
303.18	10.72
303.393	12.55
303.607	12.49
303.82	12.35
304.033	11.45
304.246	11.11
304.459	11.27
304.672	11.31
304.885	11.05
305.098	11.86
305.311	11.65
305.524	11.23
305.737	10.9
305.95	11.41
306.163	11.16
306.376	12.33
306.589	13.21
306.802	12.99
307.015	14.34
307.228	13.75
307.44	13.9
307.653	15.38
307.866	15.63
308.079	15.98
308.292	15.07
308.505	16.13
308.718	16.19
308.93	16.25
309.143	15.74
309.356	14.83
309.569	14.89
309.781	15.16
309.994	13.88
310.207	14.04
310.42	14.32
310.632	16.12
310.845	16.06
311.058	15.56
311.27	15.89
311.483	15.88
311.696	16.02
311.908	16.05
312.121	15.65
312.333	15.81
312.546	15.53
312.759	15.33
312.971	13.45
313.184	12.44
313.396	12.51
313.609	12.77
313.821	13.54
314.034	13.2
314.246	13.23
314.459	13.42
314.671	13.8
314.884	13.96
315.096	13.98
315.309	13.71
315.521	13.58
315.733	13.36
315.946	12.02
316.158	11.04
316.371	11.05
316.583	11.64
316.795	12.79
317.008	12.41
317.22	13.23
317.432	13.92
317.644	14.39
317.857	15.42
318.069	16.29
318.281	15.77
318.494	17.01
318.706	18.1
318.918	17.94
319.13	17.28
319.342	17.17
319.555	16.72
319.767	16.06
319.979	16.78
320.191	16.53
320.403	15.64
320.615	16.98
320.827	15.02
321.039	14.55
321.252	13.95
321.464	13.86
321.676	13.78
321.888	14.1
322.1	14.09
322.312	13.44
322.524	14.45
322.736	14.95
322.948	14.47
323.16	15.66
323.372	15.12
323.584	14.17
323.796	14.62
324.007	14.94
324.219	15.69
324.431	15.01
324.643	15.66
324.855	14.86
325.067	14.43
325.279	15.5
325.491	16.43
325.702	16.33
325.914	17.84
326.126	17.2
326.338	15.96
326.55	15.29
326.761	16.6
326.973	16.13
327.185	17.07
327.396	17.64
327.608	16.86
327.82	16.83
328.032	16.99
328.243	16.76
328.455	17.97
328.666	18.77
328.878	17.67
329.09	17.27
329.301	17.14
329.513	15.98
329.725	14.72
329.936	15.73
330.148	15.46
330.359	15.12
330.571	15.62
330.782	13.75
330.994	14.23
331.205	15.58
331.417	15.93
331.628	16.92
331.84	17.27
332.051	18.38
332.262	17.18
332.474	17.53
332.685	18.32
332.897	18.28
333.108	20.67
333.319	21.82
333.531	22.2
333.742	21.98
333.953	21.7
334.165	21.82
334.376	22.37
334.587	22.67
334.799	22.14
335.01	22.53
335.221	22.35
335.432	21.36
335.644	20.27
335.855	19.92
336.066	20.06
336.277	20.28
336.488	20.56
336.7	19.89
336.911	19.99
337.122	20.27
337.333	20.24
337.544	21.07
337.755	21.48
337.966	22.17
338.177	21.85
338.388	21.14
338.599	21.31
338.811	20.34
339.022	20.57
339.233	20.27
339.444	20.37
339.655	20.16
339.866	19.68
340.076	19.16
340.287	18.98
340.498	19.16
340.709	20.17
340.92	20.01
341.131	20.06
341.342	20.25
341.553	20.75
341.764	19.75
341.975	19.73
342.185	19.6
342.396	19.6
342.607	20.09
342.818	20.09
343.029	20
343.239	20.39
343.45	20.83
343.661	20.46
343.872	19.82
344.082	19.81
344.293	19.69
344.504	19.41
344.714	19.25
344.925	18.51
345.136	18.4
345.346	18.85
345.557	18.32
345.768	18.25
345.978	19.42
346.189	20.4
346.399	20.11
346.61	19.85
346.821	20
347.031	20.52
347.242	20.75
347.452	20.82
347.663	20.33
347.873	20.65
348.084	20.76
348.294	20.18
348.504	20.32
348.715	21
348.925	21.72
349.136	20.62
349.346	19.5
349.557	20.03
349.767	20.1
349.977	19.88
350.188	19.4
350.398	19.39
350.608	19.31
350.819	18.65
351.029	18.87
351.239	17.54
351.449	18.43
351.66	18.26
351.87	18.1
352.08	18.26
352.29	18.24
352.501	19.08
352.711	19.79
352.921	19.18
353.131	19.63
353.341	19.53
353.552	20.46
353.762	19.96
353.972	21.05
354.182	20.29
354.392	20.45
354.602	19.9
354.812	18.78
355.022	18.04
355.232	18.19
355.442	17.82
355.652	17.69
355.862	17.49
356.072	17.79
356.282	17.24
356.492	17.8
356.702	17.3
356.912	17.18
357.122	17.55
357.332	18.84
357.542	19.1
357.752	19.04
357.962	18.84
358.171	19.18
358.381	19.53
358.591	19.19
358.801	18.37
359.011	18.02
359.221	18.43
359.43	18.88
359.64	17.21
359.85	17.39
360.06	17.02
360.269	16.96
360.479	16.59
360.689	16.6
360.899	17.02
361.108	17.5
361.318	17.88
361.528	18.01
361.737	17.19
361.947	17.33
362.156	16.7
362.366	17.05
362.576	16.93
362.785	17.26
362.995	17.02
363.204	17.12
363.414	16.66
363.623	16.43
363.833	15.9
364.042	15.66
364.252	16.33
364.461	16.52
364.671	16.52
364.88	16.89
365.09	16.43
365.299	16.61
365.509	16.15
365.718	16.88
365.927	17.07
366.137	17.22
366.346	18.13
366.555	17.59
366.765	17.99
366.974	17.87
367.183	17.48
367.393	17.7
367.602	17.78
367.811	18.35
368.021	17.98
368.23	17.76
368.439	17.83
368.648	17.85
368.857	17.53
369.067	16.75
369.276	16.67
369.485	16.97
369.694	17.07
369.903	17.09
370.112	16.64
370.321	16.46
370.531	16.56
370.74	16.64
370.949	16.54
371.158	16.46
371.367	17.19
371.576	17.55
371.785	17.38
371.994	17.36
372.203	16.7
372.412	16.88
372.621	16.94
372.83	16.42
373.039	16.4
373.248	15.84
373.457	16.18
373.666	15.68
373.874	14.92
374.083	14.63
374.292	13.88
374.501	14.09
374.71	13.49
374.919	13.39
375.128	13.93
375.336	13.54
375.545	13.06
375.754	13.12
375.963	13.39
376.171	13.4
376.38	12.85
376.589	13.05
376.798	12.69
377.006	12.76
377.215	13.02
377.424	13.07
377.632	13.07
377.841	13.56
378.05	13.49
378.258	13.06
378.467	13.27
378.675	14.02
378.884	13.94
379.093	13.77
379.301	13.87
379.51	13.58
379.718	13.33
379.927	13.43
380.135	13.31
380.344	12.82
380.552	12.76
380.761	12
380.969	11.62
381.177	11.86
381.386	11.86
381.594	12.08
381.803	11.88
382.011	11.87
382.219	11.93
382.428	12.03
382.636	12.62
382.845	12.93
383.053	13.23
383.261	13.19
383.469	12.54
383.678	12.78
383.886	12.27
384.094	12.38
384.302	12.7
384.511	12.8
384.719	12.96
384.927	12.67
385.135	12.83
385.343	12.74
385.552	13.07
385.76	13.49
385.968	13.09
386.176	13.05
386.384	12.94
386.592	12.58
386.8	12.41
387.008	12.4
387.216	12.33
387.424	12.02
387.633	12.23
387.841	11.92
388.049	11.31
388.257	11.74
388.465	11.94
388.672	12.15
388.88	12.17
389.088	11.91
389.296	11.63
389.504	11.37
389.712	11.23
389.92	10.96
390.128	10.96
390.336	11.4
390.544	11.22
390.751	11.25
390.959	11.1
391.167	11.1
391.375	11.4
391.583	11.61
391.79	11.49
391.998	11.27
392.206	11.46
392.414	11.53
392.621	11.13
392.829	11.15
393.037	11.04
393.244	10.7
393.452	10.5
393.66	10.48
393.867	10.26
394.075	10.38
394.283	10.3
394.49	10.18
394.698	9.99
394.905	10.2
395.113	10.06
395.32	9.73
395.528	10.17
395.735	10.01
395.943	9.86
396.15	9.81
396.358	9.83
396.565	10.4
396.773	10.25
396.98	10.48
397.188	10.47
397.395	10.45
397.602	10.88
397.81	11
398.017	11.16
398.225	10.79
398.432	10.78
398.639	10.77
398.847	10.62
399.054	10.64
399.261	10.18
399.468	10.38
399.676	10.51
399.883	10.28
400.09	9.34
400.297	9.07
400.505	9.18
400.712	8.92
400.919	8.81
401.126	8.72
401.333	8.68
401.54	8.79
401.748	8.66
401.955	8.76
402.162	8.95
402.369	9.22
402.576	9.53
402.783	9.68
402.99	9.51
403.197	9.28
403.404	9.09
403.611	9.15
403.818	9.21
404.025	9.28
404.232	9.44
404.439	9.23
404.646	9.09
404.853	8.97
405.06	8.86
405.267	9.2
405.474	9.16
405.681	9.21
405.887	9.45
406.094	9.73
406.301	9.5
406.508	9.09
406.715	9.07
406.922	9.8
407.128	9.74
407.335	9.62
407.542	9.46
407.749	9.79
407.955	9.48
408.162	9.1
408.369	8.72
408.575	8.78
408.782	9.01
408.989	9.17
409.195	8.44
409.402	8.24
409.609	8.55
409.815	8.65
410.022	8.81
410.228	8.96
410.435	9.22
410.642	9.4
410.848	9.36
411.055	9.46
411.261	9.4
411.468	9.59
411.674	9.91
411.881	9.75
412.087	9.58
412.294	9.49
412.5	9.64
412.706	9.43
412.913	9.21
413.119	9.31
413.326	9
413.532	8.99
413.738	9.11
413.945	8.59
414.151	8.59
414.357	8.68
414.564	8.53
414.77	8.78
414.976	8.82
415.182	8.9
415.389	8.74
415.595	8.81
415.801	8.72
416.007	8.64
416.214	8.73
416.42	8.9
416.626	8.68
416.832	8.66
417.038	8.5
417.244	8.37
417.45	8.33
417.657	8.41
417.863	8.44
418.069	8.36
418.275	8.52
418.481	8.44
418.687	8.43
418.893	8.54
419.099	8.71
419.305	8.52
419.511	8.49
419.717	8.55
419.923	8.54
420.129	8.54
420.335	8.65
420.541	8.59
420.746	8.6
420.952	8.41
421.158	8.28
421.364	8.01
421.57	8
421.776	8.1
421.982	8.07
422.187	8.02
422.393	8.01
422.599	7.94
422.805	7.95
423.01	7.96
423.216	7.98
423.422	8.12
423.628	8.18
423.833	8.21
424.039	8.24
424.245	8.22
424.45	8.4
424.656	8.37
424.862	8.29
425.067	8.38
425.273	8.47
425.478	8.43
425.684	8.41
425.889	8.33
426.095	8.4
426.301	8.17
426.506	8.15
426.712	7.8
426.917	7.62
427.123	7.6
427.328	7.29
427.533	7.13
427.739	7.24
427.944	7.25
428.15	7.45
428.355	7.42
428.561	7.59
428.766	7.78
428.971	7.99
429.177	8.23
429.382	8.29
429.587	8.34
429.793	8.52
429.998	8.54
430.203	8.28
430.408	8.28
430.614	8.37
430.819	8.37
431.024	8.23
431.229	8.36
431.434	8.27
431.64	8.48
431.845	8.64
432.05	8.65
432.255	8.5
432.46	8.66
432.665	8.37
432.87	8.42
433.076	8.59
433.281	8.52
433.486	8.26
433.691	8.2
433.896	8.08
434.101	8.04
434.306	8.03
434.511	8.04
434.716	8.01
434.921	8.22
435.126	8
435.331	7.72
435.535	7.69
435.74	7.61
435.945	7.58
436.15	7.65
436.355	7.63
436.56	7.68
436.765	7.6
436.97	7.71
437.174	7.69
437.379	7.83
437.584	7.96
437.789	8.14
437.993	8.42
438.198	8.51
438.403	8.42
438.608	8.32
438.812	8.24
439.017	8.34
439.222	8.34
439.426	8.28
439.631	8.15
439.836	8.2
440.04	7.99
440.245	7.89
440.45	7.86
440.654	7.98
440.859	7.98
441.063	8.08
441.268	8.1
441.472	8.05
441.677	8.08
441.881	8.24
442.086	8.19
442.29	8.26
442.495	8.33
442.699	8.42
442.904	8.3
443.108	8.46
443.312	8.44
443.517	8.47
443.721	8.54
443.925	8.46
444.13	8.41
444.334	8.31
444.538	8.28
444.743	8.11
444.947	7.89
445.151	7.96
445.356	7.92
445.56	7.85
445.764	7.96
445.968	7.93
446.173	7.99
446.377	7.91
446.581	8.07
446.785	8.08
446.989	8.14
447.193	8.39
447.398	8.23
447.602	8
447.806	7.97
448.01	7.84
448.214	7.87
448.418	7.8
448.622	7.73
448.826	7.45
449.03	7.54
449.234	7.55
449.438	7.29
449.642	7.44
449.846	7.74
450.05	7.77
450.254	7.64
450.458	7.7
450.662	7.86
450.866	7.73
451.069	7.8
451.273	7.52
451.477	7.39
451.681	7.51
451.885	7.49
452.089	7.12
452.292	7.13
452.496	7.28
452.7	7.34
452.904	7.35
453.107	7.61
453.311	7.64
453.515	7.76
453.719	8
453.922	7.96
454.126	7.95
454.33	8.24
454.533	8.22
454.737	8.36
454.94	8.24
455.144	8.05
455.348	8.11
455.551	8.16
455.755	8.19
455.958	8.23
456.162	8.27
456.365	8.46
456.569	8.5
456.772	8.55
456.976	8.27
457.179	8.23
457.383	8.26
457.586	8.13
457.79	8.02
457.993	7.93
458.196	7.69
458.4	7.58
458.603	7.4
458.807	7.4
459.01	7.31
459.213	7.33
459.417	7.38
459.62	7.48
459.823	7.54
460.026	7.56
460.23	7.63
460.433	7.72
460.636	7.71
460.839	7.79
461.042	7.69
461.246	7.73
461.449	7.77
461.652	7.73
461.855	7.67
462.058	7.55
462.261	7.72
462.464	7.75
462.668	7.73
462.871	7.88
463.074	7.52
463.277	7.56
