Data from CB_035_Reflection_21-32-08-975.txt Node
Date: Wed Nov 11 21:32:08 EST 2015
User: robert
Spectrometer: USB4E03001
Autoset integration time: false
Trigger mode: 4
Integration Time (sec): 1.000000E-1
Scans to average: 15
Electric dark correction enabled: true
Nonlinearity correction enabled: false
Boxcar width: 5
Stray light correction enabled: false
XAxis mode: Wavelengths
Stop averaging: false
Number of Pixels in Spectrum: 3648
>>>>>Begin Spectral Data<<<<<
177.566	-137.5
177.785	298.68
178.005	49.63
178.225	-73.72
178.445	65.75
178.665	25.31
178.885	461.58
179.105	-68.95
179.324	61.37
179.544	82.45
179.764	141.43
179.984	76.11
180.204	105.82
180.423	122.8
180.643	91.92
180.863	85.61
181.083	44.8
181.302	47.93
181.522	29.38
181.742	16.39
181.961	11.87
182.181	3.44
182.401	11.21
182.621	4.17
182.84	-6.71
183.06	0.51
183.279	-11.44
183.499	23.19
183.719	14.18
183.938	18.76
184.158	34.3
184.377	20.65
184.597	22.27
184.816	29.14
185.036	26.74
185.256	41.22
185.475	48.58
185.695	26.41
185.914	-21.1
186.134	55.62
186.353	91.11
186.572	42.1
186.792	35.77
187.011	23.61
187.231	7.4
187.45	-0.57
187.67	-3.25
187.889	-5.89
188.108	27.76
188.328	23.88
188.547	3.82
188.766	-12.3
188.986	-22.04
189.205	-17.96
189.424	-17.24
189.644	-26.92
189.863	-12.07
190.082	-8.88
190.302	-3.81
190.521	-12.04
190.74	-0.04
190.959	23.19
191.178	24.69
191.398	22.04
191.617	40.89
191.836	44.24
192.055	47.67
192.274	53.28
192.494	60.12
192.713	61.98
192.932	67.05
193.151	68.99
193.37	64.03
193.589	80.58
193.808	85.94
194.027	66.64
194.246	79.7
194.465	67.9
194.685	58.16
194.904	43.19
195.123	26.93
195.342	23.88
195.561	38.29
195.78	16.04
195.999	21.62
196.218	40.41
196.436	41.56
196.655	28.58
196.874	45.66
197.093	69.66
197.312	78.73
197.531	94.35
197.75	83.55
197.969	81.07
198.188	73.89
198.407	63.34
198.625	42.57
198.844	27.28
199.063	36.27
199.282	35.31
199.501	19.03
199.719	15.82
199.938	21.69
200.157	-15.6
200.376	35.73
200.594	71.55
200.813	67.48
201.032	91.91
201.251	167.89
201.469	134.71
201.688	108.9
201.907	94
202.125	79.74
202.344	82.54
202.563	103.53
202.781	74.77
203	53.72
203.218	54.86
203.437	64.81
203.656	48.36
203.874	39.07
204.093	38.18
204.311	42.17
204.53	32.94
204.748	21.32
204.967	12.9
205.185	11.52
205.404	32.97
205.622	26.78
205.841	31.39
206.059	27.7
206.278	45.68
206.496	49.06
206.715	41.73
206.933	51.98
207.151	50.67
207.37	50.97
207.588	49.13
207.806	45.83
208.025	60.37
208.243	51.17
208.461	60.51
208.68	50.71
208.898	49.08
209.116	33.39
209.335	41.2
209.553	60.24
209.771	51.12
209.989	54.83
210.208	37.13
210.426	21.86
210.644	17.5
210.862	16.7
211.081	41.18
211.299	58.67
211.517	90.24
211.735	50.59
211.953	38.31
212.171	63.58
212.39	58.21
212.608	70.08
212.826	62.77
213.044	87.65
213.262	57.99
213.48	29.22
213.698	19.91
213.916	28.62
214.134	23.41
214.352	-8.96
214.57	-21.13
214.788	-15.48
215.006	-33.82
215.224	-43.84
215.442	-100.36
215.66	-92.26
215.878	12.95
216.096	21.63
216.314	2.17
216.532	15.32
216.75	43.62
216.968	60.8
217.185	36.77
217.403	40.98
217.621	40.29
217.839	38.53
218.057	41.4
218.275	39.59
218.492	46.23
218.71	51.69
218.928	57.32
219.146	53.98
219.363	50.24
219.581	71.41
219.799	63.73
220.017	82.62
220.234	85.14
220.452	107.64
220.67	79.01
220.887	62.57
221.105	56.69
221.323	37.7
221.54	29.98
221.758	45.52
221.976	33.26
222.193	36.3
222.411	27.07
222.629	37.86
222.846	24.04
223.064	25.23
223.281	38.46
223.499	30.16
223.716	30.18
223.934	36.31
224.151	26.78
224.369	20.36
224.586	25.57
224.804	34.76
225.021	13.32
225.239	7.83
225.456	6.56
225.674	-3.21
225.891	14.3
226.108	22.82
226.326	11.17
226.543	12.74
226.76	25.95
226.978	9.03
227.195	8.27
227.413	8.45
227.63	14.17
227.847	15.89
228.064	15.42
228.282	8.73
228.499	3.7
228.716	6.99
228.934	8.78
229.151	7.4
229.368	10.78
229.585	11.82
229.802	14.25
230.02	12.3
230.237	10.5
230.454	10.5
230.671	14.42
230.888	16.88
231.105	17.28
231.323	16.67
231.54	17.81
231.757	15.45
231.974	11.28
232.191	6.66
232.408	6.46
232.625	6.39
232.842	8.11
233.059	6.53
233.276	10.44
233.493	14.52
233.71	15.67
233.927	14.97
234.144	13.05
234.361	15.32
234.578	18.21
234.795	21.63
235.012	22.41
235.229	19.44
235.446	21.9
235.663	19.98
235.879	13.4
236.096	10.64
236.313	12.17
236.53	13.8
236.747	13.99
236.964	14.75
237.181	15.61
237.397	11.5
237.614	11.39
237.831	6.24
238.048	4.08
238.264	6.08
238.481	12.02
238.698	12.8
238.915	16.91
239.131	16.19
239.348	14.28
239.565	11.42
239.781	14.55
239.998	13.78
240.215	14.79
240.431	17.23
240.648	19.67
240.865	13.62
241.081	13.93
241.298	10.8
241.514	12.23
241.731	12.9
241.947	11.78
242.164	12.85
242.38	11.41
242.597	11.42
242.814	10.57
243.03	9.59
243.246	11.43
243.463	11.35
243.679	13.97
243.896	13.83
244.112	13.92
244.329	17.43
244.545	16.05
244.762	19.19
244.978	19.24
245.194	20.66
245.411	18.24
245.627	16.17
245.843	16.22
246.06	13.75
246.276	12.29
246.492	10.42
246.709	9.9
246.925	11.51
247.141	11.91
247.357	10.95
247.574	10.82
247.79	11.7
248.006	11.94
248.222	11.9
248.439	12.37
248.655	13.05
248.871	13.89
249.087	13.38
249.303	12.59
249.519	11.14
249.736	11.1
249.952	9.99
250.168	10.74
250.384	11.25
250.6	10.66
250.816	10.25
251.032	8.97
251.248	10.79
251.464	9.87
251.68	11.59
251.896	12.53
252.112	13.76
252.328	13.15
252.544	11.84
252.76	12.41
252.976	11.4
253.192	10.95
253.408	10.21
253.624	10.14
253.84	10.43
254.056	8.01
254.272	11.23
254.487	11.28
254.703	10.85
254.919	12.56
255.135	11.03
255.351	11.32
255.567	13.69
255.782	16.16
255.998	15.3
256.214	13.86
256.43	13.64
256.646	8.16
256.861	7.65
257.077	10.22
257.293	6.54
257.508	7.26
257.724	7.47
257.94	7.28
258.155	7.09
258.371	7.23
258.587	8.63
258.802	8.79
259.018	9.11
259.234	8.4
259.449	8.38
259.665	9.36
259.88	9.57
260.096	9.8
260.312	9.13
260.527	8.86
260.743	8.74
260.958	8.56
261.174	8.75
261.389	9.55
261.605	10.38
261.82	10.63
262.036	10.67
262.251	11.99
262.466	12.33
262.682	12.89
262.897	14.64
263.113	15.12
263.328	14.99
263.543	14.3
263.759	12
263.974	11.49
264.189	11.47
264.405	10.81
264.62	7.05
264.835	7.03
265.051	7.55
265.266	7.81
265.481	8.1
265.696	9.51
265.912	9.69
266.127	10.8
266.342	11.16
266.557	10.45
266.773	9.53
266.988	10.13
267.203	8.7
267.418	7.92
267.633	7.47
267.848	7.09
268.064	5.12
268.279	5.55
268.494	5.35
268.709	5.88
268.924	7.53
269.139	8.42
269.354	9.52
269.569	10.19
269.784	11.19
269.999	10.8
270.214	11.64
270.429	12.91
270.644	12.56
270.859	11.94
271.074	11.57
271.289	10.89
271.504	11.8
271.719	11.19
271.934	10.45
272.149	9.96
272.363	10.39
272.578	10.87
272.793	11.33
273.008	11.32
273.223	12.05
273.438	11.81
273.653	12.84
273.867	12.81
274.082	12.93
274.297	13.49
274.512	14.41
274.726	12.24
274.941	11.24
275.156	11.32
275.371	11.13
275.585	10.93
275.8	11.62
276.015	10.33
276.229	10.24
276.444	9.32
276.659	10.09
276.873	10.41
277.088	12.5
277.302	11.78
277.517	11.64
277.732	12.98
277.946	13.39
278.161	13.23
278.375	12.22
278.59	12.66
278.804	12.99
279.019	11.85
279.233	10.99
279.448	10.05
279.662	10.59
279.877	9.85
280.091	8.68
280.306	9.57
280.52	8.37
280.735	10.61
280.949	8.33
281.163	9.06
281.378	8.66
281.592	7.62
281.806	8.51
282.021	7.73
282.235	7.88
282.449	8.86
282.664	7.01
282.878	7.42
283.092	6.57
283.307	8.33
283.521	9.17
283.735	10.96
283.949	12.15
284.164	11.81
284.378	12.14
284.592	12.52
284.806	12.06
285.02	11.97
285.234	12.76
285.449	12.4
285.663	11.54
285.877	10.57
286.091	10.42
286.305	10.15
286.519	10.25
286.733	10.47
286.947	10.06
287.161	9.18
287.375	9.71
287.589	9.24
287.803	8.81
288.017	8.83
288.231	10.11
288.445	9.64
288.659	9.47
288.873	10.75
289.087	11.33
289.301	11.4
289.515	12.95
289.729	12.66
289.943	12.8
290.157	13.52
290.371	13.97
290.584	13.98
290.798	13.54
291.012	14.3
291.226	14.32
291.44	13.13
291.654	13.16
291.867	11.77
292.081	12.25
292.295	12.48
292.509	12.46
292.722	11.64
292.936	10.92
293.15	12.03
293.364	12.1
293.577	10.67
293.791	11.9
294.005	11.4
294.218	12.63
294.432	12.93
294.645	12.21
294.859	10.22
295.073	9.89
295.286	8.96
295.5	8.63
295.713	7.97
295.927	7.94
296.14	8.97
296.354	10.28
296.568	9.23
296.781	9.44
296.994	9.46
297.208	10.79
297.421	11.32
297.635	11.67
297.848	11.36
298.062	12.09
298.275	12.74
298.489	11.72
298.702	11.2
298.915	12.27
299.129	12.74
299.342	13.07
299.555	13.13
299.769	13.53
299.982	13.85
300.195	14.49
300.409	13.7
300.622	13.44
300.835	13.53
301.048	12.03
301.262	11.6
301.475	10.5
301.688	11.47
301.901	12.26
302.115	12.57
302.328	12.58
302.541	13.21
302.754	12.69
302.967	13.34
303.18	14.2
303.393	15.25
303.607	14.68
303.82	15.18
304.033	13.59
304.246	13.02
304.459	13.28
304.672	12.48
304.885	12.34
305.098	11.89
305.311	11.5
305.524	11.04
305.737	11.98
305.95	12.45
306.163	12.74
306.376	14.39
306.589	15.34
306.802	14.71
307.015	15.74
307.228	15.01
307.44	16.03
307.653	16.66
307.866	15.97
308.079	15.26
308.292	14.7
308.505	14.47
308.718	13.61
308.93	13
309.143	13.28
309.356	13.1
309.569	13.38
309.781	13.5
309.994	13.33
310.207	14.03
310.42	14.28
310.632	15.59
310.845	15.79
311.058	16.15
311.27	16.26
311.483	15.89
311.696	16.24
311.908	16.95
312.121	16.46
312.333	15.11
312.546	15
312.759	14.96
312.971	14.58
313.184	14.35
313.396	14.11
313.609	14.51
313.821	15.21
314.034	14.89
314.246	13.79
314.459	14.38
314.671	15.57
314.884	15.54
315.096	15.8
315.309	14.72
315.521	13.81
315.733	13.27
315.946	11.51
316.158	11.11
316.371	10.55
316.583	10.59
316.795	11.04
317.008	11.67
317.22	12.29
317.432	12.07
317.644	12.81
317.857	15.05
318.069	15.64
318.281	15.67
318.494	15.5
318.706	16.73
318.918	17.2
319.13	17.66
319.342	17.57
319.555	16.94
319.767	16.94
319.979	16.96
320.191	15.11
320.403	16.41
320.615	16.74
320.827	16.72
321.039	15.87
321.252	15.94
321.464	15.17
321.676	13.68
321.888	14.44
322.1	13.93
322.312	14.01
322.524	14.57
322.736	13.11
322.948	14
323.16	13.86
323.372	14.23
323.584	14.05
323.796	14.31
324.007	15.85
324.219	16.26
324.431	17.44
324.643	17.93
324.855	18.59
325.067	19.04
325.279	19.39
325.491	20.9
325.702	21.46
325.914	21.57
326.126	21.42
326.338	20.22
326.55	20.11
326.761	20.26
326.973	20.13
327.185	20.58
327.396	21.4
327.608	21.4
327.82	21.39
328.032	21.71
328.243	21.82
328.455	22.83
328.666	25.09
328.878	24.71
329.09	23.44
329.301	23.29
329.513	23.12
329.725	21.82
329.936	22.66
330.148	22.61
330.359	22.71
330.571	24.26
330.782	25.44
330.994	24.14
331.205	25.79
331.417	27.23
331.628	28.75
331.84	29.52
332.051	31.31
332.262	30.78
332.474	31.52
332.685	31.86
332.897	31.56
333.108	31.66
333.319	32.7
333.531	33.39
333.742	33.92
333.953	33.88
334.165	33.2
334.376	33.17
334.587	34
334.799	33.87
335.01	34.26
335.221	33.75
335.432	33.77
335.644	33.66
335.855	32.97
336.066	32.52
336.277	32.5
336.488	33.31
336.7	32.72
336.911	32.9
337.122	32.66
337.333	32.61
337.544	33.04
337.755	32.99
337.966	32.57
338.177	33.13
338.388	32.92
338.599	32.66
338.811	31.9
339.022	32.4
339.233	31.87
339.444	31.49
339.655	31.66
339.866	31.98
340.076	30.71
340.287	31.69
340.498	31.4
340.709	32.1
340.92	31.92
341.131	32.37
341.342	32.15
341.553	32.18
341.764	31.32
341.975	30.92
342.185	31.19
342.396	32.21
342.607	31.8
342.818	31.23
343.029	30.98
343.239	31.5
343.45	31.25
343.661	31.65
343.872	31.44
344.082	32.07
344.293	31.74
344.504	31.59
344.714	32.35
344.925	33.15
345.136	33.5
345.346	34.67
345.557	34.48
345.768	34.3
345.978	34.74
346.189	35.16
346.399	35.89
346.61	36.39
346.821	36.16
347.031	35.38
347.242	34.98
347.452	35.28
347.663	35.05
347.873	34.61
348.084	35
348.294	34.28
348.504	33.58
348.715	33.05
348.925	32.7
349.136	31.97
349.346	31.18
349.557	31.06
349.767	30.21
349.977	29.73
350.188	29.74
350.398	29.65
350.608	29.64
350.819	29.85
351.029	29.61
351.239	29.93
351.449	31.51
351.66	31.32
351.87	31.55
352.08	32.17
352.29	31.97
352.501	32.72
352.711	32.33
352.921	32.4
353.131	32.81
353.341	33.53
353.552	33.78
353.762	32.35
353.972	33.41
354.182	32.52
354.392	32.49
354.602	32.33
354.812	31.53
355.022	31.73
355.232	32.12
355.442	31.85
355.652	31.71
355.862	30.89
356.072	31.5
356.282	31.69
356.492	32.25
356.702	32.35
356.912	32.15
357.122	32.18
357.332	32.63
357.542	31.94
357.752	31.6
357.962	31.09
358.171	31.34
358.381	30.96
358.591	29.77
358.801	29.11
359.011	28.22
359.221	28.71
359.43	29.35
359.64	28.62
359.85	28.94
360.06	28.91
360.269	29.25
360.479	29.5
360.689	29.38
360.899	29.51
361.108	30
361.318	30.15
361.528	30.14
361.737	29.93
361.947	30.1
362.156	29.53
362.366	29.21
362.576	29.21
362.785	29.11
362.995	29.43
363.204	30.1
363.414	29.83
363.623	29.76
363.833	29.28
364.042	29.27
364.252	29.88
364.461	30.06
364.671	30.72
364.88	30.53
365.09	30.22
365.299	29.91
365.509	29.49
365.718	29.53
365.927	29.87
366.137	29.79
366.346	29.78
366.555	29.19
366.765	29.58
366.974	29.67
367.183	29.5
367.393	29.93
367.602	30.1
367.811	30.56
368.021	30.28
368.23	29.44
368.439	29.38
368.648	28.98
368.857	28.77
369.067	28.06
369.276	27.54
369.485	28.32
369.694	28.05
369.903	28.23
370.112	27.19
370.321	27.61
370.531	28.22
370.74	28.46
370.949	28.63
371.158	28.11
371.367	28.19
371.576	28.5
371.785	27.54
371.994	27.65
372.203	26.96
372.412	27.63
372.621	27.45
372.83	26.67
373.039	26.6
373.248	26.05
373.457	26.69
373.666	27.04
373.874	26.39
374.083	26.13
374.292	25.77
374.501	26.3
374.71	25.19
374.919	24.72
375.128	25.78
375.336	25.56
375.545	25.73
375.754	25.55
375.963	25.16
376.171	25.26
376.38	25.22
376.589	24.57
376.798	23.87
377.006	23.82
377.215	23.99
377.424	23.63
377.632	23.3
377.841	23.27
378.05	22.66
378.258	22.46
378.467	22
378.675	21.99
378.884	22.79
379.093	22.57
379.301	22.85
379.51	22.61
379.718	22.52
379.927	22.65
380.135	22.47
380.344	22.47
380.552	22.51
380.761	22.7
380.969	22.63
381.177	22.26
381.386	22.75
381.594	22.64
381.803	22.33
382.011	21.73
382.219	21.83
382.428	21.99
382.636	22.22
382.845	22.41
383.053	22.22
383.261	22.23
383.469	21.88
383.678	21.13
383.886	20.75
384.094	20.43
384.302	20.79
384.511	20.58
384.719	19.97
384.927	20.23
385.135	19.98
385.343	20.35
385.552	20.32
385.76	20.52
385.968	20.56
386.176	20.86
386.384	21.14
386.592	20.86
386.8	20.71
387.008	21.03
387.216	20.62
387.424	20.78
387.633	20.39
387.841	20.04
388.049	19.23
388.257	19.32
388.465	19.24
388.672	19.02
388.88	18.82
389.088	18.78
389.296	18.26
389.504	17.46
389.712	17.04
389.92	16.92
390.128	16.73
390.336	17.15
390.544	17.26
390.751	17.13
390.959	17.35
391.167	17.47
391.375	16.98
391.583	17.19
391.79	17.43
391.998	17.33
392.206	17.39
392.414	17.72
392.621	17.22
392.829	17.13
393.037	16.99
393.244	16.92
393.452	16.69
393.66	16.79
393.867	16.96
394.075	17.27
394.283	17.19
394.49	17.06
394.698	16.82
394.905	17.02
395.113	16.59
395.32	16.64
395.528	16.55
395.735	16.61
395.943	16.68
396.15	16.3
396.358	16.22
396.565	16.49
396.773	16.29
396.98	16.28
397.188	16.43
397.395	16.83
397.602	16.85
397.81	16.61
398.017	16.39
398.225	16.33
398.432	16.47
398.639	16.43
398.847	16.26
399.054	16.35
399.261	16.46
399.468	16.48
399.676	16.32
399.883	16.04
400.09	15.71
400.297	15.6
400.505	15.32
400.712	14.99
400.919	14.52
401.126	14.21
401.333	13.73
401.54	13.09
401.748	12.94
401.955	12.98
402.162	13.05
402.369	13.43
402.576	13.51
402.783	13.78
402.99	13.74
403.197	13.72
403.404	13.81
403.611	14.33
403.818	14.45
404.025	14.41
404.232	14.26
404.439	14
404.646	13.53
404.853	13.31
405.06	13.26
405.267	13.16
405.474	13.21
405.681	12.91
405.887	12.81
406.094	12.7
406.301	12.44
406.508	12.41
406.715	12.81
406.922	13.32
407.128	13.77
407.335	13.56
407.542	13.52
407.749	13.55
407.955	13.58
408.162	13.36
408.369	13.39
408.575	13.38
408.782	13.38
408.989	13.13
409.195	12.78
409.402	12.09
409.609	12.41
409.815	12.28
410.022	12.27
410.228	12.48
410.435	12.32
410.642	12.17
410.848	11.94
411.055	11.93
411.261	11.83
411.468	11.79
411.674	12.14
411.881	11.83
412.087	12.07
412.294	12.01
412.5	12.1
412.706	12.39
412.913	12.33
413.119	12.59
413.326	12.22
413.532	12.29
413.738	12.5
413.945	12.19
414.151	12.5
414.357	12.33
414.564	12.36
414.77	12.22
414.976	12.08
415.182	12.34
415.389	12.2
415.595	12.16
415.801	12.14
416.007	12.15
416.214	12.05
416.42	11.98
416.626	12.09
416.832	12.04
417.038	12.13
417.244	12.09
417.45	12.13
417.657	12.35
417.863	12.45
418.069	12.21
418.275	12.13
418.481	12.29
418.687	12.25
418.893	12.18
419.099	12.38
419.305	12.15
419.511	12.14
419.717	12.19
419.923	11.95
420.129	11.89
420.335	11.97
420.541	12.06
420.746	11.88
420.952	11.7
421.158	11.69
421.364	11.39
421.57	11.38
421.776	11.26
421.982	11.04
422.187	11.04
422.393	10.98
422.599	10.87
422.805	10.77
423.01	10.88
423.216	10.89
423.422	10.87
423.628	10.9
423.833	10.8
424.039	10.9
424.245	11
424.45	11.08
424.656	11.16
424.862	11.18
425.067	11.22
425.273	11.29
425.478	11.35
425.684	11.25
425.889	11.23
426.095	11.3
426.301	11.19
426.506	11.19
426.712	11.02
426.917	11.04
427.123	10.93
427.328	10.61
427.533	10.35
427.739	10.28
427.944	10.3
428.15	10.4
428.355	10.46
428.561	10.47
428.766	10.42
428.971	10.53
429.177	10.43
429.382	10.51
429.587	10.6
429.793	10.83
429.998	10.74
430.203	10.61
430.408	10.71
430.614	10.81
430.819	10.72
431.024	10.79
431.229	10.87
431.434	10.89
431.64	11.12
431.845	11.21
432.05	11.02
432.255	11
432.46	11.1
432.665	10.71
432.87	10.67
433.076	10.87
433.281	10.75
433.486	10.53
433.691	10.49
433.896	10.4
434.101	10.28
434.306	10.4
434.511	10.36
434.716	10.46
434.921	10.68
435.126	10.48
435.331	10.34
435.535	10.22
435.74	10.25
435.945	10.14
436.15	10.29
436.355	10.34
436.56	10.18
436.765	10.16
436.97	10.06
437.174	10.01
437.379	10.23
437.584	10.27
437.789	10.31
437.993	10.4
438.198	10.57
438.403	10.47
438.608	10.45
438.812	10.53
439.017	10.66
439.222	10.57
439.426	10.55
439.631	10.37
439.836	10.43
440.04	10.33
440.245	10.23
440.45	10.21
440.654	10.24
440.859	10.17
441.063	10.11
441.268	10.02
441.472	10.09
441.677	10.09
441.881	10.24
442.086	10.16
442.29	10.27
442.495	10.4
442.699	10.51
442.904	10.39
443.108	10.48
443.312	10.52
443.517	10.51
443.721	10.51
443.925	10.41
444.13	10.29
444.334	10.28
444.538	10.31
444.743	10.15
444.947	9.77
445.151	9.84
445.356	10
445.56	9.99
445.764	10.13
445.968	10.16
446.173	10.12
446.377	10.06
446.581	10.06
446.785	10.04
446.989	10.03
447.193	10.34
447.398	10.18
447.602	9.92
447.806	9.76
448.01	9.71
448.214	9.68
448.418	9.71
448.622	9.82
448.826	9.67
449.03	9.65
449.234	9.73
449.438	9.55
449.642	9.56
449.846	9.72
450.05	10.04
450.254	9.88
450.458	9.85
450.662	9.97
450.866	9.82
451.069	9.82
451.273	9.67
451.477	9.54
451.681	9.54
451.885	9.61
452.089	9.46
452.292	9.21
452.496	9.29
452.7	9.25
452.904	9.18
453.107	9.36
453.311	9.46
453.515	9.41
453.719	9.47
453.922	9.48
454.126	9.52
454.33	9.64
454.533	9.73
454.737	9.7
454.94	9.77
455.144	9.54
455.348	9.42
455.551	9.45
455.755	9.58
455.958	9.66
456.162	9.71
456.365	9.9
456.569	9.87
456.772	10.01
456.976	9.82
457.179	9.88
457.383	9.96
457.586	9.88
457.79	9.7
457.993	9.53
458.196	9.45
458.4	9.23
458.603	8.9
458.807	8.87
459.01	8.86
459.213	9.05
