Data from CB_044_Reflection_00006.txt Node
Date: Wed Nov 11 22:17:21 EST 2015
User: robert
Spectrometer: USB4E03001
Autoset integration time: false
Trigger mode: 4
Integration Time (sec): 1.000000E-1
Scans to average: 15
Electric dark correction enabled: true
Nonlinearity correction enabled: false
Boxcar width: 5
Stray light correction enabled: false
XAxis mode: Wavelengths
Stop averaging: false
Number of Pixels in Spectrum: 3648
>>>>>Begin Spectral Data<<<<<
177.566	-99
177.785	-141.45
178.005	58.19
178.225	371.33
178.445	37.24
178.665	59.92
178.885	638.15
179.105	-115.64
179.324	-25.11
179.544	30.77
179.764	41.11
179.984	45.67
180.204	66.12
180.423	91.49
180.643	71.19
180.863	61.37
181.083	61.08
181.302	61.11
181.522	42.46
181.742	48.78
181.961	52.33
182.181	50.84
182.401	53.64
182.621	48.32
182.84	36.18
183.06	33.24
183.279	42.22
183.499	50.52
183.719	45.75
183.938	48.27
184.158	30.09
184.377	42.44
184.597	32.95
184.816	58.94
185.036	72.69
185.256	80.82
185.475	101.28
185.695	89.5
185.914	80.77
186.134	133.29
186.353	152.09
186.572	100.54
186.792	74.25
187.011	77.78
187.231	66.34
187.45	58.95
187.67	39.99
187.889	9.05
188.108	45.57
188.328	51.33
188.547	21.86
188.766	30.36
188.986	31.46
189.205	20.41
189.424	35.48
189.644	18.93
189.863	33.66
190.082	64.05
190.302	68.98
190.521	44.07
190.74	59.17
190.959	93.03
191.178	75.92
191.398	71.06
191.617	90.28
191.836	81.49
192.055	70.84
192.274	58.36
192.494	43.63
192.713	41.81
192.932	63.65
193.151	34.17
193.37	8.57
193.589	0.63
193.808	8.97
194.027	-10.66
194.246	18.57
194.465	37.86
194.685	45.88
194.904	37.09
195.123	42.74
195.342	10.33
195.561	31.18
195.78	44.7
195.999	62.38
196.218	55
196.436	45.69
196.655	26.36
196.874	5.21
197.093	-12.24
197.312	25.21
197.531	16.08
197.75	49.29
197.969	55.99
198.188	38.23
198.407	25.69
198.625	20.62
198.844	32.52
199.063	20.62
199.282	10.4
199.501	6.99
199.719	-22.36
199.938	4.07
200.157	-24.62
200.376	16.47
200.594	39.57
200.813	46.91
201.032	66.89
201.251	82.38
201.469	93.57
201.688	94.5
201.907	82.4
202.125	74.35
202.344	66.53
202.563	65.59
202.781	43.36
203	30.12
203.218	21.39
203.437	5.19
203.656	23.41
203.874	33.6
204.093	26.28
204.311	40.34
204.53	35.65
204.748	20.76
204.967	21.88
205.185	20.49
205.404	30.48
205.622	37.17
205.841	55.02
206.059	31.04
206.278	44.59
206.496	45.41
206.715	38.06
206.933	44.72
207.151	52.3
207.37	42.39
207.588	43.26
207.806	53.27
208.025	66.01
208.243	60.77
208.461	66.13
208.68	58.68
208.898	75.72
209.116	58.08
209.335	64.01
209.553	81.89
209.771	94.65
209.989	97.11
210.208	74.2
210.426	51.24
210.644	55.52
210.862	54.3
211.081	62.77
211.299	76.43
211.517	110.04
211.735	82.56
211.953	72.41
212.171	85.35
212.39	89.74
212.608	107.49
212.826	100.2
213.044	111.12
213.262	108.3
213.48	119.3
213.698	97.03
213.916	99.54
214.134	87.33
214.352	84.86
214.57	66.14
214.788	85.91
215.006	40.37
215.224	52.67
215.442	11.45
215.66	37.06
215.878	32.92
216.096	44.41
216.314	48.83
216.532	80.71
216.75	91.11
216.968	96.86
217.185	75
217.403	87.84
217.621	84.77
217.839	80.65
218.057	73.59
218.275	82.05
218.492	84.38
218.71	76.97
218.928	78.29
219.146	74.33
219.363	79.65
219.581	93.11
219.799	84.09
220.017	86.7
220.234	68.2
220.452	86.13
220.67	78.93
220.887	72.01
221.105	67.71
221.323	44.39
221.54	36.46
221.758	30.35
221.976	30.87
222.193	27.23
222.411	19.6
222.629	26.59
222.846	10.34
223.064	-6.38
223.281	-0.32
223.499	9.73
223.716	16.51
223.934	15.17
224.151	8.87
224.369	1
224.586	-7.12
224.804	-6.58
225.021	-14.65
225.239	-8.64
225.456	-6.44
225.674	-1.86
225.891	4.74
226.108	10.8
226.326	-8.89
226.543	-9.36
226.76	-6.32
226.978	-6.2
227.195	-4.21
227.413	3.13
227.63	10.68
227.847	15.64
228.064	12.64
228.282	8.81
228.499	6.8
228.716	11.78
228.934	14.62
229.151	10.89
229.368	11.01
229.585	11.77
229.802	9.56
230.02	5.49
230.237	2.98
230.454	3.46
230.671	4.19
230.888	3.62
231.105	6.23
231.323	6.14
231.54	12.92
231.757	13.17
231.974	10.2
232.191	12.96
232.408	17.73
232.625	17.85
232.842	17.42
233.059	22.98
233.276	26.92
233.493	24.02
233.71	20.65
233.927	19.11
234.144	20.93
234.361	25.8
234.578	26.41
234.795	26.84
235.012	29.71
235.229	29.81
235.446	27.98
235.663	27.32
235.879	26.07
236.096	27.43
236.313	24.92
236.53	26.57
236.747	28.67
236.964	25.39
237.181	26.47
237.397	21.78
237.614	23.17
237.831	21.04
238.048	18.36
238.264	18.44
238.481	19.92
238.698	19.08
238.915	16.12
239.131	13.04
239.348	14.43
239.565	13.46
239.781	14
239.998	14.71
240.215	14.95
240.431	15.25
240.648	19.22
240.865	14.04
241.081	16.21
241.298	17.24
241.514	15.43
241.731	18.22
241.947	15.05
242.164	14.46
242.38	11.74
242.597	11.8
242.814	11.18
243.03	10.58
243.246	13.28
243.463	13.7
243.679	13.9
243.896	17.07
244.112	16.08
244.329	19.44
244.545	19.45
244.762	20.89
244.978	21.21
245.194	21.26
245.411	18.9
245.627	16.37
245.843	15.68
246.06	14.09
246.276	11.8
246.492	10.35
246.709	8.94
246.925	10.83
247.141	11.58
247.357	10.7
247.574	10.83
247.79	10.66
248.006	11.32
248.222	11.38
248.439	11.19
248.655	11.82
248.871	11.98
249.087	12.04
249.303	11.1
249.519	10.52
249.736	10.98
249.952	11.08
250.168	14.04
250.384	12.53
250.6	11.35
250.816	14.39
251.032	11.82
251.248	14.7
251.464	13.47
251.68	13.69
251.896	15.11
252.112	13.91
252.328	12.85
252.544	11.1
252.76	11.95
252.976	10.64
253.192	7.57
253.408	9.67
253.624	9.08
253.84	10.74
254.056	10.17
254.272	11.18
254.487	11.63
254.703	11.31
254.919	9.84
255.135	8.22
255.351	9.46
255.567	11.44
255.782	11.88
255.998	9.73
256.214	10.38
256.43	12.88
256.646	9.17
256.861	8.73
257.077	10.16
257.293	10.33
257.508	11.15
257.724	13.45
257.94	13.85
258.155	12.65
258.371	11.99
258.587	11.01
258.802	9.87
259.018	10.19
259.234	9.7
259.449	9.32
259.665	9.51
259.88	9.66
260.096	8.62
260.312	7.79
260.527	7.86
260.743	7.88
260.958	7.93
261.174	7.37
261.389	7.19
261.605	7.46
261.82	8.86
262.036	9.28
262.251	10.37
262.466	10.67
262.682	12.1
262.897	11.79
263.113	12
263.328	12.12
263.543	13.56
263.759	13.41
263.974	14.01
264.189	12.6
264.405	11.55
264.62	7.97
264.835	8.11
265.051	7.22
265.266	9.02
265.481	8.91
265.696	8.37
265.912	8.38
266.127	8.36
266.342	8.95
266.557	8.1
266.773	7.65
266.988	9.1
267.203	7.75
267.418	8.28
267.633	8.23
267.848	8.77
268.064	9.04
268.279	8.35
268.494	7.5
268.709	8.59
268.924	9.15
269.139	9.89
269.354	10.91
269.569	12.32
269.784	13.21
269.999	11.91
270.214	11.82
270.429	11.88
270.644	12.2
270.859	13.09
271.074	11.62
271.289	11.51
271.504	12.53
271.719	11.2
271.934	10.4
272.149	9.37
272.363	10.66
272.578	10.53
272.793	11.23
273.008	11.02
273.223	10.84
273.438	10.57
273.653	11.33
273.867	10.47
274.082	10.39
274.297	10.54
274.512	10.95
274.726	9.12
274.941	10.58
275.156	11.67
275.371	11.07
275.585	10.79
275.8	10.95
276.015	10.16
276.229	11.04
276.444	11.24
276.659	12.13
276.873	12.45
277.088	14.09
277.302	13.39
277.517	10.77
277.732	11.87
277.946	12.62
278.161	14.34
278.375	14.54
278.59	14.35
278.804	14.44
279.019	13.81
279.233	12.94
279.448	12.04
279.662	10.71
279.877	10.64
280.091	10.3
280.306	10.99
280.52	9.3
280.735	9.16
280.949	8.3
281.163	8.94
281.378	7.55
281.592	7.53
281.806	7.64
282.021	7.75
282.235	7.66
282.449	6.93
282.664	5.27
282.878	4.05
283.092	3.94
283.307	4.76
283.521	4.3
283.735	5.25
283.949	5.64
284.164	6.78
284.378	6.75
284.592	7.48
284.806	8.59
285.02	8.86
285.234	11.04
285.449	10.6
285.663	9.76
285.877	10.14
286.091	10.57
286.305	10.52
286.519	9.7
286.733	10.03
286.947	10.27
287.161	9.98
287.375	10.06
287.589	9.63
287.803	10.17
288.017	10.35
288.231	10.78
288.445	11.21
288.659	10.62
288.873	11.24
289.087	11.1
289.301	10.24
289.515	11.07
289.729	11.51
289.943	10.54
290.157	10.52
290.371	11.16
290.584	10.78
290.798	10.28
291.012	11.4
291.226	11.08
291.44	11.28
291.654	11.85
291.867	10.6
292.081	10.54
292.295	11.26
292.509	10.88
292.722	9.28
292.936	8.21
293.15	8.09
293.364	7.56
293.577	7.06
293.791	7.22
294.005	6.31
294.218	7.45
294.432	8.4
294.645	8.69
294.859	8.4
295.073	9.35
295.286	9.14
295.5	9.41
295.713	9.29
295.927	8.61
296.14	8.28
296.354	9.29
296.568	8.58
296.781	7.91
296.994	7.92
297.208	9.32
297.421	9.07
297.635	10.11
297.848	9.77
298.062	9.67
298.275	10.47
298.489	11.18
298.702	11.8
298.915	12.58
299.129	13.94
299.342	13.5
299.555	12.96
299.769	13.37
299.982	12.92
300.195	13.68
300.409	13.89
300.622	13.78
300.835	12.61
301.048	11.43
301.262	10.78
301.475	9.24
301.688	10.17
301.901	10.69
302.115	10.65
302.328	11.66
302.541	11.72
302.754	11.41
302.967	11.57
303.18	13.16
303.393	13.14
303.607	12.38
303.82	12.27
304.033	11.31
304.246	10.93
304.459	11.88
304.672	11.18
304.885	10.57
305.098	10.62
305.311	10.79
305.524	9.32
305.737	10.16
305.95	10.97
306.163	11.91
306.376	12.81
306.589	12.75
306.802	12.05
307.015	11.57
307.228	12.05
307.44	13.68
307.653	14.71
307.866	14.81
308.079	14.4
308.292	14.15
308.505	13.67
308.718	14.44
308.93	15.27
309.143	14.86
309.356	14.97
309.569	15.12
309.781	14.1
309.994	13.66
310.207	13.97
310.42	13.56
310.632	14.53
310.845	14.5
311.058	13.85
311.27	13.31
311.483	13.74
311.696	13.95
311.908	14.69
312.121	14.84
312.333	14.57
312.546	14.72
312.759	14.94
312.971	14.4
313.184	14.44
313.396	13.76
313.609	14.21
313.821	14.19
314.034	14.8
314.246	13.65
314.459	13.94
314.671	13.68
314.884	13.96
315.096	14.64
315.309	14.28
315.521	13.95
315.733	15.68
315.946	14.64
316.158	14.73
316.371	14.57
316.583	14.59
316.795	14.66
317.008	15.61
317.22	15.03
317.432	14.47
317.644	15.37
317.857	15.88
318.069	15.01
318.281	14.94
318.494	15.37
318.706	16.33
318.918	16.12
319.13	16.55
319.342	15.79
319.555	15.6
319.767	15.47
319.979	15.19
320.191	15.6
320.403	16.12
320.615	16.01
320.827	14.74
321.039	13.45
321.252	14.62
321.464	14.26
321.676	13.85
321.888	13.84
322.1	14.26
322.312	14.69
322.524	14.54
322.736	13.18
322.948	13.37
323.16	13.87
323.372	14.12
323.584	13.53
323.796	14.15
324.007	14.57
324.219	15.58
324.431	15.67
324.643	15.35
324.855	15.98
325.067	17.4
325.279	18.27
325.491	19.6
325.702	19.42
325.914	19.8
326.126	18.7
326.338	18.59
326.55	18.13
326.761	19.02
326.973	19.92
327.185	20
327.396	20.55
327.608	20.14
327.82	19.8
328.032	21.25
328.243	22.02
328.455	23.71
328.666	25.51
328.878	25.33
329.09	24.42
329.301	23.93
329.513	23.32
329.725	22.04
329.936	23.42
330.148	22.95
330.359	21.52
330.571	21.75
330.782	20.87
330.994	20.06
331.205	21.9
331.417	22.93
331.628	22.97
331.84	23.65
332.051	25.02
332.262	25.22
332.474	26.28
332.685	27.5
332.897	27.22
333.108	29.33
333.319	29.7
333.531	29.33
333.742	29.34
333.953	29.91
334.165	30.03
334.376	30.74
334.587	30.19
334.799	29.97
335.01	29.87
335.221	30.31
335.432	29.43
335.644	29.19
335.855	28.94
336.066	29.23
336.277	29.82
336.488	30.01
336.7	29.34
336.911	29.56
337.122	29.96
337.333	29.66
337.544	29.57
337.755	29.21
337.966	29.3
338.177	29.45
338.388	29.12
338.599	29.07
338.811	28.65
339.022	28.39
339.233	29.12
339.444	28.51
339.655	28.77
339.866	28.16
340.076	28.16
340.287	28.56
340.498	29.28
340.709	30.15
340.92	29.91
341.131	30.79
341.342	30.7
341.553	29.99
341.764	30.16
341.975	29.82
342.185	30.46
342.396	30.98
342.607	30.68
342.818	29.89
343.029	29.23
343.239	29.66
343.45	29.18
343.661	28.94
343.872	29.26
344.082	29.19
344.293	29.44
344.504	28.88
344.714	28.56
344.925	27.99
345.136	28.14
345.346	28.01
345.557	27.24
345.768	26.96
345.978	28.01
346.189	28.43
346.399	28.41
346.61	28.2
346.821	28.62
347.031	28.61
347.242	29.63
347.452	29.92
347.663	30.8
347.873	30.53
348.084	31.2
348.294	30.53
348.504	29.45
348.715	29.82
348.925	30.09
349.136	29.26
349.346	29.25
349.557	29.32
349.767	29.03
349.977	28.51
350.188	28.45
350.398	27.39
350.608	27.53
350.819	28.5
351.029	28.3
351.239	27.41
351.449	28.55
351.66	28.08
351.87	28.08
352.08	28.18
352.29	27.74
352.501	28.57
352.711	29.19
352.921	29.45
353.131	29.09
353.341	29.26
353.552	30.31
353.762	28.9
353.972	30.13
354.182	29.62
354.392	29.85
354.602	30.31
354.812	30.15
355.022	29.85
355.232	30.11
355.442	30.1
355.652	30.16
355.862	30.28
356.072	31.45
356.282	30.65
356.492	31.43
356.702	31.55
356.912	31.15
357.122	30.89
357.332	31.61
357.542	31.21
357.752	31.2
357.962	30.78
358.171	30.26
358.381	29.77
358.591	29.34
358.801	28.98
359.011	27.91
359.221	28.16
359.43	28.51
359.64	27.8
359.85	27.61
360.06	26.97
360.269	27.37
360.479	27.52
360.689	27.63
360.899	27.59
361.108	27.45
361.318	28.02
361.528	28.17
361.737	27.5
361.947	27.31
362.156	27
362.366	27.31
362.576	26.98
362.785	26.88
362.995	26.73
363.204	27.02
363.414	26.93
363.623	26.81
363.833	26.07
364.042	26.34
364.252	27.12
364.461	27.21
364.671	27.5
364.88	27.71
365.09	27.57
365.299	27.37
365.509	27.42
365.718	27.37
365.927	27.36
366.137	27.58
366.346	27.66
366.555	27.23
366.765	27.44
366.974	27.06
367.183	27.17
367.393	27.82
367.602	28.06
367.811	27.79
368.021	27.52
368.23	27.32
368.439	27.51
368.648	27.55
368.857	26.86
369.067	26.32
369.276	26.08
369.485	25.78
369.694	25.27
369.903	25.07
370.112	25.05
370.321	25.13
370.531	24.99
370.74	25.05
370.949	24.72
371.158	24.62
371.367	24.97
371.576	25.11
371.785	24.5
371.994	24.64
372.203	24.65
372.412	24.86
372.621	25
372.83	24.72
373.039	24.57
373.248	24.24
373.457	24.69
373.666	24.75
373.874	24.49
374.083	24.28
374.292	23.6
374.501	23.49
374.71	22.96
374.919	22.6
375.128	23.12
375.336	22.49
375.545	22.77
375.754	22.5
375.963	21.69
376.171	21.45
376.38	21.28
376.589	21.53
376.798	21.38
377.006	21.47
377.215	21.85
377.424	21.32
377.632	21.38
377.841	20.95
378.05	20.73
378.258	21.37
378.467	21.39
378.675	21.96
378.884	21.86
379.093	21.63
379.301	21.18
379.51	20.55
379.718	20.6
379.927	20.48
380.135	20.55
380.344	20.67
380.552	20.4
380.761	19.89
380.969	19.5
381.177	19.29
381.386	19.24
381.594	19.35
381.803	18.81
382.011	18.72
382.219	18.64
382.428	18.86
382.636	18.35
382.845	18.19
383.053	18.08
383.261	17.82
383.469	17.77
383.678	17.37
383.886	17.47
384.094	17.56
384.302	18.17
384.511	17.85
384.719	17.63
384.927	17.97
385.135	17.95
385.343	18.05
385.552	18.36
385.76	18.31
385.968	18.17
386.176	18.04
386.384	18.31
386.592	17.65
386.8	18.23
387.008	18.23
387.216	18.13
387.424	18.05
387.633	17.9
387.841	17.8
388.049	17.3
388.257	17.81
388.465	17.9
388.672	17.66
388.88	17.44
389.088	17.38
389.296	17.18
389.504	16.86
389.712	16.83
389.92	16.96
390.128	16.47
390.336	16.57
390.544	16.48
390.751	16.29
390.959	16.37
391.167	16.28
391.375	16.1
391.583	16.37
391.79	16.45
391.998	16.26
392.206	16.32
392.414	16.53
392.621	16.21
392.829	16.02
393.037	15.77
393.244	15.44
393.452	15.73
393.66	15.59
393.867	15.41
394.075	15.51
394.283	15.6
394.49	15.66
394.698	15.67
394.905	16.31
395.113	16.14
395.32	16.28
395.528	16.73
395.735	16.47
395.943	16.18
396.15	15.89
396.358	15.83
396.565	16.09
396.773	15.94
396.98	16.04
397.188	15.75
397.395	15.96
397.602	16
397.81	15.85
398.017	15.76
398.225	15.82
398.432	16.31
398.639	16.31
398.847	15.78
399.054	15.75
399.261	15.62
399.468	15.74
399.676	15.97
399.883	15.93
400.09	15.5
400.297	15.48
400.505	15.45
400.712	15.06
400.919	15.07
401.126	15.2
401.333	14.84
401.54	14.57
401.748	14.37
401.955	14.1
402.162	13.88
402.369	14.09
402.576	14.4
402.783	14.52
402.99	13.88
403.197	13.69
403.404	13.57
403.611	13.87
403.818	13.94
404.025	13.94
404.232	13.83
404.439	13.9
404.646	13.56
404.853	13.15
405.06	13.22
405.267	13.53
405.474	13.5
405.681	13.49
405.887	13.23
406.094	13.13
406.301	13.11
406.508	13.17
406.715	13.31
406.922	13.72
407.128	14.06
407.335	13.8
407.542	13.58
407.749	13.58
407.955	13.46
408.162	13.65
408.369	13.46
408.575	13.42
408.782	13.44
408.989	13.33
409.195	12.98
409.402	12.62
409.609	12.76
409.815	12.9
410.022	13.08
410.228	13.07
410.435	12.98
410.642	13.15
410.848	12.94
411.055	13.15
411.261	12.79
411.468	12.75
411.674	12.9
411.881	12.74
412.087	12.81
412.294	12.77
412.5	13.2
412.706	13.2
412.913	13.19
413.119	13.41
413.326	13.18
413.532	13.45
413.738	13.59
413.945	13.07
414.151	13.32
414.357	13.16
414.564	12.65
414.77	12.19
414.976	12.33
415.182	12.47
415.389	12.04
415.595	11.58
415.801	11.38
416.007	11.39
416.214	11.44
416.42	11.34
416.626	11.35
416.832	11.5
417.038	11.57
417.244	11.22
417.45	11.1
417.657	11.37
417.863	11.64
418.069	11.67
418.275	11.69
418.481	11.85
418.687	11.83
418.893	11.83
419.099	12.15
419.305	12.04
419.511	12.14
419.717	12.17
419.923	12.05
420.129	11.93
420.335	11.92
420.541	11.9
420.746	11.89
420.952	11.81
421.158	11.76
421.364	11.47
421.57	11.38
421.776	11.44
421.982	11.32
422.187	11.24
422.393	11.14
422.599	11.16
422.805	11.02
423.01	10.99
423.216	10.88
423.422	10.8
423.628	10.8
423.833	10.81
424.039	10.73
424.245	10.93
424.45	11.11
424.656	11.3
424.862	11.17
425.067	11.41
425.273	11.44
425.478	11.46
425.684	11.6
425.889	11.72
426.095	11.75
426.301	11.75
426.506	11.73
426.712	11.52
426.917	11.43
427.123	11.61
427.328	11.28
427.533	11.16
427.739	11.3
427.944	11.32
428.15	11.2
428.355	11.27
428.561	11.31
428.766	11.03
428.971	11
429.177	11.09
429.382	11
429.587	11.12
429.793	11.28
429.998	11.1
430.203	10.98
430.408	10.9
430.614	10.73
430.819	10.55
431.024	10.71
431.229	10.93
431.434	10.8
431.64	10.89
431.845	10.9
432.05	10.9
432.255	10.82
432.46	10.86
432.665	10.87
432.87	11.13
433.076	11.4
433.281	11.5
433.486	11.35
433.691	11.48
433.896	11.38
434.101	11.31
434.306	11.12
434.511	11.23
434.716	11.22
434.921	11.35
435.126	11.2
435.331	10.84
435.535	10.62
435.74	10.54
435.945	10.22
436.15	10.51
436.355	10.55
436.56	10.8
436.765	10.67
436.97	10.72
437.174	10.59
437.379	10.6
437.584	10.84
437.789	10.85
437.993	11.09
438.198	11.15
438.403	10.95
438.608	10.9
438.812	10.82
439.017	11
439.222	10.96
439.426	11.06
439.631	10.97
439.836	10.9
440.04	10.8
440.245	10.6
440.45	10.55
440.654	10.55
440.859	10.5
441.063	10.49
441.268	10.46
441.472	10.46
441.677	10.34
441.881	10.45
442.086	10.52
442.29	10.62
442.495	10.65
442.699	10.62
442.904	10.46
443.108	10.5
443.312	10.52
443.517	10.48
443.721	10.59
443.925	10.37
444.13	10.23
444.334	10.18
444.538	10.11
444.743	10.13
444.947	9.96
445.151	10.06
445.356	10.04
445.56	9.98
445.764	10.06
445.968	9.96
446.173	10.09
446.377	10.04
446.581	10.01
446.785	10.05
446.989	10.08
447.193	10.29
447.398	10.13
447.602	10.03
447.806	10.04
448.01	10.07
448.214	10.07
448.418	10.1
448.622	10.2
448.826	10.08
449.03	10.19
449.234	10.29
449.438	10.38
449.642	10.56
449.846	10.76
450.05	10.8
450.254	10.55
450.458	10.65
450.662	10.75
450.866	10.64
451.069	10.65
451.273	10.21
451.477	10
451.681	9.9
451.885	9.79
452.089	9.68
452.292	9.6
452.496	9.58
452.7	9.49
452.904	9.43
453.107	9.65
453.311	9.8
453.515	10.09
453.719	10.13
453.922	10.08
454.126	10.14
454.33	10.23
454.533	10.45
454.737	10.63
454.94	10.7
455.144	10.48
455.348	10.25
455.551	10.24
455.755	10.01
455.958	10.23
456.162	10.24
456.365	10.44
456.569	10.34
456.772	10
456.976	9.8
457.179	9.75
457.383	9.85
457.586	9.88
457.79	9.8
457.993	9.82
458.196	9.75
458.4	9.7
458.603	9.59
458.807	9.71
459.01	9.78
459.213	9.83
459.417	9.79
459.62	9.79
