Data from CB_098_Reflection_3.txt Node
Date: Sat Nov 14 17:39:09 EST 2015
User: robert
Spectrometer: USB4E03001
Autoset integration time: false
Trigger mode: 4
Integration Time (sec): 1.000000E-1
Scans to average: 15
Electric dark correction enabled: true
Nonlinearity correction enabled: false
Boxcar width: 5
Stray light correction enabled: false
XAxis mode: Wavelengths
Stop averaging: false
Number of Pixels in Spectrum: 3648
>>>>>Begin Spectral Data<<<<<
177.566	91.16
177.785	65.02
178.005	-11.51
178.225	254.49
178.445	616.84
178.665	19.27
178.885	-648.45
179.105	151.41
179.324	170.05
179.544	61.04
179.764	44.75
179.984	36.95
180.204	2.62
180.423	32.75
180.643	88.4
180.863	90.8
181.083	59.86
181.302	76.32
181.522	82.27
181.742	81.62
181.961	113.4
182.181	149.09
182.401	418.85
182.621	253.53
182.84	208.63
183.06	77.39
183.279	65.3
183.499	119.74
183.719	91.24
183.938	87.05
184.158	108.13
184.377	105.97
184.597	96.72
184.816	80.53
185.036	117
185.256	136.75
185.475	127.47
185.695	116.81
185.914	97.9
186.134	99.92
186.353	103.19
186.572	99.9
186.792	97.86
187.011	99.59
187.231	102.84
187.45	93
187.67	91.15
187.889	91.92
188.108	104.48
188.328	125.46
188.547	119.04
188.766	119.47
188.986	116.55
189.205	118.94
189.424	101.68
189.644	104.5
189.863	111.68
190.082	101.43
190.302	90.95
190.521	50.12
190.74	37.2
190.959	25.27
191.178	6.15
191.398	-24.69
191.617	14.62
191.836	46.39
192.055	41.94
192.274	12.12
192.494	56.49
192.713	68.13
192.932	169.33
193.151	305
193.37	213.13
193.589	193.25
193.808	306.79
194.027	469.17
194.246	-1386.08
194.465	2312.75
194.685	234.18
194.904	195.03
195.123	132.42
195.342	153.09
195.561	120.71
195.78	112.42
195.999	142.2
196.218	117.69
196.436	114.25
196.655	105.72
196.874	106.71
197.093	114.88
197.312	121.87
197.531	124.28
197.75	132.57
197.969	144.22
198.188	160.25
198.407	134.21
198.625	145.15
198.844	144.71
199.063	138.66
199.282	151.51
199.501	197.15
199.719	171.77
199.938	156.4
200.157	116.48
200.376	114.35
200.594	110.84
200.813	131.01
201.032	115.47
201.251	106.62
201.469	98.54
201.688	76.58
201.907	59.32
202.125	65.44
202.344	100.16
202.563	100.17
202.781	114.3
203	173.33
203.218	203.14
203.437	157.28
203.656	150.11
203.874	112.86
204.093	148.18
204.311	171.73
204.53	166.31
204.748	99.53
204.967	120.65
205.185	103.5
205.404	70.8
205.622	40.19
205.841	50.01
206.059	60.53
206.278	57.39
206.496	69.24
206.715	56.49
206.933	52.74
207.151	79.24
207.37	90.08
207.588	97.43
207.806	101.54
208.025	115.88
208.243	118.89
208.461	149.96
208.68	159.78
208.898	148.54
209.116	131.17
209.335	135.55
209.553	162.5
209.771	148.17
209.989	128.05
210.208	125.32
210.426	120.19
210.644	102.07
210.862	87.76
211.081	87.52
211.299	90.94
211.517	102.72
211.735	103.31
211.953	86.68
212.171	85.97
212.39	86.02
212.608	91.93
212.826	91.23
213.044	97.53
213.262	87.55
213.48	91.59
213.698	91
213.916	101.42
214.134	86.02
214.352	80.17
214.57	71.45
214.788	67.06
215.006	61.61
215.224	70.81
215.442	95.17
215.66	93.27
215.878	86.32
216.096	58.58
216.314	47.95
216.532	80.59
216.75	87.74
216.968	103.84
217.185	165.74
217.403	182.57
217.621	222.15
217.839	139.85
218.057	159.32
218.275	205.31
218.492	239.5
218.71	262.94
218.928	252.27
219.146	342.45
219.363	258.67
219.581	251.65
219.799	286.15
220.017	252.35
220.234	267.16
220.452	283.55
220.67	299.35
220.887	515.15
221.105	725.56
221.323	11551.53
221.54	1123.26
221.758	6408.93
221.976	2437.76
222.193	460.17
222.411	606.66
222.629	970.86
222.846	1196.97
223.064	-1030.78
223.281	912.6
223.499	618.42
223.716	1079.7
223.934	-548.19
224.151	-155.96
224.369	-104.83
224.586	-49.73
224.804	-16.17
225.021	-14.44
225.239	-15.92
225.456	-20.72
225.674	-38.68
225.891	-44.19
226.108	-76.37
226.326	-84.79
226.543	-46.08
226.76	-26.05
226.978	-8.97
227.195	-10.11
227.413	-14.23
227.63	-0.78
227.847	2.85
228.064	14.86
228.282	12.55
228.499	14.47
228.716	9.48
228.934	6.27
229.151	5.74
229.368	4.74
229.585	1.84
229.802	1.99
230.02	-3.52
230.237	-4.31
230.454	-6.48
230.671	-8.03
230.888	-8.4
231.105	-11.98
231.323	-16.12
231.54	-23.7
231.757	-32.51
231.974	-38.26
232.191	-38
232.408	-32.8
232.625	-30.97
232.842	-35.91
233.059	-25.28
233.276	-31
233.493	-28.6
233.71	-21.82
233.927	-8.93
234.144	-3.4
234.361	-2.08
234.578	-5.93
234.795	-0.43
235.012	-2.58
235.229	-7.03
235.446	-17.24
235.663	-14.29
235.879	-13.89
236.096	-18.08
236.313	-25.51
236.53	-26.81
236.747	-19.03
236.964	-21.18
237.181	-29.99
237.397	-30.64
237.614	-31.46
237.831	-29.26
238.048	-29.78
238.264	-33.11
238.481	-29.26
238.698	-17.63
238.915	-13.16
239.131	-16.52
239.348	-14.97
239.565	-12.22
239.781	-9.11
239.998	-7.25
240.215	-3.51
240.431	-4.35
240.648	5.01
240.865	6.16
241.081	4.71
241.298	4.24
241.514	6.11
241.731	6.3
241.947	7.74
242.164	7.86
242.38	9.85
242.597	9.41
242.814	10.09
243.03	7.04
243.246	7
243.463	7.38
243.679	4.81
243.896	4.37
244.112	3.25
244.329	0.11
244.545	0.8
244.762	2.73
244.978	3.5
245.194	4.12
245.411	3.02
245.627	3.02
245.843	1.35
246.06	3.28
246.276	4.03
246.492	5.97
246.709	5.73
246.925	5.04
247.141	3.99
247.357	4.54
247.574	4.43
247.79	5.06
248.006	4.99
248.222	5.28
248.439	5.25
248.655	4.18
248.871	4.31
249.087	5.83
249.303	5.55
249.519	5.33
249.736	3.08
249.952	3.52
250.168	4.5
250.384	3
250.6	3.85
250.816	3.48
251.032	4.79
251.248	0.64
251.464	-2.23
251.68	-2.4
251.896	-2.49
252.112	-2.31
252.328	-4.16
252.544	-6.6
252.76	-8.92
252.976	-11.07
253.192	-10.86
253.408	-11.45
253.624	-9.3
253.84	-7.96
254.056	-8.02
254.272	-8.58
254.487	-7.91
254.703	-7.27
254.919	-7.56
255.135	-2.55
255.351	-5.99
255.567	-4.29
255.782	-3.71
255.998	-3.76
256.214	-7.36
256.43	-5.04
256.646	-4.95
256.861	-2.69
257.077	-2.91
257.293	1.56
257.508	3.78
257.724	6.7
257.94	7.39
258.155	5.87
258.371	4.58
258.587	5.03
258.802	4.77
259.018	5.56
259.234	5.52
259.449	5.49
259.665	5.34
259.88	4.9
260.096	5.29
260.312	4.99
260.527	6.06
260.743	6.11
260.958	6.44
261.174	6.54
261.389	6.01
261.605	5.55
261.82	6.11
262.036	5.28
262.251	4.87
262.466	4.33
262.682	3.98
262.897	1.01
263.113	1.07
263.328	1.41
263.543	-0.55
263.759	-2.34
263.974	-3.3
264.189	-6.1
264.405	-6.35
264.62	-5.99
264.835	-5.89
265.051	-4.35
265.266	-3.47
265.481	-1.9
265.696	-2.5
265.912	0.17
266.127	2.52
266.342	5.13
266.557	6.5
266.773	5.28
266.988	4.72
267.203	5.1
267.418	4.53
267.633	6.1
267.848	5.87
268.064	5.6
268.279	4.54
268.494	3.31
268.709	2.41
268.924	2.58
269.139	3.01
269.354	3.36
269.569	3.96
269.784	3.68
269.999	2.26
270.214	1.71
270.429	0.86
270.644	1.67
270.859	2.21
271.074	0.9
271.289	1.04
271.504	2.29
271.719	2.8
271.934	1.69
272.149	2.43
272.363	3.36
272.578	5.11
272.793	4.52
273.008	3.49
273.223	4.26
273.438	4.18
273.653	4.46
273.867	3.35
274.082	2.92
274.297	3.52
274.512	0.87
274.726	0.09
274.941	-2.64
275.156	1.08
275.371	2.72
275.585	2.32
275.8	2.9
276.015	1.77
276.229	3.28
276.444	3.16
276.659	2.17
276.873	4.63
277.088	5.89
277.302	7.06
277.517	5.99
277.732	4.74
277.946	4.34
278.161	4.24
278.375	4.98
278.59	4.99
278.804	4.74
279.019	4.81
279.233	3.21
279.448	1.21
279.662	1.38
279.877	0.9
280.091	1.96
280.306	1.2
280.52	1.02
280.735	1.48
280.949	0.2
281.163	0.76
281.378	0.94
281.592	2.49
281.806	2.58
282.021	1.96
282.235	2.54
282.449	2.85
282.664	4.01
282.878	5.38
283.092	4.99
283.307	5.41
283.521	4.69
283.735	4.77
283.949	3.61
284.164	4.74
284.378	5.07
284.592	5.5
284.806	5.49
285.02	5.55
285.234	5
285.449	5.12
285.663	5.3
285.877	6.05
286.091	5.63
286.305	6.01
286.519	5.74
286.733	5.06
286.947	5.03
287.161	5.43
287.375	4.87
287.589	5.47
287.803	5.71
288.017	6.32
288.231	5.49
288.445	5.84
288.659	5.6
288.873	4.85
289.087	5.94
289.301	4.45
289.515	3.48
289.729	3.17
289.943	2.05
290.157	0.9
290.371	0.79
290.584	2.11
290.798	1.34
291.012	2.48
291.226	3.27
291.44	3.14
291.654	3.34
291.867	3.12
292.081	3.75
292.295	4.57
292.509	5.14
292.722	4.86
292.936	4.39
293.15	5.97
293.364	5.38
293.577	4.47
293.791	4.87
294.005	5.6
294.218	6.89
294.432	7.14
294.645	6.58
294.859	8.25
295.073	7.81
295.286	6.75
295.5	7.37
295.713	7.23
295.927	7.49
296.14	7.25
296.354	6.52
296.568	5.28
296.781	5.2
296.994	5.57
297.208	3.93
297.421	4.04
297.635	3.86
297.848	3.71
298.062	3.63
298.275	4.15
298.489	4.19
298.702	4.44
298.915	4.37
299.129	5.2
299.342	5.8
299.555	6.96
299.769	7.91
299.982	8.95
300.195	8.2
300.409	8.98
300.622	8.68
300.835	7.72
301.048	7.72
301.262	8.09
301.475	6.17
301.688	5.31
301.901	4.37
302.115	2.37
302.328	3.21
302.541	3.81
302.754	3.61
302.967	3.98
303.18	4.15
303.393	5.15
303.607	5.32
303.82	6.02
304.033	5.94
304.246	6.54
304.459	7.96
304.672	7.99
304.885	7.75
305.098	6.9
305.311	5.97
305.524	6.71
305.737	5.89
305.95	5.77
306.163	5.07
306.376	4.88
306.589	4.9
306.802	2.52
307.015	0.35
307.228	1.13
307.44	1.71
307.653	4.21
307.866	3.73
308.079	3.34
308.292	5.7
308.505	5.83
308.718	7.23
308.93	7.66
309.143	9.33
309.356	10.79
309.569	10.26
309.781	11.33
309.994	9.95
310.207	9.95
310.42	10.09
310.632	8.94
310.845	9.88
311.058	9.96
311.27	9.97
311.483	10.15
311.696	10.21
311.908	10.49
312.121	9.54
312.333	9.52
312.546	9.61
312.759	10.36
312.971	10.68
313.184	9.87
313.396	8.79
313.609	7.6
313.821	7.25
314.034	5.94
314.246	6.15
314.459	7.48
314.671	7.12
314.884	6.33
315.096	5.75
315.309	5.4
315.521	6.93
315.733	7.29
315.946	7.57
316.158	9.43
316.371	9.99
316.583	8.06
316.795	7.17
317.008	8.33
317.22	9.42
317.432	9.25
317.644	7.09
317.857	7.38
318.069	8.17
318.281	8.13
318.494	5.76
318.706	5.94
318.918	6.39
319.13	5.91
319.342	6.24
319.555	5.96
319.767	5.36
319.979	6.41
320.191	6.82
320.403	6.75
320.615	7.92
320.827	7.14
321.039	7.05
321.252	9.77
321.464	10.2
321.676	9.25
321.888	9.19
322.1	9.52
322.312	10.28
322.524	9.22
322.736	9.59
322.948	8.63
323.16	10.43
323.372	9.59
323.584	7.4
323.796	8.2
324.007	8.27
324.219	9.98
324.431	10.84
324.643	10.36
324.855	10.07
325.067	10.49
325.279	10.42
325.491	11.11
325.702	12.22
325.914	12.2
326.126	11.55
326.338	12.39
326.55	13.77
326.761	14.48
326.973	15.39
327.185	16.71
327.396	16.17
327.608	16.79
327.82	16.9
328.032	17.86
328.243	18.37
328.455	19.47
328.666	19.45
328.878	18.39
329.09	18.31
329.301	19.27
329.513	18.37
329.725	17.96
329.936	18.13
330.148	17.65
330.359	16.37
330.571	17.42
330.782	17.92
330.994	18.18
331.205	18.14
331.417	18.58
331.628	18.43
331.84	19.36
332.051	19.76
332.262	19.94
332.474	20.38
332.685	21.21
332.897	22.07
333.108	22.13
333.319	22.13
333.531	21.8
333.742	22.19
333.953	22.98
334.165	22.31
334.376	22.75
334.587	24.37
334.799	25.54
335.01	26.07
335.221	26.07
335.432	26.33
335.644	26.81
335.855	27.1
336.066	26.97
336.277	25.89
336.488	26.51
336.7	26.98
336.911	27.01
337.122	26.32
337.333	26.86
337.544	26.68
337.755	24.97
337.966	25.12
338.177	25.17
338.388	25.55
338.599	26.47
338.811	25.85
339.022	25.3
339.233	24.82
339.444	23.91
339.655	23.35
339.866	23.22
340.076	24.36
340.287	24.61
340.498	24.57
340.709	23.9
340.92	24.38
341.131	24.9
341.342	25.69
341.553	25.58
341.764	26.12
341.975	26.25
342.185	26.81
342.396	27.06
342.607	26.89
342.818	26.86
343.029	27.16
343.239	27.33
343.45	27.87
343.661	27.7
343.872	27.74
344.082	28.52
344.293	29.07
344.504	29.04
344.714	30.06
344.925	30.22
345.136	30.6
345.346	31.09
345.557	30.47
345.768	29.85
345.978	29.42
346.189	28.92
346.399	29.31
346.61	28.96
346.821	28.77
347.031	27.87
347.242	28.44
347.452	28.08
347.663	26.42
347.873	25.93
348.084	26.35
348.294	26.78
348.504	27.52
348.715	26.86
348.925	26.28
349.136	25.71
349.346	25.3
349.557	25.05
349.767	24.91
349.977	26.44
350.188	25.95
350.398	25.02
350.608	24.88
350.819	24.84
351.029	25.02
351.239	24.76
351.449	25.12
351.66	25.04
351.87	24.86
352.08	25.27
352.29	25.2
352.501	26.02
352.711	26.86
352.921	27.17
353.131	27.25
353.341	26.68
353.552	27.61
353.762	27.92
353.972	28.3
354.182	28.26
354.392	27.8
354.602	28.05
354.812	27.89
355.022	27.06
355.232	27.07
355.442	26.95
355.652	27.13
355.862	26.85
356.072	26.66
356.282	26.85
356.492	26.72
356.702	27.01
356.912	26.77
357.122	27.56
357.332	28.35
357.542	27.79
357.752	27.59
357.962	28.24
358.171	27.5
358.381	27.73
358.591	27.21
358.801	26.88
359.011	26.73
359.221	26.74
359.43	25.83
359.64	25.12
359.85	25.63
360.06	25.64
360.269	25.21
360.479	26.04
360.689	25.67
360.899	25.85
361.108	26.19
361.318	26.03
361.528	25.66
361.737	26.13
361.947	26.6
362.156	26.96
362.366	26.88
362.576	26.61
362.785	26.63
362.995	26.77
363.204	26.74
363.414	26.46
363.623	26.66
363.833	26.54
364.042	25.91
364.252	25.94
364.461	25.24
364.671	25.58
364.88	25.7
365.09	25.36
365.299	25.5
365.509	25.22
365.718	24.47
365.927	23.91
366.137	24.32
366.346	24.82
366.555	24.83
366.765	24.19
366.974	23.78
367.183	23.88
367.393	23.74
367.602	23.44
367.811	24.24
368.021	25.21
368.23	25.45
368.439	25.24
368.648	25.02
368.857	24.89
369.067	25.35
369.276	25.14
369.485	24.44
369.694	24.3
369.903	24.29
370.112	23.29
370.321	23.2
370.531	23.58
370.74	23.09
370.949	23.05
371.158	23.27
371.367	23.05
371.576	23.28
371.785	23.56
371.994	23.5
372.203	23.38
372.412	23.85
372.621	23.84
372.83	23.72
373.039	23.77
373.248	24.01
373.457	23.87
373.666	23.55
373.874	23.17
374.083	22.92
374.292	23.02
374.501	22.84
374.71	22.58
374.919	22.14
375.128	22.03
375.336	22.38
375.545	22.02
375.754	21.58
375.963	22.27
376.171	22.54
376.38	22.85
376.589	23.11
376.798	22.56
377.006	22.95
377.215	22.49
377.424	22.34
377.632	22.02
377.841	22.02
378.05	21.85
378.258	21.4
378.467	20.56
378.675	20.27
378.884	19.27
379.093	19.85
379.301	19.23
379.51	19.48
379.718	19.45
379.927	19.73
380.135	19.6
380.344	19.41
380.552	19.11
380.761	19.82
380.969	20.1
381.177	20.68
381.386	20.53
381.594	20.83
381.803	20.76
382.011	20.61
382.219	20
382.428	19.64
382.636	20.15
382.845	20.61
383.053	20.66
383.261	20.6
383.469	20.47
383.678	20.38
383.886	20.37
384.094	20.33
384.302	20.07
384.511	20.28
384.719	20.39
384.927	20.03
385.135	19.5
385.343	19.16
385.552	18.75
385.76	18.62
385.968	18.35
386.176	17.88
386.384	17.96
386.592	17.99
386.8	17.85
387.008	17.66
387.216	17.9
387.424	17.72
387.633	17.82
387.841	17.78
388.049	17.83
388.257	17.89
388.465	17.62
388.672	17.5
388.88	17.37
389.088	17.19
389.296	17.26
389.504	16.47
389.712	16.62
389.92	16.49
390.128	16.56
390.336	16.28
390.544	16.43
390.751	16.49
390.959	16.19
391.167	16.12
391.375	16.37
391.583	15.87
391.79	15.76
391.998	15.68
392.206	15.38
392.414	15.1
392.621	14.93
392.829	14.45
393.037	14.69
393.244	14.76
393.452	14.46
393.66	14.42
393.867	14.39
394.075	14.9
394.283	14.67
394.49	14.74
394.698	14.95
394.905	14.73
395.113	14.87
395.32	14.4
395.528	14.37
395.735	14.61
395.943	14.29
396.15	14.45
396.358	14.19
396.565	14.68
396.773	14.51
396.98	14.15
397.188	14.43
397.395	14.47
397.602	14.78
397.81	14.88
398.017	14.68
398.225	14.94
398.432	15.11
398.639	15.37
398.847	14.76
399.054	14.96
399.261	15.29
399.468	14.96
399.676	15.13
399.883	14.85
400.09	14.7
400.297	14.91
400.505	14.53
400.712	14.28
400.919	13.67
401.126	13.77
401.333	13.77
401.54	13.89
401.748	14.19
401.955	13.55
402.162	13.77
402.369	13.36
402.576	13.09
402.783	13.18
402.99	13.48
403.197	13.56
403.404	13.57
403.611	13.3
403.818	12.91
404.025	12.65
404.232	12.81
404.439	12.98
404.646	13.01
404.853	12.86
405.06	12.79
405.267	12.77
405.474	13
405.681	12.76
405.887	12.63
406.094	12.46
406.301	12.7
406.508	12.67
406.715	12.22
406.922	12.17
407.128	12.5
407.335	12.3
407.542	12.1
407.749	11.85
407.955	11.81
408.162	12.25
408.369	12.08
408.575	11.97
408.782	12
408.989	11.99
409.195	12.14
409.402	12
409.609	11.97
409.815	11.91
410.022	11.82
410.228	12.25
410.435	11.97
410.642	12.33
410.848	12.19
411.055	12.07
411.261	12.03
411.468	11.92
411.674	12.01
411.881	12.34
412.087	12.02
412.294	12.22
412.5	12.01
412.706	11.84
412.913	11.43
413.119	11.51
413.326	11.7
413.532	12.06
413.738	12.21
413.945	12.03
414.151	11.82
414.357	12.25
414.564	12.32
414.77	12.17
414.976	12.35
415.182	12.24
415.389	12.27
415.595	12.09
415.801	11.82
416.007	11.92
416.214	11.8
416.42	12.03
416.626	11.82
416.832	11.8
417.038	11.97
417.244	12.06
417.45	12.42
417.657	12.23
417.863	12.06
418.069	11.98
418.275	11.64
418.481	11.73
418.687	11.69
418.893	11.82
419.099	11.77
419.305	11.68
419.511	11.53
419.717	11.47
419.923	11.6
420.129	11.75
420.335	11.79
420.541	11.94
420.746	11.77
420.952	11.58
421.158	11.41
421.364	11.19
421.57	11.18
421.776	11.16
421.982	11.13
422.187	11.03
422.393	11.02
422.599	11.14
422.805	11.13
423.01	11.43
423.216	11.4
423.422	11.41
423.628	11.51
423.833	11.48
424.039	11.64
424.245	11.62
424.45	11.68
424.656	11.66
424.862	11.52
425.067	11.39
425.273	11.22
425.478	11.23
425.684	11.16
425.889	11.21
426.095	11.31
426.301	11.1
426.506	10.98
426.712	10.97
426.917	11.11
427.123	10.97
427.328	11.16
427.533	11.22
427.739	11.29
427.944	11.27
428.15	11.25
428.355	10.95
428.561	11.01
428.766	11.19
428.971	11.02
429.177	10.83
429.382	10.86
429.587	10.71
429.793	10.69
429.998	10.8
430.203	10.74
430.408	10.79
430.614	10.87
430.819	10.84
431.024	10.84
431.229	10.72
431.434	10.63
431.64	10.72
431.845	10.66
432.05	10.46
432.255	10.42
432.46	10.4
432.665	10.31
432.87	10.42
433.076	10.34
433.281	10.14
433.486	10.32
433.691	10.27
433.896	10.15
434.101	10.17
434.306	10.13
434.511	10.05
434.716	10.16
434.921	10.17
435.126	10.19
435.331	10.21
435.535	10.43
435.74	10.37
435.945	10.46
436.15	10.49
436.355	10.39
436.56	10.46
436.765	10.42
436.97	10.46
437.174	10.61
437.379	10.41
437.584	10.48
437.789	10.49
437.993	10.53
438.198	10.43
438.403	10.57
438.608	10.71
438.812	10.88
439.017	10.89
439.222	10.97
439.426	10.86
439.631	10.91
439.836	10.71
440.04	10.67
440.245	10.54
440.45	10.63
440.654	10.53
440.859	10.54
441.063	10.47
441.268	10.42
441.472	10.25
441.677	10.31
441.881	10.46
442.086	10.58
442.29	10.48
442.495	10.64
442.699	10.61
442.904	10.77
443.108	10.59
443.312	10.53
443.517	10.64
443.721	10.72
443.925	10.63
444.13	10.53
444.334	10.54
444.538	10.61
444.743	10.56
444.947	10.56
445.151	10.46
445.356	10.63
445.56	10.7
445.764	10.76
445.968	10.75
446.173	10.76
446.377	10.59
446.581	10.58
446.785	10.5
446.989	10.48
447.193	10.41
447.398	10.44
447.602	10.45
447.806	10.23
448.01	10.07
448.214	10.15
448.418	9.98
448.622	10
448.826	9.95
449.03	10.07
449.234	10.21
449.438	10.3
449.642	10.21
449.846	10.09
450.05	10.25
450.254	10.25
450.458	10.09
450.662	10.25
450.866	10.37
451.069	10.43
451.273	10.14
451.477	10.25
451.681	10.12
451.885	10.27
452.089	10.25
452.292	10.23
452.496	10.2
452.7	10.29
452.904	10.32
453.107	10.43
453.311	10.42
453.515	10.72
453.719	10.36
453.922	10.26
454.126	10.01
454.33	9.93
454.533	9.78
454.737	9.84
454.94	9.77
455.144	9.69
455.348	9.7
455.551	9.54
455.755	9.31
455.958	9.32
456.162	9.47
456.365	9.56
456.569	9.62
456.772	9.98
456.976	9.99
457.179	10.02
457.383	10
457.586	9.92
457.79	10.12
457.993	10.37
458.196	10.36
458.4	10.28
458.603	10.3
458.807	10.33
459.01	10.23
459.213	10.27
459.417	10.37
459.62	10.24
459.823	10.15
