Data from CB_032_Reflection_21-21-49-544.txt Node
Date: Wed Nov 11 21:21:49 EST 2015
User: robert
Spectrometer: USB4E03001
Autoset integration time: false
Trigger mode: 4
Integration Time (sec): 1.000000E-1
Scans to average: 15
Electric dark correction enabled: true
Nonlinearity correction enabled: false
Boxcar width: 5
Stray light correction enabled: false
XAxis mode: Wavelengths
Stop averaging: false
Number of Pixels in Spectrum: 3648
>>>>>Begin Spectral Data<<<<<
177.566	73.08
177.785	448.03
178.005	-256.11
178.225	-935.84
178.445	206.12
178.665	133.12
178.885	504.63
179.105	39.15
179.324	60.25
179.544	38.03
179.764	30.95
179.984	11.49
180.204	30.17
180.423	42.52
180.643	13.31
180.863	39.77
181.083	28.51
181.302	6.78
181.522	-2.67
181.742	12.2
181.961	28.01
182.181	28.57
182.401	35.7
182.621	25.85
182.84	46.81
183.06	71.78
183.279	85.33
183.499	88.46
183.719	101.09
183.938	102.03
184.158	106.69
184.377	80.6
184.597	87.81
184.816	106.28
185.036	95.9
185.256	66.15
185.475	61.86
185.695	0.49
185.914	-34.31
186.134	-12.82
186.353	20.13
186.572	17.06
186.792	16.62
187.011	5.83
187.231	-0.56
187.45	-68.81
187.67	-36.49
187.889	-9.97
188.108	44.19
188.328	40.82
188.547	31.21
188.766	17.28
188.986	3.55
189.205	-0.59
189.424	21.05
189.644	11.27
189.863	56.54
190.082	71.75
190.302	71.98
190.521	59.93
190.74	83.49
190.959	84.2
191.178	70.18
191.398	64.48
191.617	72.16
191.836	69.31
192.055	61.96
192.274	45.87
192.494	36.94
192.713	39.76
192.932	32.99
193.151	21.05
193.37	19.95
193.589	38.36
193.808	66.67
194.027	74.99
194.246	69.07
194.465	88.75
194.685	94.27
194.904	90.65
195.123	94.39
195.342	94.45
195.561	96.35
195.78	90.42
195.999	111.2
196.218	97.32
196.436	92.91
196.655	98.24
196.874	73.73
197.093	67.66
197.312	71.92
197.531	57.59
197.75	71.33
197.969	72.47
198.188	75.31
198.407	48.1
198.625	31.63
198.844	39.5
199.063	46.1
199.282	45.21
199.501	53.71
199.719	69.13
199.938	82.63
200.157	120.71
200.376	82.7
200.594	112.38
200.813	109.54
201.032	113.48
201.251	141.27
201.469	100.85
201.688	77.26
201.907	46.78
202.125	15.29
202.344	10.06
202.563	12.17
202.781	18
203	15.8
203.218	13.45
203.437	44.19
203.656	45.26
203.874	42.49
204.093	52.06
204.311	65.48
204.53	81.46
204.748	76.63
204.967	73.26
205.185	65.08
205.404	78.92
205.622	80.04
205.841	65.21
206.059	38.5
206.278	47.39
206.496	35.33
206.715	39.75
206.933	42.22
207.151	33.42
207.37	20.26
207.588	17.26
207.806	10.23
208.025	15.49
208.243	-2.93
208.461	8.92
208.68	9.16
208.898	17.56
209.116	6.69
209.335	14.02
209.553	10.77
209.771	17.3
209.989	25.76
210.208	12.3
210.426	3.18
210.644	7.67
210.862	3.18
211.081	12.72
211.299	15.82
211.517	32.18
211.735	13.71
211.953	21.06
212.171	30.26
212.39	40.21
212.608	45.65
212.826	45.7
213.044	64.09
213.262	63.1
213.48	59.6
213.698	60.71
213.916	45.93
214.134	65.24
214.352	53.91
214.57	57.01
214.788	56.89
215.006	45.52
215.224	27.25
215.442	-28.7
215.66	-1.36
215.878	9.9
216.096	19.54
216.314	31.51
216.532	43.13
216.75	57.05
216.968	45.55
217.185	33.66
217.403	50.08
217.621	42.61
217.839	48.41
218.057	49.72
218.275	68.7
218.492	68.4
218.71	65.43
218.928	61.45
219.146	64.28
219.363	67.71
219.581	92.18
219.799	70.36
220.017	97.82
220.234	83.14
220.452	57.04
220.67	35.18
220.887	19.59
221.105	8.86
221.323	-21.49
221.54	-45.8
221.758	-11.41
221.976	-10.59
222.193	-4.71
222.411	-10.69
222.629	-8.76
222.846	-9.56
223.064	-18.53
223.281	-9.88
223.499	-4.02
223.716	1.99
223.934	15.54
224.151	3.52
224.369	-5.11
224.586	-7.95
224.804	-3.54
225.021	-5.98
225.239	10.32
225.456	17.86
225.674	15.75
225.891	20.94
226.108	33
226.326	25.29
226.543	33.26
226.76	34.62
226.978	30.39
227.195	32.27
227.413	31.3
227.63	26.14
227.847	24.52
228.064	20.78
228.282	18.18
228.499	16.43
228.716	14.5
228.934	12.62
229.151	12.34
229.368	11.74
229.585	11.64
229.802	10.32
230.02	6.93
230.237	4.14
230.454	6.29
230.671	5.7
230.888	4.7
231.105	8.33
231.323	12.95
231.54	15.37
231.757	14.88
231.974	10.15
232.191	8.75
232.408	6.97
232.625	10.86
232.842	8.49
233.059	12.51
233.276	14.9
233.493	8.45
233.71	5.15
233.927	3.73
234.144	5.44
234.361	12.48
234.578	14.36
234.795	22.93
235.012	19.5
235.229	22.7
235.446	22.47
235.663	17.09
235.879	17.93
236.096	15.41
236.313	16
236.53	15.25
236.747	15.49
236.964	13.55
237.181	10.93
237.397	9.83
237.614	10.08
237.831	3.8
238.048	7.65
238.264	8.86
238.481	10.54
238.698	12.61
238.915	17.22
239.131	16.67
239.348	19.36
239.565	18.08
239.781	19.61
239.998	18.16
240.215	21.78
240.431	23.56
240.648	23.87
240.865	20.85
241.081	22.83
241.298	19.71
241.514	16.93
241.731	16.16
241.947	13.34
242.164	14.92
242.38	14.28
242.597	14.18
242.814	13.68
243.03	12.38
243.246	13.52
243.463	11.36
243.679	10.74
243.896	12.49
244.112	12.58
244.329	15.61
244.545	12.41
244.762	13.58
244.978	13.81
245.194	12.18
245.411	12.01
245.627	11.85
245.843	13.01
246.06	13.4
246.276	11.42
246.492	9.66
246.709	8.85
246.925	10.66
247.141	10.97
247.357	10.09
247.574	9.9
247.79	10.53
248.006	11.12
248.222	10.85
248.439	10.91
248.655	11.94
248.871	12.73
249.087	12.63
249.303	12.17
249.519	10.95
249.736	10.13
249.952	10.53
250.168	10.21
250.384	8.24
250.6	7.56
250.816	9.33
251.032	6.36
251.248	9.3
251.464	9.33
251.68	10.47
251.896	11.11
252.112	12
252.328	12.55
252.544	12.88
252.76	13.02
252.976	13.56
253.192	11.67
253.408	13.11
253.624	12.28
253.84	12.95
254.056	13.25
254.272	16.43
254.487	16.84
254.703	16.26
254.919	15.22
255.135	16.7
255.351	16.45
255.567	16.63
255.782	16.54
255.998	13.79
256.214	14.37
256.43	14.4
256.646	8.48
256.861	9.49
257.077	9.24
257.293	7.37
257.508	6.48
257.724	8.24
257.94	8.56
258.155	9.85
258.371	9.61
258.587	10.39
258.802	10.77
259.018	12.25
259.234	10.44
259.449	10.56
259.665	10.9
259.88	11.28
260.096	10.43
260.312	10.54
260.527	10.28
260.743	10.8
260.958	10.44
261.174	9.98
261.389	9.04
261.605	10.3
261.82	10.83
262.036	11.43
262.251	11.18
262.466	12.13
262.682	11.74
262.897	11.12
263.113	10.06
263.328	11.12
263.543	10.27
263.759	11.12
263.974	11.73
264.189	10.66
264.405	9.74
264.62	9.76
264.835	9.96
265.051	10.83
265.266	11.29
265.481	11.05
265.696	8.97
265.912	8.9
266.127	9.44
266.342	8.55
266.557	8.46
266.773	8.11
266.988	8.23
267.203	6.45
267.418	7.14
267.633	8.02
267.848	10.71
268.064	10.56
268.279	10.66
268.494	9.69
268.709	10.82
268.924	11.95
269.139	12.52
269.354	13.09
269.569	13.12
269.784	12.59
269.999	12.23
270.214	10.34
270.429	11.03
270.644	11.04
270.859	12.17
271.074	10.12
271.289	10.1
271.504	10.71
271.719	9.98
271.934	10.26
272.149	10.11
272.363	10.27
272.578	11.68
272.793	12.79
273.008	12.26
273.223	10.31
273.438	11.06
273.653	11.47
273.867	11.71
274.082	12.7
274.297	13.59
274.512	13.91
274.726	12.28
274.941	10.76
275.156	10.22
275.371	10.28
275.585	12.47
275.8	11.95
276.015	11.16
276.229	10.48
276.444	9.87
276.659	8.99
276.873	9.22
277.088	10.97
277.302	11.14
277.517	10.1
277.732	11.08
277.946	9.53
278.161	11.1
278.375	11.82
278.59	11.89
278.804	11.69
279.019	12.28
279.233	10.51
279.448	8.79
279.662	9.8
279.877	8.93
280.091	8.23
280.306	9.38
280.52	8.28
280.735	8.88
280.949	8.14
281.163	7.99
281.378	7.34
281.592	8.3
281.806	10.11
282.021	8.26
282.235	8.93
282.449	9.15
282.664	9.54
282.878	8.8
283.092	7.84
283.307	8.47
283.521	9.25
283.735	9.54
283.949	9.96
284.164	8.95
284.378	9.04
284.592	9.56
284.806	9.39
285.02	8.64
285.234	9.99
285.449	9.85
285.663	10.16
285.877	10.03
286.091	10.15
286.305	9.8
286.519	9.79
286.733	10.17
286.947	10.18
287.161	10.39
287.375	10.39
287.589	10.72
287.803	11.1
288.017	10.55
288.231	10.2
288.445	10
288.659	9.44
288.873	10.25
289.087	10.35
289.301	10.67
289.515	11.47
289.729	12.42
289.943	11.75
290.157	11.71
290.371	11.13
290.584	11.83
290.798	11.92
291.012	13.35
291.226	13.94
291.44	13.15
291.654	11.78
291.867	10.29
292.081	9.4
292.295	9.67
292.509	8.98
292.722	9.98
292.936	9.11
293.15	9.97
293.364	8.48
293.577	7.99
293.791	8.99
294.005	9.32
294.218	10.25
294.432	10.83
294.645	10.52
294.859	10.56
295.073	9.43
295.286	9.11
295.5	8.69
295.713	9.2
295.927	8.33
296.14	8.33
296.354	8.17
296.568	7.81
296.781	7.71
296.994	8.41
297.208	9.33
297.421	9.85
297.635	10.1
297.848	10.12
298.062	9.97
298.275	10.82
298.489	10.74
298.702	12.43
298.915	13.12
299.129	14.64
299.342	14.22
299.555	14.63
299.769	15.83
299.982	16.24
300.195	15.55
300.409	16.1
300.622	16.64
300.835	17
301.048	15.12
301.262	14.67
301.475	13.48
301.688	13.28
301.901	12.62
302.115	12.09
302.328	12.16
302.541	12.07
302.754	11.89
302.967	10.86
303.18	11.78
303.393	12.82
303.607	12.96
303.82	13.25
304.033	13.71
304.246	13.02
304.459	13.55
304.672	12.86
304.885	14.27
305.098	14.12
305.311	14.47
305.524	13.33
305.737	13.56
305.95	14.33
306.163	14.2
306.376	14.93
306.589	16.05
306.802	15.69
307.015	17.12
307.228	16.52
307.44	16.77
307.653	18.1
307.866	19.56
308.079	19.42
308.292	17.86
308.505	17.4
308.718	16.41
308.93	16.51
309.143	15.94
309.356	15.41
309.569	16.17
309.781	15.99
309.994	14.62
310.207	14.14
310.42	13.37
310.632	15.61
310.845	15.94
311.058	16.23
311.27	16.01
311.483	16.06
311.696	16.02
311.908	16.4
312.121	16.4
312.333	16.08
312.546	15.9
312.759	16.49
312.971	14.1
313.184	13.37
313.396	12.85
313.609	12.41
313.821	12.32
314.034	12.13
314.246	10.67
314.459	12.08
314.671	12.57
314.884	13.36
315.096	14.3
315.309	15.68
315.521	16.95
315.733	17.3
315.946	16.56
316.158	16.51
316.371	17.05
316.583	17.3
316.795	15.86
317.008	16.86
317.22	17.23
317.432	16.97
317.644	17.23
317.857	16.78
318.069	16.88
318.281	17.04
318.494	17.77
318.706	18.3
318.918	19.23
319.13	20.18
319.342	19.64
319.555	18.58
319.767	18.52
319.979	17.6
320.191	17.23
320.403	17.94
320.615	17.98
320.827	17.9
321.039	16.85
321.252	15.92
321.464	14.41
321.676	13.91
321.888	14.23
322.1	13.28
322.312	14.17
322.524	15.09
322.736	14.95
322.948	15.86
323.16	15.59
323.372	15.64
323.584	15.98
323.796	17.33
324.007	17.6
324.219	17.53
324.431	18.11
324.643	18.32
324.855	18.17
325.067	18.09
325.279	17.97
325.491	18.26
325.702	18.84
325.914	19.24
326.126	19
326.338	18.4
326.55	19.02
326.761	19.71
326.973	20.08
327.185	19.49
327.396	19.57
327.608	20.23
327.82	20.81
328.032	21.96
328.243	21.7
328.455	22.13
328.666	23.05
328.878	22.56
329.09	22.13
329.301	21.26
329.513	21.41
329.725	21.3
329.936	21.27
330.148	21.07
330.359	19.61
330.571	19.78
330.782	19.85
330.994	20.11
331.205	20.36
331.417	20.58
331.628	20.99
331.84	21.08
332.051	21.01
332.262	21.06
332.474	21.8
332.685	22.47
332.897	22.86
333.108	23.8
333.319	23.01
333.531	23.29
333.742	23.92
333.953	23.64
334.165	23.37
334.376	24.19
334.587	24.36
334.799	24.47
335.01	24.47
335.221	24.49
335.432	24.44
335.644	25.56
335.855	26.08
336.066	25.89
336.277	26.47
336.488	26.74
336.7	26.34
336.911	26.27
337.122	25.67
337.333	25.41
337.544	25.09
337.755	24.27
337.966	23.97
338.177	22.72
338.388	21.86
338.599	22.07
338.811	21.67
339.022	21.48
339.233	21.6
339.444	21.72
339.655	21.53
339.866	22.6
340.076	21.98
340.287	22.07
340.498	23.19
340.709	24.21
340.92	23.88
341.131	24.52
341.342	24.71
341.553	24.42
341.764	24.45
341.975	24.44
342.185	23.53
342.396	24.11
342.607	23.59
342.818	22.64
343.029	22.06
343.239	22.13
343.45	21.39
343.661	20.81
343.872	20.76
344.082	20.23
344.293	20.69
344.504	20.37
344.714	20.33
344.925	20.59
345.136	21.17
345.346	21.8
345.557	21.12
345.768	21.43
345.978	21.88
346.189	22.62
346.399	22.68
346.61	22.77
346.821	23.12
347.031	22.66
347.242	22.71
347.452	22.68
347.663	22.59
347.873	23.37
348.084	23.89
348.294	24.07
348.504	23.17
348.715	23.31
348.925	22.97
349.136	22.62
349.346	22.81
349.557	22.54
349.767	23.06
349.977	22.29
350.188	21.87
350.398	21.7
350.608	21.96
350.819	22
351.029	21.55
351.239	20.87
351.449	21.05
351.66	20.98
351.87	22.31
352.08	21.35
352.29	21.75
352.501	22.7
352.711	23.2
352.921	22.79
353.131	23.21
353.341	23.87
353.552	24.66
353.762	24.57
353.972	25.19
354.182	23.34
354.392	23.14
354.602	22.76
354.812	21.6
355.022	21.14
355.232	20.63
355.442	20.08
355.652	19.72
355.862	19.31
356.072	19.11
356.282	18.59
356.492	19.56
356.702	19.94
356.912	19.64
357.122	19.84
357.332	20.02
357.542	20.47
357.752	20.43
357.962	20.33
358.171	20.53
358.381	20.89
358.591	20.57
358.801	20.36
359.011	20.13
359.221	20.2
359.43	20.73
359.64	19.55
359.85	19.33
360.06	19.2
360.269	19.57
360.479	19.92
360.689	19.79
360.899	19.95
361.108	20.39
361.318	20.36
361.528	20.37
361.737	20.08
361.947	20.49
362.156	20.11
362.366	20.49
362.576	20.08
362.785	19.58
362.995	19.72
363.204	19.72
363.414	19.54
363.623	19.53
363.833	19.47
364.042	18.89
364.252	19.53
364.461	19.82
364.671	19.65
364.88	19.92
365.09	19.78
365.299	19.44
365.509	19.17
365.718	19.12
365.927	19.12
366.137	18.83
366.346	19.18
366.555	18.93
366.765	18.9
366.974	18.86
367.183	18.77
367.393	19.36
367.602	19.17
367.811	19.4
368.021	18.67
368.23	18.46
368.439	18.88
368.648	19.08
368.857	18.32
369.067	18.36
369.276	17.64
369.485	17.43
369.694	17.08
369.903	17.38
370.112	17.13
370.321	17.57
370.531	17.68
370.74	17.87
370.949	17.26
371.158	17.24
371.367	17.06
371.576	17.53
371.785	17.67
371.994	17.47
372.203	17.18
372.412	17.41
372.621	17.15
372.83	16.98
373.039	16.91
373.248	16.97
373.457	16.62
373.666	16.75
373.874	16.35
374.083	15.45
374.292	15.4
374.501	15.39
374.71	15.22
374.919	15.1
375.128	15.26
375.336	15.22
375.545	15.16
375.754	16.07
375.963	15.81
376.171	15.86
376.38	15.82
376.589	15.95
376.798	15.88
377.006	15.55
377.215	15.77
377.424	15.85
377.632	15.91
377.841	15.51
378.05	14.89
378.258	14.87
378.467	14.57
378.675	15.49
378.884	15.29
379.093	15.24
379.301	15.3
379.51	15.02
379.718	14.51
379.927	13.86
380.135	13.89
380.344	13.92
380.552	14.25
380.761	14.17
380.969	13.38
381.177	13.32
381.386	13.18
381.594	13.1
381.803	13.18
382.011	13.36
382.219	13.57
382.428	13.72
382.636	13.45
382.845	13.1
383.053	13.43
383.261	13.49
383.469	13.3
383.678	12.91
383.886	12.84
384.094	12.44
384.302	12.59
384.511	12.53
384.719	12.71
384.927	12.98
385.135	12.86
385.343	12.64
385.552	12.9
385.76	12.85
385.968	12.88
386.176	13.22
386.384	13.29
386.592	12.91
386.8	12.67
387.008	12.39
387.216	12.13
387.424	12.41
387.633	12.06
387.841	11.65
388.049	11.33
388.257	11.46
388.465	11.16
388.672	11.32
388.88	11.31
389.088	11.15
389.296	11.27
389.504	11.24
389.712	10.54
389.92	10.99
390.128	11.16
390.336	11.27
390.544	11.52
390.751	11.17
390.959	11.12
391.167	11.15
391.375	11.1
391.583	11.15
391.79	10.87
391.998	11.32
392.206	11.3
392.414	11.3
392.621	10.84
392.829	10.52
393.037	10.62
393.244	10.55
393.452	10.67
393.66	10.86
393.867	10.86
394.075	11.39
394.283	11.18
394.49	11.15
394.698	10.94
394.905	11.38
395.113	11.45
395.32	11.71
395.528	11.48
395.735	11.35
395.943	11.24
396.15	10.99
396.358	10.73
396.565	11.01
396.773	10.78
396.98	10.82
397.188	10.87
397.395	10.84
397.602	10.81
397.81	10.84
398.017	10.43
398.225	10.31
398.432	10.16
398.639	9.97
398.847	9.35
399.054	9.46
399.261	9.36
399.468	9.29
399.676	9.06
399.883	8.57
400.09	8.23
400.297	8.41
400.505	8.35
400.712	8.66
400.919	8.67
401.126	8.76
401.333	8.68
401.54	8.53
401.748	8.29
401.955	8.49
402.162	8.97
402.369	9.36
402.576	9.5
402.783	9.5
402.99	9.02
403.197	9.06
403.404	9.16
403.611	9.31
403.818	9.23
404.025	9.15
404.232	9.25
404.439	8.84
404.646	8.62
404.853	8.27
405.06	8.32
405.267	8.4
405.474	8.35
405.681	8.11
405.887	8.11
406.094	8.31
406.301	8.36
406.508	8.26
406.715	8.48
406.922	8.42
407.128	8.71
407.335	8.3
407.542	8.29
407.749	8.38
407.955	8.48
408.162	8.05
408.369	7.72
408.575	7.89
408.782	7.92
408.989	7.84
409.195	7.81
409.402	7.71
409.609	7.72
409.815	7.54
410.022	7.31
410.228	7.25
410.435	7.31
410.642	7.51
410.848	7.3
411.055	7.29
411.261	6.94
411.468	6.97
411.674	6.9
411.881	6.95
412.087	7.11
412.294	7.22
412.5	7.44
412.706	7.56
412.913	7.32
413.119	7.2
413.326	6.79
413.532	7.11
413.738	7.31
413.945	7.06
414.151	6.88
414.357	6.72
414.564	6.64
414.77	6.3
414.976	6.31
415.182	6.49
415.389	6.46
415.595	6.59
415.801	6.46
416.007	6.42
416.214	6.36
416.42	6.69
416.626	6.93
416.832	6.79
417.038	7.03
417.244	6.93
417.45	6.86
417.657	7.07
417.863	7.21
418.069	7.16
418.275	7.2
418.481	7.31
418.687	7.33
418.893	7.2
419.099	7.43
419.305	7.2
419.511	7.25
419.717	7.46
419.923	7.44
420.129	7.27
420.335	7.3
420.541	7.28
420.746	7.3
420.952	7.14
421.158	7.08
421.364	6.8
421.57	6.74
421.776	6.7
421.982	6.43
422.187	6.33
422.393	6.29
422.599	6.19
422.805	5.96
423.01	5.92
423.216	5.89
423.422	5.89
423.628	6.07
423.833	6.05
424.039	5.99
424.245	6.13
424.45	6.22
424.656	6.3
424.862	6.47
425.067	6.83
425.273	6.91
425.478	6.99
425.684	6.98
425.889	6.85
426.095	7.07
426.301	7.06
426.506	7.02
426.712	6.88
426.917	6.85
427.123	6.64
427.328	6.26
427.533	6.14
427.739	6.12
427.944	6.14
428.15	6.15
428.355	6.03
428.561	6.14
428.766	6.18
428.971	6.51
429.177	6.65
429.382	6.72
429.587	6.6
429.793	6.55
429.998	6.43
430.203	6.47
430.408	6.66
430.614	6.8
430.819	6.57
431.024	6.52
431.229	6.19
431.434	5.91
431.64	6.21
431.845	6.33
432.05	6.46
432.255	6.63
432.46	6.42
432.665	6.26
432.87	6.25
433.076	6.46
433.281	6.47
433.486	6.39
433.691	6.32
433.896	6.05
434.101	5.94
434.306	5.91
434.511	5.85
434.716	6.15
434.921	6.22
435.126	5.97
435.331	5.78
435.535	5.63
435.74	5.76
435.945	5.73
436.15	5.97
436.355	6.08
436.56	6
436.765	5.85
436.97	5.85
437.174	5.72
437.379	5.94
437.584	5.97
437.789	6.11
437.993	6.24
438.198	6.35
438.403	6.18
438.608	6.18
438.812	6.18
439.017	6.42
439.222	6.22
439.426	6.38
439.631	6.29
439.836	6.31
440.04	6.08
440.245	5.87
440.45	5.97
440.654	6.01
440.859	6.07
441.063	6
441.268	5.99
441.472	6.14
441.677	6.08
441.881	6.27
442.086	6.32
442.29	6.49
442.495	6.6
442.699	6.51
442.904	6.47
443.108	6.38
443.312	6.52
443.517	6.36
443.721	6.33
443.925	6.29
444.13	6.04
444.334	6
444.538	6.03
444.743	5.87
444.947	5.89
445.151	5.85
445.356	5.83
445.56	5.75
445.764	5.93
445.968	5.78
446.173	5.8
446.377	5.83
446.581	5.75
446.785	5.62
446.989	5.66
447.193	5.75
447.398	5.73
447.602	5.65
447.806	5.64
448.01	5.52
448.214	5.55
448.418	5.55
448.622	5.57
448.826	5.46
449.03	5.61
449.234	5.69
449.438	5.53
449.642	5.42
449.846	5.56
450.05	5.77
450.254	5.6
450.458	5.77
450.662	5.68
450.866	5.63
451.069	5.77
451.273	5.56
451.477	5.42
451.681	5.3
451.885	5.22
452.089	5.09
452.292	5.01
452.496	5.05
452.7	4.98
452.904	4.99
453.107	5.13
453.311	5.18
453.515	5.29
453.719	5.36
453.922	5.36
454.126	5.56
454.33	5.6
454.533	5.59
454.737	5.87
454.94	5.65
455.144	5.42
455.348	5.42
455.551	5.46
455.755	5.34
455.958	5.38
456.162	5.59
456.365	5.68
456.569	5.73
456.772	5.81
456.976	5.44
457.179	5.45
457.383	5.72
457.586	5.48
457.79	5.26
457.993	5.31
458.196	5.35
458.4	5.31
458.603	5.08
458.807	5.11
459.01	4.98
459.213	5.19
459.417	5.35
459.62	5.43
459.823	5.54
460.026	5.72
460.23	5.74
460.433	5.7
460.636	5.77
460.839	5.96
461.042	5.99
461.246	6.02
461.449	5.93
461.652	5.8
461.855	5.68
462.058	5.63
462.261	5.57
462.464	5.67
462.668	5.7
462.871	5.69
