Data from CB_009_Reflection_2.txt Node
Date: Wed Nov 11 18:39:34 EST 2015
User: robert
Spectrometer: USB4E03001
Autoset integration time: false
Trigger mode: 4
Integration Time (sec): 1.000000E-1
Scans to average: 15
Electric dark correction enabled: true
Nonlinearity correction enabled: false
Boxcar width: 5
Stray light correction enabled: false
XAxis mode: Wavelengths
Stop averaging: false
Number of Pixels in Spectrum: 3648
>>>>>Begin Spectral Data<<<<<
177.566	59.74
177.785	102.2
178.005	73.2
178.225	772.85
178.445	-42.2
178.665	-353.13
178.885	60.51
179.105	28.83
179.324	87.37
179.544	29.86
179.764	46.48
179.984	-72.08
180.204	97.79
180.423	24.49
180.643	21.3
180.863	357.14
181.083	90.08
181.302	141.36
181.522	-667.07
181.742	-109.18
181.961	164.34
182.181	59.46
182.401	13.32
182.621	115.84
182.84	70.57
183.06	91.12
183.279	89.97
183.499	225.42
183.719	351.05
183.938	166.43
184.158	156.2
184.377	-13.97
184.597	-44.37
184.816	-112.12
185.036	-435.8
185.256	-134.33
185.475	340.14
185.695	-3322.99
185.914	152.09
186.134	115.49
186.353	152.45
186.572	289.28
186.792	243.79
187.011	198.76
187.231	174.82
187.45	189.6
187.67	153.21
187.889	1264.56
188.108	369.55
188.328	653.71
188.547	-202.64
188.766	-690.24
188.986	233.95
189.205	-17040.91
189.424	545.3
189.644	2475.21
189.863	205.14
190.082	267.57
190.302	231.41
190.521	184.94
190.74	138.91
190.959	112.57
191.178	85.55
191.398	84.27
191.617	53.65
191.836	62
192.055	77.39
192.274	79.6
192.494	70.94
192.713	68.89
192.932	75.82
193.151	81.4
193.37	96.83
193.589	90.66
193.808	121.72
194.027	151.25
194.246	150.55
194.465	136.67
194.685	99.06
194.904	110.93
195.123	251.5
195.342	930.94
195.561	135.56
195.78	159.21
195.999	135.19
196.218	-89.41
196.436	341.02
196.655	946.4
196.874	-393.79
197.093	-334.44
197.312	-613.64
197.531	333.72
197.75	412.23
197.969	160.77
198.188	188.17
198.407	157.59
198.625	261.56
198.844	188.41
199.063	167.09
199.282	103.09
199.501	113.18
199.719	103.52
199.938	546.48
200.157	42.34
200.376	-41.6
200.594	51.94
200.813	654.29
201.032	367.27
201.251	122.87
201.469	209.18
201.688	257.49
201.907	262.27
202.125	216.87
202.344	161.01
202.563	220.87
202.781	252.76
203	194.36
203.218	158.56
203.437	137.95
203.656	138.67
203.874	114.03
204.093	81.43
204.311	71.49
204.53	51.07
204.748	-16.7
204.967	-77.19
205.185	-47.51
205.404	-1.61
205.622	-4.84
205.841	22.65
206.059	-5.03
206.278	-22.29
206.496	-29.62
206.715	-13.87
206.933	82.33
207.151	129.43
207.37	90.35
207.588	135.47
207.806	195.63
208.025	274.3
208.243	176.34
208.461	115.46
208.68	111.36
208.898	184.4
209.116	198.3
209.335	162.62
209.553	-436.36
209.771	300.2
209.989	-3252.17
210.208	-1031.87
210.426	-437.19
210.644	-119.71
210.862	-85.92
211.081	-103.27
211.299	-95.52
211.517	-167.18
211.735	-145.66
211.953	-215.43
212.171	20.75
212.39	-176.44
212.608	-1454.3
212.826	228.64
213.044	157.76
213.262	137.19
213.48	91.95
213.698	180.44
213.916	-624.43
214.134	-207.02
214.352	-476.77
214.57	702.96
214.788	198.84
215.006	196.9
215.224	168.08
215.442	95.63
215.66	81.24
215.878	110.81
216.096	93.74
216.314	82.64
216.532	79.73
216.75	93.78
216.968	85.14
217.185	79.4
217.403	102.67
217.621	88.08
217.839	168.73
218.057	3294.97
218.275	-1127.37
218.492	-110.66
218.71	-79.37
218.928	-178.65
219.146	-62.26
219.363	-18.09
219.581	-88.07
219.799	-104.88
220.017	-77.81
220.234	-44.82
220.452	-47.45
220.67	-34.75
220.887	-61.96
221.105	-16.41
221.323	14.09
221.54	33.86
221.758	26.77
221.976	24.69
222.193	15.36
222.411	-13.58
222.629	-4.58
222.846	-25.64
223.064	10.47
223.281	-5.38
223.499	-42.15
223.716	-59.64
223.934	-379.17
224.151	-731.34
224.369	-433.58
224.586	240300
224.804	-851.68
225.021	-413.22
225.239	-179.73
225.456	-149.92
225.674	-78.7
225.891	-19.72
226.108	-19.37
226.326	-13.85
226.543	1.67
226.76	7.89
226.978	25.71
227.195	12.8
227.413	9.97
227.63	5.31
227.847	-8.4
228.064	-6.28
228.282	0.07
228.499	4.78
228.716	6.82
228.934	6.21
229.151	4.53
229.368	3.63
229.585	4.75
229.802	7.3
230.02	5.53
230.237	9.57
230.454	11.41
230.671	11.39
230.888	7.56
231.105	6.1
231.323	8.42
231.54	12.74
231.757	6.58
231.974	4.22
232.191	-1.76
232.408	7.79
232.625	-2.03
232.842	-11.31
233.059	-13.13
233.276	-3.9
233.493	-5.07
233.71	-10.06
233.927	-12.98
234.144	-1.03
234.361	4.01
234.578	3.08
234.795	-3.51
235.012	-1.35
235.229	3.6
235.446	-1.83
235.663	-12.46
235.879	-7.45
236.096	-4.97
236.313	-12.57
236.53	-18.58
236.747	-15.76
236.964	-17.64
237.181	-21.37
237.397	-17.49
237.614	-11.15
237.831	-12.5
238.048	-11.72
238.264	-19.71
238.481	-26.65
238.698	-15.77
238.915	-19.29
239.131	-23.21
239.348	-27.37
239.565	-20.7
239.781	-14.74
239.998	-13.62
240.215	-8.24
240.431	-2.39
240.648	5.02
240.865	9.31
241.081	7.26
241.298	10.14
241.514	11.06
241.731	13.11
241.947	12.68
242.164	12.33
242.38	9.99
242.597	10.03
242.814	10.41
243.03	8.24
243.246	8.67
243.463	9.19
243.679	10.23
243.896	10.61
244.112	10.41
244.329	8.17
244.545	7.58
244.762	8.95
244.978	8.15
245.194	4.38
245.411	6.03
245.627	4.57
245.843	5.39
246.06	6.85
246.276	7.39
246.492	7.45
246.709	7.99
246.925	6.88
247.141	6.91
247.357	7.41
247.574	9.21
247.79	8.8
248.006	8.39
248.222	8.98
248.439	7.63
248.655	7.42
248.871	7.85
249.087	8.41
249.303	9.45
249.519	8.38
249.736	8.4
249.952	6.69
250.168	6.63
250.384	8.11
250.6	6.56
250.816	7.88
251.032	6.71
251.248	4.7
251.464	4.16
251.68	2.94
251.896	5.51
252.112	4.18
252.328	5.64
252.544	5.07
252.76	3.87
252.976	3.46
253.192	2.72
253.408	2.54
253.624	2.43
253.84	1.7
254.056	1.38
254.272	-0.12
254.487	1.01
254.703	1.69
254.919	2.85
255.135	3.28
255.351	3.13
255.567	4.63
255.782	4.13
255.998	6.68
256.214	8.63
256.43	11.42
256.646	10.69
256.861	8.61
257.077	5.55
257.293	2.69
257.508	3.51
257.724	3.19
257.94	0.75
258.155	-0.18
258.371	0.43
258.587	-1.11
258.802	-0.93
259.018	-0.2
259.234	1.19
259.449	2.3
259.665	3.11
259.88	2.85
260.096	3.35
260.312	3.77
260.527	4.63
260.743	4.31
260.958	4.7
261.174	4.78
261.389	3.66
261.605	3.23
261.82	3.17
262.036	2.76
262.251	3.33
262.466	4.19
262.682	3.15
262.897	1.79
263.113	0.47
263.328	1.3
263.543	0.88
263.759	1.28
263.974	1.31
264.189	1.36
264.405	0.88
264.62	-2.11
264.835	-5.07
265.051	-2.41
265.266	-2.75
265.481	-0.08
265.696	-1.51
265.912	-0.12
266.127	1.4
266.342	2.18
266.557	0.27
266.773	-0.04
266.988	1.4
267.203	1.74
267.418	0.35
267.633	-0.3
267.848	-1.21
268.064	-0.66
268.279	-1.61
268.494	-1.41
268.709	-0.71
268.924	0.49
269.139	1.69
269.354	2.15
269.569	4.1
269.784	6.28
269.999	7.46
270.214	7.62
270.429	5.89
270.644	5.9
270.859	5.67
271.074	4.39
271.289	4.65
271.504	4.44
271.719	3.47
271.934	2.63
272.149	2.25
272.363	2.78
272.578	2.79
272.793	5.53
273.008	4.9
273.223	4.83
273.438	5.66
273.653	5.31
273.867	6.05
274.082	5.63
274.297	5.75
274.512	4.88
274.726	4.78
274.941	4.46
275.156	2.42
275.371	3.1
275.585	3.1
275.8	2.32
276.015	1.51
276.229	0.36
276.444	3.18
276.659	1.12
276.873	0.05
277.088	-0.71
277.302	-0.03
277.517	-0.69
277.732	-1.35
277.946	-1.39
278.161	-1.49
278.375	-0.69
278.59	0.39
278.804	-0.53
279.019	1.54
279.233	4.38
279.448	4.73
279.662	4.15
279.877	6.1
280.091	7.66
280.306	7.74
280.52	7.78
280.735	7.45
280.949	8.01
281.163	8.39
281.378	7.93
281.592	7.56
281.806	7.8
282.021	6.78
282.235	5.64
282.449	3.96
282.664	3.9
282.878	3.76
283.092	4.42
283.307	4.32
283.521	4.62
283.735	6.38
283.949	4.94
284.164	4.6
284.378	6.67
284.592	6.97
284.806	7.91
285.02	7.64
285.234	7.86
285.449	7.26
285.663	6.4
285.877	5.71
286.091	4.04
286.305	4.68
286.519	5.05
286.733	5
286.947	3.97
287.161	3.7
287.375	3.69
287.589	2.92
287.803	4.05
288.017	4.38
288.231	3.46
288.445	4.52
288.659	3.53
288.873	2.65
289.087	2.02
289.301	4.01
289.515	4.58
289.729	4.82
289.943	5.86
290.157	5.27
290.371	5.07
290.584	6.58
290.798	6.25
291.012	6.97
291.226	7.99
291.44	6.98
291.654	6.25
291.867	6.44
292.081	5.48
292.295	4.79
292.509	4.04
292.722	4.49
292.936	3.7
293.15	4.44
293.364	3.44
293.577	3.68
293.791	5.39
294.005	4.47
294.218	4.55
294.432	5.59
294.645	6.15
294.859	6.71
295.073	6.11
295.286	5.57
295.5	6.12
295.713	7.33
295.927	7.16
296.14	6.93
296.354	8.2
296.568	7.5
296.781	6.89
296.994	6.15
297.208	6.24
297.421	6.62
297.635	7.5
297.848	6.73
298.062	7.28
298.275	6.43
298.489	5.49
298.702	5.27
298.915	6.29
299.129	6.96
299.342	7.73
299.555	6.68
299.769	7.03
299.982	7.06
300.195	7.72
300.409	6.74
300.622	7.17
300.835	7.61
301.048	7.02
301.262	6.24
301.475	6.22
301.688	7.63
301.901	9.03
302.115	8.1
302.328	7.06
302.541	5.48
302.754	5.48
302.967	4.68
303.18	4.58
303.393	7.37
303.607	7.78
303.82	7.45
304.033	5.7
304.246	5.31
304.459	4.57
304.672	5.39
304.885	6.05
305.098	5.88
305.311	8.63
305.524	8.7
305.737	5.8
305.95	5.65
306.163	6.96
306.376	7.43
306.589	7.37
306.802	9.34
307.015	9.08
307.228	9
307.44	9.9
307.653	9.32
307.866	9.77
308.079	10.11
308.292	10.14
308.505	9.84
308.718	8.54
308.93	8.66
309.143	7.65
309.356	7.8
309.569	8.01
309.781	8.25
309.994	6.78
310.207	7.25
310.42	7.61
310.632	7.35
310.845	8.26
311.058	10.12
311.27	9.98
311.483	11.15
311.696	11.14
311.908	11.04
312.121	10.46
312.333	11.24
312.546	11.15
312.759	10.87
312.971	10.62
313.184	8.87
313.396	9.03
313.609	10.26
313.821	8.71
314.034	9.29
314.246	10.12
314.459	9.27
314.671	9.18
314.884	9.31
315.096	10.39
315.309	10.02
315.521	10.67
315.733	9.24
315.946	8.29
316.158	9.24
316.371	8.39
316.583	7.08
316.795	8.83
317.008	8.4
317.22	8.54
317.432	7.55
317.644	7.41
317.857	7.75
318.069	8.16
318.281	8.47
318.494	8.26
318.706	7.38
318.918	7.72
319.13	6.59
319.342	6.55
319.555	5.84
319.767	4.56
319.979	6.3
320.191	5.5
320.403	4.01
320.615	2.68
320.827	3.18
321.039	3.92
321.252	4.85
321.464	5.65
321.676	5.83
321.888	5.77
322.1	7.86
322.312	7.79
322.524	9.16
322.736	10.73
322.948	11.6
323.16	11.98
323.372	12.21
323.584	11.61
323.796	12.31
324.007	12.79
324.219	12.76
324.431	13.57
324.643	13.35
324.855	13.21
325.067	13.4
325.279	13.94
325.491	12.74
325.702	13.55
325.914	14.58
326.126	13.92
326.338	14.68
326.55	16.29
326.761	16.48
326.973	16.39
327.185	15.93
327.396	15.36
327.608	15.18
327.82	16.6
328.032	15.8
328.243	15.41
328.455	15.99
328.666	15.71
328.878	15.1
329.09	13.29
329.301	13.23
329.513	14.41
329.725	14.77
329.936	14.37
330.148	13.7
330.359	15.19
330.571	16.08
330.782	16.96
330.994	16.63
331.205	16.12
331.417	16.99
331.628	17.59
331.84	17.32
332.051	17.61
332.262	16.82
332.474	17.35
332.685	17.16
332.897	17.06
333.108	16.16
333.319	17.76
333.531	18.25
333.742	18.09
333.953	18.98
334.165	18.44
334.376	17.71
334.587	18.65
334.799	19.31
335.01	18.78
335.221	18.89
335.432	19.36
335.644	17.86
335.855	18.32
336.066	18.88
336.277	18.22
336.488	18.53
336.7	20.21
336.911	21.37
337.122	20.82
337.333	20.73
337.544	20.09
337.755	19.97
337.966	19.56
338.177	19.13
338.388	18.39
338.599	18.24
338.811	18.11
339.022	17.44
339.233	15.76
339.444	16.21
339.655	17.93
339.866	18.09
340.076	17.66
340.287	18.82
340.498	20.26
340.709	20.64
340.92	20.83
341.131	21.12
341.342	20.79
341.553	20.91
341.764	20.52
341.975	18.61
342.185	19.19
342.396	19.94
342.607	19.11
342.818	16.56
343.029	16.32
343.239	16.13
343.45	16.09
343.661	16.14
343.872	16.9
344.082	16.94
344.293	17.44
344.504	18.04
344.714	17.53
344.925	18.68
345.136	19.25
345.346	20.1
345.557	20.63
345.768	20.93
345.978	21.47
346.189	21.7
346.399	21.76
346.61	22.07
346.821	21.12
347.031	20.56
347.242	19.59
347.452	20.04
347.663	19.28
347.873	19.43
348.084	19.86
348.294	19.28
348.504	18.36
348.715	18.45
348.925	18.35
349.136	17.61
349.346	18.05
349.557	18.62
349.767	18.34
349.977	18
350.188	17.6
350.398	16.8
350.608	16.97
350.819	17.4
351.029	17.33
351.239	17.18
351.449	17.06
351.66	17.79
351.87	17.67
352.08	17.81
352.29	18.7
352.501	18.89
352.711	18.54
352.921	18.01
353.131	18.25
353.341	17.8
353.552	17.54
353.762	17.57
353.972	16.86
354.182	17.13
354.392	16.62
354.602	16.45
354.812	16.05
355.022	16.59
355.232	16.6
355.442	15.63
355.652	16.03
355.862	16.46
356.072	16.88
356.282	17.21
356.492	16.8
356.702	17.65
356.912	17.1
357.122	16.54
357.332	16.4
357.542	16.32
357.752	17.49
357.962	17.48
358.171	17.61
358.381	17.27
358.591	17.17
358.801	17.59
359.011	17.21
359.221	17.26
359.43	17.24
359.64	17.82
359.85	18.37
360.06	17.6
360.269	17.27
360.479	16.55
360.689	16.86
360.899	17.52
361.108	17.21
361.318	17.25
361.528	17.6
361.737	17.95
361.947	17.3
362.156	17.04
362.366	17.2
362.576	16.7
362.785	16.7
362.995	16.65
363.204	16.12
363.414	15.83
363.623	15.51
363.833	15.31
364.042	15.35
364.252	15.38
364.461	15.78
364.671	15.68
364.88	16.16
365.09	16.03
365.299	16.03
365.509	15.54
365.718	15.67
365.927	15.72
366.137	15.72
366.346	15.22
366.555	14.48
366.765	13.78
366.974	13.64
367.183	13.33
367.393	13.69
367.602	13.26
367.811	13.17
368.021	13.09
368.23	13.56
368.439	13.12
368.648	13.23
368.857	14.32
369.067	14.39
369.276	14.44
369.485	14.92
369.694	14.78
369.903	15.03
370.112	15.5
370.321	14.91
370.531	14.26
370.74	13.88
370.949	13.67
371.158	12.54
371.367	12.79
371.576	12.46
371.785	12.31
371.994	12.17
372.203	12.26
372.412	12.21
372.621	13.09
372.83	13.58
373.039	14.19
373.248	14.53
373.457	15.14
373.666	15.13
373.874	15.38
374.083	15.57
374.292	15.24
374.501	15.17
374.71	14.58
374.919	14.12
375.128	13.81
375.336	13.29
375.545	12.87
375.754	12.24
375.963	11.44
376.171	11.28
376.38	10.64
376.589	10.67
376.798	10.54
377.006	10.34
377.215	10.44
377.424	10.39
377.632	10.69
377.841	10.7
378.05	10.24
378.258	10.51
378.467	10.64
378.675	10.51
378.884	10.19
379.093	9.74
379.301	10.28
379.51	10.04
379.718	9.51
379.927	9.35
380.135	8.93
380.344	9.56
380.552	9.32
380.761	8.93
380.969	9.27
381.177	10.1
381.386	10.33
381.594	9.65
381.803	9.28
382.011	9.63
382.219	9.46
382.428	9.57
382.636	10
382.845	10.24
383.053	10.31
383.261	9.81
383.469	9.49
383.678	9.72
383.886	9.95
384.094	9.72
384.302	9.77
384.511	9.9
384.719	10
384.927	9.78
385.135	9.7
385.343	9.27
385.552	9.93
385.76	9.51
385.968	9.36
386.176	9.07
386.384	9.56
386.592	9.14
386.8	8.91
387.008	8.67
387.216	8.55
387.424	8.68
387.633	9
387.841	8.65
388.049	8.39
388.257	8.38
388.465	8.51
388.672	8.17
388.88	8.11
389.088	8.1
389.296	8.28
389.504	8.12
389.712	7.73
389.92	7.75
390.128	7.47
390.336	7.76
390.544	7.77
390.751	7.83
390.959	7.84
391.167	7.9
391.375	7.86
391.583	7.61
391.79	7.5
391.998	7.42
392.206	7.02
392.414	7.36
392.621	7.34
392.829	7.18
393.037	6.92
393.244	6.8
393.452	6.51
393.66	6.15
393.867	5.97
394.075	6.09
394.283	5.97
394.49	6.09
394.698	5.78
394.905	5.71
395.113	5.51
395.32	5.68
395.528	5.4
395.735	5.56
395.943	5.71
396.15	5.91
396.358	5.74
396.565	5.71
396.773	5.86
396.98	5.71
397.188	5.83
397.395	5.82
397.602	5.56
397.81	5.8
398.017	5.77
398.225	5.9
398.432	6.04
398.639	6.35
398.847	6.57
399.054	6.21
399.261	6.23
399.468	6.13
399.676	6.1
399.883	5.97
400.09	6.15
400.297	5.94
400.505	5.46
400.712	5.46
400.919	5.25
401.126	5.15
401.333	5.31
401.54	5.24
401.748	4.8
401.955	4.83
402.162	4.9
402.369	4.58
402.576	4.93
402.783	5.28
402.99	4.92
403.197	4.93
403.404	4.41
403.611	4.27
403.818	4.39
404.025	4.85
404.232	4.85
404.439	4.95
404.646	4.91
404.853	4.8
405.06	4.74
405.267	4.93
405.474	4.72
405.681	5.3
405.887	5.34
406.094	5.4
406.301	5.35
406.508	5.22
406.715	5.26
406.922	5.59
407.128	5.64
407.335	5.53
407.542	5.47
407.749	5.38
407.955	5.27
408.162	5.39
408.369	5.32
408.575	5.21
408.782	5.5
408.989	5.34
409.195	5.26
409.402	5.05
409.609	5.22
409.815	5.49
410.022	5.48
410.228	5.35
410.435	5.3
410.642	5.2
410.848	5.11
411.055	4.84
411.261	4.77
411.468	4.71
411.674	4.84
411.881	4.66
412.087	4.22
412.294	4.51
412.5	4.52
412.706	4.5
412.913	4.02
413.119	4.09
413.326	4.32
413.532	4.24
413.738	4.34
413.945	4.07
414.151	4.34
414.357	4.5
414.564	4.35
414.77	4.35
414.976	4.39
415.182	4.66
415.389	4.78
415.595	4.8
415.801	4.77
416.007	4.74
416.214	4.84
416.42	4.58
416.626	4.67
416.832	4.6
417.038	4.55
417.244	4.38
417.45	4.53
417.657	4.32
417.863	4.19
418.069	4.24
418.275	4.2
418.481	4.2
418.687	4.06
418.893	3.92
419.099	3.93
419.305	4.15
419.511	4.16
419.717	4.22
419.923	4.24
420.129	4.19
420.335	4.17
420.541	4.04
420.746	4.22
420.952	4.49
421.158	4.58
421.364	4.48
421.57	4.37
421.776	4.26
421.982	4.15
422.187	4.14
422.393	4.16
422.599	4.3
422.805	4.32
423.01	4.28
423.216	4.09
423.422	3.91
423.628	3.96
423.833	3.97
424.039	4.23
424.245	4.31
424.45	4.48
424.656	4.45
424.862	4.45
425.067	4.53
425.273	4.47
425.478	4.64
425.684	4.82
425.889	4.96
426.095	4.84
426.301	4.76
426.506	4.77
426.712	4.59
426.917	4.82
427.123	4.77
427.328	4.68
427.533	4.63
427.739	4.49
427.944	4.38
428.15	4.29
428.355	4.5
428.561	4.48
428.766	4.13
428.971	4.27
429.177	4.13
429.382	3.88
429.587	3.83
429.793	3.6
429.998	3.71
430.203	3.67
430.408	3.3
430.614	3.02
430.819	3.1
431.024	3.1
431.229	3.05
431.434	2.92
431.64	2.95
431.845	3.13
432.05	3.55
432.255	3.32
432.46	3.31
432.665	3.62
432.87	3.82
433.076	3.93
433.281	3.94
433.486	3.88
433.691	3.7
433.896	3.83
434.101	3.88
434.306	3.68
434.511	3.71
434.716	3.78
434.921	3.77
435.126	3.65
435.331	3.28
435.535	3.41
435.74	3.42
435.945	3.64
436.15	3.59
436.355	3.61
436.56	3.52
436.765	3.5
436.97	3.5
437.174	3.44
437.379	3.55
437.584	3.76
437.789	3.76
437.993	3.79
438.198	3.99
438.403	4.12
438.608	4.05
438.812	4.04
439.017	4.2
439.222	4.27
439.426	4.31
439.631	4.21
439.836	4.24
440.04	4.36
440.245	4.4
440.45	4.25
440.654	4.29
440.859	4.26
441.063	4.27
441.268	4.25
441.472	4.26
441.677	4.17
441.881	4.1
442.086	4.04
442.29	3.82
442.495	3.68
442.699	3.79
442.904	3.7
443.108	3.69
443.312	3.84
443.517	3.75
443.721	3.8
443.925	3.9
444.13	4.04
444.334	4.14
444.538	4.27
444.743	4.39
444.947	4.21
445.151	4.15
445.356	4.24
445.56	4.06
445.764	4.19
445.968	4.08
446.173	4.09
446.377	3.96
446.581	3.84
446.785	3.82
446.989	3.74
447.193	3.7
447.398	3.69
447.602	3.49
447.806	3.55
448.01	3.39
448.214	3.37
448.418	3.28
448.622	3.45
448.826	3.66
449.03	3.77
449.234	3.83
449.438	3.87
449.642	3.87
449.846	3.82
450.05	3.88
450.254	3.98
450.458	3.99
450.662	3.93
450.866	3.71
451.069	3.51
451.273	3.41
451.477	3.32
451.681	3.32
451.885	3.25
452.089	3.33
452.292	3.4
452.496	3.46
452.7	3.46
452.904	3.48
453.107	3.42
453.311	3.44
453.515	3.35
453.719	3.4
453.922	3.38
454.126	3.57
454.33	3.75
454.533	3.58
454.737	3.42
454.94	3.44
455.144	3.4
455.348	3.52
455.551	3.41
455.755	3.54
455.958	3.35
456.162	3.24
456.365	3
456.569	2.77
456.772	2.81
456.976	2.61
457.179	2.48
457.383	2.59
457.586	2.38
457.79	2.52
457.993	2.36
458.196	2.5
458.4	2.69
458.603	2.87
458.807	3.02
459.01	3.11
459.213	3.27
459.417	3.29
459.62	3.37
459.823	3.5
460.026	3.47
460.23	3.55
460.433	3.59
460.636	3.6
460.839	3.7
461.042	3.65
461.246	3.64
461.449	3.81
461.652	3.86
461.855	3.79
462.058	3.86
462.261	3.83
462.464	3.96
462.668	4.07
462.871	4.08
463.074	3.91
463.277	3.98
463.48	3.91
463.683	3.77
463.886	3.73
464.089	3.7
464.292	3.49
464.495	3.57
464.698	3.58
464.901	3.48
