Data from CB_070_Reflection_1.txt Node
Date: Sat Nov 14 11:01:45 EST 2015
User: robert
Spectrometer: USB4E03001
Autoset integration time: false
Trigger mode: 4
Integration Time (sec): 1.000000E-1
Scans to average: 15
Electric dark correction enabled: true
Nonlinearity correction enabled: false
Boxcar width: 5
Stray light correction enabled: false
XAxis mode: Wavelengths
Stop averaging: false
Number of Pixels in Spectrum: 3648
>>>>>Begin Spectral Data<<<<<
177.566	-214.39
177.785	-217.28
178.005	-739.79
178.225	-27.22
178.445	-95.85
178.665	-198.49
178.885	-27.94
179.105	-121.98
179.324	-193.48
179.544	-463.4
179.764	-115.24
179.984	-127.13
180.204	-117.99
180.423	-337.08
180.643	-90.67
180.863	-270.36
181.083	-1158.22
181.302	-7091.27
181.522	730.34
181.742	1026.11
181.961	1389.44
182.181	208.54
182.401	188.04
182.621	300.38
182.84	1387.11
183.06	-4364.07
183.279	-533.71
183.499	-356.46
183.719	-429.4
183.938	-313.38
184.158	-175.89
184.377	-124.93
184.597	-71.59
184.816	-35.69
185.036	-84.22
185.256	-128.27
185.475	-357.06
185.695	-214.27
185.914	-193.76
186.134	-123.04
186.353	-74.59
186.572	-113.4
186.792	-316.43
187.011	1831.51
187.231	-782.14
187.45	-61.78
187.67	-282.95
187.889	333.57
188.108	235.14
188.328	238.3
188.547	182.54
188.766	166.4
188.986	147.74
189.205	136.91
189.424	129.47
189.644	142.66
189.863	196.8
190.082	237.4
190.302	331.28
190.521	261.55
190.74	258.29
190.959	1046.33
191.178	997.51
191.398	837.4
191.617	2505
191.836	10465.05
192.055	1969.15
192.274	568.58
192.494	798.86
192.713	30092.86
192.932	-2849.2
193.151	475250
193.37	707.37
193.589	-17352.21
193.808	-1403.74
194.027	-2325.72
194.246	4319.41
194.465	-3003.52
194.685	760.32
194.904	704.76
195.123	473.11
195.342	365.79
195.561	340.67
195.78	996.64
195.999	1861.45
196.218	779.37
196.436	352.32
196.655	229.65
196.874	123.22
197.093	213.6
197.312	192.93
197.531	392.04
197.75	584.1
197.969	1511.94
198.188	276.04
198.407	215.61
198.625	245.46
198.844	308.67
199.063	397.74
199.282	732.01
199.501	-4018.36
199.719	-2344.93
199.938	837.1
200.157	515.4
200.376	-3029.34
200.594	-231.64
200.813	-691.94
201.032	-1747.47
201.251	-935.24
201.469	-1318.82
201.688	-2500
201.907	4485.5
202.125	1308.84
202.344	5074.77
202.563	27268.12
202.781	1532.3
203	474.73
203.218	401.29
203.437	676.06
203.656	421.01
203.874	943.98
204.093	790.19
204.311	448.22
204.53	1072.15
204.748	276.27
204.967	333.87
205.185	223.41
205.404	271.52
205.622	347.18
205.841	215.37
206.059	214.19
206.278	158.33
206.496	247.51
206.715	369.47
206.933	292.22
207.151	414.39
207.37	301.43
207.588	380.16
207.806	465.06
208.025	594.22
208.243	1045.03
208.461	-80854.55
208.68	2147.76
208.898	1069.42
209.116	607.41
209.335	478.38
209.553	471.65
209.771	395.77
209.989	324.87
210.208	264.48
210.426	261.06
210.644	212.67
210.862	186.59
211.081	208.96
211.299	174.02
211.517	217.35
211.735	177.48
211.953	161.72
212.171	174.43
212.39	189.91
212.608	201.17
212.826	173.57
213.044	179.72
213.262	179.57
213.48	161.13
213.698	201.89
213.916	128.72
214.134	194.73
214.352	326.06
214.57	230.14
214.788	221.98
215.006	156.61
215.224	292.94
215.442	413.03
215.66	1000.62
215.878	411.06
216.096	211.73
216.314	726.38
216.532	3135.53
216.75	-947.89
216.968	-1089.66
217.185	-8873.45
217.403	2391.56
217.621	-152866.67
217.839	-955.18
218.057	-33131.25
218.275	-1023.69
218.492	-203.09
218.71	-3116.89
218.928	1763.92
219.146	967.33
219.363	681.59
219.581	770.21
219.799	-4618.07
220.017	473.85
220.234	586.59
220.452	543.2
220.67	877.89
220.887	329.61
221.105	532.62
221.323	301.79
221.54	217.45
221.758	199.64
221.976	184.56
222.193	124.38
222.411	133.1
222.629	147
222.846	148.91
223.064	127.69
223.281	142
223.499	151.52
223.716	155.89
223.934	135.79
224.151	117.63
224.369	122.83
224.586	138.72
224.804	144.31
225.021	129.08
225.239	118.39
225.456	124.59
225.674	102.7
225.891	93.74
226.108	79.92
226.326	86.47
226.543	73.5
226.76	51.61
226.978	52.37
227.195	52.05
227.413	47.92
227.63	48.87
227.847	47.03
228.064	49.42
228.282	46.69
228.499	49.42
228.716	46.53
228.934	51.19
229.151	52.96
229.368	47.18
229.585	42.09
229.802	39.47
230.02	42.64
230.237	41.14
230.454	38.06
230.671	37.46
230.888	34.78
231.105	31.23
231.323	27.4
231.54	29.64
231.757	33.27
231.974	41.17
232.191	44.02
232.408	39.41
232.625	42.85
232.842	41.88
233.059	45.36
233.276	51.14
233.493	57.35
233.71	58.52
233.927	53.97
234.144	55.83
234.361	52.57
234.578	53
234.795	51.02
235.012	47.8
235.229	50.36
235.446	46.13
235.663	44.49
235.879	45.19
236.096	46.36
236.313	51.31
236.53	44.3
236.747	51.19
236.964	52.35
237.181	58.57
237.397	57.41
237.614	67.62
237.831	70.69
238.048	73.93
238.264	67.8
238.481	63.46
238.698	65.18
238.915	70.72
239.131	58.75
239.348	55.91
239.565	51.59
239.781	52.3
239.998	42.09
240.215	40.82
240.431	38.43
240.648	40.68
240.865	37.96
241.081	34.36
241.298	30.11
241.514	33.73
241.731	33.84
241.947	32.38
242.164	30.96
242.38	30.2
242.597	28.54
242.814	26.89
243.03	26.16
243.246	26.96
243.463	26.32
243.679	27.32
243.896	25.19
244.112	23.92
244.329	26.16
244.545	26.7
244.762	25.83
244.978	25.13
245.194	24.54
245.411	24.92
245.627	22.68
245.843	23.78
246.06	23.3
246.276	22.29
246.492	24.06
246.709	22.54
246.925	21.57
247.141	22.74
247.357	22.77
247.574	23.09
247.79	22.72
248.006	23.45
248.222	23.72
248.439	23
248.655	23.11
248.871	21.69
249.087	23.06
249.303	24.39
249.519	24.62
249.736	25.86
249.952	25.49
250.168	28.61
250.384	28.09
250.6	25.34
250.816	27.6
251.032	29.08
251.248	29.89
251.464	28.42
251.68	25.31
251.896	22.25
252.112	22.08
252.328	21.99
252.544	19.97
252.76	19.28
252.976	19.81
253.192	16.65
253.408	14.52
253.624	13.16
253.84	13.38
254.056	15.59
254.272	15.62
254.487	15.35
254.703	17.16
254.919	16.14
255.135	20.58
255.351	23.29
255.567	26.13
255.782	32.19
255.998	32.92
256.214	32
256.43	30.91
256.646	33.34
256.861	34.37
257.077	33.12
257.293	32.97
257.508	30.2
257.724	28.5
257.94	27.75
258.155	24.57
258.371	23.27
258.587	21.22
258.802	19.48
259.018	18.44
259.234	16.41
259.449	15.77
259.665	15.19
259.88	15.68
260.096	15.27
260.312	14.62
260.527	14.02
260.743	13.47
260.958	13.7
261.174	14.77
261.389	15.4
261.605	15.81
261.82	15.27
262.036	15.88
262.251	14.95
262.466	14.7
262.682	14.16
262.897	15.21
263.113	15.08
263.328	14.8
263.543	13.91
263.759	13.67
263.974	12.72
264.189	13.83
264.405	11.69
264.62	13.31
264.835	13.4
265.051	16.24
265.266	16.18
265.481	17.91
265.696	19.26
265.912	19.1
266.127	17.71
266.342	16.39
266.557	17.42
266.773	17.31
266.988	16.55
267.203	17.86
267.418	17.04
267.633	16.84
267.848	16.14
268.064	13.72
268.279	13.58
268.494	12.7
268.709	14.25
268.924	13.9
269.139	14.82
269.354	16.75
269.569	15.06
269.784	15.73
269.999	16.47
270.214	18.38
270.429	17.85
270.644	17.5
270.859	16.74
271.074	16.84
271.289	16.65
271.504	16.46
271.719	15.22
271.934	15.8
272.149	15.25
272.363	15
272.578	14.04
272.793	15.19
273.008	14.38
273.223	16.07
273.438	14.8
273.653	15.51
273.867	16.24
274.082	17.77
274.297	18.29
274.512	19.83
274.726	18.51
274.941	18.02
275.156	18.96
275.371	20.45
275.585	20.95
275.8	23.33
276.015	21.13
276.229	21.33
276.444	18.98
276.659	17.19
276.873	16.06
277.088	18.31
277.302	19.9
277.517	18.69
277.732	17.61
277.946	15.84
278.161	15.89
278.375	17
278.59	16.02
278.804	16.43
279.019	18.88
279.233	19.46
279.448	17.99
279.662	15.27
279.877	15.21
280.091	14.78
280.306	15.16
280.52	12.74
280.735	13.12
280.949	13.77
281.163	14.38
281.378	13.01
281.592	13.35
281.806	13.63
282.021	14.57
282.235	14.5
282.449	15.74
282.664	16.46
282.878	17.79
283.092	16.49
283.307	15.56
283.521	14.19
283.735	14.38
283.949	13.87
284.164	13.85
284.378	13.74
284.592	14.64
284.806	14.25
285.02	12.89
285.234	12.03
285.449	12.21
285.663	13.28
285.877	13.44
286.091	12.21
286.305	12.5
286.519	12.89
286.733	12.7
286.947	12.57
287.161	12.13
287.375	12.15
287.589	14.17
287.803	15.53
288.017	15.03
288.231	16.04
288.445	17.8
288.659	17.81
288.873	17.41
289.087	16.86
289.301	16.87
289.515	17.24
289.729	18.6
289.943	17.57
290.157	18.07
290.371	18.37
290.584	17.77
290.798	17.54
291.012	18.02
291.226	17.67
291.44	18.81
291.654	17.59
291.867	17.57
292.081	15.87
292.295	14.79
292.509	14.07
292.722	13.66
292.936	13.55
293.15	13.52
293.364	11.29
293.577	12.5
293.791	12.07
294.005	12.96
294.218	13.88
294.432	15.35
294.645	15.94
294.859	14.91
295.073	14.54
295.286	14.7
295.5	14.24
295.713	14.81
295.927	14.55
296.14	13.99
296.354	13.22
296.568	12.14
296.781	11.84
296.994	12.07
297.208	12.31
297.421	13
297.635	13.33
297.848	13.11
298.062	12.71
298.275	12.5
298.489	12.97
298.702	13.24
298.915	13.31
299.129	13.16
299.342	12.54
299.555	12.61
299.769	11.9
299.982	12.04
300.195	12.93
300.409	12.96
300.622	13.16
300.835	13.61
301.048	13.61
301.262	14.68
301.475	14.95
301.688	15.37
301.901	15.97
302.115	16.19
302.328	15.67
302.541	14.55
302.754	15.95
302.967	16.27
303.18	16.68
303.393	17.01
303.607	17.3
303.82	17.64
304.033	17.6
304.246	17.58
304.459	17.14
304.672	18.24
304.885	19.25
305.098	19.69
305.311	19.36
305.524	19.13
305.737	19.84
305.95	19.33
306.163	18.49
306.376	19.27
306.589	19.14
306.802	20.31
307.015	19.86
307.228	20.59
307.44	20.04
307.653	19.84
307.866	19.37
308.079	19.52
308.292	18.93
308.505	20.37
308.718	20.69
308.93	20.63
309.143	19.91
309.356	19.97
309.569	18.89
309.781	18.54
309.994	19.05
310.207	19.21
310.42	19.01
310.632	19.64
310.845	19.25
311.058	18.96
311.27	18.21
311.483	17.68
311.696	17.11
311.908	16.97
312.121	17.08
312.333	17.31
312.546	17.06
312.759	16.17
312.971	15.92
313.184	15.85
313.396	15.04
313.609	15.24
313.821	16.97
314.034	16.83
314.246	16.84
314.459	16.47
314.671	15.29
314.884	15.04
315.096	16.32
315.309	16.12
315.521	17.3
315.733	17.9
315.946	17.51
316.158	15.97
316.371	15.9
316.583	15.84
316.795	15.22
317.008	15.31
317.22	16.1
317.432	15.71
317.644	16.45
317.857	15.5
318.069	15.61
318.281	16.47
318.494	17.65
318.706	18.48
318.918	19.74
319.13	20.1
319.342	20.48
319.555	19.82
319.767	20.6
319.979	20.06
320.191	21.04
320.403	20.85
320.615	22.46
320.827	21.83
321.039	21.93
321.252	23.56
321.464	25.23
321.676	25.39
321.888	25.6
322.1	23.55
322.312	22.71
322.524	21.57
322.736	20.28
322.948	18.65
323.16	18.78
323.372	18.62
323.584	16.66
323.796	15.72
324.007	15.18
324.219	15.63
324.431	17.29
324.643	18.3
324.855	18.85
325.067	19.23
325.279	20.13
325.491	20.18
325.702	20.25
325.914	21.03
326.126	21.3
326.338	20.57
326.55	20.75
326.761	20.43
326.973	19.54
327.185	19.23
327.396	20.37
327.608	20.01
327.82	19.93
328.032	20.52
328.243	20.19
328.455	20.63
328.666	22.27
328.878	21.37
329.09	22.46
329.301	22.95
329.513	22.93
329.725	22.87
329.936	23.92
330.148	24.06
330.359	24.32
330.571	24.44
330.782	22.96
330.994	22.98
331.205	24.07
331.417	23.53
331.628	24.58
331.84	26.59
332.051	26.97
332.262	26.53
332.474	26.79
332.685	27.13
332.897	26.96
333.108	27.92
333.319	27.08
333.531	26.79
333.742	26.66
333.953	25.96
334.165	24.81
334.376	25.18
334.587	25.55
334.799	24.73
335.01	23.57
335.221	23.75
335.432	23.23
335.644	23.56
335.855	23.68
336.066	23.42
336.277	24.78
336.488	24.89
336.7	24.17
336.911	23.99
337.122	25.09
337.333	25.38
337.544	25.31
337.755	26.74
337.966	26.48
338.177	26.65
338.388	26.79
338.599	26.11
338.811	25.83
339.022	25.42
339.233	24.66
339.444	23.8
339.655	22.8
339.866	22.97
340.076	22.43
340.287	22.6
340.498	22.55
340.709	22.39
340.92	22.33
341.131	22.65
341.342	23.8
341.553	23.75
341.764	24.58
341.975	25.33
342.185	25.56
342.396	24.9
342.607	25.41
342.818	25.1
343.029	25.06
343.239	25.4
343.45	24.1
343.661	23.61
343.872	23.83
344.082	22.77
344.293	23.14
344.504	22.55
344.714	22.82
344.925	22.77
345.136	22.43
345.346	21.09
345.557	20.78
345.768	20.75
345.978	21.19
346.189	21.65
346.399	20.97
346.61	20.23
346.821	20.61
347.031	20.93
347.242	20.15
347.452	20.39
347.663	22.72
347.873	22.18
348.084	22.95
348.294	21.09
348.504	20.27
348.715	21.46
348.925	21.72
349.136	19.95
349.346	19.74
349.557	20.58
349.767	21.44
349.977	21.15
350.188	20.82
350.398	20.98
350.608	21.81
350.819	22.52
351.029	21.86
351.239	22.96
351.449	24.02
351.66	23.99
351.87	24.1
352.08	23.24
352.29	22.69
352.501	23.38
352.711	23.33
352.921	23.69
353.131	23.16
353.341	23.97
353.552	22.03
353.762	21.25
353.972	20.47
354.182	19.79
354.392	20.1
354.602	19.97
354.812	19.61
355.022	18.8
355.232	19.19
355.442	19.23
355.652	19.12
355.862	20.29
356.072	21.18
356.282	20.67
356.492	21.29
356.702	20.92
356.912	20.67
357.122	21.59
357.332	22.21
357.542	20.95
357.752	20.95
357.962	20.91
358.171	20.22
358.381	20.62
358.591	21.34
358.801	20.7
359.011	20.37
359.221	19.92
359.43	19.57
359.64	19.16
359.85	19.71
360.06	19.35
360.269	19.45
360.479	19.95
360.689	19.58
360.899	19.88
361.108	20
361.318	19.63
361.528	19.86
361.737	19.51
361.947	19.38
362.156	19.52
362.366	19.31
362.576	19.05
362.785	18.77
362.995	18.85
363.204	18.15
363.414	18.05
363.623	18.55
363.833	18.67
364.042	18.97
364.252	19.36
364.461	19.24
364.671	19.78
364.88	19.92
365.09	20.79
365.299	20.64
365.509	21.76
365.718	21.34
365.927	21.63
366.137	21.42
366.346	20.96
366.555	20.51
366.765	20.47
366.974	20.81
367.183	20.68
367.393	19.55
367.602	19.16
367.811	19.01
368.021	19.31
368.23	18.98
368.439	19.05
368.648	18.25
368.857	18.37
369.067	18.45
369.276	18.24
369.485	17.9
369.694	18.81
369.903	19.17
370.112	18.75
370.321	18.56
370.531	18.31
370.74	18.39
370.949	19.05
371.158	19.08
371.367	18.53
371.576	17.56
371.785	17.56
371.994	17.15
372.203	16.73
372.412	16.25
372.621	16.72
372.83	16.69
373.039	16.63
373.248	16.48
373.457	16.89
373.666	16.37
373.874	16.89
374.083	16.94
374.292	16.42
374.501	16.63
374.71	16.74
374.919	16.39
375.128	16.57
375.336	16.54
375.545	16.89
375.754	16.37
375.963	17.07
376.171	16.69
376.38	16.5
376.589	15.98
376.798	15.22
377.006	15.13
377.215	15.08
377.424	15.15
377.632	14.63
377.841	14.36
378.05	14.23
378.258	14.07
378.467	13.95
378.675	13.94
378.884	14.51
379.093	14.77
379.301	15.01
379.51	15.24
379.718	14.96
379.927	15.28
380.135	15.56
380.344	14.99
380.552	14.97
380.761	15.14
380.969	14.68
381.177	14.43
381.386	15.42
381.594	14.87
381.803	14.42
382.011	14.23
382.219	14.08
382.428	13.4
382.636	13.93
382.845	13.49
383.053	13.47
383.261	13.69
383.469	13.56
383.678	12.62
383.886	13.16
384.094	13.41
384.302	14.03
384.511	14.3
384.719	14.58
384.927	14.56
385.135	14.98
385.343	14.76
385.552	15.26
385.76	15.25
385.968	15.23
386.176	14.58
386.384	14.4
386.592	13.42
386.8	13.19
387.008	13.06
387.216	13.06
387.424	13.04
387.633	13.25
387.841	13.08
388.049	13.52
388.257	13.7
388.465	13.8
388.672	13.95
388.88	14.56
389.088	14.08
389.296	13.89
389.504	13.3
389.712	13.13
389.92	13.14
390.128	12.98
390.336	12.75
390.544	12.44
390.751	12.43
390.959	12.08
391.167	12.12
391.375	12.48
391.583	12.31
391.79	12.3
391.998	12.54
392.206	12.43
392.414	12.26
392.621	12.2
392.829	12.18
393.037	12.09
393.244	12
393.452	11.51
393.66	11.09
393.867	11.31
394.075	11.3
394.283	10.79
394.49	10.22
394.698	10.27
394.905	9.92
395.113	9.97
395.32	10
395.528	9.94
395.735	9.95
395.943	10.05
396.15	9.83
396.358	10.17
396.565	10.19
396.773	10.34
396.98	10.33
397.188	10.19
397.395	10.41
397.602	10.16
397.81	10.19
398.017	10.49
398.225	10.95
398.432	10.89
398.639	10.4
398.847	10.46
399.054	10.79
399.261	10.71
399.468	11
399.676	10.83
399.883	11.05
400.09	11.28
400.297	11.13
400.505	10.88
400.712	10.99
400.919	11.57
401.126	11.5
401.333	11.63
401.54	11.44
401.748	11.19
401.955	10.97
402.162	10.85
402.369	10.53
402.576	10.27
402.783	9.95
402.99	9.91
403.197	9.64
403.404	9.51
403.611	9.26
403.818	9.42
404.025	9.57
404.232	9.86
404.439	9.89
404.646	9.85
404.853	9.89
405.06	9.62
405.267	9.68
405.474	9.9
405.681	10.2
405.887	10.15
406.094	10.39
406.301	10.35
406.508	10.08
406.715	10.14
406.922	10.19
407.128	10.51
407.335	10.69
407.542	10.52
407.749	10.22
407.955	10.12
408.162	10.02
408.369	9.7
408.575	9.89
408.782	9.99
408.989	9.81
409.195	9.77
409.402	9.68
409.609	9.59
409.815	9.55
410.022	9.65
410.228	9.75
410.435	10.11
410.642	10.34
410.848	10.11
411.055	10.24
411.261	10.34
411.468	10.52
411.674	10.33
411.881	10.82
412.087	11.2
412.294	11.17
412.5	10.86
412.706	10.58
412.913	10.12
413.119	10.21
413.326	9.89
413.532	9.78
413.738	9.59
413.945	9.19
414.151	9.24
414.357	8.87
414.564	9.05
414.77	9.38
414.976	9.21
415.182	9.7
415.389	9.33
415.595	9.48
415.801	9.36
416.007	9.64
416.214	9.76
416.42	9.4
416.626	9.31
416.832	9.23
417.038	9.11
417.244	9.16
417.45	8.7
417.657	8.86
417.863	8.46
418.069	8.54
418.275	8.23
418.481	8.24
418.687	8.28
418.893	8.22
419.099	8.17
419.305	8.02
419.511	8.05
419.717	8.05
419.923	7.94
420.129	8.1
420.335	8.18
420.541	8.27
420.746	8.24
420.952	8.32
421.158	8.38
421.364	8.28
421.57	8.31
421.776	8.22
421.982	8.35
422.187	8.4
422.393	8.32
422.599	8.25
422.805	8.09
423.01	8.19
423.216	8.19
423.422	8.17
423.628	8.18
423.833	8.11
424.039	8.15
424.245	8.13
424.45	8.09
424.656	8.14
424.862	8.22
425.067	8.14
425.273	8.06
425.478	7.99
425.684	7.95
425.889	8.01
426.095	8.05
426.301	8
426.506	7.95
426.712	8.05
426.917	8.18
427.123	7.93
427.328	8.21
427.533	8.33
427.739	8.46
427.944	8.67
428.15	8.44
428.355	8.49
428.561	8.76
428.766	8.78
428.971	8.71
429.177	8.35
429.382	8.47
429.587	8.38
429.793	8.29
429.998	8.08
430.203	7.86
430.408	8.21
430.614	8.23
430.819	7.89
431.024	7.76
431.229	7.88
431.434	8.18
431.64	8.24
431.845	8.39
432.05	8.47
432.255	8.53
432.46	8.71
432.665	8.38
432.87	8.27
433.076	8.28
433.281	8.44
433.486	8.27
433.691	8.21
433.896	8.3
434.101	8.23
434.306	8.46
434.511	8.66
434.716	8.77
434.921	9.18
435.126	9.38
435.331	9.51
435.535	9.48
435.74	9.63
435.945	9.67
436.15	9.51
436.355	9.62
436.56	9.46
436.765	9.29
436.97	8.98
437.174	8.74
437.379	8.75
437.584	8.9
437.789	8.78
437.993	8.62
438.198	8.71
438.403	8.76
438.608	8.62
438.812	8.48
439.017	8.4
439.222	8.54
439.426	8.45
439.631	8.27
439.836	8.25
440.04	8.35
440.245	8.44
440.45	8.42
440.654	8.45
440.859	8.43
441.063	8.51
441.268	8.54
441.472	8.42
441.677	8.42
441.881	8.33
442.086	8.2
442.29	8.04
442.495	8.04
442.699	8
442.904	7.86
443.108	7.96
443.312	7.94
443.517	7.95
443.721	7.91
443.925	7.85
444.13	7.96
444.334	7.91
444.538	8.07
444.743	8.09
444.947	8.01
445.151	7.94
445.356	7.77
445.56	7.83
445.764	7.69
445.968	7.71
446.173	7.59
446.377	7.68
446.581	7.6
446.785	7.48
446.989	7.48
447.193	7.59
447.398	7.68
447.602	7.81
447.806	7.78
448.01	7.95
448.214	8.11
448.418	8.19
448.622	8.07
448.826	8.25
449.03	8.42
449.234	8.51
449.438	8.42
449.642	8.43
449.846	8.5
450.05	8.57
450.254	8.4
450.458	8.32
450.662	8.58
450.866	8.61
451.069	8.57
451.273	8.6
451.477	8.73
451.681	8.92
451.885	8.74
452.089	8.7
452.292	8.38
452.496	8.45
452.7	8.46
452.904	8.38
453.107	8.51
453.311	8.4
453.515	8.38
453.719	8.01
453.922	7.96
454.126	8.2
454.33	7.8
454.533	7.91
454.737	8.01
454.94	7.96
455.144	8.11
455.348	8
455.551	8.17
455.755	8.07
455.958	8.16
456.162	7.96
456.365	7.87
