Data from CB_028_Reflection_1.txt Node
Date: Wed Nov 11 20:42:18 EST 2015
User: robert
Spectrometer: USB4E03001
Autoset integration time: false
Trigger mode: 4
Integration Time (sec): 1.000000E-1
Scans to average: 15
Electric dark correction enabled: true
Nonlinearity correction enabled: false
Boxcar width: 5
Stray light correction enabled: false
XAxis mode: Wavelengths
Stop averaging: false
Number of Pixels in Spectrum: 3648
>>>>>Begin Spectral Data<<<<<
177.566	0.11
177.785	5.23
178.005	245.31
178.225	-151.67
178.445	-229.45
178.665	741.18
178.885	63.35
179.105	126.09
179.324	-2.85
179.544	43.86
179.764	-121.14
179.984	-251.43
180.204	10527.5
180.423	265.16
180.643	-1406.99
180.863	2903.83
181.083	421.27
181.302	818.35
181.522	1073.05
181.742	-2865.96
181.961	-528.71
182.181	-4050.24
182.401	3317.74
182.621	-339.57
182.84	-277.52
183.06	-212.98
183.279	-468.63
183.499	-211.73
183.719	-198.03
183.938	-153.49
184.158	-108.03
184.377	-94.03
184.597	-147.27
184.816	-72.75
185.036	-116.44
185.256	-113.34
185.475	-94.1
185.695	-84.81
185.914	-118.68
186.134	-1340.57
186.353	2741.53
186.572	391.47
186.792	475.87
187.011	1169.01
187.231	1871.58
187.45	888.55
187.67	487.2
187.889	419.26
188.108	323.2
188.328	497.03
188.547	851.2
188.766	1213.75
188.986	4783.67
189.205	5597.75
189.424	1401.41
189.644	482.02
189.863	444.59
190.082	1329.12
190.302	172.55
190.521	171.57
190.74	51.73
190.959	-17.81
191.178	-37.22
191.398	-44.59
191.617	-67.57
191.836	-123.37
192.055	-134.68
192.274	-133.12
192.494	-195.89
192.713	-181.34
192.932	-688.86
193.151	50.68
193.37	23.64
193.589	-37.48
193.808	-52.41
194.027	-157.42
194.246	-274.37
194.465	-70.13
194.685	-253.54
194.904	564.52
195.123	-510.39
195.342	-44.51
195.561	-243.99
195.78	-4176.7
195.999	-90.67
196.218	-158.78
196.436	-411.68
196.655	1236.68
196.874	878.87
197.093	1640.14
197.312	-377.11
197.531	1272.22
197.75	683.12
197.969	612.93
198.188	1031.18
198.407	556.25
198.625	553.02
198.844	742.67
199.063	-2173.55
199.282	-1090.81
199.501	-696.57
199.719	-1062.48
199.938	-645.2
200.157	3109.57
200.376	-237.67
200.594	-774.44
200.813	-188.35
201.032	273.49
201.251	222.77
201.469	290.06
201.688	100.77
201.907	239.75
202.125	231.34
202.344	1055.56
202.563	490.58
202.781	584.07
203	307.38
203.218	169.33
203.437	451.74
203.656	631.13
203.874	404.9
204.093	1014.8
204.311	718.91
204.53	239.84
204.748	301.25
204.967	467.36
205.185	7402.86
205.404	-270.11
205.622	-95.43
205.841	-28.69
206.059	-42.16
206.278	-47.77
206.496	-99.01
206.715	-194.16
206.933	-57.5
207.151	-92.98
207.37	-37.79
207.588	-25.96
207.806	27.91
208.025	121.92
208.243	44.07
208.461	8.84
208.68	-25.43
208.898	771.28
209.116	167.06
209.335	388.97
209.553	98.14
209.771	-29.11
209.989	170.99
210.208	75.75
210.426	178.12
210.644	317.17
210.862	404.46
211.081	205.28
211.299	218.12
211.517	190.08
211.735	716.71
211.953	269.72
212.171	321.05
212.39	-1820.59
212.608	-187.3
212.826	-45.16
213.044	4.2
213.262	-96.04
213.48	-41.32
213.698	-31.05
213.916	-122.56
214.134	-144.39
214.352	-115.07
214.57	-47.64
214.788	-203.79
215.006	-506.32
215.224	325.31
215.442	963
215.66	493.18
215.878	583.55
216.096	333.19
216.314	501.55
216.532	772.1
216.75	1514.92
216.968	476.61
217.185	261.89
217.403	230.64
217.621	595.05
217.839	202.83
218.057	356.62
218.275	627.72
218.492	-1165.04
218.71	414.04
218.928	213.65
219.146	193.65
219.363	794.28
219.581	-513.1
219.799	-106.46
220.017	-280.23
220.234	-189.19
220.452	-251.73
220.67	-546.37
220.887	3592.64
221.105	-726.12
221.323	-173.62
221.54	-212.38
221.758	-774.86
221.976	-275.53
222.193	-279.03
222.411	-151.29
222.629	-183.97
222.846	-235.74
223.064	-138.86
223.281	-75.68
223.499	-43.88
223.716	-79.02
223.934	-80.78
224.151	-40.62
224.369	-69.16
224.586	-39.06
224.804	-37.01
225.021	-28.91
225.239	-57.04
225.456	-34.98
225.674	-32.82
225.891	-45.71
226.108	-38.17
226.326	-30.76
226.543	-1.53
226.76	11.18
226.978	6.57
227.195	5.42
227.413	18.42
227.63	17.8
227.847	5.38
228.064	5.12
228.282	10.27
228.499	7.91
228.716	9.8
228.934	6.34
229.151	5.1
229.368	5.27
229.585	3.5
229.802	-1.65
230.02	-1.1
230.237	0.67
230.454	0.96
230.671	-4.46
230.888	0.5
231.105	4.63
231.323	6.86
231.54	3.14
231.757	2.96
231.974	5.06
232.191	5.29
232.408	7.13
232.625	7.51
232.842	5.97
233.059	6.92
233.276	3.87
233.493	0.19
233.71	0.04
233.927	7
234.144	-3.73
234.361	-3.1
234.578	-1.91
234.795	-8.96
235.012	-0.91
235.229	-9.36
235.446	-11.43
235.663	-24.52
235.879	-22.02
236.096	-14.69
236.313	-21.57
236.53	-3.55
236.747	-5.42
236.964	-7.87
237.181	-5.8
237.397	-10.73
237.614	-6.8
237.831	-3.39
238.048	-3.13
238.264	-8.68
238.481	-7.81
238.698	-5.2
238.915	-5.75
239.131	-4.97
239.348	0.89
239.565	6.79
239.781	3.46
239.998	0.03
240.215	3.9
240.431	7.39
240.648	7.47
240.865	4
241.081	1.59
241.298	-0.23
241.514	-0.68
241.731	2.45
241.947	3.43
242.164	5.38
242.38	8.83
242.597	6.93
242.814	6.04
243.03	8.31
243.246	7.94
243.463	9.98
243.679	10
243.896	11.23
244.112	10.93
244.329	10.76
244.545	11.33
244.762	9.91
244.978	11.3
245.194	14.33
245.411	12.47
245.627	12.83
245.843	11.45
246.06	11.57
246.276	11.44
246.492	9.67
246.709	8.95
246.925	8.73
247.141	9.2
247.357	10.26
247.574	9.22
247.79	9.49
248.006	8.63
248.222	9.3
248.439	9.1
248.655	9.52
248.871	9.63
249.087	9.27
249.303	10.42
249.519	9.79
249.736	6.21
249.952	5.83
250.168	3.21
250.384	5.65
250.6	3.89
250.816	2.86
251.032	3.27
251.248	7.66
251.464	8.72
251.68	8.18
251.896	6.17
252.112	8.57
252.328	8.28
252.544	9.08
252.76	8.09
252.976	9.66
253.192	11.4
253.408	9.2
253.624	5.61
253.84	4.34
254.056	1.34
254.272	5.37
254.487	4.08
254.703	3.45
254.919	6.72
255.135	3.3
255.351	-3.82
255.567	-4.15
255.782	-1.5
255.998	-2
256.214	-3.14
256.43	-5.24
256.646	-6.37
256.861	-5.22
257.077	-3.18
257.293	-7.21
257.508	-6.22
257.724	-2.54
257.94	-3.39
258.155	-0.73
258.371	-1.05
258.587	0.78
258.802	2.27
259.018	3.6
259.234	3.83
259.449	4.69
259.665	5.16
259.88	6.22
260.096	5.84
260.312	6.84
260.527	5.84
260.743	5.97
260.958	5.72
261.174	5.9
261.389	5.61
261.605	5.28
261.82	5.14
262.036	5.92
262.251	4.95
262.466	6.82
262.682	4.2
262.897	3.65
263.113	5.68
263.328	6.44
263.543	4.68
263.759	3
263.974	1.47
264.189	0.09
264.405	-0.18
264.62	0.58
264.835	-1.6
265.051	-1.84
265.266	-0.09
265.481	-1.27
265.696	-3.07
265.912	-2.82
266.127	-3.37
266.342	-2.25
266.557	-0.53
266.773	-2.17
266.988	-2.4
267.203	-2.62
267.418	-1.86
267.633	-1.55
267.848	-1.32
268.064	0.18
268.279	1.72
268.494	1.36
268.709	2.4
268.924	0.91
269.139	2.86
269.354	2.95
269.569	4.16
269.784	5.05
269.999	4.85
270.214	6.67
270.429	5.41
270.644	5.84
270.859	6.89
271.074	6.66
271.289	6.9
271.504	6.21
271.719	6.11
271.934	4.86
272.149	4.85
272.363	5.48
272.578	3.77
272.793	3.85
273.008	3.19
273.223	3.25
273.438	1.43
273.653	0.86
273.867	0.51
274.082	0.39
274.297	0.98
274.512	1.95
274.726	1.42
274.941	1.26
275.156	1.56
275.371	0.94
275.585	1.66
275.8	1.78
276.015	2.51
276.229	3.56
276.444	4.97
276.659	5.08
276.873	2.91
277.088	1.64
277.302	1.51
277.517	2.45
277.732	2.19
277.946	2.14
278.161	3.26
278.375	1.63
278.59	1.21
278.804	-0.82
279.019	-1.44
279.233	-0.8
279.448	1.02
279.662	1.09
279.877	1.09
280.091	3.99
280.306	3.71
280.52	5.43
280.735	7.23
280.949	8.04
281.163	8.7
281.378	10.25
281.592	11.24
281.806	8.87
282.021	9.42
282.235	7.85
282.449	5.78
282.664	6.24
282.878	7.03
283.092	6.09
283.307	4.46
283.521	4.03
283.735	3.19
283.949	1.15
284.164	1.31
284.378	2.44
284.592	2.96
284.806	2.03
285.02	2.2
285.234	0.94
285.449	0.96
285.663	2.15
285.877	2.13
286.091	1.92
286.305	2.59
286.519	4.1
286.733	4.13
286.947	4.73
287.161	5.79
287.375	5.99
287.589	5.44
287.803	5.87
288.017	6.03
288.231	6.7
288.445	7.63
288.659	8.48
288.873	7.41
289.087	6.15
289.301	5.86
289.515	7.36
289.729	7.06
289.943	7.39
290.157	8.46
290.371	7.56
290.584	8.69
290.798	7.5
291.012	6.25
291.226	6.46
291.44	6.37
291.654	6.1
291.867	5.08
292.081	4.95
292.295	5.23
292.509	4.65
292.722	4.52
292.936	2.79
293.15	2.48
293.364	4.29
293.577	5.73
293.791	6.23
294.005	6.72
294.218	6.8
294.432	6.35
294.645	5.64
294.859	5.95
295.073	6.95
295.286	8.51
295.5	9.52
295.713	9.46
295.927	9.26
296.14	9.42
296.354	10.23
296.568	9.78
296.781	10.75
296.994	10.94
297.208	11.1
297.421	10.91
297.635	10.4
297.848	10.26
298.062	10.82
298.275	10.75
298.489	11.24
298.702	10.71
298.915	11.33
299.129	11.45
299.342	12.58
299.555	12.13
299.769	11.76
299.982	11.75
300.195	11.3
300.409	10.49
300.622	9.41
300.835	8.78
301.048	10.69
301.262	9.71
301.475	8.08
301.688	7.59
301.901	7.66
302.115	8.55
302.328	9.07
302.541	11.3
302.754	11.89
302.967	13.72
303.18	13.97
303.393	12.64
303.607	13.4
303.82	14.84
304.033	14.59
304.246	14.99
304.459	15.11
304.672	14.4
304.885	14.36
305.098	14
305.311	12.73
305.524	12.34
305.737	11.8
305.95	12.5
306.163	10.42
306.376	12.08
306.589	11.67
306.802	12.27
307.015	12.37
307.228	10.89
307.44	11.32
307.653	11.11
307.866	10.47
308.079	10.91
308.292	9.65
308.505	10.03
308.718	9.28
308.93	9.56
309.143	7.97
309.356	8.83
309.569	9.43
309.781	8.94
309.994	9.72
310.207	10.81
310.42	11.12
310.632	11.38
310.845	11.59
311.058	11.16
311.27	11.16
311.483	12.6
311.696	12.56
311.908	11.51
312.121	11.38
312.333	10.94
312.546	10.86
312.759	10.77
312.971	11.76
313.184	12.26
313.396	11.85
313.609	12.07
313.821	11.71
314.034	11.39
314.246	12.4
314.459	12.51
314.671	12.46
314.884	11.79
315.096	11.33
315.309	11.04
315.521	12.03
315.733	11.98
315.946	11.41
316.158	9.88
316.371	9.78
316.583	9.46
316.795	10.05
317.008	11.09
317.22	9.86
317.432	10.05
317.644	9.31
317.857	8.84
318.069	10.84
318.281	11.22
318.494	11.45
318.706	11.98
318.918	11.3
319.13	11.39
319.342	11.99
319.555	14.28
319.767	14.25
319.979	14.84
320.191	13.58
320.403	12.16
320.615	12.65
320.827	13.23
321.039	12.44
321.252	13.37
321.464	12.74
321.676	11.79
321.888	12.06
322.1	12.17
322.312	12.34
322.524	12.47
322.736	13
322.948	12.57
323.16	12.57
323.372	14.02
323.584	13.34
323.796	14.78
324.007	15.45
324.219	15.29
324.431	15.94
324.643	15.97
324.855	16.61
325.067	17.16
325.279	17.98
325.491	18.95
325.702	17.97
325.914	18.31
326.126	16.14
326.338	15.62
326.55	15.85
326.761	15.15
326.973	15.6
327.185	16.05
327.396	14.78
327.608	14.84
327.82	13.97
328.032	14.15
328.243	13.6
328.455	15.32
328.666	15.69
328.878	15.28
329.09	17.07
329.301	16.72
329.513	16.55
329.725	18.03
329.936	17.58
330.148	18.25
330.359	19.1
330.571	19.97
330.782	20.01
330.994	19.72
331.205	20.09
331.417	18.48
331.628	17.45
331.84	17.02
332.051	16.3
332.262	16.13
332.474	16.09
332.685	14.42
332.897	15.62
333.108	15.34
333.319	15.92
333.531	16.69
333.742	17.09
333.953	18.67
334.165	19.56
334.376	20.24
334.587	19.69
334.799	19.66
335.01	20.12
335.221	19.63
335.432	20.2
335.644	19.67
335.855	19.36
336.066	19.32
336.277	18.14
336.488	18.02
336.7	17.37
336.911	17.75
337.122	16.5
337.333	17.07
337.544	16.75
337.755	16
337.966	15.86
338.177	14.79
338.388	15.11
338.599	15.31
338.811	13.94
339.022	14.19
339.233	14.44
339.444	16.06
339.655	15.58
339.866	14.52
340.076	15.28
340.287	15.56
340.498	16.44
340.709	15.93
340.92	16.71
341.131	17.51
341.342	16.68
341.553	17.21
341.764	17.41
341.975	16.35
342.185	18.25
342.396	18.92
342.607	19.69
342.818	19.83
343.029	20.26
343.239	19.96
343.45	20.38
343.661	21.49
343.872	20.8
344.082	20.49
344.293	22.01
344.504	21.24
344.714	20.56
344.925	20.53
345.136	20.44
345.346	19.5
345.557	19.01
345.768	18.13
345.978	17.61
346.189	17.37
346.399	17.29
346.61	17.07
346.821	16.86
347.031	16.37
347.242	14.81
347.452	14.34
347.663	14.87
347.873	15.32
348.084	16.29
348.294	16.45
348.504	16.53
348.715	15.95
348.925	16.23
349.136	16.28
349.346	15.98
349.557	16.51
349.767	16.68
349.977	17.5
350.188	16.68
350.398	15.59
350.608	15.33
350.819	15.31
351.029	16.4
351.239	16.03
351.449	16.51
351.66	16.46
351.87	16.79
352.08	16.59
352.29	15.6
352.501	16.59
352.711	17.18
352.921	17.67
353.131	18.17
353.341	17.51
353.552	17.49
353.762	17.35
353.972	17.8
354.182	17.02
354.392	16.63
354.602	17.01
354.812	16.62
355.022	17.04
355.232	16.22
355.442	16
355.652	15.23
355.862	15.44
356.072	15.9
356.282	15.86
356.492	16.46
356.702	16.8
356.912	16.48
357.122	16.09
357.332	15.87
357.542	16.42
357.752	16.42
357.962	17.54
358.171	17.54
358.381	17.1
358.591	16.59
358.801	17
359.011	17.48
359.221	17.41
359.43	17.37
359.64	17.27
359.85	17.55
360.06	17.41
360.269	17.25
360.479	16.66
360.689	16.32
360.899	16.69
361.108	16.04
361.318	15.76
361.528	15.84
361.737	16.04
361.947	15.89
362.156	15.97
362.366	16.03
362.576	15.53
362.785	15.58
362.995	15.79
363.204	15.66
363.414	16.41
363.623	16.5
363.833	16.01
364.042	16.59
364.252	16.98
364.461	16.7
364.671	16.63
364.88	16.63
365.09	16.9
365.299	17.22
365.509	17.44
365.718	16.59
365.927	15.82
366.137	16.04
366.346	16.29
366.555	16.11
366.765	15.51
366.974	15.48
367.183	15.23
367.393	15.6
367.602	15.38
367.811	15.32
368.021	15.74
368.23	16.51
368.439	17.1
368.648	16.31
368.857	15.92
369.067	16.05
369.276	16.28
369.485	16.52
369.694	15.98
369.903	14.5
370.112	14.03
370.321	13.91
370.531	13.73
370.74	13.13
370.949	13.15
371.158	12.91
371.367	12.65
371.576	12.19
371.785	11.8
371.994	11.4
372.203	12.69
372.412	12.91
372.621	13.34
372.83	13.16
373.039	13.02
373.248	12.66
373.457	12.79
373.666	12.73
373.874	12.95
374.083	13.33
374.292	12.99
374.501	13.16
374.71	13.24
374.919	12.66
375.128	12.06
375.336	12.33
375.545	12.53
375.754	12.26
375.963	12.53
376.171	12.39
376.38	12.17
376.589	11.96
376.798	10.99
377.006	10.7
377.215	10.49
377.424	10.56
377.632	10.19
377.841	9.67
378.05	9.53
378.258	9.44
378.467	9.33
378.675	9.28
378.884	9.96
379.093	10.18
379.301	9.99
379.51	10.05
379.718	10.15
379.927	10.52
380.135	10.65
380.344	11.22
380.552	11.57
380.761	11.35
380.969	11.31
381.177	11.04
381.386	11.51
381.594	11.75
381.803	11.06
382.011	11.21
382.219	11.06
382.428	10.91
382.636	10.28
382.845	9.64
383.053	9.74
383.261	9.79
383.469	9.59
383.678	9.49
383.886	9.01
384.094	9.5
384.302	9.24
384.511	9.36
384.719	9.68
384.927	9.68
385.135	9.64
385.343	9.5
385.552	8.93
385.76	9.19
385.968	8.9
386.176	8.88
386.384	8.82
386.592	8.78
386.8	8.33
387.008	8.41
387.216	8.33
387.424	8.47
387.633	8.28
387.841	8.55
388.049	7.99
388.257	8
388.465	8.39
388.672	8.28
388.88	8.21
389.088	8.91
389.296	8.68
389.504	8.94
389.712	8.74
389.92	8.91
390.128	8.99
390.336	9.15
390.544	9.07
390.751	8.43
390.959	8.53
391.167	8.91
391.375	8.28
391.583	8.08
391.79	8.36
391.998	8.59
392.206	8.66
392.414	8.9
392.621	9.11
392.829	8.72
393.037	9
393.244	9.14
393.452	8.81
393.66	9.27
393.867	9.17
394.075	8.84
394.283	8.14
394.49	8.02
394.698	7.86
394.905	7.64
395.113	8.03
395.32	8.39
395.528	7.89
395.735	7.69
395.943	7.22
396.15	7.24
396.358	7.02
396.565	7.28
396.773	7.14
396.98	6.99
397.188	7.15
397.395	7.19
397.602	6.78
397.81	6.98
398.017	6.76
398.225	6.91
398.432	7.14
398.639	7.49
398.847	7.48
399.054	7.6
399.261	7.45
399.468	7.39
399.676	7.18
399.883	7.35
400.09	7.28
400.297	7.75
400.505	7.83
400.712	7.82
400.919	7.76
401.126	7.98
401.333	7.99
401.54	8.17
401.748	8.15
401.955	7.97
402.162	7.77
402.369	7.59
402.576	7.67
402.783	7.46
402.99	7.03
403.197	6.95
403.404	7.12
403.611	7.03
403.818	6.83
404.025	6.93
404.232	6.89
404.439	6.84
404.646	6.91
404.853	6.66
405.06	6.46
405.267	7.03
405.474	6.8
405.681	6.52
405.887	6.38
406.094	6.57
406.301	6.55
406.508	6.57
406.715	6.77
406.922	7.07
407.128	6.88
407.335	6.99
407.542	6.26
407.749	6.26
407.955	6.34
408.162	6.66
408.369	6.43
408.575	6.41
408.782	6.58
408.989	6.7
409.195	6.31
409.402	6.94
409.609	6.84
409.815	7.06
410.022	6.98
410.228	6.85
410.435	6.73
410.642	6.99
410.848	6.8
411.055	6.58
411.261	6.38
411.468	6.52
411.674	5.91
411.881	5.89
412.087	5.93
412.294	6.08
412.5	5.99
412.706	6.02
412.913	5.72
413.119	5.85
413.326	5.94
413.532	5.96
413.738	6.07
413.945	6.15
414.151	6.32
414.357	6.2
414.564	6.09
414.77	6.48
414.976	6.33
415.182	6.19
415.389	6.35
415.595	6.43
415.801	6.33
416.007	6.16
416.214	6.47
416.42	6.45
416.626	6.39
416.832	6.46
417.038	6.56
417.244	6.72
417.45	6.91
417.657	6.66
417.863	6.61
418.069	6.43
418.275	6.5
418.481	6.44
418.687	6.31
418.893	6.34
419.099	6.53
419.305	6.36
419.511	6.26
419.717	6.23
419.923	6.32
420.129	6.33
420.335	6.51
420.541	6.4
420.746	6.22
420.952	6.32
421.158	6.32
421.364	6.24
421.57	6.18
421.776	6.22
421.982	6.14
422.187	6.07
422.393	5.95
422.599	5.84
422.805	6.02
423.01	6.11
423.216	6.14
423.422	6.16
423.628	6.12
423.833	6.21
424.039	5.98
424.245	6.06
424.45	6.14
424.656	6.39
424.862	6.33
425.067	6.06
425.273	6.08
425.478	5.98
425.684	5.96
425.889	5.76
426.095	5.63
426.301	5.69
426.506	5.6
426.712	5.37
426.917	5.21
427.123	5.47
427.328	5.79
427.533	5.95
427.739	5.9
427.944	5.82
428.15	5.99
428.355	5.96
428.561	5.92
428.766	5.89
428.971	6.05
429.177	5.74
429.382	5.42
429.587	5.26
429.793	4.94
429.998	4.83
430.203	4.63
430.408	4.57
430.614	4.54
430.819	4.65
431.024	4.81
431.229	4.79
431.434	5.13
431.64	5.26
431.845	5.31
432.05	5.24
432.255	5.57
432.46	5.9
432.665	6.14
432.87	6.2
433.076	6.16
433.281	6.25
433.486	6.29
433.691	6.23
433.896	6.29
434.101	6.37
434.306	6.59
434.511	6.45
434.716	6.36
434.921	6.19
435.126	6.24
435.331	6.2
435.535	6.03
435.74	6.03
435.945	5.88
436.15	5.62
436.355	5.4
436.56	5.41
436.765	5.29
436.97	5.3
437.174	5.39
437.379	5.55
437.584	5.45
437.789	5.59
437.993	5.51
438.198	5.76
438.403	6.01
438.608	5.93
438.812	5.94
439.017	6
439.222	6.1
439.426	6.02
439.631	5.89
439.836	6.14
440.04	6.17
440.245	6.31
440.45	6.28
440.654	6.09
440.859	6.19
441.063	5.96
441.268	5.88
441.472	5.88
441.677	5.96
441.881	6
442.086	6.18
442.29	6.04
442.495	6.09
442.699	6.09
442.904	6.11
443.108	6.23
443.312	6.32
443.517	6.46
443.721	6.37
443.925	6.27
444.13	6.13
444.334	5.9
444.538	5.92
444.743	5.72
444.947	5.76
445.151	5.87
445.356	5.79
445.56	5.81
445.764	5.78
445.968	5.78
446.173	5.83
446.377	5.89
446.581	5.91
446.785	5.82
446.989	5.86
447.193	5.71
447.398	5.58
447.602	5.6
447.806	5.56
448.01	5.58
448.214	5.52
448.418	5.53
448.622	5.57
448.826	5.5
449.03	5.62
449.234	5.49
449.438	5.58
449.642	5.91
449.846	5.66
450.05	5.78
450.254	5.91
450.458	5.87
450.662	5.83
450.866	5.73
451.069	5.61
451.273	5.5
451.477	5.45
451.681	5.52
451.885	5.37
452.089	5.68
452.292	5.76
452.496	5.66
452.7	5.97
452.904	5.93
453.107	6
453.311	6.01
453.515	5.96
453.719	6.19
453.922	6.01
454.126	5.82
454.33	5.54
454.533	5.62
454.737	5.59
454.94	5.18
455.144	5.11
455.348	4.98
455.551	5.14
455.755	5.2
455.958	4.9
456.162	4.85
456.365	4.89
456.569	5.39
456.772	5.08
456.976	5.17
457.179	5.35
457.383	5.45
457.586	5.44
457.79	5.28
457.993	5.1
458.196	5.34
458.4	5.56
458.603	5.6
458.807	5.4
459.01	5.51
459.213	5.38
459.417	5.45
459.62	5.31
459.823	5.25
460.026	5.34
460.23	5.53
460.433	5.56
460.636	5.41
460.839	5.47
461.042	5.45
461.246	5.52
461.449	5.68
461.652	5.76
461.855	6.01
462.058	6.08
462.261	6.1
