Data from CB_003_Reflection_2.txt Node
Date: Wed Nov 11 18:17:10 EST 2015
User: robert
Spectrometer: USB4E03001
Autoset integration time: false
Trigger mode: 4
Integration Time (sec): 1.000000E-1
Scans to average: 15
Electric dark correction enabled: true
Nonlinearity correction enabled: false
Boxcar width: 5
Stray light correction enabled: false
XAxis mode: Wavelengths
Stop averaging: false
Number of Pixels in Spectrum: 3648
>>>>>Begin Spectral Data<<<<<
177.566	-78.4
177.785	-203.44
178.005	17.22
178.225	-420.53
178.445	-134.68
178.665	-661.65
178.885	-186.9
179.105	426.28
179.324	215.32
179.544	-109.72
179.764	-102.73
179.984	-95.23
180.204	210.17
180.423	-59.66
180.643	-206.88
180.863	476.9
181.083	1429.75
181.302	556.24
181.522	-2320.06
181.742	-726.65
181.961	476.05
182.181	211.43
182.401	263.3
182.621	1608.99
182.84	263.45
183.06	296.98
183.279	325.67
183.499	857.56
183.719	849.57
183.938	430.8
184.158	1016.83
184.377	-1621.89
184.597	-403.4
184.816	-245.08
185.036	-534.77
185.256	-156.5
185.475	599.22
185.695	-5783.91
185.914	196.43
186.134	91.58
186.353	139.16
186.572	161.7
186.792	87.14
187.011	46.61
187.231	77.92
187.45	70.18
187.67	72.23
187.889	263.61
188.108	296.2
188.328	377.99
188.547	-356.81
188.766	-680.81
188.986	406.32
189.205	-25531.82
189.424	539.17
189.644	2611.57
189.863	275.09
190.082	277.74
190.302	224.1
190.521	179.01
190.74	166.05
190.959	100.74
191.178	100.68
191.398	66.35
191.617	60.53
191.836	70.42
192.055	75.33
192.274	47.82
192.494	30.97
192.713	45.53
192.932	57.07
193.151	57.96
193.37	77.7
193.589	71.48
193.808	108.18
194.027	103.02
194.246	130.65
194.465	121.31
194.685	109.63
194.904	118.78
195.123	267.39
195.342	574.44
195.561	97.24
195.78	93.15
195.999	50.75
196.218	-365.45
196.436	193.77
196.655	1412.1
196.874	-190.99
197.093	33.7
197.312	-27.87
197.531	168.15
197.75	83.46
197.969	71.66
198.188	89.93
198.407	58.59
198.625	-5.22
198.844	45.56
199.063	-41.6
199.282	-70.47
199.501	25.35
199.719	7.85
199.938	-1513.67
200.157	210.27
200.376	238.29
200.594	390.87
200.813	-11814.29
201.032	484.73
201.251	140.2
201.469	155.63
201.688	83.46
201.907	44.12
202.125	54.97
202.344	46.9
202.563	10.75
202.781	-0.64
203	3.21
203.218	10.73
203.437	31.26
203.656	79.34
203.874	64.22
204.093	84.76
204.311	92.4
204.53	76.42
204.748	63.34
204.967	88.51
205.185	87.06
205.404	96.78
205.622	112.7
205.841	123.99
206.059	114.8
206.278	165.36
206.496	109.93
206.715	182.44
206.933	303.03
207.151	238.24
207.37	282.08
207.588	255.51
207.806	365.85
208.025	375.31
208.243	351.26
208.461	148.29
208.68	174.19
208.898	216.69
209.116	175.22
209.335	96.03
209.553	-133.53
209.771	148.97
209.989	-1605.65
210.208	-663.73
210.426	-398.07
210.644	-49
210.862	-23.03
211.081	-3.7
211.299	6.16
211.517	-152.61
211.735	-162.54
211.953	-230.56
212.171	-30.74
212.39	-272.16
212.608	-1467.97
212.826	247.43
213.044	247.65
213.262	238
213.48	221.01
213.698	355.78
213.916	-1229
214.134	-543.75
214.352	-1067.42
214.57	753.01
214.788	158.99
215.006	176.62
215.224	131.21
215.442	67.43
215.66	79.59
215.878	78.04
216.096	68.59
216.314	83.1
216.532	91.28
216.75	108.15
216.968	108.4
217.185	154.6
217.403	169.62
217.621	228.89
217.839	299.73
218.057	4357.79
218.275	-1672.84
218.492	-157.51
218.71	-77.15
218.928	-35.38
219.146	11.1
219.363	27.33
219.581	-7.35
219.799	15.69
220.017	17.39
220.234	10.65
220.452	19.19
220.67	6.78
220.887	-47.1
221.105	-43.36
221.323	-51.05
221.54	21.06
221.758	32.09
221.976	10.5
222.193	19.92
222.411	-29.26
222.629	-57.66
222.846	-74.31
223.064	-50.04
223.281	-37.95
223.499	4.85
223.716	-48.85
223.934	-489.44
224.151	-841.96
224.369	-331.91
224.586	217450
224.804	-355.28
225.021	-124.97
225.239	-121.07
225.456	-142.02
225.674	-145.32
225.891	-56.49
226.108	-42.17
226.326	-5.45
226.543	-4.18
226.76	-9.28
226.978	2.64
227.195	3.43
227.413	4.24
227.63	6
227.847	3.96
228.064	5.96
228.282	6.1
228.499	11.49
228.716	11.71
228.934	10.22
229.151	8.99
229.368	11.16
229.585	7.01
229.802	8.51
230.02	8.8
230.237	8.11
230.454	11.88
230.671	11.02
230.888	5.83
231.105	5.94
231.323	8.98
231.54	12.55
231.757	5.39
231.974	11.3
232.191	6.97
232.408	7.51
232.625	8.5
232.842	0.93
233.059	-1.59
233.276	9.85
233.493	7.61
233.71	2.03
233.927	-2.72
234.144	5.11
234.361	2.55
234.578	0.57
234.795	-4.01
235.012	-4.39
235.229	-3.08
235.446	-8.32
235.663	-21.63
235.879	-20.3
236.096	-21.95
236.313	-28.61
236.53	-33.51
236.747	-28.51
236.964	-26.96
237.181	-34.11
237.397	-23.17
237.614	-23.41
237.831	-17.85
238.048	-12.59
238.264	-17.15
238.481	-9.1
238.698	-5.1
238.915	-8.99
239.131	-17.25
239.348	-16.38
239.565	-7.63
239.781	-13.35
239.998	-8.12
240.215	-7.76
240.431	-5.08
240.648	-0.54
240.865	0.8
241.081	0.39
241.298	2.96
241.514	4.66
241.731	6.6
241.947	7.06
242.164	8.03
242.38	5.85
242.597	5.45
242.814	5.58
243.03	4.18
243.246	4.75
243.463	6.15
243.679	6.29
243.896	7.54
244.112	6.25
244.329	5.65
244.545	4.96
244.762	5.92
244.978	7.41
245.194	5.13
245.411	4
245.627	1.38
245.843	0.36
246.06	1.83
246.276	2.24
246.492	2.49
246.709	3.04
246.925	3.67
247.141	3.61
247.357	3.92
247.574	5.02
247.79	6.34
248.006	6.52
248.222	7.53
248.439	6.83
248.655	7.15
248.871	7.59
249.087	8.42
249.303	7.61
249.519	8.47
249.736	6.71
249.952	6
250.168	3.45
250.384	2.9
250.6	0.46
250.816	1.81
251.032	1.84
251.248	2.62
251.464	2.74
251.68	2.49
251.896	3.19
252.112	4.26
252.328	5.29
252.544	5.36
252.76	5.09
252.976	6.75
253.192	7.16
253.408	4.34
253.624	3.05
253.84	0.08
254.056	1.54
254.272	-2.25
254.487	-2.3
254.703	-2.27
254.919	0.16
255.135	1.61
255.351	-0.09
255.567	-2.62
255.782	-2.29
255.998	1.3
256.214	2.84
256.43	4.71
256.646	6.5
256.861	4.35
257.077	2.37
257.293	0.51
257.508	1.39
257.724	0.95
257.94	0.22
258.155	1.64
258.371	1.24
258.587	1.16
258.802	1
259.018	1.04
259.234	2.98
259.449	3.59
259.665	3.9
259.88	3.35
260.096	3.92
260.312	4.89
260.527	4.78
260.743	4.39
260.958	4.37
261.174	3.81
261.389	3.83
261.605	3.57
261.82	4.1
262.036	3.34
262.251	3.97
262.466	3.63
262.682	1.39
262.897	1.15
263.113	0.54
263.328	1.24
263.543	2.28
263.759	1.86
263.974	0.85
264.189	-0.08
264.405	0.88
264.62	-0.27
264.835	-0.81
265.051	1.43
265.266	-0.28
265.481	0.84
265.696	-1.28
265.912	-4.38
266.127	-4.18
266.342	-4.84
266.557	-6.25
266.773	-7
266.988	-6.54
267.203	-8.08
267.418	-7.88
267.633	-7.01
267.848	-6.75
268.064	-5.32
268.279	-4.28
268.494	-4.16
268.709	-3.58
268.924	-2.22
269.139	-0.62
269.354	1.53
269.569	4.67
269.784	4.71
269.999	4.87
270.214	3.63
270.429	2.81
270.644	3.82
270.859	4.14
271.074	4.77
271.289	4.42
271.504	3.41
271.719	1.67
271.934	0.76
272.149	0.29
272.363	0.69
272.578	1.48
272.793	3.09
273.008	3.07
273.223	3.07
273.438	3.6
273.653	3.75
273.867	5.73
274.082	5.6
274.297	6.33
274.512	5.96
274.726	8.05
274.941	8.97
275.156	7.72
275.371	7.1
275.585	6.67
275.8	4.9
276.015	4.11
276.229	0.56
276.444	1.37
276.659	-0.35
276.873	-1.24
277.088	-3.98
277.302	-5.47
277.517	-6.02
277.732	-6.98
277.946	-6.67
278.161	-6.82
278.375	-6.39
278.59	-4.55
278.804	-5.8
279.019	-3.71
279.233	-0.33
279.448	0.37
279.662	0.59
279.877	2.44
280.091	4.9
280.306	5.39
280.52	5.88
280.735	6.42
280.949	6.87
281.163	7.21
281.378	4.94
281.592	4.72
281.806	5.66
282.021	5.46
282.235	4.16
282.449	2.6
282.664	2.81
282.878	3.48
283.092	4.82
283.307	4.9
283.521	5.56
283.735	8.17
283.949	6.62
284.164	4.74
284.378	6.72
284.592	6.69
284.806	7.04
285.02	7.39
285.234	7.72
285.449	7.33
285.663	6.81
285.877	6.54
286.091	5.77
286.305	5.91
286.519	6.78
286.733	5.76
286.947	6.15
287.161	6.91
287.375	5.23
287.589	3.91
287.803	2.85
288.017	2.66
288.231	2.72
288.445	2.3
288.659	2.28
288.873	1.94
289.087	1.26
289.301	0.59
289.515	-0.21
289.729	0.94
289.943	2.33
290.157	1.55
290.371	1.7
290.584	2.51
290.798	2.46
291.012	2.84
291.226	3.94
291.44	4.68
291.654	5.08
291.867	5.72
292.081	5.16
292.295	4.22
292.509	5.02
292.722	5.39
292.936	4.34
293.15	5.27
293.364	6.2
293.577	6.42
293.791	6.03
294.005	6.21
294.218	6.15
294.432	7.09
294.645	8.2
294.859	8.05
295.073	7.61
295.286	8.11
295.5	6.98
295.713	6.1
295.927	5.44
296.14	5.88
296.354	6.1
296.568	5.66
296.781	4.57
296.994	3.47
297.208	3.34
297.421	4.11
297.635	4.16
297.848	5.25
298.062	5.98
298.275	6.12
298.489	4.79
298.702	5.79
298.915	6.61
299.129	7.27
299.342	7.67
299.555	8.77
299.769	9.07
299.982	8.59
300.195	9.79
300.409	9.08
300.622	9.32
300.835	11.18
301.048	10.97
301.262	10.17
301.475	10.01
301.688	10.53
301.901	10.09
302.115	9.47
302.328	10.31
302.541	8.3
302.754	8.05
302.967	6.66
303.18	5.86
303.393	5.36
303.607	5.86
303.82	6.37
304.033	5
304.246	4.13
304.459	2.92
304.672	2.24
304.885	2.34
305.098	2.8
305.311	4.87
305.524	5.03
305.737	4.79
305.95	4.9
306.163	5.54
306.376	6.91
306.589	7.9
306.802	8.81
307.015	8.79
307.228	8.47
307.44	9.21
307.653	8.61
307.866	8.62
308.079	8.48
308.292	9.31
308.505	10.41
308.718	9.97
308.93	9
309.143	8.71
309.356	8.86
309.569	9.34
309.781	8.97
309.994	9.04
310.207	9.49
310.42	9.62
310.632	9.12
310.845	8.62
311.058	8.42
311.27	9.32
311.483	9.84
311.696	9.52
311.908	9.11
312.121	9.38
312.333	8.4
312.546	9.19
312.759	8.67
312.971	7.43
313.184	5.99
313.396	7.32
313.609	7.72
313.821	8.51
314.034	9.96
314.246	10.21
314.459	9.34
314.671	9.48
314.884	8.17
315.096	9.08
315.309	9.23
315.521	9.39
315.733	7.85
315.946	7.17
316.158	6.81
316.371	4.66
316.583	3.59
316.795	4.02
317.008	4.17
317.22	5.03
317.432	4.82
317.644	4.67
317.857	4.93
318.069	5.81
318.281	6.65
318.494	5.18
318.706	5.88
318.918	6.72
319.13	6.81
319.342	6.48
319.555	4.63
319.767	3.33
319.979	5.26
320.191	6.38
320.403	5.72
320.615	4.25
320.827	4.94
321.039	5.04
321.252	5.4
321.464	5.37
321.676	5.98
321.888	6.42
322.1	6.57
322.312	6.05
322.524	6.49
322.736	7.7
322.948	7.75
323.16	8.35
323.372	8.52
323.584	8.21
323.796	7.37
324.007	7.44
324.219	7.75
324.431	8.06
324.643	7.37
324.855	6.35
325.067	6.32
325.279	6.96
325.491	6.65
325.702	7.55
325.914	8.32
326.126	9.33
326.338	9.25
326.55	10.36
326.761	12.13
326.973	13.22
327.185	12.61
327.396	11.77
327.608	11.06
327.82	12.43
328.032	11.67
328.243	11.9
328.455	12.39
328.666	13.24
328.878	13.37
329.09	12.14
329.301	10.27
329.513	11.35
329.725	12
329.936	12.16
330.148	10.29
330.359	10.14
330.571	10.04
330.782	10.12
330.994	9.94
331.205	8.98
331.417	8.94
331.628	10.46
331.84	10.84
332.051	10.81
332.262	11.52
332.474	13.34
332.685	14.56
332.897	14.37
333.108	14.9
333.319	15.23
333.531	15.17
333.742	14.89
333.953	16.17
334.165	15.98
334.376	16.12
334.587	15.74
334.799	14.07
335.01	13.47
335.221	14
335.432	13.34
335.644	13.6
335.855	13.67
336.066	13.64
336.277	12.92
336.488	13.13
336.7	12.71
336.911	13.64
337.122	14.92
337.333	14.81
337.544	14.78
337.755	14.9
337.966	13.78
338.177	13.16
338.388	13.15
338.599	13.56
338.811	13.38
339.022	14.21
339.233	12.84
339.444	12.58
339.655	14.07
339.866	14.38
340.076	13.62
340.287	14.6
340.498	16.44
340.709	17.06
340.92	15.79
341.131	15.6
341.342	14.47
341.553	14.58
341.764	14.57
341.975	12.73
342.185	11.86
342.396	12.67
342.607	12.07
342.818	10.77
343.029	9.95
343.239	10.89
343.45	10.95
343.661	11.47
343.872	12.39
344.082	11.36
344.293	11.43
344.504	11.92
344.714	11.54
344.925	12.01
345.136	12
345.346	13.18
345.557	13.43
345.768	13.48
345.978	13.78
346.189	13.82
346.399	15.55
346.61	15.81
346.821	15.94
347.031	16.39
347.242	17.24
347.452	17.29
347.663	16.2
347.873	15.49
348.084	15.91
348.294	15.95
348.504	14.91
348.715	13.76
348.925	13.98
349.136	13.53
349.346	13.82
349.557	13.22
349.767	13.32
349.977	13.25
350.188	13.03
350.398	12.82
350.608	13.03
350.819	13.56
351.029	12.9
351.239	13.22
351.449	12.56
351.66	11.95
351.87	11.54
352.08	11.85
352.29	12.98
352.501	12.55
352.711	13.69
352.921	12.89
353.131	12.44
353.341	13.09
353.552	12.69
353.762	13.45
353.972	13.58
354.182	14.32
354.392	14.1
354.602	13.4
354.812	14.35
355.022	13.44
355.232	13.85
355.442	14.51
355.652	14.55
355.862	14.93
356.072	14.37
356.282	14.75
356.492	14.07
356.702	14.98
356.912	15.29
357.122	14.64
357.332	14.5
357.542	14.59
357.752	14.57
357.962	14.85
358.171	15.25
358.381	15.46
358.591	15.37
358.801	15.3
359.011	14.68
359.221	14.98
359.43	15.31
359.64	15.38
359.85	16.12
360.06	15.85
360.269	15.95
360.479	15.33
360.689	15.13
360.899	15.25
361.108	15.85
361.318	15.68
361.528	15.27
361.737	15.09
361.947	15.45
362.156	14.77
362.366	15.26
362.576	14.61
362.785	14.5
362.995	14.72
363.204	14.3
363.414	13.72
363.623	13.7
363.833	13.59
364.042	14.28
364.252	13.57
364.461	13.79
364.671	13.19
364.88	13.45
365.09	13.44
365.299	13.78
365.509	13.22
365.718	12.99
365.927	13.05
366.137	13.18
366.346	12.05
366.555	11.62
366.765	11.62
366.974	11.91
367.183	11.86
367.393	11.73
367.602	11.59
367.811	11.56
368.021	11.66
368.23	11.5
368.439	11.33
368.648	11.71
368.857	12.24
369.067	11.59
369.276	11.61
369.485	11.57
369.694	12.05
369.903	11.44
370.112	11.79
370.321	11.62
370.531	11.49
370.74	10.55
370.949	10.64
371.158	10.59
371.367	10.35
371.576	9.61
371.785	9.16
371.994	8.92
372.203	9.17
372.412	9.58
372.621	9.96
372.83	10.38
373.039	11.25
373.248	11.6
373.457	11.48
373.666	11.72
373.874	12.03
374.083	12.66
374.292	12
374.501	11.85
374.71	11.51
374.919	10.95
375.128	10.73
375.336	10.14
375.545	9.58
375.754	9.37
375.963	9.14
376.171	8.53
376.38	8.4
376.589	8.94
376.798	8.54
377.006	7.82
377.215	8.09
377.424	8.11
377.632	8.5
377.841	8.58
378.05	8.01
378.258	8.31
378.467	8.63
378.675	8.18
378.884	7.64
379.093	7.45
379.301	8.08
379.51	8.21
379.718	7.85
379.927	7.76
380.135	7.56
380.344	8.22
380.552	8.55
380.761	8.81
380.969	8.87
381.177	9.07
381.386	9.61
381.594	9.17
381.803	8.22
382.011	8.21
382.219	8.24
382.428	8.13
382.636	8.46
382.845	7.6
383.053	7.03
383.261	6.69
383.469	7.12
383.678	6.98
383.886	7.28
384.094	7.62
384.302	7.64
384.511	7.35
384.719	7.32
384.927	7.5
385.135	7.79
385.343	8.01
385.552	8.69
385.76	8.11
385.968	8.08
386.176	7.95
386.384	7.86
386.592	7.87
386.8	7.82
387.008	7.84
387.216	7.41
387.424	7.83
387.633	7.88
387.841	7.31
388.049	7.25
388.257	7.44
388.465	7.46
388.672	7.28
388.88	7
389.088	6.72
389.296	6.81
389.504	6.99
389.712	6.27
389.92	6.27
390.128	6.37
390.336	6.14
390.544	5.86
390.751	5.82
390.959	6.28
391.167	6.54
391.375	7.19
391.583	7.15
391.79	6.69
391.998	6.73
392.206	6.71
392.414	6.82
392.621	7.12
392.829	7.25
393.037	7.11
393.244	6.68
393.452	6.34
393.66	5.64
393.867	5.63
394.075	5.93
394.283	5.92
394.49	5.98
394.698	5.92
394.905	6.01
395.113	5.61
395.32	6.01
395.528	6.09
395.735	6.3
395.943	6.49
396.15	6.18
396.358	5.91
396.565	5.85
396.773	5.83
396.98	5.46
397.188	5.28
397.395	5.56
397.602	5.01
397.81	5.2
398.017	4.9
398.225	5.05
398.432	5.28
398.639	5.27
398.847	5.72
399.054	5.3
399.261	5.84
399.468	5.66
399.676	5.93
399.883	5.87
400.09	5.93
400.297	6.07
400.505	5.93
400.712	5.89
400.919	5.92
401.126	5.49
401.333	5.98
401.54	5.63
401.748	5.27
401.955	4.76
402.162	4.79
402.369	4.56
402.576	4.59
402.783	4.68
402.99	4.5
403.197	4.54
403.404	4.1
403.611	3.61
403.818	3.56
404.025	4.23
404.232	4.29
404.439	4.42
404.646	4.49
404.853	4.49
405.06	4.45
405.267	4.38
405.474	4.31
405.681	4.63
405.887	4.72
406.094	4.94
406.301	4.61
406.508	4.64
406.715	4.66
406.922	4.66
407.128	4.63
407.335	4.59
407.542	4.63
407.749	4.64
407.955	4.68
408.162	4.99
408.369	4.92
408.575	4.78
408.782	4.92
408.989	4.97
409.195	4.94
409.402	5.06
409.609	4.99
409.815	5.25
410.022	5.27
410.228	5.39
410.435	5.06
410.642	4.9
410.848	5.44
411.055	5.41
411.261	5.31
411.468	5.3
411.674	5.12
411.881	5.16
412.087	5.04
412.294	5
412.5	4.93
412.706	5.22
412.913	4.82
413.119	4.43
413.326	4.26
413.532	4.3
413.738	4.4
413.945	4.1
414.151	3.94
414.357	3.97
414.564	3.79
414.77	3.86
414.976	3.68
415.182	4.03
415.389	4.17
415.595	4.37
415.801	4.22
416.007	3.81
416.214	3.94
416.42	3.97
416.626	3.8
416.832	4.1
417.038	3.82
417.244	3.83
417.45	4.03
417.657	4.01
417.863	3.87
418.069	3.86
418.275	4.08
418.481	4.16
418.687	4.18
418.893	4.05
419.099	3.87
419.305	4.11
419.511	4.07
419.717	4.13
419.923	4.13
420.129	4.32
420.335	4.31
420.541	4.34
420.746	4.41
420.952	4.52
421.158	4.71
421.364	4.69
421.57	4.53
421.776	4.49
421.982	4.3
422.187	4.27
422.393	4.07
422.599	4.18
422.805	3.99
423.01	3.95
423.216	3.76
423.422	3.55
423.628	3.66
423.833	3.75
424.039	3.9
424.245	3.89
424.45	3.77
424.656	3.72
424.862	3.64
425.067	3.78
425.273	3.89
425.478	4.01
425.684	4.11
425.889	4.02
426.095	3.88
426.301	3.76
426.506	3.84
426.712	3.94
426.917	4.22
427.123	4.25
427.328	4.11
427.533	3.98
427.739	4.09
427.944	4.18
428.15	4.19
428.355	4.41
428.561	4.43
428.766	4.19
428.971	4.13
429.177	3.88
429.382	3.71
429.587	3.84
429.793	3.65
429.998	3.45
430.203	3.48
430.408	3.24
430.614	3.05
430.819	3.19
431.024	3.16
431.229	3.26
431.434	3.35
431.64	3.48
431.845	3.4
432.05	3.53
432.255	3.64
432.46	3.68
432.665	4.03
432.87	4.13
433.076	4.06
433.281	4.11
433.486	3.98
433.691	3.7
433.896	3.6
434.101	3.64
434.306	3.83
434.511	3.48
434.716	3.28
434.921	3.01
435.126	2.99
435.331	2.8
435.535	3.05
435.74	3.25
435.945	3.54
436.15	3.71
436.355	3.81
436.56	3.39
436.765	3.53
436.97	3.53
437.174	3.73
437.379	3.74
437.584	3.85
437.789	3.68
437.993	3.54
438.198	3.5
438.403	3.54
438.608	3.54
438.812	3.63
439.017	3.67
439.222	3.81
439.426	3.88
439.631	3.82
439.836	3.9
440.04	3.92
440.245	3.96
440.45	3.86
440.654	3.82
440.859	3.78
441.063	3.79
441.268	3.82
441.472	3.88
441.677	3.67
441.881	3.71
442.086	3.62
442.29	3.41
442.495	3.46
442.699	3.35
442.904	3.23
443.108	3.25
443.312	3.23
443.517	3.2
443.721	3.17
443.925	3.24
444.13	3.29
444.334	3.25
444.538	3.49
444.743	3.56
444.947	3.6
445.151	3.61
445.356	3.72
445.56	3.75
445.764	3.67
445.968	3.64
446.173	3.66
446.377	3.63
446.581	3.8
446.785	3.84
446.989	3.77
447.193	3.91
447.398	3.93
447.602	3.83
447.806	3.89
448.01	4.03
448.214	4.08
448.418	4.06
448.622	4.11
448.826	4.04
449.03	3.96
449.234	3.86
449.438	3.69
449.642	3.82
449.846	3.74
450.05	3.52
450.254	3.39
450.458	3.38
450.662	3.42
450.866	3.26
451.069	3.27
451.273	3.45
451.477	3.51
451.681	3.63
451.885	3.44
452.089	3.23
452.292	3.47
452.496	3.65
452.7	3.59
452.904	3.56
453.107	3.52
453.311	3.31
453.515	3.06
453.719	3.18
453.922	3.03
454.126	3.15
454.33	3.27
454.533	3.11
454.737	3.09
454.94	2.97
455.144	2.78
455.348	2.8
455.551	2.93
455.755	2.91
455.958	2.73
456.162	2.74
456.365	2.59
456.569	2.58
456.772	2.74
456.976	2.58
457.179	2.57
457.383	2.7
457.586	2.66
457.79	2.54
457.993	2.55
458.196	2.59
458.4	2.69
458.603	2.82
458.807	3.07
459.01	3
459.213	3.02
459.417	3.07
459.62	3.25
459.823	3.2
460.026	3.21
460.23	3.29
460.433	3.16
460.636	3.04
460.839	3.08
461.042	2.93
461.246	2.91
461.449	3.01
461.652	3.01
461.855	2.79
462.058	2.84
462.261	2.92
462.464	2.86
462.668	3.02
462.871	3.23
463.074	3.13
463.277	3.24
463.48	3.3
463.683	3.19
463.886	3.08
464.089	3.16
464.292	2.98
464.495	2.94
464.698	3.02
464.901	3.18
465.104	3.13
465.306	3.14
465.509	2.97
465.712	2.9
