Data from CB_048_Reflection_1.txt Node
Date: Wed Nov 11 22:29:02 EST 2015
User: robert
Spectrometer: USB4E03001
Autoset integration time: false
Trigger mode: 4
Integration Time (sec): 1.000000E-1
Scans to average: 15
Electric dark correction enabled: true
Nonlinearity correction enabled: false
Boxcar width: 5
Stray light correction enabled: false
XAxis mode: Wavelengths
Stop averaging: false
Number of Pixels in Spectrum: 3648
>>>>>Begin Spectral Data<<<<<
177.566	-122.9
177.785	-1354.61
178.005	262.47
178.225	833.79
178.445	2.76
178.665	41.92
178.885	200.27
179.105	4.72
179.324	153.03
179.544	137.79
179.764	163.86
179.984	121.08
180.204	121.08
180.423	195.72
180.643	147.99
180.863	142.79
181.083	145.27
181.302	136.63
181.522	132.83
181.742	114.95
181.961	139.13
182.181	130.28
182.401	133.52
182.621	144.64
182.84	123.71
183.06	129.8
183.279	122.08
183.499	125.55
183.719	156.07
183.938	174.82
184.158	192.03
184.377	157.86
184.597	169.53
184.816	211.27
185.036	160.55
185.256	164.97
185.475	169.35
185.695	200.37
185.914	216.7
186.134	207.38
186.353	161.55
186.572	129.5
186.792	163.95
187.011	158.57
187.231	131.52
187.45	159.91
187.67	144.95
187.889	106.6
188.108	87.17
188.328	90.16
188.547	67.15
188.766	100.75
188.986	110.65
189.205	72.28
189.424	69.95
189.644	54.28
189.863	72.36
190.082	93.36
190.302	103.86
190.521	117.4
190.74	110.27
190.959	127.77
191.178	105.33
191.398	96.3
191.617	119.34
191.836	120.32
192.055	109.4
192.274	114.93
192.494	99.27
192.713	120.37
192.932	137.53
193.151	148.33
193.37	140.96
193.589	137.86
193.808	148.39
194.027	139.1
194.246	130.86
194.465	142.61
194.685	134.44
194.904	139.04
195.123	109.96
195.342	83.06
195.561	97.98
195.78	106.37
195.999	126.02
196.218	131.73
196.436	110.88
196.655	147.38
196.874	152.16
197.093	125.54
197.312	108.8
197.531	115.92
197.75	99.85
197.969	115.98
198.188	98.82
198.407	106.17
198.625	91.69
198.844	108.86
199.063	89.56
199.282	82.15
199.501	98.61
199.719	103.63
199.938	125.79
200.157	223.39
200.376	125.47
200.594	177.87
200.813	128.15
201.032	148.9
201.251	227.05
201.469	219.49
201.688	221.55
201.907	174.19
202.125	130.16
202.344	116.4
202.563	135.13
202.781	135.74
203	126.22
203.218	124.56
203.437	138.37
203.656	100.22
203.874	89.92
204.093	76.37
204.311	83.2
204.53	117.52
204.748	130.31
204.967	108.75
205.185	114.58
205.404	118.63
205.622	139.72
205.841	108.06
206.059	97.18
206.278	108.16
206.496	113.5
206.715	94.67
206.933	93.32
207.151	91.81
207.37	82.87
207.588	82.68
207.806	70.2
208.025	69.06
208.243	74.19
208.461	87.22
208.68	86.81
208.898	87.64
209.116	99.59
209.335	106.32
209.553	93.66
209.771	106.31
209.989	107.39
210.208	136.91
210.426	142.39
210.644	155.09
210.862	178.19
211.081	163.71
211.299	200.49
211.517	165.31
211.735	146.66
211.953	176.02
212.171	176.75
212.39	150.74
212.608	143.59
212.826	134.16
213.044	137.64
213.262	130.15
213.48	149.78
213.698	147.12
213.916	196.84
214.134	182.07
214.352	193.35
214.57	135.02
214.788	230.26
215.006	269.62
215.224	233.27
215.442	216.15
215.66	243.47
215.878	131.69
216.096	100.51
216.314	95.67
216.532	111.38
216.75	118.48
216.968	134.7
217.185	99.98
217.403	96.66
217.621	101.94
217.839	94.88
218.057	92.22
218.275	109.33
218.492	115.61
218.71	103.86
218.928	104.23
219.146	94.35
219.363	97.24
219.581	111.36
219.799	115.57
220.017	109.09
220.234	113.63
220.452	134.81
220.67	96.26
220.887	93.94
221.105	109.69
221.323	119.68
221.54	122.97
221.758	115.58
221.976	83.68
222.193	71.59
222.411	71.23
222.629	72.78
222.846	67.49
223.064	77.41
223.281	90.36
223.499	92.87
223.716	85.59
223.934	89.49
224.151	70.79
224.369	84.8
224.586	96.09
224.804	98.33
225.021	99.97
225.239	105.5
225.456	85.1
225.674	74.57
225.891	71.86
226.108	74.26
226.326	64.41
226.543	76.85
226.76	71.44
226.978	51.17
227.195	36.29
227.413	38.62
227.63	35.66
227.847	35.92
228.064	29.11
228.282	22.71
228.499	18.24
228.716	16.27
228.934	15.64
229.151	11.93
229.368	12.64
229.585	14.84
229.802	14.14
230.02	11.85
230.237	11.78
230.454	16.02
230.671	17.96
230.888	20.15
231.105	23.43
231.323	26.15
231.54	31.5
231.757	33.57
231.974	34.81
232.191	34.32
232.408	37.23
232.625	38.97
232.842	34.76
233.059	33.44
233.276	35.66
233.493	35.26
233.71	36.01
233.927	33.69
234.144	35.32
234.361	38.89
234.578	41.83
234.795	38.78
235.012	38.29
235.229	43.71
235.446	45.3
235.663	41.4
235.879	38.56
236.096	34.94
236.313	34.19
236.53	36.42
236.747	34.67
236.964	31.68
237.181	36.71
237.397	31.73
237.614	26.56
237.831	25.11
238.048	26.58
238.264	27.67
238.481	23.57
238.698	28.11
238.915	27.13
239.131	26.06
239.348	23.72
239.565	21.27
239.781	23.83
239.998	26.24
240.215	25.58
240.431	26.57
240.648	27.83
240.865	30.29
241.081	28.3
241.298	26.85
241.514	25.3
241.731	28.61
241.947	25.43
242.164	24.9
242.38	22.8
242.597	23.87
242.814	22.47
243.03	20.46
243.246	19.61
243.463	18.96
243.679	18.3
243.896	20.41
244.112	18.02
244.329	19.9
244.545	18.93
244.762	19.43
244.978	17.75
245.194	16.92
245.411	17.97
245.627	17.28
245.843	17.46
246.06	16.3
246.276	13.77
246.492	11.72
246.709	11.35
246.925	11.79
247.141	11.77
247.357	11.62
247.574	12.06
247.79	11.68
248.006	12.19
248.222	12.11
248.439	12.51
248.655	13.51
248.871	14.37
249.087	14.15
249.303	14.28
249.519	14.19
249.736	14.41
249.952	14.03
250.168	15.35
250.384	16.03
250.6	16.02
250.816	16.75
251.032	15.46
251.248	18.7
251.464	18.95
251.68	19.33
251.896	20.07
252.112	19.63
252.328	19.73
252.544	19.57
252.76	18.92
252.976	19.37
253.192	19.52
253.408	20.5
253.624	21.36
253.84	20.99
254.056	20.96
254.272	23.17
254.487	22.82
254.703	24.25
254.919	23.86
255.135	23.97
255.351	22.39
255.567	22.42
255.782	21.46
255.998	19.31
256.214	19.01
256.43	20.93
256.646	19.92
256.861	21.76
257.077	20.12
257.293	18.6
257.508	18.96
257.724	19.26
257.94	18.99
258.155	17.63
258.371	16.62
258.587	18.01
258.802	17.04
259.018	15.51
259.234	13.6
259.449	13.57
259.665	13.11
259.88	12.78
260.096	11.82
260.312	11.02
260.527	11.33
260.743	11.01
260.958	10.34
261.174	10.16
261.389	10.49
261.605	11.62
261.82	12.19
262.036	13.21
262.251	13.99
262.466	15.63
262.682	16.91
262.897	17.47
263.113	18.85
263.328	19.92
263.543	19.54
263.759	19.26
263.974	19.16
264.189	19.41
264.405	17.98
264.62	16.95
264.835	16.77
265.051	18.05
265.266	18.76
265.481	18.54
265.696	18.5
265.912	18.12
266.127	18.7
266.342	19.09
266.557	17.87
266.773	18.81
266.988	17.81
267.203	16.35
267.418	14.45
267.633	14.09
267.848	12.66
268.064	11.05
268.279	10.77
268.494	10.06
268.709	9.58
268.924	10.79
269.139	10.91
269.354	12.73
269.569	13.37
269.784	14.62
269.999	13.8
270.214	14.03
270.429	14.59
270.644	14.85
270.859	14.67
271.074	14.22
271.289	14.22
271.504	14.91
271.719	13.58
271.934	14.12
272.149	13.22
272.363	13.79
272.578	14.11
272.793	14.63
273.008	13.86
273.223	12.76
273.438	12.74
273.653	13.12
273.867	13
274.082	14.09
274.297	14.01
274.512	14.34
274.726	13.4
274.941	13.23
275.156	13.15
275.371	13.36
275.585	14.58
275.8	15.44
276.015	13.49
276.229	12.15
276.444	11.51
276.659	11.52
276.873	12.14
277.088	14.49
277.302	16.6
277.517	16.69
277.732	19.58
277.946	20.08
278.161	20.62
278.375	21.14
278.59	22.63
278.804	21.63
279.019	21.32
279.233	20.5
279.448	18.38
279.662	16.96
279.877	15.04
280.091	12.97
280.306	13.45
280.52	10.24
280.735	10.88
280.949	9.56
281.163	10.44
281.378	9.79
281.592	9.41
281.806	10.29
282.021	8.63
282.235	10.05
282.449	9.58
282.664	9.15
282.878	9.77
283.092	9.07
283.307	10.59
283.521	10.01
283.735	11.15
283.949	12.11
284.164	11.55
284.378	12.55
284.592	12.95
284.806	13.87
285.02	13.96
285.234	14.86
285.449	15.44
285.663	14.22
285.877	14.33
286.091	13.97
286.305	13.25
286.519	13.11
286.733	13.75
286.947	12.96
287.161	12.01
287.375	11.74
287.589	11.4
287.803	10.84
288.017	10.23
288.231	10.99
288.445	11.3
288.659	11.34
288.873	11.64
289.087	11.35
289.301	11.89
289.515	13.46
289.729	13.26
289.943	13.86
290.157	13.78
290.371	13.69
290.584	13.09
290.798	13
291.012	13.93
291.226	14.39
291.44	14.32
291.654	13.95
291.867	13.35
292.081	13.5
292.295	13.18
292.509	13.47
292.722	14.87
292.936	14.6
293.15	14.77
293.364	14.6
293.577	14.08
293.791	14.52
294.005	13.63
294.218	13.21
294.432	14.05
294.645	14.3
294.859	14.27
295.073	13.05
295.286	13.14
295.5	11.96
295.713	12.16
295.927	11.8
296.14	11.15
296.354	12.55
296.568	12.27
296.781	12.3
296.994	12.42
297.208	12.58
297.421	12.58
297.635	12.84
297.848	13
298.062	12.98
298.275	13.16
298.489	13.81
298.702	13.65
298.915	14.1
299.129	14.85
299.342	14.66
299.555	15.4
299.769	15.93
299.982	15.65
300.195	16.53
300.409	15.95
300.622	16.66
300.835	16.48
301.048	15.61
301.262	15.54
301.475	14.95
301.688	15.93
301.901	15.44
302.115	16.04
302.328	15.85
302.541	16.18
302.754	16.43
302.967	16.44
303.18	16.83
303.393	17.19
303.607	17.21
303.82	16.66
304.033	15.28
304.246	14.57
304.459	14.21
304.672	15.21
304.885	15.92
305.098	15.52
305.311	15.95
305.524	14.77
305.737	15
305.95	15.4
306.163	15.55
306.376	15.33
306.589	15.73
306.802	15.44
307.015	16.18
307.228	15.59
307.44	16.67
307.653	16.5
307.866	17.42
308.079	17.22
308.292	16.48
308.505	15.95
308.718	16.42
308.93	17.42
309.143	16.91
309.356	15.74
309.569	14.71
309.781	14.27
309.994	13.89
310.207	13.67
310.42	13.86
310.632	15.07
310.845	15.33
311.058	15.87
311.27	15.04
311.483	15.15
311.696	15.47
311.908	15.84
312.121	15.31
312.333	14.88
312.546	15.12
312.759	15.55
312.971	14.97
313.184	15.42
313.396	14.94
313.609	15.64
313.821	16.43
314.034	16.03
314.246	16.5
314.459	18.56
314.671	19.99
314.884	19.78
315.096	19.88
315.309	18.43
315.521	17.49
315.733	17.22
315.946	15.95
316.158	15.54
316.371	16.56
316.583	16.13
316.795	14.98
317.008	14.44
317.22	14.78
317.432	14.82
317.644	15.78
317.857	16.98
318.069	16.85
318.281	16.78
318.494	17.91
318.706	17.98
318.918	18.81
319.13	20.14
319.342	19.82
319.555	19.13
319.767	18.99
319.979	19.12
320.191	18.09
320.403	19.44
320.615	20.1
320.827	19.52
321.039	17.94
321.252	17.65
321.464	16.26
321.676	15.9
321.888	16.62
322.1	16.58
322.312	16.66
322.524	17.7
322.736	16.98
322.948	17.76
323.16	17.04
323.372	17.16
323.584	16.82
323.796	17.48
324.007	17.6
324.219	18.27
324.431	18.28
324.643	18.59
324.855	18.96
325.067	18.28
325.279	18.97
325.491	20.02
325.702	20.51
325.914	20.99
326.126	20.53
326.338	19.68
326.55	19.38
326.761	19.69
326.973	19.22
327.185	19.01
327.396	19.21
327.608	17.22
327.82	17.1
328.032	17.18
328.243	17.43
328.455	17.9
328.666	18.85
328.878	18.23
329.09	17.47
329.301	18.36
329.513	17.14
329.725	17.12
329.936	18.55
330.148	17.8
330.359	17.51
330.571	16.37
330.782	15.73
330.994	16.34
331.205	17.54
331.417	18.75
331.628	17.95
331.84	18.76
332.051	19.46
332.262	19.11
332.474	19.72
332.685	20.57
332.897	21.46
333.108	22.68
333.319	22.91
333.531	22.67
333.742	22.65
333.953	22.26
334.165	22.66
334.376	23.12
334.587	23.47
334.799	24.2
335.01	25.11
335.221	24.82
335.432	24.33
335.644	23.79
335.855	23.71
336.066	22.89
336.277	24.1
336.488	24.03
336.7	23.4
336.911	22.42
337.122	21.81
337.333	20.28
337.544	21.17
337.755	21.18
337.966	21.34
338.177	20.67
338.388	20.29
338.599	20.27
338.811	19.68
339.022	19.45
339.233	21.02
339.444	21.17
339.655	21.89
339.866	21.62
340.076	20.87
340.287	20.85
340.498	20.51
340.709	20.91
340.92	21.05
341.131	21.57
341.342	21.92
341.553	21.36
341.764	21.05
341.975	20.7
342.185	20.31
342.396	20.98
342.607	21.31
342.818	21.76
343.029	21.3
343.239	21.03
343.45	20.27
343.661	19.84
343.872	19.19
344.082	18.88
344.293	18.81
344.504	19.03
344.714	18.82
344.925	18.15
345.136	18.36
345.346	19.14
345.557	17.93
345.768	17.88
345.978	18.72
346.189	20.12
346.399	19.96
346.61	20.43
346.821	20.45
347.031	20.67
347.242	21.26
347.452	21.57
347.663	22.09
347.873	23.22
348.084	23.73
348.294	23.42
348.504	22.2
348.715	23.12
348.925	22.87
349.136	22.39
349.346	21.69
349.557	21.73
349.767	21.42
349.977	20.42
350.188	20.33
350.398	20
350.608	19.72
350.819	20.07
351.029	19.3
351.239	18.36
351.449	18.64
351.66	17.8
351.87	17.98
352.08	18.06
352.29	18.18
352.501	19.06
352.711	19.11
352.921	19.06
353.131	18.83
353.341	19.01
353.552	19.63
353.762	18.91
353.972	20.43
354.182	19.48
354.392	19.58
354.602	20
354.812	18.65
355.022	18.78
355.232	19.06
355.442	19.27
355.652	19.73
355.862	19.42
356.072	19.43
356.282	19.22
356.492	19.66
356.702	19.23
356.912	18.85
357.122	18.6
357.332	18.84
357.542	18.41
357.752	18.36
357.962	16.92
358.171	17.42
358.381	17.7
358.591	17.19
358.801	16.9
359.011	16.79
359.221	17.07
359.43	18.01
359.64	17.07
359.85	17.22
360.06	16.77
360.269	17.74
360.479	17.65
360.689	17.56
360.899	17.4
361.108	17.5
361.318	17.7
361.528	17.29
361.737	16.47
361.947	17
362.156	16.67
362.366	16.84
362.576	16.68
362.785	16.63
362.995	16.74
363.204	16.97
363.414	16.96
363.623	17.01
363.833	17.02
364.042	16.88
364.252	16.94
364.461	17.06
364.671	17.29
364.88	17.71
365.09	17.49
365.299	17.52
365.509	17.32
365.718	17.33
365.927	17.03
366.137	16.91
366.346	17.23
366.555	17.08
366.765	17.11
366.974	17.23
367.183	16.6
367.393	17.02
367.602	16.85
367.811	17.19
368.021	16.8
368.23	16.78
368.439	17.04
368.648	17.18
368.857	16.97
369.067	16.8
369.276	16.36
369.485	16.26
369.694	15.85
369.903	15.77
370.112	15.21
370.321	15.39
370.531	15.18
370.74	15.12
370.949	14.97
371.158	14.76
371.367	14.9
371.576	14.84
371.785	14.85
371.994	15.02
372.203	14.9
372.412	15.34
372.621	14.97
372.83	14.3
373.039	14.24
373.248	14.01
373.457	14.32
373.666	14.18
373.874	13.91
374.083	13.29
374.292	12.78
374.501	13
374.71	12.86
374.919	13.21
375.128	13.99
375.336	13.76
375.545	13.98
375.754	14.47
375.963	14.24
376.171	14.32
376.38	14.65
376.589	14.58
376.798	14.08
377.006	13.92
377.215	13.95
377.424	13.82
377.632	13.97
377.841	13.79
378.05	13.05
378.258	13.23
378.467	12.84
378.675	13.47
378.884	13.91
379.093	13.95
379.301	13.83
379.51	13.78
379.718	14.13
379.927	14.38
380.135	14.15
380.344	14.02
380.552	13.7
380.761	13.63
380.969	12.88
381.177	12.5
381.386	12.82
381.594	12.96
381.803	12.75
382.011	12.03
382.219	11.56
382.428	12.02
382.636	12.3
382.845	12.87
383.053	13.15
383.261	13.3
383.469	13.45
383.678	13.15
383.886	12.74
384.094	12.8
384.302	13.5
384.511	13.28
384.719	13.04
384.927	13.16
385.135	12.91
385.343	13.17
385.552	13.38
385.76	13.29
385.968	12.72
386.176	12.99
386.384	12.49
386.592	12.12
386.8	12.32
387.008	12.12
387.216	11.96
387.424	11.9
387.633	11.52
387.841	11.33
388.049	10.9
388.257	11.32
388.465	11.2
388.672	11.48
388.88	11.3
389.088	11.25
389.296	11.19
389.504	10.78
389.712	10.85
389.92	10.4
390.128	10.15
390.336	10.09
390.544	10.14
390.751	10.07
390.959	10.37
391.167	10.2
391.375	10.32
391.583	10.28
391.79	10.25
391.998	10.1
392.206	10.57
392.414	10.59
392.621	10.7
392.829	10.81
393.037	10.89
393.244	10.53
393.452	10.57
393.66	10.2
393.867	10.37
394.075	10.48
394.283	10.22
394.49	10.15
394.698	10.32
394.905	10.58
395.113	10.41
395.32	10.07
395.528	10.21
395.735	10.55
395.943	10.65
396.15	10.45
396.358	10.44
396.565	10.54
396.773	10.6
396.98	10.77
397.188	10.6
397.395	10.62
397.602	10.96
397.81	11.04
398.017	10.41
398.225	10.18
398.432	10.29
398.639	10.49
398.847	10.33
399.054	9.92
399.261	9.5
399.468	9.58
399.676	9.39
399.883	9.36
400.09	9.06
400.297	9.28
400.505	9.23
400.712	9.49
400.919	9.43
401.126	9.48
401.333	9.89
401.54	9.87
401.748	9.82
401.955	9.99
402.162	9.91
402.369	9.9
402.576	9.9
402.783	10.19
402.99	9.64
403.197	9.15
403.404	9.39
403.611	9.48
403.818	9.37
404.025	9.31
404.232	9.5
404.439	9.35
404.646	9
404.853	8.98
405.06	8.83
405.267	8.79
405.474	8.99
405.681	8.85
405.887	8.69
406.094	8.81
406.301	8.73
406.508	8.49
406.715	8.4
406.922	8.7
407.128	9.11
407.335	9.02
407.542	9.21
407.749	9.27
407.955	9.21
408.162	9.01
408.369	8.98
408.575	9.05
408.782	8.89
408.989	9.12
409.195	9.12
409.402	8.42
409.609	8.43
409.815	8.45
410.022	8.28
410.228	8.41
410.435	8.47
410.642	8.53
410.848	8.31
411.055	8.7
411.261	8.67
411.468	8.73
411.674	9.01
411.881	8.95
412.087	8.8
412.294	8.92
412.5	8.79
412.706	8.75
412.913	8.55
413.119	8.58
413.326	7.99
413.532	7.83
413.738	7.9
413.945	7.69
414.151	7.66
414.357	7.63
414.564	7.77
414.77	7.68
414.976	7.9
415.182	8.09
415.389	7.88
415.595	8.02
415.801	8.13
416.007	7.72
416.214	7.66
416.42	7.81
416.626	7.73
416.832	7.49
417.038	7.8
417.244	7.47
417.45	7.07
417.657	7.24
417.863	7.2
418.069	7
418.275	7.13
418.481	7.13
418.687	7.17
418.893	7.3
419.099	7.42
419.305	7.05
419.511	7.12
419.717	7.44
419.923	7.31
420.129	7.36
420.335	7.47
420.541	7.58
420.746	7.45
420.952	7.28
421.158	7.15
421.364	6.99
421.57	7.06
421.776	7.02
421.982	6.87
422.187	6.9
422.393	6.64
422.599	6.63
422.805	6.52
423.01	6.79
423.216	6.78
423.422	6.99
423.628	7
423.833	7.04
424.039	7.07
424.245	7.12
424.45	7.24
424.656	7.42
424.862	7.3
425.067	7.45
425.273	7.4
425.478	7.43
425.684	7.3
425.889	7.38
426.095	7.49
426.301	7.41
426.506	7.41
426.712	7.25
426.917	7.35
427.123	7.34
427.328	7.1
427.533	6.77
427.739	6.96
427.944	7.01
428.15	6.99
428.355	6.78
428.561	6.95
428.766	6.94
428.971	7.17
429.177	7.08
429.382	7.18
429.587	7.26
429.793	7.55
429.998	7.36
430.203	7.27
430.408	7.24
430.614	7.56
430.819	7.54
431.024	7.64
431.229	7.51
431.434	7.49
431.64	7.65
431.845	7.74
432.05	7.82
432.255	7.82
432.46	7.81
432.665	7.77
432.87	7.73
433.076	7.75
433.281	7.62
433.486	7.52
433.691	7.48
433.896	7.39
434.101	7.19
434.306	7.2
434.511	7.19
434.716	7.11
434.921	7.13
435.126	6.89
435.331	6.72
435.535	6.62
435.74	6.57
435.945	6.64
436.15	6.82
436.355	7
436.56	6.78
436.765	6.65
436.97	6.82
437.174	6.93
437.379	6.93
437.584	7.03
437.789	7.21
437.993	7.34
438.198	7.38
438.403	7.23
438.608	7.13
438.812	7.12
439.017	7.33
439.222	7.29
439.426	7.15
439.631	7.13
439.836	7.17
440.04	6.93
440.245	6.85
440.45	6.67
440.654	6.66
440.859	6.61
441.063	6.6
441.268	6.58
441.472	6.61
441.677	6.64
441.881	6.82
442.086	6.7
442.29	6.82
442.495	6.87
442.699	7.08
442.904	6.95
443.108	7.06
443.312	7.15
443.517	7.15
443.721	7.11
443.925	6.97
444.13	6.65
444.334	6.61
444.538	6.59
444.743	6.38
444.947	6.13
445.151	6.07
445.356	6.07
445.56	6.04
445.764	6.1
445.968	6.03
446.173	6.12
446.377	6.21
446.581	6.21
446.785	6.21
446.989	6.22
447.193	6.39
447.398	6.52
447.602	6.39
447.806	6.26
448.01	6.14
448.214	6.25
448.418	6.21
448.622	6.2
448.826	6.32
449.03	6.36
449.234	6.57
449.438	6.58
449.642	6.54
449.846	6.67
450.05	7.13
450.254	7.06
450.458	7.05
450.662	7.17
450.866	7.03
451.069	6.85
451.273	6.71
451.477	6.65
451.681	6.67
451.885	6.71
452.089	6.53
452.292	6.33
452.496	6.44
452.7	6.51
452.904	6.35
453.107	6.59
453.311	6.83
453.515	7
453.719	7.14
453.922	7.09
454.126	7.06
454.33	7.29
454.533	7.34
454.737	7.4
454.94	7.17
455.144	7.33
455.348	7.35
455.551	7.22
455.755	7.11
455.958	7.09
456.162	7.07
456.365	7.09
456.569	7.08
456.772	7.14
456.976	7.01
457.179	7.04
457.383	7.01
457.586	6.84
457.79	6.76
457.993	6.7
458.196	6.53
458.4	6.5
458.603	6.47
458.807	6.53
459.01	6.42
459.213	6.42
459.417	6.47
459.62	6.48
