Data from CB_096_Reflection_1.txt Node
Date: Sat Nov 14 17:30:04 EST 2015
User: robert
Spectrometer: USB4E03001
Autoset integration time: false
Trigger mode: 4
Integration Time (sec): 1.000000E-1
Scans to average: 15
Electric dark correction enabled: true
Nonlinearity correction enabled: false
Boxcar width: 5
Stray light correction enabled: false
XAxis mode: Wavelengths
Stop averaging: false
Number of Pixels in Spectrum: 3648
>>>>>Begin Spectral Data<<<<<
177.566	62.86
177.785	-209.85
178.005	91.37
178.225	42.37
178.445	-196.84
178.665	166.39
178.885	1352.58
179.105	7.51
179.324	-64.49
179.544	17.46
179.764	57.47
179.984	44.31
180.204	55.34
180.423	43.08
180.643	46.33
180.863	60.09
181.083	56.3
181.302	74.88
181.522	73.12
181.742	81.96
181.961	51.69
182.181	12.77
182.401	-62.18
182.621	-13.08
182.84	10.58
183.06	-4.3
183.279	-15.72
183.499	-36
183.719	-138.66
183.938	-90.84
184.158	-90.85
184.377	-33.77
184.597	-41.8
184.816	13.61
185.036	9.68
185.256	7.14
185.475	11.31
185.695	24.8
185.914	27.86
186.134	44.51
186.353	53.92
186.572	46.63
186.792	59.81
187.011	66.22
187.231	70.27
187.45	73.49
187.67	72.08
187.889	87.27
188.108	86.23
188.328	84.82
188.547	84.37
188.766	81.59
188.986	80.46
189.205	82.23
189.424	73.21
189.644	66.75
189.863	71.97
190.082	61.68
190.302	29.69
190.521	31.49
190.74	63.91
190.959	41.52
191.178	32.87
191.398	47.73
191.617	45.5
191.836	41.47
192.055	55.84
192.274	59.88
192.494	95.09
192.713	211.93
192.932	244.83
193.151	166.57
193.37	148.29
193.589	174.55
193.808	254.7
194.027	360.53
194.246	-1387.97
194.465	2150
194.685	174.13
194.904	152.29
195.123	75.9
195.342	92.26
195.561	89.99
195.78	86.46
195.999	78.52
196.218	63.49
196.436	68.25
196.655	56.43
196.874	49.58
197.093	44.16
197.312	42.81
197.531	61.17
197.75	60.11
197.969	64.86
198.188	73.22
198.407	80.53
198.625	99.17
198.844	105.51
199.063	92.02
199.282	105.42
199.501	111.83
199.719	112.7
199.938	94.54
200.157	87.32
200.376	73.17
200.594	71.04
200.813	70.18
201.032	52.16
201.251	39.51
201.469	43.5
201.688	54.24
201.907	55.21
202.125	45.47
202.344	41.53
202.563	31.08
202.781	46.98
203	60.15
203.218	90.71
203.437	83.03
203.656	81.47
203.874	62.69
204.093	41.89
204.311	72.37
204.53	87.11
204.748	77.87
204.967	103.89
205.185	122.12
205.404	95.28
205.622	79.55
205.841	85.43
206.059	81.77
206.278	74.39
206.496	59.1
206.715	67.71
206.933	67.22
207.151	66.67
207.37	44.32
207.588	40.65
207.806	46.09
208.025	43.27
208.243	45.87
208.461	62.74
208.68	59.04
208.898	68.88
209.116	63.43
209.335	58.78
209.553	67.63
209.771	79.93
209.989	71.08
210.208	76.2
210.426	73.67
210.644	77.49
210.862	59.63
211.081	55.53
211.299	54.72
211.517	54.67
211.735	47.41
211.953	40.08
212.171	43.98
212.39	47.72
212.608	53.63
212.826	50.32
213.044	41
213.262	45.67
213.48	57.22
213.698	62.5
213.916	68.66
214.134	71.01
214.352	73.74
214.57	64.95
214.788	66.76
215.006	51.85
215.224	65.36
215.442	96.63
215.66	84.78
215.878	80.29
216.096	67.27
216.314	81.36
216.532	88.06
216.75	104.16
216.968	120.04
217.185	126.33
217.403	161.13
217.621	171.87
217.839	116.06
218.057	137.34
218.275	134.78
218.492	171.2
218.71	190.51
218.928	169.04
219.146	196.61
219.363	118.6
219.581	138.75
219.799	121.05
220.017	112.95
220.234	115.15
220.452	116.15
220.67	116.36
220.887	178.78
221.105	150.35
221.323	1954.6
221.54	120.45
221.758	812.86
221.976	62.24
222.193	57.45
222.411	43.1
222.629	30.01
222.846	199.02
223.064	-163.51
223.281	253.25
223.499	46.93
223.716	68.04
223.934	-87.55
224.151	22.44
224.369	-10.69
224.586	-13.69
224.804	1.69
225.021	4.48
225.239	-6.91
225.456	-21.11
225.674	11.81
225.891	-0.01
226.108	-53.37
226.326	-60.48
226.543	-27.3
226.76	-15.95
226.978	7.2
227.195	4.68
227.413	4.6
227.63	17.54
227.847	17.34
228.064	17.53
228.282	11.41
228.499	17.69
228.716	20.01
228.934	13.18
229.151	12.91
229.368	10.78
229.585	7.14
229.802	7.84
230.02	6.29
230.237	4.87
230.454	3.17
230.671	4.39
230.888	2.29
231.105	-3.43
231.323	-5.04
231.54	-10.19
231.757	-15.42
231.974	-14.82
232.191	-19.54
232.408	-21.5
232.625	-13.75
232.842	-16.97
233.059	-19.79
233.276	-17.02
233.493	-10.09
233.71	0.21
233.927	9.68
234.144	10.08
234.361	1.58
234.578	0.07
234.795	3.37
235.012	-2.29
235.229	-3
235.446	-1.44
235.663	1.46
235.879	-2.29
236.096	-5.52
236.313	-8.16
236.53	-6.09
236.747	-4.6
236.964	-9.54
237.181	-15.65
237.397	-19.29
237.614	-21.99
237.831	-21.07
238.048	-25.76
238.264	-37.44
238.481	-45.84
238.698	-33.33
238.915	-30.06
239.131	-31.42
239.348	-25.11
239.565	-21.67
239.781	-12.59
239.998	-7.52
240.215	-4.71
240.431	-5.54
240.648	4.61
240.865	8.75
241.081	6.34
241.298	5.74
241.514	7.98
241.731	8.96
241.947	8.58
242.164	7.32
242.38	9.03
242.597	7.82
242.814	10.27
243.03	8.83
243.246	9.63
243.463	9.74
243.679	9.49
243.896	9.83
244.112	8.06
244.329	8.44
244.545	9.92
244.762	9.4
244.978	12.42
245.194	9.73
245.411	6.78
245.627	7.35
245.843	6.48
246.06	5.96
246.276	6.77
246.492	8.22
246.709	7.79
246.925	7.56
247.141	6.89
247.357	5.69
247.574	6.44
247.79	7.42
248.006	7.33
248.222	6.72
248.439	6.29
248.655	5.16
248.871	4.74
249.087	5.48
249.303	5.51
249.519	5.08
249.736	5.33
249.952	3.96
250.168	6.09
250.384	4.49
250.6	7.28
250.816	7.71
251.032	9.93
251.248	9.33
251.464	6.41
251.68	5.69
251.896	5.95
252.112	3.26
252.328	3.63
252.544	0.21
252.76	-0.91
252.976	-3.62
253.192	-3.91
253.408	-4.85
253.624	-2.92
253.84	-0.51
254.056	-1.12
254.272	-1.17
254.487	-0.59
254.703	0.08
254.919	0.05
255.135	3.34
255.351	4.52
255.567	9.15
255.782	11.45
255.998	11
256.214	7.98
256.43	11.79
256.646	11.48
256.861	14.61
257.077	13.64
257.293	14.68
257.508	14.57
257.724	11.77
257.94	11.7
258.155	9.59
258.371	6.95
258.587	7.51
258.802	6.22
259.018	6.21
259.234	6.33
259.449	6.2
259.665	6.61
259.88	6.34
260.096	7.3
260.312	6.97
260.527	7.66
260.743	7.91
260.958	8.28
261.174	7.94
261.389	7.78
261.605	7.18
261.82	6.89
262.036	6.29
262.251	5.85
262.466	6.1
262.682	6.22
262.897	4.27
263.113	4.05
263.328	4.72
263.543	4.09
263.759	3.25
263.974	3.38
264.189	2.97
264.405	2.77
264.62	3.71
264.835	4.38
265.051	3.72
265.266	5.24
265.481	6.95
265.696	6.76
265.912	7.36
266.127	8.43
266.342	9.09
266.557	9.54
266.773	8.84
266.988	7.8
267.203	7.39
267.418	7.39
267.633	7.78
267.848	6.03
268.064	5.52
268.279	5.66
268.494	5.48
268.709	5.37
268.924	6.48
269.139	5.22
269.354	5.81
269.569	6.1
269.784	5.05
269.999	3.6
270.214	4.49
270.429	4.15
270.644	4.51
270.859	5.04
271.074	4.59
271.289	2.93
271.504	5.76
271.719	7.06
271.934	4.98
272.149	6.8
272.363	7.49
272.578	8.99
272.793	8.31
273.008	6.88
273.223	7.14
273.438	6.59
273.653	8.5
273.867	6.73
274.082	5.13
274.297	5.67
274.512	3.78
274.726	2.72
274.941	1.08
275.156	1.08
275.371	3.09
275.585	1.38
275.8	2.27
276.015	0.43
276.229	1.72
276.444	1.76
276.659	2.47
276.873	3
277.088	4.23
277.302	4.33
277.517	5.95
277.732	5.03
277.946	5.67
278.161	5.49
278.375	5.25
278.59	6.42
278.804	5.75
279.019	5.61
279.233	5.05
279.448	4.86
279.662	4.66
279.877	4.03
280.091	5.71
280.306	5.96
280.52	6.13
280.735	5.87
280.949	5.02
281.163	6.31
281.378	6.45
281.592	8.22
281.806	8.44
282.021	8.74
282.235	8.43
282.449	7.25
282.664	7.69
282.878	6.8
283.092	7.46
283.307	5.94
283.521	5.18
283.735	4.78
283.949	3.34
284.164	2.97
284.378	3.72
284.592	4.76
284.806	4.89
285.02	5.34
285.234	6.19
285.449	7.69
285.663	8.75
285.877	9.03
286.091	8.73
286.305	9.24
286.519	9.08
286.733	7.72
286.947	7.56
287.161	7.41
287.375	6.93
287.589	7.47
287.803	6.19
288.017	6.16
288.231	6.03
288.445	6.25
288.659	6
288.873	6.76
289.087	7.36
289.301	6.54
289.515	7.02
289.729	5.95
289.943	3.86
290.157	2.36
290.371	2.61
290.584	2.81
290.798	3.07
291.012	4.11
291.226	4.52
291.44	4.14
291.654	3.33
291.867	3.62
292.081	4.85
292.295	7.24
292.509	9.24
292.722	8.82
292.936	8.8
293.15	9.94
293.364	8.62
293.577	7.51
293.791	8.75
294.005	10.94
294.218	10.58
294.432	9.95
294.645	9.19
294.859	10.1
295.073	10.34
295.286	9.77
295.5	9.8
295.713	9.75
295.927	9.58
296.14	8.38
296.354	7.62
296.568	6.61
296.781	7.64
296.994	8.28
297.208	7.08
297.421	7.46
297.635	7.26
297.848	7.19
298.062	7.34
298.275	7.38
298.489	8.05
298.702	8.92
298.915	9.94
299.129	8.64
299.342	8.36
299.555	7.36
299.769	7.7
299.982	8.78
300.195	7.32
300.409	7.97
300.622	8.81
300.835	8.45
301.048	6.84
301.262	7.14
301.475	7.33
301.688	6.02
301.901	6.73
302.115	4.81
302.328	4.91
302.541	6.25
302.754	5.06
302.967	4.19
303.18	4.4
303.393	5.46
303.607	5.36
303.82	6.6
304.033	7.64
304.246	8.14
304.459	8.66
304.672	8.78
304.885	8.61
305.098	9.01
305.311	9.23
305.524	8.35
305.737	6.63
305.95	6.09
306.163	4.69
306.376	3.77
306.589	4.35
306.802	3.62
307.015	3.07
307.228	2.92
307.44	3.24
307.653	4.48
307.866	6.5
308.079	7.27
308.292	7.65
308.505	8.85
308.718	9.45
308.93	8.99
309.143	9.95
309.356	8.92
309.569	9.91
309.781	10.63
309.994	9.87
310.207	8.61
310.42	8.16
310.632	8.82
310.845	8
311.058	8.48
311.27	9.33
311.483	10.13
311.696	11.47
311.908	10.88
312.121	9.99
312.333	9.55
312.546	9.77
312.759	10.47
312.971	9.83
313.184	10.54
313.396	9.79
313.609	8.59
313.821	7.56
314.034	6.27
314.246	5.66
314.459	6.92
314.671	6.93
314.884	7.46
315.096	7.69
315.309	7.39
315.521	7.17
315.733	6.56
315.946	6.48
316.158	6.15
316.371	6.9
316.583	6.5
316.795	6.22
317.008	6.87
317.22	6.59
317.432	5.95
317.644	5.47
317.857	6.42
318.069	7.8
318.281	7.4
318.494	7.31
318.706	7.29
318.918	7.37
319.13	6.73
319.342	6.9
319.555	7.32
319.767	7.65
319.979	7.72
320.191	7.36
320.403	6.01
320.615	8.17
320.827	8.32
321.039	7.46
321.252	9.2
321.464	9.64
321.676	8.67
321.888	8.35
322.1	8.69
322.312	10.44
322.524	10.81
322.736	12.75
322.948	11.68
323.16	12.17
323.372	13.7
323.584	11.58
323.796	11.41
324.007	12.93
324.219	13.04
324.431	13.27
324.643	12.55
324.855	11.79
325.067	11.63
325.279	11.64
325.491	12.39
325.702	11.91
325.914	13.84
326.126	13.82
326.338	14.96
326.55	16.11
326.761	16.43
326.973	17.27
327.185	18.1
327.396	18.85
327.608	18.68
327.82	17.69
328.032	19.36
328.243	20.45
328.455	21.51
328.666	21.08
328.878	20.83
329.09	21.39
329.301	21.5
329.513	21.33
329.725	20.76
329.936	21.11
330.148	22.58
330.359	20.52
330.571	19.35
330.782	19.78
330.994	19.41
331.205	19.77
331.417	19.84
331.628	19.82
331.84	19.23
332.051	19.78
332.262	20.9
332.474	20.33
332.685	22.25
332.897	21.88
333.108	21.82
333.319	22.1
333.531	22
333.742	22.36
333.953	22.93
334.165	23.14
334.376	22.77
334.587	23.22
334.799	24.24
335.01	23.93
335.221	25.3
335.432	26.44
335.644	27.32
335.855	27.48
336.066	27.01
336.277	26.64
336.488	27
336.7	27.2
336.911	27.14
337.122	26.69
337.333	27.52
337.544	26.65
337.755	24.21
337.966	24.04
338.177	24.57
338.388	25.58
338.599	25.43
338.811	25.76
339.022	26.33
339.233	26.36
339.444	26.01
339.655	24.7
339.866	24.28
340.076	26.47
340.287	26
340.498	25.99
340.709	24.39
340.92	25.36
341.131	25.28
341.342	25.68
341.553	24.87
341.764	26.09
341.975	26.15
342.185	26.47
342.396	25.52
342.607	26.02
342.818	25.9
343.029	26.55
343.239	26.3
343.45	26.22
343.661	25.62
343.872	25.76
344.082	25.55
344.293	25.93
344.504	26.57
344.714	27.22
344.925	27.01
345.136	27.59
345.346	27.36
345.557	27.21
345.768	28.09
345.978	27.33
346.189	27.28
346.399	26.99
346.61	27.25
346.821	27.41
347.031	27.58
347.242	27.06
347.452	26.46
347.663	26.77
347.873	27.41
348.084	26.73
348.294	27.53
348.504	27.99
348.715	27.82
348.925	27.21
349.136	27.19
349.346	26.54
349.557	27
349.767	25.97
349.977	25.9
350.188	24.2
350.398	24.79
350.608	24.98
350.819	25.23
351.029	25.13
351.239	25.57
351.449	24.77
351.66	24.2
351.87	23.91
352.08	24.2
352.29	24.92
352.501	26.1
352.711	26.36
352.921	26.29
353.131	25.78
353.341	25.8
353.552	25.68
353.762	26.58
353.972	26.97
354.182	26.88
354.392	26.95
354.602	26.32
354.812	26.27
355.022	25.88
355.232	25.73
355.442	25.52
355.652	25.53
355.862	25.26
356.072	24.42
356.282	24.82
356.492	24.25
356.702	24.4
356.912	24.84
357.122	24.73
357.332	24.21
357.542	23.87
357.752	24.56
357.962	25.17
358.171	25.75
358.381	26.32
358.591	26.35
358.801	27.07
359.011	26.98
359.221	26.56
359.43	26.19
359.64	25.96
359.85	25.96
360.06	25.95
360.269	25.34
360.479	24.98
360.689	24.95
360.899	24.51
361.108	24.89
361.318	25.18
361.528	25.06
361.737	25.38
361.947	25.16
362.156	25.62
362.366	25.28
362.576	25.3
362.785	25.56
362.995	25.89
363.204	25.91
363.414	25.35
363.623	25.04
363.833	25.14
364.042	25.17
364.252	26.01
364.461	26
364.671	26.59
364.88	26.08
365.09	25.47
365.299	25.09
365.509	24.77
365.718	24.29
365.927	24.33
366.137	24.16
366.346	23.53
366.555	23.03
366.765	21.94
366.974	21.42
367.183	21.2
367.393	21.35
367.602	20.91
367.811	21.3
368.021	21.51
368.23	21.45
368.439	21.99
368.648	22.95
368.857	23.19
369.067	23.83
369.276	23.28
369.485	23.49
369.694	23.08
369.903	23.72
370.112	23.26
370.321	23.75
370.531	24.24
370.74	24.08
370.949	23.75
371.158	23.85
371.367	23.96
371.576	23.94
371.785	24.2
371.994	24.4
372.203	23.97
372.412	23.97
372.621	23.62
372.83	23.01
373.039	22.84
373.248	22.57
373.457	21.87
373.666	21.62
373.874	21.48
374.083	21.21
374.292	21.17
374.501	20.78
374.71	21.01
374.919	21.17
375.128	21.24
375.336	21.14
375.545	20.99
375.754	21.61
375.963	22
376.171	21.94
376.38	22.24
376.589	22.34
376.798	22.19
377.006	21.97
377.215	21.57
377.424	21.66
377.632	21.59
377.841	21.69
378.05	21.24
378.258	21.02
378.467	21.05
378.675	21.04
378.884	20.29
379.093	20.52
379.301	20.27
379.51	20.31
379.718	20.21
379.927	20.75
380.135	21.12
380.344	21.09
380.552	20.46
380.761	20.72
380.969	20.41
381.177	20.89
381.386	20.85
381.594	21.38
381.803	21.25
382.011	20.57
382.219	19.67
382.428	19.02
382.636	19.04
382.845	19.14
383.053	19.18
383.261	19.01
383.469	18.77
383.678	18.86
383.886	18.7
384.094	18.75
384.302	18.76
384.511	18.88
384.719	18.84
384.927	18.6
385.135	18.28
385.343	17.94
385.552	17.91
385.76	17.85
385.968	17.46
386.176	16.84
386.384	16.67
386.592	16.82
386.8	16.34
387.008	16.24
387.216	16.35
387.424	16.49
387.633	16.23
387.841	16.02
388.049	16.35
388.257	16.55
388.465	16.57
388.672	16.39
388.88	16.37
389.088	16.59
389.296	16.38
389.504	16.34
389.712	16.62
389.92	16.74
390.128	16.96
390.336	16.39
390.544	16.68
390.751	16.74
390.959	16.51
391.167	16.39
391.375	16.44
391.583	16.25
391.79	15.97
391.998	15.46
392.206	15.5
392.414	15.12
392.621	15
392.829	14.41
393.037	14.5
393.244	14.7
393.452	14.24
393.66	14.2
393.867	14.25
394.075	14.4
394.283	14.81
394.49	14.54
394.698	14.51
394.905	14.9
395.113	14.93
395.32	14.83
395.528	14.91
395.735	15.47
395.943	15.13
396.15	14.88
396.358	15.05
396.565	15.05
396.773	15.45
396.98	15.48
397.188	15.06
397.395	15.13
397.602	14.98
397.81	14.97
398.017	14.84
398.225	15.09
398.432	15.07
398.639	14.74
398.847	14.35
399.054	14.1
399.261	14.04
399.468	13.97
399.676	14.14
399.883	14.11
400.09	13.77
400.297	13.68
400.505	13.37
400.712	13.47
400.919	13.09
401.126	13.08
401.333	13.02
401.54	13.31
401.748	13.34
401.955	12.68
402.162	12.76
402.369	12.74
402.576	12.5
402.783	12.7
402.99	12.72
403.197	12.98
403.404	13.01
403.611	12.75
403.818	12.86
404.025	12.73
404.232	12.8
404.439	12.72
404.646	12.87
404.853	13.13
405.06	12.85
405.267	12.79
405.474	12.61
405.681	12.5
405.887	12.74
406.094	12.31
406.301	12.43
406.508	12.54
406.715	12.26
406.922	12.21
407.128	12.17
407.335	12.5
407.542	12.45
407.749	12.67
407.955	12.56
408.162	12.35
408.369	12.34
408.575	12.35
408.782	12.23
408.989	12.4
409.195	12.43
409.402	12.17
409.609	12.12
409.815	12.42
410.022	12.2
410.228	12.18
410.435	12.14
410.642	12.22
410.848	12.11
411.055	11.92
411.261	11.92
411.468	11.67
411.674	11.78
411.881	11.43
412.087	11.21
412.294	11.47
412.5	11.71
412.706	11.86
412.913	11.78
413.119	11.95
413.326	11.9
413.532	12.04
413.738	12.23
413.945	12.15
414.151	12.29
414.357	12.4
414.564	12.26
414.77	11.71
414.976	11.75
415.182	11.81
415.389	11.65
415.595	11.96
415.801	11.75
416.007	11.77
416.214	11.63
416.42	11.69
416.626	11.75
416.832	11.73
417.038	12.03
417.244	11.94
417.45	12.07
417.657	11.85
417.863	11.66
418.069	11.65
418.275	11.28
418.481	11.38
418.687	11.3
418.893	11.21
419.099	11.09
419.305	11.02
419.511	10.93
419.717	10.82
419.923	10.92
420.129	11.04
420.335	11.13
420.541	11.35
420.746	11.39
420.952	11.48
421.158	11.43
421.364	11.36
421.57	11.4
421.776	11.48
421.982	11.37
422.187	11.42
422.393	11.38
422.599	11.46
422.805	11.48
423.01	11.49
423.216	11.49
423.422	11.51
423.628	11.64
423.833	11.69
424.039	11.79
424.245	11.88
424.45	11.95
424.656	11.95
424.862	11.78
425.067	11.72
425.273	11.79
425.478	11.65
425.684	11.5
425.889	11.44
426.095	11.46
426.301	11.14
426.506	11.03
426.712	10.88
426.917	10.87
427.123	10.75
427.328	10.81
427.533	10.76
427.739	10.91
427.944	11.09
428.15	11.24
428.355	10.93
428.561	11.03
428.766	11.21
428.971	11.2
429.177	11.19
429.382	11.5
429.587	11.23
429.793	11.11
429.998	10.99
430.203	10.75
430.408	10.84
430.614	10.92
430.819	10.94
431.024	10.91
431.229	10.97
431.434	10.89
431.64	10.82
431.845	10.83
432.05	10.62
432.255	10.73
432.46	10.83
432.665	10.55
432.87	10.63
433.076	10.59
433.281	10.46
433.486	10.34
433.691	10.3
433.896	10.21
434.101	10.35
434.306	10.38
434.511	10.36
434.716	10.38
434.921	10.54
435.126	10.61
435.331	10.81
435.535	10.82
435.74	10.94
435.945	11.12
436.15	11.15
436.355	11.09
436.56	11.17
436.765	10.96
436.97	11.02
437.174	11.12
437.379	11.11
437.584	10.98
437.789	11.04
437.993	10.92
438.198	10.76
438.403	10.8
438.608	10.75
438.812	10.78
439.017	10.82
439.222	10.9
439.426	10.68
439.631	10.56
439.836	10.67
440.04	10.75
440.245	10.95
440.45	10.96
440.654	10.91
440.859	11
441.063	10.96
441.268	10.89
441.472	10.73
441.677	10.88
441.881	11.02
442.086	10.91
442.29	10.83
442.495	10.81
442.699	10.86
442.904	10.95
443.108	10.93
443.312	10.87
443.517	10.86
443.721	10.83
443.925	10.83
444.13	10.76
444.334	10.8
444.538	10.8
444.743	10.54
444.947	10.5
445.151	10.46
445.356	10.53
445.56	10.62
445.764	10.87
445.968	10.93
446.173	10.82
446.377	10.6
446.581	10.49
446.785	10.56
446.989	10.66
447.193	10.73
447.398	10.71
447.602	10.65
447.806	10.69
448.01	10.48
448.214	10.53
448.418	10.42
448.622	10.43
448.826	10.44
449.03	10.39
449.234	10.46
449.438	10.33
449.642	10.28
449.846	10.22
450.05	10.03
450.254	10.08
450.458	9.85
450.662	10.03
450.866	10.19
451.069	10.48
451.273	10.37
451.477	10.42
451.681	10.44
451.885	10.55
452.089	10.56
452.292	10.67
452.496	10.79
452.7	11.06
452.904	10.96
453.107	10.95
453.311	10.71
453.515	10.78
453.719	10.65
453.922	10.66
454.126	10.34
454.33	10.24
454.533	10
454.737	9.88
454.94	9.75
455.144	9.86
455.348	9.8
455.551	9.72
455.755	9.69
455.958	9.63
456.162	9.57
456.365	9.76
456.569	9.86
456.772	10.01
456.976	10.22
457.179	10.16
457.383	10.15
457.586	10.29
457.79	10.48
457.993	10.46
458.196	10.52
458.4	10.48
458.603	10.44
458.807	10.41
459.01	10.48
459.213	10.46
459.417	10.57
459.62	10.38
459.823	10.21
460.026	10.07
460.23	10.06
460.433	9.96
460.636	10.06
460.839	10.05
461.042	10.04
461.246	10.01
461.449	9.86
