Data from CB_076_Reflection_1.txt Node
Date: Sat Nov 14 11:31:15 EST 2015
User: robert
Spectrometer: USB4E03001
Autoset integration time: false
Trigger mode: 4
Integration Time (sec): 1.000000E-1
Scans to average: 15
Electric dark correction enabled: true
Nonlinearity correction enabled: false
Boxcar width: 5
Stray light correction enabled: false
XAxis mode: Wavelengths
Stop averaging: false
Number of Pixels in Spectrum: 3648
>>>>>Begin Spectral Data<<<<<
177.566	-233.93
177.785	-211.3
178.005	-1096.38
178.225	-158.33
178.445	-157.98
178.665	-334.63
178.885	-20.42
179.105	-147.9
179.324	-243.58
179.544	-384.79
179.764	-104.61
179.984	-135.11
180.204	-122.1
180.423	-544.42
180.643	-257.52
180.863	-483.33
181.083	-2292.44
181.302	-11801.59
181.522	1344.35
181.742	1494.13
181.961	1783.87
182.181	295.13
182.401	248
182.621	401.82
182.84	1585.84
183.06	-5772.2
183.279	-735.04
183.499	-487.93
183.719	-541.08
183.938	-365.18
184.158	-246.99
184.377	-243.6
184.597	-124.12
184.816	-71.93
185.036	-140.84
185.256	-211.59
185.475	-482.15
185.695	-297.06
185.914	-293.7
186.134	-237.23
186.353	-250.26
186.572	-183.61
186.792	-465.89
187.011	2347.9
187.231	-1822.73
187.45	-258.31
187.67	-1246.71
187.889	496
188.108	288.59
188.328	216.15
188.547	197.93
188.766	161.77
188.986	163.89
189.205	175.82
189.424	185.14
189.644	149.04
189.863	223.21
190.082	272.32
190.302	403.51
190.521	341.47
190.74	354.02
190.959	1342.7
191.178	1183.97
191.398	925.5
191.617	2332.06
191.836	9700
192.055	1655.52
192.274	480.22
192.494	575.17
192.713	17500
192.932	-1658.39
193.151	336325
193.37	466.4
193.589	-11847.79
193.808	-1101.27
194.027	-1843
194.246	4001.72
194.465	-2819.37
194.685	583.83
194.904	588.02
195.123	405.12
195.342	374.1
195.561	341.13
195.78	1064.79
195.999	2624.43
196.218	1131.24
196.436	711.1
196.655	328.87
196.874	203.45
197.093	390.2
197.312	298.65
197.531	571.66
197.75	609.97
197.969	1149.51
198.188	247.92
198.407	160.82
198.625	156.67
198.844	211.48
199.063	232.49
199.282	426.67
199.501	-2086.33
199.719	-1247.91
199.938	399.61
200.157	336.24
200.376	-2027.25
200.594	-102.78
200.813	-459.74
201.032	-1295.83
201.251	-642.08
201.469	-807.51
201.688	-1815.82
201.907	3292.63
202.125	899.12
202.344	4183.89
202.563	21927.54
202.781	1361.21
203	461.99
203.218	314.25
203.437	555.42
203.656	424.24
203.874	1060.65
204.093	961.03
204.311	612.42
204.53	1904.89
204.748	506.72
204.967	713.85
205.185	454.46
205.404	475.07
205.622	644.28
205.841	348.54
206.059	299.14
206.278	266.31
206.496	397.24
206.715	595.7
206.933	426.91
207.151	484.73
207.37	323.11
207.588	460.35
207.806	530.61
208.025	684.93
208.243	1105.77
208.461	-78818.18
208.68	1757.65
208.898	805.5
209.116	513.36
209.335	399.6
209.553	352.23
209.771	307.78
209.989	274.45
210.208	231.23
210.426	222.42
210.644	186.76
210.862	170.41
211.081	177.88
211.299	143.69
211.517	157.87
211.735	136.22
211.953	135.67
212.171	151.45
212.39	128.54
212.608	122.6
212.826	125.92
213.044	130.22
213.262	147.65
213.48	165.11
213.698	254.07
213.916	136.76
214.134	233.47
214.352	416.8
214.57	246.16
214.788	259.9
215.006	232.49
215.224	443.2
215.442	1149.75
215.66	2197.53
215.878	629.85
216.096	245.1
216.314	951.68
216.532	3955.58
216.75	-1415.72
216.968	-1886.83
217.185	-13676.99
217.403	3131.69
217.621	-195411.11
217.839	-1215.84
218.057	-38454.17
218.275	-1284.65
218.492	-289.67
218.71	-5018.23
218.928	2851.08
219.146	1471.32
219.363	821.33
219.581	1049.13
219.799	-5563.86
220.017	572.57
220.234	649.93
220.452	749.35
220.67	1182.54
220.887	404.75
221.105	651.66
221.323	368.62
221.54	247.79
221.758	241.7
221.976	192.46
222.193	142.22
222.411	132.6
222.629	132.31
222.846	108.78
223.064	95.62
223.281	111.53
223.499	113.51
223.716	108.55
223.934	105.25
224.151	97.6
224.369	113.97
224.586	137.17
224.804	162.35
225.021	149.51
225.239	148.31
225.456	152.99
225.674	128.15
225.891	112.8
226.108	107.71
226.326	102.35
226.543	104.38
226.76	88.58
226.978	72.16
227.195	66.49
227.413	59.1
227.63	57.91
227.847	53.5
228.064	52.38
228.282	47.42
228.499	48.39
228.716	45.62
228.934	43.35
229.151	46.59
229.368	44.08
229.585	43.13
229.802	43.83
230.02	41.41
230.237	41.39
230.454	41
230.671	44.73
230.888	42.52
231.105	41.45
231.323	39.58
231.54	35.82
231.757	38.63
231.974	40.97
232.191	44.95
232.408	44.19
232.625	44.71
232.842	44.94
233.059	40.47
233.276	32.79
233.493	32.66
233.71	38.82
233.927	38.46
234.144	36.2
234.361	36.21
234.578	34.05
234.795	31.54
235.012	26.06
235.229	22.42
235.446	30.47
235.663	37.97
235.879	44.06
236.096	41.9
236.313	44.77
236.53	41.55
236.747	40.08
236.964	39.21
237.181	46.96
237.397	51.87
237.614	67.95
237.831	71.15
238.048	70.67
238.264	64.39
238.481	64.22
238.698	64.09
238.915	68.69
239.131	64.01
239.348	63.02
239.565	60.94
239.781	58.04
239.998	44.92
240.215	35.62
240.431	34.82
240.648	35.71
240.865	33.51
241.081	30.83
241.298	28.95
241.514	29.08
241.731	28.4
241.947	27.17
242.164	26.73
242.38	24.91
242.597	22.36
242.814	22.18
243.03	23.5
243.246	25.65
243.463	24.44
243.679	22.95
243.896	23.32
244.112	22.19
244.329	22.53
244.545	23.55
244.762	25.82
244.978	30.67
245.194	27.17
245.411	24.25
245.627	23.42
245.843	26.84
246.06	26.96
246.276	24.31
246.492	25.35
246.709	22.56
246.925	22.33
247.141	21.73
247.357	20.56
247.574	21.09
247.79	20.02
248.006	18.16
248.222	17.68
248.439	16.67
248.655	17.18
248.871	15.46
249.087	16.76
249.303	17.02
249.519	18.11
249.736	20.11
249.952	19.78
250.168	25.41
250.384	26.66
250.6	25.35
250.816	27.59
251.032	28.03
251.248	28.62
251.464	29.29
251.68	25.07
251.896	22.29
252.112	21.51
252.328	22.51
252.544	20.94
252.76	21.76
252.976	20.08
253.192	18.54
253.408	18.7
253.624	18.62
253.84	18.19
254.056	20.37
254.272	20.94
254.487	22.62
254.703	21.76
254.919	18.35
255.135	20.84
255.351	27.46
255.567	27.61
255.782	29.68
255.998	30.06
256.214	29.45
256.43	29.25
256.646	32.64
256.861	31.65
257.077	31.96
257.293	33.41
257.508	31.47
257.724	29.4
257.94	28.36
258.155	25.05
258.371	22.76
258.587	21.93
258.802	21.25
259.018	19.43
259.234	18.94
259.449	18.5
259.665	17.15
259.88	17.12
260.096	16.49
260.312	16.53
260.527	16.12
260.743	16.72
260.958	16.61
261.174	17.35
261.389	18.23
261.605	17.84
261.82	17.12
262.036	17.7
262.251	16.76
262.466	16.02
262.682	15.33
262.897	16.16
263.113	16.61
263.328	14.28
263.543	12.98
263.759	12.42
263.974	11.4
264.189	9.88
264.405	9.66
264.62	10.72
264.835	9.93
265.051	11.7
265.266	11.34
265.481	12.15
265.696	17.58
265.912	16.67
266.127	17.42
266.342	18.89
266.557	20.96
266.773	19.4
266.988	18.88
267.203	19.41
267.418	18.49
267.633	18.64
267.848	16.78
268.064	12.46
268.279	12.1
268.494	9.91
268.709	8.65
268.924	10.37
269.139	10.58
269.354	11.65
269.569	11.04
269.784	11.82
269.999	12.89
270.214	14.21
270.429	15.4
270.644	17.26
270.859	18.28
271.074	17.59
271.289	17.65
271.504	17.64
271.719	17.34
271.934	17.91
272.149	16.49
272.363	16.34
272.578	15.1
272.793	14.57
273.008	13.16
273.223	12.08
273.438	12.1
273.653	11.84
273.867	12.31
274.082	13.36
274.297	14.09
274.512	15.24
274.726	14.95
274.941	15.1
275.156	18.15
275.371	18.91
275.585	21.35
275.8	23.31
276.015	20
276.229	20.87
276.444	19.88
276.659	18.42
276.873	18.95
277.088	20.51
277.302	22.16
277.517	20.35
277.732	19.85
277.946	18.06
278.161	18.43
278.375	20.39
278.59	17.88
278.804	17.06
279.019	18.28
279.233	16.86
279.448	14.85
279.662	13.19
279.877	12.75
280.091	11.68
280.306	12.24
280.52	9.25
280.735	9.99
280.949	12.39
281.163	12.08
281.378	10.75
281.592	11.74
281.806	12.08
282.021	11.33
282.235	12.05
282.449	12.92
282.664	11.64
282.878	13.27
283.092	10.43
283.307	9.52
283.521	10.6
283.735	11.52
283.949	11.34
284.164	10.95
284.378	11.31
284.592	11.53
284.806	12.73
285.02	13.86
285.234	12.62
285.449	14.03
285.663	14.48
285.877	12.55
286.091	11.94
286.305	12.27
286.519	12.38
286.733	13.24
286.947	13.71
287.161	12.78
287.375	12.16
287.589	14.07
287.803	15.55
288.017	15.84
288.231	17.71
288.445	18.31
288.659	18.22
288.873	19.09
289.087	19.15
289.301	18.94
289.515	18.81
289.729	19.07
289.943	18.35
290.157	17.68
290.371	17.47
290.584	17.57
290.798	18.16
291.012	18.01
291.226	16.73
291.44	16.46
291.654	15.13
291.867	14.78
292.081	15.55
292.295	15.57
292.509	15.24
292.722	14.21
292.936	12.5
293.15	12.14
293.364	11.94
293.577	12.75
293.791	13.69
294.005	14.52
294.218	15.9
294.432	14.82
294.645	13.8
294.859	13.18
295.073	14.15
295.286	14.22
295.5	14.16
295.713	14.08
295.927	14.02
296.14	12.95
296.354	12.53
296.568	12.01
296.781	11.69
296.994	11.81
297.208	12.22
297.421	12.14
297.635	12.81
297.848	12.07
298.062	11.36
298.275	11.84
298.489	12.64
298.702	13.28
298.915	12.32
299.129	12.96
299.342	13.34
299.555	14.34
299.769	15.76
299.982	15.33
300.195	16.27
300.409	17.04
300.622	16.25
300.835	15.53
301.048	15.16
301.262	16.56
301.475	17.81
301.688	18.35
301.901	16.92
302.115	16.1
302.328	17.44
302.541	17.62
302.754	18.64
302.967	18.73
303.18	19.54
303.393	19.94
303.607	20.29
303.82	19.5
304.033	19.83
304.246	21.05
304.459	20.16
304.672	19.6
304.885	20.11
305.098	19.76
305.311	20.25
305.524	19.37
305.737	18.98
305.95	18.73
306.163	18.67
306.376	17.92
306.589	18.22
306.802	18.66
307.015	19.22
307.228	19.29
307.44	18.78
307.653	19.54
307.866	20.52
308.079	20.93
308.292	21.08
308.505	22.75
308.718	23.53
308.93	23.84
309.143	24.1
309.356	23.7
309.569	22.73
309.781	23.01
309.994	23.37
310.207	22.99
310.42	22.48
310.632	22.12
310.845	20.19
311.058	19.37
311.27	18.28
311.483	17.52
311.696	17.52
311.908	17.97
312.121	17.8
312.333	18.03
312.546	17.54
312.759	17.63
312.971	16.97
313.184	17.85
313.396	17.48
313.609	18.25
313.821	19.93
314.034	20.23
314.246	19.74
314.459	21.64
314.671	19.98
314.884	20.74
315.096	19.86
315.309	21.24
315.521	22.13
315.733	22.73
315.946	22.02
316.158	21.21
316.371	21.42
316.583	21.2
316.795	18.62
317.008	19.35
317.22	19.49
317.432	21.85
317.644	22.6
317.857	21.73
318.069	22.04
318.281	21.55
318.494	21.22
318.706	21.34
318.918	22.45
319.13	23.17
319.342	22.19
319.555	21.57
319.767	21.89
319.979	20.31
320.191	20.11
320.403	20.72
320.615	22.48
320.827	23.79
321.039	23.41
321.252	23.59
321.464	24.96
321.676	24.63
321.888	24.29
322.1	23.54
322.312	23.37
322.524	24.94
322.736	23.38
322.948	22.99
323.16	21.33
323.372	22.55
323.584	22.42
323.796	21.07
324.007	21.32
324.219	22.81
324.431	22.57
324.643	24.33
324.855	24.17
325.067	24.3
325.279	24.24
325.491	26.45
325.702	25.52
325.914	25
326.126	26.31
326.338	26.12
326.55	25.98
326.761	26.38
326.973	26.13
327.185	26.29
327.396	28.58
327.608	29.7
327.82	28.84
328.032	30.43
328.243	31.45
328.455	31.82
328.666	33.57
328.878	34.14
329.09	34.75
329.301	34.18
329.513	33.91
329.725	33.35
329.936	33.45
330.148	33.7
330.359	34.13
330.571	34.85
330.782	34.57
330.994	35.13
331.205	35.94
331.417	36.08
331.628	37.87
331.84	39.64
332.051	40.09
332.262	39.84
332.474	38.44
332.685	38.67
332.897	38.4
333.108	39.13
333.319	38.7
333.531	37.52
333.742	36.92
333.953	36.07
334.165	35.15
334.376	35.59
334.587	34.76
334.799	35.19
335.01	33.87
335.221	33.88
335.432	32.5
335.644	32.27
335.855	32.09
336.066	32.38
336.277	32.78
336.488	32.22
336.7	31.78
336.911	32.18
337.122	33.11
337.333	33.53
337.544	33.59
337.755	34.94
337.966	34.23
338.177	33.92
338.388	34.02
338.599	33.42
338.811	33.05
339.022	32.95
339.233	33.61
339.444	32.06
339.655	31.55
339.866	31.71
340.076	31.23
340.287	31.78
340.498	32.59
340.709	33.17
340.92	33.29
341.131	33.55
341.342	33.67
341.553	32.78
341.764	34.72
341.975	35.11
342.185	34.11
342.396	34.2
342.607	33.71
342.818	33.85
343.029	32.81
343.239	33.21
343.45	33.22
343.661	32.25
343.872	32.21
344.082	30.95
344.293	30.43
344.504	31.21
344.714	30.4
344.925	30.75
345.136	30.19
345.346	29.41
345.557	28.21
345.768	27.77
345.978	28.75
346.189	29.33
346.399	29.07
346.61	28.63
346.821	28.61
347.031	29.52
347.242	29.36
347.452	29.37
347.663	30.44
347.873	31.83
348.084	32.11
348.294	31.04
348.504	30.57
348.715	31.83
348.925	32.57
349.136	31.73
349.346	30.88
349.557	30.98
349.767	31.69
349.977	31.91
350.188	30.81
350.398	31.01
350.608	31.03
350.819	31.56
351.029	30.82
351.239	31.18
351.449	31.4
351.66	32.15
351.87	32.03
352.08	31.36
352.29	31.47
352.501	31.33
352.711	30.65
352.921	31.15
353.131	30.13
353.341	30.28
353.552	29.35
353.762	28.48
353.972	28.08
354.182	29.27
354.392	29.25
354.602	28.71
354.812	29.66
355.022	29.65
355.232	29.86
355.442	30.37
355.652	29.96
355.862	29.87
356.072	30.84
356.282	29.79
356.492	29.27
356.702	28.82
356.912	29.17
357.122	29.27
357.332	29.22
357.542	28.41
357.752	28.32
357.962	27.95
358.171	28.22
358.381	28.2
358.591	28.47
358.801	28.5
359.011	28.52
359.221	28.42
359.43	27.7
359.64	27.69
359.85	27.58
360.06	27.22
360.269	27.33
360.479	27.19
360.689	27.05
360.899	27.63
361.108	27.12
361.318	26.93
361.528	26.84
361.737	26.54
361.947	26.37
362.156	26.69
362.366	26.36
362.576	26.53
362.785	26.27
362.995	26.1
363.204	25.73
363.414	26.07
363.623	26.4
363.833	26.05
364.042	26.3
364.252	26.43
364.461	26.23
364.671	26.72
364.88	26.48
365.09	27.7
365.299	27.8
365.509	28.15
365.718	27.13
365.927	26.73
366.137	26.76
366.346	26.86
366.555	26.81
366.765	26.87
366.974	26.47
367.183	25.58
367.393	23.9
367.602	23.34
367.811	22.89
368.021	23.51
368.23	23.54
368.439	23.29
368.648	22.65
368.857	22.38
369.067	21.97
369.276	22.1
369.485	22.9
369.694	23.77
369.903	24.23
370.112	24.18
370.321	23.68
370.531	23.92
370.74	23.51
370.949	23.65
371.158	23.66
371.367	23.79
371.576	23.37
371.785	22.73
371.994	22.75
372.203	22.7
372.412	22.47
372.621	22.97
372.83	22.46
373.039	22.94
373.248	22.6
373.457	22.71
373.666	22.13
373.874	21.94
374.083	22.27
374.292	21.5
374.501	21.33
374.71	21.9
374.919	21.84
375.128	22.01
375.336	21.7
375.545	22.45
375.754	22.19
375.963	21.96
376.171	21.73
376.38	21.7
376.589	21.17
376.798	20.09
377.006	19.81
377.215	19.29
377.424	19.02
377.632	18.45
377.841	17.6
378.05	17.46
378.258	17.79
378.467	17.64
378.675	17.31
378.884	17.93
379.093	18.33
379.301	18.08
379.51	17.72
379.718	17.8
379.927	18.47
380.135	18.48
380.344	18.41
380.552	18.11
380.761	18.42
380.969	18.35
381.177	17.94
381.386	18.65
381.594	17.89
381.803	18.04
382.011	17.97
382.219	17.38
382.428	17.2
382.636	17.05
382.845	16.45
383.053	16.23
383.261	16.21
383.469	16.15
383.678	15.59
383.886	15.98
384.094	16.01
384.302	15.84
384.511	15.88
384.719	15.67
384.927	15.89
385.135	16.58
385.343	16.43
385.552	16.47
385.76	16.35
385.968	16.21
386.176	15.94
386.384	15.47
386.592	14.99
386.8	14.97
387.008	15.22
387.216	14.94
387.424	14.31
387.633	14.51
387.841	14.4
388.049	15.03
388.257	14.8
388.465	14.34
388.672	14.63
388.88	14.99
389.088	14.46
389.296	14.26
389.504	13.87
389.712	14.33
389.92	13.85
390.128	13.79
390.336	12.89
390.544	12.62
390.751	12.81
390.959	12.56
391.167	12.42
391.375	12.84
391.583	12.81
391.79	12.54
391.998	12.3
392.206	12.49
392.414	12.07
392.621	12.29
392.829	12.58
393.037	12.51
393.244	12.24
393.452	12.13
393.66	12.2
393.867	12.37
394.075	12.72
394.283	12.67
394.49	12.16
394.698	12.17
394.905	12.13
395.113	12.03
395.32	12.06
395.528	12.21
395.735	12.11
395.943	11.82
396.15	11.57
396.358	11.5
396.565	11.56
396.773	11.82
396.98	11.93
397.188	11.81
397.395	11.88
397.602	11.96
397.81	11.74
398.017	11.84
398.225	12.03
398.432	11.97
398.639	11.88
398.847	11.48
399.054	11.29
399.261	11.32
399.468	11.36
399.676	11.58
399.883	11.35
400.09	11.72
400.297	12.08
400.505	11.62
400.712	11.77
400.919	11.98
401.126	11.94
401.333	12.17
401.54	12.13
401.748	12.08
401.955	11.3
402.162	11.24
402.369	11.14
402.576	10.27
402.783	10.09
402.99	9.59
403.197	8.79
403.404	8.93
403.611	8.87
403.818	8.78
404.025	8.62
404.232	9.02
404.439	8.83
404.646	8.48
404.853	8.44
405.06	8.55
405.267	8.58
405.474	8.99
405.681	8.94
405.887	8.81
406.094	8.82
406.301	8.64
406.508	8.55
406.715	8.85
406.922	9.01
407.128	9.48
407.335	9.37
407.542	9.34
407.749	9.41
407.955	9.48
408.162	9.36
408.369	9.04
408.575	9.35
408.782	9.22
408.989	8.7
409.195	8.43
409.402	8.43
409.609	8.47
409.815	8.28
410.022	8.24
410.228	8.3
410.435	8.62
410.642	8.97
410.848	8.71
411.055	8.56
411.261	8.86
411.468	9.31
411.674	8.85
411.881	9.07
412.087	9.34
412.294	9.36
412.5	9.11
412.706	8.77
412.913	8.54
413.119	8.6
413.326	8.48
413.532	8.49
413.738	7.98
413.945	7.89
414.151	7.87
414.357	7.91
414.564	7.5
414.77	7.72
414.976	7.76
415.182	8.1
415.389	7.98
415.595	7.89
415.801	7.75
416.007	7.91
416.214	7.85
416.42	7.72
416.626	7.45
416.832	7.73
417.038	7.71
417.244	7.71
417.45	7.32
417.657	7.32
417.863	7.21
418.069	7.16
418.275	7.17
418.481	7.15
418.687	7.15
418.893	7.16
419.099	6.96
419.305	6.74
419.511	6.76
419.717	6.77
419.923	6.68
420.129	6.64
420.335	6.74
420.541	6.49
420.746	6.61
420.952	6.57
421.158	6.59
421.364	6.51
421.57	6.42
421.776	6.32
421.982	6.37
422.187	6.29
422.393	6.4
422.599	6.33
422.805	6.51
423.01	6.5
423.216	6.46
423.422	6.5
423.628	6.62
423.833	6.71
424.039	6.72
424.245	6.7
424.45	6.82
424.656	6.77
424.862	6.8
425.067	6.66
425.273	6.65
425.478	6.64
425.684	6.52
425.889	6.56
426.095	6.67
426.301	6.55
426.506	6.41
426.712	6.49
426.917	6.63
427.123	6.54
427.328	6.64
427.533	6.56
427.739	6.64
427.944	6.61
428.15	6.45
428.355	6.31
428.561	6.64
428.766	6.66
428.971	6.49
429.177	6.35
429.382	6.37
429.587	6.34
429.793	6.46
429.998	6.3
430.203	6.27
430.408	6.53
430.614	6.54
430.819	6.55
431.024	6.46
431.229	6.51
431.434	6.69
431.64	6.77
431.845	6.92
432.05	6.93
432.255	6.87
432.46	6.92
432.665	6.58
432.87	6.46
433.076	6.2
433.281	6.36
433.486	6.2
433.691	6.04
433.896	5.87
434.101	5.67
434.306	5.59
434.511	5.7
434.716	5.77
434.921	5.95
435.126	5.92
435.331	5.99
435.535	5.96
435.74	5.95
435.945	5.8
436.15	5.69
436.355	5.93
436.56	5.91
436.765	5.91
436.97	5.65
437.174	5.64
437.379	5.78
437.584	5.8
437.789	5.66
437.993	5.63
438.198	5.72
438.403	5.85
438.608	5.73
438.812	5.76
439.017	5.52
439.222	5.7
439.426	5.69
439.631	5.62
439.836	5.55
440.04	5.73
440.245	5.85
440.45	5.87
440.654	5.9
440.859	5.85
441.063	5.82
441.268	6.02
441.472	6.01
441.677	5.84
441.881	5.74
442.086	5.79
442.29	5.74
442.495	5.77
442.699	5.81
442.904	5.68
443.108	5.8
443.312	5.78
443.517	5.7
443.721	5.65
443.925	5.83
444.13	5.93
444.334	5.78
444.538	5.75
444.743	5.66
444.947	5.54
445.151	5.71
445.356	5.68
445.56	5.56
445.764	5.52
445.968	5.48
446.173	5.44
446.377	5.37
446.581	5.4
446.785	5.28
446.989	5.24
447.193	5.29
447.398	5.21
447.602	4.98
447.806	4.99
448.01	5.04
448.214	5.1
448.418	4.9
448.622	4.97
448.826	4.99
449.03	5.08
449.234	5.17
449.438	5.16
449.642	5.06
449.846	5.29
450.05	5.58
450.254	5.52
450.458	5.33
450.662	5.66
450.866	5.58
451.069	5.53
451.273	5.38
451.477	5.35
451.681	5.48
451.885	5.37
452.089	5.36
452.292	4.99
452.496	4.94
452.7	5.12
452.904	4.89
453.107	5.06
453.311	5.06
453.515	5.33
453.719	5.27
453.922	5.2
454.126	5.58
454.33	5.45
454.533	5.36
454.737	5.39
454.94	5.35
455.144	5.62
455.348	5.63
455.551	5.69
455.755	5.72
455.958	5.8
456.162	5.81
