Data from CB_010_Reflection_3.txt Node
Date: Wed Nov 11 18:44:05 EST 2015
User: robert
Spectrometer: USB4E03001
Autoset integration time: false
Trigger mode: 4
Integration Time (sec): 1.000000E-1
Scans to average: 15
Electric dark correction enabled: true
Nonlinearity correction enabled: false
Boxcar width: 5
Stray light correction enabled: false
XAxis mode: Wavelengths
Stop averaging: false
Number of Pixels in Spectrum: 3648
>>>>>Begin Spectral Data<<<<<
177.566	-42.29
177.785	-119.26
178.005	-3.09
178.225	-770.2
178.445	127.51
178.665	349.37
178.885	62.56
179.105	289.8
179.324	194.23
179.544	-90.02
179.764	-191.18
179.984	-239.86
180.204	484.3
180.423	-188.2
180.643	-453.21
180.863	1376.67
181.083	7238.84
181.302	1002.41
181.522	-2669.16
181.742	-743.22
181.961	523.82
182.181	188.7
182.401	247.7
182.621	1037.85
182.84	233.05
183.06	227.6
183.279	268.49
183.499	610.37
183.719	620.05
183.938	401.31
184.158	1024.81
184.377	-1967
184.597	-569.64
184.816	-390.71
185.036	-1129.12
185.256	-361.9
185.475	1268.23
185.695	-15477.01
185.914	468.4
186.134	318.51
186.353	340.5
186.572	504.86
186.792	251.52
187.011	179.83
187.231	195.81
187.45	231.37
187.67	245.03
187.889	2430.38
188.108	775.63
188.328	1503.35
188.547	-1282.52
188.766	-1953.87
188.986	789.2
189.205	-56831.82
189.424	1367.94
189.644	8700
189.863	372.03
190.082	378.23
190.302	274.83
190.521	199.53
190.74	141.32
190.959	85.19
191.178	115.8
191.398	107.07
191.617	77.81
191.836	63.87
192.055	77.15
192.274	90.32
192.494	87.17
192.713	82.18
192.932	88.57
193.151	90.32
193.37	109.48
193.589	86.15
193.808	79.14
194.027	97.27
194.246	129.47
194.465	125.4
194.685	129.06
194.904	166.34
195.123	441.62
195.342	1943.5
195.561	284.19
195.78	246.2
195.999	244.55
196.218	1161.81
196.436	-386.5
196.655	-1737.46
196.874	531.26
197.093	485.87
197.312	152.03
197.531	93.04
197.75	15.42
197.969	69.08
198.188	92.64
198.407	65.62
198.625	-28.94
198.844	-99.36
199.063	-81.39
199.282	-122.99
199.501	7.03
199.719	-103.18
199.938	-3050.78
200.157	312.47
200.376	428.68
200.594	781.31
200.813	-19788.57
201.032	985.09
201.251	183.05
201.469	270.2
201.688	276.44
201.907	307.18
202.125	225.02
202.344	152.99
202.563	193.37
202.781	239.92
203	219.42
203.218	188.65
203.437	184.56
203.656	192.85
203.874	145.21
204.093	133.54
204.311	109.02
204.53	92.24
204.748	48.64
204.967	37.54
205.185	20.33
205.404	51.61
205.622	66.43
205.841	96.55
206.059	142.14
206.278	164.97
206.496	137.52
206.715	280.95
206.933	379.61
207.151	295.75
207.37	380.48
207.588	364.71
207.806	430.54
208.025	537.04
208.243	431.46
208.461	172.37
208.68	165.45
208.898	270.92
209.116	276.18
209.335	290.87
209.553	-1041.74
209.771	359.34
209.989	-3627.39
210.208	-2403.89
210.426	-980.44
210.644	-359.86
210.862	-260.74
211.081	-270.52
211.299	-251.83
211.517	-438
211.735	-388.81
211.953	-696.07
212.171	-289.63
212.39	-1468.7
212.608	-4655.47
212.826	649.55
213.044	519.46
213.262	421.66
213.48	416.33
213.698	568.43
213.916	-2979.22
214.134	-744.06
214.352	-1572.1
214.57	998.26
214.788	345.41
215.006	310.65
215.224	253.33
215.442	133.16
215.66	149.97
215.878	147.51
216.096	160.13
216.314	121.63
216.532	156.11
216.75	140.92
216.968	145.91
217.185	214.75
217.403	237.35
217.621	281.48
217.839	345.96
218.057	5871.36
218.275	-2506.9
218.492	-262.08
218.71	-164.07
218.928	-205.39
219.146	-92.19
219.363	-43.59
219.581	-124.17
219.799	-133.93
220.017	-83.18
220.234	-88.14
220.452	-83.73
220.67	-80.67
220.887	-167.47
221.105	-107.81
221.323	-85.08
221.54	-21.72
221.758	-7.94
221.976	7.5
222.193	-1.3
222.411	-61.7
222.629	-53.95
222.846	-106.61
223.064	-87.56
223.281	-92.68
223.499	-115.96
223.716	-136.8
223.934	-612.33
224.151	-1256.04
224.369	-627.2
224.586	290800
224.804	-964.56
225.021	-607.65
225.239	-344.99
225.456	-298.29
225.674	-278.23
225.891	-120.07
226.108	-118.19
226.326	-87.85
226.543	-62.86
226.76	-54.27
226.978	-36.86
227.195	-23.16
227.413	-6.73
227.63	-13.08
227.847	-19.33
228.064	-11.62
228.282	-9.42
228.499	-2.31
228.716	0.21
228.934	-2.95
229.151	-1.13
229.368	-1.18
229.585	-7.09
229.802	-4.42
230.02	-2.38
230.237	-0.09
230.454	2.78
230.671	4.28
230.888	-0.36
231.105	-4.15
231.323	-0.28
231.54	-5.03
231.757	-10.16
231.974	-9.35
232.191	-20.53
232.408	-19.96
232.625	-27.44
232.842	-39.07
233.059	-34.85
233.276	-27.42
233.493	-22.24
233.71	-21.51
233.927	-21.97
234.144	-9.7
234.361	-8.73
234.578	-9.6
234.795	-9.59
235.012	-8.02
235.229	-8.17
235.446	-18.47
235.663	-28.58
235.879	-25.38
236.096	-30.83
236.313	-38.17
236.53	-44.11
236.747	-33.21
236.964	-26.46
237.181	-31.79
237.397	-19.57
237.614	-19.51
237.831	-25.28
238.048	-21.56
238.264	-32.59
238.481	-32.84
238.698	-27.24
238.915	-37.6
239.131	-43.87
239.348	-50.56
239.565	-45.54
239.781	-42.18
239.998	-31.9
240.215	-24.64
240.431	-21.7
240.648	-14.7
240.865	-10.73
241.081	-8.4
241.298	-3.27
241.514	-2.84
241.731	-2.29
241.947	-1.09
242.164	-1.4
242.38	-3.02
242.597	-1.79
242.814	-0.36
243.03	-0.65
243.246	1.79
243.463	2.42
243.679	1.9
243.896	2.7
244.112	4.25
244.329	4.08
244.545	3.2
244.762	3.76
244.978	5.03
245.194	0.76
245.411	-0.74
245.627	-4.56
245.843	-2.82
246.06	-0.59
246.276	0.64
246.492	1.37
246.709	2.07
246.925	0.89
247.141	1.36
247.357	1.94
247.574	3.42
247.79	3.66
248.006	4.37
248.222	4.57
248.439	4.59
248.655	5.14
248.871	4.49
249.087	4.88
249.303	6
249.519	6.09
249.736	3.01
249.952	2.32
250.168	2.22
250.384	0.63
250.6	-0.01
250.816	0.95
251.032	-1.59
251.248	-1.94
251.464	-3.78
251.68	-3.16
251.896	-1.49
252.112	-0.08
252.328	0.46
252.544	1.06
252.76	1.76
252.976	1.3
253.192	-1.82
253.408	-3.87
253.624	-3
253.84	-5.08
254.056	-6.59
254.272	-8.57
254.487	-6.52
254.703	-5.4
254.919	-4.91
255.135	-5.07
255.351	-6.97
255.567	-6.92
255.782	-2.26
255.998	-3.13
256.214	-1.2
256.43	1.73
256.646	0.08
256.861	-4.96
257.077	-7.95
257.293	-11.33
257.508	-11.08
257.724	-10.56
257.94	-9.56
258.155	-9.27
258.371	-5.96
258.587	-5.66
258.802	-5.53
259.018	-3.93
259.234	-0.49
259.449	0.26
259.665	0.6
259.88	0.65
260.096	1.71
260.312	2.06
260.527	2.6
260.743	2.11
260.958	2.71
261.174	2.35
261.389	1.48
261.605	-0.94
261.82	-0.55
262.036	-0.83
262.251	-0.05
262.466	-0.49
262.682	-1.82
262.897	-3
263.113	-5.75
263.328	-5.82
263.543	-4.49
263.759	-3.8
263.974	-2.51
264.189	-5.06
264.405	-4.48
264.62	-5.66
264.835	-8.27
265.051	-7.15
265.266	-9.06
265.481	-6.39
265.696	-7.12
265.912	-9.54
266.127	-9.42
266.342	-8.49
266.557	-9.04
266.773	-7.59
266.988	-6.73
267.203	-7.99
267.418	-8
267.633	-6.93
267.848	-6.58
268.064	-6.64
268.279	-5.73
268.494	-7.19
268.709	-7.83
268.924	-6.55
269.139	-8.06
269.354	-9.6
269.569	-5.35
269.784	-4.94
269.999	-5.41
270.214	-6.61
270.429	-7.05
270.644	-5.77
270.859	-3.05
271.074	-1.5
271.289	-1.37
271.504	-0.31
271.719	-0.36
271.934	-2.35
272.149	-0.86
272.363	0.3
272.578	1.82
272.793	3.4
273.008	2.63
273.223	1.94
273.438	1.31
273.653	2.52
273.867	3.3
274.082	3.11
274.297	3.34
274.512	2.1
274.726	1.76
274.941	0.31
275.156	-1.06
275.371	-1.29
275.585	-1.78
275.8	-1.44
276.015	-4.26
276.229	-6.43
276.444	-5.58
276.659	-6.88
276.873	-7.23
277.088	-8.05
277.302	-8.66
277.517	-9.76
277.732	-11.04
277.946	-10.94
278.161	-11.93
278.375	-10.99
278.59	-10.28
278.804	-10.12
279.019	-7.82
279.233	-6.43
279.448	-6.25
279.662	-3.92
279.877	-3.77
280.091	-1.15
280.306	-0.56
280.52	-0.31
280.735	-1.22
280.949	0.61
281.163	1.86
281.378	1.37
281.592	1.67
281.806	3.44
282.021	2.2
282.235	2.5
282.449	1.99
282.664	1.97
282.878	2.33
283.092	3.19
283.307	2.07
283.521	1.57
283.735	2.11
283.949	1.56
284.164	0.29
284.378	2.13
284.592	3.15
284.806	3.14
285.02	2.96
285.234	3.35
285.449	3.77
285.663	3.24
285.877	3.46
286.091	3.43
286.305	4.03
286.519	4.7
286.733	4.19
286.947	3.24
287.161	2.83
287.375	3.13
287.589	1.78
287.803	2.11
288.017	2.46
288.231	1.52
288.445	1.73
288.659	0.45
288.873	-0.73
289.087	-2.03
289.301	-0.92
289.515	0.35
289.729	-0.25
289.943	1.33
290.157	0.75
290.371	1.02
290.584	1.94
290.798	1.59
291.012	1.46
291.226	2.33
291.44	2.7
291.654	2.62
291.867	2.07
292.081	2.13
292.295	0.75
292.509	1.62
292.722	1.54
292.936	0.89
293.15	2.27
293.364	2.5
293.577	2.3
293.791	2.62
294.005	2.84
294.218	3.17
294.432	2.96
294.645	3.57
294.859	2.56
295.073	2.41
295.286	2.62
295.5	1.77
295.713	1.31
295.927	1.69
296.14	2
296.354	1.59
296.568	1.34
296.781	0.68
296.994	-0.41
297.208	-0.74
297.421	0.11
297.635	-0.03
297.848	-0.04
298.062	1.27
298.275	0.3
298.489	-0.21
298.702	-0.31
298.915	0.57
299.129	2.09
299.342	3.27
299.555	4.16
299.769	4.54
299.982	5.4
300.195	6.94
300.409	5.05
300.622	6.59
300.835	7.21
301.048	7.12
301.262	6.12
301.475	6.3
301.688	6.38
301.901	6.38
302.115	4.69
302.328	3.69
302.541	2.07
302.754	3
302.967	1.65
303.18	0.71
303.393	1.82
303.607	1.99
303.82	1.45
304.033	0.91
304.246	0.84
304.459	0.86
304.672	1.36
304.885	0.88
305.098	1.1
305.311	2.15
305.524	2.49
305.737	2.23
305.95	3.65
306.163	4.68
306.376	6.79
306.589	6.69
306.802	7.88
307.015	7.81
307.228	6.92
307.44	7.72
307.653	7.51
307.866	7.8
308.079	7.32
308.292	6.7
308.505	6.38
308.718	5.42
308.93	5.04
309.143	4.75
309.356	5.15
309.569	6.78
309.781	6.31
309.994	6.07
310.207	6.41
310.42	6.48
310.632	6.2
310.845	6.45
311.058	6.67
311.27	7.14
311.483	7.69
311.696	6.83
311.908	6.5
312.121	7.06
312.333	6.51
312.546	6.66
312.759	6.42
312.971	5.19
313.184	4.09
313.396	4.84
313.609	6.17
313.821	4.72
314.034	6.66
314.246	6.23
314.459	4.55
314.671	5.86
314.884	5.86
315.096	7.09
315.309	7.48
315.521	6.6
315.733	5.35
315.946	3.57
316.158	4.36
316.371	2.62
316.583	2.51
316.795	3.86
317.008	2.2
317.22	1.21
317.432	0.34
317.644	-0.24
317.857	0.17
318.069	0.67
318.281	-0.43
318.494	-0.9
318.706	-1.98
318.918	-0.53
319.13	-2.16
319.342	-0.7
319.555	0.42
319.767	0.14
319.979	2.72
320.191	3.46
320.403	1.93
320.615	3.69
320.827	3.69
321.039	5.73
321.252	4.87
321.464	5.81
321.676	4.83
321.888	3.9
322.1	3.82
322.312	2.55
322.524	4.5
322.736	6.1
322.948	5.33
323.16	6.64
323.372	5.82
323.584	5.63
323.796	5.26
324.007	5.36
324.219	7.17
324.431	8.08
324.643	7.91
324.855	6.51
325.067	6.45
325.279	7.11
325.491	6.52
325.702	7.55
325.914	7.52
326.126	7.98
326.338	8.63
326.55	8.63
326.761	8.31
326.973	9.96
327.185	9.98
327.396	9.27
327.608	9.42
327.82	10.84
328.032	11.19
328.243	12.99
328.455	13.3
328.666	13.11
328.878	11.73
329.09	12.1
329.301	11.19
329.513	12.32
329.725	12.56
329.936	12.79
330.148	12.05
330.359	11.2
330.571	10.54
330.782	11.49
330.994	11.04
331.205	11.87
331.417	12.15
331.628	11.71
331.84	12.65
332.051	13.37
332.262	13.64
332.474	14.17
332.685	16.67
332.897	16.56
333.108	17.64
333.319	20.08
333.531	19.62
333.742	19.45
333.953	20.5
334.165	19.84
334.376	21.31
334.587	21.55
334.799	20.26
335.01	19.43
335.221	20.31
335.432	19.97
335.644	18.27
335.855	19.16
336.066	19.4
336.277	18.64
336.488	18.95
336.7	18.06
336.911	18.27
337.122	19.77
337.333	19.34
337.544	19.33
337.755	19.39
337.966	19.93
338.177	19.23
338.388	19.12
338.599	20.25
338.811	20.59
339.022	20.71
339.233	20.18
339.444	19.98
339.655	20.83
339.866	21.25
340.076	20.27
340.287	20.68
340.498	22.37
340.709	23.11
340.92	22
341.131	20.91
341.342	20.94
341.553	21.14
341.764	20.54
341.975	20.26
342.185	19.94
342.396	20.3
342.607	19.95
342.818	18.23
343.029	17.49
343.239	18.09
343.45	18.44
343.661	18.63
343.872	19.09
344.082	18.43
344.293	18.22
344.504	17.85
344.714	19.04
344.925	19.66
345.136	20.35
345.346	22.17
345.557	22.34
345.768	22.59
345.978	22.87
346.189	22.86
346.399	23.87
346.61	23.88
346.821	24.29
347.031	23.25
347.242	23.03
347.452	23.62
347.663	21.67
347.873	21.8
348.084	22.25
348.294	21.64
348.504	20.58
348.715	21.16
348.925	21.37
349.136	20.33
349.346	20.4
349.557	20.89
349.767	20.21
349.977	20.74
350.188	21.16
350.398	21.07
350.608	21.46
350.819	23.19
351.029	22.83
351.239	22.52
351.449	23.4
351.66	24.08
351.87	23.59
352.08	24
352.29	24.34
352.501	23.52
352.711	23.58
352.921	23
353.131	22.17
353.341	22.21
353.552	22.14
353.762	22.39
353.972	21.74
354.182	21.91
354.392	21.2
354.602	20.58
354.812	19.77
355.022	19.59
355.232	19.86
355.442	19.27
355.652	18.6
355.862	18.91
356.072	18.2
356.282	18.79
356.492	18.81
356.702	19.64
356.912	19.83
357.122	20.15
357.332	19.59
357.542	20.16
357.752	21.06
357.962	21.66
358.171	21.82
358.381	21.81
358.591	21.41
358.801	21.23
359.011	21.09
359.221	20.9
359.43	20.52
359.64	20.98
359.85	21.53
360.06	21.31
360.269	21.27
360.479	20.56
360.689	20.52
360.899	20.88
361.108	20.71
361.318	20.44
361.528	20.7
361.737	21.41
361.947	21.56
362.156	20.67
362.366	20.24
362.576	19.72
362.785	19.68
362.995	19.95
363.204	19.82
363.414	19.63
363.623	20.21
363.833	20.44
364.042	20.27
364.252	20.42
364.461	20.9
364.671	21.26
364.88	22.19
365.09	22.45
365.299	22.11
365.509	21.1
365.718	21.54
365.927	20.85
366.137	20.32
366.346	20.51
366.555	19.87
366.765	19.19
366.974	19.47
367.183	18.83
367.393	18.7
367.602	18.54
367.811	19.09
368.021	18.66
368.23	18.9
368.439	18.66
368.648	18.62
368.857	18.38
369.067	18.13
369.276	17.82
369.485	17.66
369.694	17.62
369.903	17.55
370.112	17.75
370.321	17.87
370.531	17.31
370.74	17.23
370.949	16.88
371.158	17.28
371.367	17.31
371.576	17.14
371.785	17.1
371.994	16.72
372.203	16.64
372.412	16.3
372.621	16.83
372.83	17.23
373.039	17.32
373.248	17.7
373.457	16.93
373.666	17
373.874	17.07
374.083	17.43
374.292	17.69
374.501	17.46
374.71	17.47
374.919	16.56
375.128	16.68
375.336	16.5
375.545	15.73
375.754	15.58
375.963	15.56
376.171	15.14
376.38	14.64
376.589	14.69
376.798	14.85
377.006	14.36
377.215	14.52
377.424	14.48
377.632	14.53
377.841	14.55
378.05	14.43
378.258	14.26
378.467	14.77
378.675	14.62
378.884	14.13
379.093	13.92
379.301	14.64
379.51	14.58
379.718	14.12
379.927	14.27
380.135	14.44
380.344	14.79
380.552	15.39
380.761	14.97
380.969	14.95
381.177	15.57
381.386	15.56
381.594	15.17
381.803	14.71
382.011	14.83
382.219	13.96
382.428	13.51
382.636	13.86
382.845	12.97
383.053	12.75
383.261	12.35
383.469	12.4
383.678	12.62
383.886	12.61
384.094	12.72
384.302	12.13
384.511	12.29
384.719	12.47
384.927	12.59
385.135	12.69
385.343	12.49
385.552	12.97
385.76	12.51
385.968	12.33
386.176	12.42
386.384	12.45
386.592	12.55
386.8	12.49
387.008	12.44
387.216	11.91
387.424	12.17
387.633	12.33
387.841	12.04
388.049	12.02
388.257	12.11
388.465	12.09
388.672	11.7
388.88	11.55
389.088	11.75
389.296	11.74
389.504	11.81
389.712	11.55
389.92	11.5
390.128	11.6
390.336	11.27
390.544	11.1
390.751	10.82
390.959	10.87
391.167	11.04
391.375	11.33
391.583	11.45
391.79	11.15
391.998	11.2
392.206	11.03
392.414	11.04
392.621	11.31
392.829	11.7
393.037	11.49
393.244	11.7
393.452	11.69
393.66	11.55
393.867	11.32
394.075	11.58
394.283	11.21
394.49	11.31
394.698	11.18
394.905	10.9
395.113	10.28
395.32	10.57
395.528	10.21
395.735	10.16
395.943	9.74
396.15	9.52
396.358	9.42
396.565	9.5
396.773	9.56
396.98	9.56
397.188	9.85
397.395	10.08
397.602	9.83
397.81	10.03
398.017	9.75
398.225	9.91
398.432	10.04
398.639	10.22
398.847	10.26
399.054	9.92
399.261	9.99
399.468	9.81
399.676	9.77
399.883	9.48
400.09	9.48
400.297	9.48
400.505	9.38
400.712	9.53
400.919	9.21
401.126	9.27
401.333	9.28
401.54	9.02
401.748	8.73
401.955	8.64
402.162	8.77
402.369	8.81
402.576	9.13
402.783	9.3
402.99	9.21
403.197	9.41
403.404	9.05
403.611	8.97
403.818	8.93
404.025	9.23
404.232	9.44
404.439	9.58
404.646	9.42
404.853	9.26
405.06	9.12
405.267	9.25
405.474	8.98
405.681	9.48
405.887	9.58
406.094	9.86
406.301	9.77
406.508	9.33
406.715	9.31
406.922	9.64
407.128	9.72
407.335	9.84
407.542	9.57
407.749	9.43
407.955	9.24
408.162	9.54
408.369	9.55
408.575	9.6
408.782	9.82
408.989	9.66
409.195	9.76
409.402	9.61
409.609	9.52
409.815	9.9
410.022	10.16
410.228	9.95
410.435	9.69
410.642	9.25
410.848	9.25
411.055	9.26
411.261	9.29
411.468	8.97
411.674	8.86
411.881	8.54
412.087	8.16
412.294	8.03
412.5	8.15
412.706	8.09
412.913	7.84
413.119	7.81
413.326	7.67
413.532	7.71
413.738	8.06
413.945	7.99
414.151	8.15
414.357	8.33
414.564	8.16
414.77	8.25
414.976	8.21
415.182	8.8
415.389	8.84
415.595	8.97
415.801	8.89
416.007	8.66
416.214	8.77
416.42	8.72
416.626	8.7
416.832	9.06
417.038	8.89
417.244	8.7
417.45	8.72
417.657	8.54
417.863	8.45
418.069	8.38
418.275	8.28
418.481	8.25
418.687	8.24
418.893	8.05
419.099	7.79
419.305	7.98
419.511	8.07
419.717	8.03
419.923	8.02
420.129	8.14
420.335	8.27
420.541	8.31
420.746	8.46
420.952	8.58
421.158	8.69
421.364	8.71
421.57	8.55
421.776	8.45
421.982	8.3
422.187	8.32
422.393	8.34
422.599	8.34
422.805	8.11
423.01	8.07
423.216	7.87
423.422	7.7
423.628	7.8
423.833	7.83
424.039	7.98
424.245	8.01
424.45	8.08
424.656	7.93
424.862	7.81
425.067	8.09
425.273	8.06
425.478	8.18
425.684	8.36
425.889	8.3
426.095	8.23
426.301	8.25
426.506	8.42
426.712	8.45
426.917	8.58
427.123	8.75
427.328	8.47
427.533	8.41
427.739	8.29
427.944	8.23
428.15	8.25
428.355	8.44
428.561	8.4
428.766	8.08
428.971	7.85
429.177	7.85
429.382	7.67
429.587	7.78
429.793	7.6
429.998	7.76
430.203	7.62
430.408	7.34
430.614	7.08
430.819	7.06
431.024	6.93
431.229	7.34
431.434	7.25
431.64	7.16
431.845	7.19
432.05	7.33
432.255	7.22
432.46	7.23
432.665	7.4
432.87	7.59
433.076	7.66
433.281	7.82
433.486	7.56
433.691	7.41
433.896	7.4
434.101	7.45
434.306	7.55
434.511	7.52
434.716	7.47
434.921	7.42
435.126	7.36
435.331	7.14
435.535	7.14
435.74	7.22
435.945	7.35
436.15	7.42
436.355	7.51
436.56	7.22
436.765	7.33
436.97	7.57
437.174	7.67
437.379	7.74
437.584	7.8
437.789	7.78
437.993	7.66
438.198	7.68
438.403	7.86
438.608	7.87
438.812	7.84
439.017	7.81
439.222	7.84
439.426	7.83
439.631	7.71
439.836	7.75
440.04	7.81
440.245	7.83
440.45	7.82
440.654	7.75
440.859	7.75
441.063	7.87
441.268	7.85
441.472	7.74
441.677	7.6
441.881	7.59
442.086	7.55
442.29	7.43
442.495	7.51
442.699	7.39
442.904	7.26
443.108	7.08
443.312	7.11
443.517	7.09
443.721	7.11
443.925	7.25
444.13	7.34
444.334	7.37
444.538	7.54
444.743	7.48
444.947	7.54
445.151	7.62
445.356	7.79
445.56	7.71
445.764	7.76
445.968	7.74
446.173	7.72
446.377	7.71
446.581	7.76
446.785	7.69
446.989	7.65
447.193	7.63
447.398	7.67
447.602	7.49
447.806	7.63
448.01	7.55
448.214	7.55
448.418	7.54
448.622	7.58
448.826	7.52
449.03	7.58
449.234	7.64
449.438	7.59
449.642	7.56
449.846	7.63
450.05	7.38
450.254	7.4
450.458	7.35
450.662	7.43
450.866	7.27
451.069	7.33
451.273	7.22
451.477	7.21
451.681	7.36
451.885	7.21
452.089	7.17
452.292	7.37
452.496	7.48
452.7	7.32
452.904	7.22
453.107	7.22
453.311	7.21
453.515	7.05
453.719	6.93
453.922	6.87
454.126	7.05
454.33	7.01
454.533	6.86
454.737	6.61
454.94	6.53
455.144	6.59
455.348	6.62
455.551	6.46
455.755	6.7
455.958	6.68
456.162	6.57
456.365	6.25
456.569	6.33
456.772	6.47
456.976	6.52
457.179	6.78
457.383	6.61
457.586	6.41
457.79	6.54
457.993	6.4
458.196	6.49
458.4	6.63
458.603	6.8
458.807	6.79
459.01	6.6
459.213	6.7
459.417	6.58
459.62	6.76
459.823	6.82
460.026	6.8
460.23	6.85
460.433	6.88
460.636	6.93
460.839	7.03
