Data from CB_047_Reflection_3.txt Node
Date: Wed Nov 11 22:26:19 EST 2015
User: robert
Spectrometer: USB4E03001
Autoset integration time: false
Trigger mode: 4
Integration Time (sec): 1.000000E-1
Scans to average: 15
Electric dark correction enabled: true
Nonlinearity correction enabled: false
Boxcar width: 5
Stray light correction enabled: false
XAxis mode: Wavelengths
Stop averaging: false
Number of Pixels in Spectrum: 3648
>>>>>Begin Spectral Data<<<<<
177.566	219.34
177.785	1360.53
178.005	-400.86
178.225	-822.53
178.445	150.99
178.665	124.55
178.885	346.05
179.105	86.5
179.324	161.29
179.544	146.79
179.764	177.43
179.984	111.95
180.204	117.96
180.423	214.24
180.643	137.67
180.863	122.38
181.083	124.8
181.302	116.72
181.522	99.69
181.742	91.6
181.961	121.07
182.181	107.46
182.401	112.6
182.621	110.85
182.84	87.95
183.06	95.36
183.279	78.84
183.499	82.33
183.719	84.92
183.938	110
184.158	110.39
184.377	97.43
184.597	112.6
184.816	126.26
185.036	110.86
185.256	119.01
185.475	129.19
185.695	161.22
185.914	111.54
186.134	146.8
186.353	117.86
186.572	93.8
186.792	84.81
187.011	72.31
187.231	79.37
187.45	83.71
187.67	55.55
187.889	48.53
188.108	56.24
188.328	72.05
188.547	65.78
188.766	73.06
188.986	83.51
189.205	65.94
189.424	89.57
189.644	74.45
189.863	86.27
190.082	95.24
190.302	101.53
190.521	129.51
190.74	133.33
190.959	119.93
191.178	88.63
191.398	89.57
191.617	110.61
191.836	104.2
192.055	96.06
192.274	85.25
192.494	97.07
192.713	111.72
192.932	103.77
193.151	84.34
193.37	82.27
193.589	88.22
193.808	109.39
194.027	95.09
194.246	108.58
194.465	114.8
194.685	99.73
194.904	94.15
195.123	96.83
195.342	95.35
195.561	110.7
195.78	114.72
195.999	136.42
196.218	108.17
196.436	95.32
196.655	104.92
196.874	83.75
197.093	112.91
197.312	92.26
197.531	74.89
197.75	63.55
197.969	82.41
198.188	71.75
198.407	58.22
198.625	67.57
198.844	73.27
199.063	62.89
199.282	62.31
199.501	76.69
199.719	101.76
199.938	134.27
200.157	204.32
200.376	138.82
200.594	220.8
200.813	194.46
201.032	246.27
201.251	354.86
201.469	269.58
201.688	259.95
201.907	194.35
202.125	142.11
202.344	106.49
202.563	118.5
202.781	97.12
203	67.78
203.218	55.26
203.437	49.06
203.656	42.15
203.874	36.5
204.093	27.26
204.311	34.71
204.53	20.42
204.748	42.64
204.967	42.18
205.185	47.5
205.404	64.78
205.622	56.34
205.841	51.9
206.059	44.9
206.278	69.92
206.496	69.71
206.715	70.61
206.933	78.57
207.151	72.23
207.37	71.36
207.588	73.31
207.806	70.93
208.025	85.23
208.243	83.99
208.461	85.54
208.68	72.18
208.898	73.34
209.116	43.34
209.335	52.31
209.553	47.59
209.771	41.47
209.989	37.77
210.208	15.8
210.426	-4.57
210.644	4.05
210.862	13.06
211.081	58.85
211.299	73.83
211.517	128.74
211.735	98.22
211.953	116.91
212.171	120.2
212.39	127.26
212.608	134.85
212.826	134.24
213.044	133.86
213.262	120.45
213.48	123.45
213.698	127.15
213.916	130.17
214.134	149.23
214.352	170.21
214.57	129.86
214.788	197.51
215.006	238.92
215.224	198.37
215.442	197.6
215.66	233.69
215.878	132.57
216.096	105.2
216.314	108.9
216.532	103.48
216.75	88.68
216.968	95.79
217.185	68.92
217.403	62.23
217.621	57.7
217.839	55.69
218.057	48.81
218.275	52.56
218.492	62.34
218.71	66.65
218.928	68.83
219.146	72.13
219.363	75.24
219.581	88.86
219.799	85.51
220.017	92.72
220.234	86.79
220.452	109.71
220.67	84.83
220.887	64.38
221.105	67.65
221.323	43.46
221.54	44.1
221.758	43.89
221.976	30.48
222.193	46.57
222.411	42.74
222.629	41.53
222.846	43.41
223.064	32.8
223.281	45.83
223.499	43.13
223.716	45.08
223.934	52.65
224.151	44.9
224.369	46.04
224.586	33.24
224.804	38.91
225.021	32.74
225.239	39.29
225.456	62.08
225.674	56.03
225.891	61.21
226.108	74.19
226.326	50.46
226.543	49.21
226.76	49.67
226.978	42.46
227.195	43.62
227.413	34.3
227.63	31.83
227.847	22.88
228.064	19.43
228.282	13.49
228.499	7.77
228.716	9.29
228.934	8.05
229.151	5.02
229.368	3.86
229.585	2.53
229.802	2.45
230.02	-1.1
230.237	-2.59
230.454	-3.37
230.671	-4.56
230.888	-6.37
231.105	-3.97
231.323	-0.37
231.54	4.95
231.757	7.07
231.974	4.96
232.191	4.26
232.408	5.01
232.625	9.06
232.842	14.26
233.059	13.86
233.276	18.66
233.493	16.06
233.71	15.58
233.927	13.15
234.144	12.62
234.361	17.94
234.578	23.18
234.795	24.64
235.012	18.77
235.229	14.96
235.446	18.7
235.663	14.28
235.879	15.6
236.096	17.01
236.313	18.12
236.53	22.86
236.747	22.57
236.964	22.57
237.181	22.73
237.397	26.69
237.614	32.68
237.831	27.54
238.048	32.66
238.264	25.97
238.481	27.61
238.698	26.07
238.915	22.99
239.131	18.56
239.348	16.62
239.565	13.22
239.781	11.48
239.998	11.05
240.215	13.1
240.431	9.64
240.648	15.84
240.865	12.41
241.081	13.92
241.298	12.56
241.514	14.27
241.731	14.99
241.947	15.79
242.164	17.16
242.38	15.79
242.597	14.94
242.814	16.01
243.03	16.12
243.246	15.74
243.463	14.96
243.679	16.06
243.896	16.58
244.112	17.1
244.329	19.14
244.545	17.49
244.762	16.38
244.978	17.39
245.194	16.09
245.411	14.04
245.627	15.14
245.843	16.32
246.06	16.2
246.276	14.85
246.492	12.96
246.709	11.44
246.925	12.51
247.141	13.6
247.357	13.33
247.574	13.46
247.79	13.26
248.006	13.07
248.222	12.53
248.439	12.7
248.655	13.35
248.871	13.27
249.087	13.3
249.303	13.55
249.519	12.4
249.736	11.81
249.952	11.42
250.168	13.07
250.384	12.71
250.6	12.71
250.816	11.3
251.032	9.37
251.248	11.89
251.464	11.97
251.68	13.02
251.896	13.25
252.112	13.64
252.328	12.75
252.544	11.23
252.76	11.65
252.976	11.21
253.192	11.79
253.408	12.59
253.624	13.19
253.84	14.35
254.056	13.1
254.272	15.81
254.487	16.84
254.703	19.34
254.919	22.01
255.135	23.14
255.351	24.84
255.567	23.61
255.782	23.92
255.998	22.2
256.214	20.75
256.43	20.43
256.646	17.59
256.861	18.1
257.077	16.49
257.293	14.1
257.508	13.49
257.724	13.36
257.94	13.87
258.155	13.4
258.371	12.11
258.587	12.77
258.802	11.53
259.018	12.34
259.234	10.86
259.449	11.18
259.665	11.17
259.88	10.36
260.096	10.07
260.312	9.84
260.527	9.71
260.743	9.81
260.958	9.23
261.174	9.19
261.389	7.87
261.605	7.99
261.82	7.96
262.036	8.92
262.251	10.05
262.466	10.26
262.682	9.98
262.897	10.05
263.113	10.1
263.328	9.94
263.543	10.76
263.759	10.96
263.974	12.69
264.189	12.44
264.405	11.38
264.62	9.89
264.835	8.96
265.051	10
265.266	10.8
265.481	12.38
265.696	13.25
265.912	12.25
266.127	12.79
266.342	11.87
266.557	11.54
266.773	10.47
266.988	11.85
267.203	11.05
267.418	11.45
267.633	12.3
267.848	12.08
268.064	11.18
268.279	11.27
268.494	10.15
268.709	10.9
268.924	12.39
269.139	14.08
269.354	13.91
269.569	14.13
269.784	13.87
269.999	11.13
270.214	10.29
270.429	11.36
270.644	11.89
270.859	13.72
271.074	12.55
271.289	12.4
271.504	11.99
271.719	11.19
271.934	11.87
272.149	11.53
272.363	13.06
272.578	13.31
272.793	12.78
273.008	12.09
273.223	11.21
273.438	10.92
273.653	10.61
273.867	10.06
274.082	9.97
274.297	9.77
274.512	9.55
274.726	8.05
274.941	9.08
275.156	10.65
275.371	10.31
275.585	10.57
275.8	11.49
276.015	11.18
276.229	11.21
276.444	11.5
276.659	10.7
276.873	12.04
277.088	14.1
277.302	12.87
277.517	11.69
277.732	13.03
277.946	12.97
278.161	12.9
278.375	13.87
278.59	14.68
278.804	13.99
279.019	14.82
279.233	13.41
279.448	12.23
279.662	13.23
279.877	13.04
280.091	12.13
280.306	12.55
280.52	11.94
280.735	11.74
280.949	10.41
281.163	11.9
281.378	11.09
281.592	10.48
281.806	11.08
282.021	9.43
282.235	9.39
282.449	10.27
282.664	9.93
282.878	9.21
283.092	8.91
283.307	10.89
283.521	9.8
283.735	9.91
283.949	11.03
284.164	10.81
284.378	10.79
284.592	10.39
284.806	10.16
285.02	9.92
285.234	11.09
285.449	10.59
285.663	9.57
285.877	11.05
286.091	11.39
286.305	10.75
286.519	10.57
286.733	11.02
286.947	11.66
287.161	11.51
287.375	11.39
287.589	11.4
287.803	11.76
288.017	10.64
288.231	9.43
288.445	10.13
288.659	10.34
288.873	10.87
289.087	11.13
289.301	10.17
289.515	11.57
289.729	12.29
289.943	11.08
290.157	10.72
290.371	11.6
290.584	12.45
290.798	12.2
291.012	12.55
291.226	13.1
291.44	13.09
291.654	13.83
291.867	12.37
292.081	11.38
292.295	13.12
292.509	12.87
292.722	12.01
292.936	10.66
293.15	10.68
293.364	10.05
293.577	9.64
293.791	9.86
294.005	8.84
294.218	10.73
294.432	11.74
294.645	11.41
294.859	11.08
295.073	11.68
295.286	11.89
295.5	11
295.713	11.37
295.927	10.41
296.14	10.24
296.354	10.74
296.568	9.68
296.781	9.82
296.994	9.53
297.208	11.09
297.421	11.46
297.635	11.95
297.848	12.13
298.062	12.09
298.275	13.15
298.489	13.41
298.702	13.17
298.915	13.67
299.129	14.51
299.342	14.53
299.555	14.41
299.769	14.71
299.982	14.34
300.195	14.35
300.409	14.75
300.622	15.24
300.835	14.22
301.048	14.72
301.262	15.32
301.475	13.66
301.688	13.54
301.901	12.31
302.115	11.88
302.328	12.24
302.541	13.48
302.754	13.03
302.967	12.04
303.18	13.76
303.393	13
303.607	11.7
303.82	12.88
304.033	13.2
304.246	12.72
304.459	13
304.672	13.32
304.885	13.71
305.098	13.46
305.311	13.59
305.524	12
305.737	13.85
305.95	13.85
306.163	13.65
306.376	14.07
306.589	14.98
306.802	14.76
307.015	15.29
307.228	13.53
307.44	14.31
307.653	14.67
307.866	15.73
308.079	15.15
308.292	15.35
308.505	15.21
308.718	14.14
308.93	14.57
309.143	13.84
309.356	12.78
309.569	14.15
309.781	14.9
309.994	13.72
310.207	13.19
310.42	12.71
310.632	14.11
310.845	14.02
311.058	14.67
311.27	14.83
311.483	15.5
311.696	15.71
311.908	15.51
312.121	14.26
312.333	14.67
312.546	15.03
312.759	15.38
312.971	14.18
313.184	14.49
313.396	13.93
313.609	14.2
313.821	13.29
314.034	13.4
314.246	13.02
314.459	13.98
314.671	14.75
314.884	15.13
315.096	15.82
315.309	14.79
315.521	14.13
315.733	14.55
315.946	12.86
316.158	14.04
316.371	13.72
316.583	13.69
316.795	13.23
317.008	13.35
317.22	13.62
317.432	13.3
317.644	14.74
317.857	15.52
318.069	14.93
318.281	14.45
318.494	14.12
318.706	15.39
318.918	15.38
319.13	16.54
319.342	15.78
319.555	15.18
319.767	13.92
319.979	13.23
320.191	12.77
320.403	14.19
320.615	14.88
320.827	15.21
321.039	14.38
321.252	13.98
321.464	12.71
321.676	11.83
321.888	12.61
322.1	12.99
322.312	14.27
322.524	16.24
322.736	16.02
322.948	16.84
323.16	16.82
323.372	16.56
323.584	17.49
323.796	19.04
324.007	19.27
324.219	19.63
324.431	20.37
324.643	20
324.855	18.49
325.067	19.06
325.279	19.43
325.491	20.77
325.702	21.51
325.914	21.89
326.126	21.3
326.338	21.27
326.55	20.73
326.761	20.57
326.973	20.43
327.185	20.47
327.396	20.12
327.608	19.84
327.82	19.8
328.032	19.92
328.243	19.95
328.455	20.3
328.666	21.56
328.878	21.73
329.09	22.41
329.301	22.3
329.513	22.97
329.725	23.24
329.936	24.27
330.148	23.43
330.359	22.26
330.571	22.28
330.782	21.94
330.994	22.27
331.205	22.24
331.417	21.47
331.628	22.17
331.84	22.53
332.051	22.77
332.262	22.08
332.474	22.69
332.685	24.1
332.897	24.19
333.108	25.3
333.319	25.19
333.531	25.96
333.742	26.56
333.953	26.23
334.165	26.01
334.376	26.55
334.587	26.35
334.799	26.38
335.01	26.55
335.221	26.54
335.432	25.5
335.644	25.54
335.855	25.31
336.066	24.93
336.277	24.89
336.488	24.66
336.7	23.93
336.911	23.98
337.122	23.69
337.333	23.56
337.544	23.14
337.755	23.12
337.966	22.78
338.177	22.44
338.388	22.47
338.599	22.69
338.811	22.04
339.022	22.23
339.233	22.7
339.444	22.64
339.655	23.06
339.866	23.2
340.076	22.68
340.287	23.62
340.498	23.6
340.709	24.53
340.92	24.63
341.131	25.61
341.342	26.54
341.553	27.03
341.764	26.52
341.975	25.43
342.185	25.07
342.396	25.92
342.607	25.1
342.818	24.83
343.029	24.01
343.239	24.15
343.45	23.93
343.661	22.81
343.872	21.6
344.082	21.42
344.293	21.65
344.504	21.88
344.714	21.52
344.925	21.36
345.136	21.88
345.346	23.12
345.557	22.87
345.768	22.51
345.978	23.59
346.189	24.65
346.399	24.71
346.61	24.92
346.821	24.94
347.031	25.58
347.242	26.41
347.452	26.09
347.663	25.99
347.873	26.75
348.084	26.75
348.294	25.87
348.504	25.23
348.715	25.56
348.925	25.78
349.136	26.23
349.346	25.48
349.557	24.9
349.767	24.96
349.977	23.95
350.188	23.39
350.398	23.75
350.608	23.93
350.819	24.71
351.029	24.98
351.239	24.66
351.449	24.43
351.66	23.76
351.87	24.07
352.08	24.16
352.29	24.16
352.501	24.49
352.711	24.33
352.921	24.31
353.131	23.72
353.341	23.33
353.552	23.84
353.762	23.52
353.972	24.2
354.182	23.79
354.392	23.74
354.602	23.53
354.812	23.03
355.022	23.49
355.232	22.92
355.442	23.42
355.652	23.69
355.862	23.26
356.072	22.98
356.282	23.02
356.492	23.36
356.702	23.49
356.912	23.38
357.122	23.47
357.332	23.3
357.542	23.64
357.752	23.29
357.962	23.34
358.171	23.23
358.381	23.84
358.591	23.3
358.801	22.8
359.011	22.05
359.221	22.42
359.43	22.71
359.64	22.24
359.85	21.85
360.06	21.76
360.269	21.47
360.479	21.57
360.689	21.27
360.899	21.59
361.108	22.07
361.318	22.56
361.528	22.29
361.737	21.66
361.947	21.61
362.156	21.48
362.366	21.26
362.576	20.97
362.785	21.25
362.995	21.31
363.204	21.47
363.414	20.55
363.623	20.41
363.833	20.39
364.042	20.37
364.252	21.11
364.461	21.36
364.671	22.17
364.88	22.85
365.09	22.52
365.299	22.67
365.509	22.22
365.718	22.9
365.927	22.72
366.137	22.2
366.346	22.35
366.555	21.77
366.765	21.51
366.974	20.8
367.183	20.75
367.393	20.3
367.602	19.47
367.811	19.54
368.021	19.71
368.23	19.66
368.439	20.06
368.648	20.54
368.857	20.59
369.067	20.41
369.276	20.37
369.485	19.89
369.694	20.42
369.903	20.99
370.112	20.49
370.321	20.27
370.531	20.6
370.74	20.31
370.949	19.34
371.158	18.44
371.367	18.46
371.576	18.49
371.785	18.27
371.994	17.54
372.203	17.21
372.412	17.87
372.621	17.54
372.83	16.86
373.039	16.92
373.248	17.37
373.457	17.59
373.666	17.29
373.874	16.96
374.083	16.49
374.292	16.23
374.501	16.24
374.71	15.84
374.919	15.86
375.128	16.21
375.336	16.41
375.545	15.94
375.754	16.12
375.963	16.37
376.171	16.16
376.38	16.23
376.589	16.63
376.798	16.15
377.006	15.93
377.215	15.84
377.424	15.74
377.632	15.49
377.841	15.65
378.05	15.57
378.258	15.24
378.467	15.12
378.675	15.11
378.884	14.95
379.093	14.83
379.301	15.06
379.51	14.73
379.718	14.84
379.927	14.79
380.135	14.48
380.344	14.2
380.552	13.96
380.761	13.5
380.969	13.53
381.177	13.48
381.386	13.7
381.594	13.33
381.803	13.11
382.011	12.84
382.219	12.45
382.428	12.7
382.636	12.55
382.845	13.19
383.053	13.28
383.261	13.03
383.469	13.04
383.678	12.59
383.886	12.16
384.094	12.28
384.302	12.21
384.511	12.4
384.719	12.2
384.927	12.28
385.135	11.99
385.343	12.3
385.552	12.54
385.76	12.26
385.968	12.46
386.176	12.71
386.384	12.53
386.592	12.43
386.8	12.37
387.008	12.42
387.216	12.36
387.424	12.39
387.633	11.93
387.841	11.85
388.049	11.61
388.257	11.54
388.465	11.56
388.672	11.48
388.88	11.19
389.088	11.21
389.296	10.52
389.504	10.22
389.712	10.05
389.92	9.97
390.128	9.61
390.336	9.65
390.544	9.8
390.751	9.79
390.959	9.98
391.167	9.95
391.375	9.9
391.583	10.31
391.79	10.32
391.998	10.35
392.206	10.49
392.414	10.7
392.621	10.35
392.829	10.2
393.037	10.11
393.244	10.16
393.452	10.3
393.66	10.02
393.867	9.97
394.075	10.22
394.283	10.24
394.49	10.28
394.698	10.19
394.905	10.82
395.113	10.45
395.32	10.37
395.528	10.17
395.735	10.09
395.943	10.02
396.15	10.16
396.358	9.93
396.565	9.89
396.773	9.74
396.98	9.72
397.188	9.37
397.395	9.87
397.602	10.04
397.81	10.23
398.017	9.88
398.225	10.01
398.432	9.76
398.639	10.22
398.847	9.75
399.054	9.67
399.261	9.31
399.468	9.33
399.676	8.74
399.883	8.38
400.09	7.78
400.297	7.97
400.505	7.69
400.712	7.59
400.919	6.95
401.126	7.3
401.333	7.19
401.54	7.12
401.748	6.95
401.955	7.25
402.162	7.37
402.369	7.71
402.576	7.41
402.783	7.63
402.99	7.16
403.197	7.23
403.404	7.21
403.611	7.37
403.818	7.36
404.025	7.46
404.232	7.38
404.439	7.27
404.646	6.95
404.853	7.08
405.06	7.11
405.267	7.29
405.474	6.88
405.681	6.38
405.887	6.42
406.094	6.71
406.301	6.89
406.508	6.73
406.715	6.8
406.922	7.23
407.128	7.38
407.335	6.9
407.542	6.85
407.749	7.28
407.955	7.51
408.162	7.2
408.369	6.89
408.575	6.65
408.782	7.15
408.989	7.05
409.195	6.55
409.402	6.28
409.609	6.75
409.815	6.96
410.022	6.92
410.228	7.09
410.435	7.49
410.642	7.38
410.848	7.17
411.055	7.05
411.261	6.84
411.468	6.94
411.674	7.02
411.881	6.98
412.087	6.96
412.294	6.99
412.5	6.96
412.706	6.42
412.913	6.34
413.119	6.35
413.326	6
413.532	6.22
413.738	6.44
413.945	6.23
414.151	5.97
414.357	5.92
414.564	5.73
414.77	5.6
414.976	5.9
415.182	5.94
415.389	5.73
415.595	5.68
415.801	5.7
416.007	5.66
416.214	5.7
416.42	5.92
416.626	5.8
416.832	5.77
417.038	5.86
417.244	5.91
417.45	5.92
417.657	6.28
417.863	6.19
418.069	6.09
418.275	5.94
418.481	5.99
418.687	5.91
418.893	5.76
419.099	6.08
419.305	5.8
419.511	5.68
419.717	5.86
419.923	5.61
420.129	5.63
420.335	5.61
420.541	5.7
420.746	5.52
420.952	5.3
421.158	5.35
421.364	5.14
421.57	5.21
421.776	5.23
421.982	5.05
422.187	5.04
422.393	5.03
422.599	4.98
422.805	4.92
423.01	5.03
423.216	5.06
423.422	5.1
423.628	5.07
423.833	5
424.039	4.95
424.245	5.08
424.45	5.11
424.656	5.18
424.862	5.2
425.067	5.32
425.273	5.39
425.478	5.5
425.684	5.6
425.889	5.55
426.095	5.75
426.301	5.73
426.506	5.65
426.712	5.65
426.917	5.59
427.123	5.54
427.328	5.14
427.533	4.95
427.739	4.85
427.944	4.58
428.15	4.62
428.355	4.54
428.561	4.58
428.766	4.48
428.971	4.79
429.177	4.92
429.382	5.02
429.587	5.16
429.793	5.2
429.998	5.33
430.203	5.34
430.408	5.26
430.614	5.41
430.819	5.37
431.024	5.44
431.229	5.3
431.434	5.04
431.64	5.24
431.845	5.35
432.05	5.51
432.255	5.46
432.46	5.35
432.665	5.14
432.87	5.06
433.076	5.17
433.281	5.14
433.486	5
433.691	5.06
433.896	4.82
434.101	4.67
434.306	4.67
434.511	4.64
434.716	4.82
434.921	5.07
435.126	4.96
435.331	4.81
435.535	4.58
435.74	4.51
435.945	4.37
436.15	4.43
436.355	4.58
436.56	4.46
436.765	4.16
436.97	4.25
437.174	4.18
437.379	4.17
437.584	4.4
437.789	4.49
437.993	4.75
438.198	4.81
438.403	4.79
438.608	4.84
438.812	4.88
439.017	5.05
439.222	5.05
439.426	5.12
439.631	5.17
439.836	5.16
440.04	5.03
440.245	4.8
440.45	4.88
440.654	4.87
440.859	4.81
441.063	4.73
441.268	4.75
441.472	4.69
441.677	4.71
441.881	4.81
442.086	4.8
442.29	4.92
442.495	4.93
442.699	5.05
442.904	4.99
443.108	5.11
443.312	5.16
443.517	5.27
443.721	5.26
443.925	5.05
444.13	4.68
444.334	4.52
444.538	4.68
444.743	4.69
444.947	4.46
445.151	4.48
445.356	4.47
445.56	4.48
445.764	4.55
445.968	4.54
446.173	4.57
446.377	4.6
446.581	4.55
446.785	4.43
446.989	4.36
447.193	4.63
447.398	4.5
447.602	4.28
447.806	4.2
448.01	4.19
448.214	4.22
448.418	4.13
448.622	4.24
448.826	4.18
449.03	4.27
449.234	4.42
449.438	4.25
449.642	4.41
449.846	4.59
450.05	4.65
450.254	4.42
450.458	4.45
450.662	4.58
450.866	4.44
451.069	4.38
451.273	4.26
451.477	4.14
451.681	4.15
451.885	4.26
452.089	4.26
452.292	4.27
452.496	4.36
452.7	4.28
452.904	4.21
453.107	4.46
453.311	4.54
453.515	4.49
453.719	4.53
453.922	4.41
454.126	4.28
454.33	4.29
454.533	4.36
454.737	4.4
454.94	4.37
455.144	4.45
455.348	4.35
455.551	4.38
455.755	4.37
455.958	4.41
456.162	4.46
456.365	4.6
456.569	4.65
456.772	4.59
456.976	4.34
457.179	4.33
457.383	4.34
457.586	4.32
457.79	4.36
457.993	4.32
458.196	4.25
458.4	4.1
458.603	3.88
458.807	3.82
459.01	3.91
459.213	4.09
459.417	4.07
459.62	4
459.823	3.94
460.026	3.95
460.23	3.98
460.433	4.04
460.636	4.09
460.839	4.2
461.042	4.23
461.246	4.1
461.449	4.07
