Data from CB_008_Reflection_2.txt Node
Date: Wed Nov 11 18:34:53 EST 2015
User: robert
Spectrometer: USB4E03001
Autoset integration time: false
Trigger mode: 4
Integration Time (sec): 1.000000E-1
Scans to average: 15
Electric dark correction enabled: true
Nonlinearity correction enabled: false
Boxcar width: 5
Stray light correction enabled: false
XAxis mode: Wavelengths
Stop averaging: false
Number of Pixels in Spectrum: 3648
>>>>>Begin Spectral Data<<<<<
177.566	-232.98
177.785	-505.5
178.005	-167.78
178.225	-1854.97
178.445	426.59
178.665	681.7
178.885	-70.87
179.105	684.44
179.324	377.37
179.544	-270.29
179.764	-201.88
179.984	-242.83
180.204	519.07
180.423	-363.85
180.643	-832.93
180.863	2757.14
181.083	10311.57
181.302	1245.62
181.522	-3537.13
181.742	-787.57
181.961	576.83
182.181	286.6
182.401	320.05
182.621	1779.46
182.84	306.66
183.06	320
183.279	401.47
183.499	983.56
183.719	880.69
183.938	523.28
184.158	1662.89
184.377	-2345.62
184.597	-581.48
184.816	-524.21
185.036	-1340.1
185.256	-423.92
185.475	1347.57
185.695	-15701.15
185.914	493.48
186.134	348.2
186.353	376.77
186.572	441.62
186.792	320.06
187.011	253.08
187.231	206.25
187.45	199.66
187.67	216.06
187.889	1451.27
188.108	604.86
188.328	1032.18
188.547	-746.14
188.766	-1231.65
188.986	602.7
189.205	-33372.73
189.424	874.4
189.644	6830.58
189.863	360.75
190.082	320.84
190.302	258.37
190.521	159.87
190.74	138.98
190.959	132.99
191.178	141.18
191.398	116.47
191.617	94.3
191.836	98.3
192.055	100.6
192.274	105.46
192.494	107.01
192.713	102.06
192.932	111.6
193.151	126.67
193.37	133.09
193.589	121.25
193.808	146.53
194.027	141.08
194.246	164.28
194.465	170.37
194.685	155.67
194.904	167.66
195.123	369.33
195.342	1544.17
195.561	215.14
195.78	162.03
195.999	209.38
196.218	848.09
196.436	-397.11
196.655	-1984.73
196.874	1006.31
197.093	907.2
197.312	1215.67
197.531	-514.76
197.75	-641.12
197.969	-194.79
198.188	-141.36
198.407	-138.26
198.625	-498.26
198.844	-437.32
199.063	-309.96
199.282	-225.24
199.501	-125.05
199.719	-182.81
199.938	-2375.39
200.157	324.51
200.376	375.24
200.594	614.47
200.813	-25954.29
201.032	1668.18
201.251	455.77
201.469	449.02
201.688	351.25
201.907	343.35
202.125	262.49
202.344	174.59
202.563	194.48
202.781	228.52
203	209.82
203.218	139.5
203.437	133.39
203.656	110.39
203.874	107.92
204.093	120.34
204.311	77.34
204.53	63.68
204.748	51.89
204.967	47.34
205.185	62.76
205.404	93.42
205.622	137.47
205.841	158.86
206.059	197.99
206.278	229.22
206.496	218.49
206.715	436.95
206.933	589.63
207.151	383.36
207.37	431.64
207.588	393.42
207.806	463.67
208.025	505.23
208.243	565.57
208.461	301.7
208.68	316.95
208.898	372.17
209.116	419.55
209.335	377.47
209.553	-1348
209.771	531.09
209.989	-5441.74
210.208	-3774.61
210.426	-1355.61
210.644	-438.82
210.862	-286.85
211.081	-254.3
211.299	-282.41
211.517	-364.3
211.735	-265.74
211.953	-476.19
212.171	-182.81
212.39	-1271.66
212.608	-3406.25
212.826	520.96
213.044	369.06
213.262	308.81
213.48	270.35
213.698	371.91
213.916	-2121.46
214.134	-804.24
214.352	-1693.71
214.57	1099.18
214.788	318.2
215.006	336.37
215.224	243.19
215.442	147.22
215.66	150.61
215.878	214.91
216.096	214.66
216.314	166.46
216.532	176.28
216.75	176.23
216.968	181.74
217.185	303.25
217.403	326.37
217.621	463.55
217.839	633.07
218.057	11593.97
218.275	-3932.97
218.492	-429.02
218.71	-336.21
218.928	-432.55
219.146	-194.93
219.363	-102.77
219.581	-143.36
219.799	-120.98
220.017	-53.48
220.234	-48.64
220.452	-76.42
220.67	-77.7
220.887	-188.89
221.105	-111.22
221.323	-105.99
221.54	-29.09
221.758	-52.11
221.976	-72.37
222.193	-92.84
222.411	-137.13
222.629	-178.44
222.846	-162.33
223.064	-146.02
223.281	-113.57
223.499	-98.02
223.716	-113.15
223.934	-568.12
224.151	-800.27
224.369	-315.76
224.586	94175
224.804	-554.12
225.021	-146.21
225.239	-96.57
225.456	-152.7
225.674	-180.43
225.891	-112.09
226.108	-109.57
226.326	-65.19
226.543	-63.6
226.76	-63.23
226.978	-33.6
227.195	-27.01
227.413	-14.74
227.63	-14.88
227.847	-12.77
228.064	-6.78
228.282	0.58
228.499	5.63
228.716	4.19
228.934	4.24
229.151	4.89
229.368	3.81
229.585	2
229.802	2.36
230.02	1.09
230.237	1.85
230.454	5.36
230.671	4.32
230.888	3.4
231.105	2.11
231.323	0.74
231.54	2.44
231.757	-2.33
231.974	6.5
232.191	-0.13
232.408	9.08
232.625	6.34
232.842	-6.73
233.059	-8.19
233.276	-7.61
233.493	-2.61
233.71	-4.84
233.927	-3.42
234.144	1.46
234.361	-2.28
234.578	-6.92
234.795	-13.35
235.012	-17.42
235.229	-11.22
235.446	-13.44
235.663	-23.87
235.879	-18.04
236.096	-15.25
236.313	-27.97
236.53	-34.24
236.747	-23.75
236.964	-14.07
237.181	-23.01
237.397	-7.26
237.614	-5.64
237.831	-10.64
238.048	-5.4
238.264	-17.31
238.481	-21.13
238.698	-16.81
238.915	-18.43
239.131	-29.5
239.348	-35.94
239.565	-28.62
239.781	-31.54
239.998	-31.84
240.215	-24.93
240.431	-21.25
240.648	-12.71
240.865	-8.14
241.081	-7.46
241.298	-5.04
241.514	-1.99
241.731	0.35
241.947	2.85
242.164	2.48
242.38	2.36
242.597	3.17
242.814	4.74
243.03	3.47
243.246	4.14
243.463	5.36
243.679	6.83
243.896	4.87
244.112	4.93
244.329	4.32
244.545	6.55
244.762	9.01
244.978	10.71
245.194	8.75
245.411	8.56
245.627	6.06
245.843	5.66
246.06	6.91
246.276	9.8
246.492	9.35
246.709	8.71
246.925	7.57
247.141	5.84
247.357	4.41
247.574	5.03
247.79	5.25
248.006	5.62
248.222	5.97
248.439	5.02
248.655	4.75
248.871	4.24
249.087	4.53
249.303	4.93
249.519	6.16
249.736	4.12
249.952	1.83
250.168	-2.03
250.384	-3.02
250.6	-4.52
250.816	-5.33
251.032	-8.78
251.248	-9.92
251.464	-10.23
251.68	-12.42
251.896	-10.32
252.112	-8.22
252.328	-5.39
252.544	-2.41
252.76	-0.44
252.976	-0.64
253.192	0.38
253.408	0.81
253.624	1.88
253.84	1.01
254.056	2.3
254.272	0
254.487	0.27
254.703	-2.1
254.919	-0.11
255.135	-3.84
255.351	-3.97
255.567	-3.23
255.782	-1.28
255.998	-0.48
256.214	-0.31
256.43	-1.94
256.646	-2.98
256.861	-3.43
257.077	-2.55
257.293	-7.09
257.508	-5.55
257.724	-6.41
257.94	-6.46
258.155	-7.32
258.371	-5.88
258.587	-4.51
258.802	-3.25
259.018	-0.87
259.234	0.91
259.449	1.97
259.665	2.74
259.88	3.2
260.096	3.61
260.312	3.73
260.527	4.44
260.743	4.49
260.958	4.56
261.174	5.13
261.389	4.05
261.605	3.32
261.82	2.56
262.036	2.51
262.251	1.55
262.466	2.66
262.682	1.29
262.897	0.95
263.113	-1.33
263.328	-1.72
263.543	-2.29
263.759	-3.16
263.974	-1.91
264.189	-1.92
264.405	-2.9
264.62	-3.13
264.835	-4.86
265.051	-4.26
265.266	-7.86
265.481	-4.73
265.696	-4.4
265.912	-3.81
266.127	-1.43
266.342	-1.14
266.557	-4.57
266.773	-3.95
266.988	-3.13
267.203	-4.92
267.418	-4.46
267.633	-3.61
267.848	-4.37
268.064	-4.46
268.279	-4.79
268.494	-5.18
268.709	-5.83
268.924	-3.76
269.139	-3.75
269.354	-4.36
269.569	-1.68
269.784	-0.97
269.999	-0.3
270.214	-1.93
270.429	-3.58
270.644	-3.04
270.859	-3.88
271.074	-3.07
271.289	-2.55
271.504	-2.76
271.719	-2.25
271.934	-1.72
272.149	-1.84
272.363	-1.97
272.578	-0.83
272.793	1.57
273.008	1.62
273.223	2.17
273.438	1.96
273.653	2.64
273.867	3.57
274.082	4.09
274.297	3.48
274.512	3.4
274.726	4.62
274.941	5.29
275.156	3.65
275.371	2.41
275.585	0.96
275.8	0.72
276.015	-0.42
276.229	-2.67
276.444	-1.2
276.659	-2.47
276.873	-2.81
277.088	-4.52
277.302	-4.8
277.517	-4.51
277.732	-5.32
277.946	-4.37
278.161	-5.99
278.375	-4.87
278.59	-2.83
278.804	-5.29
279.019	-4.69
279.233	-3.06
279.448	-2.19
279.662	-1.94
279.877	-1.04
280.091	1.36
280.306	3.2
280.52	4.98
280.735	3.85
280.949	4.03
281.163	5.61
281.378	6.21
281.592	5.74
281.806	7.15
282.021	6.32
282.235	6.11
282.449	4.53
282.664	3.56
282.878	4.15
283.092	5.47
283.307	5.28
283.521	4.5
283.735	4.37
283.949	3.55
284.164	2.4
284.378	3.45
284.592	3.53
284.806	4.71
285.02	3.67
285.234	3.06
285.449	2.99
285.663	2.61
285.877	1.89
286.091	1.46
286.305	1.6
286.519	2.57
286.733	2.17
286.947	1.66
287.161	1.8
287.375	3.08
287.589	2.73
287.803	2.57
288.017	2.82
288.231	3.07
288.445	3.77
288.659	2.95
288.873	1.87
289.087	2.01
289.301	4
289.515	4.33
289.729	4.03
289.943	4.66
290.157	3.55
290.371	3.71
290.584	4.49
290.798	5.25
291.012	6.35
291.226	6.52
291.44	6.5
291.654	4.84
291.867	4.89
292.081	4.42
292.295	3.24
292.509	4.47
292.722	4.6
292.936	3.69
293.15	3.42
293.364	2.91
293.577	1.92
293.791	2.56
294.005	2.02
294.218	1.39
294.432	1.87
294.645	3.47
294.859	3.47
295.073	3.59
295.286	3.05
295.5	3.22
295.713	3.92
295.927	5.13
296.14	4.6
296.354	5.57
296.568	4.83
296.781	5.05
296.994	3.93
297.208	2.77
297.421	3.71
297.635	4.96
297.848	5.36
298.062	6.16
298.275	5.92
298.489	5.64
298.702	4.97
298.915	6.03
299.129	5.85
299.342	6.96
299.555	8
299.769	7.61
299.982	7
300.195	6.93
300.409	5.81
300.622	7.02
300.835	7.66
301.048	8.05
301.262	8.06
301.475	8.6
301.688	8.95
301.901	9.1
302.115	8.52
302.328	9.2
302.541	8.26
302.754	8.03
302.967	6.94
303.18	6.44
303.393	7.21
303.607	7.2
303.82	6.75
304.033	5.5
304.246	6.04
304.459	5.39
304.672	4.82
304.885	4.76
305.098	5.11
305.311	5.12
305.524	4.67
305.737	3.95
305.95	4.81
306.163	5.43
306.376	5.44
306.589	5.73
306.802	6.64
307.015	8.22
307.228	7.59
307.44	9.37
307.653	9.56
307.866	10.31
308.079	10.59
308.292	9.96
308.505	10.83
308.718	11.04
308.93	10.52
309.143	11.2
309.356	9.41
309.569	10.51
309.781	9.1
309.994	8.01
310.207	8.62
310.42	9.39
310.632	10.04
310.845	9.13
311.058	9.57
311.27	9.85
311.483	9.2
311.696	9.12
311.908	8.98
312.121	9.32
312.333	9.8
312.546	11.04
312.759	9.52
312.971	8.04
313.184	6.51
313.396	6.91
313.609	6.92
313.821	5.88
314.034	6.84
314.246	7.03
314.459	6.22
314.671	7.65
314.884	6.06
315.096	7.65
315.309	7.88
315.521	8.95
315.733	8.81
315.946	8.87
316.158	9.28
316.371	7.62
316.583	6.1
316.795	6.79
317.008	5.76
317.22	6.34
317.432	5.81
317.644	5.01
317.857	5.84
318.069	5.1
318.281	4.82
318.494	5.94
318.706	5.79
318.918	6.73
319.13	5.7
319.342	5.18
319.555	3.52
319.767	2.46
319.979	4.47
320.191	3.34
320.403	1.91
320.615	2.38
320.827	1.99
321.039	4.82
321.252	5.09
321.464	5.94
321.676	6.15
321.888	7.18
322.1	8.66
322.312	7.75
322.524	9.49
322.736	11.28
322.948	9.34
323.16	9.9
323.372	8.61
323.584	8.35
323.796	8.67
324.007	8.1
324.219	7.76
324.431	7.89
324.643	8.84
324.855	8.43
325.067	8.53
325.279	9.57
325.491	7.96
325.702	8.61
325.914	8.71
326.126	7.37
326.338	7.93
326.55	8.58
326.761	9.08
326.973	8.51
327.185	7.89
327.396	7.47
327.608	7.04
327.82	10.24
328.032	10.7
328.243	10.88
328.455	11.84
328.666	12.3
328.878	11.44
329.09	9.72
329.301	8.74
329.513	9.05
329.725	9.54
329.936	9.98
330.148	7.22
330.359	5.91
330.571	5.65
330.782	6.12
330.994	6.06
331.205	6.04
331.417	7.23
331.628	8.43
331.84	9.79
332.051	9.59
332.262	9.5
332.474	10.19
332.685	11.32
332.897	12.52
333.108	12.38
333.319	13.36
333.531	13.2
333.742	13.32
333.953	13.24
334.165	12.38
334.376	12.91
334.587	13.24
334.799	12.78
335.01	12.77
335.221	11.87
335.432	12.16
335.644	11.91
335.855	12.15
336.066	12.44
336.277	11.99
336.488	12.06
336.7	12.02
336.911	13.12
337.122	14.27
337.333	14.19
337.544	14.96
337.755	14.87
337.966	13.55
338.177	13.94
338.388	13.54
338.599	14.16
338.811	15.1
339.022	15.21
339.233	14.23
339.444	13.52
339.655	14.37
339.866	14.22
340.076	13.77
340.287	14.68
340.498	15.42
340.709	15.51
340.92	14.64
341.131	14.45
341.342	13.8
341.553	13.93
341.764	13.97
341.975	12.84
342.185	13.15
342.396	13.61
342.607	13.47
342.818	12.59
343.029	13.02
343.239	13.67
343.45	13.48
343.661	13.72
343.872	13.9
344.082	13.75
344.293	13.35
344.504	13.03
344.714	13.71
344.925	14.36
345.136	13.71
345.346	13.76
345.557	14.05
345.768	13.76
345.978	13.31
346.189	12.79
346.399	13.36
346.61	14.25
346.821	14.35
347.031	13.37
347.242	12.86
347.452	13.29
347.663	13.3
347.873	14.51
348.084	14.72
348.294	15.44
348.504	14.86
348.715	14.6
348.925	14.41
349.136	13.21
349.346	13.84
349.557	14.29
349.767	14.4
349.977	13.61
350.188	13.02
350.398	13.62
350.608	13.44
350.819	14.82
351.029	14.39
351.239	14.8
351.449	14.98
351.66	14.35
351.87	14.55
352.08	15.01
352.29	15.49
352.501	14.86
352.711	13.74
352.921	13.75
353.131	13.19
353.341	13.54
353.552	12.95
353.762	13.79
353.972	14
354.182	13.32
354.392	12.34
354.602	11.79
354.812	11.24
355.022	11.59
355.232	11.46
355.442	11.14
355.652	11.77
355.862	12.54
356.072	11.75
356.282	11.74
356.492	11.88
356.702	13.32
356.912	12.83
357.122	12.22
357.332	12.29
357.542	12.35
357.752	13.11
357.962	12.18
358.171	11.97
358.381	12.7
358.591	13.18
358.801	13.35
359.011	12.64
359.221	13.32
359.43	14.13
359.64	14.65
359.85	15.44
360.06	15.09
360.269	15.62
360.479	15.35
360.689	15.21
360.899	14.86
361.108	14.56
361.318	14.36
361.528	14.13
361.737	14.26
361.947	13.6
362.156	12.7
362.366	12.57
362.576	11.99
362.785	11.76
362.995	11.57
363.204	11.66
363.414	11.65
363.623	11.71
363.833	11.96
364.042	11.95
364.252	12.28
364.461	13.03
364.671	12.67
364.88	13.38
365.09	13.27
365.299	13.3
365.509	12.41
365.718	12.48
365.927	12.49
366.137	12.67
366.346	12.45
366.555	11.63
366.765	11.06
366.974	11.31
367.183	10.64
367.393	10.8
367.602	10.52
367.811	10.78
368.021	10.71
368.23	10.91
368.439	10.16
368.648	10.46
368.857	10.78
369.067	10.31
369.276	10.33
369.485	10.74
369.694	10.9
369.903	11.1
370.112	11.69
370.321	11.23
370.531	11
370.74	10.91
370.949	10.15
371.158	9.71
371.367	9.95
371.576	10.06
371.785	9.44
371.994	9.37
372.203	9.31
372.412	9.11
372.621	9.88
372.83	9.66
373.039	9.98
373.248	10.63
373.457	10.96
373.666	10.87
373.874	10.9
374.083	11.51
374.292	10.91
374.501	10.44
374.71	9.87
374.919	9.83
375.128	10.02
375.336	9.88
375.545	9.23
375.754	8.67
375.963	8.78
376.171	8.64
376.38	8.62
376.589	9.02
376.798	8.88
377.006	8.83
377.215	8.61
377.424	8.76
377.632	8.67
377.841	8.96
378.05	8.55
378.258	8.37
378.467	8.51
378.675	7.78
378.884	7.5
379.093	7.72
379.301	8.09
379.51	8.27
379.718	7.91
379.927	7.93
380.135	7.47
380.344	8.38
380.552	8.82
380.761	8.77
380.969	9.11
381.177	9.54
381.386	9.55
381.594	9.19
381.803	8.68
382.011	9.07
382.219	8.71
382.428	8.59
382.636	8.72
382.845	8.33
383.053	8.14
383.261	7.84
383.469	7.7
383.678	7.85
383.886	8.13
384.094	8.14
384.302	7.88
384.511	7.99
384.719	8.38
384.927	8.66
385.135	8.51
385.343	8.31
385.552	8.88
385.76	8.67
385.968	8.53
386.176	8.14
386.384	7.96
386.592	7.71
386.8	7.47
387.008	7.29
387.216	6.8
387.424	7.07
387.633	7.02
387.841	6.59
388.049	6.52
388.257	6.65
388.465	6.76
388.672	6.49
388.88	6.31
389.088	6.35
389.296	6.09
389.504	6.13
389.712	5.82
389.92	5.73
390.128	5.49
390.336	5.12
390.544	4.87
390.751	4.98
390.959	5.3
391.167	5.7
391.375	5.85
391.583	6.07
391.79	6.04
391.998	6
392.206	6.03
392.414	6.27
392.621	6.58
392.829	6.67
393.037	6.28
393.244	5.91
393.452	5.66
393.66	5.49
393.867	5.54
394.075	5.64
394.283	5.65
394.49	5.64
394.698	5.56
394.905	5.28
395.113	4.98
395.32	5.55
395.528	5.55
395.735	5.4
395.943	5.25
396.15	4.94
396.358	4.92
396.565	4.81
396.773	4.59
396.98	4.42
397.188	4.38
397.395	4.57
397.602	3.88
397.81	4.02
398.017	4.1
398.225	4.61
398.432	4.79
398.639	4.74
398.847	4.96
399.054	4.93
399.261	5.24
399.468	5.27
399.676	5.53
399.883	5.62
400.09	5.94
400.297	5.85
400.505	5.47
400.712	5.63
400.919	5.44
401.126	5.17
401.333	5.38
401.54	5.26
401.748	5.19
401.955	5
402.162	4.92
402.369	4.82
402.576	4.92
402.783	5.05
402.99	4.96
403.197	4.98
403.404	4.78
403.611	4.67
403.818	4.25
404.025	4.47
404.232	4.53
404.439	4.49
404.646	4.08
404.853	3.85
405.06	4.05
405.267	4.14
405.474	4.29
405.681	4.79
405.887	4.7
406.094	5.18
406.301	5.2
406.508	4.89
406.715	5.02
406.922	5.34
407.128	5.62
407.335	5.42
407.542	5.23
407.749	4.93
407.955	4.66
408.162	5.04
408.369	4.92
408.575	5.07
408.782	5.41
408.989	5.33
409.195	5.42
409.402	5.46
409.609	5.38
409.815	5.38
410.022	5.25
410.228	5.07
410.435	4.82
410.642	4.67
410.848	4.5
411.055	4.27
411.261	4.32
411.468	4.31
411.674	4.02
411.881	3.96
412.087	3.78
412.294	3.95
412.5	3.98
412.706	4.38
412.913	4.01
413.119	4
413.326	4
413.532	3.78
413.738	3.64
413.945	3.83
414.151	4.04
414.357	3.93
414.564	4.06
414.77	4.21
414.976	3.83
415.182	4.17
415.389	4.3
415.595	4.47
415.801	4.7
416.007	4.75
416.214	4.57
416.42	4.27
416.626	4.52
416.832	4.37
417.038	4.24
417.244	4.11
417.45	4.38
417.657	4.09
417.863	4.04
418.069	3.94
418.275	4.01
418.481	4.09
418.687	4.12
418.893	4.02
419.099	3.99
419.305	4.28
419.511	4.42
419.717	4.45
419.923	4.53
420.129	4.45
420.335	4.67
420.541	4.62
420.746	4.82
420.952	4.96
421.158	5.12
421.364	5.2
421.57	5.03
421.776	4.96
421.982	4.77
422.187	4.81
422.393	4.79
422.599	4.72
422.805	4.66
423.01	4.51
423.216	4.35
423.422	4.21
423.628	4.18
423.833	4.26
424.039	4.26
424.245	4.37
424.45	4.44
424.656	4.43
424.862	4.34
425.067	4.4
425.273	4.52
425.478	4.52
425.684	4.64
425.889	4.67
426.095	4.55
426.301	4.53
426.506	4.48
426.712	4.36
426.917	4.58
427.123	4.63
427.328	4.5
427.533	4.38
427.739	4.46
427.944	4.26
428.15	4.17
428.355	4.26
428.561	4.24
428.766	4.02
428.971	4
429.177	3.79
429.382	3.63
429.587	3.6
429.793	3.23
429.998	3.12
430.203	3.2
430.408	3.13
430.614	2.91
430.819	3.03
431.024	2.94
431.229	3.07
431.434	3.18
431.64	3.01
431.845	3.14
432.05	3.59
432.255	3.64
432.46	3.48
432.665	3.58
432.87	3.79
433.076	3.8
433.281	3.75
433.486	3.7
433.691	3.5
433.896	3.57
434.101	3.58
434.306	3.38
434.511	3.31
434.716	3.31
434.921	3.29
435.126	3.25
435.331	3.04
435.535	3.34
435.74	3.29
435.945	3.49
436.15	3.63
436.355	3.72
436.56	3.77
436.765	3.81
436.97	3.86
437.174	3.8
437.379	3.75
437.584	3.82
437.789	3.64
437.993	3.63
438.198	3.61
438.403	3.88
438.608	3.81
438.812	3.72
439.017	3.73
439.222	3.86
439.426	3.96
439.631	4
439.836	4.2
440.04	4.27
440.245	4.35
440.45	4.34
440.654	4.27
440.859	4.14
441.063	4.16
441.268	4.28
441.472	4.3
441.677	4.11
441.881	3.98
442.086	3.88
442.29	3.85
442.495	3.94
442.699	3.86
442.904	3.71
443.108	3.87
443.312	3.93
443.517	3.89
443.721	3.82
443.925	4.02
444.13	4.21
444.334	4.25
444.538	4.37
444.743	4.27
444.947	4.28
445.151	4.32
445.356	4.37
445.56	4.21
445.764	4.15
445.968	4.27
446.173	4.22
446.377	4.16
446.581	4.01
446.785	3.94
446.989	3.94
447.193	3.96
447.398	3.91
447.602	3.83
447.806	4.01
448.01	3.98
448.214	3.84
448.418	3.87
448.622	3.84
448.826	3.93
449.03	3.99
449.234	3.78
449.438	3.75
449.642	3.68
449.846	3.57
450.05	3.38
450.254	3.37
450.458	3.38
450.662	3.26
450.866	3.28
451.069	3.33
451.273	3.47
451.477	3.58
451.681	3.69
451.885	3.72
452.089	3.73
452.292	3.79
452.496	3.8
452.7	3.8
452.904	3.81
453.107	3.64
453.311	3.61
453.515	3.39
453.719	3.35
453.922	3.21
454.126	3.29
454.33	3.34
454.533	3.37
454.737	3.56
454.94	3.45
455.144	3.35
455.348	3.37
455.551	3.36
455.755	3.46
455.958	3.3
456.162	3.08
456.365	3
456.569	2.89
456.772	2.95
456.976	2.67
457.179	2.69
457.383	2.9
457.586	2.79
457.79	2.83
457.993	2.61
458.196	2.7
458.4	2.91
458.603	3.02
458.807	3.21
459.01	3.13
459.213	3.31
459.417	3.3
459.62	3.39
459.823	3.56
460.026	3.51
460.23	3.6
460.433	3.61
460.636	3.53
460.839	3.55
461.042	3.49
461.246	3.49
461.449	3.35
461.652	3.36
461.855	3.26
462.058	3.22
462.261	3.16
462.464	3.3
462.668	3.43
462.871	3.6
463.074	3.48
