Data from CB_077_Reflection_1.txt Node
Date: Sat Nov 14 11:37:08 EST 2015
User: robert
Spectrometer: USB4E03001
Autoset integration time: false
Trigger mode: 4
Integration Time (sec): 1.000000E-1
Scans to average: 15
Electric dark correction enabled: true
Nonlinearity correction enabled: false
Boxcar width: 5
Stray light correction enabled: false
XAxis mode: Wavelengths
Stop averaging: false
Number of Pixels in Spectrum: 3648
>>>>>Begin Spectral Data<<<<<
177.566	-339.74
177.785	-527.44
178.005	-1811.11
178.225	-299.08
178.445	-257.98
178.665	-411.79
178.885	-62.65
179.105	-195.53
179.324	-324.65
179.544	-650.03
179.764	-184.91
179.984	-272.15
180.204	-278.64
180.423	-988.46
180.643	-574.67
180.863	-828.44
181.083	-3495.84
181.302	-14346.83
181.522	1682.06
181.742	1756.95
181.961	2071.46
182.181	318
182.401	230.25
182.621	451.01
182.84	1739.04
183.06	-5039.32
183.279	-676.45
183.499	-441.69
183.719	-639.54
183.938	-388.21
184.158	-313.1
184.377	-279.3
184.597	-158.59
184.816	-94.2
185.036	-150.18
185.256	-222.07
185.475	-525.19
185.695	-347.72
185.914	-362.25
186.134	-312.4
186.353	-404.61
186.572	-343.83
186.792	-1069.71
187.011	6082.35
187.231	-3940.26
187.45	-739.15
187.67	-2613.95
187.889	936.46
188.108	516.16
188.328	421.25
188.547	302.25
188.766	259.22
188.986	227.18
189.205	200.73
189.424	230.96
189.644	216.02
189.863	281.34
190.082	332.68
190.302	519.76
190.521	402.04
190.74	387.08
190.959	1663.89
191.178	1437.94
191.398	1015.04
191.617	3059.85
191.836	11361.29
192.055	2142.79
192.274	620.17
192.494	840.72
192.713	32605.36
192.932	-3270.95
193.151	604025
193.37	850.65
193.589	-19954.87
193.808	-1829.04
194.027	-2944.69
194.246	5767.08
194.465	-4123.24
194.685	913.81
194.904	1064.18
195.123	675.39
195.342	558.95
195.561	491.65
195.78	1540
195.999	3732.63
196.218	1733.6
196.436	1215.42
196.655	633.15
196.874	350.77
197.093	696.97
197.312	513.61
197.531	883.84
197.75	1169.04
197.969	3097.46
198.188	532.16
198.407	340.44
198.625	390.44
198.844	488.3
199.063	489.71
199.282	1025.72
199.501	-5350
199.719	-2753.88
199.938	1296.51
200.157	827.27
200.376	-4956.89
200.594	-384.6
200.813	-1123.66
201.032	-2920.24
201.251	-1327.45
201.469	-1920.35
201.688	-3185.83
201.907	5428.5
202.125	1678.45
202.344	6201.82
202.563	31455.07
202.781	1762.61
203	526.1
203.218	405.18
203.437	671.02
203.656	531.91
203.874	1323.49
204.093	1265.03
204.311	778.68
204.53	2328.48
204.748	616.78
204.967	900.43
205.185	701.12
205.404	857.9
205.622	1170.16
205.841	558.77
206.059	440.39
206.278	358.03
206.496	540.85
206.715	803.05
206.933	586.24
207.151	687.43
207.37	475.52
207.588	552.4
207.806	596.54
208.025	779.55
208.243	1241.64
208.461	-92568.18
208.68	2528.89
208.898	1068.1
209.116	641.19
209.335	479.03
209.553	449.59
209.771	346.45
209.989	335.75
210.208	285.12
210.426	248.96
210.644	216.63
210.862	192.95
211.081	190.52
211.299	160.68
211.517	203.9
211.735	167.22
211.953	156.24
212.171	198.36
212.39	192.65
212.608	213.38
212.826	201.22
213.044	203.11
213.262	203.53
213.48	208.88
213.698	331.58
213.916	184.35
214.134	351.43
214.352	593.95
214.57	322.73
214.788	270.55
215.006	216.53
215.224	436.29
215.442	1233.43
215.66	2673.81
215.878	869.18
216.096	275.69
216.314	786.07
216.532	3142.89
216.75	-1028.22
216.968	-1372.91
217.185	-12350.44
217.403	3046.18
217.621	-191466.67
217.839	-1181.24
218.057	-40287.5
218.275	-1389.71
218.492	-323.99
218.71	-5630.56
218.928	3255.7
219.146	1796.01
219.363	1011.87
219.581	1160.11
219.799	-6433.33
220.017	645.95
220.234	780.06
220.452	778.82
220.67	1164.76
220.887	416.04
221.105	689.4
221.323	385.04
221.54	259.61
221.758	248.95
221.976	230
222.193	155.9
222.411	144.05
222.629	145.58
222.846	128.14
223.064	119.68
223.281	139.44
223.499	133.28
223.716	134.1
223.934	130.52
224.151	134.13
224.369	136.32
224.586	150.71
224.804	183.85
225.021	169.86
225.239	171.17
225.456	153.73
225.674	131.44
225.891	135.97
226.108	120.25
226.326	114.8
226.543	112.44
226.76	90.69
226.978	81.03
227.195	86.27
227.413	75.66
227.63	75.48
227.847	76.91
228.064	72.57
228.282	64.26
228.499	62.14
228.716	56.21
228.934	52.5
229.151	53.63
229.368	50.35
229.585	44.05
229.802	43.77
230.02	43.47
230.237	42.43
230.454	45.01
230.671	47.62
230.888	46.82
231.105	52.63
231.323	53.88
231.54	55.65
231.757	58.21
231.974	63.18
232.191	66.53
232.408	57.84
232.625	62.14
232.842	57.19
233.059	59.57
233.276	57.71
233.493	53.48
233.71	50.27
233.927	47.99
234.144	48.04
234.361	43.37
234.578	42.34
234.795	46.2
235.012	40.73
235.229	42.09
235.446	35.38
235.663	40.7
235.879	44.17
236.096	50.44
236.313	51.95
236.53	48.27
236.747	58.32
236.964	57.56
237.181	58.92
237.397	57.83
237.614	67.18
237.831	78.9
238.048	79.27
238.264	74.04
238.481	62.08
238.698	64.62
238.915	70.69
239.131	58.76
239.348	57.37
239.565	52.1
239.781	54.09
239.998	45.83
240.215	40.5
240.431	36.18
240.648	36.96
240.865	39.35
241.081	34.76
241.298	28.57
241.514	29.45
241.731	26.48
241.947	27.66
242.164	26.38
242.38	24.09
242.597	23.99
242.814	24.43
243.03	25.64
243.246	26.49
243.463	27.43
243.679	29.01
243.896	28.79
244.112	30.28
244.329	32.82
244.545	35.25
244.762	33.96
244.978	34.3
245.194	31.45
245.411	30.54
245.627	26.88
245.843	26.68
246.06	25.45
246.276	26.13
246.492	25.35
246.709	23.61
246.925	21.58
247.141	22.65
247.357	22.18
247.574	22.46
247.79	21.47
248.006	20.49
248.222	20.75
248.439	21.72
248.655	21.38
248.871	21.13
249.087	22.2
249.303	24.48
249.519	24.84
249.736	25.59
249.952	27.9
250.168	32.73
250.384	35.22
250.6	35.75
250.816	36.65
251.032	36.58
251.248	37.66
251.464	39.11
251.68	36.11
251.896	34.26
252.112	34.66
252.328	31.67
252.544	30.18
252.76	31.58
252.976	30.23
253.192	28.48
253.408	27.65
253.624	29.57
253.84	28.47
254.056	32.48
254.272	33.68
254.487	31.88
254.703	32.43
254.919	30.58
255.135	32.11
255.351	38.8
255.567	38.74
255.782	41.32
255.998	41.5
256.214	37.93
256.43	33.54
256.646	36.92
256.861	40.96
257.077	43.08
257.293	42.08
257.508	38.12
257.724	31.8
257.94	29.87
258.155	27.87
258.371	24.14
258.587	23.44
258.802	21.96
259.018	18.72
259.234	17.12
259.449	16.35
259.665	16.23
259.88	16.85
260.096	17.28
260.312	16.95
260.527	16.78
260.743	16.66
260.958	16.91
261.174	17.33
261.389	18.98
261.605	18.66
261.82	18.82
262.036	19.21
262.251	18.78
262.466	19.18
262.682	20.22
262.897	21.09
263.113	21.13
263.328	21.12
263.543	20.74
263.759	22.84
263.974	24.25
264.189	23.4
264.405	21.92
264.62	23.34
264.835	22.51
265.051	22.71
265.266	22.99
265.481	27.47
265.696	29.58
265.912	28.25
266.127	23.04
266.342	22.19
266.557	23.02
266.773	22.83
266.988	21.96
267.203	23.19
267.418	22.6
267.633	23.54
267.848	20.59
268.064	16.76
268.279	17
268.494	16.53
268.709	15.64
268.924	16.14
269.139	14.28
269.354	14.78
269.569	10.9
269.784	10.84
269.999	8.97
270.214	9.1
270.429	9.42
270.644	10.29
270.859	11.29
271.074	12.28
271.289	12.91
271.504	14.46
271.719	14.35
271.934	16.18
272.149	15.97
272.363	16.2
272.578	15.73
272.793	15.32
273.008	15.89
273.223	15.12
273.438	14.69
273.653	13.89
273.867	14.22
274.082	14.44
274.297	14.66
274.512	15.46
274.726	15.03
274.941	15.48
275.156	19.31
275.371	19.18
275.585	21.75
275.8	22.62
276.015	20.99
276.229	22.04
276.444	21.91
276.659	20.73
276.873	19.66
277.088	21.7
277.302	23.41
277.517	20.06
277.732	19.72
277.946	17.62
278.161	18.72
278.375	19.61
278.59	17.87
278.804	17.51
279.019	19.27
279.233	20.15
279.448	16.84
279.662	14.31
279.877	15.62
280.091	13.59
280.306	15.31
280.52	13.3
280.735	12.85
280.949	14.16
281.163	14.77
281.378	14.9
281.592	15.59
281.806	16.35
282.021	16.54
282.235	16.97
282.449	19.67
282.664	18.85
282.878	19.4
283.092	19.43
283.307	19.14
283.521	17.88
283.735	18.13
283.949	17.14
284.164	16.81
284.378	16.76
284.592	15.73
284.806	14.98
285.02	14.31
285.234	12.98
285.449	13.25
285.663	13.53
285.877	13.82
286.091	12.39
286.305	12.81
286.519	13.72
286.733	14.67
286.947	15.58
287.161	14.99
287.375	14.77
287.589	16.06
287.803	17.11
288.017	16.48
288.231	16.24
288.445	17.59
288.659	17.88
288.873	18.03
289.087	17.6
289.301	18
289.515	17.26
289.729	18.02
289.943	19.1
290.157	19.1
290.371	19.95
290.584	20.26
290.798	20.36
291.012	20.84
291.226	19.75
291.44	19.74
291.654	18.54
291.867	18.99
292.081	18.85
292.295	18.47
292.509	19.17
292.722	18.09
292.936	17.62
293.15	16.21
293.364	14.39
293.577	15.64
293.791	17.13
294.005	16.61
294.218	17.4
294.432	18.3
294.645	17.71
294.859	17.09
295.073	18.07
295.286	18.55
295.5	18.99
295.713	18.53
295.927	18.02
296.14	15.97
296.354	16.29
296.568	15.83
296.781	14.71
296.994	15.16
297.208	14.57
297.421	14.08
297.635	15.03
297.848	15.1
298.062	15.08
298.275	15.01
298.489	15.67
298.702	16.65
298.915	16.21
299.129	16.73
299.342	16.2
299.555	16.95
299.769	16.85
299.982	16.61
300.195	17.04
300.409	17.91
300.622	18.22
300.835	17.55
301.048	16.86
301.262	18.91
301.475	19.92
301.688	19.55
301.901	20.13
302.115	20.97
302.328	21.27
302.541	21.55
302.754	22.52
302.967	22.88
303.18	24.43
303.393	25.28
303.607	24.71
303.82	24.63
304.033	24.75
304.246	24.65
304.459	24.22
304.672	24.46
304.885	24.51
305.098	24.12
305.311	24.3
305.524	24.25
305.737	24.57
305.95	25.31
306.163	25.14
306.376	25.06
306.589	24.81
306.802	25.63
307.015	24.46
307.228	24.41
307.44	24.22
307.653	24.57
307.866	24.62
308.079	24.51
308.292	23.35
308.505	24.3
308.718	25.67
308.93	25.94
309.143	25.66
309.356	26.39
309.569	25.03
309.781	24.25
309.994	24.27
310.207	23.52
310.42	22.45
310.632	23.27
310.845	22.23
311.058	21.57
311.27	21.19
311.483	21.2
311.696	20.41
311.908	21.1
312.121	22.48
312.333	23.39
312.546	23.24
312.759	23.1
312.971	22.78
313.184	23.88
313.396	24.72
313.609	23.64
313.821	23.88
314.034	24.27
314.246	23.8
314.459	23.43
314.671	21.16
314.884	22.32
315.096	22.66
315.309	22.43
315.521	21.24
315.733	20.31
315.946	21
316.158	20.08
316.371	20.03
316.583	20.28
316.795	18.55
317.008	19.15
317.22	18.09
317.432	18.99
317.644	19.17
317.857	20.06
318.069	19.64
318.281	19.75
318.494	20.72
318.706	22.09
318.918	23.16
319.13	23.37
319.342	23.37
319.555	24.3
319.767	25.69
319.979	25.37
320.191	25.14
320.403	26.17
320.615	27.91
320.827	28.56
321.039	27.51
321.252	28.46
321.464	29.88
321.676	29.88
321.888	29.26
322.1	27.14
322.312	27.44
322.524	28.65
322.736	27.79
322.948	27.61
323.16	26.62
323.372	27.03
323.584	25.66
323.796	25.16
324.007	25.64
324.219	26.76
324.431	27.85
324.643	28.58
324.855	28.57
325.067	28.71
325.279	28.48
325.491	28.71
325.702	29.36
325.914	29.64
326.126	30.97
326.338	29.12
326.55	28.12
326.761	27.27
326.973	26.48
327.185	27.06
327.396	28.41
327.608	27.84
327.82	28.16
328.032	27.79
328.243	27.78
328.455	27.67
328.666	30.29
328.878	31.43
329.09	32.11
329.301	33.49
329.513	31.51
329.725	31.04
329.936	31.7
330.148	32.68
330.359	33.84
330.571	34.86
330.782	34.89
330.994	35.6
331.205	36.21
331.417	36.89
331.628	36.4
331.84	38.93
332.051	39.5
332.262	40.16
332.474	39.01
332.685	39.59
332.897	39.2
333.108	38.87
333.319	37.93
333.531	37.54
333.742	36.85
333.953	37.44
334.165	36.34
334.376	36.75
334.587	36.86
334.799	37.36
335.01	35.37
335.221	34.94
335.432	34.2
335.644	33.31
335.855	33.81
336.066	35.2
336.277	34.58
336.488	34.42
336.7	33.71
336.911	33.76
337.122	33.8
337.333	34.51
337.544	34.87
337.755	35.9
337.966	37.19
338.177	36.38
338.388	35.55
338.599	35.43
338.811	34.89
339.022	34.88
339.233	35.06
339.444	34.97
339.655	34.66
339.866	34.6
340.076	34.53
340.287	33.99
340.498	34.74
340.709	34.91
340.92	35.02
341.131	35.64
341.342	35.58
341.553	34.23
341.764	34.44
341.975	33.65
342.185	33.88
342.396	33.79
342.607	33.05
342.818	32.7
343.029	32.22
343.239	31.69
343.45	30.94
343.661	30.97
343.872	31.73
344.082	31.76
344.293	33.92
344.504	33.78
344.714	33.96
344.925	34.99
345.136	34.4
345.346	32.83
345.557	33.11
345.768	33.71
345.978	34.26
346.189	33.5
346.399	32.74
346.61	31.63
346.821	31.71
347.031	31.81
347.242	31.35
347.452	31.73
347.663	33.25
347.873	34.09
348.084	34.53
348.294	33.91
348.504	34.33
348.715	35.14
348.925	35.03
349.136	33.87
349.346	33.72
349.557	34.17
349.767	34.88
349.977	35.12
350.188	34.33
350.398	34.96
350.608	34.89
350.819	35.2
351.029	34.72
351.239	35.3
351.449	35.98
351.66	35.75
351.87	35.58
352.08	34.95
352.29	34.02
352.501	33.66
352.711	32.74
352.921	33.21
353.131	31.95
353.341	32.22
353.552	30.53
353.762	30.11
353.972	29.92
354.182	30.55
354.392	30.7
354.602	31.4
354.812	31.65
355.022	30.68
355.232	30.76
355.442	32.12
355.652	31.36
355.862	31.88
356.072	32.83
356.282	32.51
356.492	31.36
356.702	31.07
356.912	31.15
357.122	31.77
357.332	32.07
357.542	31.57
357.752	31.14
357.962	31.63
358.171	31.86
358.381	31.95
358.591	31.74
358.801	32.03
359.011	32
359.221	31.73
359.43	30.83
359.64	30.54
359.85	29.7
360.06	29.79
360.269	29.81
360.479	29.96
360.689	29.53
360.899	29.59
361.108	30.01
361.318	29.17
361.528	28.89
361.737	29.37
361.947	29.64
362.156	30.05
362.366	29.72
362.576	29.62
362.785	29.03
362.995	28.66
363.204	29.06
363.414	29.04
363.623	29.43
363.833	29.95
364.042	29.42
364.252	29.67
364.461	29.77
364.671	30.11
364.88	29.85
365.09	31.14
365.299	31.32
365.509	31.21
365.718	30.19
365.927	30.72
366.137	30.69
366.346	30.6
366.555	30.09
366.765	30.27
366.974	29.92
367.183	29.23
367.393	27.43
367.602	27.18
367.811	27.17
368.021	27.62
368.23	27.31
368.439	26.84
368.648	26.98
368.857	27.09
369.067	26.94
369.276	27.06
369.485	27.74
369.694	29.24
369.903	29.32
370.112	29.02
370.321	28.11
370.531	27.74
370.74	27.64
370.949	27.36
371.158	27.28
371.367	27.53
371.576	27.01
371.785	26.81
371.994	26.19
372.203	26.33
372.412	25.88
372.621	26.85
372.83	27.07
373.039	27.35
373.248	27.05
373.457	27.19
373.666	26.26
373.874	26.21
374.083	25.92
374.292	25.89
374.501	25.71
374.71	25.66
374.919	24.91
375.128	24.7
375.336	24.61
375.545	25.16
375.754	25.2
375.963	25.31
376.171	25.11
376.38	25.56
376.589	25.36
376.798	24.8
377.006	25.13
377.215	25.44
377.424	24.88
377.632	24.07
377.841	23.73
378.05	23.33
378.258	23.01
378.467	22.5
378.675	22.02
378.884	22.26
379.093	22.42
379.301	22.22
379.51	22.07
379.718	22.6
379.927	22.93
380.135	22.96
380.344	22.27
380.552	22.72
380.761	23.27
380.969	23.39
381.177	22.5
381.386	22.92
381.594	22.42
381.803	22.3
382.011	22.02
382.219	22
382.428	21.5
382.636	21.73
382.845	21.2
383.053	21.26
383.261	21.13
383.469	21.55
383.678	21.48
383.886	21.49
384.094	21.62
384.302	21.84
384.511	21.71
384.719	21.72
384.927	21.83
385.135	22.08
385.343	21.84
385.552	22.05
385.76	21.61
385.968	21.06
386.176	20.95
386.384	20.39
386.592	19.93
386.8	20.28
387.008	20.34
387.216	20.62
387.424	20.71
387.633	20.96
387.841	20.87
388.049	21.31
388.257	21.28
388.465	21.2
388.672	21.41
388.88	21.83
389.088	21.34
389.296	21.27
389.504	20.83
389.712	20.54
389.92	19.95
390.128	19.82
390.336	19.37
390.544	19.32
390.751	19.67
390.959	19.8
391.167	19.12
391.375	19.42
391.583	19.42
391.79	19.53
391.998	19.71
392.206	20.11
392.414	19.63
392.621	19.74
392.829	19.64
393.037	19.05
393.244	18.57
393.452	18.73
393.66	18.29
393.867	18.3
394.075	17.73
394.283	17.58
394.49	17.06
394.698	17.01
394.905	16.92
395.113	17.2
395.32	17.64
395.528	17.42
395.735	17.29
395.943	17.57
396.15	17.59
396.358	17.87
396.565	17.71
396.773	17.89
396.98	18.13
397.188	17.91
397.395	17.83
397.602	17.82
397.81	17.88
398.017	17.92
398.225	17.82
398.432	17.64
398.639	17.43
398.847	17.39
399.054	17.41
399.261	17.15
399.468	17.02
399.676	16.88
399.883	16.28
400.09	16.84
400.297	16.88
400.505	16.9
400.712	16.95
400.919	17.03
401.126	16.89
401.333	16.61
401.54	16.85
401.748	16.81
401.955	16.63
402.162	16.94
402.369	16.58
402.576	16.53
402.783	16.03
402.99	15.86
403.197	15.67
403.404	15.49
403.611	15.34
403.818	15.39
404.025	15.61
404.232	15.67
404.439	15.56
404.646	15.27
404.853	15.29
405.06	15.29
405.267	15.45
405.474	15.68
405.681	15.92
405.887	16.09
406.094	15.84
406.301	15.89
406.508	15.85
406.715	16.23
406.922	16.39
407.128	16.5
407.335	16.65
407.542	16.59
407.749	16.39
407.955	16.49
408.162	16.59
408.369	16.6
408.575	16.53
408.782	16.8
408.989	16.31
409.195	16.14
409.402	16.27
409.609	15.82
409.815	15.77
410.022	16
410.228	15.94
410.435	16.21
410.642	16.4
410.848	16.17
411.055	15.84
411.261	16.08
411.468	16.48
411.674	16.26
411.881	16.49
412.087	16.3
412.294	16.38
412.5	16.3
412.706	16.06
412.913	16.15
413.119	16.3
413.326	16.2
413.532	16.07
413.738	15.85
413.945	15.21
414.151	15.59
414.357	15.79
414.564	15.63
414.77	15.67
414.976	15.65
415.182	15.51
415.389	15.26
415.595	15.08
415.801	14.89
416.007	15
416.214	15.28
416.42	15.02
416.626	14.75
416.832	14.76
417.038	14.51
417.244	14.43
417.45	14.22
417.657	14.49
417.863	14.47
418.069	14.68
418.275	14.45
418.481	14.46
418.687	14.5
418.893	14.49
419.099	14.35
419.305	14.26
419.511	14.23
419.717	14.1
419.923	13.83
420.129	13.87
420.335	13.79
420.541	13.94
420.746	13.87
420.952	13.74
421.158	13.67
421.364	13.57
421.57	13.65
421.776	13.45
421.982	13.61
422.187	13.64
422.393	13.52
422.599	13.5
422.805	13.4
423.01	13.47
423.216	13.56
423.422	13.7
423.628	13.81
423.833	13.7
424.039	13.82
424.245	13.75
424.45	13.73
424.656	13.87
424.862	13.79
425.067	13.72
425.273	13.76
425.478	13.81
425.684	13.78
425.889	13.94
426.095	14.03
426.301	14.07
426.506	13.93
426.712	14.09
426.917	14.21
427.123	14.21
427.328	14.18
427.533	14.07
427.739	14.28
427.944	14.19
428.15	14.13
428.355	14.05
428.561	14.16
428.766	14.46
428.971	14.22
429.177	14.21
429.382	14.42
429.587	14.54
429.793	14.73
429.998	14.38
430.203	14.41
430.408	14.31
430.614	14.36
430.819	14.29
431.024	14.11
431.229	14.4
431.434	14.23
431.64	13.94
431.845	14.13
432.05	14.13
432.255	14.1
432.46	14.07
432.665	13.9
432.87	13.93
433.076	13.9
433.281	13.94
433.486	13.72
433.691	13.74
433.896	13.83
434.101	13.6
434.306	13.49
434.511	13.48
434.716	13.49
434.921	13.67
435.126	13.75
435.331	13.64
435.535	13.58
435.74	13.59
435.945	13.45
436.15	13.46
436.355	13.53
436.56	13.5
436.765	13.61
436.97	13.51
437.174	13.54
437.379	13.46
437.584	13.71
437.789	13.77
437.993	13.91
438.198	14.07
438.403	14.17
438.608	14.12
438.812	14.1
439.017	13.93
439.222	13.95
439.426	13.75
439.631	13.67
439.836	13.55
440.04	13.49
440.245	13.34
440.45	13.34
440.654	13.25
440.859	13.29
441.063	13.28
441.268	13.45
441.472	13.51
441.677	13.48
441.881	13.41
442.086	13.41
442.29	13.4
442.495	13.42
442.699	13.28
442.904	13.14
443.108	13.19
443.312	13.3
443.517	13.16
443.721	13.09
443.925	13.16
444.13	13.29
444.334	13.26
444.538	13.44
444.743	13.64
444.947	13.6
445.151	13.69
445.356	13.66
445.56	13.56
445.764	13.5
445.968	13.61
446.173	13.52
446.377	13.52
446.581	13.51
446.785	13.36
446.989	13.24
447.193	13.33
447.398	13.39
447.602	13.22
447.806	13.15
448.01	13.21
448.214	13.1
448.418	13.06
448.622	13.03
448.826	12.87
449.03	12.92
449.234	12.92
449.438	12.93
449.642	12.83
449.846	12.99
450.05	13.09
450.254	12.89
450.458	12.7
450.662	12.96
450.866	12.84
451.069	13.12
451.273	13.02
451.477	13.11
451.681	13.06
451.885	12.93
452.089	12.9
452.292	12.78
