Data from CB_028_Reflection_3.txt Node
Date: Wed Nov 11 20:42:32 EST 2015
User: robert
Spectrometer: USB4E03001
Autoset integration time: false
Trigger mode: 4
Integration Time (sec): 1.000000E-1
Scans to average: 15
Electric dark correction enabled: true
Nonlinearity correction enabled: false
Boxcar width: 5
Stray light correction enabled: false
XAxis mode: Wavelengths
Stop averaging: false
Number of Pixels in Spectrum: 3648
>>>>>Begin Spectral Data<<<<<
177.566	-216.83
177.785	-325.05
178.005	882.29
178.225	-290.7
178.445	-392.69
178.665	911.76
178.885	7.33
179.105	3776.09
179.324	320.36
179.544	491.56
179.764	-556.8
179.984	-664.37
180.204	19442.5
180.423	325.5
180.643	-962.72
180.863	2092.34
181.083	315.18
181.302	791.97
181.522	855.21
181.742	-2351.86
181.961	-482.92
182.181	-2896.62
182.401	2087.5
182.621	-311.6
182.84	-377.76
183.06	-295.75
183.279	-539.58
183.499	-218.79
183.719	-177.75
183.938	-132.36
184.158	-132.55
184.377	-83.89
184.597	-182.92
184.816	-128.97
185.036	-197.34
185.256	-93.43
185.475	-143.52
185.695	-118.93
185.914	-213.38
186.134	-2233.14
186.353	4185.79
186.572	474.42
186.792	475.3
187.011	1240.13
187.231	1796.89
187.45	674.16
187.67	455.96
187.889	363.2
188.108	315.34
188.328	444.18
188.547	784.78
188.766	1019.68
188.986	5075.33
189.205	6524.77
189.424	1663.25
189.644	614.39
189.863	586.08
190.082	2448.08
190.302	353.79
190.521	365.76
190.74	192.95
190.959	166.48
191.178	158.37
191.398	112.41
191.617	94.72
191.836	203.29
192.055	121.5
192.274	225.03
192.494	351.48
192.713	720.97
192.932	1471.29
193.151	-134.74
193.37	-130.6
193.589	-190.38
193.808	-377.04
194.027	-369.54
194.246	-799.73
194.465	-214.66
194.685	-574.63
194.904	665.95
195.123	-399.42
195.342	-0.79
195.561	-0.32
195.78	-166.99
195.999	-29.03
196.218	5.48
196.436	-557.52
196.655	1090.6
196.874	716.29
197.093	1271.03
197.312	-440.66
197.531	1464.05
197.75	670.09
197.969	864.12
198.188	1542.58
198.407	632.59
198.625	596.58
198.844	703.13
199.063	-2486.23
199.282	-973.65
199.501	-742.98
199.719	-1030.68
199.938	-864.58
200.157	5332.06
200.376	-428.24
200.594	-1175.94
200.813	-597.02
201.032	685.34
201.251	560.38
201.469	669.95
201.688	438.29
201.907	1029.94
202.125	824.31
202.344	2597.98
202.563	993.21
202.781	936.83
203	562.09
203.218	230.84
203.437	608.62
203.656	955.94
203.874	665.72
204.093	1783.38
204.311	987.46
204.53	290.11
204.748	447.85
204.967	729.75
205.185	11269.52
205.404	-403.48
205.622	-164.6
205.841	-109.93
206.059	-81.19
206.278	-34.33
206.496	-72.73
206.715	-227.04
206.933	-135.74
207.151	-225.4
207.37	-206.26
207.588	-455.05
207.806	-209.18
208.025	-251.17
208.243	425.09
208.461	321.63
208.68	286.32
208.898	-2154.79
209.116	-206.96
209.335	-827.19
209.553	-75.21
209.771	-420.37
209.989	399.9
210.208	105.81
210.426	146.29
210.644	253.91
210.862	271.63
211.081	231.96
211.299	203.84
211.517	155.85
211.735	526.03
211.953	233.91
212.171	335.61
212.39	-2682.35
212.608	-384.41
212.826	-270.44
213.044	-193.33
213.262	-229.28
213.48	-169.41
213.698	-156.75
213.916	-363
214.134	-398.97
214.352	-310.52
214.57	-137.03
214.788	-333.95
215.006	-505.5
215.224	281.95
215.442	785.61
215.66	424.12
215.878	437.69
216.096	302.11
216.314	371.31
216.532	698.58
216.75	1532.79
216.968	509.92
217.185	285.64
217.403	255.99
217.621	624.81
217.839	222.05
218.057	407.39
218.275	869.25
218.492	-1254.22
218.71	424.79
218.928	263.08
219.146	250.88
219.363	1090.2
219.581	-630.55
219.799	-160.04
220.017	-326.79
220.234	-295.05
220.452	-346.25
220.67	-595.31
220.887	4467.18
221.105	-718.78
221.323	-160.38
221.54	-157.03
221.758	-523.41
221.976	-208.56
222.193	-201
222.411	-160.64
222.629	-144.69
222.846	-210
223.064	-117.05
223.281	-79.67
223.499	-68.65
223.716	-117.36
223.934	-113.05
224.151	-91.75
224.369	-103.31
224.586	-70.25
224.804	-61.9
225.021	-64.64
225.239	-78.3
225.456	-110.54
225.674	-65.96
225.891	-72.47
226.108	-87.99
226.326	-75.51
226.543	-37.2
226.76	-7.18
226.978	-10.54
227.195	-6.89
227.413	11.4
227.63	13.22
227.847	11.58
228.064	6.73
228.282	2.62
228.499	5.7
228.716	5.02
228.934	3.98
229.151	0.72
229.368	0.88
229.585	1.91
229.802	-5.6
230.02	-10.51
230.237	-11.66
230.454	-12.94
230.671	-17.2
230.888	-14.73
231.105	-11.85
231.323	-13.84
231.54	-19.24
231.757	-23.14
231.974	-29.64
232.191	-19.71
232.408	-13.53
232.625	-12.53
232.842	-12.49
233.059	-10.09
233.276	-13.88
233.493	-21.87
233.71	-27.18
233.927	-20.05
234.144	-26.44
234.361	-23.75
234.578	-26.68
234.795	-36.77
235.012	-40.85
235.229	-44.61
235.446	-42.79
235.663	-53.59
235.879	-52.71
236.096	-36.13
236.313	-46.03
236.53	-39.83
236.747	-32.61
236.964	-29.34
237.181	-19.76
237.397	-18.25
237.614	-23.03
237.831	-24.4
238.048	-17.01
238.264	-19.79
238.481	-19.01
238.698	-16.24
238.915	-10.39
239.131	-13.97
239.348	-14.54
239.565	-9.84
239.781	-6.46
239.998	-1.84
240.215	4.43
240.431	2.9
240.648	0.97
240.865	-1.11
241.081	-2.14
241.298	-2.52
241.514	-2.21
241.731	-0.25
241.947	-3.06
242.164	-2.11
242.38	0.42
242.597	-1.61
242.814	-1.27
243.03	2.36
243.246	1.41
243.463	2.09
243.679	-0.51
243.896	-0.44
244.112	0.96
244.329	4.78
244.545	3.86
244.762	2.21
244.978	5.58
245.194	8.35
245.411	5.46
245.627	6.37
245.843	7.95
246.06	10.56
246.276	11.34
246.492	9.29
246.709	8.4
246.925	9.43
247.141	9.37
247.357	9.39
247.574	8.53
247.79	9.62
248.006	9.22
248.222	9.18
248.439	9.45
248.655	8.88
248.871	9.02
249.087	8.19
249.303	7.34
249.519	7.55
249.736	6.64
249.952	5.9
250.168	4
250.384	4.55
250.6	0.85
250.816	-1.34
251.032	-0.05
251.248	2.03
251.464	3.27
251.68	5
251.896	5.1
252.112	3.96
252.328	3.77
252.544	4.03
252.76	3.78
252.976	8.68
253.192	8.53
253.408	6.31
253.624	3.15
253.84	0.32
254.056	-2.66
254.272	-3.9
254.487	-5.18
254.703	-7.48
254.919	-6.65
255.135	-10.08
255.351	-22.79
255.567	-17.82
255.782	-14.28
255.998	-12.42
256.214	-10.16
256.43	-10.56
256.646	-7.83
256.861	-2.64
257.077	1.29
257.293	0.06
257.508	3.32
257.724	8.48
257.94	6.42
258.155	8.23
258.371	8.33
258.587	9.42
258.802	7.63
259.018	6.58
259.234	4.66
259.449	4.41
259.665	4.6
259.88	4.88
260.096	3.35
260.312	4.14
260.527	3
260.743	2.66
260.958	1.24
261.174	2.94
261.389	1.88
261.605	2.89
261.82	3.74
262.036	4.25
262.251	1.11
262.466	3.33
262.682	1.24
262.897	0.96
263.113	2.52
263.328	5.24
263.543	3.52
263.759	4.26
263.974	1.15
264.189	-2.92
264.405	-4.28
264.62	-1.28
264.835	-1.07
265.051	-3.11
265.266	-2.47
265.481	-4.06
265.696	-6.28
265.912	-6.39
266.127	-6.98
266.342	-5.47
266.557	-3.68
266.773	-3.38
266.988	-2.66
267.203	-4.95
267.418	-2.66
267.633	-2.64
267.848	-1.1
268.064	-0.29
268.279	0.52
268.494	0.85
268.709	2.03
268.924	1.48
269.139	1.87
269.354	0.26
269.569	0.53
269.784	2.1
269.999	2.95
270.214	1.82
270.429	1.78
270.644	2.11
270.859	2.67
271.074	2.44
271.289	3.11
271.504	2.82
271.719	3.05
271.934	3.25
272.149	2.82
272.363	1.65
272.578	2.49
272.793	2.45
273.008	1.65
273.223	1.32
273.438	-0.64
273.653	-0.82
273.867	-0.74
274.082	-1.37
274.297	-0.68
274.512	-1.71
274.726	-0.65
274.941	-2.23
275.156	-1.83
275.371	-2.29
275.585	-2.27
275.8	-1.43
276.015	-1.22
276.229	-0.74
276.444	1.22
276.659	-0.01
276.873	0.07
277.088	-0.06
277.302	-0.95
277.517	0.26
277.732	0.53
277.946	2.21
278.161	2.81
278.375	2.91
278.59	1.47
278.804	-0.97
279.019	-0.5
279.233	-0.24
279.448	1.02
279.662	2.22
279.877	1.63
280.091	3.18
280.306	3.81
280.52	5.66
280.735	4.48
280.949	6.27
281.163	7.96
281.378	9.92
281.592	8.94
281.806	6.86
282.021	7.58
282.235	6.15
282.449	4.07
282.664	3.16
282.878	2.99
283.092	3.32
283.307	1.91
283.521	1.92
283.735	-0.19
283.949	-0.23
284.164	0.71
284.378	1.13
284.592	1.62
284.806	1.7
285.02	1.57
285.234	1.12
285.449	0.42
285.663	0.42
285.877	0.92
286.091	0.7
286.305	1.4
286.519	1.49
286.733	1.61
286.947	2.51
287.161	3.91
287.375	4.28
287.589	4.14
287.803	4.93
288.017	6.48
288.231	5.62
288.445	7.39
288.659	7.82
288.873	7.72
289.087	6.32
289.301	5.26
289.515	5.51
289.729	5.74
289.943	5.8
290.157	6.56
290.371	5.95
290.584	6.87
290.798	6.58
291.012	6
291.226	5.73
291.44	5.85
291.654	5.22
291.867	5.16
292.081	5.28
292.295	4.43
292.509	3.7
292.722	3.03
292.936	3.78
293.15	2.58
293.364	3.13
293.577	4.43
293.791	5.2
294.005	7.56
294.218	7.52
294.432	7.78
294.645	8.52
294.859	9.01
295.073	9.49
295.286	8.94
295.5	9.52
295.713	9.43
295.927	9.09
296.14	9.03
296.354	8.32
296.568	7.88
296.781	7.47
296.994	7.5
297.208	7.8
297.421	8.07
297.635	7.92
297.848	7.54
298.062	7.87
298.275	9.32
298.489	9.71
298.702	9.51
298.915	10.13
299.129	9.59
299.342	10
299.555	9.34
299.769	8.96
299.982	9.5
300.195	9.74
300.409	10.15
300.622	7.79
300.835	7.26
301.048	8.46
301.262	7.71
301.475	8.18
301.688	7.14
301.901	7.02
302.115	6.63
302.328	5.75
302.541	7.3
302.754	6.79
302.967	7.74
303.18	7.81
303.393	6.44
303.607	6.55
303.82	7.29
304.033	7.55
304.246	7.15
304.459	7.65
304.672	8.3
304.885	8.06
305.098	8.22
305.311	8.43
305.524	8.31
305.737	9.88
305.95	10.8
306.163	10.31
306.376	10.82
306.589	11.52
306.802	12.6
307.015	12
307.228	11.28
307.44	10.37
307.653	9.49
307.866	8.82
308.079	7.53
308.292	6.04
308.505	5.26
308.718	5.06
308.93	4.93
309.143	3.85
309.356	4.89
309.569	4.98
309.781	5.38
309.994	5.52
310.207	6.2
310.42	7.16
310.632	8.27
310.845	9
311.058	10.11
311.27	11.07
311.483	10.86
311.696	11.27
311.908	10.81
312.121	11.3
312.333	11.71
312.546	11.92
312.759	10.98
312.971	10.33
313.184	10.71
313.396	10.3
313.609	11.6
313.821	12.35
314.034	11.61
314.246	12.14
314.459	11.37
314.671	11.15
314.884	11.6
315.096	11.6
315.309	12.9
315.521	12.22
315.733	11.57
315.946	9.15
316.158	8.83
316.371	8.93
316.583	9.17
316.795	10
317.008	11.05
317.22	10.47
317.432	9.85
317.644	8.49
317.857	9.96
318.069	12.06
318.281	12.8
318.494	11.78
318.706	11.51
318.918	10.93
319.13	9.77
319.342	8.69
319.555	8.72
319.767	10.05
319.979	10.56
320.191	9
320.403	6.03
320.615	6.3
320.827	6.6
321.039	6.5
321.252	7.06
321.464	7.31
321.676	7.74
321.888	9.23
322.1	9.91
322.312	9.75
322.524	9.61
322.736	11.1
322.948	9.69
323.16	10.18
323.372	11.88
323.584	12.5
323.796	13.62
324.007	13.9
324.219	13.26
324.431	12.65
324.643	12.97
324.855	14.52
325.067	15
325.279	16.85
325.491	16.89
325.702	16.58
325.914	15.56
326.126	14.52
326.338	15.05
326.55	15.34
326.761	16.14
326.973	16.86
327.185	16.96
327.396	16.29
327.608	16
327.82	16.77
328.032	15.21
328.243	15.21
328.455	17.08
328.666	16.97
328.878	17.35
329.09	17.26
329.301	17.47
329.513	17.09
329.725	19.41
329.936	19.72
330.148	19.95
330.359	21.2
330.571	21.69
330.782	20.72
330.994	19.51
331.205	19.07
331.417	19.34
331.628	18.41
331.84	19.3
332.051	17.26
332.262	17.57
332.474	16.92
332.685	16.26
332.897	16.91
333.108	18.57
333.319	19.03
333.531	19.38
333.742	19.6
333.953	20.23
334.165	19.91
334.376	19.95
334.587	18.75
334.799	19.5
335.01	19.93
335.221	20.87
335.432	20.45
335.644	21.07
335.855	20.63
336.066	20.05
336.277	19.38
336.488	18.97
336.7	19.89
336.911	20.28
337.122	19.24
337.333	19.49
337.544	18.64
337.755	17.88
337.966	17.87
338.177	17.71
338.388	18.53
338.599	19.45
338.811	19.39
339.022	19.1
339.233	18.97
339.444	19.94
339.655	19.97
339.866	20.08
340.076	20.66
340.287	20.12
340.498	20.69
340.709	19.21
340.92	19.17
341.131	19.72
341.342	19.46
341.553	20.11
341.764	20.73
341.975	20.47
342.185	21.28
342.396	21.55
342.607	22.53
342.818	21.96
343.029	23.51
343.239	23.46
343.45	23.86
343.661	24.41
343.872	24.13
344.082	23.97
344.293	24.72
344.504	24.45
344.714	23.98
344.925	24.05
345.136	23.44
345.346	22.67
345.557	22.37
345.768	21.57
345.978	21.78
346.189	21.7
346.399	21.6
346.61	21.34
346.821	20.91
347.031	20.93
347.242	20.46
347.452	21.28
347.663	21.93
347.873	22.15
348.084	21.96
348.294	21.4
348.504	21.44
348.715	21.34
348.925	21.52
349.136	21.86
349.346	21.27
349.557	21.15
349.767	21.71
349.977	21.41
350.188	20.61
350.398	20.55
350.608	20.97
350.819	21.32
351.029	21.95
351.239	21.26
351.449	21.49
351.66	21.45
351.87	21.83
352.08	21.65
352.29	21.73
352.501	22.47
352.711	22.93
352.921	21.7
353.131	21.99
353.341	20.72
353.552	21.39
353.762	21.15
353.972	21.2
354.182	20.12
354.392	19.31
354.602	19.76
354.812	19.37
355.022	19.47
355.232	20.18
355.442	19.63
355.652	19.57
355.862	19.28
356.072	19.97
356.282	20.19
356.492	20.7
356.702	21.2
356.912	20.62
357.122	20.41
357.332	21.01
357.542	20.95
357.752	21.15
357.962	22.06
358.171	21.66
358.381	20.87
358.591	20.46
358.801	20.39
359.011	20.73
359.221	20.56
359.43	20.49
359.64	19.98
359.85	20.37
360.06	19.77
360.269	20.06
360.479	20.69
360.689	20.5
360.899	20.68
361.108	20.94
361.318	20.55
361.528	20.75
361.737	20.66
361.947	20.91
362.156	20.8
362.366	20.69
362.576	20.05
362.785	19.45
362.995	19.8
363.204	19.63
363.414	19.72
363.623	19.68
363.833	19.27
364.042	19.7
364.252	19.5
364.461	18.41
364.671	18.45
364.88	18.03
365.09	17.93
365.299	17.86
365.509	18.36
365.718	17.6
365.927	17.67
366.137	18.02
366.346	18.18
366.555	17.59
366.765	17.92
366.974	18.55
367.183	18.13
367.393	18.74
367.602	18.17
367.811	17.83
368.021	18.01
368.23	17.85
368.439	18.06
368.648	17.95
368.857	18.2
369.067	18.13
369.276	18.32
369.485	18.76
369.694	17.97
369.903	17.98
370.112	17.75
370.321	17.82
370.531	17.69
370.74	17.9
370.949	18.17
371.158	18.33
371.367	18.22
371.576	17.71
371.785	17.97
371.994	18.74
372.203	18.97
372.412	19.25
372.621	19.58
372.83	19.24
373.039	17.89
373.248	17.4
373.457	17.08
373.666	17.25
373.874	17.03
374.083	16.71
374.292	15.52
374.501	15.57
374.71	15.64
374.919	15.38
375.128	15.19
375.336	15.95
375.545	16.33
375.754	16.38
375.963	16.14
376.171	16
376.38	15.94
376.589	16.14
376.798	15.62
377.006	15.67
377.215	15.59
377.424	15.87
377.632	15.36
377.841	14.77
378.05	14.78
378.258	15
378.467	15.32
378.675	15.33
378.884	15.69
379.093	15.47
379.301	15.01
379.51	14.63
379.718	14.91
379.927	15.07
380.135	14.83
380.344	14.69
380.552	14.68
380.761	14.27
380.969	14.26
381.177	14.15
381.386	14.56
381.594	14.66
381.803	14.37
382.011	13.86
382.219	14.42
382.428	14.62
382.636	14.02
382.845	13.63
383.053	13.67
383.261	13.51
383.469	13.2
383.678	13.42
383.886	13.3
384.094	13.64
384.302	13.97
384.511	13.48
384.719	13.82
384.927	13.88
385.135	13.99
385.343	13.95
385.552	13.8
385.76	13.88
385.968	13.75
386.176	13.65
386.384	13.56
386.592	13.01
386.8	12.83
387.008	12.32
387.216	12.09
387.424	12.06
387.633	12.17
387.841	12.28
388.049	11.92
388.257	11.87
388.465	12.31
388.672	12.16
388.88	12.11
389.088	12.22
389.296	12.27
389.504	12.83
389.712	12.87
389.92	12.57
390.128	12.5
390.336	12.48
390.544	11.67
390.751	10.99
390.959	10.78
391.167	11.12
391.375	10.92
391.583	11.04
391.79	10.69
391.998	10.53
392.206	10.73
392.414	10.93
392.621	10.79
392.829	11.51
393.037	11.56
393.244	11.67
393.452	11.09
393.66	11.12
393.867	10.79
394.075	11.08
394.283	10.58
394.49	10.39
394.698	10.13
394.905	10.3
395.113	10.04
395.32	10.25
395.528	10.16
395.735	10.29
395.943	10.18
396.15	10.16
396.358	9.66
396.565	10.16
396.773	9.91
396.98	9.9
397.188	10.24
397.395	10.13
397.602	10.03
397.81	9.98
398.017	9.96
398.225	10.02
398.432	10.14
398.639	10.59
398.847	10.13
399.054	10.9
399.261	10.74
399.468	10.31
399.676	10.46
399.883	10.53
400.09	10.44
400.297	10.75
400.505	10.96
400.712	10.69
400.919	10.43
401.126	10.91
401.333	10.45
401.54	10.64
401.748	10.45
401.955	10.05
402.162	10.03
402.369	9.77
402.576	9.68
402.783	9.45
402.99	9.43
403.197	9.78
403.404	9.77
403.611	9.74
403.818	9.81
404.025	10.13
404.232	10.29
404.439	10.13
404.646	10.3
404.853	10.17
405.06	10.17
405.267	10.38
405.474	10.04
405.681	10.04
405.887	9.93
406.094	9.78
406.301	9.81
406.508	9.91
406.715	10.16
406.922	10.23
407.128	10.2
407.335	9.99
407.542	9.74
407.749	9.8
407.955	9.55
408.162	9.7
408.369	9.78
408.575	9.78
408.782	9.61
408.989	9.32
409.195	9.43
409.402	9.55
409.609	9.45
409.815	9.38
410.022	9.29
410.228	9.46
410.435	8.9
410.642	8.85
410.848	8.63
411.055	8.5
411.261	8.55
411.468	8.32
411.674	8.34
411.881	8.68
412.087	8.92
412.294	9.01
412.5	8.93
412.706	9.29
412.913	9.26
413.119	9.44
413.326	9.43
413.532	9.37
413.738	9.52
413.945	9.55
414.151	9.42
414.357	9.33
414.564	9.17
414.77	9.29
414.976	9.02
415.182	8.86
415.389	9.1
415.595	9.14
415.801	9.16
416.007	9.25
416.214	9.43
416.42	9.57
416.626	9.55
416.832	9.63
417.038	9.56
417.244	9.92
417.45	10.14
417.657	9.85
417.863	9.99
418.069	10.07
418.275	9.94
418.481	9.77
418.687	9.59
418.893	9.67
419.099	9.7
419.305	9.75
419.511	9.61
419.717	9.58
419.923	9.54
420.129	9.66
420.335	9.53
420.541	9.62
420.746	9.56
420.952	9.49
421.158	9.31
421.364	9.24
421.57	9.19
421.776	9.29
421.982	9.22
422.187	9.26
422.393	9.01
422.599	9.01
422.805	8.98
423.01	8.95
423.216	8.96
423.422	9.02
423.628	9.07
423.833	9.18
424.039	8.93
424.245	8.95
424.45	8.95
424.656	9.04
424.862	9.01
425.067	8.85
425.273	8.92
425.478	9.11
425.684	9.15
425.889	9.03
426.095	8.81
426.301	8.82
426.506	8.75
426.712	8.7
426.917	8.63
427.123	8.89
427.328	9.14
427.533	9.15
427.739	8.94
427.944	8.66
428.15	8.71
428.355	8.69
428.561	8.64
428.766	8.56
428.971	8.61
429.177	8.49
429.382	8.12
429.587	8.03
429.793	7.9
429.998	7.82
430.203	8.11
430.408	8.16
430.614	8.33
430.819	8.47
431.024	8.47
431.229	8.32
431.434	8.57
431.64	8.65
431.845	8.69
432.05	8.71
432.255	8.99
432.46	9.01
432.665	9.05
432.87	8.93
433.076	8.93
433.281	8.82
433.486	8.89
433.691	8.88
433.896	8.84
434.101	8.76
434.306	8.82
434.511	8.61
434.716	8.59
434.921	8.49
435.126	8.53
435.331	8.61
435.535	8.58
435.74	8.63
435.945	8.54
436.15	8.41
436.355	8.36
436.56	8.3
436.765	8.16
436.97	8.1
437.174	8.04
437.379	8.22
437.584	8.15
437.789	8.38
437.993	8.2
438.198	8.15
438.403	8.53
438.608	8.47
438.812	8.51
439.017	8.71
439.222	8.77
439.426	8.82
439.631	8.83
439.836	8.92
440.04	9.02
440.245	9.14
440.45	9.15
440.654	8.8
440.859	8.9
441.063	8.76
441.268	8.78
441.472	8.83
441.677	8.77
441.881	8.61
442.086	8.76
442.29	8.67
442.495	8.78
442.699	8.87
442.904	8.91
443.108	8.88
443.312	8.98
443.517	9.07
443.721	9.04
443.925	9.11
444.13	9.1
444.334	8.77
444.538	8.68
444.743	8.52
444.947	8.49
445.151	8.59
445.356	8.6
445.56	8.56
445.764	8.38
445.968	8.34
446.173	8.39
446.377	8.44
446.581	8.47
446.785	8.4
446.989	8.37
447.193	8.39
447.398	8.32
447.602	8.43
447.806	8.35
448.01	8.35
448.214	8.38
448.418	8.31
448.622	8.32
448.826	8.45
449.03	8.58
449.234	8.51
449.438	8.48
449.642	8.5
449.846	8.3
450.05	8.52
450.254	8.67
450.458	8.55
450.662	8.64
450.866	8.64
451.069	8.52
451.273	8.55
451.477	8.47
451.681	8.43
451.885	8.47
452.089	8.61
452.292	8.55
452.496	8.51
452.7	8.72
452.904	8.63
453.107	8.58
453.311	8.68
453.515	8.68
453.719	8.9
453.922	8.91
454.126	8.75
454.33	8.62
454.533	8.53
454.737	8.56
454.94	8.12
455.144	8.11
455.348	7.99
455.551	7.8
455.755	7.78
455.958	7.62
456.162	7.42
456.365	7.68
456.569	7.94
456.772	7.9
456.976	8
457.179	8.33
457.383	8.34
457.586	8.59
457.79	8.64
457.993	8.46
458.196	8.53
458.4	8.73
458.603	8.72
458.807	8.7
459.01	8.87
459.213	8.61
459.417	8.6
459.62	8.49
459.823	8.27
