Data from CB_071_Reflection_3.txt Node
Date: Sat Nov 14 11:07:17 EST 2015
User: robert
Spectrometer: USB4E03001
Autoset integration time: false
Trigger mode: 4
Integration Time (sec): 1.000000E-1
Scans to average: 15
Electric dark correction enabled: true
Nonlinearity correction enabled: false
Boxcar width: 5
Stray light correction enabled: false
XAxis mode: Wavelengths
Stop averaging: false
Number of Pixels in Spectrum: 3648
>>>>>Begin Spectral Data<<<<<
177.566	-109.43
177.785	-25.23
178.005	-389.92
178.225	-109.79
178.445	-121.58
178.665	-173.27
178.885	63.6
179.105	-81.26
179.324	-142.39
179.544	-218.17
179.764	-73.16
179.984	-88.49
180.204	-69.2
180.423	-339.05
180.643	-175.15
180.863	-218.54
181.083	-689.98
181.302	-4454.76
181.522	409.88
181.742	560.55
181.961	771.81
182.181	113.78
182.401	98.63
182.621	172.79
182.84	792.16
183.06	-3079.32
183.279	-482.36
183.499	-368.07
183.719	-545.13
183.938	-352.8
184.158	-278.21
184.377	-250.36
184.597	-159.8
184.816	-106.53
185.036	-176.77
185.256	-249.54
185.475	-523.4
185.695	-389.99
185.914	-387.17
186.134	-342.61
186.353	-334.53
186.572	-258.86
186.792	-655.68
187.011	2729.83
187.231	-1442.53
187.45	-248.95
187.67	-672.09
187.889	410.69
188.108	227.6
188.328	238.99
188.547	176.06
188.766	150.93
188.986	148.73
189.205	161.49
189.424	204.88
189.644	191.06
189.863	282.16
190.082	339.31
190.302	508.41
190.521	415.6
190.74	413.9
190.959	1667.35
191.178	1460.61
191.398	1149.15
191.617	3255.29
191.836	12683.87
192.055	2022.79
192.274	525.45
192.494	659.12
192.713	19703.57
192.932	-1766.42
193.151	332725
193.37	419.4
193.589	-11041.59
193.808	-804.38
194.027	-1290.22
194.246	2085.01
194.465	-1349.82
194.685	278.72
194.904	379.07
195.123	321.46
195.342	285.47
195.561	261.18
195.78	777.12
195.999	1616.98
196.218	661.2
196.436	367.33
196.655	233.79
196.874	199.52
197.093	437.81
197.312	278.04
197.531	437.3
197.75	614.44
197.969	1075.54
198.188	240.27
198.407	185.39
198.625	230.04
198.844	313.66
199.063	392.58
199.282	746.29
199.501	-3137.11
199.719	-2110.93
199.938	1011.77
200.157	654.39
200.376	-4502.4
200.594	-326.79
200.813	-878.22
201.032	-2330.65
201.251	-1130.15
201.469	-1486.4
201.688	-2749.42
201.907	4969.29
202.125	1430.83
202.344	5408.51
202.563	25694.2
202.781	1345.8
203	441.26
203.218	322.14
203.437	503.96
203.656	285.68
203.874	637.62
204.093	539.66
204.311	280.55
204.53	547.68
204.748	194.18
204.967	266.82
205.185	227.86
205.404	317.84
205.622	485.61
205.841	240.57
206.059	252.1
206.278	187.71
206.496	271.75
206.715	384.74
206.933	284.16
207.151	341.71
207.37	200.26
207.588	196.88
207.806	191
208.025	265.79
208.243	371.03
208.461	-25159.09
208.68	882.85
208.898	334.14
209.116	243.38
209.335	253.06
209.553	193.59
209.771	181.85
209.989	195.07
210.208	175.46
210.426	155.97
210.644	148.97
210.862	157.74
211.081	153.9
211.299	136.03
211.517	169.27
211.735	128.32
211.953	131.89
212.171	175.24
212.39	165.76
212.608	158.03
212.826	144.37
213.044	163.35
213.262	118.33
213.48	121.43
213.698	181.13
213.916	100.07
214.134	167.51
214.352	259.98
214.57	102.62
214.788	105.36
215.006	135.59
215.224	320.72
215.442	795.22
215.66	2084.74
215.878	500.97
216.096	193.01
216.314	693.54
216.532	2843.4
216.75	-899.45
216.968	-1269.97
217.185	-11973.45
217.403	2758.92
217.621	-144844.44
217.839	-792.98
218.057	-27077.08
218.275	-1046.45
218.492	-198.42
218.71	-3609.92
218.928	2038.67
219.146	1079.45
219.363	634.82
219.581	651.75
219.799	-2935.2
220.017	324.33
220.234	373.46
220.452	392.28
220.67	646.32
220.887	284.96
221.105	480.3
221.323	280.56
221.54	190.38
221.758	175.93
221.976	162.31
222.193	115.08
222.411	129.14
222.629	131.89
222.846	123.32
223.064	106.78
223.281	119.37
223.499	97.64
223.716	95.51
223.934	98.41
224.151	95.63
224.369	107.5
224.586	128.81
224.804	135.66
225.021	114.11
225.239	104.07
225.456	96.36
225.674	87.94
225.891	96.17
226.108	87.11
226.326	73.04
226.543	70.43
226.76	60.59
226.978	56.84
227.195	56.13
227.413	53.06
227.63	56.99
227.847	58.33
228.064	50.91
228.282	48.63
228.499	49.33
228.716	46.3
228.934	43.01
229.151	40.26
229.368	36.56
229.585	35.09
229.802	34.49
230.02	34.44
230.237	32.34
230.454	32.59
230.671	31.99
230.888	29.8
231.105	35.7
231.323	34.96
231.54	37.82
231.757	41.36
231.974	46.33
232.191	50.9
232.408	43.09
232.625	44.21
232.842	37.56
233.059	29.84
233.276	28.23
233.493	20.44
233.71	29.06
233.927	27.72
234.144	22.35
234.361	20.05
234.578	16.8
234.795	13.68
235.012	13.3
235.229	18.03
235.446	30.14
235.663	29.35
235.879	31
236.096	26.2
236.313	27.14
236.53	24.36
236.747	32.36
236.964	30.33
237.181	46.01
237.397	48.86
237.614	50.51
237.831	50.63
238.048	56.71
238.264	53.4
238.481	52.09
238.698	52.65
238.915	55.23
239.131	42.73
239.348	43.99
239.565	34.88
239.781	33.57
239.998	33.86
240.215	32.33
240.431	29.46
240.648	32.05
240.865	33.1
241.081	29.71
241.298	28.83
241.514	31.27
241.731	29.8
241.947	30.02
242.164	28.87
242.38	24.14
242.597	21.1
242.814	20.23
243.03	21.27
243.246	20.31
243.463	21.19
243.679	21.75
243.896	23.35
244.112	21.48
244.329	21.18
244.545	23.01
244.762	26.21
244.978	25.42
245.194	23.78
245.411	23.4
245.627	22.56
245.843	23.5
246.06	21.5
246.276	17.8
246.492	19.87
246.709	18.96
246.925	17.91
247.141	18.1
247.357	18.13
247.574	19.19
247.79	18.06
248.006	17.37
248.222	16.22
248.439	15.74
248.655	16.8
248.871	16.48
249.087	17.85
249.303	17.99
249.519	19.82
249.736	21.67
249.952	22.26
250.168	26.67
250.384	29.81
250.6	32.38
250.816	34.41
251.032	33.09
251.248	30.96
251.464	29.86
251.68	28.46
251.896	22.65
252.112	21.38
252.328	19.94
252.544	19.98
252.76	19.43
252.976	17.83
253.192	17.55
253.408	16.82
253.624	16.15
253.84	16.77
254.056	18.16
254.272	20.77
254.487	19.52
254.703	20.14
254.919	15.07
255.135	14.37
255.351	18.63
255.567	16.66
255.782	21.38
255.998	22.27
256.214	19.99
256.43	18.71
256.646	17.6
256.861	20.87
257.077	21.52
257.293	22.06
257.508	21.85
257.724	20.86
257.94	20.43
258.155	18.8
258.371	19.34
258.587	18.78
258.802	17.26
259.018	16.91
259.234	15.9
259.449	15.7
259.665	15.41
259.88	15.85
260.096	15.19
260.312	15.2
260.527	14.75
260.743	15.02
260.958	15.33
261.174	16.87
261.389	17.86
261.605	17.78
261.82	17.23
262.036	17.11
262.251	16.58
262.466	16.62
262.682	15.86
262.897	16.28
263.113	14.92
263.328	13.26
263.543	12.84
263.759	12.3
263.974	11.38
264.189	11.09
264.405	12.61
264.62	12.46
264.835	12.51
265.051	16.69
265.266	16.08
265.481	18.42
265.696	21.16
265.912	19.67
266.127	19.61
266.342	20.45
266.557	22.05
266.773	21.21
266.988	20.81
267.203	19.3
267.418	16.41
267.633	17.93
267.848	16.6
268.064	14.17
268.279	14.19
268.494	14.63
268.709	13.93
268.924	13.81
269.139	12.65
269.354	14.2
269.569	13.59
269.784	14
269.999	12.33
270.214	13.54
270.429	14.15
270.644	13.85
270.859	12.34
271.074	12.99
271.289	13.25
271.504	14.01
271.719	12.76
271.934	14.77
272.149	14.52
272.363	15.39
272.578	14.41
272.793	14.71
273.008	14.46
273.223	14.02
273.438	12.66
273.653	11.7
273.867	12.08
274.082	13.68
274.297	12.62
274.512	14.53
274.726	13.9
274.941	13.94
275.156	15.09
275.371	16.15
275.585	17.54
275.8	20.09
276.015	19.74
276.229	20.65
276.444	19.45
276.659	20.85
276.873	18.74
277.088	20.25
277.302	22.79
277.517	20.19
277.732	20.39
277.946	20.4
278.161	19.61
278.375	20.75
278.59	17.73
278.804	18.37
279.019	18.19
279.233	17.87
279.448	16.11
279.662	12.52
279.877	13.64
280.091	11.94
280.306	11.54
280.52	10.17
280.735	10.22
280.949	12.79
281.163	12.7
281.378	12.23
281.592	13.24
281.806	13.05
282.021	13.2
282.235	13.44
282.449	14.68
282.664	14.38
282.878	16.44
283.092	16.23
283.307	15.18
283.521	13.91
283.735	13.66
283.949	13.91
284.164	14.64
284.378	14.06
284.592	13.6
284.806	13.24
285.02	13.67
285.234	12.19
285.449	11.9
285.663	12.28
285.877	12.64
286.091	12.26
286.305	12.04
286.519	12.34
286.733	12.77
286.947	14.21
287.161	12.91
287.375	11.91
287.589	13.3
287.803	14.81
288.017	14.86
288.231	16.06
288.445	16.79
288.659	17.12
288.873	17.51
289.087	17.96
289.301	18.26
289.515	19.06
289.729	20.31
289.943	20.02
290.157	19.6
290.371	19.65
290.584	18.96
290.798	19.1
291.012	18.5
291.226	17.51
291.44	18.16
291.654	15.97
291.867	16.4
292.081	16.42
292.295	16.86
292.509	16.07
292.722	15.36
292.936	14.11
293.15	13.11
293.364	13.57
293.577	14.17
293.791	14.34
294.005	15.63
294.218	15.82
294.432	14.97
294.645	13.33
294.859	13.73
295.073	13.95
295.286	14.22
295.5	14.93
295.713	14.22
295.927	13.57
296.14	13.38
296.354	12.69
296.568	12.21
296.781	11.76
296.994	13.28
297.208	12.57
297.421	13.1
297.635	13.87
297.848	13.09
298.062	12.68
298.275	12.85
298.489	12.44
298.702	13.28
298.915	13.13
299.129	14.24
299.342	13.68
299.555	14.57
299.769	15.19
299.982	14.67
300.195	14.97
300.409	15.61
300.622	15.95
300.835	15.3
301.048	14.51
301.262	14.54
301.475	14.89
301.688	14.14
301.901	14.58
302.115	13.26
302.328	12.57
302.541	13.55
302.754	14.95
302.967	14.57
303.18	16.42
303.393	15.72
303.607	16.63
303.82	15.61
304.033	16.33
304.246	16.61
304.459	16.49
304.672	18.3
304.885	19.04
305.098	18.64
305.311	19.16
305.524	18.13
305.737	18.99
305.95	19.43
306.163	20.04
306.376	19.39
306.589	18.82
306.802	19.51
307.015	18.71
307.228	18.46
307.44	17.58
307.653	17.06
307.866	17.66
308.079	18.06
308.292	16.87
308.505	17.1
308.718	17.87
308.93	17.98
309.143	17.54
309.356	18.13
309.569	17.16
309.781	17.16
309.994	18.18
310.207	17.9
310.42	17.47
310.632	18
310.845	17.78
311.058	17.43
311.27	16.64
311.483	17.15
311.696	16.41
311.908	15.64
312.121	16.33
312.333	16.05
312.546	15.55
312.759	15.49
312.971	15.78
313.184	15.46
313.396	14.91
313.609	14.67
313.821	14.9
314.034	15.01
314.246	15.53
314.459	15.23
314.671	13.97
314.884	13.83
315.096	14.4
315.309	14.32
315.521	15.69
315.733	15.74
315.946	15.89
316.158	16.11
316.371	17.2
316.583	17.85
316.795	17.55
317.008	18.79
317.22	18.46
317.432	19.07
317.644	18.42
317.857	17.68
318.069	18.45
318.281	18.39
318.494	18.03
318.706	16.62
318.918	16.86
319.13	16.28
319.342	15.65
319.555	16.95
319.767	16.93
319.979	16.71
320.191	16.14
320.403	16.57
320.615	18.91
320.827	19.26
321.039	19.31
321.252	20.93
321.464	22.36
321.676	22.73
321.888	22.74
322.1	21.6
322.312	21.68
322.524	21.56
322.736	20.23
322.948	20.07
323.16	18.82
323.372	19.65
323.584	18.09
323.796	16.84
324.007	16.36
324.219	16.6
324.431	17.35
324.643	18.37
324.855	19.85
325.067	20.29
325.279	19.47
325.491	21.1
325.702	21.22
325.914	21.17
326.126	22.8
326.338	22.34
326.55	22.68
326.761	22.54
326.973	21.94
327.185	21.65
327.396	22.59
327.608	23
327.82	20.45
328.032	20.93
328.243	21.26
328.455	21.54
328.666	22.67
328.878	23.15
329.09	23.67
329.301	24.69
329.513	24.25
329.725	23.66
329.936	23.92
330.148	26.71
330.359	26.54
330.571	27.49
330.782	25.76
330.994	26.28
331.205	26.42
331.417	27.02
331.628	26.32
331.84	26.41
332.051	26.82
332.262	26.07
332.474	24.06
332.685	24.26
332.897	23.08
333.108	24.14
333.319	23.9
333.531	23.63
333.742	23.15
333.953	22.61
334.165	22.29
334.376	23.04
334.587	23.33
334.799	24.3
335.01	23
335.221	24.05
335.432	23.24
335.644	23.18
335.855	23.15
336.066	23.06
336.277	24.48
336.488	24.96
336.7	24.26
336.911	25.11
337.122	25.1
337.333	25.71
337.544	25.42
337.755	25.74
337.966	25.58
338.177	24.19
338.388	23.62
338.599	22.76
338.811	21.9
339.022	21.53
339.233	21.48
339.444	20.88
339.655	20.75
339.866	20.93
340.076	20.8
340.287	20.54
340.498	21.55
340.709	21.64
340.92	21.77
341.131	23.16
341.342	22.68
341.553	21.91
341.764	22.58
341.975	22.75
342.185	23.15
342.396	23.77
342.607	23.5
342.818	23.45
343.029	23.46
343.239	23.63
343.45	22.6
343.661	23.49
343.872	23.24
344.082	23.17
344.293	23.2
344.504	22.37
344.714	21.7
344.925	22.17
345.136	21.99
345.346	21.13
345.557	21.17
345.768	22.03
345.978	21.9
346.189	21.66
346.399	21.28
346.61	21.08
346.821	21.33
347.031	21.97
347.242	22.46
347.452	22.45
347.663	23.63
347.873	23.69
348.084	23.49
348.294	22.28
348.504	22.53
348.715	23.35
348.925	23.33
349.136	22.35
349.346	22.14
349.557	21.51
349.767	21.77
349.977	21.52
350.188	20.97
350.398	21.11
350.608	22.34
350.819	22.45
351.029	21.86
351.239	22.35
351.449	22.93
351.66	22.76
351.87	22.8
352.08	22.7
352.29	23.23
352.501	23.57
352.711	22.51
352.921	22.22
353.131	21.77
353.341	21.52
353.552	20.68
353.762	19.67
353.972	19.68
354.182	20.37
354.392	20.57
354.602	20.51
354.812	20.25
355.022	20.13
355.232	21.1
355.442	21.63
355.652	21.96
355.862	22.58
356.072	23.56
356.282	22.6
356.492	22.15
356.702	21.74
356.912	20.92
357.122	21.9
357.332	21.86
357.542	20.89
357.752	20.12
357.962	19.73
358.171	20.03
358.381	19.69
358.591	20.71
358.801	20.59
359.011	20.83
359.221	21.24
359.43	19.94
359.64	19.87
359.85	19.73
360.06	19.79
360.269	19.87
360.479	19.79
360.689	19.57
360.899	19.21
361.108	19.35
361.318	18.91
361.528	19.03
361.737	19.02
361.947	19.03
362.156	18.99
362.366	18.78
362.576	18.9
362.785	18.08
362.995	18.39
363.204	18.31
363.414	18.07
363.623	18.58
363.833	18.43
364.042	18.69
364.252	19.51
364.461	19.4
364.671	19.57
364.88	19.17
365.09	19.81
365.299	19.41
365.509	19.83
365.718	19.54
365.927	19.18
366.137	19
366.346	18.88
366.555	18.04
366.765	18.56
366.974	19.24
367.183	18.75
367.393	18.02
367.602	17.81
367.811	17.62
368.021	18.29
368.23	18.09
368.439	17.84
368.648	17.6
368.857	17.72
369.067	17.02
369.276	16.74
369.485	17.71
369.694	17.92
369.903	18.36
370.112	18.16
370.321	17.25
370.531	17.18
370.74	17.43
370.949	17.33
371.158	17.01
371.367	17.37
371.576	16.81
371.785	16.38
371.994	16.64
372.203	16.58
372.412	16.3
372.621	17.14
372.83	17.54
373.039	17.37
373.248	17.58
373.457	17.32
373.666	16.82
373.874	16.99
374.083	16.87
374.292	16.66
374.501	16.67
374.71	16.75
374.919	15.97
375.128	14.5
375.336	14.72
375.545	14.39
375.754	14.71
375.963	14.84
376.171	14.53
376.38	14.23
376.589	13.7
376.798	13.12
377.006	12.82
377.215	12.63
377.424	13.15
377.632	12.39
377.841	12.61
378.05	12.49
378.258	12.54
378.467	12.42
378.675	12.36
378.884	12.6
379.093	12.81
379.301	12.93
379.51	13.13
379.718	13.22
379.927	13.6
380.135	13.83
380.344	13.59
380.552	13.33
380.761	13.24
380.969	13.2
381.177	12.64
381.386	13.7
381.594	13.5
381.803	13.15
382.011	13.22
382.219	13.15
382.428	12.53
382.636	12.6
382.845	11.93
383.053	11.9
383.261	12.12
383.469	12.24
383.678	11.43
383.886	11.05
384.094	11.24
384.302	11.36
384.511	11.16
384.719	11.19
384.927	11.28
385.135	11.88
385.343	12.08
385.552	12.13
385.76	12.13
385.968	11.74
386.176	11.76
386.384	11.09
386.592	10.53
386.8	10.72
387.008	10.87
387.216	10.74
387.424	10.45
387.633	10.49
387.841	10.21
388.049	10.51
388.257	10.64
388.465	10.31
388.672	10.95
388.88	11.23
389.088	10.47
389.296	10.19
389.504	9.89
389.712	9.88
389.92	9.81
390.128	9.64
390.336	9.47
390.544	8.98
390.751	9.46
390.959	9.22
391.167	9.31
391.375	9.81
391.583	9.53
391.79	9.19
391.998	9.29
392.206	9.02
392.414	8.76
392.621	8.48
392.829	8.81
393.037	8.45
393.244	8.2
393.452	7.76
393.66	7.62
393.867	7.66
394.075	8.05
394.283	7.8
394.49	7.46
394.698	7.59
394.905	7.62
395.113	7.73
395.32	7.84
395.528	8.13
395.735	8.23
395.943	8.12
396.15	8.22
396.358	7.87
396.565	7.81
396.773	7.85
396.98	8.25
397.188	7.89
397.395	7.56
397.602	7.57
397.81	7.16
398.017	7.12
398.225	7.66
398.432	7.56
398.639	7.57
398.847	7.48
399.054	7.73
399.261	7.25
399.468	7.5
399.676	7.66
399.883	7.49
400.09	7.86
400.297	7.82
400.505	7.27
400.712	7.27
400.919	7.51
401.126	7.75
401.333	7.45
401.54	7.49
401.748	7.54
401.955	7.1
402.162	7.34
402.369	7.08
402.576	7
402.783	6.76
402.99	6.62
403.197	6.36
403.404	6.17
403.611	6.29
403.818	6.24
404.025	6.14
404.232	6.48
404.439	6.11
404.646	5.98
404.853	5.83
405.06	5.82
405.267	6.05
405.474	6.23
405.681	6.41
405.887	6.31
406.094	6.56
406.301	6.69
406.508	6.46
406.715	6.79
406.922	7.07
407.128	7.4
407.335	7.33
407.542	6.96
407.749	6.86
407.955	6.77
408.162	6.64
408.369	6.35
408.575	6.38
408.782	6.63
408.989	6.24
409.195	5.74
409.402	5.66
409.609	5.81
409.815	6.06
410.022	6.06
410.228	5.95
410.435	6.19
410.642	6.28
410.848	5.9
411.055	5.64
411.261	5.86
411.468	6.45
411.674	6.47
411.881	6.36
412.087	6.27
412.294	6.17
412.5	6.22
412.706	6.1
412.913	6.21
413.119	6.42
413.326	6.22
413.532	6.2
413.738	5.6
413.945	5.27
414.151	5.57
414.357	5.57
414.564	5.48
414.77	5.54
414.976	5.79
415.182	5.78
415.389	5.7
415.595	5.77
415.801	5.64
416.007	6.07
416.214	5.93
416.42	5.75
416.626	5.48
416.832	5.64
417.038	5.59
417.244	5.41
417.45	5.15
417.657	5.18
417.863	5.02
418.069	4.97
418.275	4.67
418.481	4.81
418.687	4.69
418.893	4.71
419.099	4.64
419.305	4.55
419.511	4.57
419.717	4.57
419.923	4.48
420.129	4.52
420.335	4.64
420.541	4.8
420.746	4.74
420.952	4.8
421.158	4.97
421.364	4.95
421.57	4.96
421.776	4.91
421.982	5.02
422.187	5.05
422.393	4.98
422.599	4.96
422.805	4.82
423.01	4.97
423.216	4.92
423.422	4.87
423.628	4.78
423.833	4.8
424.039	4.56
424.245	4.48
424.45	4.39
424.656	4.41
424.862	4.2
425.067	4.2
425.273	4.1
425.478	4
425.684	3.88
425.889	3.89
426.095	3.77
426.301	3.96
426.506	3.86
426.712	3.96
426.917	4.16
427.123	4.15
427.328	4.2
427.533	4.17
427.739	4.4
427.944	4.42
428.15	4.33
428.355	4.17
428.561	4.41
428.766	4.47
428.971	4.35
429.177	4.2
429.382	4.36
429.587	4.25
429.793	4.23
429.998	4.2
430.203	4.21
430.408	4.45
430.614	4.56
430.819	4.37
431.024	4.31
431.229	4.43
431.434	4.52
431.64	4.47
431.845	4.65
432.05	4.92
432.255	4.79
432.46	4.88
432.665	4.84
432.87	4.91
433.076	4.97
433.281	5
433.486	4.85
433.691	4.7
433.896	4.7
434.101	4.5
434.306	4.17
434.511	4.27
434.716	4.28
434.921	4.23
435.126	4.18
435.331	3.93
435.535	3.84
435.74	3.89
435.945	3.79
436.15	3.71
436.355	3.92
436.56	4.05
436.765	4.01
436.97	3.84
437.174	3.89
437.379	3.94
437.584	4.19
437.789	4.14
437.993	4.18
438.198	4.36
438.403	4.53
438.608	4.37
438.812	4.5
439.017	4.51
439.222	4.5
439.426	4.42
439.631	4.25
439.836	4.28
440.04	4.44
440.245	4.49
440.45	4.4
440.654	4.33
440.859	4.24
441.063	4.01
441.268	4.04
441.472	4.06
441.677	4.12
441.881	4.04
442.086	3.91
442.29	3.91
442.495	3.91
442.699	3.98
442.904	3.95
443.108	4.08
443.312	4.18
443.517	4
443.721	4.11
443.925	4.05
444.13	4.11
444.334	3.96
444.538	3.94
444.743	3.97
444.947	3.98
445.151	4.11
445.356	4.07
445.56	4.16
445.764	4.18
445.968	4.17
446.173	4.12
446.377	4.25
446.581	4.38
446.785	4.39
446.989	4.32
447.193	4.22
447.398	4.15
447.602	3.96
447.806	3.94
448.01	4.02
448.214	3.92
448.418	3.86
448.622	3.89
448.826	3.87
449.03	3.68
449.234	3.73
449.438	3.79
449.642	3.74
449.846	4.04
450.05	3.89
450.254	3.74
450.458	3.89
450.662	3.92
450.866	3.76
451.069	3.88
451.273	3.94
451.477	4.03
451.681	4.25
451.885	4.18
452.089	4.4
452.292	4.3
452.496	4.29
452.7	4.2
452.904	4.24
453.107	4.31
453.311	4.12
453.515	4.27
453.719	4.13
453.922	3.93
454.126	3.98
454.33	3.63
454.533	3.57
454.737	3.67
454.94	3.56
455.144	3.74
455.348	3.68
455.551	3.8
455.755	3.64
455.958	3.69
456.162	3.9
456.365	3.97
456.569	3.95
456.772	3.93
456.976	4.07
457.179	4.31
457.383	4.06
457.586	4.2
457.79	4.09
