Data from CB_036_Reflection_21-35-22-457.txt Node
Date: Wed Nov 11 21:35:22 EST 2015
User: robert
Spectrometer: USB4E03001
Autoset integration time: false
Trigger mode: 4
Integration Time (sec): 1.000000E-1
Scans to average: 15
Electric dark correction enabled: true
Nonlinearity correction enabled: false
Boxcar width: 5
Stray light correction enabled: false
XAxis mode: Wavelengths
Stop averaging: false
Number of Pixels in Spectrum: 3648
>>>>>Begin Spectral Data<<<<<
177.566	96.53
177.785	116.45
178.005	44.74
178.225	265.87
178.445	30.29
178.665	17.56
178.885	-146.87
179.105	-21.6
179.324	45.61
179.544	131.85
179.764	191.39
179.984	139.27
180.204	120.54
180.423	177.16
180.643	123.11
180.863	104.47
181.083	108.82
181.302	95.29
181.522	108.41
181.742	93.59
181.961	93.63
182.181	84.3
182.401	94.35
182.621	114.32
182.84	91.49
183.06	108.44
183.279	103.66
183.499	106.96
183.719	128.21
183.938	133.67
184.158	147.61
184.377	149.54
184.597	154.61
184.816	174.72
185.036	123.98
185.256	135.1
185.475	125.16
185.695	135.36
185.914	129.31
186.134	131.59
186.353	114.94
186.572	90.85
186.792	65.31
187.011	59.78
187.231	27.92
187.45	30.48
187.67	41.49
187.889	27.64
188.108	33.88
188.328	34.34
188.547	20.78
188.766	34.82
188.986	42.7
189.205	38.41
189.424	29.33
189.644	28.19
189.863	36.65
190.082	44.3
190.302	45.57
190.521	69.4
190.74	63.12
190.959	67.34
191.178	49.56
191.398	42.01
191.617	60.91
191.836	81.35
192.055	82.02
192.274	60.82
192.494	35.64
192.713	37.51
192.932	44.23
193.151	39.95
193.37	32.95
193.589	52.03
193.808	48.83
194.027	21.34
194.246	17.87
194.465	25.23
194.685	36.61
194.904	50.11
195.123	54.52
195.342	26.5
195.561	30.79
195.78	37.06
195.999	18.16
196.218	29.34
196.436	32.8
196.655	33.37
196.874	41.42
197.093	63.11
197.312	74.09
197.531	69.69
197.75	93.74
197.969	104.63
198.188	73.1
198.407	78.88
198.625	65.44
198.844	70.46
199.063	64.43
199.282	53.61
199.501	75.85
199.719	48.81
199.938	58.52
200.157	8.62
200.376	9.72
200.594	51.7
200.813	62.07
201.032	57.43
201.251	62.47
201.469	62
201.688	64.12
201.907	35.15
202.125	46.63
202.344	43.22
202.563	51.29
202.781	59.41
203	41.45
203.218	50.34
203.437	77.17
203.656	86.88
203.874	76.99
204.093	65.08
204.311	75.25
204.53	100.9
204.748	95.41
204.967	84.63
205.185	89.54
205.404	104.52
205.622	89.24
205.841	80.26
206.059	59.81
206.278	78.93
206.496	82.09
206.715	75.67
206.933	76.18
207.151	70.62
207.37	74.82
207.588	76.53
207.806	79.85
208.025	80.79
208.243	90.84
208.461	85.08
208.68	88.9
208.898	92.91
209.116	79.32
209.335	68.86
209.553	75.24
209.771	71.62
209.989	64.4
210.208	45.82
210.426	27.93
210.644	7.8
210.862	8.21
211.081	25.35
211.299	58.8
211.517	78.46
211.735	69.36
211.953	84.28
212.171	94.99
212.39	100.55
212.608	104.33
212.826	118
213.044	125.31
213.262	118.6
213.48	143.52
213.698	140.91
213.916	169.27
214.134	176.68
214.352	193.35
214.57	155.18
214.788	188.14
215.006	231.12
215.224	184.93
215.442	140
215.66	175.64
215.878	87.11
216.096	60.79
216.314	55.01
216.532	70.03
216.75	59.63
216.968	57.42
217.185	54.65
217.403	50.14
217.621	41.26
217.839	47.98
218.057	52.89
218.275	60.38
218.492	69.04
218.71	71.01
218.928	66.33
219.146	69.32
219.363	80.95
219.581	93.67
219.799	102.18
220.017	132.54
220.234	123.75
220.452	132.54
220.67	82.89
220.887	64.69
221.105	60.95
221.323	52.99
221.54	59.69
221.758	36.15
221.976	36.15
222.193	26.73
222.411	24.67
222.629	28.98
222.846	15.32
223.064	27.9
223.281	46.15
223.499	47.67
223.716	56.99
223.934	56.89
224.151	57
224.369	49.95
224.586	58.25
224.804	64.08
225.021	65.54
225.239	80.12
225.456	66.74
225.674	50.19
225.891	51.4
226.108	38.95
226.326	30.53
226.543	24.18
226.76	31.59
226.978	26.94
227.195	18.22
227.413	24.79
227.63	25.92
227.847	24.69
228.064	22.87
228.282	20.4
228.499	19.48
228.716	16.83
228.934	16.82
229.151	15.49
229.368	15.08
229.585	16.02
229.802	13.85
230.02	8.78
230.237	8.3
230.454	7.28
230.671	5.65
230.888	3.68
231.105	6.03
231.323	9.06
231.54	11.91
231.757	11.06
231.974	8.83
232.191	9.18
232.408	12.59
232.625	12.49
232.842	15.37
233.059	18.6
233.276	24.12
233.493	22.83
233.71	21.3
233.927	20.12
234.144	22.87
234.361	23.48
234.578	22.98
234.795	21.41
235.012	20.77
235.229	19.68
235.446	20.38
235.663	19.63
235.879	18.82
236.096	15.87
236.313	14.53
236.53	15.93
236.747	20.95
236.964	21.44
237.181	25.77
237.397	21.16
237.614	17.95
237.831	10.67
238.048	13.17
238.264	9.7
238.481	7.15
238.698	11.85
238.915	11.58
239.131	5.18
239.348	7.18
239.565	2.99
239.781	4.68
239.998	12.6
240.215	14.2
240.431	12.57
240.648	19.74
240.865	20.52
241.081	20.04
241.298	17.83
241.514	18.1
241.731	16.56
241.947	16.4
242.164	17.93
242.38	15.08
242.597	15.34
242.814	14.23
243.03	12.25
243.246	12.62
243.463	11.06
243.679	12.45
243.896	14.35
244.112	14.59
244.329	17.25
244.545	15.51
244.762	16.83
244.978	18.61
245.194	19.52
245.411	17.55
245.627	17.92
245.843	19.17
246.06	17.45
246.276	14.95
246.492	13.11
246.709	11.58
246.925	12.87
247.141	12.37
247.357	10.9
247.574	11.12
247.79	11.64
248.006	11.97
248.222	11.16
248.439	11.77
248.655	12.17
248.871	12.69
249.087	14
249.303	12.92
249.519	13.23
249.736	14.46
249.952	15.22
250.168	15.79
250.384	14.44
250.6	17.46
250.816	18.16
251.032	17.99
251.248	19.05
251.464	17.12
251.68	18.77
251.896	17.62
252.112	16.73
252.328	16.22
252.544	14.53
252.76	15.38
252.976	13.35
253.192	12.85
253.408	13.75
253.624	14.06
253.84	14.01
254.056	15.46
254.272	18.55
254.487	19.34
254.703	18.95
254.919	22.47
255.135	21.95
255.351	20.41
255.567	21.03
255.782	20.19
255.998	18.7
256.214	18.27
256.43	16.17
256.646	16.34
256.861	15.36
257.077	14.6
257.293	12.64
257.508	12.52
257.724	14.33
257.94	13.72
258.155	14
258.371	13
258.587	14.35
258.802	14.39
259.018	12.86
259.234	11.92
259.449	11.8
259.665	11.58
259.88	11.76
260.096	11.33
260.312	10.87
260.527	10.93
260.743	11.76
260.958	10.46
261.174	10.12
261.389	10.41
261.605	11.3
261.82	11.25
262.036	11.85
262.251	12.35
262.466	13.55
262.682	12.96
262.897	12.59
263.113	12.01
263.328	12.94
263.543	12.09
263.759	9.93
263.974	10.86
264.189	12.84
264.405	12.43
264.62	9.8
264.835	7.59
265.051	8.54
265.266	9.4
265.481	8.81
265.696	9.46
265.912	9.99
266.127	12.28
266.342	11.92
266.557	10.69
266.773	9.76
266.988	11.38
267.203	11.59
267.418	11.73
267.633	12.39
267.848	12.24
268.064	11.26
268.279	11.86
268.494	10.2
268.709	10.28
268.924	10.8
269.139	12.25
269.354	12.65
269.569	12.19
269.784	12.85
269.999	10.14
270.214	10.41
270.429	11.02
270.644	10.41
270.859	11.75
271.074	11.14
271.289	12.16
271.504	12.5
271.719	11.45
271.934	11.02
272.149	10.47
272.363	11.53
272.578	11.72
272.793	11.44
273.008	11.31
273.223	11.11
273.438	11.13
273.653	10.39
273.867	9.36
274.082	9.46
274.297	10.46
274.512	10.6
274.726	8.73
274.941	8.35
275.156	9.6
275.371	8.89
275.585	8.57
275.8	8.78
276.015	9.29
276.229	8.53
276.444	9.92
276.659	9.73
276.873	9.37
277.088	11.78
277.302	12.73
277.517	11.41
277.732	13.12
277.946	13.09
278.161	13.47
278.375	12.27
278.59	14.18
278.804	12.39
279.019	12.5
279.233	12.76
279.448	12.59
279.662	13.31
279.877	13.72
280.091	13.16
280.306	14.53
280.52	13.7
280.735	14.46
280.949	12.92
281.163	13.71
281.378	12.64
281.592	12.33
281.806	13.47
282.021	11.67
282.235	10.95
282.449	11.74
282.664	9.56
282.878	8.76
283.092	8.34
283.307	10.16
283.521	9.48
283.735	10.19
283.949	9.99
284.164	8.83
284.378	9.16
284.592	10.35
284.806	9.64
285.02	10.71
285.234	11.27
285.449	11.44
285.663	10.57
285.877	10.4
286.091	11.16
286.305	11.46
286.519	12.03
286.733	12.04
286.947	11.74
287.161	11.59
287.375	11.91
287.589	12.87
287.803	12.41
288.017	12.31
288.231	13.56
288.445	13.09
288.659	12.55
288.873	12.62
289.087	13.26
289.301	13.23
289.515	14.68
289.729	14.36
289.943	12.99
290.157	12.99
290.371	12.55
290.584	12.93
290.798	13.14
291.012	12.94
291.226	12.67
291.44	11.99
291.654	12.69
291.867	10.56
292.081	10.45
292.295	11.86
292.509	11.92
292.722	12.54
292.936	10.41
293.15	10.2
293.364	11.07
293.577	9.36
293.791	11.1
294.005	8.9
294.218	10.81
294.432	11.32
294.645	10.23
294.859	9.47
295.073	8.73
295.286	10.01
295.5	9.05
295.713	9.42
295.927	10.31
296.14	9.96
296.354	10.46
296.568	9.19
296.781	8.79
296.994	9.07
297.208	10.15
297.421	10.6
297.635	10.32
297.848	10.78
298.062	10.93
298.275	10.66
298.489	10.71
298.702	11.44
298.915	11.51
299.129	12.46
299.342	12.96
299.555	12.67
299.769	12.88
299.982	12.75
300.195	12.75
300.409	12.64
300.622	14.16
300.835	13.07
301.048	11.79
301.262	12.24
301.475	11.91
301.688	11.38
301.901	11.62
302.115	11.15
302.328	11.82
302.541	12.15
302.754	11.3
302.967	10.45
303.18	12.1
303.393	13.02
303.607	12.51
303.82	11.95
304.033	12.48
304.246	11.83
304.459	12.78
304.672	12.45
304.885	13.79
305.098	13.52
305.311	14.1
305.524	12.6
305.737	11.81
305.95	11.99
306.163	12.36
306.376	11.76
306.589	11.34
306.802	10.25
307.015	11.15
307.228	9.38
307.44	11.17
307.653	11.33
307.866	11.7
308.079	12.56
308.292	13.24
308.505	13.18
308.718	13.87
308.93	15.8
309.143	16.23
309.356	14.73
309.569	15.01
309.781	14.09
309.994	13.86
310.207	13.83
310.42	14.39
310.632	14.6
310.845	14.29
311.058	14.13
311.27	12.8
311.483	12.59
311.696	13.39
311.908	14.1
312.121	14.77
312.333	14.79
312.546	14.71
312.759	14.24
312.971	13.8
313.184	13.8
313.396	13.52
313.609	15.13
313.821	16.39
314.034	16.13
314.246	16.06
314.459	16.14
314.671	16.66
314.884	17.93
315.096	18.19
315.309	18.67
315.521	18.34
315.733	18.72
315.946	17.32
316.158	16.45
316.371	16.54
316.583	14.41
316.795	14.11
317.008	12.72
317.22	11.14
317.432	11.21
317.644	10.95
317.857	12.31
318.069	11.95
318.281	11.53
318.494	10.9
318.706	12.35
318.918	14.28
319.13	15.01
319.342	15.98
319.555	16.22
319.767	16
319.979	16.34
320.191	14.97
320.403	15.98
320.615	16.72
320.827	18.75
321.039	16.98
321.252	16.95
321.464	15.78
321.676	15.77
321.888	17.35
322.1	17.31
322.312	17.57
322.524	19.37
322.736	19.5
322.948	20.58
323.16	19.57
323.372	19.6
323.584	19.14
323.796	19.48
324.007	20.13
324.219	20.36
324.431	20.5
324.643	21.25
324.855	21.45
325.067	21.09
325.279	20.99
325.491	22.4
325.702	23.48
325.914	23.75
326.126	24.94
326.338	23.66
326.55	23.16
326.761	24.22
326.973	24.25
327.185	24.74
327.396	25.51
327.608	25.49
327.82	25.22
328.032	25.45
328.243	26.4
328.455	26.55
328.666	28.02
328.878	27.84
329.09	27.68
329.301	28.01
329.513	28.41
329.725	28.09
329.936	29.31
330.148	28.38
330.359	28.52
330.571	28.82
330.782	29.18
330.994	29.53
331.205	31.02
331.417	31.26
331.628	31.9
331.84	31.55
332.051	32.56
332.262	32.75
332.474	34.24
332.685	34.33
332.897	33.78
333.108	34.34
333.319	35
333.531	35.11
333.742	36.07
333.953	35.47
334.165	35.73
334.376	36.62
334.587	36.53
334.799	36.11
335.01	36.65
335.221	36.94
335.432	36.69
335.644	35.99
335.855	36.07
336.066	35.21
336.277	35.63
336.488	35.24
336.7	34.13
336.911	34.08
337.122	34.31
337.333	33.74
337.544	34.36
337.755	34.49
337.966	35.06
338.177	33.99
338.388	33.96
338.599	34.32
338.811	34.44
339.022	34.76
339.233	34.46
339.444	34.25
339.655	35.26
339.866	35.5
340.076	34.89
340.287	34.62
340.498	35.45
340.709	36.41
340.92	36.16
341.131	36.85
341.342	37.02
341.553	37.41
341.764	37.12
341.975	36.42
342.185	35.72
342.396	36.14
342.607	36.36
342.818	36.32
343.029	35.39
343.239	35.39
343.45	34.52
343.661	34.26
343.872	33.31
344.082	33.16
344.293	33.41
344.504	33.42
344.714	33.33
344.925	33.55
345.136	33.63
345.346	34.11
345.557	33.55
345.768	33.58
345.978	33.87
346.189	34.68
346.399	35.37
346.61	35.23
346.821	34.8
347.031	35.01
347.242	34.92
347.452	35.3
347.663	35.59
347.873	36.02
348.084	36.17
348.294	35.52
348.504	34.96
348.715	35.04
348.925	35.07
349.136	34.91
349.346	34.3
349.557	34.04
349.767	33.63
349.977	33.03
350.188	33.02
350.398	32.73
350.608	32.59
350.819	33.05
351.029	32.34
351.239	32.07
351.449	33.26
351.66	32.93
351.87	33.69
352.08	33.62
352.29	33.77
352.501	34.57
352.711	35.09
352.921	34.71
353.131	34.81
353.341	35.19
353.552	35.54
353.762	34.85
353.972	35.49
354.182	33.97
354.392	34.11
354.602	34.13
354.812	33.1
355.022	32.84
355.232	33.83
355.442	34.1
355.652	34.56
355.862	34.34
356.072	34.19
356.282	34.05
356.492	34.68
356.702	34.95
356.912	34.16
357.122	34.12
357.332	34.69
357.542	34.87
357.752	34.17
357.962	33.47
358.171	33.4
358.381	33.62
358.591	33
358.801	32.3
359.011	31.41
359.221	32.37
359.43	32.48
359.64	31.47
359.85	30.94
360.06	30.91
360.269	31.15
360.479	31.12
360.689	31.09
360.899	31.56
361.108	31.79
361.318	31.89
361.528	31.58
361.737	31.1
361.947	31.46
362.156	30.93
362.366	31.1
362.576	30.67
362.785	31
362.995	30.75
363.204	31.15
363.414	31.59
363.623	31.7
363.833	31.07
364.042	30.78
364.252	30.9
364.461	31.06
364.671	30.94
364.88	31.22
365.09	30.71
365.299	30.96
365.509	30.32
365.718	29.95
365.927	29.98
366.137	30.12
366.346	30.7
366.555	30.08
366.765	29.88
366.974	29.64
367.183	29.38
367.393	29.65
367.602	29.6
367.811	29.1
368.021	28.83
368.23	28.35
368.439	28.52
368.648	28.28
368.857	27.89
369.067	28.36
369.276	28.28
369.485	28.67
369.694	28.82
369.903	28.24
370.112	28.05
370.321	27.76
370.531	27.99
370.74	28.1
370.949	27.84
371.158	28.06
371.367	27.66
371.576	27.91
371.785	27.51
371.994	26.55
372.203	26.28
372.412	26.6
372.621	26.57
372.83	25.76
373.039	25.4
373.248	25.57
373.457	25.33
373.666	25.37
373.874	24.85
374.083	24.15
374.292	24.23
374.501	24.69
374.71	24.73
374.919	24.63
375.128	24.97
375.336	24.75
375.545	24.25
375.754	24.74
375.963	24.38
376.171	24.47
376.38	24.75
376.589	24.34
376.798	23.96
377.006	23.73
377.215	23.78
377.424	24.01
377.632	23.88
377.841	23.94
378.05	23.3
378.258	23
378.467	22.87
378.675	22.98
378.884	22.88
379.093	22.38
379.301	22.23
379.51	21.91
379.718	21.7
379.927	21.8
380.135	21.44
380.344	21.45
380.552	21.73
380.761	21.1
380.969	20.4
381.177	20.56
381.386	20.71
381.594	20.47
381.803	20.63
382.011	20.28
382.219	20.08
382.428	20.25
382.636	20.13
382.845	19.74
383.053	19.92
383.261	20.08
383.469	19.82
383.678	19.68
383.886	19.53
384.094	19.19
384.302	19.41
384.511	19.6
384.719	19.14
384.927	19.1
385.135	19.27
385.343	19.32
385.552	19.47
385.76	19.58
385.968	19.24
386.176	19.11
386.384	19.08
386.592	18.84
386.8	18.53
387.008	18.98
387.216	18.87
387.424	18.82
387.633	18.51
387.841	17.9
388.049	17.65
388.257	17.97
388.465	17.76
388.672	17.82
388.88	17.65
389.088	17.34
389.296	16.71
389.504	16.15
389.712	15.57
389.92	15.75
390.128	15.64
390.336	15.42
390.544	15.5
390.751	15.59
390.959	15.6
391.167	15.48
391.375	15.53
391.583	15.74
391.79	15.85
391.998	15.88
392.206	15.95
392.414	16.12
392.621	15.89
392.829	15.88
393.037	15.76
393.244	15.38
393.452	15.29
393.66	15.15
393.867	15.14
394.075	15.14
394.283	15.17
394.49	15.1
394.698	15.14
394.905	15.27
395.113	14.83
395.32	14.85
395.528	15.15
395.735	15.09
395.943	15.06
396.15	15.02
396.358	14.92
396.565	15.17
396.773	14.63
396.98	14.42
397.188	14.4
397.395	14.39
397.602	14.3
397.81	13.99
398.017	13.74
398.225	13.57
398.432	13.3
398.639	13.51
398.847	12.94
399.054	13.17
399.261	13.11
399.468	13.17
399.676	13.06
399.883	13.13
400.09	12.68
400.297	12.8
400.505	12.54
400.712	12.66
400.919	12.37
401.126	12.7
401.333	12.24
401.54	12.12
401.748	11.98
401.955	12.11
402.162	12.01
402.369	12.17
402.576	12.23
402.783	12.46
402.99	12.08
403.197	11.96
403.404	11.78
403.611	12.11
403.818	12
404.025	12.02
404.232	11.99
404.439	11.71
404.646	11.52
404.853	11.29
405.06	10.96
405.267	11.14
405.474	10.98
405.681	10.86
405.887	10.86
406.094	10.92
406.301	10.95
406.508	10.74
406.715	10.69
406.922	10.99
407.128	11.26
407.335	11.52
407.542	11.35
407.749	11.37
407.955	11.23
408.162	10.71
408.369	10.42
408.575	10.2
408.782	10.25
408.989	10.45
409.195	10.26
409.402	9.97
409.609	9.9
409.815	10.08
410.022	10.26
410.228	10.37
410.435	10.67
410.642	10.97
410.848	10.77
411.055	10.88
411.261	10.58
411.468	10.6
411.674	10.63
411.881	10.54
412.087	10.56
412.294	10.57
412.5	10.65
412.706	10.63
412.913	10.27
413.119	10.56
413.326	10.43
413.532	10.44
413.738	10.43
413.945	10.24
414.151	10.19
414.357	9.85
414.564	9.85
414.77	9.76
414.976	9.83
415.182	10.05
415.389	9.59
415.595	9.42
415.801	9.56
416.007	9.44
416.214	9.34
416.42	9.52
416.626	9.63
416.832	9.56
417.038	9.65
417.244	9.63
417.45	9.32
417.657	9.52
417.863	9.48
418.069	9.21
418.275	9.23
418.481	9.25
418.687	9.2
418.893	9.02
419.099	9.03
419.305	8.76
419.511	8.59
419.717	8.81
419.923	8.68
420.129	8.69
420.335	8.75
420.541	8.69
420.746	8.62
420.952	8.37
421.158	8.37
421.364	8.21
421.57	8.18
421.776	8.2
421.982	8.02
422.187	7.98
422.393	7.9
422.599	7.94
422.805	7.88
423.01	7.93
423.216	8
423.422	7.97
423.628	7.93
423.833	7.92
424.039	7.9
424.245	8.09
424.45	8.17
424.656	8.15
424.862	8.06
425.067	8.18
425.273	8.21
425.478	8.32
425.684	8.43
425.889	8.54
426.095	8.67
426.301	8.64
426.506	8.58
426.712	8.59
426.917	8.66
427.123	8.63
427.328	8.35
427.533	8.24
427.739	8.14
427.944	8.09
428.15	7.96
428.355	7.98
428.561	8.02
428.766	7.89
428.971	8.1
429.177	8.3
429.382	8.44
429.587	8.53
429.793	8.43
429.998	8.42
430.203	8.29
430.408	8.29
430.614	8.34
430.819	8.39
431.024	8.38
431.229	8.2
431.434	7.84
431.64	7.82
431.845	7.81
432.05	7.78
432.255	7.76
432.46	7.69
432.665	7.63
432.87	7.61
433.076	7.55
433.281	7.67
433.486	7.53
433.691	7.63
433.896	7.62
434.101	7.74
434.306	7.92
434.511	7.77
434.716	8.04
434.921	8.2
435.126	8.17
435.331	8.03
435.535	7.87
435.74	7.9
435.945	7.9
436.15	8.07
436.355	8.15
436.56	8.1
436.765	8.06
436.97	8.02
437.174	7.93
437.379	7.86
437.584	7.88
437.789	8
437.993	8.25
438.198	8.23
438.403	8.03
438.608	7.82
438.812	7.61
439.017	7.71
439.222	7.57
439.426	7.49
439.631	7.44
439.836	7.52
440.04	7.29
440.245	7.02
440.45	6.96
440.654	7.02
440.859	7.05
441.063	7.16
441.268	7.18
441.472	7.17
441.677	7.28
441.881	7.39
442.086	7.44
442.29	7.5
442.495	7.71
442.699	7.9
442.904	7.75
443.108	7.84
443.312	7.83
443.517	7.89
443.721	7.82
443.925	7.77
444.13	7.63
444.334	7.46
444.538	7.42
444.743	7.29
444.947	7.05
445.151	7.03
445.356	7
445.56	6.96
445.764	6.98
445.968	6.97
446.173	6.94
446.377	6.94
446.581	7.04
446.785	7.05
446.989	6.96
447.193	6.99
447.398	6.93
447.602	6.79
447.806	6.71
448.01	6.66
448.214	6.71
448.418	6.73
448.622	6.68
448.826	6.48
449.03	6.55
449.234	6.62
449.438	6.78
449.642	6.88
449.846	7.17
450.05	7.41
450.254	7.3
450.458	7.41
450.662	7.41
450.866	7.45
451.069	7.61
451.273	7.44
451.477	7.33
451.681	7.12
451.885	7.07
452.089	6.92
452.292	6.78
452.496	6.83
452.7	6.73
452.904	6.71
453.107	6.91
453.311	6.74
453.515	6.85
453.719	7.03
453.922	7.08
454.126	7.22
454.33	7.19
454.533	7.22
454.737	7.39
454.94	7.32
455.144	7.15
455.348	6.92
455.551	7.15
455.755	6.94
455.958	6.82
456.162	6.82
456.365	6.93
456.569	7.01
456.772	7.02
456.976	6.66
457.179	6.82
457.383	6.98
457.586	6.98
457.79	6.72
457.993	6.87
458.196	6.82
458.4	6.74
458.603	6.47
458.807	6.44
459.01	6.41
459.213	6.59
459.417	6.53
459.62	6.59
459.823	6.59
460.026	6.64
460.23	6.7
460.433	6.69
460.636	6.67
460.839	6.86
