Data from CB_047_Reflection_2.txt Node
Date: Wed Nov 11 22:26:13 EST 2015
User: robert
Spectrometer: USB4E03001
Autoset integration time: false
Trigger mode: 4
Integration Time (sec): 1.000000E-1
Scans to average: 15
Electric dark correction enabled: true
Nonlinearity correction enabled: false
Boxcar width: 5
Stray light correction enabled: false
XAxis mode: Wavelengths
Stop averaging: false
Number of Pixels in Spectrum: 3648
>>>>>Begin Spectral Data<<<<<
177.566	-68.07
177.785	-894.74
178.005	50.61
178.225	4.78
178.445	43.13
178.665	34.46
178.885	114.99
179.105	49.38
179.324	43.56
179.544	7.5
179.764	5.78
179.984	11.26
180.204	0.1
180.423	-17.92
180.643	15.19
180.863	39.12
181.083	44.3
181.302	42.26
181.522	35.08
181.742	46.78
181.961	83.03
182.181	85.9
182.401	81.36
182.621	80.23
182.84	78.77
183.06	80.61
183.279	72.84
183.499	67.95
183.719	73.87
183.938	80.96
184.158	90.89
184.377	54.56
184.597	42.81
184.816	32.42
185.036	58.44
185.256	69.99
185.475	66.29
185.695	20.15
185.914	21.16
186.134	69.45
186.353	40.37
186.572	11.46
186.792	13.39
187.011	14.8
187.231	29.06
187.45	36.47
187.67	-3.97
187.889	-0.4
188.108	25.24
188.328	32.73
188.547	10.16
188.766	12.77
188.986	15.15
189.205	0.73
189.424	3.24
189.644	-28.65
189.863	-16.77
190.082	22.35
190.302	2.62
190.521	17.37
190.74	-14.4
190.959	9.69
191.178	21.37
191.398	14.75
191.617	31.41
191.836	34.68
192.055	27.34
192.274	13.87
192.494	-14.46
192.713	-1.51
192.932	8.29
193.151	17.65
193.37	3.26
193.589	16.35
193.808	36.22
194.027	40.36
194.246	47.21
194.465	59.49
194.685	68.9
194.904	59.97
195.123	61.4
195.342	47.89
195.561	68.42
195.78	68.06
195.999	78.62
196.218	50.1
196.436	44.63
196.655	43.21
196.874	54.23
197.093	53.28
197.312	78.97
197.531	69.01
197.75	56.3
197.969	42.83
198.188	26.16
198.407	-2.42
198.625	2
198.844	10.94
199.063	-5.97
199.282	-21.07
199.501	-38.81
199.719	-105.11
199.938	-51.11
200.157	-102.25
200.376	-33.68
200.594	5.8
200.813	57.49
201.032	73.92
201.251	53.54
201.469	96.2
201.688	104.5
201.907	80.77
202.125	65.64
202.344	54.97
202.563	68.46
202.781	50.4
203	44.18
203.218	30.69
203.437	34.82
203.656	37.37
203.874	26.62
204.093	23.09
204.311	23.63
204.53	7.04
204.748	15.94
204.967	20.69
205.185	34.72
205.404	34.54
205.622	46.58
205.841	54.15
206.059	47.18
206.278	76.21
206.496	94.76
206.715	98.44
206.933	96.69
207.151	93.24
207.37	87.74
207.588	80.57
207.806	74.32
208.025	69.92
208.243	64.02
208.461	76.4
208.68	69.95
208.898	54.56
209.116	35.39
209.335	39.81
209.553	27.69
209.771	33.16
209.989	49.83
210.208	63.14
210.426	60.66
210.644	80.76
210.862	75.24
211.081	84.17
211.299	100.97
211.517	129.78
211.735	123.44
211.953	151.28
212.171	142.47
212.39	125.42
212.608	126.98
212.826	120.55
213.044	106.19
213.262	91.32
213.48	97.16
213.698	93.23
213.916	99.96
214.134	85.7
214.352	62.25
214.57	50.55
214.788	78.89
215.006	49.32
215.224	51.22
215.442	1.77
215.66	5.03
215.878	-10.8
216.096	5.64
216.314	-2.53
216.532	6.24
216.75	12.47
216.968	21.99
217.185	4.95
217.403	17.6
217.621	15.75
217.839	23.48
218.057	29.56
218.275	48.13
218.492	42.23
218.71	40.52
218.928	39.27
219.146	37.9
219.363	35.06
219.581	60.91
219.799	59.92
220.017	59.65
220.234	68.69
220.452	63.41
220.67	49.82
220.887	55.07
221.105	57.37
221.323	50.59
221.54	51.99
221.758	58.88
221.976	37.53
222.193	32.29
222.411	26.93
222.629	34.02
222.846	24.17
223.064	2.65
223.281	13.33
223.499	19.19
223.716	19.87
223.934	34.38
224.151	28.46
224.369	24.73
224.586	17.78
224.804	26.54
225.021	15.97
225.239	31.63
225.456	45.44
225.674	38.64
225.891	40.51
226.108	45.28
226.326	21.41
226.543	4.88
226.76	12.4
226.978	3.07
227.195	-2.94
227.413	1.12
227.63	8.76
227.847	8.98
228.064	9.64
228.282	7.98
228.499	7.97
228.716	11.99
228.934	16.18
229.151	13.95
229.368	18.12
229.585	18.55
229.802	18.18
230.02	13.52
230.237	10.02
230.454	9.73
230.671	7.84
230.888	7.77
231.105	6.76
231.323	7.61
231.54	10.94
231.757	6.6
231.974	8.02
232.191	8.77
232.408	9.3
232.625	11.91
232.842	10.32
233.059	11.43
233.276	9.89
233.493	6.37
233.71	2.93
233.927	-1.23
234.144	0.77
234.361	-1.27
234.578	-0.01
234.795	1.22
235.012	4.15
235.229	6.22
235.446	8.4
235.663	9.49
235.879	14.94
236.096	13.61
236.313	14.39
236.53	17.1
236.747	20.41
236.964	19.11
237.181	20.66
237.397	16.27
237.614	17.48
237.831	11.76
238.048	12.04
238.264	7.38
238.481	7.78
238.698	6.27
238.915	9.14
239.131	7.38
239.348	9.1
239.565	4.59
239.781	7.85
239.998	10.13
240.215	15.67
240.431	16
240.648	16.7
240.865	18.11
241.081	19.92
241.298	17.16
241.514	15.52
241.731	15.61
241.947	16.29
242.164	16.1
242.38	13.6
242.597	11.6
242.814	10.7
243.03	12.06
243.246	12.04
243.463	11.43
243.679	11.46
243.896	15.44
244.112	14.72
244.329	17.37
244.545	15.56
244.762	16.36
244.978	18.17
245.194	17.63
245.411	16.27
245.627	18.33
245.843	18.76
246.06	18.78
246.276	15.31
246.492	13.92
246.709	11.95
246.925	13.4
247.141	13.12
247.357	12.19
247.574	12.14
247.79	12.58
248.006	12.38
248.222	11.71
248.439	11.83
248.655	12.63
248.871	12.47
249.087	12.92
249.303	12.15
249.519	12.39
249.736	12.11
249.952	12.84
250.168	12.67
250.384	10.83
250.6	12.14
250.816	8.29
251.032	6.51
251.248	9.65
251.464	10.95
251.68	12.41
251.896	12.97
252.112	13.2
252.328	11.61
252.544	11.17
252.76	12.01
252.976	10.74
253.192	13.08
253.408	14.01
253.624	14.15
253.84	12.02
254.056	11.08
254.272	11.99
254.487	12.81
254.703	16.17
254.919	16.54
255.135	16.07
255.351	19.17
255.567	19.28
255.782	20.16
255.998	19.56
256.214	19.87
256.43	21.78
256.646	20.24
256.861	17.62
257.077	15.62
257.293	12.98
257.508	12.31
257.724	11.06
257.94	9.18
258.155	7.45
258.371	7.13
258.587	8.9
258.802	7.88
259.018	9.23
259.234	8.7
259.449	9.47
259.665	10.38
259.88	9.98
260.096	9.48
260.312	9.68
260.527	10.68
260.743	10.65
260.958	10.03
261.174	10.16
261.389	9.27
261.605	11.31
261.82	10.82
262.036	11.32
262.251	12.59
262.466	13.97
262.682	13.72
262.897	13.35
263.113	11.88
263.328	9.99
263.543	9.7
263.759	7.67
263.974	5.29
264.189	5.1
264.405	3.62
264.62	1.8
264.835	1.61
265.051	3.68
265.266	2.35
265.481	4.45
265.696	6.98
265.912	6.68
266.127	9.92
266.342	9.95
266.557	9.86
266.773	8.69
266.988	9.1
267.203	7.19
267.418	7.12
267.633	8.21
267.848	9.54
268.064	8.45
268.279	9.64
268.494	7.85
268.709	9.74
268.924	11.83
269.139	12.7
269.354	13.42
269.569	13.65
269.784	13.65
269.999	11.82
270.214	9.86
270.429	11.14
270.644	9.77
270.859	11.07
271.074	9.83
271.289	9.12
271.504	10.46
271.719	9.76
271.934	9.99
272.149	10.66
272.363	11.59
272.578	12.49
272.793	13.24
273.008	12.91
273.223	12.2
273.438	11.77
273.653	12.2
273.867	11.36
274.082	11.97
274.297	12.48
274.512	11.85
274.726	11.94
274.941	11.96
275.156	12.07
275.371	12.02
275.585	11.35
275.8	12.8
276.015	11.79
276.229	11.45
276.444	10.97
276.659	11.91
276.873	11.79
277.088	13.39
277.302	12.69
277.517	12.24
277.732	13.44
277.946	14.74
278.161	14.86
278.375	13.73
278.59	13.99
278.804	13.56
279.019	13.01
279.233	12.88
279.448	10.85
279.662	11.12
279.877	10.49
280.091	9.95
280.306	10.4
280.52	7.73
280.735	9.32
280.949	8.45
281.163	8.75
281.378	6.71
281.592	6.22
281.806	7.41
282.021	6.88
282.235	6.5
282.449	6.74
282.664	6.04
282.878	6.11
283.092	5.31
283.307	6.62
283.521	6.52
283.735	8.07
283.949	8.84
284.164	7.77
284.378	8.3
284.592	8.78
284.806	8.56
285.02	8.9
285.234	10.37
285.449	10.31
285.663	9.67
285.877	10.04
286.091	9.7
286.305	8.82
286.519	9.05
286.733	8.6
286.947	8.77
287.161	8.73
287.375	9.39
287.589	9.12
287.803	10.02
288.017	9.34
288.231	10.01
288.445	11.24
288.659	11.07
288.873	11.71
289.087	12.65
289.301	12.23
289.515	13.22
289.729	12.23
289.943	12.54
290.157	11.89
290.371	11.65
290.584	11.55
290.798	11.52
291.012	12.8
291.226	13.15
291.44	13.49
291.654	13.82
291.867	13.08
292.081	13.17
292.295	13.28
292.509	12.7
292.722	14.64
292.936	13.43
293.15	12.43
293.364	12.72
293.577	11.73
293.791	11.05
294.005	9.48
294.218	11.83
294.432	12.87
294.645	12.31
294.859	11.3
295.073	9.59
295.286	10.15
295.5	10.18
295.713	9.01
295.927	8.38
296.14	8.64
296.354	10.16
296.568	8.18
296.781	7.85
296.994	8.1
297.208	10.08
297.421	10.85
297.635	10.84
297.848	11.22
298.062	11.96
298.275	13.18
298.489	12.97
298.702	13.15
298.915	13.63
299.129	14.23
299.342	15.01
299.555	14.09
299.769	14.71
299.982	14.62
300.195	14.31
300.409	13.01
300.622	12.62
300.835	12.3
301.048	10.85
301.262	10.14
301.475	9.5
301.688	8.41
301.901	8.91
302.115	7.99
302.328	8.37
302.541	7.94
302.754	9.46
302.967	9.62
303.18	11.75
303.393	12.21
303.607	12.83
303.82	12
304.033	11.43
304.246	11.14
304.459	12.07
304.672	12.25
304.885	14.08
305.098	13.75
305.311	13.77
305.524	12.01
305.737	12.38
305.95	12.26
306.163	13.02
306.376	13.76
306.589	14.06
306.802	14.14
307.015	14.77
307.228	13.71
307.44	14.76
307.653	14.22
307.866	14.57
308.079	14.31
308.292	14.08
308.505	14.01
308.718	14.68
308.93	15.38
309.143	14.71
309.356	13.02
309.569	13.18
309.781	12.84
309.994	12.48
310.207	12.05
310.42	11.23
310.632	12.75
310.845	12.73
311.058	11.75
311.27	11.17
311.483	10.84
311.696	11.54
311.908	11.66
312.121	11.03
312.333	11.26
312.546	11.01
312.759	11.9
312.971	9.91
313.184	9.33
313.396	9.47
313.609	10.1
313.821	10.55
314.034	11.21
314.246	10.93
314.459	11.73
314.671	11.6
314.884	12.48
315.096	12.53
315.309	12.28
315.521	12.01
315.733	11.87
315.946	10.41
316.158	9.47
316.371	7.53
316.583	7.31
316.795	6.13
317.008	7.15
317.22	8.15
317.432	9.1
317.644	10.62
317.857	11.91
318.069	12.26
318.281	11.85
318.494	13.84
318.706	16.78
318.918	17.09
319.13	19.18
319.342	17.9
319.555	16.09
319.767	14.81
319.979	15.17
320.191	15.35
320.403	17.24
320.615	17.88
320.827	17.86
321.039	15.84
321.252	15.82
321.464	14.4
321.676	15.41
321.888	16.56
322.1	17.3
322.312	16.83
322.524	17.26
322.736	15.74
322.948	16.99
323.16	15.78
323.372	15.47
323.584	16.3
323.796	16.28
324.007	15.86
324.219	16.92
324.431	16.64
324.643	16.98
324.855	17.04
325.067	17.38
325.279	17.42
325.491	18.19
325.702	18.8
325.914	18.13
326.126	17.76
326.338	16.61
326.55	15.76
326.761	16.54
326.973	16.47
327.185	15.93
327.396	16.58
327.608	16.23
327.82	16.55
328.032	17.19
328.243	17.97
328.455	19.34
328.666	20.76
328.878	20.25
329.09	20.17
329.301	19.45
329.513	18.64
329.725	17.04
329.936	17.84
330.148	17.56
330.359	17.14
330.571	16.53
330.782	15.95
330.994	16.81
331.205	17.89
331.417	18.16
331.628	17.96
331.84	18.35
332.051	18.72
332.262	17.61
332.474	17.85
332.685	18.03
332.897	17.69
333.108	17.61
333.319	17.29
333.531	16.99
333.742	16.94
333.953	17.06
334.165	17.2
334.376	18.71
334.587	19.47
334.799	19.33
335.01	18.95
335.221	18.64
335.432	18.98
335.644	19.41
335.855	19.96
336.066	19.84
336.277	20.8
336.488	20.8
336.7	19
336.911	18.87
337.122	19.33
337.333	19.91
337.544	21.2
337.755	21.17
337.966	20.93
338.177	20.61
338.388	21.11
338.599	21.01
338.811	20.18
339.022	21.34
339.233	21.13
339.444	20.78
339.655	20.54
339.866	19.72
340.076	19.45
340.287	19.65
340.498	19.3
340.709	19.38
340.92	18.88
341.131	19.99
341.342	19.37
341.553	19.6
341.764	18.74
341.975	19.15
342.185	17.92
342.396	17.65
342.607	17.32
342.818	17
343.029	16.45
343.239	17.39
343.45	17.14
343.661	17.7
343.872	17
344.082	17.41
344.293	16.37
344.504	16.81
344.714	17.1
344.925	16.71
345.136	16.68
345.346	16.59
345.557	15.12
345.768	14.38
345.978	14.34
346.189	14.83
346.399	14.72
346.61	15.41
346.821	16.52
347.031	16.58
347.242	16.97
347.452	17.93
347.663	18.41
347.873	19.65
348.084	21.07
348.294	20.65
348.504	20.92
348.715	20.76
348.925	20.82
349.136	20.28
349.346	19.29
349.557	18.98
349.767	17.88
349.977	17.46
350.188	16.95
350.398	15.93
350.608	16.02
350.819	15.89
351.029	16.28
351.239	14.93
351.449	15.28
351.66	14.69
351.87	15.55
352.08	15.93
352.29	15.95
352.501	16.58
352.711	17.01
352.921	16.33
353.131	15.85
353.341	15.85
353.552	16.43
353.762	15.62
353.972	17.24
354.182	16.44
354.392	16.65
354.602	15.81
354.812	14.58
355.022	14.4
355.232	15
355.442	14.92
355.652	14.45
355.862	14.94
356.072	15.32
356.282	15.02
356.492	15.36
356.702	15.24
356.912	15.7
357.122	15.94
357.332	16.38
357.542	16.93
357.752	16.89
357.962	17.21
358.171	16.83
358.381	16.79
358.591	16.26
358.801	15.96
359.011	15.27
359.221	15.57
359.43	16.08
359.64	15.3
359.85	14.77
360.06	14.86
360.269	14.8
360.479	15.48
360.689	15.14
360.899	15.31
361.108	15.56
361.318	16.32
361.528	16.2
361.737	15.74
361.947	15.87
362.156	15.68
362.366	15.7
362.576	15.7
362.785	15.36
362.995	15.97
363.204	16.42
363.414	16.51
363.623	16.35
363.833	16.36
364.042	16.74
364.252	17.59
364.461	17.64
364.671	17.89
364.88	17.5
365.09	17.12
365.299	16.61
365.509	16.21
365.718	15.87
365.927	15.72
366.137	15.37
366.346	15.11
366.555	14.54
366.765	14.56
366.974	14.4
367.183	14.81
367.393	14.86
367.602	14.96
367.811	14.71
368.021	14.96
368.23	15.06
368.439	15.6
368.648	15.51
368.857	15.26
369.067	14.51
369.276	14.45
369.485	14.62
369.694	15.09
369.903	14.61
370.112	14.32
370.321	13.89
370.531	13.79
370.74	13.33
370.949	13.09
371.158	12.41
371.367	12.86
371.576	12.75
371.785	12.27
371.994	12.07
372.203	11.89
372.412	12.46
372.621	12.46
372.83	11.8
373.039	11.68
373.248	11.87
373.457	12.52
373.666	12.5
373.874	12.44
374.083	11.84
374.292	10.62
374.501	11.09
374.71	10.27
374.919	10.68
375.128	11.37
375.336	11.77
375.545	11.69
375.754	11.61
375.963	11.44
376.171	11.35
376.38	11.27
376.589	12.02
376.798	11.8
377.006	12.02
377.215	11.78
377.424	11.62
377.632	10.68
377.841	10.55
378.05	10.55
378.258	10.82
378.467	10.53
378.675	11.19
378.884	11.18
379.093	10.88
379.301	10.94
379.51	10.53
379.718	10.31
379.927	10.45
380.135	10.17
380.344	10.05
380.552	9.53
380.761	9.31
380.969	8.71
381.177	8.46
381.386	8.71
381.594	8.47
381.803	8.4
382.011	8.14
382.219	8.29
382.428	8.7
382.636	8.42
382.845	8.95
383.053	9.33
383.261	9.25
383.469	9.47
383.678	8.96
383.886	8.58
384.094	8.48
384.302	9.06
384.511	9.23
384.719	8.99
384.927	8.97
385.135	8.81
385.343	8.68
385.552	9.26
385.76	9.2
385.968	9.31
386.176	9.97
386.384	9.94
386.592	9.64
386.8	9.32
387.008	9.51
387.216	9.58
387.424	9.45
387.633	8.98
387.841	8.49
388.049	8.03
388.257	8.06
388.465	7.85
388.672	7.82
388.88	7.36
389.088	7.29
389.296	7.05
389.504	6.84
389.712	6.71
389.92	7.09
390.128	7
390.336	7.3
390.544	7.42
390.751	7.32
390.959	7.23
391.167	7.68
391.375	7.8
391.583	8.13
391.79	8.14
391.998	8
392.206	8.06
392.414	8.03
392.621	7.53
392.829	7.47
393.037	7.4
393.244	7.56
393.452	7.41
393.66	7.34
393.867	7.06
394.075	7.22
394.283	7.54
394.49	7.38
394.698	7.66
394.905	8.09
395.113	7.82
395.32	7.67
395.528	7.5
395.735	7.32
395.943	7.39
396.15	7.24
396.358	7.06
396.565	7.07
396.773	6.93
396.98	6.76
397.188	6.45
397.395	6.55
397.602	6.7
397.81	6.97
398.017	6.77
398.225	6.45
398.432	6.72
398.639	6.49
398.847	6.2
399.054	6.14
399.261	5.56
399.468	5.84
399.676	5.82
399.883	5.82
400.09	5.4
400.297	5.25
400.505	5.15
400.712	4.77
400.919	5.12
401.126	5.19
401.333	5.05
401.54	4.99
401.748	4.95
401.955	5.13
402.162	5.14
402.369	5.15
402.576	5.4
402.783	5.61
402.99	5.28
403.197	5.07
403.404	4.9
403.611	5.11
403.818	5.5
404.025	5.48
404.232	5.42
404.439	5.06
404.646	4.57
404.853	4.51
405.06	4.51
405.267	4.47
405.474	4.32
405.681	4.25
405.887	4.34
406.094	4.44
406.301	4.27
406.508	3.83
406.715	3.86
406.922	4.49
407.128	4.58
407.335	4.5
407.542	4.65
407.749	4.8
407.955	4.67
408.162	4.28
408.369	4.01
408.575	4.27
408.782	4.87
408.989	5.32
409.195	5.16
409.402	4.93
409.609	4.98
409.815	5.02
410.022	5
410.228	5.14
410.435	5.4
410.642	5.41
410.848	4.99
411.055	4.84
411.261	4.64
411.468	4.6
411.674	4.77
411.881	4.61
412.087	4.61
412.294	4.57
412.5	4.88
412.706	4.58
412.913	4.54
413.119	4.64
413.326	4.38
413.532	4.3
413.738	4.38
413.945	4.07
414.151	4.09
414.357	4.13
414.564	3.92
414.77	3.66
414.976	3.86
415.182	4.05
415.389	3.79
415.595	3.63
415.801	3.59
416.007	3.51
416.214	3.6
416.42	3.6
416.626	3.48
416.832	3.47
417.038	3.64
417.244	3.5
417.45	3.35
417.657	3.74
417.863	4.06
418.069	4.03
418.275	4.17
418.481	4.2
418.687	4.24
418.893	4.33
419.099	4.58
419.305	4.35
419.511	4.37
419.717	4.4
419.923	4.17
420.129	3.99
420.335	4.03
420.541	4.01
420.746	3.97
420.952	3.85
421.158	3.71
421.364	3.5
421.57	3.47
421.776	3.44
421.982	3.39
422.187	3.49
422.393	3.48
422.599	3.44
422.805	3.41
423.01	3.49
423.216	3.49
423.422	3.64
423.628	3.58
423.833	3.66
424.039	3.76
424.245	3.82
424.45	3.82
424.656	3.88
424.862	3.71
425.067	3.77
425.273	3.77
425.478	3.83
425.684	3.67
425.889	3.62
426.095	3.6
426.301	3.48
426.506	3.58
426.712	3.49
426.917	3.39
427.123	3.49
427.328	3.21
427.533	2.92
427.739	2.85
427.944	3.03
428.15	3.11
428.355	3.01
428.561	3.11
428.766	3.02
428.971	3.19
429.177	3.19
429.382	3.23
429.587	3.32
429.793	3.47
429.998	3.48
430.203	3.1
430.408	3.07
430.614	3.55
430.819	3.31
431.024	3.41
431.229	3.46
431.434	3.38
431.64	3.6
431.845	3.67
432.05	3.82
432.255	3.71
432.46	4.04
432.665	4
432.87	3.82
433.076	4.11
433.281	3.88
433.486	3.68
433.691	3.88
433.896	3.77
434.101	3.54
434.306	3.5
434.511	3.49
434.716	3.4
434.921	3.64
435.126	3.5
435.331	3.28
435.535	3.12
435.74	3.05
435.945	2.8
436.15	2.75
436.355	3
436.56	2.83
436.765	2.8
436.97	2.83
437.174	2.7
437.379	2.72
437.584	2.91
437.789	3.02
437.993	3.11
438.198	3.23
438.403	3.28
438.608	3.15
438.812	3.28
439.017	3.27
439.222	3.34
439.426	3.34
439.631	3.25
439.836	3.27
440.04	3.17
440.245	3.06
440.45	2.97
440.654	2.99
440.859	2.96
441.063	2.84
441.268	2.96
441.472	2.86
441.677	2.91
441.881	3.08
442.086	2.93
442.29	3.02
442.495	3.18
442.699	3.29
442.904	3.26
443.108	3.31
443.312	3.45
443.517	3.38
443.721	3.42
443.925	3.26
444.13	3.01
444.334	3.07
444.538	3.1
444.743	3.05
444.947	2.95
445.151	2.85
445.356	2.86
445.56	2.75
445.764	2.89
445.968	2.87
446.173	3.03
446.377	3.11
446.581	3.09
446.785	2.88
446.989	2.8
447.193	2.88
447.398	2.93
447.602	2.71
447.806	2.78
448.01	2.82
448.214	2.85
448.418	2.66
448.622	2.53
448.826	2.44
449.03	2.74
449.234	2.82
449.438	2.82
449.642	2.78
449.846	3.06
450.05	3.08
450.254	2.66
450.458	2.79
450.662	2.86
450.866	2.76
451.069	2.76
451.273	2.61
451.477	2.57
451.681	2.58
451.885	2.57
452.089	2.37
452.292	2.28
452.496	2.5
452.7	2.4
452.904	2.52
453.107	2.99
453.311	3
453.515	3.15
453.719	3.32
453.922	3.14
454.126	3.23
454.33	3.48
454.533	3.63
454.737	3.79
454.94	3.68
455.144	3.61
455.348	3.28
455.551	3.47
455.755	3.24
455.958	3.26
456.162	3.39
456.365	3.52
456.569	3.5
456.772	3.36
456.976	2.97
457.179	3.25
457.383	3.25
457.586	3.14
457.79	3.02
457.993	2.93
458.196	2.6
458.4	2.6
458.603	2.42
458.807	2.36
459.01	2.46
459.213	2.55
459.417	2.49
459.62	2.54
459.823	2.69
460.026	2.7
460.23	2.8
460.433	2.89
460.636	2.87
460.839	3
461.042	3.12
461.246	3.1
461.449	3.15
461.652	3.05
461.855	3.07
462.058	2.99
462.261	2.88
462.464	2.91
462.668	2.9
462.871	2.91
463.074	2.69
463.277	2.5
463.48	2.61
463.683	2.76
463.886	2.69
464.089	2.6
464.292	2.79
464.495	2.78
464.698	2.85
464.901	2.77
465.104	2.81
465.306	2.71
