Data from CB_006_Reflection_3.txt Node
Date: Wed Nov 11 18:28:20 EST 2015
User: robert
Spectrometer: USB4E03001
Autoset integration time: false
Trigger mode: 4
Integration Time (sec): 1.000000E-1
Scans to average: 15
Electric dark correction enabled: true
Nonlinearity correction enabled: false
Boxcar width: 5
Stray light correction enabled: false
XAxis mode: Wavelengths
Stop averaging: false
Number of Pixels in Spectrum: 3648
>>>>>Begin Spectral Data<<<<<
177.566	-15.33
177.785	-137.14
178.005	-51.66
178.225	-1596.69
178.445	291.33
178.665	434.09
178.885	58.75
179.105	316.33
179.324	242.94
179.544	-52.35
179.764	20.64
179.984	-32.61
180.204	212.21
180.423	-43.61
180.643	-322.6
180.863	791.67
181.083	3457.02
181.302	578.56
181.522	-832.04
181.742	-220.47
181.961	343.34
182.181	204.34
182.401	216.12
182.621	1036.11
182.84	239.96
183.06	255.15
183.279	278.87
183.499	635.06
183.719	517.08
183.938	402.85
184.158	958.9
184.377	-1165.99
184.597	-301.45
184.816	-205.23
185.036	-476.53
185.256	-61.52
185.475	259.15
185.695	-5988.51
185.914	240.77
186.134	134.48
186.353	168.73
186.572	167.26
186.792	145.22
187.011	16.34
187.231	15.18
187.45	27.26
187.67	57.83
187.889	821.84
188.108	289.98
188.328	382.18
188.547	-263.92
188.766	-456.9
188.986	291.55
189.205	-20727.27
189.424	702.3
189.644	5014.88
189.863	252.42
190.082	201.83
190.302	130.16
190.521	78.51
190.74	73.43
190.959	66.48
191.178	53.14
191.398	49.33
191.617	31.72
191.836	32.75
192.055	46.96
192.274	31.45
192.494	53.43
192.713	62.5
192.932	67.7
193.151	73
193.37	79.62
193.589	94.47
193.808	116.21
194.027	137.36
194.246	187.68
194.465	170.93
194.685	154.4
194.904	177.44
195.123	455.38
195.342	1529.6
195.561	226.53
195.78	230.18
195.999	199.11
196.218	719.44
196.436	-298.74
196.655	-512.39
196.874	369.77
197.093	598.71
197.312	414.83
197.531	32.32
197.75	-13.63
197.969	-2.33
198.188	49.97
198.407	59.41
198.625	15.66
198.844	81.71
199.063	-60.08
199.282	-51.52
199.501	65.78
199.719	16.65
199.938	-1430.86
200.157	225.67
200.376	178.21
200.594	450.99
200.813	-13882.86
201.032	701.45
201.251	155.29
201.469	129.47
201.688	89.21
201.907	80.87
202.125	23.8
202.344	35.54
202.563	28.64
202.781	28.44
203	-4.04
203.218	-16.53
203.437	-2.27
203.656	-33.54
203.874	-19.94
204.093	-5.41
204.311	-2.3
204.53	14.01
204.748	-22.34
204.967	-36.24
205.185	-26.62
205.404	8.55
205.622	40.3
205.841	28.96
206.059	57.08
206.278	53.28
206.496	-29.78
206.715	34.16
206.933	44.65
207.151	95.94
207.37	69.4
207.588	144.38
207.806	174.99
208.025	135.76
208.243	205.16
208.461	98.97
208.68	151.43
208.898	213.55
209.116	220.2
209.335	186.43
209.553	-452.1
209.771	282.28
209.989	-1603.91
210.208	-719.95
210.426	-321.32
210.644	-5.63
210.862	5.05
211.081	40.78
211.299	29.94
211.517	0.13
211.735	-35.57
211.953	-31.6
212.171	87.33
212.39	-198.68
212.608	-1146.48
212.826	230.71
213.044	284.37
213.262	216.42
213.48	199.04
213.698	222.68
213.916	-1041.1
214.134	-237.5
214.352	-452.42
214.57	560.06
214.788	135.97
215.006	123.34
215.224	96.08
215.442	46
215.66	49.22
215.878	75.05
216.096	101.41
216.314	67.96
216.532	78.54
216.75	73.94
216.968	71.38
217.185	84.7
217.403	97.57
217.621	74.83
217.839	116.85
218.057	1906.03
218.275	-464.44
218.492	4.64
218.71	13.41
218.928	29.13
219.146	1.69
219.363	22.57
219.581	-5.34
219.799	-0.76
220.017	-10.55
220.234	-11.23
220.452	-12.03
220.67	-37.09
220.887	-80.01
221.105	-59.6
221.323	-75.87
221.54	12.89
221.758	28.07
221.976	50.4
222.193	33.91
222.411	-2.35
222.629	25.76
222.846	24.01
223.064	59.08
223.281	51.72
223.499	53.63
223.716	44.94
223.934	-142.68
224.151	-396.46
224.369	-312.57
224.586	161450
224.804	-475.39
225.021	-192.35
225.239	-228.6
225.456	-227.56
225.674	-308.32
225.891	-98.38
226.108	-100.39
226.326	-56.2
226.543	-46.44
226.76	-39.54
226.978	-22.4
227.195	-11.42
227.413	-12.86
227.63	-11.86
227.847	-8.48
228.064	-0.39
228.282	2.68
228.499	11.57
228.716	10.96
228.934	9.31
229.151	6.93
229.368	6.28
229.585	2
229.802	4.75
230.02	5.05
230.237	5.07
230.454	4.58
230.671	3.79
230.888	-3.91
231.105	-4.15
231.323	-4.69
231.54	-0.95
231.757	1.96
231.974	5.37
232.191	2.43
232.408	3.43
232.625	-1.93
232.842	-3.73
233.059	-8.77
233.276	-3.4
233.493	-3.2
233.71	1.74
233.927	0.79
234.144	4.34
234.361	1.48
234.578	-2.61
234.795	-3.9
235.012	-5.49
235.229	-3.77
235.446	-3.59
235.663	-12.25
235.879	-10.03
236.096	-16.28
236.313	-24.28
236.53	-39.93
236.747	-27.05
236.964	-18.82
237.181	-24.76
237.397	-7.66
237.614	-2.4
237.831	-12.68
238.048	-8.21
238.264	-16.14
238.481	-12.34
238.698	-3.38
238.915	-9.92
239.131	-16.72
239.348	-23.18
239.565	-15.28
239.781	-19.37
239.998	-16.71
240.215	-11.13
240.431	-7.58
240.648	-0.85
240.865	0.12
241.081	-0.69
241.298	5.39
241.514	3.26
241.731	4.76
241.947	5.24
242.164	5.9
242.38	4.32
242.597	3.6
242.814	4.01
243.03	-0.04
243.246	0.71
243.463	0.4
243.679	0.56
243.896	2.8
244.112	2.01
244.329	1.72
244.545	0.86
244.762	0.02
244.978	3.22
245.194	0.45
245.411	3.19
245.627	0.16
245.843	1.11
246.06	3.22
246.276	4.38
246.492	4.4
246.709	4.21
246.925	3.57
247.141	4.13
247.357	3.58
247.574	4.54
247.79	5.74
248.006	6.41
248.222	6.45
248.439	4.37
248.655	3.96
248.871	4.1
249.087	4.96
249.303	5.22
249.519	4.1
249.736	3.53
249.952	2.07
250.168	-3.35
250.384	-3.68
250.6	-4.75
250.816	-5.16
251.032	-7.02
251.248	-7.64
251.464	-8.38
251.68	-10.47
251.896	-6.22
252.112	-6.54
252.328	-5.06
252.544	-1.58
252.76	-2.51
252.976	-2.05
253.192	-0.54
253.408	-1.34
253.624	-1.52
253.84	-4.55
254.056	-4.07
254.272	-6.9
254.487	-6.59
254.703	-5.61
254.919	-5.26
255.135	-5.49
255.351	-4.36
255.567	-2.49
255.782	-2.98
255.998	-0.93
256.214	1.86
256.43	3.77
256.646	4.34
256.861	2.7
257.077	-1.48
257.293	-6.85
257.508	-6.01
257.724	-5.49
257.94	-7.44
258.155	-5.92
258.371	-3.13
258.587	-2.44
258.802	-3.32
259.018	-3.49
259.234	-0.68
259.449	1.22
259.665	2.54
259.88	3.52
260.096	2.79
260.312	3.21
260.527	4.23
260.743	2.86
260.958	2.93
261.174	3.64
261.389	3.67
261.605	2.04
261.82	2.4
262.036	2.91
262.251	1.59
262.466	1.6
262.682	1.3
262.897	-1.55
263.113	-2.73
263.328	-2.63
263.543	-0.58
263.759	-0.57
263.974	0.75
264.189	-0.97
264.405	-4.12
264.62	-3.54
264.835	-2.91
265.051	-1.48
265.266	-1.36
265.481	1.72
265.696	-1.88
265.912	-4.27
266.127	-3
266.342	-3.66
266.557	-4.84
266.773	-2.81
266.988	-2.26
267.203	-2.91
267.418	-3.33
267.633	-4.38
267.848	-4.53
268.064	-2.35
268.279	-3.65
268.494	-4.59
268.709	-3.58
268.924	-1.98
269.139	-0.61
269.354	-0.41
269.569	2.18
269.784	1.05
269.999	1.77
270.214	0.98
270.429	0.35
270.644	1.56
270.859	1.28
271.074	0.11
271.289	-0.09
271.504	0.15
271.719	-2.13
271.934	-3.13
272.149	-2.27
272.363	-1.49
272.578	-0.76
272.793	1.11
273.008	1.73
273.223	1.89
273.438	2.89
273.653	3
273.867	2
274.082	2.71
274.297	3.01
274.512	3.38
274.726	4.17
274.941	3.77
275.156	2.21
275.371	0.92
275.585	0.26
275.8	-0.47
276.015	-1.75
276.229	-1.96
276.444	-0.01
276.659	-0.99
276.873	-2.51
277.088	-3.32
277.302	-3.75
277.517	-4.01
277.732	-4.38
277.946	-3.74
278.161	-3.91
278.375	-3.49
278.59	-2.78
278.804	-2.63
279.019	-2.01
279.233	0.68
279.448	0.6
279.662	0.9
279.877	0.98
280.091	3.28
280.306	4.35
280.52	5.18
280.735	4.37
280.949	5.37
281.163	5.63
281.378	4.38
281.592	3.93
281.806	4.04
282.021	3.74
282.235	3.03
282.449	1
282.664	-0.32
282.878	-1.01
283.092	-0.18
283.307	-0.8
283.521	-0.39
283.735	1.03
283.949	1.03
284.164	1.76
284.378	3.15
284.592	4.25
284.806	5.33
285.02	5.99
285.234	7.23
285.449	7.83
285.663	7.06
285.877	5.84
286.091	5.26
286.305	5.35
286.519	5.16
286.733	4.6
286.947	4.28
287.161	4.6
287.375	3.68
287.589	1.93
287.803	1.82
288.017	2.63
288.231	2.65
288.445	3.4
288.659	2.69
288.873	3.45
289.087	2.49
289.301	3.47
289.515	3.41
289.729	3.43
289.943	4.43
290.157	3.74
290.371	2.89
290.584	3.54
290.798	3.14
291.012	2.97
291.226	2.1
291.44	2.01
291.654	1.05
291.867	0.96
292.081	1.2
292.295	0.97
292.509	0.87
292.722	1.55
292.936	0.74
293.15	0.9
293.364	2.49
293.577	3.23
293.791	4.41
294.005	5.2
294.218	5.93
294.432	6.34
294.645	7.53
294.859	7.66
295.073	7.4
295.286	7.39
295.5	7.99
295.713	7.35
295.927	6.94
296.14	7.31
296.354	6.86
296.568	5.5
296.781	4.55
296.994	3.32
297.208	2.97
297.421	3.58
297.635	3.4
297.848	3.28
298.062	4.57
298.275	4.18
298.489	3.08
298.702	3.47
298.915	4.5
299.129	5.37
299.342	5.85
299.555	7.52
299.769	7.09
299.982	8.01
300.195	8.14
300.409	6.35
300.622	7.28
300.835	7.93
301.048	7.04
301.262	6.6
301.475	7.61
301.688	8.04
301.901	7.1
302.115	7.8
302.328	8.2
302.541	6.79
302.754	6.79
302.967	5.67
303.18	5.89
303.393	6.91
303.607	7.53
303.82	6.39
304.033	5.68
304.246	5.41
304.459	3.93
304.672	4.14
304.885	4.45
305.098	4.71
305.311	5.95
305.524	5.35
305.737	4.71
305.95	2.81
306.163	3.9
306.376	4.51
306.589	5.03
306.802	5.64
307.015	4.91
307.228	5.83
307.44	6.91
307.653	6.11
307.866	6.21
308.079	5.37
308.292	7.1
308.505	7.35
308.718	6.61
308.93	6.47
309.143	7.29
309.356	7.34
309.569	7.05
309.781	7.38
309.994	6.28
310.207	7.16
310.42	8.01
310.632	7.84
310.845	7.58
311.058	8.65
311.27	8.19
311.483	8.66
311.696	8.47
311.908	8.56
312.121	7.71
312.333	9.22
312.546	9.6
312.759	8.53
312.971	7.97
313.184	7.22
313.396	7.2
313.609	7.68
313.821	5.94
314.034	7.18
314.246	6.83
314.459	6.57
314.671	6.45
314.884	4.86
315.096	7.33
315.309	7.82
315.521	7.95
315.733	6.24
315.946	7.14
316.158	7.55
316.371	6.8
316.583	7.19
316.795	8.05
317.008	7.34
317.22	8.06
317.432	6.45
317.644	5.06
317.857	5.3
318.069	6.01
318.281	4.13
318.494	3.89
318.706	2.82
318.918	2.98
319.13	0.71
319.342	1.68
319.555	1.45
319.767	1.26
319.979	3.37
320.191	3.28
320.403	2
320.615	2.74
320.827	3.15
321.039	4.31
321.252	3.86
321.464	4.89
321.676	3.89
321.888	3.33
322.1	4.43
322.312	3.08
322.524	3.97
322.736	6.1
322.948	5.88
323.16	6.68
323.372	6.38
323.584	7.64
323.796	6.63
324.007	6.66
324.219	6.48
324.431	6.32
324.643	6.21
324.855	5.86
325.067	6.58
325.279	7.23
325.491	6.59
325.702	6.72
325.914	6.86
326.126	7.98
326.338	8.89
326.55	10.68
326.761	11.39
326.973	12.95
327.185	13.19
327.396	11.78
327.608	11.29
327.82	11.94
328.032	11.66
328.243	11.34
328.455	11.63
328.666	12.31
328.878	11.66
329.09	11.38
329.301	9.55
329.513	8.97
329.725	10.43
329.936	11.21
330.148	11.12
330.359	11.67
330.571	11.29
330.782	12.22
330.994	11.03
331.205	10.6
331.417	11.2
331.628	12.9
331.84	14.42
332.051	13.38
332.262	13.22
332.474	13.11
332.685	14.11
332.897	14.26
333.108	14.06
333.319	16.05
333.531	16.6
333.742	15.51
333.953	15.71
334.165	15.07
334.376	15.38
334.587	16.14
334.799	16.14
335.01	16.07
335.221	17.71
335.432	18.04
335.644	16.92
335.855	17.51
336.066	18.83
336.277	18.68
336.488	19.16
336.7	19.74
336.911	20.08
337.122	21.47
337.333	20.9
337.544	19.77
337.755	20.11
337.966	19.14
338.177	18.25
338.388	17.34
338.599	16.68
338.811	16.25
339.022	16.5
339.233	15.68
339.444	15.35
339.655	16.7
339.866	18.1
340.076	18.11
340.287	19.8
340.498	21.1
340.709	22.18
340.92	22.86
341.131	23.75
341.342	23.2
341.553	23.34
341.764	23.11
341.975	22.78
342.185	22.18
342.396	22.08
342.607	21.26
342.818	20.08
343.029	19.71
343.239	19.98
343.45	19.99
343.661	20.02
343.872	20.67
344.082	20.29
344.293	20.02
344.504	20.4
344.714	20.12
344.925	20.73
345.136	20.95
345.346	21.67
345.557	21.4
345.768	21.78
345.978	22.35
346.189	21.69
346.399	22.4
346.61	23.25
346.821	22.95
347.031	22.81
347.242	22.11
347.452	22.1
347.663	21.65
347.873	23.36
348.084	22.74
348.294	22.51
348.504	22.86
348.715	22.99
348.925	22.04
349.136	21.77
349.346	22.3
349.557	23.19
349.767	23.48
349.977	23
350.188	21.55
350.398	22.4
350.608	22.74
350.819	23.33
351.029	22.35
351.239	21.98
351.449	21.33
351.66	21.78
351.87	22.26
352.08	22.31
352.29	22.62
352.501	23.07
352.711	22.87
352.921	21.98
353.131	21.42
353.341	22.63
353.552	22.53
353.762	23.95
353.972	23.11
354.182	23.06
354.392	22.78
354.602	22.42
354.812	22.2
355.022	22
355.232	22.77
355.442	22.47
355.652	21.89
355.862	22.68
356.072	21.51
356.282	22.04
356.492	21.41
356.702	22.07
356.912	22.33
357.122	21.97
357.332	21.39
357.542	21.08
357.752	21.72
357.962	21.82
358.171	21.98
358.381	22.56
358.591	22.92
358.801	23.17
359.011	23.31
359.221	23.09
359.43	23.58
359.64	24.07
359.85	24.98
360.06	24.86
360.269	24.94
360.479	24.14
360.689	24.02
360.899	23.19
361.108	23.19
361.318	22.6
361.528	22.8
361.737	22.67
361.947	22.52
362.156	21.51
362.366	21.32
362.576	21.08
362.785	21.42
362.995	21.37
363.204	22
363.414	21.76
363.623	22.01
363.833	22.15
364.042	22.59
364.252	22.59
364.461	22.99
364.671	23.12
364.88	22.76
365.09	22.35
365.299	21.93
365.509	20.73
365.718	21.03
365.927	20.62
366.137	20.56
366.346	19.65
366.555	19.2
366.765	19.06
366.974	19.14
367.183	19.18
367.393	19.44
367.602	19.41
367.811	19.81
368.021	19.2
368.23	19.65
368.439	19.04
368.648	18.64
368.857	19.01
369.067	18.6
369.276	18.28
369.485	18.76
369.694	18.79
369.903	19.16
370.112	19.19
370.321	18.97
370.531	18.49
370.74	18.23
370.949	18.1
371.158	18.01
371.367	17.83
371.576	17.81
371.785	17.3
371.994	17.12
372.203	16.59
372.412	17
372.621	17.9
372.83	18.62
373.039	19.11
373.248	20.28
373.457	20.24
373.666	20.72
373.874	20.55
374.083	20.96
374.292	21.15
374.501	21.58
374.71	21.24
374.919	20.66
375.128	20.03
375.336	19.41
375.545	18.82
375.754	18.5
375.963	18.53
376.171	18.71
376.38	18.06
376.589	17.63
376.798	17.08
377.006	16.04
377.215	16.32
377.424	16.56
377.632	16.77
377.841	16.65
378.05	16.01
378.258	15.59
378.467	15.69
378.675	15.69
378.884	15.44
379.093	15.41
379.301	16.48
379.51	16.32
379.718	15.94
379.927	16.11
380.135	16.04
380.344	16.55
380.552	16.7
380.761	16.17
380.969	16.18
381.177	16.63
381.386	16.46
381.594	16.2
381.803	15.8
382.011	16.32
382.219	15.88
382.428	15.49
382.636	15.83
382.845	15.77
383.053	15.99
383.261	16.04
383.469	16.02
383.678	16.17
383.886	16
384.094	16.1
384.302	15.32
384.511	15.6
384.719	15.81
384.927	15.97
385.135	15.97
385.343	15.75
385.552	15.72
385.76	15.7
385.968	15.59
386.176	15.79
386.384	15.35
386.592	14.99
386.8	14.73
387.008	14.83
387.216	14.69
387.424	15.06
387.633	15.21
387.841	15.32
388.049	15.02
388.257	15.38
388.465	15.14
388.672	15.5
388.88	16.01
389.088	16.25
389.296	15.59
389.504	15.62
389.712	14.84
389.92	14.5
390.128	14.16
390.336	13.75
390.544	13.74
390.751	13.87
390.959	13.37
391.167	13.42
391.375	13.16
391.583	13.79
391.79	13.17
391.998	13.36
392.206	13.39
392.414	13.53
392.621	14.08
392.829	13.92
393.037	13.64
393.244	13.88
393.452	13.65
393.66	13.71
393.867	13.55
394.075	13.7
394.283	13.71
394.49	13.8
394.698	14.05
394.905	13.76
395.113	13.7
395.32	13.73
395.528	13.64
395.735	13.69
395.943	13.51
396.15	13.25
396.358	13.15
396.565	13.1
396.773	12.87
396.98	12.44
397.188	12.4
397.395	12.45
397.602	12.57
397.81	12.72
398.017	12.72
398.225	12.74
398.432	12.65
398.639	13.11
398.847	13.08
399.054	13.09
399.261	13.35
399.468	13.43
399.676	13.68
399.883	13.43
400.09	13.48
400.297	13.28
400.505	13.29
400.712	13.71
400.919	13.37
401.126	13.36
401.333	13.45
401.54	13.1
401.748	12.95
401.955	12.37
402.162	12.44
402.369	12.28
402.576	12.51
402.783	12.7
402.99	12.54
403.197	12.68
403.404	12.39
403.611	12.42
403.818	12.45
404.025	12.47
404.232	12.77
404.439	12.9
404.646	12.71
404.853	12.74
405.06	12.63
405.267	12.81
405.474	12.74
405.681	12.96
405.887	13.02
406.094	13.27
406.301	13.34
406.508	13.34
406.715	13.27
406.922	13.59
407.128	13.42
407.335	13.44
407.542	13.06
407.749	13.28
407.955	13.17
408.162	13.39
408.369	13.47
408.575	13.65
408.782	13.63
408.989	13.68
409.195	13.75
409.402	13.9
409.609	13.84
409.815	14.36
410.022	14.11
410.228	14.38
410.435	14.12
410.642	13.85
410.848	13.98
411.055	13.77
411.261	13.64
411.468	13.75
411.674	13.48
411.881	13.26
412.087	12.97
412.294	13.14
412.5	13.21
412.706	13.47
412.913	13.08
413.119	12.86
413.326	13.07
413.532	13.36
413.738	13.15
413.945	13.32
414.151	13.59
414.357	13.26
414.564	13.2
414.77	12.9
414.976	12.28
415.182	12.65
415.389	12.75
415.595	12.78
415.801	12.67
416.007	12.82
416.214	12.8
416.42	12.9
416.626	13.03
416.832	13.03
417.038	12.92
417.244	13.06
417.45	13.01
417.657	12.83
417.863	12.9
418.069	12.83
418.275	12.73
418.481	12.71
418.687	12.59
418.893	12.61
419.099	12.65
419.305	13.01
419.511	13.1
419.717	13.18
419.923	13.15
420.129	13.08
420.335	13.06
420.541	12.85
420.746	12.92
420.952	13.01
421.158	13.04
421.364	12.82
421.57	12.58
421.776	12.37
421.982	12.28
422.187	12.24
422.393	12.18
422.599	12.32
422.805	12.35
423.01	12.26
423.216	12
423.422	11.89
423.628	12.03
423.833	11.98
424.039	12.2
424.245	12.3
424.45	12.36
424.656	12.32
424.862	12.3
425.067	12.57
425.273	12.68
425.478	12.81
425.684	12.83
425.889	12.79
426.095	12.81
426.301	12.75
426.506	12.69
426.712	12.73
426.917	12.88
427.123	12.71
427.328	12.42
427.533	12.25
427.739	12.16
427.944	12.2
428.15	12.14
428.355	12.27
428.561	12.15
428.766	11.96
428.971	12.14
429.177	12.01
429.382	11.94
429.587	12.07
429.793	11.95
429.998	12.04
430.203	12.16
430.408	12.07
430.614	11.98
430.819	12.16
431.024	12.05
431.229	11.77
431.434	11.74
431.64	11.75
431.845	11.66
432.05	12
432.255	11.93
432.46	11.78
432.665	11.96
432.87	12.12
433.076	12.09
433.281	12.09
433.486	11.99
433.691	11.91
433.896	11.74
434.101	11.78
434.306	11.81
434.511	11.69
434.716	11.69
434.921	11.63
435.126	11.48
435.331	11.22
435.535	11.42
435.74	11.62
435.945	11.7
436.15	11.89
436.355	11.96
436.56	11.8
436.765	11.88
436.97	11.92
437.174	12.07
437.379	12.18
437.584	12.43
437.789	12.43
437.993	12.41
438.198	12.44
438.403	12.71
438.608	12.5
438.812	12.42
439.017	12.48
439.222	12.5
439.426	12.38
439.631	12.25
439.836	12.18
440.04	12.26
440.245	12.21
440.45	12.09
440.654	11.93
440.859	12
441.063	12
441.268	11.93
441.472	12.02
441.677	12.07
441.881	12.06
442.086	12.24
442.29	12.27
442.495	12.27
442.699	12.34
442.904	12.28
443.108	12.33
443.312	12.45
443.517	12.59
443.721	12.55
443.925	12.74
444.13	12.78
444.334	12.82
444.538	12.77
444.743	12.78
444.947	12.63
445.151	12.6
445.356	12.69
445.56	12.48
445.764	12.41
445.968	12.3
446.173	12.09
446.377	12.01
446.581	11.8
446.785	11.68
446.989	11.73
447.193	11.85
447.398	11.9
447.602	11.77
447.806	11.95
448.01	11.87
448.214	11.92
448.418	11.93
448.622	12.05
448.826	11.98
449.03	12.03
449.234	12.05
449.438	12
449.642	11.99
449.846	11.85
450.05	11.66
450.254	11.87
450.458	11.78
450.662	11.84
450.866	11.73
451.069	11.81
451.273	11.82
451.477	11.75
451.681	11.71
451.885	11.61
452.089	11.78
452.292	11.82
452.496	11.77
452.7	11.7
452.904	11.76
453.107	11.73
453.311	11.94
453.515	11.88
453.719	11.78
453.922	11.77
454.126	11.76
454.33	11.83
454.533	11.83
454.737	11.75
454.94	11.73
455.144	11.36
455.348	11.45
455.551	11.24
455.755	11.34
455.958	11.25
456.162	11.29
456.365	11.24
456.569	11.21
456.772	11.29
456.976	11.17
457.179	11.34
457.383	11.59
457.586	11.44
457.79	11.55
457.993	11.44
458.196	11.46
458.4	11.49
458.603	11.59
458.807	11.56
459.01	11.47
459.213	11.6
459.417	11.41
