Data from CB_021_Reflection_3.txt Node
Date: Wed Nov 11 20:09:47 EST 2015
User: robert
Spectrometer: USB4E03001
Autoset integration time: false
Trigger mode: 4
Integration Time (sec): 1.000000E-1
Scans to average: 15
Electric dark correction enabled: true
Nonlinearity correction enabled: false
Boxcar width: 5
Stray light correction enabled: false
XAxis mode: Wavelengths
Stop averaging: false
Number of Pixels in Spectrum: 3648
>>>>>Begin Spectral Data<<<<<
177.566	-115.33
177.785	-225.26
178.005	505.38
178.225	-159.17
178.445	-221.93
178.665	644.12
178.885	91.27
179.105	1656.52
179.324	94.59
179.544	141
179.764	-115.01
179.984	-241.96
180.204	5792.5
180.423	160.26
180.643	-720.43
180.863	1522.55
181.083	230.41
181.302	238.88
181.522	284.77
181.742	-1266.22
181.961	-329.55
182.181	-2676.81
182.401	1159.68
182.621	-147.43
182.84	-42.84
183.06	13.32
183.279	-23.5
183.499	11.16
183.719	-8.9
183.938	42.05
184.158	97.61
184.377	103.65
184.597	109.1
184.816	104.05
185.036	106.59
185.256	110.95
185.475	138.85
185.695	92.1
185.914	161.05
186.134	931.43
186.353	-943.17
186.572	-71.56
186.792	-28.48
187.011	72.72
187.231	184.02
187.45	190.52
187.67	130.96
187.889	120.31
188.108	145.49
188.328	245.83
188.547	382.95
188.766	369.68
188.986	1444
189.205	1711.26
189.424	587.96
189.644	124.27
189.863	28.28
190.082	-31.6
190.302	0.55
190.521	-44.56
190.74	-42.04
190.959	-41.19
191.178	34.88
191.398	60.74
191.617	23.75
191.836	-161.81
192.055	50.61
192.274	69.29
192.494	57.76
192.713	401.32
192.932	390.1
193.151	25.65
193.37	96.01
193.589	77.67
193.808	181.03
194.027	223.04
194.246	721.25
194.465	268.77
194.685	551.36
194.904	-458.62
195.123	894.32
195.342	367.16
195.561	1209.18
195.78	8087.38
195.999	879.19
196.218	543.24
196.436	1162.36
196.655	-694.36
196.874	-448.12
197.093	-984.12
197.312	391.51
197.531	-713.24
197.75	-17.78
197.969	60.88
198.188	-41.08
198.407	92.95
198.625	152.81
198.844	276.29
199.063	-315.98
199.282	-439.59
199.501	-327.68
199.719	-473.54
199.938	-291.12
200.157	1705.74
200.376	-76.91
200.594	-968.23
200.813	-302.22
201.032	295.77
201.251	309.55
201.469	306.09
201.688	228.77
201.907	531.26
202.125	303.84
202.344	1337.37
202.563	329.71
202.781	339.06
203	150.07
203.218	107.74
203.437	321.61
203.656	294.06
203.874	360.71
204.093	733.94
204.311	531.34
204.53	203.56
204.748	307.9
204.967	542.93
205.185	8855.24
205.404	-237.98
205.622	-58.15
205.841	2.15
206.059	-32.79
206.278	-5.34
206.496	9.06
206.715	1.3
206.933	11.85
207.151	4.48
207.37	15.36
207.588	102.57
207.806	71.65
208.025	166
208.243	-68
208.461	-74.37
208.68	-62.12
208.898	438.3
209.116	71.41
209.335	307.85
209.553	164.71
209.771	255.17
209.989	-148.32
210.208	3.52
210.426	115.84
210.644	329.93
210.862	409.77
211.081	204.26
211.299	130.14
211.517	94.27
211.735	411.14
211.953	167.4
212.171	185.68
212.39	-1267.65
212.608	-109.12
212.826	8.41
213.044	78.72
213.262	72.24
213.48	79.28
213.698	82.79
213.916	69.03
214.134	207.7
214.352	239.73
214.57	154.32
214.788	277.6
215.006	453.71
215.224	-55.43
215.442	-55.5
215.66	24.36
215.878	-25.7
216.096	-45.04
216.314	-108.35
216.532	-200.67
216.75	-189.66
216.968	4.86
217.185	-0.22
217.403	9.53
217.621	-226.21
217.839	-137.58
218.057	-192.41
218.275	-510.48
218.492	818.07
218.71	-205.35
218.928	-60.69
219.146	6.7
219.363	-350
219.581	59.38
219.799	-10.4
220.017	-122.5
220.234	-143.1
220.452	-172.8
220.67	-398.42
220.887	2305.83
221.105	-451.95
221.323	-74.1
221.54	-29.64
221.758	-289.97
221.976	-111.92
222.193	-64.58
222.411	-4.23
222.629	-13.02
222.846	2.13
223.064	42.42
223.281	42.77
223.499	50.24
223.716	51.19
223.934	12.24
224.151	25.65
224.369	26.39
224.586	25.57
224.804	25.13
225.021	14.36
225.239	2.81
225.456	7.95
225.674	10.26
225.891	-11.61
226.108	-13.02
226.326	8.68
226.543	15.29
226.76	21.38
226.978	16.28
227.195	16.73
227.413	38.58
227.63	34.89
227.847	22.92
228.064	19.48
228.282	19.41
228.499	15.47
228.716	17.54
228.934	20.03
229.151	19.24
229.368	18.7
229.585	17.82
229.802	10.98
230.02	7.21
230.237	8.74
230.454	9.6
230.671	9.14
230.888	11.46
231.105	16.13
231.323	16.7
231.54	17.37
231.757	17.83
231.974	13.85
232.191	12.55
232.408	15.59
232.625	19.47
232.842	18.66
233.059	22.79
233.276	24.58
233.493	12.6
233.71	6.51
233.927	8.92
234.144	-0.63
234.361	1.25
234.578	4.23
234.795	-1
235.012	-1.68
235.229	-3.39
235.446	-9.75
235.663	-15.4
235.879	-9.74
236.096	-3.75
236.313	-5.49
236.53	4.32
236.747	11.73
236.964	10.9
237.181	9.48
237.397	7.5
237.614	4.53
237.831	6.97
238.048	-0.3
238.264	-8.76
238.481	-13.94
238.698	-19.35
238.915	-14.59
239.131	-15.93
239.348	-12.04
239.565	-6.7
239.781	-7.81
239.998	-3.71
240.215	-0.54
240.431	6.15
240.648	7.77
240.865	10.55
241.081	9.01
241.298	5.25
241.514	5.56
241.731	5.1
241.947	5.63
242.164	6.38
242.38	6.05
242.597	5.3
242.814	4.36
243.03	7.44
243.246	7.95
243.463	9.19
243.679	9
243.896	8.43
244.112	11.79
244.329	13.73
244.545	14.24
244.762	14.63
244.978	17.01
245.194	19.27
245.411	16.98
245.627	13.07
245.843	14.3
246.06	14.34
246.276	13.68
246.492	10.06
246.709	10.1
246.925	10.33
247.141	9.77
247.357	8.34
247.574	7.94
247.79	8.55
248.006	8.77
248.222	9.18
248.439	9.87
248.655	9.93
248.871	10.87
249.087	9.69
249.303	8.97
249.519	10.33
249.736	10.74
249.952	10.62
250.168	9.95
250.384	11.13
250.6	8.1
250.816	6.42
251.032	7.26
251.248	8.89
251.464	11.89
251.68	12.57
251.896	11.02
252.112	11.89
252.328	11.38
252.544	9.82
252.76	9.15
252.976	11.77
253.192	11.79
253.408	10.29
253.624	9.3
253.84	6.8
254.056	4.81
254.272	5.24
254.487	5.85
254.703	5.09
254.919	6.7
255.135	3.56
255.351	-1.69
255.567	1.85
255.782	4.45
255.998	6.01
256.214	3.85
256.43	3.28
256.646	3.37
256.861	3.41
257.077	2.94
257.293	-0.51
257.508	2.12
257.724	4.96
257.94	5.08
258.155	5.33
258.371	4.19
258.587	5.43
258.802	5.83
259.018	6.16
259.234	5.08
259.449	5.34
259.665	5.65
259.88	6.58
260.096	5.75
260.312	6.01
260.527	5.01
260.743	4.89
260.958	4.62
261.174	5.79
261.389	4.98
261.605	6.5
261.82	6.96
262.036	9.32
262.251	7.29
262.466	7.82
262.682	6.67
262.897	6.69
263.113	8.89
263.328	9.12
263.543	7.19
263.759	8.43
263.974	6.36
264.189	5.76
264.405	4.68
264.62	5.95
264.835	6.29
265.051	5.41
265.266	7.53
265.481	6.92
265.696	6.53
265.912	5.83
266.127	4.67
266.342	2.54
266.557	3.28
266.773	2.45
266.988	2.56
267.203	1.23
267.418	3.42
267.633	3.33
267.848	2.9
268.064	4.17
268.279	7.13
268.494	7.95
268.709	10.48
268.924	9.89
269.139	9.04
269.354	9.83
269.569	10.5
269.784	9.96
269.999	11.01
270.214	10.24
270.429	9.3
270.644	7.77
270.859	7.4
271.074	6.44
271.289	6.4
271.504	7.06
271.719	6.76
271.934	6.35
272.149	6.26
272.363	5.79
272.578	4.79
272.793	4.05
273.008	2.77
273.223	3.78
273.438	3.52
273.653	3.46
273.867	1.73
274.082	1.53
274.297	3.18
274.512	3.26
274.726	2.12
274.941	3.64
275.156	4.08
275.371	4.82
275.585	3.45
275.8	2.65
276.015	4.18
276.229	7.5
276.444	8.93
276.659	7.51
276.873	6.03
277.088	5.67
277.302	5.33
277.517	7.13
277.732	5.9
277.946	7.31
278.161	8.45
278.375	6.24
278.59	4.11
278.804	1.46
279.019	2.06
279.233	2.23
279.448	4.73
279.662	4.64
279.877	2.7
280.091	4.81
280.306	4.52
280.52	7.25
280.735	7.5
280.949	9.15
281.163	10.15
281.378	10.43
281.592	11.09
281.806	10.1
282.021	10.96
282.235	10.31
282.449	9.09
282.664	8.21
282.878	6.7
283.092	6.62
283.307	4.65
283.521	4.73
283.735	4.3
283.949	3.83
284.164	3.32
284.378	3.02
284.592	3.49
284.806	3.21
285.02	2.91
285.234	2.82
285.449	3.15
285.663	4.32
285.877	3.99
286.091	4.25
286.305	4.4
286.519	5.84
286.733	5.25
286.947	5.58
287.161	6.81
287.375	7.29
287.589	7.27
287.803	7.38
288.017	6.78
288.231	7.26
288.445	7.76
288.659	8.09
288.873	6.07
289.087	6.89
289.301	6.58
289.515	6.9
289.729	7.58
289.943	6.69
290.157	6.9
290.371	7.21
290.584	7.22
290.798	6.34
291.012	4.97
291.226	5.46
291.44	5.63
291.654	4.82
291.867	4.27
292.081	3.52
292.295	3.9
292.509	3.65
292.722	4.33
292.936	4.67
293.15	5.11
293.364	6.8
293.577	7.81
293.791	6.85
294.005	8.61
294.218	8
294.432	8.26
294.645	8.29
294.859	9.53
295.073	8.07
295.286	8.37
295.5	8.84
295.713	8.47
295.927	8.31
296.14	8.29
296.354	8.02
296.568	7.9
296.781	7.54
296.994	7.46
297.208	7.17
297.421	7.83
297.635	7.97
297.848	7.16
298.062	7.72
298.275	7.96
298.489	8.89
298.702	8.68
298.915	9.23
299.129	9.33
299.342	9.5
299.555	8.94
299.769	9.65
299.982	8.96
300.195	8.96
300.409	8.48
300.622	7.74
300.835	7.7
301.048	9.02
301.262	8.18
301.475	8.27
301.688	8.41
301.901	8.32
302.115	7.52
302.328	7.2
302.541	9.18
302.754	8.59
302.967	10.16
303.18	9.49
303.393	9.06
303.607	9.18
303.82	9.82
304.033	9.73
304.246	10.09
304.459	9.77
304.672	10.51
304.885	8.68
305.098	8.6
305.311	7.19
305.524	6.47
305.737	6.42
305.95	8.17
306.163	7.63
306.376	8.59
306.589	8.27
306.802	9.76
307.015	9.29
307.228	10.57
307.44	11.17
307.653	10.65
307.866	11.06
308.079	10.21
308.292	7.73
308.505	7.1
308.718	6.7
308.93	7.03
309.143	5.28
309.356	5.68
309.569	5.6
309.781	5.69
309.994	6.52
310.207	6.66
310.42	7.57
310.632	7.38
310.845	8.16
311.058	8.51
311.27	8.65
311.483	9.46
311.696	9.68
311.908	10.08
312.121	9.39
312.333	9.69
312.546	10.75
312.759	9.41
312.971	10.23
313.184	9.56
313.396	8.82
313.609	9.37
313.821	9.92
314.034	10.43
314.246	9.25
314.459	10.88
314.671	10.89
314.884	9.37
315.096	10.98
315.309	12.57
315.521	14.58
315.733	14.79
315.946	13.63
316.158	12.5
316.371	11.72
316.583	11.54
316.795	10.72
317.008	10.49
317.22	10.43
317.432	9.07
317.644	6.88
317.857	5.87
318.069	6.68
318.281	7.16
318.494	6.79
318.706	7.06
318.918	6.23
319.13	6.31
319.342	6.35
319.555	7.18
319.767	6.8
319.979	7.25
320.191	6.57
320.403	5.85
320.615	6.36
320.827	6.41
321.039	5.26
321.252	7.13
321.464	6.81
321.676	6.58
321.888	6.92
322.1	8.27
322.312	9.03
322.524	8.91
322.736	9.52
322.948	9.05
323.16	10.12
323.372	12.06
323.584	12.96
323.796	13.43
324.007	13.81
324.219	13.6
324.431	14.05
324.643	14.65
324.855	14.61
325.067	14.31
325.279	14.63
325.491	15.44
325.702	14.7
325.914	13.75
326.126	14.28
326.338	14.52
326.55	15.07
326.761	15.16
326.973	15.56
327.185	16.8
327.396	17.23
327.608	17.45
327.82	16.74
328.032	16.99
328.243	16.2
328.455	17.24
328.666	17.76
328.878	18.02
329.09	18.5
329.301	18.95
329.513	19.2
329.725	20.61
329.936	21.02
330.148	22.69
330.359	22.82
330.571	24.67
330.782	23.8
330.994	23.21
331.205	22.5
331.417	22.16
331.628	21.9
331.84	20.35
332.051	20
332.262	20.61
332.474	19.32
332.685	19.14
332.897	19.24
333.108	20.03
333.319	20.33
333.531	21.58
333.742	22.08
333.953	20.97
334.165	22.32
334.376	22.69
334.587	22.46
334.799	22.65
335.01	23.62
335.221	23.69
335.432	23.18
335.644	23.28
335.855	22.41
336.066	23.02
336.277	23.3
336.488	23.32
336.7	23.06
336.911	23.47
337.122	22.47
337.333	22.94
337.544	22.79
337.755	22.29
337.966	22.12
338.177	22.67
338.388	22.42
338.599	23.62
338.811	23.06
339.022	22.71
339.233	22.33
339.444	23.09
339.655	21.54
339.866	21.63
340.076	22.28
340.287	22.56
340.498	23.82
340.709	22.98
340.92	22.49
341.131	22.79
341.342	22.26
341.553	21.85
341.764	22.24
341.975	22.31
342.185	22.06
342.396	22.95
342.607	22.86
342.818	21.65
343.029	22.85
343.239	22.54
343.45	23.15
343.661	23.97
343.872	24.54
344.082	24.58
344.293	25.77
344.504	26.19
344.714	25.07
344.925	26.26
345.136	26.18
345.346	25.19
345.557	25.49
345.768	24.74
345.978	24.8
346.189	24.46
346.399	24.45
346.61	24.11
346.821	24.27
347.031	24.47
347.242	22.77
347.452	22.98
347.663	23.01
347.873	23.22
348.084	23.42
348.294	23.37
348.504	23.04
348.715	22.93
348.925	22.9
349.136	23.3
349.346	22.65
349.557	22.89
349.767	22.45
349.977	23.35
350.188	22.41
350.398	22.81
350.608	22.93
350.819	22.44
351.029	22.41
351.239	21.73
351.449	20.88
351.66	21.34
351.87	22.27
352.08	22.47
352.29	22.04
352.501	22.6
352.711	21.37
352.921	20.94
353.131	22.25
353.341	22.11
353.552	22.17
353.762	22.36
353.972	21.82
354.182	20.62
354.392	20.42
354.602	20.16
354.812	20.33
355.022	21.9
355.232	21.69
355.442	21.54
355.652	21.19
355.862	21.61
356.072	22.18
356.282	22.84
356.492	23.17
356.702	23.43
356.912	23.73
357.122	23.73
357.332	23.57
357.542	23.53
357.752	23.88
357.962	24.44
358.171	24.14
358.381	23.56
358.591	23.54
358.801	23.41
359.011	23.64
359.221	23.38
359.43	22.32
359.64	21.53
359.85	21.98
360.06	20.93
360.269	21.04
360.479	20.76
360.689	20.6
360.899	20.72
361.108	20.71
361.318	20.72
361.528	21.01
361.737	22.29
361.947	22.6
362.156	22.46
362.366	22.36
362.576	21.87
362.785	21.84
362.995	21.98
363.204	21.86
363.414	22.24
363.623	21.64
363.833	20.97
364.042	20.51
364.252	20.46
364.461	20.05
364.671	20.21
364.88	20.3
365.09	20.77
365.299	21.12
365.509	21.16
365.718	20.43
365.927	20.85
366.137	21.05
366.346	20.82
366.555	20.73
366.765	20.59
366.974	21.3
367.183	21.03
367.393	20.7
367.602	20.43
367.811	19.66
368.021	20.35
368.23	19.85
368.439	19.69
368.648	19.39
368.857	18.46
369.067	18.69
369.276	18.6
369.485	19.27
369.694	19.1
369.903	18.3
370.112	18.59
370.321	18.34
370.531	18.34
370.74	18.8
370.949	19.08
371.158	19.4
371.367	19.28
371.576	18.71
371.785	18.01
371.994	17.86
372.203	18.36
372.412	19.04
372.621	19.01
372.83	19.11
373.039	18.59
373.248	17.93
373.457	17.8
373.666	17.63
373.874	17.67
374.083	17.82
374.292	17.86
374.501	18.22
374.71	17.08
374.919	16.94
375.128	16.55
375.336	16.39
375.545	16.4
375.754	16.77
375.963	16.66
376.171	16.18
376.38	16.27
376.589	15.98
376.798	15.11
377.006	15.36
377.215	15.29
377.424	15.18
377.632	14.73
377.841	14.67
378.05	14.64
378.258	14.57
378.467	15.01
378.675	14.58
378.884	14.8
379.093	15.09
379.301	15.19
379.51	14.84
379.718	15.27
379.927	15.9
380.135	15.82
380.344	15.67
380.552	15.97
380.761	15.81
380.969	16.04
381.177	16.32
381.386	16.35
381.594	15.92
381.803	15.49
382.011	15.23
382.219	14.73
382.428	14.59
382.636	14.18
382.845	13.73
383.053	13.65
383.261	13.23
383.469	12.75
383.678	12.63
383.886	12.5
384.094	12.48
384.302	12.31
384.511	12.47
384.719	12.82
384.927	12.88
385.135	12.65
385.343	12.34
385.552	12.29
385.76	11.93
385.968	11.58
386.176	11.63
386.384	11.79
386.592	11.42
386.8	11.47
387.008	11.51
387.216	11.16
387.424	11.23
387.633	11.26
387.841	11.17
388.049	11.49
388.257	11.81
388.465	12.24
388.672	12.22
388.88	12.63
389.088	12.49
389.296	12.32
389.504	12.63
389.712	13.03
389.92	13.11
390.128	13.29
390.336	13.11
390.544	12.65
390.751	12.14
390.959	12.21
391.167	12.23
391.375	11.91
391.583	11.66
391.79	11.64
391.998	11.32
392.206	11.18
392.414	11.28
392.621	11.26
392.829	11.52
393.037	11.58
393.244	11.64
393.452	11.08
393.66	11.55
393.867	11.41
394.075	11.4
394.283	10.84
394.49	11.08
394.698	11.06
394.905	11
395.113	11.13
395.32	11.04
395.528	10.73
395.735	10.81
395.943	10.17
396.15	10.24
396.358	9.88
396.565	10.35
396.773	9.79
396.98	9.61
397.188	9.59
397.395	9.52
397.602	9.34
397.81	9.36
398.017	9.03
398.225	9.13
398.432	9.19
398.639	9.59
398.847	9.3
399.054	9.68
399.261	9.66
399.468	9.74
399.676	9.43
399.883	9.47
400.09	9.26
400.297	10.22
400.505	10.22
400.712	10.22
400.919	10.17
401.126	10.58
401.333	10.6
401.54	10.36
401.748	10.02
401.955	9.94
402.162	10.37
402.369	10.2
402.576	9.39
402.783	9.54
402.99	9.26
403.197	9.24
403.404	9.02
403.611	8.85
403.818	8.98
404.025	9.47
404.232	9.58
404.439	9.32
404.646	9.64
404.853	10.06
405.06	10.04
405.267	10.32
405.474	10.18
405.681	10.15
405.887	10.02
406.094	9.89
406.301	9.84
406.508	9.92
406.715	10.37
406.922	10.43
407.128	9.93
407.335	9.92
407.542	9.57
407.749	9.43
407.955	9.57
408.162	9.73
408.369	9.66
408.575	9.29
408.782	9.19
408.989	8.75
409.195	8.44
409.402	8.95
409.609	8.78
409.815	8.89
410.022	8.87
410.228	8.91
410.435	8.78
410.642	9.1
410.848	9.11
411.055	8.96
411.261	8.81
411.468	9.22
411.674	9.03
411.881	8.89
412.087	8.97
412.294	9.21
412.5	9.11
412.706	9.13
412.913	8.8
413.119	8.66
413.326	8.54
413.532	8.63
413.738	8.7
413.945	8.62
414.151	8.89
414.357	8.93
414.564	8.67
414.77	8.74
414.976	8.86
415.182	8.84
415.389	9.28
415.595	9.33
415.801	9.14
416.007	8.76
416.214	9.01
416.42	8.84
416.626	8.87
416.832	8.95
417.038	8.64
417.244	8.83
417.45	9.08
417.657	8.94
417.863	8.92
418.069	8.84
418.275	8.92
418.481	8.94
418.687	8.84
418.893	8.75
419.099	8.87
419.305	8.98
419.511	8.77
419.717	8.72
419.923	8.77
420.129	8.89
420.335	9.15
420.541	9.06
420.746	9.01
420.952	9.17
421.158	9.15
421.364	9.07
421.57	9.16
421.776	9.15
421.982	8.99
422.187	8.85
422.393	8.68
422.599	8.39
422.805	8.44
423.01	8.18
423.216	8.07
423.422	7.93
423.628	7.9
423.833	7.85
424.039	7.59
424.245	7.78
424.45	7.78
424.656	7.89
424.862	7.89
425.067	7.79
425.273	7.99
425.478	8.05
425.684	8.09
425.889	7.96
426.095	7.9
426.301	8.05
426.506	7.75
426.712	7.61
426.917	7.54
427.123	7.81
427.328	7.91
427.533	8.03
427.739	8.01
427.944	7.96
428.15	8.04
428.355	7.77
428.561	7.62
428.766	7.59
428.971	7.8
429.177	7.76
429.382	7.46
429.587	7.43
429.793	7.14
429.998	6.83
430.203	6.9
430.408	6.93
430.614	7.05
430.819	7.18
431.024	7.34
431.229	7.17
431.434	7.31
431.64	7.52
431.845	7.48
432.05	7.6
432.255	7.89
432.46	7.96
432.665	7.86
432.87	7.83
433.076	7.95
433.281	8.07
433.486	8.11
433.691	8.11
433.896	7.96
434.101	7.88
434.306	7.88
434.511	7.77
434.716	7.68
434.921	7.69
435.126	7.75
435.331	7.64
435.535	7.45
435.74	7.34
435.945	7.2
436.15	7.19
436.355	7.31
436.56	7.08
436.765	7.1
436.97	7.02
437.174	7.08
437.379	7.38
437.584	7.47
437.789	7.58
437.993	7.67
438.198	7.7
438.403	7.78
438.608	7.81
438.812	7.98
439.017	8.09
439.222	8.08
439.426	8.02
439.631	7.97
439.836	7.9
440.04	7.99
440.245	8
440.45	8.02
440.654	7.94
440.859	7.85
441.063	7.79
441.268	7.8
441.472	7.97
441.677	7.86
441.881	7.71
442.086	8.02
442.29	7.71
442.495	7.84
442.699	7.75
442.904	7.7
443.108	7.82
443.312	7.82
443.517	7.7
443.721	7.65
443.925	7.82
444.13	7.72
444.334	7.36
444.538	7.41
444.743	7.11
444.947	7.13
445.151	7.29
445.356	7.34
445.56	7.25
445.764	7.35
445.968	7.33
446.173	7.28
446.377	7.44
446.581	7.46
446.785	7.59
446.989	7.65
447.193	7.61
447.398	7.5
447.602	7.49
447.806	7.39
448.01	7.41
448.214	7.43
448.418	7.46
448.622	7.32
448.826	7.31
449.03	7.23
449.234	7.09
449.438	7.27
449.642	7.42
449.846	7.18
450.05	7.35
450.254	7.38
450.458	7.28
450.662	7.32
450.866	7.34
451.069	7.22
451.273	7.31
451.477	7.33
451.681	7.24
451.885	7.14
452.089	7.05
452.292	7.05
452.496	6.94
452.7	7.17
452.904	6.97
453.107	6.91
453.311	7.09
453.515	7.02
453.719	7.31
453.922	7.3
454.126	7.19
454.33	7.25
454.533	7.27
454.737	7.16
454.94	6.86
455.144	6.85
455.348	6.86
455.551	6.77
455.755	6.92
455.958	6.75
456.162	6.41
456.365	6.71
456.569	6.88
456.772	7.07
456.976	7.26
457.179	7.33
457.383	7.44
457.586	7.61
457.79	7.5
457.993	7.3
458.196	7.55
458.4	8
458.603	7.66
458.807	7.73
459.01	7.65
459.213	7.38
459.417	7.41
459.62	7.37
459.823	7.23
460.026	7.28
460.23	7.35
460.433	7.2
460.636	7.09
460.839	7.26
461.042	7.14
461.246	7
461.449	7.05
461.652	7.08
461.855	7.26
462.058	7.46
462.261	7.73
462.464	7.76
462.668	7.63
462.871	7.5
463.074	7.52
463.277	7.63
463.48	7.73
