Data from CB_022_Reflection_2.txt Node
Date: Wed Nov 11 20:13:52 EST 2015
User: robert
Spectrometer: USB4E03001
Autoset integration time: false
Trigger mode: 4
Integration Time (sec): 1.000000E-1
Scans to average: 15
Electric dark correction enabled: true
Nonlinearity correction enabled: false
Boxcar width: 5
Stray light correction enabled: false
XAxis mode: Wavelengths
Stop averaging: false
Number of Pixels in Spectrum: 3648
>>>>>Begin Spectral Data<<<<<
177.566	-215.58
177.785	-350.17
178.005	640.97
178.225	-169.11
178.445	-280.93
178.665	726.47
178.885	335.78
179.105	5143.48
179.324	495.02
179.544	418.7
179.764	-449.54
179.984	-651.77
180.204	21482.5
180.423	276.42
180.643	-1344.27
180.863	3247.23
181.083	414.99
181.302	764.79
181.522	908.98
181.742	-2606.91
181.961	-514.89
182.181	-4980.19
182.401	3522.58
182.621	-397.4
182.84	-478.27
183.06	-274.23
183.279	-470.2
183.499	-226.92
183.719	-194.06
183.938	-206.65
184.158	-141.17
184.377	-124.17
184.597	-184.67
184.816	-141.17
185.036	-166.48
185.256	-114.03
185.475	-156.99
185.695	-105.78
185.914	-153.35
186.134	-2176.57
186.353	3111.48
186.572	521.45
186.792	350.6
187.011	676.69
187.231	787.55
187.45	486.84
187.67	293.6
187.889	197.04
188.108	189.45
188.328	272.82
188.547	455.54
188.766	678.42
188.986	2496
189.205	3132.88
189.424	908.83
189.644	304.18
189.863	222.32
190.082	801.13
190.302	110.28
190.521	72.99
190.74	45.33
190.959	15.43
191.178	-31.54
191.398	-83.5
191.617	-40.06
191.836	-191.82
192.055	-110.67
192.274	-58.69
192.494	-263.43
192.713	-182.66
192.932	-328.22
193.151	93.28
193.37	137.41
193.589	87.92
193.808	174.13
194.027	273.5
194.246	751
194.465	230.85
194.685	365.09
194.904	-184.72
195.123	247.74
195.342	117.7
195.561	171.41
195.78	-2574.76
195.999	-73.78
196.218	-198.85
196.436	-725.09
196.655	933.23
196.874	706.5
197.093	1186.56
197.312	-416.51
197.531	1117.32
197.75	472.37
197.969	544.87
198.188	871.64
198.407	439.08
198.625	509.67
198.844	901.11
199.063	-3670.8
199.282	-1763.78
199.501	-1206.66
199.719	-1477.64
199.938	-1222.28
200.157	6500
200.376	-575.52
200.594	-2013.53
200.813	-794.24
201.032	675.83
201.251	318.95
201.469	309
201.688	207.43
201.907	627.16
202.125	394.38
202.344	1005.86
202.563	214.27
202.781	268.9
203	86.59
203.218	55.16
203.437	110.08
203.656	260.2
203.874	252.45
204.093	706.28
204.311	184.02
204.53	158.97
204.748	152.5
204.967	386.69
205.185	7440.95
205.404	-239.72
205.622	-82.17
205.841	-23.77
206.059	-28.12
206.278	-49.93
206.496	-61.4
206.715	-203.16
206.933	-64.34
207.151	-136.18
207.37	-98.81
207.588	-68.03
207.806	-15.17
208.025	10.31
208.243	123.97
208.461	110.25
208.68	12.7
208.898	235.11
209.116	103.66
209.335	343.66
209.553	141.8
209.771	85.49
209.989	-143.61
210.208	-10.66
210.426	0.75
210.644	104.14
210.862	-71.54
211.081	-52.39
211.299	-37.7
211.517	-83.9
211.735	-137.37
211.953	25.2
212.171	39.36
212.39	181.62
212.608	26.13
212.826	40.17
213.044	136.78
213.262	36.34
213.48	60.5
213.698	21.36
213.916	-41.68
214.134	-124.72
214.352	-98.24
214.57	39.94
214.788	-177.71
215.006	-162.05
215.224	184.19
215.442	655.23
215.66	398.14
215.878	482.26
216.096	272.49
216.314	272.43
216.532	334.5
216.75	697.05
216.968	370.9
217.185	173.2
217.403	196.58
217.621	648.86
217.839	223.43
218.057	302.52
218.275	580.36
218.492	-970.67
218.71	555.01
218.928	303.85
219.146	340.68
219.363	1586.76
219.581	-786.81
219.799	-140.08
220.017	-213.99
220.234	-197.5
220.452	-222.91
220.67	-420.08
220.887	3194.17
221.105	-410.85
221.323	-90.79
221.54	-116.13
221.758	-360.77
221.976	-101.71
222.193	-93.22
222.411	-29.94
222.629	-18.9
222.846	-62.65
223.064	-33.13
223.281	25.17
223.499	31.79
223.716	23.25
223.934	35.24
224.151	33.02
224.369	3.75
224.586	-11.83
224.804	-6.73
225.021	-8.6
225.239	-37.44
225.456	-27
225.674	-35.89
225.891	-75.01
226.108	-79.45
226.326	-52.84
226.543	-26.01
226.76	3.92
226.978	16.77
227.195	23.43
227.413	35.89
227.63	32.33
227.847	26.66
228.064	21.96
228.282	26.64
228.499	26.65
228.716	22.34
228.934	17.11
229.151	13.64
229.368	13.29
229.585	10.92
229.802	7.08
230.02	8.33
230.237	5.65
230.454	4.17
230.671	0.37
230.888	-0.02
231.105	7.02
231.323	13.02
231.54	15.93
231.757	14.83
231.974	11.62
232.191	5.7
232.408	0.17
232.625	9.92
232.842	13.93
233.059	14.88
233.276	16.82
233.493	8.78
233.71	0.91
233.927	7.56
234.144	0.19
234.361	3.18
234.578	10.31
234.795	15.09
235.012	8.95
235.229	7.51
235.446	7.36
235.663	-7.63
235.879	-3.79
236.096	4.03
236.313	-5.81
236.53	-1.13
236.747	2.93
236.964	1.83
237.181	1.61
237.397	1.79
237.614	-3.06
237.831	-5.04
238.048	0.91
238.264	-5.49
238.481	-5.7
238.698	-10.63
238.915	-6.64
239.131	-10.57
239.348	-10.26
239.565	-6.13
239.781	-5.3
239.998	-1.45
240.215	3.39
240.431	0.87
240.648	2.07
240.865	3.76
241.081	6.36
241.298	6.24
241.514	8.25
241.731	9.21
241.947	6.18
242.164	6.28
242.38	7.34
242.597	5.64
242.814	9.33
243.03	10.43
243.246	8.19
243.463	8.07
243.679	6.18
243.896	5.08
244.112	4.61
244.329	8.42
244.545	5.74
244.762	3.05
244.978	5.35
245.194	6.01
245.411	3.9
245.627	5.14
245.843	7.24
246.06	7.83
246.276	7.68
246.492	6.35
246.709	6.91
246.925	9.23
247.141	10.67
247.357	10.45
247.574	9.49
247.79	9.72
248.006	9.54
248.222	9.96
248.439	10.14
248.655	9.58
248.871	10.1
249.087	8.63
249.303	8.86
249.519	8
249.736	6.82
249.952	8.03
250.168	8.33
250.384	8.52
250.6	6.2
250.816	5.94
251.032	8.07
251.248	10.73
251.464	12.39
251.68	11.24
251.896	8.96
252.112	10
252.328	9.56
252.544	8.38
252.76	9.25
252.976	10.67
253.192	12.82
253.408	12.67
253.624	10.85
253.84	9.21
254.056	8.93
254.272	12.21
254.487	11.48
254.703	7.88
254.919	9.94
255.135	6.21
255.351	-1.89
255.567	-3.35
255.782	-3.46
255.998	-3.17
256.214	-2.3
256.43	-6.3
256.646	-7.3
256.861	-6.38
257.077	-4.44
257.293	-8.01
257.508	-2.73
257.724	0.73
257.94	0.33
258.155	2.58
258.371	2.34
258.587	2.82
258.802	3.65
259.018	4.59
259.234	4.39
259.449	5.15
259.665	6.31
259.88	5.5
260.096	5.66
260.312	6.41
260.527	5.79
260.743	5.73
260.958	6.2
261.174	7.39
261.389	6.86
261.605	7.92
261.82	7.29
262.036	8.45
262.251	7.06
262.466	7.09
262.682	5.54
262.897	4.93
263.113	6.68
263.328	5.46
263.543	3.4
263.759	4.79
263.974	2.39
264.189	2.71
264.405	3.11
264.62	3.92
264.835	5.48
265.051	5.3
265.266	7.17
265.481	8.29
265.696	6.71
265.912	6.3
266.127	3.61
266.342	4.93
266.557	4.65
266.773	2.79
266.988	3.49
267.203	0.7
267.418	2.13
267.633	0.89
267.848	-0.17
268.064	1.02
268.279	1.61
268.494	3.57
268.709	3.71
268.924	4.19
269.139	4.17
269.354	4.04
269.569	3.67
269.784	3.19
269.999	5.07
270.214	6.67
270.429	6.46
270.644	7.05
270.859	5.84
271.074	6.15
271.289	5.74
271.504	5.83
271.719	5.87
271.934	6.43
272.149	7.84
272.363	7.58
272.578	5.69
272.793	5.64
273.008	4.74
273.223	5.52
273.438	3.46
273.653	3.63
273.867	4.21
274.082	3.69
274.297	4.47
274.512	3.76
274.726	3.15
274.941	3.66
275.156	4.36
275.371	4.29
275.585	3.95
275.8	6.37
276.015	7.49
276.229	8.04
276.444	9.47
276.659	10.42
276.873	9.42
277.088	9.05
277.302	8.04
277.517	8.26
277.732	8.72
277.946	8.44
278.161	7.97
278.375	6.55
278.59	5.83
278.804	4.3
279.019	3.43
279.233	2.27
279.448	2.96
279.662	5.56
279.877	3.94
280.091	4.5
280.306	6.4
280.52	7.27
280.735	7.3
280.949	6.72
281.163	7.26
281.378	7.93
281.592	8.98
281.806	8.12
282.021	8.07
282.235	7.79
282.449	6.68
282.664	5.72
282.878	6.05
283.092	5.86
283.307	5.73
283.521	5.82
283.735	5.23
283.949	4.23
284.164	5.42
284.378	4.37
284.592	6.12
284.806	5.37
285.02	4.37
285.234	3.15
285.449	3.43
285.663	2.55
285.877	2.23
286.091	1.58
286.305	1.04
286.519	0.75
286.733	1.47
286.947	1
287.161	2.55
287.375	3.27
287.589	3.62
287.803	3.74
288.017	5.66
288.231	5.98
288.445	8.36
288.659	9.78
288.873	9.27
289.087	8.91
289.301	8.48
289.515	9.53
289.729	11.07
289.943	10.41
290.157	10.72
290.371	10
290.584	10.31
290.798	9.46
291.012	9.22
291.226	10.09
291.44	9.94
291.654	10.05
291.867	8.26
292.081	7.28
292.295	7.62
292.509	7.46
292.722	7.71
292.936	8.12
293.15	7.35
293.364	6.51
293.577	6.22
293.791	6.37
294.005	6.95
294.218	7.94
294.432	7.83
294.645	9.26
294.859	9.26
295.073	9.46
295.286	9.18
295.5	10.22
295.713	10.71
295.927	10.73
296.14	10.36
296.354	10.29
296.568	10.88
296.781	10.4
296.994	9.64
297.208	10.18
297.421	9.95
297.635	9.72
297.848	8.81
298.062	9.27
298.275	9.9
298.489	9.96
298.702	9.78
298.915	9.03
299.129	8.92
299.342	9.14
299.555	8.66
299.769	8.16
299.982	8.5
300.195	8.53
300.409	8.87
300.622	7.79
300.835	8.95
301.048	10.07
301.262	9.17
301.475	10.11
301.688	10.17
301.901	10.6
302.115	11.87
302.328	12.37
302.541	14.8
302.754	14.56
302.967	15.42
303.18	14.65
303.393	13.71
303.607	14.19
303.82	13.35
304.033	13.25
304.246	12.84
304.459	12.81
304.672	13.31
304.885	11.87
305.098	11.85
305.311	10.87
305.524	10.23
305.737	10.59
305.95	11.1
306.163	10.92
306.376	10.63
306.589	10.58
306.802	10.09
307.015	8.87
307.228	9.17
307.44	8.18
307.653	8.07
307.866	8.79
308.079	8.72
308.292	8.37
308.505	8.72
308.718	8.84
308.93	8.12
309.143	7.45
309.356	9.16
309.569	9.68
309.781	10.17
309.994	10.15
310.207	11.1
310.42	11.48
310.632	11.45
310.845	11.74
311.058	12.11
311.27	12.73
311.483	13.54
311.696	12.68
311.908	11.83
312.121	11
312.333	11.41
312.546	10.24
312.759	10.32
312.971	9.77
313.184	9.46
313.396	9
313.609	9.75
313.821	10.13
314.034	10.25
314.246	9.56
314.459	11.28
314.671	10.96
314.884	11.73
315.096	10.81
315.309	11.53
315.521	12.36
315.733	12.95
315.946	12.65
316.158	12.09
316.371	12.32
316.583	13.11
316.795	12.02
317.008	12.61
317.22	12.62
317.432	12.49
317.644	12.28
317.857	12.41
318.069	12.91
318.281	12.52
318.494	12.34
318.706	11.7
318.918	11.18
319.13	12.4
319.342	12.33
319.555	11.85
319.767	12.01
319.979	11.69
320.191	11.85
320.403	11.15
320.615	11.41
320.827	10.7
321.039	11.09
321.252	12.33
321.464	11.36
321.676	12
321.888	12.26
322.1	12.58
322.312	13.79
322.524	13
322.736	12.1
322.948	12.24
323.16	13.17
323.372	14.04
323.584	13.05
323.796	13.79
324.007	13.18
324.219	14.28
324.431	14.41
324.643	14.51
324.855	14.41
325.067	16.17
325.279	16.41
325.491	17.02
325.702	16.79
325.914	17.63
326.126	17.49
326.338	18.55
326.55	18.07
326.761	18.72
326.973	18.99
327.185	19.85
327.396	18.8
327.608	17.66
327.82	17.24
328.032	16.22
328.243	15.23
328.455	15.83
328.666	15.65
328.878	16.46
329.09	15.98
329.301	15.75
329.513	15.31
329.725	15.42
329.936	16.53
330.148	16.61
330.359	17.67
330.571	17.86
330.782	17.26
330.994	15.88
331.205	14.69
331.417	15.73
331.628	15.8
331.84	16.22
332.051	16.9
332.262	17.47
332.474	16.87
332.685	15.97
332.897	16.47
333.108	16.95
333.319	17.26
333.531	18.4
333.742	17.53
333.953	18.28
334.165	18.22
334.376	17.71
334.587	16.4
334.799	16.14
335.01	16.45
335.221	17.49
335.432	17.27
335.644	17.67
335.855	16.83
336.066	17.02
336.277	15.51
336.488	15.11
336.7	16.34
336.911	17.3
337.122	17.95
337.333	17.84
337.544	16.36
337.755	16.33
337.966	16.45
338.177	15.43
338.388	16.09
338.599	16.95
338.811	16.5
339.022	15.61
339.233	15.31
339.444	15.57
339.655	15.52
339.866	16.25
340.076	16.32
340.287	16.48
340.498	17.7
340.709	16.62
340.92	16.04
341.131	16.64
341.342	15.74
341.553	15.45
341.764	15.72
341.975	15.69
342.185	16.42
342.396	16.79
342.607	17.29
342.818	16.79
343.029	18.45
343.239	17.82
343.45	18.46
343.661	19.34
343.872	19.45
344.082	18.91
344.293	19.04
344.504	18.8
344.714	18.36
344.925	18.06
345.136	17.89
345.346	16.44
345.557	17.66
345.768	16.86
345.978	16.2
346.189	15.95
346.399	15.98
346.61	16.35
346.821	16.03
347.031	15.8
347.242	15.48
347.452	14.98
347.663	15
347.873	15.13
348.084	14.76
348.294	15.41
348.504	15.99
348.715	15.95
348.925	15.41
349.136	15.98
349.346	15.46
349.557	15.34
349.767	16.39
349.977	16.71
350.188	15.79
350.398	16.63
350.608	16.24
350.819	15.89
351.029	16.47
351.239	16.2
351.449	15.08
351.66	15.21
351.87	15.47
352.08	14.45
352.29	13.95
352.501	13.77
352.711	14.01
352.921	13.96
353.131	14.77
353.341	13.31
353.552	13.31
353.762	14.17
353.972	14.82
354.182	13.57
354.392	13.39
354.602	13.86
354.812	14.22
355.022	14.19
355.232	14.36
355.442	13.92
355.652	14.53
355.862	15.18
356.072	15.84
356.282	15.49
356.492	16.2
356.702	16.64
356.912	16.38
357.122	16.18
357.332	15.97
357.542	16.01
357.752	15.83
357.962	16.53
358.171	16.14
358.381	15.13
358.591	14.39
358.801	14.4
359.011	14.58
359.221	14.59
359.43	13.99
359.64	13.58
359.85	13.42
360.06	13.22
360.269	12.89
360.479	13.08
360.689	13.09
360.899	13.84
361.108	13.51
361.318	13.59
361.528	13.9
361.737	14.58
361.947	14.83
362.156	14.8
362.366	13.99
362.576	13.79
362.785	13.43
362.995	13.52
363.204	13.41
363.414	13.51
363.623	12.97
363.833	12.3
364.042	12.42
364.252	12.48
364.461	12.08
364.671	12.88
364.88	12.51
365.09	13.05
365.299	12.93
365.509	13.09
365.718	12.62
365.927	13.12
366.137	13.41
366.346	13.36
366.555	12.94
366.765	12.53
366.974	12.89
367.183	12.55
367.393	12.33
367.602	12.31
367.811	11.79
368.021	12.39
368.23	12.3
368.439	12.47
368.648	12.31
368.857	12.61
369.067	13.12
369.276	13.66
369.485	14.87
369.694	14.46
369.903	13.66
370.112	13.6
370.321	13.64
370.531	13.6
370.74	13.38
370.949	13.55
371.158	13.15
371.367	13.38
371.576	12.65
371.785	11.74
371.994	11.88
372.203	12.76
372.412	13.28
372.621	13.51
372.83	13.95
373.039	13.36
373.248	12.89
373.457	12.83
373.666	12.85
373.874	12.58
374.083	12.79
374.292	13.12
374.501	13.02
374.71	13.03
374.919	12.68
375.128	11.62
375.336	12.31
375.545	12.57
375.754	12.7
375.963	12.21
376.171	12.38
376.38	12.54
376.589	12.11
376.798	11.63
377.006	11.69
377.215	11.81
377.424	12.14
377.632	11.46
377.841	11.1
378.05	11.25
378.258	11.73
378.467	11.54
378.675	11.48
378.884	11.37
379.093	11.94
379.301	11.23
379.51	11.08
379.718	11.03
379.927	11.39
380.135	11.7
380.344	11.33
380.552	11.47
380.761	11.56
380.969	11.26
381.177	11.55
381.386	11.27
381.594	11.52
381.803	11.22
382.011	11.49
382.219	11.48
382.428	11.29
382.636	11.21
382.845	10.62
383.053	10.62
383.261	10.31
383.469	9.93
383.678	10.12
383.886	9.89
384.094	9.62
384.302	9.84
384.511	10.1
384.719	10.14
384.927	9.81
385.135	9.56
385.343	9.6
385.552	9.64
385.76	9.84
385.968	9.49
386.176	9.78
386.384	10.15
386.592	9.35
386.8	9.12
387.008	9.06
387.216	8.67
387.424	8.83
387.633	8.64
387.841	8.89
388.049	8.85
388.257	8.87
388.465	8.89
388.672	8.91
388.88	9.3
389.088	9.61
389.296	9.66
389.504	10.55
389.712	10.57
389.92	10.8
390.128	10.46
390.336	10.53
390.544	10.17
390.751	9.81
390.959	9.33
391.167	9.34
391.375	8.83
391.583	8.93
391.79	8.73
391.998	8.91
392.206	8.7
392.414	9.21
392.621	8.9
392.829	9.48
393.037	9.24
393.244	9.59
393.452	9.38
393.66	9.51
393.867	9.24
394.075	9.35
394.283	8.9
394.49	8.86
394.698	8.73
394.905	8.78
395.113	8.64
395.32	9.04
395.528	8.79
395.735	8.71
395.943	8.73
396.15	8.72
396.358	8.18
396.565	8.42
396.773	8.42
396.98	8.08
397.188	8.34
397.395	8.47
397.602	8.21
397.81	8.29
398.017	8.12
398.225	8.16
398.432	8.41
398.639	9.01
398.847	8.48
399.054	8.93
399.261	8.93
399.468	8.66
399.676	8.04
399.883	8.16
400.09	8.02
400.297	8.7
400.505	8.64
400.712	8.13
400.919	7.96
401.126	8.7
401.333	8.28
401.54	8.18
401.748	8.19
401.955	8.41
402.162	8.48
402.369	8.45
402.576	8.21
402.783	7.88
402.99	8.14
403.197	8.36
403.404	8.05
403.611	8.12
403.818	8.23
404.025	8.57
404.232	8.71
404.439	8.67
404.646	8.71
404.853	8.38
405.06	8.51
405.267	8.52
405.474	8.23
405.681	8.17
405.887	7.86
406.094	7.99
406.301	7.75
406.508	7.46
406.715	7.67
406.922	7.78
407.128	7.46
407.335	7.64
407.542	7.42
407.749	7.2
407.955	7.5
408.162	7.56
408.369	7.49
408.575	7.3
408.782	7.42
408.989	7.21
409.195	6.96
409.402	7.49
409.609	7.25
409.815	7.28
410.022	7.39
410.228	7.13
410.435	7.15
410.642	7.38
410.848	7.36
411.055	7.38
411.261	7.39
411.468	7.71
411.674	7.65
411.881	7.59
412.087	7.51
412.294	7.54
412.5	7.57
412.706	7.9
412.913	7.47
413.119	7.69
413.326	7.51
413.532	7.41
413.738	7.46
413.945	7.44
414.151	7.42
414.357	7.59
414.564	7.67
414.77	7.77
414.976	7.76
415.182	8.05
415.389	8.2
415.595	8.24
415.801	8.28
416.007	8.1
416.214	8.07
416.42	8.33
416.626	8.29
416.832	8.38
417.038	8.29
417.244	8.31
417.45	8.15
417.657	8
417.863	8.16
418.069	8.18
418.275	8.13
418.481	8.17
418.687	8.01
418.893	7.97
419.099	8.08
419.305	8.11
419.511	7.92
419.717	8.1
419.923	7.97
420.129	7.87
420.335	7.88
420.541	7.82
420.746	7.74
420.952	7.83
421.158	7.96
421.364	7.7
421.57	7.66
421.776	7.77
421.982	7.65
422.187	7.73
422.393	7.64
422.599	7.58
422.805	7.72
423.01	7.7
423.216	7.58
423.422	7.41
423.628	7.49
423.833	7.58
424.039	7.26
424.245	7.13
424.45	7.14
424.656	7.29
424.862	7.2
425.067	7.06
425.273	7.11
425.478	7.23
425.684	7.19
425.889	7.13
426.095	7.04
426.301	7.3
426.506	7.5
426.712	7.22
426.917	7.05
427.123	7.26
427.328	7.36
427.533	7.52
427.739	7.53
427.944	7.53
428.15	7.76
428.355	7.54
428.561	7.46
428.766	7.44
428.971	7.78
429.177	7.93
429.382	7.65
429.587	7.61
429.793	7.28
429.998	7.02
430.203	7.17
430.408	7.1
430.614	7.27
430.819	7.27
431.024	7.3
431.229	7.27
431.434	7.41
431.64	7.7
431.845	7.83
432.05	7.8
432.255	7.99
432.46	7.88
432.665	8.03
432.87	8.1
433.076	8.16
433.281	8.14
433.486	8.34
433.691	8.43
433.896	8.22
434.101	8.17
434.306	8.22
434.511	8.15
434.716	8.26
434.921	8.04
435.126	8.1
435.331	8.05
435.535	8.03
435.74	7.86
435.945	7.62
436.15	7.8
436.355	7.97
436.56	8.21
436.765	8.19
436.97	8.15
437.174	8.04
437.379	8.16
437.584	8.24
437.789	8.16
437.993	8.17
438.198	8.31
438.403	8.21
438.608	8.06
438.812	8.09
439.017	8.13
439.222	8.1
439.426	8.19
439.631	8.08
439.836	8.17
440.04	8.34
440.245	8.34
440.45	8.16
440.654	8.05
440.859	7.99
441.063	7.77
441.268	7.85
441.472	7.96
441.677	7.91
441.881	7.78
442.086	7.93
442.29	7.73
442.495	7.82
442.699	7.98
442.904	8.07
443.108	8.2
443.312	8.23
443.517	8.05
443.721	7.98
443.925	8.01
444.13	8.16
444.334	7.91
444.538	8.02
444.743	7.8
444.947	7.76
445.151	7.84
445.356	7.79
445.56	7.81
445.764	7.88
445.968	7.81
446.173	7.82
446.377	7.83
446.581	7.86
446.785	7.81
446.989	7.81
447.193	7.84
447.398	7.74
447.602	7.6
447.806	7.49
448.01	7.54
448.214	7.63
448.418	7.51
448.622	7.51
448.826	7.38
449.03	7.36
449.234	7.35
449.438	7.21
449.642	7.53
449.846	7.54
450.05	7.74
450.254	7.76
450.458	7.68
450.662	7.97
450.866	7.79
451.069	7.7
451.273	7.72
451.477	7.59
451.681	7.62
451.885	7.55
452.089	7.72
452.292	7.66
452.496	7.6
452.7	7.86
452.904	7.77
453.107	7.87
453.311	7.96
453.515	7.87
453.719	8.1
453.922	8.11
454.126	7.9
454.33	7.81
454.533	7.86
454.737	7.74
454.94	7.38
455.144	7.27
455.348	7.3
455.551	7.34
455.755	7.49
455.958	7.31
456.162	7
456.365	7.14
456.569	7.4
456.772	7.55
456.976	7.82
457.179	8.01
457.383	8.06
457.586	8.02
457.79	7.9
457.993	7.48
458.196	7.55
458.4	7.75
458.603	7.46
458.807	7.44
459.01	7.31
459.213	7.16
459.417	7.17
459.62	7.13
459.823	7.04
460.026	7.19
460.23	7.52
460.433	7.57
460.636	7.68
460.839	7.87
461.042	7.76
461.246	7.82
461.449	7.87
461.652	7.8
461.855	8.02
462.058	8.09
462.261	8.21
462.464	8.1
462.668	8.1
462.871	7.83
