Data from CB_074_Reflection_1.txt Node
Date: Sat Nov 14 11:21:24 EST 2015
User: robert
Spectrometer: USB4E03001
Autoset integration time: false
Trigger mode: 4
Integration Time (sec): 1.000000E-1
Scans to average: 15
Electric dark correction enabled: true
Nonlinearity correction enabled: false
Boxcar width: 5
Stray light correction enabled: false
XAxis mode: Wavelengths
Stop averaging: false
Number of Pixels in Spectrum: 3648
>>>>>Begin Spectral Data<<<<<
177.566	-182.52
177.785	-247.99
178.005	-546.77
178.225	50.08
178.445	-60.83
178.665	-201.13
178.885	-43.6
179.105	-129.6
179.324	-173.74
179.544	-348.85
179.764	-110.34
179.984	-123.79
180.204	-109.33
180.423	-415.98
180.643	-144.78
180.863	-322.08
181.083	-1675.24
181.302	-7703.97
181.522	775.4
181.742	819.96
181.961	889.33
182.181	114.2
182.401	105.7
182.621	196.72
182.84	700.63
183.06	-1911.19
183.279	-221.7
183.499	-165.43
183.719	-278.34
183.938	-199.78
184.158	-156.13
184.377	-163.36
184.597	-104.99
184.816	-55.72
185.036	-99.46
185.256	-143.83
185.475	-406.61
185.695	-307.01
185.914	-295.29
186.134	-241.23
186.353	-263.03
186.572	-226.09
186.792	-725.73
187.011	3084.45
187.231	-1573.05
187.45	-309.75
187.67	-1006.98
187.889	364.59
188.108	200.03
188.328	194.94
188.547	124.48
188.766	110.55
188.986	111.95
189.205	102.12
189.424	110.44
189.644	149.52
189.863	185.67
190.082	225.8
190.302	331.66
190.521	277.11
190.74	262.22
190.959	1247.16
191.178	1020.32
191.398	719.78
191.617	2022.06
191.836	7881.72
192.055	1152.14
192.274	338.54
192.494	496.38
192.713	16242.86
192.932	-1599.27
193.151	264125
193.37	342.76
193.589	-9384.07
193.808	-1026.65
194.027	-1618.24
194.246	3320.88
194.465	-2466.55
194.685	614.41
194.904	476.82
195.123	398.56
195.342	347.22
195.561	318.12
195.78	834.04
195.999	2080.73
196.218	853.93
196.436	542.73
196.655	239.02
196.874	122.8
197.093	223.4
197.312	241.51
197.531	369.48
197.75	466.6
197.969	1161.84
198.188	250.39
198.407	189.56
198.625	173.5
198.844	232.85
199.063	357.1
199.282	801.01
199.501	-4568.75
199.719	-2102.98
199.938	836.48
200.157	472.23
200.376	-3023.05
200.594	-235.86
200.813	-457.33
201.032	-1309.08
201.251	-631.58
201.469	-869.53
201.688	-1731.96
201.907	3020.64
202.125	919.87
202.344	3590.58
202.563	19607.25
202.781	983.33
203	281.03
203.218	248.96
203.437	369.77
203.656	299.1
203.874	666.65
204.093	473.08
204.311	293.92
204.53	950.44
204.748	237.85
204.967	300.99
205.185	203.33
205.404	328.04
205.622	447.89
205.841	275.8
206.059	152.72
206.278	144.33
206.496	244.69
206.715	339.93
206.933	266.53
207.151	359.06
207.37	246.05
207.588	300.8
207.806	322.38
208.025	416.84
208.243	720.52
208.461	-60845.45
208.68	1661.35
208.898	749.54
209.116	454.34
209.335	300.52
209.553	279.64
209.771	239
209.989	250.35
210.208	194.22
210.426	167.37
210.644	136.36
210.862	128.63
211.081	120.34
211.299	93.91
211.517	105.37
211.735	96.55
211.953	88.05
212.171	87.98
212.39	55.22
212.608	76.17
212.826	72.98
213.044	73.03
213.262	74.71
213.48	61.86
213.698	105.25
213.916	67.92
214.134	51.16
214.352	93.77
214.57	109.28
214.788	105.63
215.006	97.47
215.224	281.37
215.442	875.32
215.66	1623.51
215.878	578.67
216.096	217.47
216.314	575.37
216.532	2486.8
216.75	-620.96
216.968	-791.73
217.185	-7520.35
217.403	1547.77
217.621	-67988.89
217.839	-237.32
218.057	-7845.83
218.275	-78.72
218.492	21.33
218.71	-1152.55
218.928	1158.73
219.146	765.34
219.363	434.05
219.581	422.4
219.799	-1821.18
220.017	238.97
220.234	279.92
220.452	375.9
220.67	652.59
220.887	257.84
221.105	345.53
221.323	212.63
221.54	155.82
221.758	152.29
221.976	151.99
222.193	122.49
222.411	130.8
222.629	133.64
222.846	115.01
223.064	86.74
223.281	106.26
223.499	109.17
223.716	98.05
223.934	94.17
224.151	90.32
224.369	95.4
224.586	115.93
224.804	119.05
225.021	119.46
225.239	108.08
225.456	122.39
225.674	101.49
225.891	90.52
226.108	83.96
226.326	78.97
226.543	72.22
226.76	62.34
226.978	50.85
227.195	57.91
227.413	45.04
227.63	51.39
227.847	48.9
228.064	44.12
228.282	42.97
228.499	42.96
228.716	43.35
228.934	42.3
229.151	41.05
229.368	38.88
229.585	34.54
229.802	36.66
230.02	37.66
230.237	37.29
230.454	37.42
230.671	41.55
230.888	43.14
231.105	36.46
231.323	41.91
231.54	43.64
231.757	48.72
231.974	53.83
232.191	55.91
232.408	50.1
232.625	51.43
232.842	47.41
233.059	45.84
233.276	42.68
233.493	45.49
233.71	35.6
233.927	35.09
234.144	33.96
234.361	28.46
234.578	27.56
234.795	23.88
235.012	22.72
235.229	25.39
235.446	26.31
235.663	26
235.879	30.22
236.096	34.54
236.313	37.96
236.53	29.49
236.747	34.72
236.964	30.09
237.181	37.95
237.397	38.82
237.614	50.06
237.831	50.44
238.048	53.68
238.264	47.25
238.481	45.93
238.698	39.92
238.915	43.75
239.131	38.21
239.348	40.63
239.565	39.77
239.781	37.88
239.998	31.45
240.215	27.38
240.431	24.36
240.648	25.86
240.865	24.12
241.081	23.32
241.298	21.39
241.514	24
241.731	21.92
241.947	19.99
242.164	19.02
242.38	14.01
242.597	13.64
242.814	11.98
243.03	14.2
243.246	16.15
243.463	17.1
243.679	17.78
243.896	15.72
244.112	13.35
244.329	14.63
244.545	16.44
244.762	16.8
244.978	15.93
245.194	16.32
245.411	13.75
245.627	10.05
245.843	12.18
246.06	11.25
246.276	12.38
246.492	15.09
246.709	14.97
246.925	14.73
247.141	18.2
247.357	18.41
247.574	18.76
247.79	18.17
248.006	18.21
248.222	18.34
248.439	18.81
248.655	19.31
248.871	18.17
249.087	18.78
249.303	19.84
249.519	18.03
249.736	18.64
249.952	17.45
250.168	21.81
250.384	25.07
250.6	22.9
250.816	25.33
251.032	23.93
251.248	25.6
251.464	26.38
251.68	21.95
251.896	19.32
252.112	19.49
252.328	20.68
252.544	18.47
252.76	16.82
252.976	16.53
253.192	14.93
253.408	16.95
253.624	16.26
253.84	15.23
254.056	16.03
254.272	19.45
254.487	17.96
254.703	15.55
254.919	12.19
255.135	10.98
255.351	12.27
255.567	10.98
255.782	8.58
255.998	10.12
256.214	7.61
256.43	10.46
256.646	9.07
256.861	11.79
257.077	11.52
257.293	12.99
257.508	14.44
257.724	16.57
257.94	16.59
258.155	16.76
258.371	17.37
258.587	16.61
258.802	16.24
259.018	16.27
259.234	15.03
259.449	15.83
259.665	16.03
259.88	16.58
260.096	16.12
260.312	15.92
260.527	16.2
260.743	15.87
260.958	16.16
261.174	16.91
261.389	18.22
261.605	18.07
261.82	17.69
262.036	17.67
262.251	16.95
262.466	16.68
262.682	17
262.897	16.01
263.113	15.37
263.328	17
263.543	14.9
263.759	12.32
263.974	13.6
264.189	14.24
264.405	13.69
264.62	13.92
264.835	11.76
265.051	13.05
265.266	12.4
265.481	14.48
265.696	15.27
265.912	14.58
266.127	13.37
266.342	12.18
266.557	14.3
266.773	14.19
266.988	13.43
267.203	15.08
267.418	13.52
267.633	14.49
267.848	13.9
268.064	10.61
268.279	12.14
268.494	11.59
268.709	13.14
268.924	11.81
269.139	11.44
269.354	11.88
269.569	10.69
269.784	11.91
269.999	12.06
270.214	12.26
270.429	13.86
270.644	13.73
270.859	14.74
271.074	13.79
271.289	15.25
271.504	15.72
271.719	15.44
271.934	15.95
272.149	15.16
272.363	15.15
272.578	14.24
272.793	13.9
273.008	12.8
273.223	12.22
273.438	11.55
273.653	10.95
273.867	10.52
274.082	10.71
274.297	11.81
274.512	13.68
274.726	13.87
274.941	13.66
275.156	16.05
275.371	16.44
275.585	18.67
275.8	20.78
276.015	20.48
276.229	21.45
276.444	22
276.659	20.87
276.873	17.95
277.088	19.78
277.302	20.55
277.517	17.2
277.732	18.23
277.946	16.03
278.161	16.84
278.375	16.4
278.59	14.99
278.804	14.48
279.019	15.97
279.233	17.03
279.448	13.7
279.662	13.16
279.877	13.51
280.091	11.77
280.306	11.55
280.52	9.21
280.735	9.36
280.949	10.82
281.163	10.66
281.378	8.67
281.592	9.13
281.806	9.34
282.021	9.44
282.235	9.65
282.449	11.28
282.664	11.74
282.878	12.5
283.092	11.08
283.307	11.38
283.521	11.52
283.735	12.29
283.949	11.78
284.164	12.62
284.378	12.79
284.592	12.79
284.806	13.07
285.02	12.59
285.234	11.8
285.449	12.29
285.663	12.32
285.877	12.87
286.091	12.33
286.305	12.51
286.519	12.64
286.733	12.87
286.947	14.5
287.161	14.01
287.375	14.3
287.589	15.39
287.803	17.41
288.017	16.34
288.231	15.79
288.445	16.64
288.659	17.43
288.873	17.99
289.087	18.5
289.301	17.47
289.515	16.87
289.729	17.79
289.943	18.46
290.157	17.83
290.371	19.44
290.584	18.98
290.798	19.52
291.012	19.4
291.226	19.23
291.44	18.94
291.654	19.76
291.867	19.51
292.081	18.46
292.295	18.79
292.509	18.78
292.722	17.6
292.936	17.43
293.15	17.12
293.364	15.48
293.577	14.25
293.791	14.52
294.005	13.01
294.218	14.68
294.432	14.6
294.645	13.48
294.859	12.89
295.073	13.09
295.286	13.64
295.5	13.22
295.713	14.24
295.927	14.43
296.14	14.37
296.354	14.4
296.568	13.05
296.781	12.89
296.994	13.89
297.208	13.88
297.421	13.31
297.635	13.5
297.848	13.3
298.062	12.91
298.275	13.69
298.489	13.52
298.702	14.15
298.915	13.83
299.129	14.43
299.342	13.37
299.555	14.22
299.769	15
299.982	15.86
300.195	16.86
300.409	17.65
300.622	17.68
300.835	18.1
301.048	17.44
301.262	18.08
301.475	19.19
301.688	19.21
301.901	18.62
302.115	18.51
302.328	17.55
302.541	18.32
302.754	19.06
302.967	18.44
303.18	19.02
303.393	19.52
303.607	20.44
303.82	20.42
304.033	20.78
304.246	20.96
304.459	21.39
304.672	22.02
304.885	21.65
305.098	21.11
305.311	21.71
305.524	21.06
305.737	20.78
305.95	20.88
306.163	20.34
306.376	19.07
306.589	19.72
306.802	19.45
307.015	19.32
307.228	19.59
307.44	18.87
307.653	18.92
307.866	18.66
308.079	20.44
308.292	20.7
308.505	20.75
308.718	21.81
308.93	21.75
309.143	21.84
309.356	22.04
309.569	21.34
309.781	22.16
309.994	21.79
310.207	21.88
310.42	20.98
310.632	20.86
310.845	21.44
311.058	21.32
311.27	20.67
311.483	20.98
311.696	20.44
311.908	20.67
312.121	19.82
312.333	21.1
312.546	21.01
312.759	20.45
312.971	20.21
313.184	19.89
313.396	20.04
313.609	19.77
313.821	19.66
314.034	18.94
314.246	17.85
314.459	19.31
314.671	17.51
314.884	17.21
315.096	17.26
315.309	18.33
315.521	19.41
315.733	19.24
315.946	20.42
316.158	20.08
316.371	20.39
316.583	20.16
316.795	19.65
317.008	19.55
317.22	18.78
317.432	19.73
317.644	18.57
317.857	17.57
318.069	16.42
318.281	15.14
318.494	15.75
318.706	16.96
318.918	17.69
319.13	16.86
319.342	16.71
319.555	18.45
319.767	17.98
319.979	17.43
320.191	17.53
320.403	19.09
320.615	21.47
320.827	21.53
321.039	21.52
321.252	22.59
321.464	24.02
321.676	24.89
321.888	24.77
322.1	25.53
322.312	25.01
322.524	24.91
322.736	24.07
322.948	22.29
323.16	22.04
323.372	22.57
323.584	22.22
323.796	21.36
324.007	21.37
324.219	21.34
324.431	21.24
324.643	23.24
324.855	23.66
325.067	23.66
325.279	24.14
325.491	24.63
325.702	24.4
325.914	24.83
326.126	25.48
326.338	23.82
326.55	23.11
326.761	22.77
326.973	20.78
327.185	20.72
327.396	20.5
327.608	19.56
327.82	19.5
328.032	20.19
328.243	19.99
328.455	20.24
328.666	22.47
328.878	23.06
329.09	24.18
329.301	25.54
329.513	25.76
329.725	26.99
329.936	28.55
330.148	28.11
330.359	28.19
330.571	28.08
330.782	26.66
330.994	26.14
331.205	26.67
331.417	27.22
331.628	26.45
331.84	26.53
332.051	25.87
332.262	25.47
332.474	26
332.685	25.84
332.897	26.12
333.108	26.48
333.319	26.28
333.531	26.4
333.742	25.02
333.953	25.63
334.165	25.47
334.376	26.8
334.587	26.49
334.799	26.37
335.01	24.63
335.221	22.91
335.432	22.7
335.644	22.7
335.855	22.78
336.066	23.47
336.277	23.67
336.488	24.34
336.7	23.6
336.911	24.12
337.122	25.04
337.333	25.66
337.544	26.52
337.755	27.83
337.966	28.47
338.177	27.99
338.388	27.26
338.599	26.62
338.811	25.65
339.022	25.6
339.233	25.53
339.444	23.32
339.655	23.13
339.866	23.7
340.076	23.01
340.287	22.37
340.498	22.73
340.709	22.46
340.92	22.98
341.131	23.13
341.342	23.05
341.553	21.81
341.764	24.05
341.975	24.59
342.185	23.46
342.396	22.33
342.607	22.58
342.818	22.09
343.029	22.28
343.239	22.01
343.45	21.62
343.661	20.89
343.872	21.55
344.082	20.29
344.293	20.62
344.504	21.38
344.714	22.12
344.925	22.35
345.136	22.21
345.346	21.04
345.557	21.38
345.768	21.21
345.978	22.67
346.189	22.8
346.399	21.81
346.61	21.18
346.821	20.98
347.031	21.54
347.242	21.17
347.452	20.93
347.663	22.9
347.873	23.37
348.084	23.69
348.294	21.95
348.504	22.22
348.715	23.83
348.925	23.5
349.136	22.64
349.346	22.45
349.557	21.64
349.767	22.89
349.977	23.14
350.188	22.18
350.398	22.32
350.608	22.01
350.819	22.22
351.029	21.42
351.239	22.81
351.449	22.6
351.66	22.39
351.87	22.72
352.08	22.47
352.29	21.21
352.501	21.6
352.711	20.68
352.921	21.63
353.131	20.81
353.341	21.66
353.552	19.95
353.762	20.06
353.972	19.8
354.182	20.17
354.392	20.24
354.602	20.53
354.812	20.58
355.022	20.78
355.232	21.49
355.442	21.62
355.652	20.83
355.862	20.96
356.072	22.38
356.282	22.11
356.492	21.9
356.702	21.28
356.912	20.94
357.122	21.47
357.332	21.97
357.542	21.01
357.752	20.91
357.962	21.07
358.171	21.2
358.381	20.73
358.591	21.29
358.801	21.3
359.011	21.56
359.221	21.65
359.43	21.13
359.64	20.45
359.85	20.4
360.06	20.32
360.269	20.03
360.479	20.69
360.689	20.84
360.899	20.75
361.108	20.77
361.318	20.28
361.528	20.29
361.737	19.46
361.947	19.52
362.156	19.61
362.366	19.36
362.576	19.57
362.785	18.9
362.995	18.46
363.204	18.22
363.414	18.43
363.623	18.33
363.833	18.81
364.042	19.55
364.252	19.75
364.461	19.78
364.671	20.75
364.88	20.38
365.09	21.31
365.299	21.89
365.509	21.85
365.718	21.08
365.927	21.63
366.137	20.73
366.346	20.71
366.555	20.27
366.765	20.19
366.974	19.62
367.183	19.16
367.393	18.09
367.602	17.77
367.811	17.9
368.021	18.72
368.23	18.74
368.439	19.1
368.648	17.89
368.857	18.06
369.067	17.64
369.276	18.11
369.485	19.1
369.694	19.61
369.903	19.54
370.112	19.55
370.321	19.07
370.531	19
370.74	18.67
370.949	19.07
371.158	19.19
371.367	19.33
371.576	18.61
371.785	18.58
371.994	18.42
372.203	18.12
372.412	18.05
372.621	18.13
372.83	17.99
373.039	18.21
373.248	17.48
373.457	17.77
373.666	17.21
373.874	17.15
374.083	16.76
374.292	16.51
374.501	16.91
374.71	16.77
374.919	16.59
375.128	16.46
375.336	16.86
375.545	18.59
375.754	18.3
375.963	18.62
376.171	17.77
376.38	18.14
376.589	17.98
376.798	17.22
377.006	17.26
377.215	17.32
377.424	16.97
377.632	16.02
377.841	15.82
378.05	15.67
378.258	16.05
378.467	16.58
378.675	16.34
378.884	16.87
379.093	16.89
379.301	17.16
379.51	16.76
379.718	17.05
379.927	17.65
380.135	17.14
380.344	16.71
380.552	16.74
380.761	17
380.969	16.99
381.177	16.03
381.386	16.76
381.594	16.07
381.803	16.26
382.011	16.31
382.219	15.9
382.428	16.17
382.636	16.65
382.845	15.88
383.053	15.99
383.261	15.55
383.469	16.15
383.678	15.57
383.886	15.6
384.094	15.8
384.302	15.68
384.511	15.83
384.719	15.67
384.927	15.88
385.135	16.47
385.343	15.94
385.552	15.97
385.76	15.61
385.968	15.86
386.176	15.63
386.384	15.06
386.592	14.82
386.8	14.99
387.008	14.74
387.216	14.59
387.424	14.23
387.633	14.32
387.841	14.76
388.049	15.16
388.257	15.25
388.465	14.98
388.672	15.41
388.88	15.54
389.088	15.1
389.296	15.11
389.504	14.65
389.712	15.18
389.92	15.24
390.128	15.07
390.336	15.04
390.544	14.5
390.751	15.02
390.959	14.67
391.167	14.51
391.375	14.97
391.583	14.88
391.79	14.69
391.998	14.29
392.206	14.12
392.414	13.44
392.621	13.2
392.829	13.52
393.037	13.52
393.244	13.53
393.452	13.82
393.66	13.54
393.867	13.55
394.075	13.61
394.283	13.65
394.49	13.64
394.698	13.98
394.905	14.09
395.113	13.97
395.32	13.74
395.528	14.03
395.735	13.78
395.943	13.78
396.15	13.93
396.358	13.84
396.565	14
396.773	13.92
396.98	14.16
397.188	13.72
397.395	13.69
397.602	13.72
397.81	13.49
398.017	13.42
398.225	13.63
398.432	13.24
398.639	13.58
398.847	13.28
399.054	13.42
399.261	13.36
399.468	13.73
399.676	13.8
399.883	13.42
400.09	13.67
400.297	13.77
400.505	13.36
400.712	13.81
400.919	13.73
401.126	13.92
401.333	13.77
401.54	13.72
401.748	13.64
401.955	13.4
402.162	13.79
402.369	13.63
402.576	13.34
402.783	13.02
402.99	12.71
403.197	12.56
403.404	12.33
403.611	12.35
403.818	12.45
404.025	12.35
404.232	12.57
404.439	12.42
404.646	12.14
404.853	12
405.06	12.13
405.267	12.4
405.474	12.39
405.681	12.52
405.887	12.2
406.094	12.1
406.301	12.12
406.508	12.15
406.715	12.44
406.922	12.45
407.128	12.91
407.335	12.99
407.542	12.76
407.749	12.82
407.955	12.61
408.162	12.72
408.369	12.52
408.575	12.78
408.782	12.84
408.989	12.43
409.195	12.45
409.402	12.31
409.609	12.19
409.815	12.02
410.022	11.91
410.228	12.03
410.435	12.42
410.642	12.56
410.848	12.21
411.055	11.95
411.261	11.99
411.468	12.21
411.674	12.17
411.881	12.4
412.087	12.71
412.294	12.86
412.5	13.08
412.706	12.87
412.913	12.73
413.119	12.78
413.326	12.57
413.532	12.5
413.738	12.57
413.945	12.17
414.151	12.29
414.357	12.01
414.564	11.94
414.77	11.78
414.976	11.91
415.182	12.15
415.389	12.15
415.595	12.13
415.801	12.13
416.007	11.98
416.214	12
416.42	11.95
416.626	11.86
416.832	11.92
417.038	11.91
417.244	11.79
417.45	11.54
417.657	11.57
417.863	11.49
418.069	11.71
418.275	11.75
418.481	11.92
418.687	11.84
418.893	11.98
419.099	11.82
419.305	11.73
419.511	11.69
419.717	11.65
419.923	11.63
420.129	11.71
420.335	11.74
420.541	11.67
420.746	11.6
420.952	11.65
421.158	11.66
421.364	11.56
421.57	11.58
421.776	11.58
421.982	11.71
422.187	11.67
422.393	11.75
422.599	11.75
422.805	11.71
423.01	11.77
423.216	11.67
423.422	11.7
423.628	11.98
423.833	11.91
424.039	12.01
424.245	11.99
424.45	12.02
424.656	11.95
424.862	11.76
425.067	11.83
425.273	11.83
425.478	11.88
425.684	11.83
425.889	11.89
426.095	12
426.301	11.89
426.506	11.83
426.712	11.93
426.917	12.05
427.123	12.05
427.328	11.96
427.533	11.93
427.739	11.97
427.944	11.91
428.15	11.65
428.355	11.64
428.561	11.82
428.766	11.87
428.971	11.6
429.177	11.5
429.382	11.54
429.587	11.54
429.793	11.52
429.998	11.37
430.203	11.42
430.408	11.42
430.614	11.51
430.819	11.49
431.024	11.4
431.229	11.72
431.434	11.78
431.64	11.81
431.845	11.91
432.05	12.06
432.255	12.04
432.46	12.01
432.665	12
432.87	11.85
433.076	11.79
433.281	11.79
433.486	11.52
433.691	11.45
433.896	11.55
434.101	11.43
434.306	11.29
434.511	11.31
434.716	11.28
434.921	11.45
435.126	11.53
435.331	11.49
435.535	11.43
435.74	11.38
435.945	11.36
436.15	11.33
436.355	11.54
436.56	11.59
436.765	11.76
436.97	11.66
437.174	11.57
437.379	11.56
437.584	11.62
437.789	11.79
437.993	11.97
438.198	12.02
438.403	11.97
438.608	11.87
438.812	11.79
439.017	11.66
439.222	11.64
439.426	11.57
439.631	11.43
439.836	11.58
440.04	11.57
440.245	11.45
440.45	11.43
440.654	11.41
440.859	11.25
441.063	11.22
441.268	11.35
441.472	11.29
441.677	11.31
441.881	11.23
442.086	10.98
442.29	10.79
442.495	10.87
442.699	10.91
442.904	10.7
443.108	10.98
443.312	11.01
443.517	10.77
443.721	11.01
443.925	10.91
444.13	11.14
444.334	11.08
444.538	11.27
444.743	11.19
444.947	11.11
445.151	11.33
445.356	11.24
445.56	11.39
445.764	11.46
445.968	11.42
446.173	11.44
446.377	11.37
446.581	11.42
446.785	11.39
446.989	11.44
447.193	11.4
447.398	11.33
447.602	11.24
447.806	11.16
448.01	11.14
448.214	11.14
448.418	11.12
448.622	11.14
448.826	11.19
449.03	11.19
449.234	11.3
449.438	11.36
449.642	11.37
449.846	11.52
450.05	11.53
450.254	11.45
450.458	11.27
450.662	11.52
450.866	11.27
451.069	11.2
451.273	11.29
451.477	11.24
451.681	11.23
451.885	11.28
452.089	11.28
452.292	11.03
452.496	11.1
452.7	11.29
452.904	11.24
453.107	11.54
453.311	11.45
453.515	11.37
