Data from CB_073_Reflection_2.txt Node
Date: Sat Nov 14 11:17:33 EST 2015
User: robert
Spectrometer: USB4E03001
Autoset integration time: false
Trigger mode: 4
Integration Time (sec): 1.000000E-1
Scans to average: 15
Electric dark correction enabled: true
Nonlinearity correction enabled: false
Boxcar width: 5
Stray light correction enabled: false
XAxis mode: Wavelengths
Stop averaging: false
Number of Pixels in Spectrum: 3648
>>>>>Begin Spectral Data<<<<<
177.566	-295.75
177.785	-533.5
178.005	-1609.82
178.225	-230.96
178.445	-277.93
178.665	-459.47
178.885	69.74
179.105	-145.88
179.324	-238.83
179.544	-497.24
179.764	-152.64
179.984	-196.06
180.204	-224.29
180.423	-742.07
180.643	-313.59
180.863	-594.69
181.083	-2672.02
181.302	-12590.48
181.522	1427.52
181.742	1617.69
181.961	1882.6
182.181	295.23
182.401	224.09
182.621	415.99
182.84	1708.3
183.06	-6241.36
183.279	-835.51
183.499	-518.86
183.719	-678.77
183.938	-427.1
184.158	-313.83
184.377	-290
184.597	-183.53
184.816	-125.41
185.036	-193.12
185.256	-270.99
185.475	-532.2
185.695	-338.34
185.914	-366.3
186.134	-326.14
186.353	-353.16
186.572	-312.88
186.792	-839.67
187.011	3524.79
187.231	-1968.18
187.45	-461.23
187.67	-1479.65
187.889	760.66
188.108	443.36
188.328	359.38
188.547	286.5
188.766	250.09
188.986	226.83
189.205	226.97
189.424	271.1
189.644	252.21
189.863	332.22
190.082	405.1
190.302	556.71
190.521	413.28
190.74	393.65
190.959	1316.41
191.178	993.92
191.398	656.57
191.617	1545.29
191.836	5950
192.055	986.07
192.274	231.87
192.494	276.43
192.713	12357.14
192.932	-1382.19
193.151	279600
193.37	447.46
193.589	-12324.78
193.808	-1196.9
194.027	-2024.28
194.246	3948.89
194.465	-2719.72
194.685	702.32
194.904	738.69
195.123	480.01
195.342	382.73
195.561	361.25
195.78	1134.66
195.999	2583.4
196.218	1101.18
196.436	774.92
196.655	366.31
196.874	199.92
197.093	343.69
197.312	317.39
197.531	435.78
197.75	707.39
197.969	1651.86
198.188	299.74
198.407	195.47
198.625	245.99
198.844	331.8
199.063	443.87
199.282	932.33
199.501	-4617.58
199.719	-2275.15
199.938	1102.94
200.157	608.08
200.376	-3554.79
200.594	-251.05
200.813	-715.66
201.032	-1873.21
201.251	-854.57
201.469	-936.89
201.688	-1859.64
201.907	3421.87
202.125	1029.66
202.344	3952.58
202.563	25421.74
202.781	1376.99
203	446.53
203.218	372.24
203.437	620.34
203.656	462.15
203.874	1144.89
204.093	1062.53
204.311	699.08
204.53	2045.92
204.748	508.36
204.967	608.67
205.185	450.43
205.404	493.23
205.622	696.14
205.841	376.21
206.059	336.77
206.278	248.58
206.496	412.07
206.715	592.45
206.933	407.62
207.151	494.91
207.37	350.84
207.588	462.79
207.806	515.34
208.025	669.76
208.243	1023.38
208.461	-71281.82
208.68	2269.53
208.898	873.6
209.116	503.52
209.335	438.47
209.553	400.33
209.771	328.91
209.989	278.94
210.208	248.1
210.426	239.39
210.644	200.86
210.862	173.52
211.081	173.77
211.299	151.65
211.517	183.02
211.735	147.74
211.953	149.82
212.171	174.43
212.39	193.52
212.608	207.86
212.826	212.67
213.044	200.23
213.262	219.92
213.48	211.65
213.698	316.54
213.916	182.04
214.134	354.24
214.352	686
214.57	420.43
214.788	339.61
215.006	247.61
215.224	405.91
215.442	1283.58
215.66	2389.07
215.878	748.04
216.096	250.86
216.314	890.85
216.532	2987.06
216.75	-682.63
216.968	-977.91
217.185	-8562.83
217.403	2550.96
217.621	-144488.89
217.839	-722.1
218.057	-23083.33
218.275	-752.14
218.492	-162.96
218.71	-2987.94
218.928	2075.32
219.146	1304.29
219.363	669.97
219.581	763.9
219.799	-3621.81
220.017	357.02
220.234	435.44
220.452	511.39
220.67	859.62
220.887	348.24
221.105	550.26
221.323	269.05
221.54	184.98
221.758	167.46
221.976	139.41
222.193	102.95
222.411	128.2
222.629	128.14
222.846	109.26
223.064	88.74
223.281	102.01
223.499	106.06
223.716	110.86
223.934	95.09
224.151	110.69
224.369	119.83
224.586	131.48
224.804	131.15
225.021	124.97
225.239	125.28
225.456	128.01
225.674	110.09
225.891	113.45
226.108	110.37
226.326	104.42
226.543	103.24
226.76	91.42
226.978	77.59
227.195	71.93
227.413	62.82
227.63	62.41
227.847	54.73
228.064	48.89
228.282	41.68
228.499	40.39
228.716	41.77
228.934	36.48
229.151	36.8
229.368	33.36
229.585	35.4
229.802	35.93
230.02	35.52
230.237	37.41
230.454	35.7
230.671	40.67
230.888	44.24
231.105	42.76
231.323	45.17
231.54	48.46
231.757	49.35
231.974	54.69
232.191	57.16
232.408	54.1
232.625	58.4
232.842	56.49
233.059	46.65
233.276	39.83
233.493	46.47
233.71	46.5
233.927	43.71
234.144	48.54
234.361	40.6
234.578	38.4
234.795	35.11
235.012	36.08
235.229	41.09
235.446	46.01
235.663	49.29
235.879	47.52
236.096	50.67
236.313	60.7
236.53	55.42
236.747	60.92
236.964	65.14
237.181	72.58
237.397	70.98
237.614	78.99
237.831	82.4
238.048	80.04
238.264	74.6
238.481	74.45
238.698	61.71
238.915	63.13
239.131	54.14
239.348	50.95
239.565	53.1
239.781	51.62
239.998	42.15
240.215	32.69
240.431	27.52
240.648	31.16
240.865	28.74
241.081	28.14
241.298	26.92
241.514	29.77
241.731	27.96
241.947	22.94
242.164	21.73
242.38	20.25
242.597	20.09
242.814	22.11
243.03	22.32
243.246	22.36
243.463	23.79
243.679	23.89
243.896	23.16
244.112	22.87
244.329	25.38
244.545	25.66
244.762	26.81
244.978	30.89
245.194	28.11
245.411	24.73
245.627	23.21
245.843	22.95
246.06	22.67
246.276	20.29
246.492	21.39
246.709	19.24
246.925	18.03
247.141	18.16
247.357	17.27
247.574	17.94
247.79	17.93
248.006	17.52
248.222	17.12
248.439	16.37
248.655	16.26
248.871	15.78
249.087	16.47
249.303	17.5
249.519	16.46
249.736	17.6
249.952	17.27
250.168	20.05
250.384	20.07
250.6	20.28
250.816	23.11
251.032	24.48
251.248	24.26
251.464	25.37
251.68	24.86
251.896	25.08
252.112	22.89
252.328	22.19
252.544	21.05
252.76	20.55
252.976	18.8
253.192	16.31
253.408	17.84
253.624	17.58
253.84	18.85
254.056	19.54
254.272	19.54
254.487	23.06
254.703	23.04
254.919	23.53
255.135	26.87
255.351	29.5
255.567	31.96
255.782	32.64
255.998	34.11
256.214	30.63
256.43	29.37
256.646	31.58
256.861	29.26
257.077	29.48
257.293	27.53
257.508	25.37
257.724	24.69
257.94	20.01
258.155	17.32
258.371	16
258.587	16.14
258.802	15.17
259.018	13.44
259.234	13.47
259.449	12.98
259.665	12.3
259.88	12.65
260.096	12.63
260.312	13.53
260.527	13.67
260.743	13.57
260.958	13.11
261.174	14.2
261.389	15.25
261.605	14.08
261.82	13.85
262.036	14.64
262.251	14.19
262.466	12.6
262.682	11.54
262.897	12.57
263.113	12.8
263.328	12.48
263.543	11.06
263.759	11.53
263.974	14.89
264.189	15
264.405	13.78
264.62	14.98
264.835	15.68
265.051	17.91
265.266	14.68
265.481	14.96
265.696	18.96
265.912	17.68
266.127	16.95
266.342	15.86
266.557	16.94
266.773	17.54
266.988	17.02
267.203	18.05
267.418	17.24
267.633	19
267.848	18.3
268.064	14.8
268.279	15.28
268.494	14.34
268.709	14.42
268.924	16.05
269.139	15.24
269.354	15.98
269.569	14.5
269.784	15.84
269.999	15.56
270.214	15.1
270.429	15.87
270.644	16.53
270.859	16.77
271.074	16.5
271.289	16.43
271.504	16.62
271.719	15.7
271.934	17.15
272.149	15.32
272.363	15.88
272.578	16.23
272.793	15.9
273.008	15.54
273.223	14.66
273.438	14.06
273.653	12.95
273.867	12.27
274.082	12.75
274.297	11.69
274.512	13.35
274.726	12.46
274.941	10.8
275.156	13.29
275.371	12.16
275.585	13.46
275.8	16.37
276.015	14.67
276.229	15.91
276.444	16.28
276.659	16.4
276.873	15.57
277.088	17.09
277.302	19.49
277.517	16.89
277.732	18.28
277.946	18.09
278.161	16.22
278.375	17.53
278.59	16.41
278.804	14.91
279.019	16.05
279.233	15.74
279.448	12.05
279.662	10.84
279.877	12.39
280.091	10.83
280.306	10.42
280.52	7.76
280.735	7.4
280.949	9.79
281.163	10.93
281.378	10.46
281.592	10.55
281.806	11.76
282.021	11.29
282.235	9.97
282.449	11.31
282.664	11.95
282.878	13.66
283.092	13.49
283.307	12.4
283.521	11.69
283.735	12.38
283.949	13.23
284.164	13.45
284.378	13.46
284.592	13.54
284.806	13.9
285.02	13.74
285.234	13.23
285.449	12.71
285.663	12.81
285.877	12.33
286.091	11.69
286.305	11.53
286.519	11.89
286.733	12.05
286.947	12.87
287.161	12.97
287.375	12.23
287.589	12.76
287.803	14.51
288.017	14.16
288.231	15.54
288.445	15.72
288.659	15.58
288.873	15.83
289.087	16.07
289.301	16.72
289.515	14.95
289.729	15.73
289.943	16.5
290.157	16.42
290.371	17.38
290.584	16.28
290.798	16.5
291.012	15.94
291.226	15.25
291.44	15.14
291.654	14.82
291.867	15.81
292.081	16.63
292.295	15.88
292.509	15.32
292.722	14.12
292.936	13.83
293.15	14.6
293.364	15.12
293.577	15.39
293.791	17.24
294.005	16.3
294.218	17.06
294.432	16.75
294.645	17.26
294.859	16.12
295.073	16.67
295.286	16.94
295.5	14.96
295.713	14.86
295.927	14.81
296.14	13.41
296.354	13.22
296.568	12.54
296.781	11.47
296.994	11.74
297.208	12.22
297.421	11.62
297.635	12.33
297.848	12.38
298.062	11.92
298.275	11.48
298.489	10.93
298.702	11.31
298.915	10.37
299.129	11.29
299.342	11.09
299.555	11.87
299.769	11.94
299.982	10.76
300.195	10.92
300.409	11.22
300.622	11.97
300.835	12.36
301.048	12.21
301.262	14.33
301.475	15.01
301.688	14.98
301.901	15.38
302.115	15.73
302.328	16.08
302.541	17.29
302.754	18.41
302.967	18.51
303.18	19.2
303.393	20.21
303.607	19.7
303.82	18.65
304.033	19.17
304.246	18.63
304.459	18.95
304.672	20.88
304.885	21.48
305.098	21.28
305.311	21.97
305.524	22.01
305.737	21.2
305.95	21.25
306.163	21.36
306.376	19.02
306.589	18.78
306.802	18.95
307.015	17.96
307.228	17.7
307.44	17.08
307.653	16.82
307.866	17.84
308.079	18.35
308.292	17.31
308.505	17.29
308.718	19.23
308.93	19.54
309.143	19.55
309.356	19.28
309.569	18.16
309.781	17.99
309.994	18.4
310.207	17.09
310.42	15.53
310.632	16.22
310.845	16.14
311.058	15.81
311.27	15.5
311.483	15.66
311.696	15.29
311.908	15.65
312.121	15.92
312.333	15.53
312.546	15.6
312.759	15.91
312.971	15.46
313.184	16.12
313.396	16.29
313.609	16.27
313.821	15.89
314.034	16.83
314.246	15.89
314.459	16.45
314.671	15.98
314.884	17.22
315.096	18.27
315.309	19.04
315.521	19.44
315.733	18.67
315.946	19.29
316.158	19.72
316.371	20.65
316.583	21.45
316.795	21.12
317.008	21.97
317.22	22.12
317.432	22.57
317.644	21.97
317.857	21.01
318.069	21.86
318.281	22.19
318.494	22.58
318.706	23.01
318.918	23.94
319.13	23.28
319.342	22.68
319.555	21.69
319.767	22.25
319.979	23.33
320.191	23.25
320.403	23.5
320.615	23.58
320.827	22.59
321.039	20.67
321.252	20.93
321.464	21.66
321.676	20.99
321.888	20.92
322.1	19.88
322.312	19.73
322.524	20.52
322.736	18.63
322.948	19.06
323.16	18.69
323.372	19.48
323.584	19.1
323.796	18.92
324.007	19.31
324.219	19.92
324.431	20.28
324.643	21.9
324.855	22.62
325.067	23.19
325.279	23.64
325.491	25.04
325.702	25.87
325.914	25.67
326.126	26.05
326.338	25.45
326.55	26.01
326.761	26.78
326.973	26.18
327.185	26.86
327.396	28.56
327.608	27.66
327.82	27.63
328.032	28.15
328.243	29.82
328.455	31.35
328.666	33.71
328.878	33.82
329.09	34.59
329.301	34.89
329.513	33.3
329.725	34.01
329.936	34.46
330.148	34.94
330.359	35.11
330.571	34.84
330.782	34.3
330.994	34.78
331.205	35.55
331.417	35.52
331.628	35.31
331.84	38.51
332.051	38.14
332.262	38.6
332.474	38.35
332.685	38.06
332.897	38.46
333.108	38.8
333.319	38.06
333.531	38.57
333.742	38.26
333.953	38.36
334.165	36.96
334.376	37.84
334.587	37.91
334.799	37.8
335.01	37.72
335.221	37.08
335.432	36.71
335.644	36.3
335.855	35.63
336.066	36.25
336.277	36.71
336.488	37.37
336.7	36.37
336.911	35.74
337.122	35.82
337.333	36.17
337.544	36.65
337.755	38.02
337.966	39.06
338.177	39.51
338.388	38.9
338.599	39.87
338.811	38.41
339.022	38.73
339.233	40.45
339.444	39.84
339.655	39.03
339.866	38.47
340.076	37.74
340.287	36.87
340.498	36.09
340.709	36.5
340.92	35.81
341.131	37
341.342	36.95
341.553	35.21
341.764	37.24
341.975	37.38
342.185	37.91
342.396	38.01
342.607	37.87
342.818	38.3
343.029	37.72
343.239	37.22
343.45	36.84
343.661	37.25
343.872	37.5
344.082	36.2
344.293	36.25
344.504	36.2
344.714	35.15
344.925	36
345.136	35.25
345.346	33.96
345.557	34.01
345.768	33.79
345.978	33.5
346.189	33.65
346.399	32.74
346.61	31.95
346.821	32.25
347.031	32.78
347.242	31.91
347.452	32.06
347.663	34.15
347.873	34
348.084	34.33
348.294	32.91
348.504	33.3
348.715	35.03
348.925	35.64
349.136	34.42
349.346	33.74
349.557	34.06
349.767	35.39
349.977	34.92
350.188	34.87
350.398	34.46
350.608	34.84
350.819	34.97
351.029	34.04
351.239	35.16
351.449	35.41
351.66	35.45
351.87	35.37
352.08	33.96
352.29	34.08
352.501	34.44
352.711	34.36
352.921	35.38
353.131	34.3
353.341	34.83
353.552	33.28
353.762	33.09
353.972	33.38
354.182	33.72
354.392	33.45
354.602	33.84
354.812	33.82
355.022	33.5
355.232	33.15
355.442	33.81
355.652	33.53
355.862	33.68
356.072	34.08
356.282	33.62
356.492	33.04
356.702	33.43
356.912	32.45
357.122	32.79
357.332	33.28
357.542	32.69
357.752	32.23
357.962	32.11
358.171	31.91
358.381	31.8
358.591	32.18
358.801	31.99
359.011	32.11
359.221	32.24
359.43	31.31
359.64	30.32
359.85	30.62
360.06	30.52
360.269	30.3
360.479	30.63
360.689	30.69
360.899	30.24
361.108	30.34
361.318	29.86
361.528	29.61
361.737	29.28
361.947	29.67
362.156	29.96
362.366	29.96
362.576	30.39
362.785	30.11
362.995	29.81
363.204	30.15
363.414	30.09
363.623	30.36
363.833	31.13
364.042	31.8
364.252	32.16
364.461	31.42
364.671	31.85
364.88	31.47
365.09	31.75
365.299	31.85
365.509	31.7
365.718	31.38
365.927	31.45
366.137	30.42
366.346	30.21
366.555	29.71
366.765	30.14
366.974	29.63
367.183	28.22
367.393	27.1
367.602	26.97
367.811	27.26
368.021	27.68
368.23	28.08
368.439	28.39
368.648	27.78
368.857	27.79
369.067	27.69
369.276	27.59
369.485	29.05
369.694	30.49
369.903	30.37
370.112	30.1
370.321	29.07
370.531	27.86
370.74	27.55
370.949	27.88
371.158	27.59
371.367	27.55
371.576	27.4
371.785	27.1
371.994	26.84
372.203	26.92
372.412	26.62
372.621	27.4
372.83	27.35
373.039	27.57
373.248	26.9
373.457	27.07
373.666	25.95
373.874	25.41
374.083	25.43
374.292	25.07
374.501	24.68
374.71	24.75
374.919	24.74
375.128	24.77
375.336	25.03
375.545	25.55
375.754	25.4
375.963	26.09
376.171	25.93
376.38	25.48
376.589	24.9
376.798	24.19
377.006	24.21
377.215	24.15
377.424	23.99
377.632	23.13
377.841	22.96
378.05	22.68
378.258	22.39
378.467	22.55
378.675	22.36
378.884	23.18
379.093	23.64
379.301	23.34
379.51	23.13
379.718	23.39
379.927	23.59
380.135	23.72
380.344	23.63
380.552	24.66
380.761	24.52
380.969	24.6
381.177	23.86
381.386	24.35
381.594	24.08
381.803	24.11
382.011	24.14
382.219	23.65
382.428	23.39
382.636	23.6
382.845	21.89
383.053	22.08
383.261	22.19
383.469	22.45
383.678	22.2
383.886	22.13
384.094	22.01
384.302	21.99
384.511	22.55
384.719	22.46
384.927	22.4
385.135	23.42
385.343	23.38
385.552	23.55
385.76	22.93
385.968	22.61
386.176	22.54
386.384	21.72
386.592	21.5
386.8	21.47
387.008	21.62
387.216	21.68
387.424	21.2
387.633	20.91
387.841	20.65
388.049	20.9
388.257	20.95
388.465	20.74
388.672	21.31
388.88	21.41
389.088	20.46
389.296	19.97
389.504	19.66
389.712	19.54
389.92	19.49
390.128	19.38
390.336	19.13
390.544	18.88
390.751	19.32
390.959	19.04
391.167	18.48
391.375	19.29
391.583	18.99
391.79	18.55
391.998	18.81
392.206	18.76
392.414	18.42
392.621	18.48
392.829	18.35
393.037	17.98
393.244	17.79
393.452	18.08
393.66	17.74
393.867	18.06
394.075	18.28
394.283	17.95
394.49	17.76
394.698	17.71
394.905	17.76
395.113	17.98
395.32	17.81
395.528	17.8
395.735	17.54
395.943	17.58
396.15	17.46
396.358	17.19
396.565	17.18
396.773	17.37
396.98	17.5
397.188	17.14
397.395	17.1
397.602	16.98
397.81	16.83
398.017	17.03
398.225	17.02
398.432	17.09
398.639	17
398.847	16.96
399.054	16.99
399.261	16.69
399.468	16.79
399.676	16.81
399.883	16.63
400.09	17.27
400.297	17.04
400.505	16.78
400.712	16.83
400.919	17.41
401.126	17.2
401.333	16.7
401.54	16.82
401.748	16.79
401.955	16.1
402.162	16.05
402.369	15.58
402.576	15.4
402.783	15.27
402.99	14.97
403.197	14.47
403.404	14.34
403.611	14.54
403.818	14.32
404.025	14.22
404.232	14.61
404.439	14.73
404.646	14.62
404.853	14.72
405.06	14.44
405.267	14.55
405.474	14.66
405.681	14.8
405.887	14.65
406.094	15.03
406.301	15.26
406.508	15.4
406.715	15.68
406.922	15.63
407.128	15.79
407.335	15.95
407.542	15.7
407.749	15.52
407.955	15.31
408.162	15.3
408.369	14.93
408.575	14.79
408.782	14.87
408.989	14.37
409.195	14.36
409.402	14.13
409.609	13.99
409.815	13.86
410.022	14.1
410.228	14.22
410.435	14.6
410.642	14.85
410.848	14.64
411.055	14.34
411.261	14.8
411.468	15.02
411.674	15.14
411.881	15.47
412.087	15.81
412.294	15.66
412.5	15.62
412.706	15.34
412.913	14.98
413.119	14.96
413.326	14.94
413.532	14.58
413.738	14.55
413.945	14.05
414.151	14.06
414.357	13.9
414.564	13.73
414.77	13.69
414.976	13.71
415.182	14.1
415.389	13.98
415.595	13.67
415.801	13.75
416.007	13.61
416.214	13.77
416.42	13.72
416.626	13.5
416.832	13.66
417.038	13.69
417.244	13.68
417.45	13.37
417.657	13.28
417.863	13.34
418.069	13.32
418.275	13.32
418.481	13.35
418.687	13.31
418.893	13.28
419.099	13.22
419.305	13
419.511	12.81
419.717	12.9
419.923	13.02
420.129	12.99
420.335	13.02
420.541	12.92
420.746	12.85
420.952	12.81
421.158	12.94
421.364	12.76
421.57	12.93
421.776	13
421.982	13.03
422.187	12.88
422.393	12.94
422.599	12.8
422.805	12.77
423.01	12.73
423.216	12.7
423.422	12.74
423.628	12.85
423.833	12.7
424.039	12.69
424.245	12.66
424.45	12.69
424.656	12.74
424.862	12.78
425.067	12.69
425.273	12.84
425.478	12.77
425.684	12.74
425.889	12.88
426.095	12.9
426.301	12.85
426.506	12.81
426.712	12.94
426.917	12.89
427.123	12.85
427.328	12.95
427.533	12.76
427.739	13.07
427.944	12.98
428.15	12.72
428.355	12.86
428.561	13.1
428.766	13.02
428.971	12.82
429.177	12.8
429.382	12.88
429.587	12.93
429.793	13.01
429.998	12.82
430.203	12.88
430.408	12.97
430.614	12.8
430.819	12.64
431.024	12.61
431.229	12.7
431.434	12.63
431.64	12.63
431.845	12.75
432.05	12.62
432.255	12.5
432.46	12.43
432.665	12.35
432.87	12.36
433.076	12.38
433.281	12.36
433.486	12.4
433.691	12.29
433.896	12.12
434.101	11.93
434.306	12.01
434.511	12.06
434.716	11.93
434.921	12.03
435.126	12.1
435.331	12.04
435.535	12.14
435.74	11.94
435.945	12.01
436.15	12.03
436.355	12.18
436.56	12.22
436.765	12.32
436.97	12.28
437.174	12.27
437.379	12.23
437.584	12.4
437.789	12.29
437.993	12.37
438.198	12.39
438.403	12.49
438.608	12.53
438.812	12.43
439.017	12.28
439.222	12.4
439.426	12.25
439.631	12.22
439.836	12.11
440.04	12.13
440.245	12.14
440.45	12.31
440.654	12.26
440.859	12.04
441.063	12.03
441.268	12.1
441.472	12.1
441.677	12.05
441.881	11.98
442.086	11.89
442.29	11.71
442.495	11.76
442.699	11.6
442.904	11.55
443.108	11.7
443.312	11.74
443.517	11.67
443.721	11.59
443.925	11.68
444.13	11.69
444.334	11.63
444.538	11.79
444.743	11.67
444.947	11.6
445.151	11.6
445.356	11.66
445.56	11.72
445.764	11.71
445.968	11.83
446.173	11.86
446.377	11.89
446.581	11.96
446.785	11.93
446.989	11.92
447.193	11.94
447.398	11.98
447.602	11.84
447.806	11.79
448.01	11.86
448.214	11.86
448.418	11.73
448.622	11.76
448.826	11.69
449.03	11.76
449.234	12
449.438	12.03
449.642	12.03
449.846	12.3
450.05	12.33
450.254	12.14
450.458	11.94
450.662	12.19
450.866	12.16
451.069	12.34
451.273	12.35
451.477	12.19
451.681	12.14
451.885	12.04
452.089	11.84
452.292	11.55
452.496	11.37
452.7	11.57
452.904	11.57
453.107	11.76
