Data from CB_074_Reflection_5.txt Node
Date: Sat Nov 14 11:28:32 EST 2015
User: robert
Spectrometer: USB4E03001
Autoset integration time: false
Trigger mode: 4
Integration Time (sec): 1.000000E-1
Scans to average: 15
Electric dark correction enabled: true
Nonlinearity correction enabled: false
Boxcar width: 5
Stray light correction enabled: false
XAxis mode: Wavelengths
Stop averaging: false
Number of Pixels in Spectrum: 3648
>>>>>Begin Spectral Data<<<<<
177.566	-219.67
177.785	-234.23
178.005	-691.99
178.225	-181.88
178.445	-223.37
178.665	-598.62
178.885	147.2
179.105	-76.27
179.324	-98.66
179.544	-350.38
179.764	-112.2
179.984	-197.7
180.204	-208.94
180.423	-681.68
180.643	-434.3
180.863	-752.92
181.083	-3447.83
181.302	-13856.35
181.522	1617.14
181.742	1773.51
181.961	2185.27
182.181	296.71
182.401	218.73
182.621	339.38
182.84	1493.42
183.06	-5411.53
183.279	-712.39
183.499	-463.16
183.719	-600.94
183.938	-372.83
184.158	-260.79
184.377	-201.78
184.597	-144.26
184.816	-82.89
185.036	-167.24
185.256	-237.17
185.475	-454.69
185.695	-266.72
185.914	-279.69
186.134	-293.46
186.353	-295.69
186.572	-294.7
186.792	-970.95
187.011	4795.8
187.231	-3515.91
187.45	-565.53
187.67	-1939.92
187.889	809.84
188.108	392.94
188.328	338.41
188.547	277.53
188.766	241.65
188.986	204.85
189.205	195.18
189.424	214.46
189.644	185.28
189.863	264.23
190.082	305.66
190.302	423.31
190.521	413.94
190.74	418.8
190.959	1650.45
191.178	1427.57
191.398	1160.69
191.617	3133.38
191.836	11294.62
192.055	1995.92
192.274	523.59
192.494	776.51
192.713	37166.07
192.932	-3034.6
193.151	510250
193.37	669.84
193.589	-18671.68
193.808	-1755.05
194.027	-3016.06
194.246	6225.31
194.465	-4476.76
194.685	1099.23
194.904	998.62
195.123	539.98
195.342	431.69
195.561	393.67
195.78	1235
195.999	2319.66
196.218	839
196.436	381.07
196.655	253.61
196.874	136.44
197.093	317.9
197.312	340.18
197.531	606.87
197.75	988.15
197.969	2409.2
198.188	409.21
198.407	318.59
198.625	341.81
198.844	425.91
199.063	483.4
199.282	1089.87
199.501	-5337.11
199.719	-2804.17
199.938	1215.41
200.157	708.33
200.376	-4491.62
200.594	-314.61
200.813	-813.36
201.032	-2387.2
201.251	-1213.13
201.469	-1807.83
201.688	-3152.55
201.907	5426.78
202.125	1656.1
202.344	6318.24
202.563	32085.51
202.781	1723.75
203	560.44
203.218	456.53
203.437	736.37
203.656	527.84
203.874	1118.25
204.093	902.93
204.311	574.25
204.53	1665.37
204.748	425.25
204.967	597.28
205.185	454.06
205.404	525.32
205.622	660.24
205.841	340.85
206.059	259.16
206.278	248.07
206.496	456.35
206.715	652.15
206.933	445.48
207.151	600.39
207.37	440.59
207.588	546.2
207.806	608.43
208.025	813.46
208.243	1361.09
208.461	-109081.82
208.68	3222.56
208.898	1286.6
209.116	698.33
209.335	516.16
209.553	409.77
209.771	316.79
209.989	253.35
210.208	217.98
210.426	193.12
210.644	159.9
210.862	137.55
211.081	144.06
211.299	111.72
211.517	156.9
211.735	125.22
211.953	128.7
212.171	148.32
212.39	179.05
212.608	184.24
212.826	166.41
213.044	170.31
213.262	164.23
213.48	175.89
213.698	274.73
213.916	149.72
214.134	304.63
214.352	653.52
214.57	360.17
214.788	283.76
215.006	243.63
215.224	525.51
215.442	1424.18
215.66	2725.98
215.878	640.18
216.096	288.76
216.314	773.35
216.532	2916.75
216.75	-899.72
216.968	-1000.11
217.185	-9721.24
217.403	2689.01
217.621	-154988.89
217.839	-850.1
218.057	-35154.17
218.275	-1293.92
218.492	-281.83
218.71	-5248.79
218.928	3280.95
219.146	1701.76
219.363	985.17
219.581	1125.02
219.799	-5625.23
220.017	582.78
220.234	785.72
220.452	718.49
220.67	1092.7
220.887	350.59
221.105	588.01
221.323	284.74
221.54	220.08
221.758	227.88
221.976	195.74
222.193	140.5
222.411	138.64
222.629	137.17
222.846	131.21
223.064	111.05
223.281	137.18
223.499	137.94
223.716	136.6
223.934	114.02
224.151	108.38
224.369	100.7
224.586	140.3
224.804	158.59
225.021	138.72
225.239	130.71
225.456	130.9
225.674	111.3
225.891	105
226.108	116.63
226.326	112.98
226.543	117.99
226.76	107.93
226.978	81.97
227.195	83.05
227.413	75.36
227.63	73.12
227.847	71.62
228.064	69.24
228.282	65.71
228.499	58.36
228.716	52.2
228.934	51.29
229.151	51.32
229.368	47.98
229.585	44.22
229.802	43.62
230.02	43.46
230.237	41.98
230.454	41.44
230.671	41.03
230.888	43.64
231.105	50.27
231.323	48.49
231.54	54.38
231.757	59.48
231.974	62.88
232.191	67.71
232.408	64.02
232.625	69.55
232.842	62.29
233.059	60.88
233.276	59.91
233.493	57.23
233.71	54.49
233.927	44.29
234.144	44.81
234.361	42.6
234.578	39.64
234.795	41.59
235.012	34.87
235.229	34.3
235.446	37.84
235.663	38.24
235.879	38.72
236.096	41.81
236.313	50.57
236.53	45.52
236.747	55.04
236.964	57.82
237.181	59.5
237.397	64.24
237.614	78.76
237.831	77.92
238.048	73.58
238.264	68.36
238.481	67.68
238.698	65.88
238.915	69.16
239.131	54.01
239.348	52.25
239.565	51.29
239.781	50.35
239.998	39.6
240.215	37.84
240.431	42.13
240.648	44.31
240.865	40.11
241.081	36.59
241.298	31.54
241.514	34.45
241.731	30.12
241.947	27.85
242.164	26
242.38	24.95
242.597	23.67
242.814	21.55
243.03	22.92
243.246	24.97
243.463	27.18
243.679	28.96
243.896	27.98
244.112	29.65
244.329	32.35
244.545	34.57
244.762	36.52
244.978	40.02
245.194	38.44
245.411	33.73
245.627	30.95
245.843	30.13
246.06	29.69
246.276	30.67
246.492	30.93
246.709	29.84
246.925	29.16
247.141	28.9
247.357	27.4
247.574	27.68
247.79	27.06
248.006	25.9
248.222	25.33
248.439	24.78
248.655	24.22
248.871	23.68
249.087	24.42
249.303	25.85
249.519	26.63
249.736	28.34
249.952	29.47
250.168	34.37
250.384	37.49
250.6	36.61
250.816	38.3
251.032	38.26
251.248	38.85
251.464	35.88
251.68	32.57
251.896	32.13
252.112	32.03
252.328	30.7
252.544	30.55
252.76	27.61
252.976	28.44
253.192	26.74
253.408	27.26
253.624	26.12
253.84	28.76
254.056	31.82
254.272	30.45
254.487	28.79
254.703	29.7
254.919	26.22
255.135	31.52
255.351	31.73
255.567	32.51
255.782	33.9
255.998	36.51
256.214	32.82
256.43	28.19
256.646	28.37
256.861	31.08
257.077	31.02
257.293	29.01
257.508	28.5
257.724	28.89
257.94	28.56
258.155	25.54
258.371	23.12
258.587	22.44
258.802	21.36
259.018	20.02
259.234	18.82
259.449	17.46
259.665	18.11
259.88	18.13
260.096	17.64
260.312	17.35
260.527	17.92
260.743	18.08
260.958	18.51
261.174	19.31
261.389	21.08
261.605	21.32
261.82	21.85
262.036	22.35
262.251	21.69
262.466	22.21
262.682	21.33
262.897	22.3
263.113	22.4
263.328	20.97
263.543	21.67
263.759	20.97
263.974	20.93
264.189	19.89
264.405	18.36
264.62	19.56
264.835	18.34
265.051	23.07
265.266	20.67
265.481	23.62
265.696	26.97
265.912	24.97
266.127	23.67
266.342	23.26
266.557	25.02
266.773	24.22
266.988	22.4
267.203	22.77
267.418	21.44
267.633	20.78
267.848	18.35
268.064	14.75
268.279	15.46
268.494	14.98
268.709	15.1
268.924	15.53
269.139	15.22
269.354	17.26
269.569	16.74
269.784	16.77
269.999	17.45
270.214	18.56
270.429	20.05
270.644	19.91
270.859	19.54
271.074	17.9
271.289	18.52
271.504	19
271.719	18.91
271.934	20.01
272.149	18.64
272.363	19.28
272.578	18.23
272.793	17.53
273.008	17.07
273.223	16.28
273.438	16.31
273.653	16.13
273.867	17.2
274.082	18.69
274.297	18.49
274.512	20.61
274.726	20.66
274.941	19.81
275.156	23
275.371	22.96
275.585	23.97
275.8	26.82
276.015	25.59
276.229	25.61
276.444	24.05
276.659	22.23
276.873	19.08
277.088	20.54
277.302	23.64
277.517	20.65
277.732	21.75
277.946	23.92
278.161	23.63
278.375	23.38
278.59	21.15
278.804	21.48
279.019	22.65
279.233	22.44
279.448	19.36
279.662	17.41
279.877	18.86
280.091	17.46
280.306	16.88
280.52	14.84
280.735	14.57
280.949	17.02
281.163	15.95
281.378	17.05
281.592	18.51
281.806	18.83
282.021	17.98
282.235	17.62
282.449	19.26
282.664	18.16
282.878	19.26
283.092	19.71
283.307	19.08
283.521	19.24
283.735	18.34
283.949	19.29
284.164	20.09
284.378	20.92
284.592	20.54
284.806	20.06
285.02	20.28
285.234	18.47
285.449	17.69
285.663	18.13
285.877	18.13
286.091	18.29
286.305	17.25
286.519	16.38
286.733	16.31
286.947	17.14
287.161	16.65
287.375	16.56
287.589	19.08
287.803	20.26
288.017	20.24
288.231	20.15
288.445	21.44
288.659	22.33
288.873	24.12
289.087	24.83
289.301	25.15
289.515	24.13
289.729	24.21
289.943	23.7
290.157	23.5
290.371	23.44
290.584	24.2
290.798	23.9
291.012	23.1
291.226	21.3
291.44	20.88
291.654	20.77
291.867	21.98
292.081	22.2
292.295	21.51
292.509	22.19
292.722	22.01
292.936	19.51
293.15	18.45
293.364	18.17
293.577	19.53
293.791	19.98
294.005	18.86
294.218	19.42
294.432	19.26
294.645	20.73
294.859	20.84
295.073	21.22
295.286	22.78
295.5	22.44
295.713	22.84
295.927	22.41
296.14	21.21
296.354	21.34
296.568	19.97
296.781	19.45
296.994	18.53
297.208	17.45
297.421	16.69
297.635	17.13
297.848	16.86
298.062	16.39
298.275	16.7
298.489	17.3
298.702	17.62
298.915	17.36
299.129	18.13
299.342	18.34
299.555	19.68
299.769	20.32
299.982	19.65
300.195	20.35
300.409	20.55
300.622	20.32
300.835	20.08
301.048	19.35
301.262	21.07
301.475	22.05
301.688	22.2
301.901	21.68
302.115	21.04
302.328	21.08
302.541	22.31
302.754	23.7
302.967	24.21
303.18	24.18
303.393	24.34
303.607	24.45
303.82	23.97
304.033	24.48
304.246	23.93
304.459	23.84
304.672	24.65
304.885	23.7
305.098	23.66
305.311	24.49
305.524	25.31
305.737	25.34
305.95	25.24
306.163	24.62
306.376	23.12
306.589	24.61
306.802	25.56
307.015	25.99
307.228	26.12
307.44	25.41
307.653	23.6
307.866	23.05
308.079	23.82
308.292	22.68
308.505	23.49
308.718	23.94
308.93	23.46
309.143	23.83
309.356	22.97
309.569	23.08
309.781	24.04
309.994	26.21
310.207	26.42
310.42	25.57
310.632	26.24
310.845	25.57
311.058	25.97
311.27	25.41
311.483	24.77
311.696	25.2
311.908	25.19
312.121	24.2
312.333	23.88
312.546	23.77
312.759	23.56
312.971	23.63
313.184	24.25
313.396	24.82
313.609	24.48
313.821	25
314.034	24.62
314.246	23.54
314.459	24.52
314.671	22.97
314.884	23.77
315.096	24.76
315.309	25.43
315.521	26.02
315.733	24.66
315.946	25.49
316.158	25.34
316.371	26.35
316.583	27.78
316.795	27.11
317.008	28.15
317.22	27.35
317.432	28.15
317.644	28.15
317.857	27.31
318.069	27.42
318.281	28.29
318.494	28.84
318.706	28.1
318.918	28.68
319.13	27.78
319.342	27.05
319.555	26.73
319.767	26.25
319.979	25.25
320.191	25.28
320.403	27.19
320.615	27.43
320.827	28.08
321.039	28.5
321.252	28.65
321.464	30.18
321.676	30.41
321.888	31.13
322.1	30.14
322.312	29.94
322.524	30
322.736	28.34
322.948	28.33
323.16	27.21
323.372	26.7
323.584	25.44
323.796	24.18
324.007	24.16
324.219	24.54
324.431	25.82
324.643	26.7
324.855	26.76
325.067	26.52
325.279	25.68
325.491	26.76
325.702	27.95
325.914	28.07
326.126	29.76
326.338	28.64
326.55	28.8
326.761	28.87
326.973	28.75
327.185	29.65
327.396	30.56
327.608	31.03
327.82	30.33
328.032	29.65
328.243	30.04
328.455	29.9
328.666	31.72
328.878	32.02
329.09	31.54
329.301	31.86
329.513	30.17
329.725	30.28
329.936	30.24
330.148	30.06
330.359	30.75
330.571	31.82
330.782	31.93
330.994	32.14
331.205	31.62
331.417	32.77
331.628	34.18
331.84	36.59
332.051	36.88
332.262	38.68
332.474	38.37
332.685	38.95
332.897	38.41
333.108	37.68
333.319	36.42
333.531	37.02
333.742	36.49
333.953	34.53
334.165	33.06
334.376	33.16
334.587	31.61
334.799	30.95
335.01	29.33
335.221	28.57
335.432	27.79
335.644	27.35
335.855	26.28
336.066	25.41
336.277	26.28
336.488	26.8
336.7	25.92
336.911	26.68
337.122	28.1
337.333	28.36
337.544	28.96
337.755	30.35
337.966	31.52
338.177	31.65
338.388	31.66
338.599	31.69
338.811	31.41
339.022	31.18
339.233	30.88
339.444	29.28
339.655	28.14
339.866	28.36
340.076	27.71
340.287	27.04
340.498	27.26
340.709	27.79
340.92	27.59
341.131	27.52
341.342	28.26
341.553	26.9
341.764	28.04
341.975	29.32
342.185	28.5
342.396	28.34
342.607	27.58
342.818	27.33
343.029	26.82
343.239	27.15
343.45	26.56
343.661	25.62
343.872	26.32
344.082	26.1
344.293	26.64
344.504	27.01
344.714	26.88
344.925	27.46
345.136	27.14
345.346	26.24
345.557	25.38
345.768	25.44
345.978	26.62
346.189	27.05
346.399	25.88
346.61	24.92
346.821	24.98
347.031	25.89
347.242	25.66
347.452	25.78
347.663	27.53
347.873	28.04
348.084	28.49
348.294	27.31
348.504	26.5
348.715	27.13
348.925	26.97
349.136	25.95
349.346	25.36
349.557	25.88
349.767	26.69
349.977	25.7
350.188	25.43
350.398	25.38
350.608	25.61
350.819	26.42
351.029	26.51
351.239	27.37
351.449	27.81
351.66	27.47
351.87	27.08
352.08	26.64
352.29	27.15
352.501	27.21
352.711	26.94
352.921	27.1
353.131	25.11
353.341	25.51
353.552	24.15
353.762	23.8
353.972	24.11
354.182	24.39
354.392	24.49
354.602	24.24
354.812	24.57
355.022	24.42
355.232	24.69
355.442	26.37
355.652	26.02
355.862	25.87
356.072	26.6
356.282	25.81
356.492	25.46
356.702	24.8
356.912	24.37
357.122	25.25
357.332	25.25
357.542	24.48
357.752	23.92
357.962	23.51
358.171	24.06
358.381	23.68
358.591	24.8
358.801	24.81
359.011	24.73
359.221	24.76
359.43	23.67
359.64	22.62
359.85	22.77
360.06	22.78
360.269	22.6
360.479	22.68
360.689	22.27
360.899	21.72
361.108	21.83
361.318	21.94
361.528	21.96
361.737	21.39
361.947	21.93
362.156	21.55
362.366	21.28
362.576	21.42
362.785	20.74
362.995	21.12
363.204	20.84
363.414	21.01
363.623	21.09
363.833	21.12
364.042	21.14
364.252	21.97
364.461	22.17
364.671	22.34
364.88	22.81
365.09	23.66
365.299	23.85
365.509	24.33
365.718	23.63
365.927	23.75
366.137	23.52
366.346	24.07
366.555	23.03
366.765	23.25
366.974	23.55
367.183	22.64
367.393	21.93
367.602	21.42
367.811	20.9
368.021	21.78
368.23	21.3
368.439	21.09
368.648	20.4
368.857	20.46
369.067	20.86
369.276	20.19
369.485	20.92
369.694	21.36
369.903	21.36
370.112	21.23
370.321	20.27
370.531	20.28
370.74	20.33
370.949	20.49
371.158	20.03
371.367	20.04
371.576	19.32
371.785	18.96
371.994	18.52
372.203	18.75
372.412	18.82
372.621	19.61
372.83	19.43
373.039	19.76
373.248	19.31
373.457	19.52
373.666	18.47
373.874	18.9
374.083	19.52
374.292	19.81
374.501	19.39
374.71	19.22
374.919	17.99
375.128	17.23
375.336	16.97
375.545	17.74
375.754	17.99
375.963	18.35
376.171	18.24
376.38	17.31
376.589	16.41
376.798	15.74
377.006	16.06
377.215	16.62
377.424	17.07
377.632	16.6
377.841	16.25
378.05	16.33
378.258	15.84
378.467	15.73
378.675	15.71
378.884	16.66
379.093	16.66
379.301	16.65
379.51	16.09
379.718	16.19
379.927	16.62
380.135	16.51
380.344	15.94
380.552	16.52
380.761	16.57
380.969	16.5
381.177	15.45
381.386	16.4
381.594	15.49
381.803	15.47
382.011	15.63
382.219	15.29
382.428	15.07
382.636	15.37
382.845	14.16
383.053	14.17
383.261	14.36
383.469	14.89
383.678	14.41
383.886	14.91
384.094	15.07
384.302	14.94
384.511	15.18
384.719	14.93
384.927	14.81
385.135	15.54
385.343	15.32
385.552	15.58
385.76	15.29
385.968	15.42
386.176	15.08
386.384	14.81
386.592	14.34
386.8	14.3
387.008	14.74
387.216	14.31
387.424	14.35
387.633	14.69
387.841	14.56
388.049	15
388.257	14.79
388.465	14.25
388.672	14.6
388.88	14.79
389.088	13.88
389.296	13.55
389.504	13.65
389.712	13.51
389.92	13.18
390.128	12.98
390.336	12.46
390.544	12.03
390.751	12.14
390.959	11.45
391.167	11.25
391.375	11.99
391.583	11.92
391.79	11.71
391.998	11.69
392.206	11.63
392.414	11.3
392.621	11.4
392.829	11.47
393.037	11.65
393.244	11.71
393.452	11.98
393.66	11.47
393.867	11.38
394.075	11.4
394.283	11.06
394.49	10.84
394.698	11.11
394.905	11
395.113	11.1
395.32	10.74
395.528	10.97
395.735	10.62
395.943	10.86
396.15	10.91
396.358	10.84
396.565	10.97
396.773	11.08
396.98	10.88
397.188	10.56
397.395	10.77
397.602	11.05
397.81	10.5
398.017	10.61
398.225	10.5
398.432	10.33
398.639	10.3
398.847	10.23
399.054	10.23
399.261	10.11
399.468	10.36
399.676	10.02
399.883	9.65
400.09	10.14
400.297	9.95
400.505	10.04
400.712	10.2
400.919	10.46
401.126	10.54
401.333	10.44
401.54	10.2
401.748	10.16
401.955	9.95
402.162	10.15
402.369	10.17
402.576	10.32
402.783	10.17
402.99	9.92
403.197	9.35
403.404	9.11
403.611	8.98
403.818	8.93
404.025	8.77
404.232	9.11
404.439	9.11
404.646	8.65
404.853	8.33
405.06	7.96
405.267	8
405.474	8.22
405.681	8.35
405.887	8.25
406.094	8.61
406.301	8.63
406.508	8.58
406.715	8.76
406.922	9.11
407.128	9.39
407.335	9.57
407.542	9.31
407.749	9.19
407.955	9.49
408.162	9.47
408.369	9.24
408.575	9.33
408.782	9.09
408.989	8.75
409.195	8.43
409.402	8.44
409.609	8.4
409.815	8.44
410.022	8.41
410.228	8.06
410.435	8.3
410.642	8.53
410.848	8.41
411.055	8.42
411.261	8.36
411.468	8.77
411.674	8.62
411.881	8.7
412.087	8.56
412.294	8.77
412.5	8.98
412.706	9.01
412.913	8.73
413.119	8.64
413.326	8.5
413.532	8.69
413.738	8.53
413.945	8.18
414.151	8.43
414.357	8.68
414.564	8.72
414.77	8.54
414.976	8.35
415.182	8.33
415.389	8.51
415.595	8.45
415.801	8.28
416.007	8.29
416.214	8.52
416.42	8.41
416.626	8.13
416.832	8
417.038	8.03
417.244	7.93
417.45	7.85
417.657	7.45
417.863	7.25
418.069	7.39
418.275	7.25
418.481	7.18
418.687	7.07
418.893	7.05
419.099	7.04
419.305	6.8
419.511	6.89
419.717	6.85
419.923	6.97
420.129	6.99
420.335	6.89
420.541	6.8
420.746	6.7
420.952	6.61
421.158	6.76
421.364	6.59
421.57	6.69
421.776	6.59
421.982	6.65
422.187	6.64
422.393	6.72
422.599	6.69
422.805	6.67
423.01	6.75
423.216	6.71
423.422	6.67
423.628	6.74
423.833	6.69
424.039	6.74
424.245	6.7
424.45	6.73
424.656	6.67
424.862	6.6
425.067	6.55
425.273	6.57
425.478	6.62
425.684	6.56
425.889	6.69
426.095	6.69
426.301	6.65
426.506	6.55
426.712	6.53
426.917	6.72
427.123	6.72
427.328	6.74
427.533	6.77
427.739	6.86
427.944	6.97
428.15	6.79
428.355	6.77
428.561	6.82
428.766	6.9
428.971	6.79
429.177	6.73
429.382	6.64
429.587	6.68
429.793	6.68
429.998	6.52
430.203	6.47
430.408	6.66
430.614	6.9
430.819	6.85
431.024	6.87
431.229	6.97
431.434	6.9
431.64	6.99
431.845	7.1
432.05	7.04
432.255	7.1
432.46	7.09
432.665	6.91
432.87	6.56
433.076	6.57
433.281	6.55
433.486	6.46
433.691	6.34
433.896	6.21
434.101	6.16
434.306	6.21
434.511	6.09
434.716	5.94
434.921	6.06
435.126	6.13
435.331	5.99
435.535	6.01
435.74	5.95
435.945	5.9
436.15	6.01
436.355	6.13
436.56	5.94
436.765	6.17
436.97	6.31
437.174	6.37
437.379	6.45
437.584	6.66
437.789	6.6
437.993	6.72
438.198	6.83
438.403	6.82
438.608	6.71
438.812	6.67
439.017	6.48
439.222	6.46
439.426	6.27
439.631	6.04
439.836	5.98
440.04	6.03
440.245	5.89
440.45	5.93
440.654	5.98
440.859	5.88
441.063	5.77
441.268	5.82
441.472	5.86
441.677	5.74
441.881	5.73
442.086	5.74
442.29	5.54
442.495	5.73
442.699	5.65
442.904	5.5
443.108	5.62
443.312	5.77
443.517	5.75
443.721	5.69
443.925	5.88
444.13	6.02
444.334	5.82
444.538	5.86
444.743	5.73
444.947	5.67
445.151	5.73
445.356	5.81
445.56	5.94
445.764	5.86
445.968	5.9
446.173	5.85
446.377	5.87
446.581	5.99
446.785	5.97
446.989	5.9
447.193	5.86
447.398	5.86
447.602	5.64
447.806	5.6
448.01	5.67
448.214	5.53
448.418	5.32
448.622	5.35
448.826	5.26
449.03	5.39
449.234	5.6
449.438	5.66
449.642	5.62
449.846	5.87
450.05	5.79
450.254	5.74
450.458	5.74
450.662	6.13
450.866	6.11
451.069	6.17
451.273	6.03
451.477	5.95
451.681	5.96
451.885	6.04
452.089	5.97
452.292	5.94
452.496	6.08
452.7	6.21
452.904	6.11
453.107	6.22
453.311	6
453.515	6.19
453.719	6.19
453.922	6.3
454.126	6.3
454.33	6.07
454.533	5.92
454.737	5.76
454.94	5.47
455.144	5.47
455.348	5.18
455.551	5.42
455.755	5.28
455.958	5.36
456.162	5.32
456.365	5.2
