Data from CB_030_Reflection_2.txt Node
Date: Wed Nov 11 20:49:51 EST 2015
User: robert
Spectrometer: USB4E03001
Autoset integration time: false
Trigger mode: 4
Integration Time (sec): 1.000000E-1
Scans to average: 15
Electric dark correction enabled: true
Nonlinearity correction enabled: false
Boxcar width: 5
Stray light correction enabled: false
XAxis mode: Wavelengths
Stop averaging: false
Number of Pixels in Spectrum: 3648
>>>>>Begin Spectral Data<<<<<
177.566	-36.96
177.785	17.59
178.005	-34.2
178.225	160.79
178.445	67.06
178.665	-327.21
178.885	402.62
179.105	1900
179.324	19.86
179.544	83.63
179.764	-150.41
179.984	-268.73
180.204	4597.5
180.423	141.51
180.643	-292.29
180.863	577.87
181.083	98.98
181.302	254.13
181.522	491.67
181.742	-1747.61
181.961	-312.92
182.181	-1522.71
182.401	778.23
182.621	-225.09
182.84	-166.82
183.06	-69.91
183.279	-280.21
183.499	-121.45
183.719	-75.01
183.938	-38.64
184.158	-48.66
184.377	-55.54
184.597	-90.3
184.816	-50.55
185.036	4.39
185.256	27.52
185.475	55.76
185.695	52.77
185.914	29.01
186.134	-532.86
186.353	656.83
186.572	117.61
186.792	16.76
187.011	62.78
187.231	-497.72
187.45	-308.83
187.67	-84.54
187.889	-7.24
188.108	-9.81
188.328	14.92
188.547	7.11
188.766	67.35
188.986	-708.67
189.205	-1215.32
189.424	-30.86
189.644	93.76
189.863	123.2
190.082	-4.51
190.302	63.41
190.521	112.75
190.74	29.4
190.959	-9.91
191.178	7.28
191.398	23.01
191.617	-2.11
191.836	-115.69
192.055	-1.8
192.274	103.71
192.494	262.89
192.713	611.42
192.932	928.22
193.151	-55.49
193.37	-37.54
193.589	-94.35
193.808	-152.2
194.027	-157.15
194.246	-387.52
194.465	-5.64
194.685	-176.82
194.904	221.27
195.123	214.63
195.342	123.9
195.561	361.39
195.78	3439.81
195.999	499.09
196.218	282.97
196.436	280.25
196.655	-98.9
196.874	113.54
197.093	230.19
197.312	29.54
197.531	555.39
197.75	416.52
197.969	508.94
198.188	772.26
198.407	465.54
198.625	355.6
198.844	483.97
199.063	-965.01
199.282	-146.62
199.501	322.68
199.719	204.35
199.938	442.21
200.157	-1993.78
200.376	384.84
200.594	612.22
200.813	304.3
201.032	-95.31
201.251	-128.94
201.469	47.21
201.688	90.58
201.907	447.73
202.125	315.55
202.344	1789.7
202.563	572.09
202.781	665.41
203	322.8
203.218	165.99
203.437	553.4
203.656	955.18
203.874	648.12
204.093	1442.46
204.311	861.58
204.53	275.71
204.748	267.56
204.967	395.51
205.185	3831.43
205.404	-101.63
205.622	-7.36
205.841	69.21
206.059	66.83
206.278	46.57
206.496	2.68
206.715	-5.68
206.933	23.31
207.151	-22.62
207.37	-26.62
207.588	-166.39
207.806	-38.32
208.025	-143.38
208.243	265.51
208.461	118.22
208.68	126.18
208.898	-157.18
209.116	-55.88
209.335	-328.85
209.553	-38.12
209.771	-155.81
209.989	112.97
210.208	71.88
210.426	85.86
210.644	147.51
210.862	294.12
211.081	80.36
211.299	61.62
211.517	-31.93
211.735	59.27
211.953	-31.62
212.171	-6.58
212.39	-54.78
212.608	-39.8
212.826	12.95
213.044	63.48
213.262	43.01
213.48	79.21
213.698	14.42
213.916	-51.72
214.134	35.61
214.352	-5.7
214.57	36.43
214.788	64.62
215.006	249.68
215.224	24.28
215.442	263.09
215.66	85.8
215.878	152.69
216.096	133.48
216.314	72.2
216.532	165.58
216.75	146.82
216.968	140.71
217.185	119.26
217.403	166.44
217.621	331.22
217.839	104.46
218.057	173.94
218.275	154.89
218.492	378.52
218.71	18.29
218.928	66.8
219.146	128.7
219.363	421.57
219.581	-82.47
219.799	13.84
220.017	-100.65
220.234	-160.38
220.452	-194.99
220.67	-538.38
220.887	4141.1
221.105	-692.42
221.323	-129.52
221.54	-117.56
221.758	-422.29
221.976	-134.81
222.193	-91.28
222.411	-16.82
222.629	33.75
222.846	-10.02
223.064	16.25
223.281	50.78
223.499	41.17
223.716	28.07
223.934	8.28
224.151	27.66
224.369	-1.05
224.586	-9.8
224.804	-13.22
225.021	-34.91
225.239	-61.41
225.456	-45.91
225.674	-43.05
225.891	-57.22
226.108	-60.05
226.326	-49.42
226.543	-48.52
226.76	-15.13
226.978	-3.6
227.195	-0.35
227.413	24.6
227.63	29.38
227.847	18.18
228.064	15.54
228.282	14.13
228.499	8.18
228.716	10.33
228.934	9.44
229.151	5.63
229.368	4.99
229.585	2.43
229.802	-3.83
230.02	-5.59
230.237	-5.01
230.454	-5.28
230.671	-5.65
230.888	-1.77
231.105	5.41
231.323	8.21
231.54	10.21
231.757	10.21
231.974	11.05
232.191	12.06
232.408	10.15
232.625	17.08
232.842	15.79
233.059	14.97
233.276	19.16
233.493	8.39
233.71	7.37
233.927	15.72
234.144	9.39
234.361	14.41
234.578	16.26
234.795	9.93
235.012	7.85
235.229	6.46
235.446	2.28
235.663	-4.18
235.879	-1.59
236.096	5.42
236.313	-5.91
236.53	2.87
236.747	-0.75
236.964	-3.1
237.181	4.59
237.397	8.58
237.614	5.73
237.831	15.91
238.048	13.04
238.264	9.01
238.481	4.14
238.698	2.46
238.915	4.06
239.131	3.45
239.348	6.3
239.565	9.97
239.781	6.09
239.998	3.99
240.215	0.89
240.431	4.13
240.648	3.12
240.865	2.54
241.081	2.43
241.298	-1.02
241.514	2.95
241.731	3.75
241.947	2.48
242.164	4.95
242.38	7.51
242.597	6.54
242.814	5.47
243.03	7.63
243.246	9.4
243.463	9.97
243.679	8.85
243.896	6.43
244.112	7.74
244.329	9.36
244.545	5.47
244.762	5.49
244.978	6.54
245.194	9.33
245.411	8.17
245.627	6.71
245.843	9.04
246.06	9.79
246.276	11.11
246.492	7.39
246.709	7.01
246.925	9.13
247.141	8.86
247.357	9.49
247.574	9.07
247.79	9.53
248.006	9.95
248.222	9.61
248.439	9.76
248.655	9.68
248.871	11.12
249.087	11.46
249.303	11.2
249.519	12.81
249.736	12.08
249.952	11.7
250.168	8.97
250.384	8.6
250.6	6.56
250.816	6.82
251.032	8.7
251.248	10.3
251.464	10.77
251.68	12.36
251.896	10.74
252.112	11.22
252.328	11.08
252.544	13.34
252.76	13.91
252.976	16.88
253.192	16.71
253.408	14.25
253.624	13.39
253.84	14.3
254.056	11.7
254.272	13.71
254.487	13.03
254.703	13.85
254.919	14.07
255.135	12.06
255.351	6.44
255.567	9.67
255.782	12.15
255.998	16.77
256.214	12.68
256.43	11.9
256.646	9.5
256.861	10.16
257.077	11
257.293	6.6
257.508	7.46
257.724	9.4
257.94	9.65
258.155	11.17
258.371	7.64
258.587	7.67
258.802	6.46
259.018	6.04
259.234	5.1
259.449	5.6
259.665	5.95
259.88	6.4
260.096	6.21
260.312	6.05
260.527	4.76
260.743	4.66
260.958	4.64
261.174	5.92
261.389	5.72
261.605	7.51
261.82	6.44
262.036	7.19
262.251	5.41
262.466	6.02
262.682	4.77
262.897	5.25
263.113	7.12
263.328	8.47
263.543	6.69
263.759	6.44
263.974	3.68
264.189	3.51
264.405	4.8
264.62	4.2
264.835	5.09
265.051	3.95
265.266	4.86
265.481	4.22
265.696	0.83
265.912	1.34
266.127	1.7
266.342	1.75
266.557	3.04
266.773	1.52
266.988	4.02
267.203	1
267.418	1.66
267.633	1.79
267.848	1.86
268.064	4.58
268.279	5.76
268.494	5.61
268.709	5.67
268.924	4.2
269.139	4.4
269.354	3.02
269.569	3.55
269.784	6.45
269.999	5.92
270.214	5.68
270.429	4.23
270.644	3.89
270.859	4.06
271.074	4.03
271.289	4.9
271.504	5.69
271.719	6.28
271.934	6.55
272.149	5.69
272.363	5.59
272.578	4.81
272.793	5.17
273.008	5.41
273.223	6.41
273.438	5.29
273.653	5.11
273.867	4.1
274.082	3.21
274.297	4.01
274.512	4.25
274.726	3.6
274.941	4.21
275.156	4.67
275.371	3.55
275.585	3.2
275.8	4.7
276.015	4.73
276.229	6.9
276.444	8.98
276.659	8.8
276.873	7.26
277.088	7.82
277.302	6.73
277.517	6.86
277.732	7.04
277.946	6.95
278.161	6.45
278.375	6.67
278.59	4.47
278.804	1.8
279.019	0.94
279.233	0.33
279.448	1.04
279.662	2.92
279.877	2.92
280.091	4.15
280.306	5.4
280.52	7
280.735	7.1
280.949	8.36
281.163	8.68
281.378	9.54
281.592	10.4
281.806	9.4
282.021	9.84
282.235	8.78
282.449	6.29
282.664	5.31
282.878	5.42
283.092	4.78
283.307	3.89
283.521	3.43
283.735	3.09
283.949	3.21
284.164	3.12
284.378	3.5
284.592	3.62
284.806	4.13
285.02	3.87
285.234	4.04
285.449	4.19
285.663	4.25
285.877	4.81
286.091	4.04
286.305	4.69
286.519	5.19
286.733	4.8
286.947	6.15
287.161	7.5
287.375	7.46
287.589	6.1
287.803	5.9
288.017	6.93
288.231	7.46
288.445	8.75
288.659	8.1
288.873	8.65
289.087	8.14
289.301	7.48
289.515	8.57
289.729	8.77
289.943	9.64
290.157	11.29
290.371	10.82
290.584	10.37
290.798	9.97
291.012	9.62
291.226	8.8
291.44	8.74
291.654	8.12
291.867	7.3
292.081	6.86
292.295	6.82
292.509	5.23
292.722	3.61
292.936	4.35
293.15	2.4
293.364	1.73
293.577	3.03
293.791	3.29
294.005	4
294.218	4.17
294.432	4.88
294.645	5.11
294.859	6.28
295.073	7.55
295.286	7.62
295.5	9.72
295.713	10.52
295.927	10.58
296.14	10.03
296.354	10.13
296.568	9.64
296.781	9.29
296.994	8.9
297.208	9.17
297.421	8.61
297.635	8.79
297.848	7.97
298.062	8.23
298.275	8.18
298.489	8.7
298.702	8.51
298.915	8.55
299.129	8.45
299.342	8.91
299.555	7.92
299.769	8.3
299.982	7.84
300.195	7.64
300.409	7.34
300.622	8.01
300.835	8.16
301.048	9.45
301.262	9.28
301.475	9.72
301.688	9.28
301.901	9.56
302.115	9.92
302.328	10.31
302.541	12.29
302.754	12.01
302.967	11.74
303.18	11.84
303.393	10.71
303.607	10.55
303.82	10.59
304.033	11.58
304.246	11.34
304.459	10.62
304.672	11.42
304.885	10.65
305.098	11.41
305.311	10.58
305.524	10.71
305.737	10.59
305.95	11.11
306.163	9.74
306.376	9.32
306.589	8.74
306.802	9.88
307.015	8
307.228	7.79
307.44	6.7
307.653	5.4
307.866	5.3
308.079	4.84
308.292	4.03
308.505	5.52
308.718	5.41
308.93	5.94
309.143	5.08
309.356	6.97
309.569	7.85
309.781	8.33
309.994	9.51
310.207	9.64
310.42	11.19
310.632	11.38
310.845	11.46
311.058	12.42
311.27	12.8
311.483	13.57
311.696	13.33
311.908	12.38
312.121	11.68
312.333	11.52
312.546	10.89
312.759	10
312.971	10.86
313.184	10.67
313.396	9.23
313.609	10.77
313.821	10.5
314.034	9.79
314.246	10.44
314.459	11.03
314.671	10
314.884	10.63
315.096	11.18
315.309	11.3
315.521	11.91
315.733	11.46
315.946	9.93
316.158	9.26
316.371	9.31
316.583	8.41
316.795	8.19
317.008	10.27
317.22	10.45
317.432	9.98
317.644	8.87
317.857	9.04
318.069	10.46
318.281	10.68
318.494	11.66
318.706	11.94
318.918	12.27
319.13	13.38
319.342	12.77
319.555	12.59
319.767	11.78
319.979	12.83
320.191	12.23
320.403	11.36
320.615	11.21
320.827	9.82
321.039	9.51
321.252	9.98
321.464	9.2
321.676	10
321.888	10.24
322.1	10.63
322.312	10.17
322.524	10.66
322.736	11.7
322.948	11.84
323.16	12.71
323.372	14.06
323.584	14.25
323.796	15.25
324.007	14.99
324.219	15.33
324.431	15.34
324.643	16.03
324.855	16.35
325.067	16.65
325.279	17.16
325.491	17.85
325.702	18.23
325.914	17.57
326.126	16.8
326.338	17.91
326.55	18.27
326.761	19.05
326.973	19.01
327.185	19.09
327.396	19.62
327.608	19.23
327.82	18.67
328.032	17.86
328.243	18.23
328.455	20.27
328.666	19.18
328.878	19.51
329.09	19.99
329.301	19.87
329.513	19.89
329.725	19.8
329.936	20.62
330.148	21.62
330.359	22.15
330.571	22.76
330.782	22.24
330.994	22.56
331.205	22.56
331.417	22.97
331.628	22.83
331.84	23.24
332.051	23.35
332.262	24.08
332.474	23.61
332.685	23.29
332.897	24.99
333.108	25.13
333.319	25.58
333.531	26.31
333.742	26.24
333.953	26.79
334.165	27.43
334.376	26.74
334.587	26.06
334.799	25.63
335.01	26.06
335.221	25.28
335.432	25.06
335.644	25.12
335.855	24.29
336.066	24.17
336.277	24.33
336.488	23.5
336.7	23.72
336.911	23.71
337.122	23.83
337.333	23.6
337.544	23.62
337.755	23.76
337.966	23.7
338.177	23.39
338.388	24.2
338.599	24.26
338.811	24.74
339.022	25.05
339.233	24.88
339.444	26.41
339.655	26.16
339.866	25.16
340.076	25.01
340.287	25.46
340.498	25.72
340.709	23.68
340.92	23.58
341.131	23.69
341.342	24.2
341.553	24.43
341.764	23.86
341.975	23.73
342.185	24.33
342.396	24.26
342.607	23.72
342.818	24.22
343.029	26.37
343.239	26.55
343.45	26.93
343.661	26.73
343.872	26.78
344.082	26.74
344.293	27.58
344.504	27.46
344.714	27.91
344.925	28.82
345.136	28.68
345.346	27.33
345.557	27.69
345.768	26.24
345.978	26.73
346.189	26.47
346.399	26.41
346.61	26.11
346.821	26.15
347.031	25.15
347.242	23.88
347.452	23.3
347.663	23.38
347.873	22.86
348.084	24.27
348.294	23.28
348.504	23.57
348.715	23.3
348.925	23.21
349.136	23.36
349.346	23.69
349.557	24.05
349.767	24.42
349.977	24.85
350.188	24.39
350.398	23.67
350.608	23.58
350.819	23.65
351.029	24.04
351.239	23.61
351.449	23.4
351.66	23.56
351.87	24.27
352.08	23.87
352.29	23.38
352.501	23.82
352.711	23.79
352.921	23.88
353.131	24.91
353.341	24.64
353.552	25.3
353.762	26.1
353.972	25.43
354.182	24.34
354.392	23.45
354.602	24.18
354.812	23.54
355.022	24.16
355.232	24.41
355.442	23.98
355.652	23.51
355.862	23.65
356.072	23.35
356.282	23.97
356.492	23.82
356.702	24.79
356.912	24.63
357.122	24.48
357.332	24.51
357.542	24.35
357.752	23.48
357.962	24.13
358.171	23.52
358.381	23.33
358.591	22.79
358.801	22.86
359.011	22.83
359.221	22.49
359.43	22.3
359.64	21.88
359.85	22.18
360.06	21.86
360.269	21.91
360.479	22.15
360.689	21.67
360.899	21.73
361.108	21.64
361.318	21.82
361.528	22.18
361.737	22.7
361.947	22.98
362.156	22.72
362.366	22.74
362.576	22.55
362.785	22.42
362.995	22.61
363.204	22.6
363.414	22.92
363.623	22.82
363.833	21.83
364.042	21.5
364.252	21.19
364.461	21.17
364.671	21.35
364.88	21.06
365.09	20.99
365.299	21.34
365.509	21.46
365.718	21.25
365.927	21.16
366.137	21.87
366.346	21.78
366.555	21.71
366.765	20.99
366.974	21.33
367.183	21.27
367.393	21.8
367.602	21.46
367.811	21.08
368.021	20.66
368.23	19.84
368.439	20.3
368.648	20.77
368.857	20.74
369.067	21.08
369.276	20.88
369.485	20.51
369.694	19.89
369.903	19.47
370.112	19.64
370.321	19.69
370.531	20.05
370.74	19.67
370.949	19.56
371.158	18.68
371.367	18.49
371.576	18.13
371.785	18.25
371.994	18.4
372.203	18.69
372.412	19.08
372.621	19.43
372.83	19.72
373.039	19.28
373.248	18.67
373.457	18.99
373.666	19.12
373.874	18.97
374.083	19.14
374.292	18.72
374.501	18.4
374.71	17.9
374.919	17.29
375.128	16.13
375.336	16.12
375.545	16.45
375.754	16.61
375.963	16.78
376.171	16.85
376.38	16.83
376.589	16.66
376.798	16.88
377.006	17.34
377.215	17.79
377.424	18.21
377.632	17.86
377.841	17.61
378.05	17.29
378.258	17.13
378.467	17
378.675	16.76
378.884	16.91
379.093	16.66
379.301	16.12
379.51	16
379.718	15.78
379.927	15.8
380.135	15.95
380.344	16.18
380.552	16.28
380.761	15.98
380.969	15.97
381.177	15.76
381.386	15.51
381.594	15.76
381.803	15.18
382.011	15.83
382.219	16.36
382.428	16.48
382.636	16.25
382.845	15.65
383.053	15.8
383.261	15.76
383.469	15.4
383.678	15.77
383.886	15.08
384.094	15.19
384.302	14.51
384.511	14.53
384.719	14.27
384.927	14.26
385.135	14.28
385.343	14.29
385.552	13.78
385.76	13.92
385.968	13.85
386.176	14.12
386.384	14.14
386.592	13.88
386.8	13.29
387.008	13.22
387.216	13.14
387.424	13.48
387.633	13.16
387.841	13.67
388.049	13.54
388.257	13.21
388.465	13.51
388.672	13.4
388.88	13.82
389.088	14.27
389.296	14.34
389.504	14.07
389.712	13.78
389.92	14.03
390.128	13.69
390.336	13.71
390.544	13.56
390.751	13.05
390.959	12.91
391.167	12.66
391.375	12.27
391.583	11.95
391.79	12.3
391.998	12.22
392.206	12.51
392.414	12.7
392.621	12.65
392.829	13.02
393.037	13.29
393.244	13.46
393.452	13.25
393.66	13.4
393.867	13.47
394.075	13.13
394.283	12.7
394.49	12.26
394.698	12.55
394.905	12.95
395.113	13.02
395.32	12.98
395.528	12.85
395.735	12.79
395.943	12.7
396.15	12.6
396.358	12.52
396.565	12.92
396.773	12.93
396.98	12.55
397.188	12.39
397.395	12.19
397.602	11.78
397.81	11.79
398.017	12.23
398.225	12.15
398.432	12.47
398.639	12.83
398.847	12.22
399.054	12.15
399.261	11.81
399.468	11.46
399.676	11.05
399.883	11.06
400.09	10.9
400.297	10.85
400.505	11.02
400.712	10.72
400.919	10.65
401.126	11.44
401.333	11.34
401.54	11.59
401.748	11.32
401.955	11.31
402.162	11.33
402.369	11.27
402.576	11.12
402.783	10.71
402.99	10.78
403.197	11.11
403.404	10.96
403.611	10.93
403.818	10.51
404.025	10.98
404.232	11.06
404.439	11.03
404.646	10.99
404.853	11.07
405.06	10.96
405.267	10.73
405.474	10.33
405.681	9.91
405.887	9.85
406.094	10.09
406.301	9.81
406.508	9.75
406.715	10.04
406.922	10.4
407.128	10.04
407.335	10.27
407.542	10.11
407.749	10.17
407.955	10.31
408.162	10.47
408.369	10.42
408.575	10.51
408.782	10.45
408.989	10.27
409.195	9.84
409.402	9.83
409.609	9.76
409.815	9.7
410.022	9.49
410.228	9.81
410.435	9.62
410.642	9.91
410.848	9.71
411.055	9.69
411.261	9.57
411.468	9.86
411.674	10.1
411.881	10.25
412.087	10.4
412.294	10.63
412.5	10.63
412.706	10.78
412.913	10.53
413.119	10.66
413.326	10.47
413.532	10.5
413.738	10.36
413.945	10.29
414.151	9.96
414.357	10.15
414.564	9.81
414.77	9.56
414.976	9.53
415.182	9.47
415.389	9.78
415.595	9.96
415.801	9.98
416.007	9.91
416.214	10.16
416.42	10.41
416.626	10.44
416.832	10.55
417.038	10.58
417.244	10.78
417.45	11.07
417.657	10.89
417.863	10.99
418.069	10.95
418.275	10.82
418.481	10.52
418.687	10.28
418.893	10.19
419.099	10.41
419.305	10.38
419.511	10.09
419.717	9.91
419.923	9.8
420.129	9.69
420.335	9.86
420.541	10.01
420.746	10.18
420.952	10.25
421.158	10.12
421.364	9.89
421.57	9.9
421.776	10.09
421.982	10.04
422.187	10
422.393	9.97
422.599	9.78
422.805	9.83
423.01	9.62
423.216	9.63
423.422	9.6
423.628	9.65
423.833	9.76
424.039	9.54
424.245	9.52
424.45	9.69
424.656	9.84
424.862	9.66
425.067	9.53
425.273	9.6
425.478	9.61
425.684	9.69
425.889	9.47
426.095	9.44
426.301	9.56
426.506	9.5
426.712	9.3
426.917	9.13
427.123	9.51
427.328	9.56
427.533	9.59
427.739	9.4
427.944	9.21
428.15	9.34
428.355	8.94
428.561	8.76
428.766	8.83
428.971	8.88
429.177	8.85
429.382	8.56
429.587	8.37
429.793	8.3
429.998	8.24
430.203	8.32
430.408	8.29
430.614	8.5
430.819	8.47
431.024	8.39
431.229	8.28
431.434	8.21
431.64	8.14
431.845	8.01
432.05	8.04
432.255	8.23
432.46	8.52
432.665	8.46
432.87	8.35
433.076	8.44
433.281	8.51
433.486	8.56
433.691	8.63
433.896	8.72
434.101	8.89
434.306	8.79
434.511	8.81
434.716	8.75
434.921	8.93
435.126	8.95
435.331	8.93
435.535	8.83
435.74	8.73
435.945	8.54
436.15	8.61
436.355	8.61
436.56	8.74
436.765	8.61
436.97	8.65
437.174	8.52
437.379	8.88
437.584	8.88
437.789	9.09
437.993	9.27
438.198	9.31
438.403	9.22
438.608	9.22
438.812	9.33
439.017	9.43
439.222	9.38
439.426	9.48
439.631	9.49
439.836	9.58
440.04	9.67
440.245	9.78
440.45	9.87
440.654	9.78
440.859	9.73
441.063	9.62
441.268	9.56
441.472	9.54
441.677	9.52
441.881	9.32
442.086	9.38
442.29	9.21
442.495	9.19
442.699	9.24
442.904	9.18
443.108	9.3
443.312	9.12
443.517	9.06
443.721	9.06
443.925	8.96
444.13	8.93
444.334	8.83
444.538	8.88
444.743	8.51
444.947	8.57
445.151	8.62
445.356	8.58
445.56	8.65
445.764	8.75
445.968	8.69
446.173	8.7
446.377	8.7
446.581	8.68
446.785	8.55
446.989	8.66
447.193	8.61
447.398	8.61
447.602	8.6
447.806	8.57
448.01	8.54
448.214	8.66
448.418	8.52
448.622	8.73
448.826	8.72
449.03	8.77
449.234	8.7
449.438	8.62
449.642	8.9
449.846	8.68
450.05	8.78
450.254	8.88
450.458	8.57
450.662	8.74
450.866	8.55
451.069	8.45
451.273	8.67
451.477	8.67
451.681	8.71
451.885	8.43
452.089	8.54
452.292	8.47
452.496	8.34
452.7	8.62
452.904	8.56
453.107	8.54
453.311	8.55
453.515	8.47
453.719	8.78
453.922	8.69
454.126	8.76
454.33	8.8
454.533	9.03
454.737	8.9
454.94	8.66
455.144	8.63
455.348	8.68
455.551	8.74
455.755	8.78
455.958	8.46
456.162	8.25
456.365	8.31
456.569	8.44
456.772	8.28
456.976	8.51
457.179	8.66
457.383	8.84
457.586	8.71
457.79	8.61
457.993	8.39
458.196	8.63
458.4	8.85
458.603	8.8
458.807	8.7
459.01	8.77
459.213	8.65
459.417	8.6
459.62	8.48
459.823	8.38
460.026	8.4
460.23	8.59
460.433	8.44
460.636	8.48
460.839	8.48
461.042	8.44
461.246	8.33
461.449	8.33
461.652	8.46
461.855	8.6
462.058	8.87
462.261	9.1
