Data from CB_066_Reflection_3.txt Node
Date: Sat Nov 14 10:45:22 EST 2015
User: robert
Spectrometer: USB4E03001
Autoset integration time: false
Trigger mode: 4
Integration Time (sec): 1.000000E-1
Scans to average: 15
Electric dark correction enabled: true
Nonlinearity correction enabled: false
Boxcar width: 5
Stray light correction enabled: false
XAxis mode: Wavelengths
Stop averaging: false
Number of Pixels in Spectrum: 3648
>>>>>Begin Spectral Data<<<<<
177.566	-56.06
177.785	-81.49
178.005	-448.84
178.225	39.07
178.445	119.87
178.665	-102.51
178.885	-45.61
179.105	-43.35
179.324	-100.73
179.544	-241.65
179.764	-20.72
179.984	-50.08
180.204	-70.73
180.423	-215.05
180.643	-72.3
180.863	-44.79
181.083	-558.22
181.302	-4861.11
181.522	461.49
181.742	380.23
181.961	436.08
182.181	73.71
182.401	86.46
182.621	166.57
182.84	776.19
183.06	-1895.59
183.279	-282.22
183.499	-182.17
183.719	-211.64
183.938	-154.31
184.158	-137.98
184.377	-79.3
184.597	-47.03
184.816	-8.22
185.036	9.54
185.256	-40.35
185.475	-37.09
185.695	58.22
185.914	21.04
186.134	55.7
186.353	26.46
186.572	31.56
186.792	-56.27
187.011	547.06
187.231	-372.08
187.45	-94.6
187.67	-136.43
187.889	425.51
188.108	268.5
188.328	206.64
188.547	122.03
188.766	103.47
188.986	79.43
189.205	99.98
189.424	94.62
189.644	93.17
189.863	117.79
190.082	134.98
190.302	169.54
190.521	147.35
190.74	144.06
190.959	462.08
191.178	363.1
191.398	371.15
191.617	833.82
191.836	2978.49
192.055	538.31
192.274	192.8
192.494	240.96
192.713	5969.64
192.932	-785.99
193.151	178475
193.37	372.61
193.589	-9826.55
193.808	-776.85
194.027	-1116.55
194.246	2638.82
194.465	-1703.17
194.685	312.4
194.904	353.38
195.123	211.18
195.342	122.89
195.561	95.78
195.78	181.78
195.999	47.52
196.218	-71.32
196.436	-127.56
196.655	-6.06
196.874	-13
197.093	29.84
197.312	16.31
197.531	27.2
197.75	-45.19
197.969	-284.54
198.188	-35.48
198.407	-11.47
198.625	35.4
198.844	64.56
199.063	59.53
199.282	144.84
199.501	476.56
199.719	307.16
199.938	113.94
200.157	207.48
200.376	-708.98
200.594	27.19
200.813	-55.97
201.032	123.51
201.251	138.42
201.469	146.9
201.688	46.79
201.907	1073.71
202.125	335.35
202.344	842.25
202.563	5089.86
202.781	412.39
203	133.56
203.218	125.45
203.437	159.08
203.656	118.71
203.874	175.9
204.093	116.52
204.311	18.46
204.53	117.69
204.748	52.94
204.967	-17.86
205.185	-51.27
205.404	32.34
205.622	24.56
205.841	113.56
206.059	143.34
206.278	164.24
206.496	228.96
206.715	275.99
206.933	164.03
207.151	256.31
207.37	175.64
207.588	221.75
207.806	256.5
208.025	342.78
208.243	512.85
208.461	-28254.55
208.68	511.35
208.898	325.49
209.116	243.94
209.335	162.58
209.553	73.82
209.771	67.13
209.989	77.74
210.208	66.66
210.426	34.83
210.644	38.02
210.862	30.96
211.081	36.17
211.299	23.75
211.517	10.77
211.735	25.44
211.953	37.36
212.171	35.11
212.39	6.46
212.608	14.48
212.826	32.29
213.044	38.32
213.262	33.43
213.48	32.3
213.698	29.5
213.916	26.33
214.134	-30.19
214.352	-43.36
214.57	-39.69
214.788	-51.65
215.006	-20.43
215.224	-115.15
215.442	-422.79
215.66	-637.53
215.878	-139.7
216.096	-48.65
216.314	-177.46
216.532	-286.55
216.75	441.91
216.968	213.38
217.185	-1900
217.403	488.85
217.621	-33966.67
217.839	-95.9
218.057	-464.58
218.275	127.51
218.492	37.7
218.71	-537.27
218.928	463.64
219.146	220.48
219.363	84.07
219.581	55.05
219.799	181.62
220.017	34.25
220.234	23.22
220.452	76.51
220.67	78.11
220.887	47.46
221.105	76.26
221.323	65.52
221.54	73.73
221.758	68.26
221.976	54.31
222.193	36.39
222.411	43.37
222.629	45.26
222.846	32.55
223.064	27.89
223.281	35.89
223.499	17.51
223.716	18.71
223.934	24.84
224.151	25.48
224.369	37.67
224.586	60.96
224.804	55.67
225.021	57.03
225.239	68
225.456	76.69
225.674	73.11
225.891	70.68
226.108	57.49
226.326	45.55
226.543	47.07
226.76	30.94
226.978	19.18
227.195	29.14
227.413	30.55
227.63	28.88
227.847	29.11
228.064	23.99
228.282	24.53
228.499	20.87
228.716	23.37
228.934	20.93
229.151	16.94
229.368	16.8
229.585	13.74
229.802	9.95
230.02	11.04
230.237	13.16
230.454	15.13
230.671	15.17
230.888	20.26
231.105	16.67
231.323	21.26
231.54	24.91
231.757	24.33
231.974	21.29
232.191	26.8
232.408	20.51
232.625	13.11
232.842	6.4
233.059	-0.82
233.276	-3.76
233.493	-3.39
233.71	-6.63
233.927	-4.3
234.144	-4.99
234.361	1.92
234.578	-0.81
234.795	-3.12
235.012	1.17
235.229	1.92
235.446	8.32
235.663	6.54
235.879	6.75
236.096	13.74
236.313	15.26
236.53	12.66
236.747	15.28
236.964	12.51
237.181	19.89
237.397	16.36
237.614	27.45
237.831	29.1
238.048	32.19
238.264	31.11
238.481	24.66
238.698	24.67
238.915	29.06
239.131	22.62
239.348	19.75
239.565	18.52
239.781	18.39
239.998	14.5
240.215	10.62
240.431	7.77
240.648	10.23
240.865	5.72
241.081	7.23
241.298	3.66
241.514	8.52
241.731	8.67
241.947	5.66
242.164	6.33
242.38	2.86
242.597	2.65
242.814	4.15
243.03	5.99
243.246	7.85
243.463	7.22
243.679	8.6
243.896	5.28
244.112	4.4
244.329	6.7
244.545	8.52
244.762	9.69
244.978	9.75
245.194	7.16
245.411	4.98
245.627	5.27
245.843	7.24
246.06	7.44
246.276	8.04
246.492	10.32
246.709	9.72
246.925	8.1
247.141	8.95
247.357	10.09
247.574	10.47
247.79	9.74
248.006	9.35
248.222	8.03
248.439	7.72
248.655	7.78
248.871	6.28
249.087	7.52
249.303	8.71
249.519	8.38
249.736	7.52
249.952	7.05
250.168	10.1
250.384	11.63
250.6	12.86
250.816	13.34
251.032	12.23
251.248	14.27
251.464	12.59
251.68	9.21
251.896	7.88
252.112	8.3
252.328	8.51
252.544	7.51
252.76	6.78
252.976	5.26
253.192	4.65
253.408	5.88
253.624	3.25
253.84	2.37
254.056	2.39
254.272	2.32
254.487	-0.59
254.703	-2.6
254.919	-5.73
255.135	-6.64
255.351	-0.98
255.567	0.99
255.782	2.61
255.998	4.89
256.214	4.98
256.43	4.88
256.646	6.21
256.861	8.62
257.077	8.03
257.293	8.1
257.508	9.98
257.724	8.76
257.94	7.32
258.155	5.29
258.371	4.98
258.587	4.77
258.802	6.45
259.018	6.56
259.234	5.7
259.449	6
259.665	5.89
259.88	5.88
260.096	5.53
260.312	5.3
260.527	4.8
260.743	5.42
260.958	5.82
261.174	6.42
261.389	7
261.605	6.78
261.82	6.97
262.036	7.71
262.251	6.94
262.466	6.43
262.682	6.97
262.897	7.6
263.113	6.97
263.328	3.9
263.543	2.18
263.759	1.28
263.974	2.49
264.189	3.16
264.405	1.93
264.62	3.17
264.835	1.33
265.051	2.77
265.266	3.54
265.481	5.3
265.696	9.74
265.912	8.43
266.127	6.76
266.342	5.53
266.557	6.37
266.773	6.99
266.988	6.91
267.203	8.08
267.418	6.4
267.633	7.53
267.848	5.96
268.064	3.56
268.279	3.89
268.494	3.3
268.709	2.25
268.924	2.39
269.139	0.25
269.354	0.68
269.569	-0.14
269.784	1.05
269.999	0.9
270.214	2.1
270.429	3.29
270.644	5.17
270.859	4.97
271.074	5.53
271.289	7.19
271.504	8.31
271.719	7.35
271.934	8.29
272.149	7.63
272.363	7.18
272.578	5.29
272.793	5.17
273.008	3.21
273.223	4.1
273.438	4.66
273.653	4.14
273.867	3.58
274.082	4.96
274.297	4.89
274.512	6.84
274.726	6.31
274.941	7.34
275.156	8.9
275.371	9.45
275.585	9.78
275.8	10.84
276.015	8.44
276.229	9.96
276.444	10
276.659	9.21
276.873	6.54
277.088	7.58
277.302	9.33
277.517	7.52
277.732	7.88
277.946	8.2
278.161	8.01
278.375	9.54
278.59	8.32
278.804	7.78
279.019	9.6
279.233	9.77
279.448	7.89
279.662	5.93
279.877	6.76
280.091	4.76
280.306	3.4
280.52	1.81
280.735	-0.63
280.949	1.33
281.163	0.57
281.378	-1.66
281.592	-1
281.806	-0.34
282.021	-0.62
282.235	-1.26
282.449	0.66
282.664	1.32
282.878	2.06
283.092	1.53
283.307	0.64
283.521	0.7
283.735	1.79
283.949	3.24
284.164	3.59
284.378	4.23
284.592	4.14
284.806	4.08
285.02	3.38
285.234	2.74
285.449	3.92
285.663	4.96
285.877	4
286.091	2.99
286.305	1.13
286.519	1.57
286.733	2.3
286.947	2.51
287.161	2.44
287.375	2.7
287.589	5.64
287.803	6.71
288.017	5.49
288.231	7.36
288.445	8.18
288.659	9.3
288.873	9.17
289.087	8.46
289.301	8.75
289.515	8.86
289.729	8.32
289.943	6.54
290.157	6.98
290.371	7.24
290.584	7.01
290.798	7.3
291.012	7.4
291.226	7.1
291.44	7.81
291.654	7.93
291.867	7.46
292.081	9
292.295	10.06
292.509	9.3
292.722	8.64
292.936	7.64
293.15	7.76
293.364	6.23
293.577	6.59
293.791	6.95
294.005	7.65
294.218	9.2
294.432	8.71
294.645	7.01
294.859	6.74
295.073	7.87
295.286	7.74
295.5	7.4
295.713	8.23
295.927	8.44
296.14	7.77
296.354	6.97
296.568	5.42
296.781	5.72
296.994	6.24
297.208	5.64
297.421	5.46
297.635	6.33
297.848	5.85
298.062	5.4
298.275	5.35
298.489	5.26
298.702	5.43
298.915	5.25
299.129	4.89
299.342	4.4
299.555	5.25
299.769	4.84
299.982	4.07
300.195	5.22
300.409	4.93
300.622	4.29
300.835	3.42
301.048	3.45
301.262	4.77
301.475	6.58
301.688	6.6
301.901	6.55
302.115	6.35
302.328	6.58
302.541	6.98
302.754	8.45
302.967	8.85
303.18	10.5
303.393	9.8
303.607	10.04
303.82	9.2
304.033	9.39
304.246	10.04
304.459	10.03
304.672	10.2
304.885	9.85
305.098	9.58
305.311	9.75
305.524	8.28
305.737	9.79
305.95	9.66
306.163	9.3
306.376	9.05
306.589	8.34
306.802	8.98
307.015	9.78
307.228	10.47
307.44	10.59
307.653	9.86
307.866	11.37
308.079	11.15
308.292	10.95
308.505	12.14
308.718	12.84
308.93	13
309.143	12.27
309.356	12.76
309.569	11.81
309.781	11.74
309.994	12.9
310.207	12.39
310.42	11.93
310.632	12.42
310.845	11.26
311.058	11.19
311.27	10.62
311.483	10.28
311.696	9.15
311.908	8.98
312.121	9
312.333	9.42
312.546	9.41
312.759	9.4
312.971	8.62
313.184	9.47
313.396	9.71
313.609	10.02
313.821	11.2
314.034	10.96
314.246	10.96
314.459	10.98
314.671	9.94
314.884	10.53
315.096	9.99
315.309	9.96
315.521	10.05
315.733	9.22
315.946	8.69
316.158	8.66
316.371	9.33
316.583	10.46
316.795	10.17
317.008	11.86
317.22	10.47
317.432	11.23
317.644	11.7
317.857	10.6
318.069	10.4
318.281	11.71
318.494	11.05
318.706	11.52
318.918	11.47
319.13	11.96
319.342	8.14
319.555	8.03
319.767	9.16
319.979	8.92
320.191	8.22
320.403	7.98
320.615	8.58
320.827	8.77
321.039	8.51
321.252	9.13
321.464	9.89
321.676	12.42
321.888	14.04
322.1	12.42
322.312	11.54
322.524	12.33
322.736	11.87
322.948	10.89
323.16	10.02
323.372	9.6
323.584	8.53
323.796	7.52
324.007	6.48
324.219	6.22
324.431	7.16
324.643	9.54
324.855	10.6
325.067	11.33
325.279	12.07
325.491	14.07
325.702	15.27
325.914	15.76
326.126	15.98
326.338	15.32
326.55	15.77
326.761	16.12
326.973	15.77
327.185	15.1
327.396	16.06
327.608	16.02
327.82	15.03
328.032	15.05
328.243	14.78
328.455	16.4
328.666	18.68
328.878	18.28
329.09	19.39
329.301	19.09
329.513	19.48
329.725	19.4
329.936	19.52
330.148	20.68
330.359	22.08
330.571	23.35
330.782	23.45
330.994	23.68
331.205	26.06
331.417	25.9
331.628	26.1
331.84	27.36
332.051	28.43
332.262	28.94
332.474	29.24
332.685	28.19
332.897	27.97
333.108	27.93
333.319	27.23
333.531	26.12
333.742	25.04
333.953	25.1
334.165	24.48
334.376	25.08
334.587	25.08
334.799	23.77
335.01	23.64
335.221	23.77
335.432	22.87
335.644	23.8
335.855	24.06
336.066	24.99
336.277	25.47
336.488	26.35
336.7	25.85
336.911	26.14
337.122	27.63
337.333	28.15
337.544	28.26
337.755	29.07
337.966	28.54
338.177	27.99
338.388	26.95
338.599	27.28
338.811	25.5
339.022	24.86
339.233	24.42
339.444	23.16
339.655	22.74
339.866	22.09
340.076	21.66
340.287	21.95
340.498	22.75
340.709	23.66
340.92	23.36
341.131	24.29
341.342	25.75
341.553	24.95
341.764	26.67
341.975	27.53
342.185	28.87
342.396	28.82
342.607	28.57
342.818	28.22
343.029	28.05
343.239	27.61
343.45	27.46
343.661	27.22
343.872	27.83
344.082	26.41
344.293	25.98
344.504	25.02
344.714	25.46
344.925	25.8
345.136	25.21
345.346	24.69
345.557	24.86
345.768	24.64
345.978	24.48
346.189	24.62
346.399	24.15
346.61	24.05
346.821	24.54
347.031	24.53
347.242	24.36
347.452	24.47
347.663	25.75
347.873	26.21
348.084	26.37
348.294	25.72
348.504	25.93
348.715	27.15
348.925	26.71
349.136	25.6
349.346	25.74
349.557	25.88
349.767	26.23
349.977	25.45
350.188	24.64
350.398	25.33
350.608	25.1
350.819	25.25
351.029	24.23
351.239	25.35
351.449	25.8
351.66	25.25
351.87	25.1
352.08	25.75
352.29	25.98
352.501	25.82
352.711	24.36
352.921	24.47
353.131	23.71
353.341	25.09
353.552	23.45
353.762	23.11
353.972	22.52
354.182	23.73
354.392	23.41
354.602	23.02
354.812	23.48
355.022	23.72
355.232	23.37
355.442	23.92
355.652	22.92
355.862	23.16
356.072	23.96
356.282	24.08
356.492	22.73
356.702	22.69
356.912	22.45
357.122	23.15
357.332	23.79
357.542	23.6
357.752	23.24
357.962	23.81
358.171	24.03
358.381	23.44
358.591	23.72
358.801	23.42
359.011	23.23
359.221	23.6
359.43	22.87
359.64	22.39
359.85	22.4
360.06	22.56
360.269	22.18
360.479	22.29
360.689	22.57
360.899	22.87
361.108	23.73
361.318	23.17
361.528	23.03
361.737	23.21
361.947	23.89
362.156	24.48
362.366	24.5
362.576	24.46
362.785	24.24
362.995	24.33
363.204	23.73
363.414	23.07
363.623	23.47
363.833	23.6
364.042	23.73
364.252	23.58
364.461	22.84
364.671	23.3
364.88	23.18
365.09	23.82
365.299	23.61
365.509	24.2
365.718	23.65
365.927	23.75
366.137	23.92
366.346	23.47
366.555	22.64
366.765	23.24
366.974	22.91
367.183	23.16
367.393	22.71
367.602	22.7
367.811	22.88
368.021	23.61
368.23	23.72
368.439	23.31
368.648	22.94
368.857	23.11
369.067	22.83
369.276	22.66
369.485	22.78
369.694	22.79
369.903	22.55
370.112	22.28
370.321	22.01
370.531	21.83
370.74	21.74
370.949	22.14
371.158	22.26
371.367	22.45
371.576	21.78
371.785	21.01
371.994	21.48
372.203	21.59
372.412	21.6
372.621	21.79
372.83	21.18
373.039	21.3
373.248	21.39
373.457	21.53
373.666	20.81
373.874	21.16
374.083	21.27
374.292	20.63
374.501	20.66
374.71	20.27
374.919	20.11
375.128	20.23
375.336	20.69
375.545	20.08
375.754	19.67
375.963	19.71
376.171	19.26
376.38	19.16
376.589	18.64
376.798	17.75
377.006	18.09
377.215	17.86
377.424	18.09
377.632	17.35
377.841	18.24
378.05	18.12
378.258	18.62
378.467	18.56
378.675	18.94
378.884	19.38
379.093	19.85
379.301	19.57
379.51	19.94
379.718	20.11
379.927	20.47
380.135	20.01
380.344	19.68
380.552	19.56
380.761	20.05
380.969	19.61
381.177	19.14
381.386	19.75
381.594	19.92
381.803	19.44
382.011	19.37
382.219	19.1
382.428	18.63
382.636	19.43
382.845	18.76
383.053	18.56
383.261	18.54
383.469	18.94
383.678	18.1
383.886	17.97
384.094	18.21
384.302	17.99
384.511	18.13
384.719	18.22
384.927	17.9
385.135	18.15
385.343	18.04
385.552	18.37
385.76	17.89
385.968	17.92
386.176	17.67
386.384	17.26
386.592	17.1
386.8	16.89
387.008	17.52
387.216	17.63
387.424	17.36
387.633	17.34
387.841	17.21
388.049	17.63
388.257	17.86
388.465	17.7
388.672	18.22
388.88	18.49
389.088	18.32
389.296	17.86
389.504	17.54
389.712	17.83
389.92	17.49
390.128	17.44
390.336	16.82
390.544	16.49
390.751	16.79
390.959	16.26
391.167	16.18
391.375	16.67
391.583	16.43
391.79	16.44
391.998	16.6
392.206	16.85
392.414	16.5
392.621	16.65
392.829	16.7
393.037	16.54
393.244	16.66
393.452	16.57
393.66	16.2
393.867	16.23
394.075	16.35
394.283	16.21
394.49	16.13
394.698	16.38
394.905	16.53
395.113	16.94
395.32	16.72
395.528	16.99
395.735	16.66
395.943	16.79
396.15	17
396.358	16.61
396.565	16.79
396.773	16.65
396.98	16.87
397.188	16.99
397.395	16.75
397.602	16.99
397.81	16.54
398.017	17.01
398.225	17.24
398.432	16.84
398.639	17.07
398.847	16.72
399.054	17.04
399.261	16.71
399.468	16.7
399.676	16.76
399.883	16.55
400.09	16.78
400.297	16.53
400.505	16.19
400.712	16.4
400.919	16.43
401.126	16.67
401.333	16.56
401.54	16.56
401.748	16.63
401.955	16.49
402.162	16.73
402.369	16.81
402.576	16.87
402.783	16.67
402.99	16.52
403.197	16.29
403.404	16.06
403.611	16.2
403.818	16.35
404.025	16.31
404.232	16.44
404.439	16.47
404.646	16.47
404.853	16.31
405.06	15.99
405.267	16.19
405.474	16.21
405.681	16.42
405.887	16.31
406.094	16.32
406.301	15.89
406.508	15.95
406.715	16
406.922	15.91
407.128	16.24
407.335	16.51
407.542	16.53
407.749	16.74
407.955	16.44
408.162	16.21
408.369	16.02
408.575	16.47
408.782	16.24
408.989	15.81
409.195	15.66
409.402	15.42
409.609	15.43
409.815	15.29
410.022	15.25
410.228	15.29
410.435	15.63
410.642	15.85
410.848	15.63
411.055	15.9
411.261	16.13
411.468	16.21
411.674	16.22
411.881	16.25
412.087	16.14
412.294	16.04
412.5	16.03
412.706	15.97
412.913	15.6
413.119	15.55
413.326	15.21
413.532	15.06
413.738	15.1
413.945	14.8
414.151	15.11
414.357	15.07
414.564	15.16
414.77	15.3
414.976	15.02
415.182	15.31
415.389	15.18
415.595	14.91
415.801	15.06
416.007	15.12
416.214	15.04
416.42	14.83
416.626	14.83
416.832	14.79
417.038	14.71
417.244	14.66
417.45	14.65
417.657	14.74
417.863	14.77
418.069	14.86
418.275	14.86
418.481	15.03
418.687	15
418.893	15.04
419.099	14.94
419.305	14.77
419.511	14.82
419.717	14.63
419.923	14.63
420.129	14.67
420.335	14.63
420.541	14.5
420.746	14.47
420.952	14.4
421.158	14.42
421.364	14.4
421.57	14.31
421.776	14.3
421.982	14.57
422.187	14.44
422.393	14.54
422.599	14.45
422.805	14.48
423.01	14.45
423.216	14.49
423.422	14.62
423.628	14.66
423.833	14.72
424.039	14.72
424.245	14.54
424.45	14.68
424.656	14.54
424.862	14.55
425.067	14.51
425.273	14.6
425.478	14.48
425.684	14.26
425.889	14.35
426.095	14.41
426.301	14.41
426.506	14.35
426.712	14.41
426.917	14.61
427.123	14.5
427.328	14.5
427.533	14.37
427.739	14.52
427.944	14.73
428.15	14.64
428.355	14.73
428.561	14.67
428.766	14.53
428.971	14.35
429.177	14.1
429.382	13.83
429.587	13.86
429.793	13.92
429.998	13.79
430.203	13.41
430.408	13.46
430.614	13.38
430.819	13.42
431.024	13.31
431.229	13.47
431.434	13.64
431.64	13.82
431.845	13.87
432.05	14
432.255	14.05
432.46	14.25
432.665	14.11
432.87	14.06
433.076	13.94
433.281	14.17
433.486	13.97
433.691	13.75
433.896	13.81
434.101	13.58
434.306	13.52
434.511	13.51
434.716	13.41
434.921	13.57
435.126	13.71
435.331	13.76
435.535	13.67
435.74	13.55
435.945	13.6
436.15	13.47
436.355	13.69
436.56	13.56
436.765	13.62
436.97	13.63
437.174	13.47
437.379	13.42
437.584	13.45
437.789	13.51
437.993	13.62
438.198	13.78
438.403	13.93
438.608	13.83
438.812	13.78
439.017	13.66
439.222	13.77
439.426	13.76
439.631	13.63
439.836	13.64
440.04	13.63
440.245	13.71
440.45	13.63
440.654	13.59
440.859	13.62
441.063	13.66
441.268	13.64
441.472	13.5
441.677	13.46
441.881	13.52
442.086	13.55
442.29	13.41
442.495	13.46
442.699	13.36
442.904	13.3
443.108	13.25
443.312	13.24
443.517	13.29
443.721	13.33
443.925	13.36
444.13	13.26
444.334	13.11
444.538	13.21
444.743	13.13
444.947	13.22
445.151	13.34
445.356	13.35
445.56	13.38
445.764	13.32
445.968	13.34
446.173	13.32
446.377	13.34
446.581	13.35
446.785	13.28
446.989	13.27
447.193	13.22
447.398	13.29
447.602	13.16
447.806	13.17
448.01	13.28
448.214	13.31
448.418	13.2
448.622	13.31
448.826	13.44
449.03	13.57
449.234	13.62
449.438	13.8
449.642	13.53
449.846	13.77
450.05	13.76
450.254	13.81
450.458	13.6
450.662	13.88
450.866	13.57
451.069	13.54
451.273	13.48
451.477	13.57
451.681	13.34
451.885	13.34
452.089	13.37
452.292	13.19
452.496	12.95
452.7	13.1
452.904	13.1
453.107	13.24
453.311	13.05
453.515	13.12
453.719	12.9
453.922	12.96
454.126	12.87
454.33	12.73
454.533	12.72
454.737	12.93
454.94	12.87
455.144	12.96
455.348	13.01
455.551	13.24
455.755	13.14
455.958	13.32
456.162	13.32
456.365	13.46
456.569	13.4
456.772	13.49
456.976	13.53
457.179	13.5
457.383	13.24
457.586	13.13
457.79	13.11
457.993	13.22
458.196	13.19
458.4	13.22
458.603	13.19
458.807	13.01
459.01	13.13
459.213	13.13
459.417	13.18
459.62	13.13
