Data from CB_112_Reflection_3.txt Node
Date: Sat Nov 14 18:18:42 EST 2015
User: robert
Spectrometer: USB4E03001
Autoset integration time: false
Trigger mode: 4
Integration Time (sec): 1.000000E-1
Scans to average: 15
Electric dark correction enabled: true
Nonlinearity correction enabled: false
Boxcar width: 5
Stray light correction enabled: false
XAxis mode: Wavelengths
Stop averaging: false
Number of Pixels in Spectrum: 3648
>>>>>Begin Spectral Data<<<<<
177.566	254.15
177.785	-1913.3
178.005	557.95
178.225	454.07
178.445	-853.68
178.665	164.86
178.885	-617.53
179.105	101.04
179.324	206.31
179.544	102.67
179.764	99.29
179.984	104.73
180.204	110.47
180.423	93.11
180.643	107.2
180.863	117.02
181.083	75.52
181.302	81.43
181.522	102.69
181.742	57.26
181.961	64.1
182.181	88.46
182.401	156.43
182.621	96.51
182.84	5.67
183.06	-0.9
183.279	-1.12
183.499	36.06
183.719	-61.24
183.938	-36.28
184.158	13.12
184.377	39.43
184.597	31
184.816	50.87
185.036	56.96
185.256	66.17
185.475	74.32
185.695	81.24
185.914	68.81
186.134	84.37
186.353	93.7
186.572	100.79
186.792	89.22
187.011	96.87
187.231	89.45
187.45	87.9
187.67	78.38
187.889	74.34
188.108	69.33
188.328	82.51
188.547	78.05
188.766	74.91
188.986	79.09
189.205	92.51
189.424	69.21
189.644	81.58
189.863	97.24
190.082	146.29
190.302	117.13
190.521	95.99
190.74	92.34
190.959	83.48
191.178	72.87
191.398	71.48
191.617	56.09
191.836	120.62
192.055	89.71
192.274	90.65
192.494	60.58
192.713	153.49
192.932	267.44
193.151	376.16
193.37	224.95
193.589	262.96
193.808	415.59
194.027	759.39
194.246	-1640.3
194.465	2859.48
194.685	170.48
194.904	162.78
195.123	122.46
195.342	72.83
195.561	71.74
195.78	80.5
195.999	56.72
196.218	31.54
196.436	42.12
196.655	32.78
196.874	31.79
197.093	43.02
197.312	47.65
197.531	58.55
197.75	62
197.969	63.98
198.188	71.08
198.407	68.7
198.625	71.58
198.844	87.64
199.063	92.39
199.282	93.55
199.501	98.96
199.719	92.11
199.938	86.71
200.157	72.14
200.376	65.7
200.594	61.72
200.813	66.43
201.032	59.31
201.251	19.71
201.469	27.9
201.688	39.17
201.907	36.3
202.125	31.37
202.344	-17.22
202.563	20.47
202.781	33.25
203	44.78
203.218	83.07
203.437	75.18
203.656	118.35
203.874	97.41
204.093	94.59
204.311	116.71
204.53	135.12
204.748	120.09
204.967	109.02
205.185	121.97
205.404	90.75
205.622	61.52
205.841	64.23
206.059	66.85
206.278	51.24
206.496	45.74
206.715	53.21
206.933	48.03
207.151	55.92
207.37	66.96
207.588	52.02
207.806	61.75
208.025	58.72
208.243	67.49
208.461	68.78
208.68	69.96
208.898	92.79
209.116	73
209.335	70.89
209.553	72.95
209.771	67.74
209.989	68.45
210.208	53.64
210.426	63.72
210.644	56.14
210.862	48.69
211.081	58.96
211.299	36.88
211.517	45.65
211.735	53.63
211.953	43.33
212.171	51.96
212.39	54.52
212.608	64.5
212.826	58.93
213.044	68.31
213.262	72.6
213.48	73.04
213.698	80.61
213.916	81.01
214.134	68.65
214.352	68.86
214.57	60.19
214.788	68.04
215.006	82.23
215.224	96.66
215.442	114.2
215.66	103.88
215.878	97.15
216.096	89.21
216.314	80.67
216.532	91.22
216.75	104.74
216.968	105.88
217.185	119.6
217.403	130.23
217.621	162.49
217.839	112.47
218.057	128.64
218.275	115.4
218.492	133.65
218.71	191.93
218.928	207.68
219.146	247.76
219.363	213.05
219.581	198.15
219.799	223.54
220.017	173.94
220.234	189.12
220.452	200.36
220.67	226.28
220.887	365.6
221.105	471.74
221.323	7234.36
221.54	751.82
221.758	4378.57
221.976	1831.79
222.193	339.88
222.411	441.28
222.629	642.78
222.846	875.61
223.064	-772.18
223.281	849
223.499	571.32
223.716	868.94
223.934	-521.61
224.151	-149.96
224.369	-73.48
224.586	-19.88
224.804	5.56
225.021	3.79
225.239	-3
225.456	11.71
225.674	1.09
225.891	-0.01
226.108	-36.89
226.326	-65.94
226.543	-38.3
226.76	-18.31
226.978	-18.23
227.195	-30.32
227.413	-33.38
227.63	-14.94
227.847	-18.85
228.064	-5
228.282	-3.04
228.499	4.53
228.716	5.67
228.934	4.12
229.151	3.81
229.368	4.81
229.585	4.45
229.802	5.81
230.02	4.5
230.237	7.16
230.454	7.32
230.671	6.54
230.888	1.98
231.105	1.15
231.323	2.88
231.54	-5.3
231.757	-10.43
231.974	-18.95
232.191	-23.42
232.408	-20.18
232.625	-19.89
232.842	-21.3
233.059	-14.9
233.276	-9.31
233.493	-7.16
233.71	-12.65
233.927	0.26
234.144	5.09
234.361	7.52
234.578	4.97
234.795	3.62
235.012	-6.62
235.229	-15
235.446	-20.43
235.663	-19.97
235.879	-26.03
236.096	-26.36
236.313	-38.13
236.53	-38.9
236.747	-35.31
236.964	-30.6
237.181	-42.19
237.397	-29.45
237.614	-19.21
237.831	-12.92
238.048	-12.74
238.264	-7.74
238.481	-3.82
238.698	8.81
238.915	11.43
239.131	10.02
239.348	7.88
239.565	12.93
239.781	10.1
239.998	6.98
240.215	3.17
240.431	1.22
240.648	3.67
240.865	4.15
241.081	2.42
241.298	5.07
241.514	6.08
241.731	7.34
241.947	6.82
242.164	5.71
242.38	7.17
242.597	7.84
242.814	8.31
243.03	7.65
243.246	6.1
243.463	7.32
243.679	5.3
243.896	4.5
244.112	1.34
244.329	0.82
244.545	2.2
244.762	2.52
244.978	4.12
245.194	4.5
245.411	2.72
245.627	4.16
245.843	-0.63
246.06	1.3
246.276	2.28
246.492	3.98
246.709	3.9
246.925	3.25
247.141	3.31
247.357	3.18
247.574	3.44
247.79	4.58
248.006	4.93
248.222	5.99
248.439	6.01
248.655	5.63
248.871	5.29
249.087	6.56
249.303	6.45
249.519	5.61
249.736	4
249.952	4.15
250.168	3.5
250.384	2.86
250.6	3.09
250.816	2.43
251.032	3.16
251.248	3.86
251.464	-0.29
251.68	0.66
251.896	0.7
252.112	1.2
252.328	0.28
252.544	-1.42
252.76	-3.01
252.976	-4.48
253.192	-5.71
253.408	-6.05
253.624	-5.54
253.84	-3.48
254.056	-2.71
254.272	-3.11
254.487	-3.17
254.703	-2.86
254.919	-3.91
255.135	-2.32
255.351	-4.67
255.567	0.13
255.782	-0.86
255.998	-0.11
256.214	-0.86
256.43	1.53
256.646	0.61
256.861	3.19
257.077	1.05
257.293	5.43
257.508	5.87
257.724	6.26
257.94	5.36
258.155	5.02
258.371	4.1
258.587	3.74
258.802	3.9
259.018	5.2
259.234	5.31
259.449	5.96
259.665	5.67
259.88	5.66
260.096	6.83
260.312	6.59
260.527	7.45
260.743	7.04
260.958	7.38
261.174	7.59
261.389	8.17
261.605	7.59
261.82	7.49
262.036	6.74
262.251	6.47
262.466	6.52
262.682	5.77
262.897	4.45
263.113	5.63
263.328	6.64
263.543	3.26
263.759	-1.08
263.974	-2.38
264.189	-2.3
264.405	-1.9
264.62	-2.79
264.835	-4.44
265.051	-2.55
265.266	-2.42
265.481	-1.77
265.696	-3.72
265.912	-2.2
266.127	1.44
266.342	4.04
266.557	3.9
266.773	4.29
266.988	5.12
267.203	5.75
267.418	5.24
267.633	5.8
267.848	5.09
268.064	6.35
268.279	7.04
268.494	6.94
268.709	6.73
268.924	8.35
269.139	6.4
269.354	6.99
269.569	6.7
269.784	6.92
269.999	5.74
270.214	5.3
270.429	5.01
270.644	4.07
270.859	3.67
271.074	3.8
271.289	1.47
271.504	3.62
271.719	4.27
271.934	3.68
272.149	5.05
272.363	5.74
272.578	7.23
272.793	6.64
273.008	6.36
273.223	7.07
273.438	6.02
273.653	8.38
273.867	7.1
274.082	5.94
274.297	6.16
274.512	3.41
274.726	2.81
274.941	-0.12
275.156	0.09
275.371	1.61
275.585	0.03
275.8	1.08
276.015	-1.47
276.229	0.75
276.444	0.36
276.659	1.02
276.873	3.28
277.088	4.51
277.302	5.31
277.517	6.23
277.732	4.31
277.946	4.2
278.161	2.69
278.375	3.65
278.59	3.18
278.804	2.83
279.019	2.72
279.233	1.19
279.448	-0.02
279.662	0.91
279.877	0.17
280.091	2.04
280.306	2.12
280.52	3.76
280.735	3.55
280.949	3.61
281.163	4.48
281.378	3.83
281.592	4.81
281.806	4.63
282.021	4.22
282.235	3.98
282.449	3.11
282.664	4.35
282.878	3.98
283.092	3.87
283.307	3.26
283.521	3.09
283.735	3.84
283.949	2.48
284.164	3.46
284.378	4.55
284.592	5.56
284.806	6.81
285.02	5.58
285.234	6.76
285.449	6.77
285.663	7.68
285.877	7.91
286.091	7.39
286.305	7.89
286.519	8.06
286.733	7.65
286.947	8.04
287.161	7.9
287.375	9.05
287.589	8.39
287.803	8.93
288.017	8.92
288.231	9.59
288.445	9.73
288.659	9.65
288.873	7.57
289.087	7.94
289.301	6.54
289.515	5.56
289.729	4.11
289.943	1.99
290.157	1.07
290.371	0.27
290.584	-0.03
290.798	-0.77
291.012	0.74
291.226	2.71
291.44	1.98
291.654	2.95
291.867	2.97
292.081	5.33
292.295	7.11
292.509	7.13
292.722	8.05
292.936	7.77
293.15	8.87
293.364	8.17
293.577	7.31
293.791	8.66
294.005	8.15
294.218	9.04
294.432	7.24
294.645	7.31
294.859	8.88
295.073	8.18
295.286	8.16
295.5	8.45
295.713	8.07
295.927	8.58
296.14	8.29
296.354	8.02
296.568	7.71
296.781	8.09
296.994	7.85
297.208	6.5
297.421	6.8
297.635	6.84
297.848	6.27
298.062	6.76
298.275	7.2
298.489	6.93
298.702	7.03
298.915	6.21
299.129	5.58
299.342	5.65
299.555	5.8
299.769	6.51
299.982	5.65
300.195	5.84
300.409	5.64
300.622	5.08
300.835	4.3
301.048	4.08
301.262	5.08
301.475	5.33
301.688	4.61
301.901	5.72
302.115	4.96
302.328	6.93
302.541	7.22
302.754	6.31
302.967	5.07
303.18	6.07
303.393	7.13
303.607	6.47
303.82	7.65
304.033	8.83
304.246	8.12
304.459	7.86
304.672	6.82
304.885	7.04
305.098	7.28
305.311	7.86
305.524	6.93
305.737	6.23
305.95	6.72
306.163	5.63
306.376	5.06
306.589	7.08
306.802	5.62
307.015	5.1
307.228	4.24
307.44	5.28
307.653	6.42
307.866	7.57
308.079	7.53
308.292	8.23
308.505	8.02
308.718	8.68
308.93	8.05
309.143	9.94
309.356	9.87
309.569	10.74
309.781	10.84
309.994	10.27
310.207	9.54
310.42	9.52
310.632	9.55
310.845	9.18
311.058	9.93
311.27	10.31
311.483	11.12
311.696	11.9
311.908	11.86
312.121	11.49
312.333	11.72
312.546	12.61
312.759	12.71
312.971	12.64
313.184	12.93
313.396	11.67
313.609	10.42
313.821	9.41
314.034	9.26
314.246	8.64
314.459	8.38
314.671	7.76
314.884	6.78
315.096	6.04
315.309	5.38
315.521	6.13
315.733	5.83
315.946	6.04
316.158	5.46
316.371	6.14
316.583	5.71
316.795	5.45
317.008	6.53
317.22	7.19
317.432	7.63
317.644	7.24
317.857	8.34
318.069	9.7
318.281	9.49
318.494	10.13
318.706	9.67
318.918	10.35
319.13	10.4
319.342	10.84
319.555	10.61
319.767	11.37
319.979	10.89
320.191	10.73
320.403	10.6
320.615	11.15
320.827	9.31
321.039	9.27
321.252	10.2
321.464	11.22
321.676	9.5
321.888	10.37
322.1	10.12
322.312	11.12
322.524	10.25
322.736	10.93
322.948	10.22
323.16	11.72
323.372	11.49
323.584	10.75
323.796	8.71
324.007	9.9
324.219	10.07
324.431	11.2
324.643	10.3
324.855	10.72
325.067	10.27
325.279	10.76
325.491	12.66
325.702	12.93
325.914	13.35
326.126	15.47
326.338	16.42
326.55	17.13
326.761	17.84
326.973	19.12
327.185	20.47
327.396	21.36
327.608	21.96
327.82	20.65
328.032	21.67
328.243	21.32
328.455	22.7
328.666	22.77
328.878	23.11
329.09	22.98
329.301	24.23
329.513	24.08
329.725	23.6
329.936	23.57
330.148	23.09
330.359	23.48
330.571	25.31
330.782	25.12
330.994	25.84
331.205	26.53
331.417	26.88
331.628	26.55
331.84	26
332.051	25.84
332.262	26.63
332.474	28.75
332.685	29.26
332.897	29.25
333.108	29.66
333.319	29.57
333.531	29.16
333.742	29.7
333.953	31.39
334.165	31.37
334.376	32.63
334.587	33.63
334.799	33.89
335.01	34.84
335.221	35.92
335.432	36.52
335.644	37.95
335.855	38.27
336.066	38.14
336.277	37.51
336.488	38.36
336.7	37.83
336.911	37.48
337.122	37.55
337.333	37.16
337.544	36.97
337.755	35.29
337.966	34.03
338.177	33.58
338.388	33.75
338.599	33.87
338.811	33.81
339.022	34.32
339.233	33.79
339.444	32.86
339.655	33.1
339.866	33.46
340.076	34.06
340.287	34.29
340.498	34.96
340.709	35.06
340.92	36.31
341.131	35.88
341.342	35.51
341.553	35.22
341.764	36.12
341.975	36.2
342.185	35.96
342.396	36.49
342.607	36.19
342.818	36.14
343.029	36.06
343.239	34.84
343.45	35.08
343.661	35.74
343.872	36.33
344.082	36.57
344.293	36.11
344.504	35.89
344.714	36.37
344.925	37.16
345.136	37.01
345.346	37.32
345.557	37.83
345.768	38.25
345.978	37.71
346.189	38.64
346.399	37.99
346.61	38.06
346.821	38.03
347.031	37.22
347.242	36.48
347.452	36.45
347.663	35.48
347.873	34.81
348.084	35.14
348.294	35.45
348.504	35.08
348.715	34.37
348.925	33.86
349.136	33.65
349.346	33.81
349.557	34.39
349.767	34.54
349.977	35.23
350.188	34.96
350.398	34.4
350.608	34.6
350.819	34.73
351.029	34.97
351.239	34.79
351.449	35.09
351.66	34.7
351.87	34.66
352.08	34.31
352.29	34.4
352.501	34.82
352.711	36.04
352.921	36.04
353.131	35.82
353.341	35.73
353.552	35.97
353.762	35.74
353.972	35.63
354.182	35.05
354.392	34.13
354.602	33.44
354.812	33
355.022	32.11
355.232	32.37
355.442	32.59
355.652	32.54
355.862	32.44
356.072	32.03
356.282	32.39
356.492	32.27
356.702	33.12
356.912	33.1
357.122	33.42
357.332	32.89
357.542	32.53
357.752	32.29
357.962	33.27
358.171	33.07
358.381	33.33
358.591	33.44
358.801	33.47
359.011	33.69
359.221	33.81
359.43	33.94
359.64	33.85
359.85	33.57
360.06	32.98
360.269	32.09
360.479	32.22
360.689	32.12
360.899	31.83
361.108	32.12
361.318	31.82
361.528	31.88
361.737	32
361.947	32.26
362.156	32.47
362.366	32.66
362.576	33
362.785	32.98
362.995	33.32
363.204	33.41
363.414	33.22
363.623	33.01
363.833	32.58
364.042	32.25
364.252	31.98
364.461	31.93
364.671	32.04
364.88	31.73
365.09	31.48
365.299	30.7
365.509	30.37
365.718	30.15
365.927	30.3
366.137	30.61
366.346	30.33
366.555	29.87
366.765	29.46
366.974	29.4
367.183	28.77
367.393	29.35
367.602	29.86
367.811	30.2
368.021	30.09
368.23	29.62
368.439	29.61
368.648	30.25
368.857	30.58
369.067	30.49
369.276	29.68
369.485	30.33
369.694	29.44
369.903	29.52
370.112	29.53
370.321	30.04
370.531	30.77
370.74	30.19
370.949	29.42
371.158	29.72
371.367	30.21
371.576	30.28
371.785	29.84
371.994	30.12
372.203	29.53
372.412	29.41
372.621	28.94
372.83	28.54
373.039	28.89
373.248	28.94
373.457	28.41
373.666	27.78
373.874	27.82
374.083	27.7
374.292	27.16
374.501	27.52
374.71	26.39
374.919	26.25
375.128	26.5
375.336	26.58
375.545	26.55
375.754	26.29
375.963	26.12
376.171	26.56
376.38	27.04
376.589	27.19
376.798	26.81
377.006	27.26
377.215	26.95
377.424	26.43
377.632	26.05
377.841	26.01
378.05	25.85
378.258	25.77
378.467	24.85
378.675	24.48
378.884	24.1
379.093	23.99
379.301	23.92
379.51	24.21
379.718	24.02
379.927	24
380.135	24.06
380.344	24.42
380.552	24.43
380.761	24.6
380.969	24.95
381.177	25.49
381.386	25.33
381.594	25.82
381.803	25.77
382.011	25.89
382.219	25.73
382.428	25.38
382.636	25.23
382.845	25.04
383.053	25.06
383.261	24.5
383.469	24.26
383.678	24.11
383.886	23.91
384.094	23.59
384.302	23.22
384.511	23.45
384.719	23.33
384.927	23.28
385.135	23.02
385.343	22.96
385.552	23.07
385.76	22.37
385.968	22.15
386.176	21.46
386.384	21.71
386.592	21.6
386.8	20.68
387.008	20.57
387.216	20.57
387.424	20.77
387.633	20.68
387.841	20.15
388.049	20.59
388.257	20.81
388.465	20.88
388.672	20.12
388.88	20.08
389.088	20.63
389.296	20.45
389.504	19.98
389.712	19.84
389.92	19.96
390.128	20.48
390.336	20.25
390.544	20.39
390.751	20.2
390.959	20.35
391.167	20.43
391.375	20.35
391.583	20.06
391.79	20.42
391.998	20.48
392.206	20.37
392.414	19.63
392.621	19.49
392.829	19.23
393.037	19.48
393.244	19.44
393.452	19.34
393.66	19.04
393.867	19.08
394.075	19.04
394.283	18.9
394.49	18.53
394.698	18.82
394.905	18.77
395.113	18.57
395.32	18.39
395.528	18.45
395.735	18.59
395.943	18.59
396.15	18.53
396.358	17.95
396.565	18.02
396.773	18.15
396.98	17.96
397.188	18.08
397.395	18.13
397.602	18.25
397.81	18.18
398.017	17.78
398.225	17.88
398.432	17.79
398.639	18.11
398.847	17.82
399.054	17.87
399.261	18.07
399.468	18.01
399.676	18.09
399.883	17.84
400.09	17.83
400.297	17.9
400.505	17.79
400.712	17.96
400.919	17.93
401.126	17.72
401.333	17.84
401.54	17.88
401.748	18.03
401.955	17.81
402.162	18.14
402.369	17.84
402.576	17.75
402.783	17.71
402.99	17.89
403.197	17.98
403.404	17.95
403.611	17.48
403.818	17.41
404.025	17.25
404.232	17.26
404.439	17.2
404.646	17.27
404.853	17.14
405.06	17.13
405.267	17.1
405.474	16.78
405.681	16.92
405.887	16.94
406.094	16.74
406.301	16.81
406.508	16.72
406.715	16.28
406.922	16.3
407.128	16.64
407.335	16.72
407.542	16.63
407.749	16.57
407.955	16.32
408.162	16.72
408.369	16.71
408.575	16.56
408.782	16.65
408.989	16.71
409.195	16.82
409.402	16.62
409.609	16.42
409.815	16.22
410.022	16.25
410.228	16.28
410.435	16.24
410.642	16.45
410.848	16.12
411.055	16.27
411.261	16.32
411.468	16.14
411.674	15.94
411.881	15.95
412.087	15.79
412.294	16.09
412.5	16.31
412.706	16.04
412.913	15.54
413.119	15.72
413.326	15.52
413.532	15.78
413.738	15.66
413.945	15.55
414.151	15.71
414.357	15.91
414.564	15.68
414.77	15.46
414.976	15.8
415.182	15.88
415.389	16.01
415.595	16.1
415.801	15.94
416.007	16.22
416.214	16.2
416.42	16.13
416.626	16.07
416.832	16.03
417.038	16.07
417.244	16
417.45	16.19
417.657	15.95
417.863	15.69
418.069	15.65
418.275	15.42
418.481	15.45
418.687	15.39
418.893	15.45
419.099	15.48
419.305	15.52
419.511	15.42
419.717	15.29
419.923	15.34
420.129	15.35
420.335	15.17
420.541	15.3
420.746	15.39
420.952	15.38
421.158	15.43
421.364	15.3
421.57	15.24
421.776	15.27
421.982	15.21
422.187	15.15
422.393	15.25
422.599	15.48
422.805	15.47
423.01	15.61
423.216	15.57
423.422	15.49
423.628	15.6
423.833	15.63
424.039	15.7
424.245	15.8
424.45	15.98
424.656	15.99
424.862	15.83
425.067	15.83
425.273	15.69
425.478	15.69
425.684	15.65
425.889	15.55
426.095	15.66
426.301	15.42
426.506	15.37
426.712	15.26
426.917	15.42
427.123	15.46
427.328	15.46
427.533	15.52
427.739	15.56
427.944	15.62
428.15	15.66
428.355	15.51
428.561	15.5
428.766	15.54
428.971	15.4
429.177	15.19
429.382	15.25
429.587	15.18
429.793	14.94
429.998	14.98
430.203	14.74
430.408	14.77
430.614	14.55
430.819	14.8
431.024	14.87
431.229	15
431.434	14.83
431.64	14.83
431.845	14.88
432.05	14.93
432.255	14.86
432.46	14.95
432.665	14.73
432.87	14.68
433.076	14.42
433.281	14.34
433.486	14.13
433.691	14
433.896	13.93
434.101	13.82
434.306	13.67
434.511	13.71
434.716	13.76
434.921	13.94
435.126	14.1
435.331	14.38
435.535	14.48
435.74	14.61
435.945	14.84
436.15	14.91
436.355	15
436.56	15.34
436.765	15.35
436.97	15.52
437.174	15.63
437.379	15.6
437.584	15.52
437.789	15.45
437.993	15.52
438.198	15.61
438.403	15.62
438.608	15.53
438.812	15.5
439.017	15.41
439.222	15.28
439.426	15.15
439.631	15.14
439.836	15.08
440.04	15.19
440.245	15.03
440.45	14.84
440.654	14.74
440.859	14.73
441.063	14.57
441.268	14.56
441.472	14.4
441.677	14.55
441.881	14.67
442.086	14.69
442.29	14.42
442.495	14.64
442.699	14.61
442.904	14.69
443.108	14.71
443.312	14.79
443.517	14.73
443.721	14.88
443.925	14.74
444.13	14.72
444.334	14.63
444.538	14.77
444.743	14.62
444.947	14.75
445.151	14.68
445.356	14.62
445.56	14.6
445.764	14.73
445.968	14.6
446.173	14.6
446.377	14.39
446.581	14.36
446.785	14.25
446.989	14.19
447.193	14.25
447.398	14.34
447.602	14.42
447.806	14.38
448.01	14.32
448.214	14.49
448.418	14.31
448.622	14.36
448.826	14.29
449.03	14.51
449.234	14.66
449.438	14.51
449.642	14.26
449.846	14.03
450.05	14.05
450.254	13.89
450.458	13.69
450.662	13.86
450.866	13.89
451.069	14.05
451.273	13.77
451.477	13.76
451.681	13.62
451.885	13.94
452.089	14.05
452.292	14.17
452.496	14.29
452.7	14.19
452.904	14.18
453.107	14.12
453.311	14.04
453.515	14.27
453.719	14.15
453.922	14.08
454.126	13.8
454.33	13.86
454.533	13.76
454.737	13.8
454.94	13.99
455.144	13.95
455.348	13.98
455.551	13.87
455.755	13.77
455.958	13.81
456.162	13.94
456.365	14.08
456.569	14.06
456.772	14.13
456.976	14.1
457.179	14.01
457.383	13.98
457.586	14.12
457.79	14.34
457.993	14.3
458.196	14.26
458.4	14.37
458.603	14.14
458.807	14.18
459.01	14.05
459.213	14.08
459.417	14.15
459.62	14.16
459.823	14.05
460.026	13.95
460.23	13.95
460.433	14.09
460.636	14.15
460.839	14.27
