Data from CB_109_Reflection_3.txt Node
Date: Sat Nov 14 18:11:01 EST 2015
User: robert
Spectrometer: USB4E03001
Autoset integration time: false
Trigger mode: 4
Integration Time (sec): 1.000000E-1
Scans to average: 15
Electric dark correction enabled: true
Nonlinearity correction enabled: false
Boxcar width: 5
Stray light correction enabled: false
XAxis mode: Wavelengths
Stop averaging: false
Number of Pixels in Spectrum: 3648
>>>>>Begin Spectral Data<<<<<
177.566	303.31
177.785	-2680.79
178.005	733.42
178.225	836.52
178.445	-3767.37
178.665	398
178.885	-1507.22
179.105	282.27
179.324	427.58
179.544	171.79
179.764	176.76
179.984	147.34
180.204	165.67
180.423	138.79
180.643	188.82
180.863	254.85
181.083	172.91
181.302	174.72
181.522	221.18
181.742	195.62
181.961	275.15
182.181	395.04
182.401	1031.18
182.621	652.56
182.84	914.46
183.06	384.02
183.279	283.55
183.499	457.54
183.719	330.16
183.938	167.21
184.158	157.34
184.377	146.12
184.597	148.95
184.816	124.66
185.036	133.91
185.256	134.64
185.475	136.33
185.695	121.2
185.914	115.26
186.134	116.32
186.353	123.45
186.572	114.73
186.792	102.58
187.011	109.36
187.231	107.55
187.45	114.15
187.67	98.91
187.889	95.81
188.108	103.99
188.328	113.01
188.547	118.94
188.766	121.07
188.986	117.11
189.205	128.47
189.424	107.61
189.644	106.44
189.863	87.17
190.082	119.3
190.302	122.75
190.521	105.05
190.74	97.42
190.959	98.76
191.178	82.89
191.398	110.34
191.617	101.65
191.836	80.58
192.055	81.26
192.274	96.83
192.494	112.07
192.713	206.91
192.932	194.69
193.151	251.04
193.37	207.37
193.589	222.96
193.808	330.73
194.027	483.03
194.246	-1668.78
194.465	2992.81
194.685	239.08
194.904	191.67
195.123	96.32
195.342	98.75
195.561	105.66
195.78	94.29
195.999	86
196.218	66.36
196.436	77.13
196.655	60.55
196.874	72.64
197.093	86.77
197.312	77.24
197.531	91.05
197.75	91.22
197.969	96.03
198.188	101.39
198.407	94.42
198.625	111.09
198.844	120.59
199.063	118.39
199.282	111.49
199.501	124.28
199.719	130.32
199.938	95.5
200.157	79.63
200.376	77.19
200.594	82.8
200.813	109.26
201.032	83.52
201.251	89.62
201.469	86.82
201.688	95.33
201.907	87.45
202.125	106.97
202.344	170.97
202.563	203.03
202.781	182.37
203	225.79
203.218	204.17
203.437	201.06
203.656	204.68
203.874	187.02
204.093	184.15
204.311	187.77
204.53	187.74
204.748	142.9
204.967	148.84
205.185	171.11
205.404	164.12
205.622	144.97
205.841	149.18
206.059	140.61
206.278	131.18
206.496	128.02
206.715	136.23
206.933	109.83
207.151	103.39
207.37	125.68
207.588	111.36
207.806	101.83
208.025	90.46
208.243	86.17
208.461	92.59
208.68	95.39
208.898	103.58
209.116	97.81
209.335	102.89
209.553	136.46
209.771	130.03
209.989	116.11
210.208	99.3
210.426	107.86
210.644	100.6
210.862	83.89
211.081	81.17
211.299	68.33
211.517	73.3
211.735	75.22
211.953	78.69
212.171	81.57
212.39	82.33
212.608	89.2
212.826	91.46
213.044	102.96
213.262	105.26
213.48	116.34
213.698	115.13
213.916	123.65
214.134	107.15
214.352	106.65
214.57	102.45
214.788	116.04
215.006	127.74
215.224	135
215.442	156.33
215.66	143.07
215.878	134.83
216.096	169.74
216.314	157.11
216.532	189.54
216.75	159.27
216.968	193.3
217.185	172.48
217.403	193.08
217.621	246.45
217.839	225.6
218.057	297.56
218.275	278.53
218.492	274.23
218.71	270.78
218.928	274.43
219.146	433.68
219.363	298.8
219.581	338.61
219.799	386.76
220.017	313.7
220.234	295.79
220.452	327.45
220.67	358.54
220.887	539.09
221.105	742.29
221.323	10890.18
221.54	818.74
221.758	4463.93
221.976	1782.09
222.193	335
222.411	424.31
222.629	596.14
222.846	771.59
223.064	-658.89
223.281	894.59
223.499	589.92
223.716	947.84
223.934	-941.88
224.151	-300.77
224.369	-181.95
224.586	-84.74
224.804	-50.71
225.021	-62.58
225.239	-66.42
225.456	-90.33
225.674	-89.97
225.891	-103.84
226.108	-165.42
226.326	-158.24
226.543	-99.73
226.76	-92.51
226.978	-70.15
227.195	-74.03
227.413	-75.78
227.63	-40.05
227.847	-32.06
228.064	-14.95
228.282	-13.42
228.499	-5.25
228.716	-6.35
228.934	-7.92
229.151	-6.19
229.368	-7.3
229.585	-8.96
229.802	-3.05
230.02	-6.41
230.237	-4.31
230.454	-4.34
230.671	-5.67
230.888	-8.76
231.105	-10.24
231.323	-16.03
231.54	-27.97
231.757	-37.07
231.974	-40.93
232.191	-52.49
232.408	-51.95
232.625	-52.84
232.842	-53.57
233.059	-50.37
233.276	-53.87
233.493	-53.1
233.71	-35.72
233.927	-15.38
234.144	-14.27
234.361	-12.09
234.578	-16.11
234.795	-13.49
235.012	-15.02
235.229	-21.99
235.446	-22.05
235.663	-23.88
235.879	-24.57
236.096	-31.74
236.313	-42.81
236.53	-33.91
236.747	-38.2
236.964	-36.83
237.181	-44.84
237.397	-47.46
237.614	-39.88
237.831	-36.33
238.048	-30.47
238.264	-36.75
238.481	-38.51
238.698	-27.03
238.915	-25.5
239.131	-18.88
239.348	-19.94
239.565	-14.86
239.781	-12.96
239.998	-13.07
240.215	-14.05
240.431	-13.71
240.648	-4.38
240.865	-0.56
241.081	-0.52
241.298	0.15
241.514	1.16
241.731	4.24
241.947	4.55
242.164	5.2
242.38	6.33
242.597	7.81
242.814	9.77
243.03	7.82
243.246	8.04
243.463	7.14
243.679	4.44
243.896	4.68
244.112	3.43
244.329	1.69
244.545	1.83
244.762	2.86
244.978	3.01
245.194	-0.17
245.411	1.61
245.627	0.42
245.843	0.14
246.06	2.13
246.276	3.58
246.492	5.83
246.709	6.65
246.925	6.86
247.141	6.28
247.357	6.74
247.574	7.08
247.79	7.09
248.006	7.43
248.222	7.46
248.439	7.31
248.655	5.92
248.871	4.9
249.087	5.1
249.303	3.82
249.519	2.23
249.736	-0.42
249.952	-0.48
250.168	-0.86
250.384	-1.46
250.6	-0.59
250.816	-1.72
251.032	-0.72
251.248	-3.35
251.464	-6.1
251.68	-6.83
251.896	-6.74
252.112	-7.14
252.328	-6.68
252.544	-7.98
252.76	-10.06
252.976	-12.61
253.192	-11.08
253.408	-10.19
253.624	-8.03
253.84	-6.25
254.056	-4.46
254.272	-5.08
254.487	-5.14
254.703	-7.43
254.919	-9.62
255.135	-7.64
255.351	-7.4
255.567	-8.76
255.782	-11.03
255.998	-10.92
256.214	-13.54
256.43	-9.57
256.646	-8.27
256.861	-5.49
257.077	-7.27
257.293	-3.88
257.508	-1.67
257.724	-0.03
257.94	2.4
258.155	2.11
258.371	1.36
258.587	1.76
258.802	0.95
259.018	2.21
259.234	2.5
259.449	3.96
259.665	4.5
259.88	3.85
260.096	4.18
260.312	3.98
260.527	4.73
260.743	4.72
260.958	4.89
261.174	4.78
261.389	4.45
261.605	4.76
261.82	4
262.036	3.35
262.251	2.53
262.466	3.56
262.682	3.41
262.897	0.84
263.113	1.15
263.328	1.93
263.543	-1.03
263.759	-4.39
263.974	-6.97
264.189	-8.75
264.405	-10.77
264.62	-10.2
264.835	-11.01
265.051	-9.34
265.266	-7.43
265.481	-7.31
265.696	-6.78
265.912	-2.11
266.127	1.07
266.342	2.23
266.557	4.52
266.773	5.06
266.988	5.73
267.203	4.66
267.418	2.68
267.633	3.74
267.848	4.41
268.064	4.7
268.279	4.36
268.494	4.16
268.709	4.42
268.924	4.21
269.139	3.99
269.354	5.03
269.569	5.58
269.784	5.93
269.999	5.11
270.214	4.02
270.429	3.18
270.644	3.68
270.859	4.41
271.074	3.19
271.289	3.16
271.504	4.21
271.719	4.6
271.934	2.43
272.149	3.67
272.363	3.92
272.578	6.16
272.793	5.09
273.008	3.32
273.223	3.62
273.438	3.74
273.653	3.6
273.867	2.52
274.082	1.77
274.297	3.43
274.512	1.3
274.726	-0.66
274.941	-3.78
275.156	-2.84
275.371	-0.3
275.585	-0.64
275.8	1.23
276.015	0.82
276.229	2.56
276.444	1.81
276.659	1.23
276.873	2.26
277.088	2.5
277.302	3.51
277.517	4.57
277.732	3.19
277.946	1.68
278.161	0.1
278.375	0.94
278.59	-0.03
278.804	-0.67
279.019	-0.85
279.233	-0.62
279.448	-0.46
279.662	-1.09
279.877	-1.35
280.091	-0.67
280.306	-0.18
280.52	0.26
280.735	-0.12
280.949	-0.77
281.163	-0.31
281.378	0.9
281.592	1.49
281.806	2.79
282.021	3.03
282.235	2.61
282.449	1.89
282.664	2.55
282.878	2.53
283.092	2.63
283.307	3.66
283.521	3.9
283.735	2.98
283.949	3.02
284.164	3.32
284.378	3.96
284.592	3.85
284.806	4.38
285.02	4.49
285.234	5.61
285.449	6.39
285.663	6.35
285.877	6.17
286.091	5.93
286.305	5.92
286.519	5.54
286.733	4.44
286.947	5.25
287.161	6.17
287.375	5.58
287.589	4.8
287.803	4.32
288.017	4.84
288.231	5.13
288.445	5.43
288.659	4.59
288.873	4.52
289.087	4.69
289.301	3.33
289.515	2.66
289.729	2.95
289.943	1.88
290.157	0.13
290.371	-0.55
290.584	-0.63
290.798	-0.37
291.012	0.48
291.226	-0.33
291.44	-0.07
291.654	0.6
291.867	0.48
292.081	1.63
292.295	3.13
292.509	3.95
292.722	4.21
292.936	4.07
293.15	5.15
293.364	4.51
293.577	5.28
293.791	5.28
294.005	5.12
294.218	4.84
294.432	3.33
294.645	2.62
294.859	4.57
295.073	4.71
295.286	5.3
295.5	5.71
295.713	5.85
295.927	6.42
296.14	6.23
296.354	6.45
296.568	6.63
296.781	7.5
296.994	7.74
297.208	6.1
297.421	6.05
297.635	6.12
297.848	5.76
298.062	6.6
298.275	6.97
298.489	7.16
298.702	6.87
298.915	6.45
299.129	6.64
299.342	7.27
299.555	8.43
299.769	8.97
299.982	8.48
300.195	7.36
300.409	6.06
300.622	5.09
300.835	5.1
301.048	5.27
301.262	5.31
301.475	4.18
301.688	3.12
301.901	3.31
302.115	2.92
302.328	4.06
302.541	4.71
302.754	5.17
302.967	4.93
303.18	4.9
303.393	5.35
303.607	4.79
303.82	5.24
304.033	6.96
304.246	7.07
304.459	6.96
304.672	6.33
304.885	6.87
305.098	7.18
305.311	7.96
305.524	7.59
305.737	5.62
305.95	7.28
306.163	7.61
306.376	5.52
306.589	5.05
306.802	3.14
307.015	1.52
307.228	1.45
307.44	1.16
307.653	1.23
307.866	2.2
308.079	4
308.292	5.01
308.505	4.3
308.718	6.02
308.93	7.2
309.143	8.41
309.356	8.79
309.569	9.73
309.781	10.45
309.994	10.92
310.207	10.83
310.42	10.19
310.632	9.14
310.845	9.44
311.058	9.26
311.27	8.31
311.483	8.86
311.696	10.17
311.908	9.67
312.121	8.94
312.333	8.37
312.546	8.55
312.759	9.04
312.971	9.25
313.184	9.01
313.396	7.65
313.609	6.19
313.821	5.53
314.034	4.05
314.246	2.56
314.459	3.48
314.671	2.94
314.884	2.96
315.096	2.28
315.309	0.66
315.521	1.99
315.733	2.54
315.946	3.84
316.158	4.44
316.371	6.23
316.583	6.05
316.795	5.96
317.008	6.63
317.22	7.6
317.432	7.86
317.644	8.46
317.857	8.11
318.069	9.32
318.281	8.79
318.494	8.19
318.706	7.05
318.918	7.46
319.13	7.49
319.342	8.64
319.555	7.17
319.767	7.25
319.979	7.98
320.191	9.36
320.403	8.88
320.615	9.05
320.827	8.14
321.039	8.49
321.252	10.76
321.464	10.88
321.676	9.25
321.888	10.33
322.1	10.89
322.312	11.93
322.524	9.15
322.736	10
322.948	10.48
323.16	11.44
323.372	11.64
323.584	10.18
323.796	9.41
324.007	9.86
324.219	9.41
324.431	9.36
324.643	8.29
324.855	9.57
325.067	9.24
325.279	9.49
325.491	10.76
325.702	9.99
325.914	10.06
326.126	10.5
326.338	12.2
326.55	13.18
326.761	13.82
326.973	14.7
327.185	15.7
327.396	16.23
327.608	16.57
327.82	16.1
328.032	18.25
328.243	18.89
328.455	20.46
328.666	19.35
328.878	20.04
329.09	20.49
329.301	21.36
329.513	20.26
329.725	19.37
329.936	19.88
330.148	19.09
330.359	17.81
330.571	17.94
330.782	17.53
330.994	19.19
331.205	18.98
331.417	19.61
331.628	18.95
331.84	18.76
332.051	20.06
332.262	20.14
332.474	20.71
332.685	21.65
332.897	22.57
333.108	22.15
333.319	21.41
333.531	21.88
333.742	22.15
333.953	22.98
334.165	23.54
334.376	23.5
334.587	24.45
334.799	26.28
335.01	25.11
335.221	25.91
335.432	26.77
335.644	27.85
335.855	27.97
336.066	28.46
336.277	28.36
336.488	29.18
336.7	28.59
336.911	28.49
337.122	28.01
337.333	30.05
337.544	29.22
337.755	28.23
337.966	27.68
338.177	27.84
338.388	27.38
338.599	27.5
338.811	26.84
339.022	27.91
339.233	27.55
339.444	26.68
339.655	25.52
339.866	25.24
340.076	25.36
340.287	24.06
340.498	23.78
340.709	23.41
340.92	24.15
341.131	24.95
341.342	24.83
341.553	24.47
341.764	26.15
341.975	26.34
342.185	27.06
342.396	27.16
342.607	28.09
342.818	27.93
343.029	28.35
343.239	27.44
343.45	26.96
343.661	26.6
343.872	26.96
344.082	26.58
344.293	26.94
344.504	26.83
344.714	27.99
344.925	28.12
345.136	28.16
345.346	27.45
345.557	27.47
345.768	28.11
345.978	28.15
346.189	28.89
346.399	28.35
346.61	27.36
346.821	26.95
347.031	27.09
347.242	27.56
347.452	26.99
347.663	27.02
347.873	26.76
348.084	25.67
348.294	26.01
348.504	25.43
348.715	25.53
348.925	25.85
349.136	26.08
349.346	25.87
349.557	25.27
349.767	25.52
349.977	26.02
350.188	26.16
350.398	26.73
350.608	27.24
350.819	27.04
351.029	27.12
351.239	26.59
351.449	26.93
351.66	25.65
351.87	25.84
352.08	25.9
352.29	26.51
352.501	26.8
352.711	27.76
352.921	27.41
353.131	27.88
353.341	27.71
353.552	28.5
353.762	28.76
353.972	29.26
354.182	29.13
354.392	28.76
354.602	28.3
354.812	28.28
355.022	27.23
355.232	26.86
355.442	27.18
355.652	27.42
355.862	27.54
356.072	26.83
356.282	27.8
356.492	28.21
356.702	29.03
356.912	28.86
357.122	29.1
357.332	29.46
357.542	29.35
357.752	28.51
357.962	28.26
358.171	28.39
358.381	29.17
358.591	28.47
358.801	27.84
359.011	27.59
359.221	28.11
359.43	27.92
359.64	27.66
359.85	27.19
360.06	27.53
360.269	27.55
360.479	27.43
360.689	26.87
360.899	27.17
361.108	27.48
361.318	27.46
361.528	26.91
361.737	27.08
361.947	27.07
362.156	27.7
362.366	27.44
362.576	27.41
362.785	27.35
362.995	27.96
363.204	27.7
363.414	27.46
363.623	27.01
363.833	26.94
364.042	26.76
364.252	26.78
364.461	26.79
364.671	27.52
364.88	27.53
365.09	27.65
365.299	27.36
365.509	27.15
365.718	26.99
365.927	27.54
366.137	27.39
366.346	27.25
366.555	27.05
366.765	25.89
366.974	25.14
367.183	24.77
367.393	24.58
367.602	24.13
367.811	24.18
368.021	23.9
368.23	23.78
368.439	24.22
368.648	24.44
368.857	24.54
369.067	24.89
369.276	24.96
369.485	24.71
369.694	24.52
369.903	23.95
370.112	23.38
370.321	24.06
370.531	23.95
370.74	23.76
370.949	23.57
371.158	23.41
371.367	23.75
371.576	23.97
371.785	24.13
371.994	24.15
372.203	24.67
372.412	25.1
372.621	24.82
372.83	24.65
373.039	24.88
373.248	24.96
373.457	24.61
373.666	24.27
373.874	23.94
374.083	23.86
374.292	24.12
374.501	23.51
374.71	22.89
374.919	23.1
375.128	23.41
375.336	22.94
375.545	22.49
375.754	22.87
375.963	23.67
376.171	23.68
376.38	24.01
376.589	23.74
376.798	23.79
377.006	24.21
377.215	23.35
377.424	22.87
377.632	22.81
377.841	23.1
378.05	23.02
378.258	22.44
378.467	21.9
378.675	21.88
378.884	21.06
379.093	21
379.301	21.01
379.51	21.43
379.718	20.94
379.927	21.1
380.135	21.38
380.344	21.37
380.552	20.8
380.761	20.96
380.969	20.57
381.177	21.08
381.386	20.76
381.594	20.98
381.803	21.03
382.011	21.29
382.219	21.24
382.428	20.94
382.636	20.97
382.845	21.84
383.053	22.48
383.261	22.74
383.469	22.84
383.678	23.5
383.886	23.23
384.094	23.17
384.302	23.33
384.511	23.4
384.719	22.84
384.927	22.52
385.135	22
385.343	21.05
385.552	21.12
385.76	20.43
385.968	19.99
386.176	19.61
386.384	19.31
386.592	19.23
386.8	18.54
387.008	18.75
387.216	19.16
387.424	19
387.633	19.33
387.841	18.83
388.049	19.03
388.257	18.86
388.465	18.35
388.672	17.87
388.88	17.45
389.088	17.6
389.296	17.08
389.504	16.44
389.712	16.22
389.92	16.19
390.128	16.06
390.336	16.21
390.544	16.4
390.751	16.45
390.959	16.55
391.167	16.82
391.375	16.71
391.583	17
391.79	16.95
391.998	17.04
392.206	17.03
392.414	16.8
392.621	16.53
392.829	16.32
393.037	16.95
393.244	17.26
393.452	17.02
393.66	17.14
393.867	16.93
394.075	17.25
394.283	17.3
394.49	16.92
394.698	17.05
394.905	17.06
395.113	16.98
395.32	16.62
395.528	16.21
395.735	16.14
395.943	15.99
396.15	15.85
396.358	15.34
396.565	15.11
396.773	15.35
396.98	15.45
397.188	15.42
397.395	15.27
397.602	14.97
397.81	15.29
398.017	15.1
398.225	15.07
398.432	15.16
398.639	15.31
398.847	15.59
399.054	15.64
399.261	15.7
399.468	15.86
399.676	15.87
399.883	15.89
400.09	15.45
400.297	15.18
400.505	14.9
400.712	14.72
400.919	14.32
401.126	13.88
401.333	13.64
401.54	13.76
401.748	13.58
401.955	13.53
402.162	13.68
402.369	13.76
402.576	14.31
402.783	14.47
402.99	14.53
403.197	14.91
403.404	14.81
403.611	14.59
403.818	14.37
404.025	14.26
404.232	14.28
404.439	14.31
404.646	14.4
404.853	14.35
405.06	14.13
405.267	14.06
405.474	13.82
405.681	14.11
405.887	14.2
406.094	13.89
406.301	14.06
406.508	13.93
406.715	13.59
406.922	13.3
407.128	13.26
407.335	13.54
407.542	13.68
407.749	13.92
407.955	13.77
408.162	14.06
408.369	14.13
408.575	13.94
408.782	14.33
408.989	14.54
409.195	15.14
409.402	14.88
409.609	14.87
409.815	14.49
410.022	14.45
410.228	14.41
410.435	14.38
410.642	14.73
410.848	14.49
411.055	14.11
411.261	13.98
411.468	13.62
411.674	13.8
411.881	13.82
412.087	14
412.294	13.91
412.5	13.86
412.706	13.86
412.913	13.36
413.119	13.62
413.326	13.99
413.532	14.18
413.738	14.29
413.945	14.06
414.151	14.21
414.357	14.38
414.564	14.5
414.77	14.31
414.976	14.23
415.182	14.41
415.389	14.43
415.595	14.16
415.801	14.05
416.007	14.11
416.214	14.19
416.42	14.23
416.626	14.24
416.832	14.15
417.038	14.37
417.244	14.24
417.45	14.28
417.657	14.22
417.863	14.1
418.069	14.17
418.275	14.02
418.481	14.07
418.687	13.95
418.893	13.93
419.099	14.03
419.305	13.98
419.511	13.89
419.717	13.81
419.923	13.78
420.129	13.89
420.335	13.83
420.541	13.95
420.746	13.81
420.952	13.73
421.158	13.79
421.364	13.6
421.57	13.51
421.776	13.52
421.982	13.52
422.187	13.38
422.393	13.38
422.599	13.4
422.805	13.26
423.01	13.48
423.216	13.45
423.422	13.31
423.628	13.35
423.833	13.45
424.039	13.61
424.245	13.59
424.45	13.66
424.656	13.72
424.862	13.74
425.067	13.68
425.273	13.58
425.478	13.53
425.684	13.5
425.889	13.35
426.095	13.42
426.301	13.15
426.506	13.1
426.712	13.24
426.917	13.14
427.123	12.89
427.328	12.95
427.533	12.86
427.739	12.9
427.944	12.99
428.15	13.05
428.355	12.81
428.561	12.87
428.766	13.14
428.971	12.93
429.177	13.02
429.382	13.18
429.587	13.01
429.793	12.97
429.998	13
430.203	12.85
430.408	13.13
430.614	13.04
430.819	12.98
431.024	12.75
431.229	12.85
431.434	12.62
431.64	12.58
431.845	12.81
432.05	12.82
432.255	12.83
432.46	12.96
432.665	12.73
432.87	12.85
433.076	12.79
433.281	12.65
433.486	12.59
433.691	12.53
433.896	12.63
434.101	12.55
434.306	12.44
434.511	12.4
434.716	12.29
434.921	12.39
435.126	12.19
435.331	12.34
435.535	12.49
435.74	12.58
435.945	12.85
436.15	12.79
436.355	12.78
436.56	12.87
436.765	12.97
436.97	13.12
437.174	13.21
437.379	13.36
437.584	13.51
437.789	13.46
437.993	13.43
438.198	13.29
438.403	13.28
438.608	13.34
438.812	13.38
439.017	13.23
439.222	13.22
439.426	13.05
439.631	13.07
439.836	13.01
440.04	13.15
440.245	13.16
440.45	13.1
440.654	13.15
440.859	13.12
441.063	13.11
441.268	13.08
441.472	12.95
441.677	13.11
441.881	13.1
442.086	13.21
442.29	12.91
442.495	12.97
442.699	12.96
442.904	12.89
443.108	12.73
443.312	12.77
443.517	12.81
443.721	12.71
443.925	12.71
444.13	12.72
444.334	12.53
444.538	12.71
444.743	12.64
444.947	12.7
445.151	12.58
445.356	12.83
445.56	12.92
445.764	13.17
445.968	13.24
446.173	13.18
446.377	13.15
446.581	13.07
446.785	12.99
446.989	12.96
447.193	12.89
447.398	13.05
447.602	12.95
447.806	12.69
448.01	12.49
448.214	12.58
448.418	12.38
448.622	12.17
448.826	12.08
449.03	12.3
449.234	12.27
449.438	12.34
449.642	12.08
449.846	11.95
450.05	12.03
450.254	12.04
450.458	11.77
450.662	11.84
450.866	12
451.069	12.24
451.273	11.87
451.477	11.91
451.681	11.84
451.885	12.11
452.089	12.15
452.292	12.16
452.496	12.04
452.7	12.2
452.904	12.28
453.107	12.24
453.311	12.2
453.515	12.35
453.719	12.28
453.922	12.16
454.126	11.96
454.33	11.93
454.533	11.83
454.737	11.79
454.94	11.71
455.144	11.77
455.348	11.88
455.551	11.76
455.755	11.75
455.958	11.88
456.162	12.07
456.365	12.3
456.569	12.31
456.772	12.44
456.976	12.73
457.179	12.72
457.383	12.6
457.586	12.59
457.79	12.68
457.993	12.69
