Data from CB_102_Reflection_3.txt Node
Date: Sat Nov 14 17:51:37 EST 2015
User: robert
Spectrometer: USB4E03001
Autoset integration time: false
Trigger mode: 4
Integration Time (sec): 1.000000E-1
Scans to average: 15
Electric dark correction enabled: true
Nonlinearity correction enabled: false
Boxcar width: 5
Stray light correction enabled: false
XAxis mode: Wavelengths
Stop averaging: false
Number of Pixels in Spectrum: 3648
>>>>>Begin Spectral Data<<<<<
177.566	213.08
177.785	-1222.66
178.005	355.75
178.225	587.16
178.445	-2825.26
178.665	480.14
178.885	2135.05
179.105	129.93
179.324	73.45
179.544	23.45
179.764	32.51
179.984	43.53
180.204	-4.75
180.423	15.17
180.643	36.84
180.863	32.97
181.083	33.67
181.302	41.43
181.522	17.33
181.742	29.35
181.961	56.09
182.181	73.48
182.401	178.7
182.621	161.89
182.84	234.11
183.06	100.97
183.279	87.95
183.499	108.38
183.719	-27.87
183.938	-34.66
184.158	48.69
184.377	44.45
184.597	30.05
184.816	52.09
185.036	57.28
185.256	50.49
185.475	56.8
185.695	34.61
185.914	54.37
186.134	66.84
186.353	83.98
186.572	65.98
186.792	71.52
187.011	70.4
187.231	54.28
187.45	58.6
187.67	55.39
187.889	64.97
188.108	92.19
188.328	98.72
188.547	110.71
188.766	111.35
188.986	101.94
189.205	100.39
189.424	83.4
189.644	81.31
189.863	82.51
190.082	86.38
190.302	39.04
190.521	12.18
190.74	10.15
190.959	-40.63
191.178	-43.76
191.398	-89.8
191.617	-104.52
191.836	-72.17
192.055	-49.24
192.274	-76.6
192.494	-56.13
192.713	-120.58
192.932	-67.17
193.151	-204.65
193.37	0.25
193.589	-4.67
193.808	96.39
194.027	139.55
194.246	-276.16
194.465	759.15
194.685	150.57
194.904	162.99
195.123	133.76
195.342	146.77
195.561	125.04
195.78	115.57
195.999	108.97
196.218	77.49
196.436	63.83
196.655	64.18
196.874	83.28
197.093	85.91
197.312	71.16
197.531	67
197.75	71.78
197.969	63.46
198.188	64.06
198.407	53.12
198.625	54.17
198.844	71.34
199.063	66.29
199.282	54.51
199.501	26.82
199.719	39.9
199.938	27.71
200.157	25.6
200.376	14.43
200.594	29.22
200.813	36.41
201.032	31.93
201.251	25.89
201.469	22.88
201.688	29.62
201.907	31.61
202.125	38.44
202.344	71.67
202.563	93.34
202.781	73.96
203	113.55
203.218	109.21
203.437	124.17
203.656	119.05
203.874	85.89
204.093	150.28
204.311	125.79
204.53	103.59
204.748	79.87
204.967	66.71
205.185	96.2
205.404	63.72
205.622	65.13
205.841	42.35
206.059	35.91
206.278	61.03
206.496	35.71
206.715	45.39
206.933	66.99
207.151	69.37
207.37	83.03
207.588	77.56
207.806	79.13
208.025	75.47
208.243	80.34
208.461	107.32
208.68	89.19
208.898	78.68
209.116	68.52
209.335	65.78
209.553	69.4
209.771	59.68
209.989	54.2
210.208	47.86
210.426	40.49
210.644	41.62
210.862	32.03
211.081	28.08
211.299	36.17
211.517	35.78
211.735	21.84
211.953	33.64
212.171	42.17
212.39	43.84
212.608	44.07
212.826	43.54
213.044	52.64
213.262	47.32
213.48	48.72
213.698	45.88
213.916	59.79
214.134	56.61
214.352	51.54
214.57	55
214.788	60.53
215.006	48.17
215.224	55.99
215.442	73.28
215.66	79.06
215.878	86.36
216.096	85.76
216.314	70.57
216.532	85.6
216.75	77.74
216.968	59.8
217.185	57.64
217.403	101
217.621	123.21
217.839	69.72
218.057	73.06
218.275	85.9
218.492	135.22
218.71	167.88
218.928	148.84
219.146	258.43
219.363	204.99
219.581	211.64
219.799	175.42
220.017	151.63
220.234	141.86
220.452	127.68
220.67	127.71
220.887	155.35
221.105	134.83
221.323	2318.4
221.54	-28.89
221.758	-600.36
221.976	-621.49
222.193	18.59
222.411	47.33
222.629	87.98
222.846	325.68
223.064	-343.5
223.281	390.49
223.499	253.92
223.716	450.35
223.934	-452.31
224.151	-145.03
224.369	-142.73
224.586	-62.45
224.804	-16.43
225.021	-14.24
225.239	-15.72
225.456	-26.18
225.674	-35.01
225.891	-34.2
226.108	-39.2
226.326	-59.05
226.543	-34.58
226.76	-18.8
226.978	-19.15
227.195	-27.94
227.413	-32.91
227.63	-11.77
227.847	-3.06
228.064	6.92
228.282	5.18
228.499	5.36
228.716	6.89
228.934	5.48
229.151	4.84
229.368	4.61
229.585	3.26
229.802	6.51
230.02	6.62
230.237	7.04
230.454	7.88
230.671	10.02
230.888	11.32
231.105	9.83
231.323	8.04
231.54	3.49
231.757	0.42
231.974	-1.91
232.191	-5.99
232.408	-14.61
232.625	-13.69
232.842	-17.87
233.059	-24.71
233.276	-24.9
233.493	-20.16
233.71	-0.55
233.927	7.6
234.144	5.37
234.361	-2.58
234.578	-0.96
234.795	6.43
235.012	1.84
235.229	-1.66
235.446	4.68
235.663	4.3
235.879	2.92
236.096	-9.7
236.313	-15.76
236.53	-6.98
236.747	-0.75
236.964	-7.62
237.181	-12.04
237.397	-9.86
237.614	-13.28
237.831	-13.39
238.048	-9.25
238.264	-15.38
238.481	-15.51
238.698	-2.66
238.915	2.92
239.131	8.75
239.348	7.59
239.565	11.82
239.781	12.13
239.998	10
240.215	7.3
240.431	2.58
240.648	8.49
240.865	11.27
241.081	8.29
241.298	6.32
241.514	6.69
241.731	10.21
241.947	9.5
242.164	9.19
242.38	11.56
242.597	12.06
242.814	14.74
243.03	13.61
243.246	13.5
243.463	13.01
243.679	12.5
243.896	12.78
244.112	11.64
244.329	10.9
244.545	12.63
244.762	13.24
244.978	15.82
245.194	11.7
245.411	9.65
245.627	9.4
245.843	8.12
246.06	7.37
246.276	6.21
246.492	6.78
246.709	6.36
246.925	5.98
247.141	4.57
247.357	4.11
247.574	3.68
247.79	5.04
248.006	5.37
248.222	5.7
248.439	5.67
248.655	5.78
248.871	5.91
249.087	7.19
249.303	6.78
249.519	7.95
249.736	6.87
249.952	8.72
250.168	8.05
250.384	6.07
250.6	6.7
250.816	7.05
251.032	6.26
251.248	3.9
251.464	-0.92
251.68	-2.87
251.896	-3.26
252.112	-4.69
252.328	-5.15
252.544	-7.61
252.76	-9.15
252.976	-11.22
253.192	-11.4
253.408	-11.69
253.624	-10.29
253.84	-7.89
254.056	-6.2
254.272	-8.05
254.487	-6.91
254.703	-4.45
254.919	-2.15
255.135	1.14
255.351	1.71
255.567	5.95
255.782	6.96
255.998	6.9
256.214	6.51
256.43	8.58
256.646	11.52
256.861	12.1
257.077	6.36
257.293	10.95
257.508	11.45
257.724	11.39
257.94	10.45
258.155	9.25
258.371	7.71
258.587	5.67
258.802	4.87
259.018	5.49
259.234	5.67
259.449	6.74
259.665	4.82
259.88	4.4
260.096	5.39
260.312	4.65
260.527	5.35
260.743	5.8
260.958	6.93
261.174	6.78
261.389	6.26
261.605	6.42
261.82	6.51
262.036	6.8
262.251	7.64
262.466	7.03
262.682	7.65
262.897	6.74
263.113	6.17
263.328	7.3
263.543	6.91
263.759	5.24
263.974	2.86
264.189	1.09
264.405	0.95
264.62	1.72
264.835	1.66
265.051	2.72
265.266	3
265.481	3.96
265.696	1.95
265.912	3.68
266.127	6.05
266.342	8.32
266.557	8.68
266.773	7.89
266.988	6.13
267.203	5.95
267.418	6.25
267.633	7.51
267.848	7.56
268.064	6.74
268.279	5.1
268.494	3.64
268.709	3.2
268.924	6.3
269.139	5.08
269.354	6.02
269.569	6.71
269.784	5.3
269.999	3.45
270.214	3.12
270.429	3.16
270.644	3.64
270.859	4.63
271.074	4.33
271.289	1.51
271.504	3.71
271.719	3.82
271.934	1.91
272.149	2.9
272.363	3.7
272.578	3.99
272.793	3.52
273.008	3.19
273.223	4.02
273.438	3.14
273.653	4.05
273.867	2.96
274.082	2.28
274.297	5.07
274.512	3.94
274.726	2.56
274.941	1.58
275.156	2.5
275.371	4.32
275.585	3.37
275.8	4.82
276.015	5.1
276.229	6.22
276.444	6.46
276.659	4.4
276.873	5.38
277.088	5.18
277.302	5.79
277.517	6.98
277.732	4.36
277.946	3.47
278.161	2.67
278.375	1.59
278.59	3.69
278.804	2.44
279.019	2.68
279.233	1.87
279.448	1.76
279.662	1.37
279.877	0.47
280.091	2.01
280.306	2.3
280.52	3.1
280.735	4.99
280.949	2.93
281.163	3.34
281.378	4.6
281.592	6.23
281.806	7.19
282.021	6.88
282.235	6.74
282.449	7.09
282.664	7.73
282.878	7.62
283.092	6.36
283.307	6.54
283.521	8.52
283.735	8.66
283.949	7.92
284.164	8.08
284.378	9.02
284.592	9.31
284.806	9.29
285.02	8.54
285.234	8.28
285.449	9.21
285.663	9.5
285.877	8.74
286.091	8.01
286.305	6.63
286.519	6.53
286.733	5.64
286.947	5.59
287.161	6.94
287.375	7.78
287.589	8.27
287.803	7.9
288.017	7.47
288.231	7.11
288.445	6.88
288.659	7.78
288.873	8.02
289.087	8.45
289.301	7.67
289.515	5.51
289.729	5.06
289.943	3.88
290.157	2.09
290.371	2.68
290.584	2.58
290.798	1.96
291.012	1.78
291.226	2.21
291.44	3.03
291.654	3.55
291.867	4.82
292.081	6.15
292.295	7.28
292.509	8.25
292.722	7.64
292.936	7.73
293.15	9.37
293.364	10.71
293.577	9.62
293.791	9.38
294.005	10.87
294.218	9.97
294.432	8.89
294.645	8.5
294.859	10.67
295.073	10.48
295.286	10.19
295.5	9.7
295.713	9.94
295.927	10.69
296.14	10.15
296.354	9.95
296.568	10
296.781	10.11
296.994	10.66
297.208	9.23
297.421	9.95
297.635	10.58
297.848	10.51
298.062	10.46
298.275	10.93
298.489	11.06
298.702	10.62
298.915	10.12
299.129	9.81
299.342	10.4
299.555	10.21
299.769	9.94
299.982	9.99
300.195	9.35
300.409	9.69
300.622	8.24
300.835	8.35
301.048	8.46
301.262	9.85
301.475	10.39
301.688	8.69
301.901	9.67
302.115	8.66
302.328	8.81
302.541	9.92
302.754	8.88
302.967	9.52
303.18	9.79
303.393	9.71
303.607	8.57
303.82	8.73
304.033	11.08
304.246	10.84
304.459	11.33
304.672	11.79
304.885	11.75
305.098	12.43
305.311	12.27
305.524	11.99
305.737	10.99
305.95	11.68
306.163	11.7
306.376	10.08
306.589	11.51
306.802	10.61
307.015	9.41
307.228	9.63
307.44	9.6
307.653	11.08
307.866	11.46
308.079	12.58
308.292	13.08
308.505	12.78
308.718	12.72
308.93	11.9
309.143	13.24
309.356	13.45
309.569	13.64
309.781	14.81
309.994	14.14
310.207	13.75
310.42	13.65
310.632	13.35
310.845	12.94
311.058	13.69
311.27	13.85
311.483	14.64
311.696	15.06
311.908	15
312.121	14.01
312.333	14.07
312.546	14.22
312.759	14.15
312.971	13.6
313.184	13.54
313.396	11.78
313.609	10.84
313.821	9.36
314.034	9.21
314.246	9.64
314.459	10.29
314.671	9.84
314.884	9.88
315.096	10.04
315.309	10.01
315.521	10.59
315.733	12.25
315.946	12.8
316.158	13.51
316.371	13.53
316.583	12.25
316.795	11.78
317.008	12.33
317.22	12.09
317.432	12.1
317.644	11.86
317.857	13.47
318.069	13.99
318.281	13.95
318.494	12.96
318.706	11.57
318.918	12.23
319.13	12.86
319.342	12.92
319.555	12.68
319.767	12.47
319.979	12.39
320.191	12.75
320.403	11.62
320.615	12.3
320.827	12.16
321.039	12.11
321.252	13.2
321.464	12.98
321.676	11.86
321.888	12.96
322.1	13.17
322.312	13.64
322.524	11.1
322.736	12.68
322.948	11.49
323.16	11.98
323.372	12.63
323.584	11.75
323.796	11.18
324.007	11.7
324.219	12.23
324.431	12.82
324.643	13.09
324.855	14.51
325.067	14.2
325.279	14.47
325.491	15.72
325.702	15.06
325.914	15.63
326.126	16.42
326.338	18.66
326.55	19.42
326.761	21.12
326.973	22.03
327.185	22.14
327.396	23.31
327.608	24.23
327.82	23.88
328.032	25.67
328.243	25.75
328.455	27.17
328.666	26.72
328.878	27.48
329.09	25.8
329.301	26.25
329.513	26.83
329.725	25.84
329.936	25.77
330.148	27.09
330.359	27.17
330.571	27.56
330.782	27.42
330.994	27.21
331.205	26.09
331.417	27.16
331.628	27.94
331.84	27.36
332.051	27.41
332.262	28.99
332.474	28.46
332.685	28.99
332.897	29.34
333.108	29.89
333.319	30.23
333.531	31.33
333.742	32.56
333.953	32.32
334.165	32.77
334.376	34.16
334.587	33.78
334.799	34.33
335.01	34.97
335.221	35.41
335.432	35.28
335.644	35.88
335.855	36.68
336.066	35.8
336.277	35.84
336.488	36.67
336.7	35.34
336.911	35.12
337.122	35.45
337.333	35.74
337.544	35.43
337.755	33.8
337.966	33.46
338.177	33.21
338.388	33.81
338.599	34.05
338.811	33.59
339.022	34.11
339.233	34.14
339.444	33.58
339.655	33.49
339.866	33.74
340.076	35.37
340.287	34.86
340.498	34.53
340.709	33.55
340.92	33.61
341.131	33.33
341.342	33.46
341.553	33.98
341.764	34.32
341.975	33.92
342.185	33.87
342.396	33
342.607	33.39
342.818	33.99
343.029	34.21
343.239	34.49
343.45	34.42
343.661	35.2
343.872	35.11
344.082	35.06
344.293	35.36
344.504	35.01
344.714	35.86
344.925	35.66
345.136	34.65
345.346	35.18
345.557	34.43
345.768	34.8
345.978	34.21
346.189	34.09
346.399	33.53
346.61	32.98
346.821	33.47
347.031	33.49
347.242	33.89
347.452	33.56
347.663	33.52
347.873	33.86
348.084	33.78
348.294	33.56
348.504	32.71
348.715	33.26
348.925	33.55
349.136	34.09
349.346	32.96
349.557	32.55
349.767	33.07
349.977	32.82
350.188	31.98
350.398	32.49
350.608	33.23
350.819	34.41
351.029	34.52
351.239	33.97
351.449	33.61
351.66	35.29
351.87	36.3
352.08	36.25
352.29	36.26
352.501	36.89
352.711	36.83
352.921	36.16
353.131	35.58
353.341	34.79
353.552	35.45
353.762	35.66
353.972	34.51
354.182	33.24
354.392	32.91
354.602	33.03
354.812	33.36
355.022	33.45
355.232	33.33
355.442	33.71
355.652	34.07
355.862	33.8
356.072	33.16
356.282	33.49
356.492	34.02
356.702	34.01
356.912	33.74
357.122	33.89
357.332	33.32
357.542	33.65
357.752	33.04
357.962	33.29
358.171	33.23
358.381	33.5
358.591	33.39
358.801	32.49
359.011	33.26
359.221	33.32
359.43	32.71
359.64	32.73
359.85	32.44
360.06	32.31
360.269	31.53
360.479	31.61
360.689	31.47
360.899	31.14
361.108	32
361.318	31.5
361.528	31.57
361.737	31.53
361.947	31.59
362.156	31.47
362.366	31.64
362.576	31.71
362.785	31.3
362.995	31.47
363.204	31.48
363.414	31.29
363.623	31.06
363.833	30.98
364.042	31.18
364.252	31.13
364.461	31.38
364.671	32.28
364.88	32.56
365.09	32.73
365.299	32.17
365.509	32.01
365.718	31.46
365.927	31.67
366.137	31.29
366.346	30.91
366.555	30.75
366.765	30.53
366.974	29.01
367.183	28.4
367.393	28.87
367.602	29.16
367.811	29.34
368.021	29.48
368.23	29.05
368.439	28.95
368.648	29.13
368.857	28.19
369.067	28.03
369.276	28.13
369.485	28.41
369.694	27.99
369.903	27.12
370.112	26.62
370.321	26.63
370.531	26.96
370.74	26.45
370.949	26.47
371.158	26.81
371.367	26.41
371.576	26.81
371.785	26.66
371.994	25.96
372.203	26.31
372.412	26.4
372.621	25.82
372.83	25.28
373.039	25.2
373.248	24.67
373.457	24.54
373.666	24.63
373.874	24.06
374.083	23.81
374.292	23.64
374.501	23.41
374.71	23.11
374.919	23.4
375.128	23.51
375.336	24.03
375.545	24.17
375.754	23.83
375.963	24.09
376.171	24.23
376.38	24.28
376.589	24.63
376.798	24.57
377.006	24.67
377.215	24.02
377.424	23.98
377.632	23.33
377.841	23.71
378.05	23.71
378.258	23.43
378.467	23.17
378.675	23.58
378.884	23.02
379.093	23.3
379.301	23.08
379.51	23.27
379.718	23.11
379.927	23.5
380.135	23.17
380.344	23.61
380.552	23.05
380.761	22.89
380.969	22.69
381.177	23.11
381.386	22.75
381.594	23.15
381.803	23.12
382.011	22.84
382.219	22.94
382.428	22.53
382.636	22.35
382.845	22.9
383.053	22.67
383.261	22.25
383.469	21.61
383.678	21.37
383.886	21.24
384.094	21.15
384.302	20.81
384.511	20.42
384.719	20.37
384.927	20.38
385.135	19.86
385.343	19.81
385.552	19.58
385.76	19.59
385.968	19.55
386.176	18.72
386.384	18.65
386.592	18.99
386.8	18.73
387.008	18.57
387.216	18.35
387.424	18.41
387.633	18.66
387.841	18.92
388.049	19.62
388.257	19.58
388.465	19.91
388.672	19.4
388.88	19.19
389.088	19.1
389.296	18.85
389.504	18.44
389.712	18.25
389.92	18.11
390.128	17.82
390.336	17.16
390.544	17.2
390.751	17.1
390.959	17.22
391.167	17.36
391.375	17.54
391.583	17.54
391.79	17.69
391.998	17.4
392.206	17.37
392.414	16.9
392.621	16.69
392.829	16.25
393.037	16.21
393.244	16.29
393.452	15.69
393.66	15.59
393.867	15.3
394.075	15.39
394.283	15.61
394.49	15.45
394.698	15.54
394.905	15.78
395.113	15.86
395.32	15.64
395.528	15.54
395.735	15.66
395.943	15.51
396.15	15.68
396.358	15.6
396.565	15.56
396.773	15.47
396.98	15.44
397.188	15.43
397.395	15.64
397.602	15.81
397.81	15.78
398.017	15.83
398.225	15.98
398.432	15.78
398.639	15.44
398.847	15.19
399.054	15.12
399.261	15.34
399.468	15.3
399.676	15.19
399.883	14.95
400.09	14.79
400.297	14.62
400.505	14.47
400.712	14.67
400.919	14.31
401.126	14.2
401.333	14.29
401.54	14.26
401.748	14.12
401.955	13.74
402.162	13.95
402.369	13.78
402.576	13.85
402.783	13.69
402.99	14
403.197	14.38
403.404	14.63
403.611	14.27
403.818	14.16
404.025	14.06
404.232	14.18
404.439	14.06
404.646	14.27
404.853	14.22
405.06	14.18
405.267	13.97
405.474	14.01
405.681	13.75
405.887	13.9
406.094	13.61
406.301	13.61
406.508	13.56
406.715	13.26
406.922	13.3
407.128	13.2
407.335	13.3
407.542	13.15
407.749	13.14
407.955	13.33
408.162	13.46
408.369	13.55
408.575	13.38
408.782	13.13
408.989	13.12
409.195	13.07
409.402	13.17
409.609	13.11
409.815	13.09
410.022	12.92
410.228	12.8
410.435	12.64
410.642	12.92
410.848	12.86
411.055	13.08
411.261	13.24
411.468	13.2
411.674	13.16
411.881	12.82
412.087	12.57
412.294	12.58
412.5	12.52
412.706	12.53
412.913	11.99
413.119	12.07
413.326	12.08
413.532	12.12
413.738	12.21
413.945	12.4
414.151	12.55
414.357	12.8
414.564	12.75
414.77	12.57
414.976	12.48
415.182	12.72
415.389	12.76
415.595	12.77
415.801	12.8
416.007	12.66
416.214	12.35
416.42	12.34
416.626	12.07
416.832	12.08
417.038	12.24
417.244	12.32
417.45	12.47
417.657	12.38
417.863	12.27
418.069	12.21
418.275	12.06
418.481	12.24
418.687	12.38
418.893	12.68
419.099	12.68
419.305	12.68
419.511	12.55
419.717	12.38
419.923	12.39
420.129	12.38
420.335	12.24
420.541	12.41
420.746	12.28
420.952	12.12
421.158	11.99
421.364	11.83
421.57	11.73
421.776	11.8
421.982	11.68
422.187	11.56
422.393	11.52
422.599	11.56
422.805	11.41
423.01	11.56
423.216	11.59
423.422	11.53
423.628	11.59
423.833	11.66
424.039	11.71
424.245	11.77
424.45	11.87
424.656	11.92
424.862	12.04
425.067	12.11
425.273	11.97
425.478	11.97
425.684	11.99
425.889	11.99
426.095	12.14
426.301	11.87
426.506	12.02
426.712	12.01
426.917	12.03
427.123	11.92
427.328	12
427.533	12.08
427.739	12.11
427.944	12.14
428.15	12.13
428.355	11.67
428.561	12.01
428.766	11.91
428.971	11.88
429.177	11.93
429.382	11.91
429.587	11.76
429.793	11.67
429.998	11.73
430.203	11.73
430.408	11.92
430.614	11.91
430.819	11.69
431.024	11.65
431.229	11.7
431.434	11.45
431.64	11.37
431.845	11.23
432.05	11.12
432.255	11.06
432.46	11
432.665	10.75
432.87	10.98
433.076	10.88
433.281	10.75
433.486	10.66
433.691	10.71
433.896	10.79
434.101	10.82
434.306	10.79
434.511	10.5
434.716	10.47
434.921	10.61
435.126	10.58
435.331	10.78
435.535	10.89
435.74	10.87
435.945	10.89
436.15	10.8
436.355	10.85
436.56	11
436.765	11.3
436.97	11.31
437.174	11.32
437.379	11.26
437.584	11.18
437.789	11.2
437.993	11.28
438.198	11.21
438.403	11.42
438.608	11.42
438.812	11.35
439.017	11.27
439.222	11.35
439.426	11.25
439.631	11.25
439.836	11.31
440.04	11.4
440.245	11.32
440.45	11.32
440.654	11.04
440.859	11.09
441.063	11.09
441.268	11.02
441.472	10.84
441.677	11.04
441.881	11.15
442.086	11.21
442.29	11.07
442.495	11.16
442.699	11.21
442.904	11.38
443.108	11.17
443.312	11.04
443.517	11.07
443.721	11.05
443.925	10.89
444.13	10.88
444.334	10.74
444.538	10.92
444.743	10.93
444.947	10.93
445.151	10.86
445.356	11.04
445.56	11.17
445.764	11.35
445.968	11.46
446.173	11.43
446.377	11.23
446.581	11.17
446.785	11.05
446.989	10.89
447.193	10.82
447.398	10.93
447.602	10.9
447.806	10.79
448.01	10.66
448.214	10.65
448.418	10.46
448.622	10.45
448.826	10.46
449.03	10.54
449.234	10.79
449.438	10.86
449.642	10.63
449.846	10.4
450.05	10.45
450.254	10.37
450.458	10.23
450.662	10.41
450.866	10.47
451.069	10.71
451.273	10.64
451.477	10.52
451.681	10.39
451.885	10.66
452.089	10.62
452.292	10.61
452.496	10.69
452.7	10.76
452.904	10.83
453.107	10.88
453.311	10.67
453.515	10.64
453.719	10.48
453.922	10.54
454.126	10.32
454.33	10.55
454.533	10.44
454.737	10.36
454.94	10.43
455.144	10.37
455.348	10.23
455.551	10.29
455.755	10.29
455.958	10.59
456.162	10.53
456.365	10.49
456.569	10.56
456.772	10.8
456.976	10.8
457.179	10.63
457.383	10.58
457.586	10.74
457.79	10.75
457.993	10.73
458.196	10.47
458.4	10.65
458.603	10.69
458.807	10.62
459.01	10.56
459.213	10.72
459.417	10.85
459.62	10.77
