Data from CB_106_Reflection_3.txt Node
Date: Sat Nov 14 18:02:22 EST 2015
User: robert
Spectrometer: USB4E03001
Autoset integration time: false
Trigger mode: 4
Integration Time (sec): 1.000000E-1
Scans to average: 15
Electric dark correction enabled: true
Nonlinearity correction enabled: false
Boxcar width: 5
Stray light correction enabled: false
XAxis mode: Wavelengths
Stop averaging: false
Number of Pixels in Spectrum: 3648
>>>>>Begin Spectral Data<<<<<
177.566	132.23
177.785	-215.76
178.005	74.93
178.225	319.83
178.445	-367.37
178.665	70.62
178.885	-345.36
179.105	34.41
179.324	-34.54
179.544	53.76
179.764	54.23
179.984	39.33
180.204	15.01
180.423	2.81
180.643	16.83
180.863	-15.49
181.083	-4
181.302	-10.19
181.522	23.03
181.742	33.66
181.961	-15.51
182.181	-16.53
182.401	-20.41
182.621	-9.01
182.84	14.57
183.06	50.93
183.279	53.76
183.499	85.44
183.719	20.61
183.938	-36.59
184.158	25.08
184.377	40.83
184.597	42.85
184.816	42.44
185.036	65.98
185.256	93.15
185.475	96.18
185.695	97.34
185.914	96.72
186.134	112.45
186.353	121.73
186.572	111.53
186.792	114.95
187.011	112.72
187.231	108.87
187.45	103.34
187.67	78.58
187.889	85.82
188.108	86.45
188.328	79.35
188.547	65.49
188.766	66.94
188.986	67.44
189.205	71.45
189.424	70.18
189.644	82.04
189.863	70.17
190.082	90.37
190.302	47.71
190.521	43.78
190.74	43.06
190.959	30.71
191.178	12.31
191.398	35.89
191.617	18.85
191.836	14.72
192.055	8.64
192.274	15.16
192.494	41.37
192.713	114.8
192.932	102.82
193.151	198.52
193.37	132.63
193.589	158.8
193.808	229.28
194.027	394.7
194.246	-1112.87
194.465	2157.19
194.685	199.91
194.904	156.25
195.123	98.94
195.342	125.15
195.561	103.49
195.78	113.12
195.999	125.48
196.218	78.34
196.436	88.07
196.655	80.14
196.874	82.67
197.093	84.34
197.312	77.35
197.531	74.95
197.75	64.59
197.969	63.55
198.188	58.29
198.407	41.55
198.625	59.77
198.844	52.68
199.063	61.82
199.282	72.33
199.501	52.09
199.719	51.44
199.938	69.17
200.157	75.89
200.376	73.14
200.594	89.65
200.813	105.54
201.032	89.16
201.251	85.61
201.469	94.49
201.688	86.24
201.907	93.18
202.125	126.44
202.344	145.45
202.563	139.57
202.781	120.74
203	109.33
203.218	128.59
203.437	131.64
203.656	170.74
203.874	120.3
204.093	164.8
204.311	139.28
204.53	138.32
204.748	99.34
204.967	120.7
205.185	151.76
205.404	130.81
205.622	122.57
205.841	133.55
206.059	122.22
206.278	99.67
206.496	77
206.715	85.66
206.933	71.29
207.151	79.37
207.37	63.45
207.588	60.8
207.806	70.43
208.025	57.73
208.243	41.78
208.461	50.44
208.68	66
208.898	63.98
209.116	62.2
209.335	56.56
209.553	65.79
209.771	79.99
209.989	69.06
210.208	51.04
210.426	47.66
210.644	50.22
210.862	31.66
211.081	28.43
211.299	41.63
211.517	59.93
211.735	73.22
211.953	64.14
212.171	69.28
212.39	59.25
212.608	70.92
212.826	75.38
213.044	79.66
213.262	82.75
213.48	91.84
213.698	83.42
213.916	89.35
214.134	80.17
214.352	86.05
214.57	83.37
214.788	94
215.006	93.34
215.224	100.55
215.442	146.76
215.66	119.94
215.878	115.64
216.096	107.36
216.314	92.05
216.532	97.03
216.75	98.58
216.968	82.02
217.185	108.79
217.403	157.38
217.621	204.05
217.839	132.55
218.057	202.31
218.275	174.39
218.492	222.83
218.71	233.38
218.928	248.51
219.146	335.79
219.363	252.32
219.581	267.76
219.799	230.13
220.017	185.87
220.234	186.73
220.452	205.83
220.67	228.82
220.887	344.58
221.105	430.97
221.323	5541.1
221.54	399.01
221.758	2148.57
221.976	800.9
222.193	192.89
222.411	302.7
222.629	494.4
222.846	570.98
223.064	-595.3
223.281	658.81
223.499	440.73
223.716	714.37
223.934	-572.67
224.151	-223.15
224.369	-138.14
224.586	-67.5
224.804	-25.07
225.021	-18.63
225.239	-16.88
225.456	-1.87
225.674	-1.21
225.891	-13.84
226.108	-41.93
226.326	-45.39
226.543	10.49
226.76	30.42
226.978	24.4
227.195	22.43
227.413	0.82
227.63	3.6
227.847	3.6
228.064	6.99
228.282	7.61
228.499	8.73
228.716	5.77
228.934	0.71
229.151	-2.98
229.368	-4.61
229.585	-5.38
229.802	-3.71
230.02	-5.28
230.237	-6.26
230.454	-4.38
230.671	-3.04
230.888	-5.61
231.105	-2.51
231.323	-3.67
231.54	-7.64
231.757	-9.88
231.974	-15.13
232.191	-16.04
232.408	-13.28
232.625	-13.69
232.842	-20.74
233.059	-18.14
233.276	-17.28
233.493	-28.95
233.71	-15.66
233.927	-2.81
234.144	-3.49
234.361	-2.7
234.578	-1.97
234.795	-1.47
235.012	-6.46
235.229	-7.49
235.446	-10.05
235.663	-6.24
235.879	-1.04
236.096	-7.85
236.313	-16.39
236.53	-11
236.747	-7.25
236.964	-7.34
237.181	-13.28
237.397	-10.62
237.614	-8.37
237.831	-10.22
238.048	-9.34
238.264	-15.46
238.481	-14.78
238.698	-6.13
238.915	-2.64
239.131	-1.81
239.348	1.46
239.565	5.89
239.781	10.02
239.998	6.6
240.215	3.65
240.431	0.76
240.648	8.45
240.865	9.17
241.081	8.78
241.298	9.24
241.514	7.2
241.731	7.89
241.947	8.55
242.164	7.41
242.38	10.85
242.597	12.1
242.814	14.01
243.03	11.59
243.246	11.28
243.463	10.07
243.679	7.91
243.896	9.63
244.112	7.44
244.329	6.33
244.545	8.46
244.762	5.53
244.978	6
245.194	3.14
245.411	2.42
245.627	2.99
245.843	3
246.06	3.81
246.276	3.89
246.492	5.78
246.709	5.22
246.925	5.51
247.141	6.32
247.357	6.96
247.574	7.14
247.79	8.22
248.006	9.15
248.222	9.63
248.439	9.89
248.655	9.75
248.871	9.76
249.087	10.9
249.303	9.41
249.519	9.11
249.736	8.47
249.952	9.37
250.168	9.69
250.384	7.87
250.6	8.15
250.816	5.79
251.032	5.28
251.248	5.5
251.464	3.8
251.68	3
251.896	1.16
252.112	0.11
252.328	-1.34
252.544	-4.11
252.76	-6.46
252.976	-8.28
253.192	-6.01
253.408	-5.08
253.624	-5.17
253.84	-3.82
254.056	-2.6
254.272	-2.06
254.487	-3.59
254.703	-1.06
254.919	-5.9
255.135	-3.71
255.351	-2.11
255.567	-0.56
255.782	-2.24
255.998	0.38
256.214	0.26
256.43	4.54
256.646	4.28
256.861	5.29
257.077	-1.19
257.293	6.22
257.508	8.64
257.724	8.78
257.94	8.97
258.155	8.36
258.371	6.01
258.587	4.87
258.802	3.39
259.018	5.6
259.234	6.15
259.449	7.35
259.665	6.59
259.88	5.85
260.096	5.77
260.312	5.92
260.527	6.12
260.743	6.23
260.958	6.37
261.174	6.75
261.389	6.34
261.605	6.47
261.82	6.79
262.036	6.21
262.251	6.65
262.466	6.64
262.682	5.13
262.897	5.9
263.113	6
263.328	7.92
263.543	5.31
263.759	2.92
263.974	1.08
264.189	-0.66
264.405	-0.69
264.62	0.59
264.835	1.58
265.051	2.31
265.266	1.31
265.481	1.07
265.696	-0.45
265.912	2.72
266.127	3.68
266.342	5.42
266.557	6.38
266.773	6.28
266.988	5.99
267.203	4.94
267.418	4.54
267.633	6.02
267.848	5.91
268.064	6.39
268.279	5.85
268.494	6.01
268.709	6.77
268.924	8.19
269.139	7.07
269.354	7.17
269.569	7.79
269.784	9.43
269.999	8.64
270.214	8.86
270.429	7.87
270.644	8.13
270.859	7.79
271.074	6.15
271.289	4.68
271.504	6.13
271.719	6.17
271.934	4.37
272.149	5.08
272.363	5.81
272.578	6.3
272.793	6.34
273.008	5.16
273.223	5.49
273.438	5.24
273.653	7.06
273.867	5.98
274.082	5.57
274.297	6.89
274.512	4.1
274.726	2.26
274.941	1.94
275.156	2.51
275.371	4.86
275.585	6.3
275.8	7.81
276.015	6.33
276.229	8.04
276.444	7.07
276.659	6.81
276.873	8.12
277.088	8.28
277.302	7.61
277.517	8.1
277.732	6.75
277.946	6.04
278.161	4.11
278.375	3.72
278.59	5.59
278.804	6.21
279.019	7.61
279.233	8.37
279.448	8.33
279.662	7.73
279.877	7.82
280.091	8.83
280.306	8.17
280.52	8.97
280.735	10.11
280.949	8.41
281.163	7.67
281.378	7.48
281.592	7.72
281.806	8.23
282.021	8.95
282.235	9.19
282.449	8.28
282.664	8.7
282.878	8.91
283.092	7.55
283.307	7.16
283.521	8.29
283.735	8.14
283.949	8.3
284.164	9.25
284.378	10.48
284.592	9.96
284.806	10.3
285.02	10.23
285.234	10
285.449	10.46
285.663	11.77
285.877	10.8
286.091	10.14
286.305	9.25
286.519	9.04
286.733	8.2
286.947	7.97
287.161	8.32
287.375	7.87
287.589	8.04
287.803	8.23
288.017	7.4
288.231	8.46
288.445	8.88
288.659	9.01
288.873	7.86
289.087	7.54
289.301	7.6
289.515	7.22
289.729	6.83
289.943	6.02
290.157	5.14
290.371	5.63
290.584	4.31
290.798	4.08
291.012	4.85
291.226	5.97
291.44	6.3
291.654	5.56
291.867	5.96
292.081	7.62
292.295	8.29
292.509	8.56
292.722	7.48
292.936	8.51
293.15	10.01
293.364	10.24
293.577	9.59
293.791	9.39
294.005	10.7
294.218	10.56
294.432	9.25
294.645	9.3
294.859	10.51
295.073	10.45
295.286	9.7
295.5	9.3
295.713	8.13
295.927	8.19
296.14	9.09
296.354	8.73
296.568	8.16
296.781	8.66
296.994	8.87
297.208	8.1
297.421	8.78
297.635	9.24
297.848	9.71
298.062	9.68
298.275	9.87
298.489	9.71
298.702	10.09
298.915	10.9
299.129	10.95
299.342	11.07
299.555	11.26
299.769	11.3
299.982	11.81
300.195	10.6
300.409	12.1
300.622	11.47
300.835	10.99
301.048	11.13
301.262	10.49
301.475	10.08
301.688	10.09
301.901	10.46
302.115	9.63
302.328	9.51
302.541	10.68
302.754	10.08
302.967	10.72
303.18	11.25
303.393	11.61
303.607	12.43
303.82	12.22
304.033	12.86
304.246	12.77
304.459	13.77
304.672	14.05
304.885	13.64
305.098	13.64
305.311	13.18
305.524	12.21
305.737	11.27
305.95	11.01
306.163	11.22
306.376	10.15
306.589	10.73
306.802	7.91
307.015	7.7
307.228	8.22
307.44	8.69
307.653	9.72
307.866	9.91
308.079	9.55
308.292	10.68
308.505	11.47
308.718	12.22
308.93	12.49
309.143	13.8
309.356	12.5
309.569	12.74
309.781	12.86
309.994	13.02
310.207	13.47
310.42	13.93
310.632	13.37
310.845	13.1
311.058	13.77
311.27	13.45
311.483	14.19
311.696	16.35
311.908	15.81
312.121	14.75
312.333	14.11
312.546	14.45
312.759	14.76
312.971	15.33
313.184	15.29
313.396	14.66
313.609	15.01
313.821	14.83
314.034	13.12
314.246	13.26
314.459	14.33
314.671	14.76
314.884	14.33
315.096	13.89
315.309	11.98
315.521	12.22
315.733	12.04
315.946	11.14
316.158	12.04
316.371	13.19
316.583	12.71
316.795	13.16
317.008	13.28
317.22	14.88
317.432	14.75
317.644	14.72
317.857	16.38
318.069	16.3
318.281	17.32
318.494	15.55
318.706	14.25
318.918	14.64
319.13	14.14
319.342	14.82
319.555	13.95
319.767	14.7
319.979	14.39
320.191	14.12
320.403	14.42
320.615	13.66
320.827	13.68
321.039	14.07
321.252	15.74
321.464	16.99
321.676	16.71
321.888	15.99
322.1	15.48
322.312	17.63
322.524	16.58
322.736	16.82
322.948	16.94
323.16	18.18
323.372	18.92
323.584	17.21
323.796	15.73
324.007	16.07
324.219	17.08
324.431	17.89
324.643	16.82
324.855	16.63
325.067	17.25
325.279	16.91
325.491	17.74
325.702	16.68
325.914	16.95
326.126	17.11
326.338	16.97
326.55	17.25
326.761	17.25
326.973	17.8
327.185	18.99
327.396	18.82
327.608	19.45
327.82	18.77
328.032	19.79
328.243	20.5
328.455	22.39
328.666	23.17
328.878	23.5
329.09	23.44
329.301	23.79
329.513	23.24
329.725	22.54
329.936	22.8
330.148	22.74
330.359	22.39
330.571	22.82
330.782	22.56
330.994	22.13
331.205	22.15
331.417	21.85
331.628	22.33
331.84	21.63
332.051	21.76
332.262	22.2
332.474	22.98
332.685	24.36
332.897	24.69
333.108	24.15
333.319	25.14
333.531	23.88
333.742	24.8
333.953	25.14
334.165	25.87
334.376	27.13
334.587	28.43
334.799	28.58
335.01	28.21
335.221	28.21
335.432	29.6
335.644	29.65
335.855	30.81
336.066	30.54
336.277	30.34
336.488	30.64
336.7	29.94
336.911	28.97
337.122	28.7
337.333	28.68
337.544	28.57
337.755	26.88
337.966	25.91
338.177	26.8
338.388	26.9
338.599	27.02
338.811	27.03
339.022	27.75
339.233	27.57
339.444	26.86
339.655	26.49
339.866	26
340.076	26.33
340.287	27.43
340.498	26.2
340.709	25.79
340.92	26.36
341.131	26.07
341.342	25.91
341.553	25.81
341.764	26.87
341.975	26.93
342.185	27.22
342.396	27.28
342.607	26.89
342.818	26.43
343.029	26.8
343.239	26.37
343.45	26.74
343.661	26.54
343.872	27.26
344.082	26.92
344.293	27.17
344.504	27.09
344.714	27.45
344.925	27.32
345.136	28.69
345.346	28.77
345.557	28.99
345.768	29.6
345.978	28.61
346.189	28.35
346.399	28.45
346.61	28.61
346.821	28.99
347.031	29.18
347.242	29.09
347.452	27.96
347.663	27.96
347.873	28.11
348.084	26.8
348.294	27.47
348.504	27.53
348.715	27.59
348.925	27.64
349.136	26.65
349.346	26.5
349.557	26.72
349.767	26.47
349.977	26.59
350.188	25.37
350.398	26.33
350.608	26.63
350.819	26.46
351.029	26.75
351.239	25.55
351.449	25.83
351.66	25.71
351.87	25.6
352.08	26.25
352.29	26.53
352.501	27.62
352.711	27.17
352.921	27.23
353.131	28.09
353.341	27.46
353.552	28.13
353.762	28.31
353.972	28.3
354.182	28.04
354.392	27.22
354.602	26.66
354.812	26.67
355.022	26.5
355.232	26.61
355.442	25.71
355.652	25.97
355.862	25.87
356.072	25.51
356.282	25.17
356.492	25.81
356.702	26.31
356.912	26.19
357.122	25.86
357.332	25.83
357.542	25.48
357.752	25.48
357.962	25.43
358.171	25.62
358.381	26.31
358.591	26.34
358.801	25.77
359.011	25.56
359.221	26.03
359.43	26.1
359.64	26.16
359.85	26.29
360.06	26.18
360.269	25.91
360.479	26.17
360.689	25.66
360.899	25.69
361.108	25.78
361.318	26.2
361.528	26.05
361.737	25.91
361.947	25.71
362.156	25.6
362.366	25.37
362.576	25.27
362.785	25.26
362.995	25.8
363.204	25.56
363.414	25.51
363.623	25.2
363.833	24.7
364.042	24.4
364.252	24.88
364.461	24.97
364.671	25.66
364.88	25.35
365.09	25.02
365.299	24.5
365.509	25.03
365.718	24.75
365.927	24.25
366.137	24.35
366.346	24.56
366.555	24.05
366.765	23.8
366.974	23.65
367.183	23.19
367.393	23.12
367.602	22.94
367.811	22.67
368.021	22.66
368.23	22.89
368.439	22.84
368.648	22.76
368.857	22.4
369.067	22.42
369.276	21.63
369.485	22.19
369.694	22.25
369.903	22.53
370.112	22.88
370.321	23.17
370.531	22.73
370.74	22.83
370.949	22.68
371.158	23.12
371.367	22.71
371.576	22.7
371.785	22.89
371.994	22.59
372.203	22.45
372.412	21.82
372.621	21.33
372.83	21.72
373.039	21.26
373.248	21.72
373.457	21.49
373.666	21.67
373.874	21.74
374.083	21.41
374.292	21.36
374.501	21.19
374.71	20.88
374.919	21.54
375.128	21.6
375.336	22.4
375.545	21.78
375.754	21.81
375.963	21.98
376.171	21.65
376.38	21.67
376.589	21.77
376.798	21.57
377.006	21.98
377.215	21.18
377.424	20.93
377.632	20.16
377.841	19.92
378.05	19.25
378.258	19.1
378.467	19.39
378.675	19.5
378.884	18.56
379.093	18.5
379.301	18.21
379.51	18.12
379.718	17.81
379.927	18.05
380.135	18.34
380.344	18.46
380.552	17.98
380.761	18.02
380.969	18.31
381.177	19.05
381.386	19.06
381.594	19.33
381.803	19.44
382.011	19.2
382.219	19.53
382.428	19.46
382.636	19.7
382.845	19.84
383.053	19.42
383.261	19.07
383.469	18.92
383.678	18.69
383.886	18.51
384.094	18.59
384.302	18.61
384.511	18.04
384.719	17.78
384.927	17.8
385.135	17.55
385.343	17.62
385.552	17.54
385.76	16.81
385.968	16.17
386.176	15.81
386.384	15.63
386.592	15.65
386.8	15.16
387.008	15.34
387.216	15.33
387.424	15.24
387.633	15.1
387.841	14.82
388.049	15.44
388.257	15.8
388.465	15.52
388.672	15.36
388.88	15.55
389.088	16.23
389.296	15.81
389.504	15.19
389.712	15.36
389.92	15.4
390.128	15.35
390.336	15.24
390.544	15.27
390.751	15.29
390.959	15.08
391.167	14.86
391.375	14.54
391.583	14.61
391.79	14.9
391.998	14.99
392.206	14.81
392.414	14.54
392.621	14.01
392.829	14.1
393.037	14.2
393.244	14.49
393.452	14.13
393.66	14.12
393.867	13.86
394.075	13.79
394.283	13.58
394.49	13.43
394.698	13.22
394.905	13.58
395.113	13.32
395.32	13.27
395.528	13.21
395.735	13.43
395.943	13.41
396.15	13.56
396.358	13.32
396.565	13.29
396.773	13.39
396.98	13.6
397.188	13.62
397.395	13.77
397.602	13.65
397.81	13.34
398.017	13.12
398.225	13.23
398.432	13.29
398.639	13.34
398.847	13.6
399.054	13.74
399.261	13.72
399.468	13.45
399.676	13.34
399.883	13.37
400.09	13.26
400.297	13.52
400.505	12.92
400.712	12.77
400.919	12.44
401.126	11.86
401.333	11.71
401.54	11.8
401.748	11.87
401.955	11.93
402.162	11.95
402.369	12.15
402.576	12.04
402.783	12.36
402.99	12.29
403.197	12.55
403.404	12.61
403.611	12.17
403.818	12.1
404.025	11.97
404.232	11.85
404.439	11.91
404.646	11.76
404.853	11.62
405.06	11.62
405.267	11.52
405.474	11.47
405.681	11.53
405.887	11.58
406.094	11.45
406.301	11.55
406.508	11.6
406.715	11.41
406.922	11.39
407.128	11.66
407.335	11.68
407.542	11.85
407.749	11.87
407.955	11.6
408.162	12.3
408.369	12.53
408.575	12.48
408.782	12.26
408.989	12.21
409.195	12.52
409.402	11.99
409.609	11.87
409.815	11.59
410.022	11.64
410.228	12.02
410.435	11.67
410.642	11.78
410.848	11.57
411.055	11.52
411.261	11.46
411.468	11
411.674	11.45
411.881	11.39
412.087	11.31
412.294	11.58
412.5	11.38
412.706	11.11
412.913	10.74
413.119	11.08
413.326	11.33
413.532	11.8
413.738	12.25
413.945	12.03
414.151	12
414.357	12.23
414.564	12.02
414.77	11.88
414.976	12.09
415.182	12.13
415.389	12.07
415.595	11.91
415.801	11.63
416.007	11.42
416.214	11.28
416.42	11.28
416.626	11.25
416.832	11.22
417.038	11.33
417.244	11.33
417.45	11.52
417.657	11.33
417.863	11.31
418.069	11.32
418.275	11.11
418.481	11.2
418.687	11.11
418.893	11.23
419.099	11.19
419.305	11.01
419.511	11.02
419.717	10.86
419.923	10.91
420.129	10.92
420.335	10.84
420.541	11.13
420.746	11.15
420.952	11.25
421.158	11.16
421.364	10.98
421.57	11.12
421.776	11.08
421.982	10.99
422.187	10.93
422.393	10.95
422.599	11.01
422.805	10.94
423.01	11.11
423.216	11.11
423.422	11.11
423.628	11.37
423.833	11.4
424.039	11.42
424.245	11.54
424.45	11.6
424.656	11.6
424.862	11.57
425.067	11.56
425.273	11.33
425.478	11.31
425.684	11.35
425.889	11.11
426.095	11.23
426.301	11.09
426.506	11.17
426.712	11.1
426.917	11.22
427.123	11.33
427.328	11.39
427.533	11.46
427.739	11.47
427.944	11.43
428.15	11.56
428.355	11.23
428.561	11.38
428.766	11.28
428.971	11.35
429.177	11.41
429.382	11.27
429.587	11.06
429.793	10.96
429.998	11
430.203	10.94
430.408	11.11
430.614	11.18
430.819	11.25
431.024	11.25
431.229	11.41
431.434	10.94
431.64	10.91
431.845	11.02
432.05	11.02
432.255	11.05
432.46	11.04
432.665	10.79
432.87	10.75
433.076	10.75
433.281	10.58
433.486	10.55
433.691	10.63
433.896	10.76
434.101	10.65
434.306	10.57
434.511	10.42
434.716	10.46
434.921	10.79
435.126	10.6
435.331	10.61
435.535	10.91
435.74	10.81
435.945	11.03
436.15	10.87
436.355	10.9
436.56	10.91
436.765	11.03
436.97	11.02
437.174	10.85
437.379	10.98
437.584	11.03
437.789	10.9
437.993	10.99
438.198	10.92
438.403	10.95
438.608	10.89
438.812	11.06
439.017	10.97
439.222	11.19
439.426	11.14
439.631	11.29
439.836	11.22
440.04	11.24
440.245	11.21
440.45	11.21
440.654	11.22
440.859	11.22
441.063	11.18
441.268	11.15
441.472	10.84
441.677	10.83
441.881	10.76
442.086	10.76
442.29	10.55
442.495	10.68
442.699	10.59
442.904	10.56
443.108	10.6
443.312	10.55
443.517	10.58
443.721	10.44
443.925	10.35
444.13	10.28
444.334	10.43
444.538	10.75
444.743	10.61
444.947	10.62
445.151	10.52
445.356	10.6
445.56	10.77
445.764	10.92
445.968	11.09
446.173	11.19
446.377	11.12
446.581	10.99
446.785	10.82
446.989	10.8
447.193	10.94
447.398	11.02
447.602	11.09
447.806	10.97
448.01	10.86
448.214	10.93
448.418	10.68
448.622	10.62
448.826	10.51
449.03	10.55
449.234	10.48
449.438	10.32
449.642	10.22
449.846	9.98
450.05	10.01
450.254	10.04
450.458	9.83
450.662	10.2
450.866	10.45
451.069	10.71
451.273	10.65
451.477	10.76
451.681	10.66
451.885	10.89
452.089	10.88
452.292	10.76
452.496	10.64
452.7	10.75
452.904	10.68
453.107	10.56
453.311	10.49
453.515	10.47
453.719	10.47
453.922	10.47
454.126	10.33
454.33	10.31
454.533	10.21
454.737	10.19
454.94	10.31
455.144	10.37
455.348	10.41
455.551	10.39
455.755	10.44
455.958	10.38
456.162	10.5
456.365	10.64
456.569	10.76
456.772	10.94
456.976	10.94
457.179	10.76
457.383	10.67
457.586	10.76
457.79	10.8
457.993	10.77
458.196	10.69
458.4	10.85
458.603	10.71
458.807	10.73
459.01	10.73
459.213	10.88
459.417	10.98
