Data from CB_104_Reflection_3.txt Node
Date: Sat Nov 14 17:56:49 EST 2015
User: robert
Spectrometer: USB4E03001
Autoset integration time: false
Trigger mode: 4
Integration Time (sec): 1.000000E-1
Scans to average: 15
Electric dark correction enabled: true
Nonlinearity correction enabled: false
Boxcar width: 5
Stray light correction enabled: false
XAxis mode: Wavelengths
Stop averaging: false
Number of Pixels in Spectrum: 3648
>>>>>Begin Spectral Data<<<<<
177.566	68.98
177.785	155.67
178.005	7.26
178.225	-173.47
178.445	2424.21
178.665	-189.07
178.885	-452.58
179.105	18.14
179.324	-29.63
179.544	24.93
179.764	48.8
179.984	43.97
180.204	27.32
180.423	54.12
180.643	56.86
180.863	95.47
181.083	69.37
181.302	102.26
181.522	114.01
181.742	88.25
181.961	100.86
182.181	117.06
182.401	298.56
182.621	168.95
182.84	32.81
183.06	-44.27
183.279	-70.51
183.499	-141.06
183.719	-256.37
183.938	-128.67
184.158	-44.08
184.377	-5.85
184.597	-42.73
184.816	-1.56
185.036	20.3
185.256	36.87
185.475	59.73
185.695	56.22
185.914	53.95
186.134	58.39
186.353	56.23
186.572	41.22
186.792	38.84
187.011	47.62
187.231	24.87
187.45	26.8
187.67	29.03
187.889	36.89
188.108	45.42
188.328	54.25
188.547	61.41
188.766	69.89
188.986	60.94
189.205	65.61
189.424	62.96
189.644	73.74
189.863	83.08
190.082	88.44
190.302	53.65
190.521	28.26
190.74	4.12
190.959	-33.09
191.178	-29.18
191.398	-52.02
191.617	-74.81
191.836	-100.37
192.055	-63.52
192.274	-96.05
192.494	-84.76
192.713	-205.63
192.932	-205.13
193.151	-310.68
193.37	-130.26
193.589	-172.32
193.808	-212.94
194.027	-590.15
194.246	2170.04
194.465	-3106.54
194.685	-239.92
194.904	-209.86
195.123	-102.88
195.342	-145.43
195.561	-47.85
195.78	-52.26
195.999	-24.6
196.218	-11.65
196.436	0.58
196.655	17.11
196.874	7.15
197.093	23.02
197.312	12.19
197.531	15.56
197.75	31.53
197.969	29.74
198.188	24.48
198.407	18.91
198.625	17.65
198.844	35.11
199.063	40.61
199.282	45.67
199.501	29.25
199.719	44.44
199.938	45.34
200.157	28.24
200.376	33.26
200.594	46.5
200.813	52.45
201.032	42.08
201.251	24.75
201.469	19.01
201.688	35.87
201.907	30.95
202.125	2.13
202.344	22.01
202.563	44.99
202.781	17.47
203	36.49
203.218	81.21
203.437	59.42
203.656	67
203.874	54.01
204.093	47.14
204.311	47.9
204.53	65.33
204.748	43.46
204.967	43.42
205.185	90.19
205.404	71.58
205.622	47.85
205.841	58.93
206.059	46.3
206.278	47.96
206.496	38.76
206.715	54.47
206.933	44.98
207.151	44.01
207.37	44.39
207.588	21.67
207.806	31.95
208.025	40.42
208.243	52.2
208.461	80.83
208.68	85.46
208.898	79.88
209.116	63.86
209.335	71.88
209.553	70.15
209.771	67.9
209.989	61.45
210.208	40.85
210.426	26.76
210.644	13.43
210.862	-9.28
211.081	-9.56
211.299	2.88
211.517	13.37
211.735	4.48
211.953	25.8
212.171	24.14
212.39	22.93
212.608	36.37
212.826	40.5
213.044	39.03
213.262	46.6
213.48	47.23
213.698	32.82
213.916	23.16
214.134	20.44
214.352	14.52
214.57	23.76
214.788	30.62
215.006	17.7
215.224	18.33
215.442	17.85
215.66	28.34
215.878	-9.51
216.096	-17.7
216.314	30.25
216.532	50.6
216.75	55.46
216.968	44.69
217.185	38.81
217.403	55.54
217.621	36.9
217.839	60.17
218.057	63.79
218.275	94.81
218.492	127.21
218.71	124.96
218.928	116.55
219.146	110.24
219.363	87.97
219.581	92.44
219.799	79.13
220.017	96.04
220.234	85.98
220.452	96.47
220.67	114.29
220.887	196.92
221.105	206.63
221.323	2247.24
221.54	238.48
221.758	783.57
221.976	321.64
222.193	141.14
222.411	162.95
222.629	165.75
222.846	293.26
223.064	-164.16
223.281	188.64
223.499	210.03
223.716	513.17
223.934	-299.33
224.151	-134.37
224.369	-94.74
224.586	-35.82
224.804	-3.15
225.021	-17.25
225.239	-16.88
225.456	-36.45
225.674	-33.1
225.891	-30.82
226.108	-39.05
226.326	-56.67
226.543	-33.24
226.76	-9.18
226.978	-11.35
227.195	-33.16
227.413	-29.99
227.63	-12.97
227.847	-5.42
228.064	2.86
228.282	5.67
228.499	4.6
228.716	4.73
228.934	5.19
229.151	5.58
229.368	7.62
229.585	7.97
229.802	8.59
230.02	7.91
230.237	9.83
230.454	10.74
230.671	10.99
230.888	13.63
231.105	12.6
231.323	10.73
231.54	3.36
231.757	-0.65
231.974	-2.12
232.191	-1.43
232.408	-1.83
232.625	-2.89
232.842	-4.64
233.059	0.01
233.276	-2.13
233.493	3.78
233.71	10.15
233.927	18
234.144	16.27
234.361	13.96
234.578	14.04
234.795	19.7
235.012	11.09
235.229	4.96
235.446	0.93
235.663	4.69
235.879	2.17
236.096	-0.21
236.313	-0.27
236.53	3.56
236.747	8.93
236.964	6.61
237.181	2
237.397	5.03
237.614	9.63
237.831	9.68
238.048	2.21
238.264	-0.94
238.481	-1.72
238.698	0.51
238.915	4.85
239.131	6.57
239.348	5.39
239.565	0.92
239.781	6.67
239.998	8.82
240.215	9.93
240.431	11.02
240.648	15.18
240.865	15.54
241.081	16.15
241.298	14.99
241.514	12.77
241.731	14.87
241.947	15.66
242.164	14.35
242.38	15.74
242.597	15.14
242.814	17.43
243.03	16.3
243.246	15.91
243.463	16.09
243.679	14.54
243.896	16.39
244.112	14.34
244.329	13.87
244.545	15.83
244.762	14.1
244.978	16.31
245.194	12.54
245.411	11.16
245.627	12.09
245.843	9.42
246.06	10.01
246.276	9.28
246.492	11.5
246.709	11.05
246.925	9.87
247.141	8.93
247.357	8.2
247.574	9.32
247.79	9.48
248.006	9.62
248.222	10.31
248.439	10.01
248.655	8.86
248.871	8.45
249.087	9.07
249.303	8.71
249.519	10.17
249.736	9.08
249.952	7.63
250.168	8.7
250.384	6.15
250.6	5.47
250.816	7.13
251.032	8.34
251.248	5.31
251.464	2.94
251.68	4.02
251.896	3.57
252.112	3.4
252.328	3.93
252.544	2.55
252.76	2.62
252.976	1.46
253.192	0.08
253.408	2.83
253.624	4.2
253.84	7.13
254.056	8.08
254.272	8.02
254.487	9.86
254.703	10.61
254.919	11.47
255.135	11.69
255.351	10.76
255.567	12.84
255.782	9.95
255.998	11.6
256.214	7.48
256.43	9.36
256.646	5.7
256.861	6.4
257.077	3.93
257.293	4.15
257.508	7.34
257.724	8.48
257.94	9.26
258.155	8.91
258.371	8.35
258.587	7.98
258.802	8.12
259.018	9.6
259.234	9.52
259.449	9.22
259.665	9.44
259.88	9.09
260.096	9.45
260.312	9.51
260.527	9.78
260.743	9.57
260.958	9.64
261.174	9.32
261.389	9.45
261.605	9.32
261.82	9.42
262.036	9.12
262.251	8.8
262.466	8.43
262.682	8.28
262.897	7.99
263.113	9.4
263.328	11.78
263.543	10.26
263.759	7.89
263.974	7.24
264.189	6.67
264.405	5.64
264.62	5.1
264.835	6.49
265.051	6.94
265.266	6.8
265.481	5.81
265.696	4
265.912	6.28
266.127	8.22
266.342	9.64
266.557	11.75
266.773	11.47
266.988	11.55
267.203	10.99
267.418	10.28
267.633	10.38
267.848	9.62
268.064	9.35
268.279	8.28
268.494	7.71
268.709	7.65
268.924	8.65
269.139	8.4
269.354	8.28
269.569	8.88
269.784	7.64
269.999	6.73
270.214	7.88
270.429	6.51
270.644	6.52
270.859	6.99
271.074	6.01
271.289	3.36
271.504	5.48
271.719	6.29
271.934	4.85
272.149	6.87
272.363	6.73
272.578	7.5
272.793	8.14
273.008	6.7
273.223	6.98
273.438	6
273.653	7.6
273.867	6.64
274.082	5.62
274.297	5.94
274.512	3.55
274.726	3.29
274.941	1.81
275.156	2.33
275.371	3.99
275.585	3.56
275.8	5.66
276.015	5.06
276.229	4.49
276.444	5.26
276.659	5.47
276.873	6.76
277.088	7.74
277.302	7.42
277.517	8.31
277.732	7.93
277.946	8.03
278.161	6.21
278.375	5.96
278.59	6.75
278.804	6.51
279.019	5.88
279.233	5.79
279.448	5.95
279.662	5.8
279.877	5.82
280.091	7.99
280.306	8.68
280.52	9.79
280.735	10.21
280.949	10.37
281.163	10.15
281.378	10.37
281.592	10.36
281.806	10.16
282.021	10.57
282.235	10.5
282.449	9.66
282.664	10.17
282.878	11.6
283.092	11.43
283.307	10.72
283.521	10.98
283.735	10.91
283.949	10.88
284.164	11.71
284.378	12.77
284.592	12.38
284.806	12.23
285.02	11.27
285.234	9.83
285.449	9.83
285.663	10.92
285.877	11.65
286.091	11.46
286.305	11.51
286.519	10.52
286.733	9.83
286.947	9.8
287.161	9.53
287.375	9.92
287.589	11.02
287.803	11.24
288.017	11.24
288.231	10.57
288.445	11.38
288.659	10.74
288.873	10.91
289.087	11.32
289.301	10.78
289.515	11.06
289.729	9.66
289.943	7.7
290.157	6.9
290.371	6.3
290.584	6.06
290.798	5.29
291.012	6.46
291.226	5.75
291.44	5.24
291.654	5.12
291.867	5.69
292.081	7.45
292.295	8.79
292.509	9.26
292.722	9.61
292.936	9.95
293.15	11.52
293.364	11.13
293.577	12.21
293.791	12.27
294.005	13.43
294.218	12.5
294.432	11.22
294.645	10.91
294.859	12.4
295.073	12.16
295.286	11.74
295.5	12.09
295.713	11.88
295.927	12.32
296.14	12.1
296.354	11.66
296.568	11.97
296.781	12.43
296.994	12.57
297.208	10.82
297.421	11.14
297.635	10.55
297.848	10.08
298.062	10.2
298.275	10.73
298.489	10.67
298.702	11.83
298.915	12.1
299.129	12.06
299.342	12.42
299.555	13.26
299.769	13.56
299.982	14.4
300.195	14.05
300.409	14.32
300.622	13.41
300.835	13.34
301.048	10.92
301.262	9.46
301.475	8.55
301.688	7.22
301.901	7.53
302.115	6.01
302.328	6.2
302.541	6.26
302.754	5.36
302.967	5.28
303.18	5.36
303.393	6.03
303.607	6.19
303.82	7.16
304.033	7.62
304.246	7.31
304.459	8.35
304.672	9.78
304.885	9.87
305.098	10.94
305.311	10.52
305.524	10.62
305.737	10.55
305.95	11.62
306.163	10.75
306.376	11.13
306.589	11.8
306.802	10.83
307.015	8.3
307.228	8.46
307.44	8.73
307.653	9.68
307.866	9.92
308.079	10.11
308.292	10.38
308.505	11.51
308.718	11.95
308.93	11.61
309.143	11.37
309.356	11.41
309.569	11.72
309.781	11.95
309.994	11.82
310.207	11.25
310.42	11.04
310.632	9.88
310.845	9.37
311.058	9.63
311.27	10.47
311.483	11.2
311.696	12.48
311.908	11.91
312.121	11.51
312.333	11.56
312.546	12.4
312.759	12.62
312.971	13.65
313.184	13.83
313.396	13.09
313.609	12.06
313.821	12.05
314.034	9.93
314.246	10.92
314.459	11.24
314.671	11.45
314.884	12.39
315.096	13.05
315.309	12.08
315.521	13.45
315.733	14.18
315.946	14.32
316.158	13.86
316.371	16.15
316.583	15.2
316.795	15.66
317.008	15.26
317.22	14.58
317.432	13.58
317.644	12.2
317.857	12.59
318.069	13.29
318.281	13.51
318.494	13.36
318.706	12.23
318.918	12.94
319.13	12.48
319.342	12.96
319.555	12.75
319.767	13.61
319.979	14.16
320.191	14.46
320.403	13.52
320.615	13.04
320.827	12.09
321.039	12.67
321.252	12.84
321.464	13.51
321.676	11.59
321.888	12.08
322.1	11.59
322.312	13.76
322.524	12.43
322.736	13.45
322.948	13.38
323.16	15.28
323.372	15.02
323.584	15.02
323.796	13.81
324.007	14.94
324.219	15.3
324.431	16.66
324.643	15.56
324.855	16.13
325.067	17.19
325.279	17.5
325.491	18.98
325.702	19.42
325.914	18.56
326.126	19.92
326.338	21.16
326.55	21.54
326.761	22.27
326.973	23.59
327.185	23.78
327.396	22.87
327.608	23.16
327.82	22.34
328.032	23.77
328.243	25.24
328.455	25.24
328.666	25.18
328.878	25.77
329.09	26.23
329.301	27.54
329.513	26.73
329.725	27.19
329.936	27.89
330.148	28.28
330.359	27.17
330.571	27.61
330.782	28.29
330.994	29.67
331.205	29.99
331.417	29.06
331.628	27.82
331.84	28.33
332.051	28.08
332.262	28.67
332.474	28.18
332.685	29.44
332.897	29.34
333.108	29.3
333.319	27.96
333.531	27.64
333.742	28.63
333.953	30.16
334.165	29.81
334.376	30.85
334.587	31.55
334.799	33.15
335.01	32.36
335.221	32.81
335.432	34.32
335.644	35.6
335.855	35.64
336.066	35.7
336.277	35.21
336.488	36.44
336.7	35.41
336.911	35.52
337.122	34.85
337.333	36.18
337.544	35.59
337.755	33.16
337.966	33.19
338.177	33.33
338.388	33.28
338.599	33.96
338.811	34.2
339.022	35.36
339.233	34.92
339.444	35.11
339.655	34.05
339.866	34.27
340.076	35.62
340.287	35.54
340.498	35.1
340.709	34.99
340.92	35.19
341.131	35.33
341.342	34.86
341.553	34.11
341.764	34.42
341.975	34.76
342.185	36.11
342.396	36.36
342.607	36.66
342.818	36.29
343.029	36.06
343.239	35.09
343.45	34.23
343.661	34.17
343.872	34.24
344.082	33.65
344.293	33.96
344.504	33.16
344.714	33.04
344.925	32.2
345.136	32.26
345.346	32.5
345.557	32.29
345.768	32.92
345.978	32.88
346.189	33.22
346.399	33.27
346.61	33.15
346.821	33.2
347.031	32.67
347.242	32.95
347.452	33.14
347.663	32.79
347.873	33.02
348.084	33.47
348.294	33.95
348.504	34.25
348.715	33.98
348.925	33.76
349.136	33.51
349.346	33.19
349.557	33.52
349.767	33.27
349.977	33.46
350.188	33.49
350.398	33.04
350.608	32.68
350.819	33.23
351.029	33.85
351.239	32.87
351.449	32.91
351.66	33.67
351.87	33.51
352.08	34.32
352.29	34.28
352.501	34.8
352.711	34.86
352.921	35.14
353.131	34.23
353.341	33.94
353.552	34.53
353.762	34.85
353.972	34.8
354.182	33.38
354.392	32.57
354.602	32.26
354.812	31.93
355.022	30.83
355.232	30.47
355.442	30.71
355.652	30.46
355.862	30.7
356.072	30.4
356.282	30.23
356.492	31.12
356.702	31.28
356.912	31.41
357.122	31.16
357.332	32.2
357.542	31.71
357.752	31.44
357.962	31.92
358.171	31.97
358.381	32.09
358.591	32.18
358.801	31.66
359.011	31.65
359.221	32.27
359.43	32.32
359.64	31.69
359.85	31.98
360.06	32.15
360.269	31.82
360.479	31.69
360.689	31.23
360.899	30.96
361.108	31.28
361.318	31.18
361.528	30.54
361.737	30.58
361.947	30.71
362.156	30.66
362.366	30.55
362.576	30.11
362.785	29.96
362.995	30.36
363.204	30.26
363.414	29.95
363.623	29.89
363.833	29.57
364.042	29.27
364.252	29.71
364.461	29.78
364.671	30.27
364.88	29.96
365.09	30.07
365.299	29.41
365.509	29.08
365.718	28.94
365.927	28.59
366.137	28.57
366.346	28.4
366.555	27.7
366.765	27.34
366.974	26.67
367.183	26.61
367.393	26.39
367.602	26.87
367.811	27.31
368.021	26.93
368.23	26.96
368.439	26.83
368.648	27.3
368.857	26.76
369.067	26.72
369.276	26.45
369.485	26.66
369.694	26.19
369.903	25.54
370.112	25.52
370.321	26.98
370.531	26.79
370.74	26.82
370.949	26.29
371.158	26.8
371.367	26.67
371.576	26.69
371.785	26.93
371.994	26.71
372.203	26.97
372.412	26.9
372.621	25.88
372.83	26.17
373.039	26.2
373.248	26.37
373.457	26.12
373.666	26.15
373.874	25.76
374.083	25.37
374.292	25.07
374.501	24.56
374.71	23.45
374.919	23.6
375.128	23.6
375.336	24.04
375.545	23.59
375.754	23.06
375.963	23.01
376.171	22.63
376.38	22.87
376.589	23.38
376.798	23.27
377.006	23.59
377.215	22.84
377.424	22.5
377.632	21.55
377.841	21.79
378.05	22.05
378.258	21.86
378.467	21.75
378.675	21.58
378.884	20.87
379.093	20.87
379.301	20.67
379.51	21.2
379.718	21.37
379.927	21.86
380.135	22.12
380.344	21.84
380.552	21.69
380.761	22.31
380.969	22.06
381.177	22.62
381.386	22.35
381.594	22.74
381.803	22
382.011	21.57
382.219	21.08
382.428	20.38
382.636	20.59
382.845	20.56
383.053	20.23
383.261	20.04
383.469	19.42
383.678	19.79
383.886	19.55
384.094	19.36
384.302	18.71
384.511	18.66
384.719	18.37
384.927	18.2
385.135	17.98
385.343	17.58
385.552	17.33
385.76	17.15
385.968	16.7
386.176	16.21
386.384	16.48
386.592	16.65
386.8	16.29
387.008	16.51
387.216	16.44
387.424	15.99
387.633	16.13
387.841	16.25
388.049	16.41
388.257	16.19
388.465	16
388.672	15.65
388.88	15.87
389.088	15.93
389.296	15.61
389.504	15.25
389.712	15.64
389.92	15.2
390.128	15.08
390.336	14.64
390.544	14.91
390.751	14.58
390.959	14.62
391.167	14.48
391.375	14.51
391.583	14.4
391.79	14.44
391.998	14.36
392.206	14.56
392.414	14.39
392.621	14.28
392.829	13.86
393.037	14.29
393.244	14.24
393.452	13.88
393.66	13.91
393.867	13.6
394.075	13.6
394.283	13.42
394.49	13.06
394.698	13.13
394.905	13.32
395.113	13.37
395.32	13.33
395.528	12.84
395.735	13.29
395.943	13.14
396.15	13.13
396.358	12.83
396.565	12.89
396.773	12.88
396.98	12.6
397.188	12.48
397.395	12.34
397.602	12.37
397.81	12.93
398.017	12.51
398.225	12.64
398.432	12.57
398.639	12.76
398.847	12.6
399.054	12.37
399.261	12.34
399.468	12.38
399.676	12.4
399.883	11.91
400.09	11.48
400.297	11.51
400.505	10.9
400.712	11.15
400.919	10.78
401.126	10.65
401.333	10.94
401.54	11.26
401.748	11.24
401.955	11.05
402.162	11.14
402.369	11.21
402.576	11.05
402.783	11.36
402.99	11.18
403.197	11.2
403.404	10.85
403.611	10.63
403.818	10.43
404.025	10.25
404.232	10.08
404.439	10.31
404.646	10.29
404.853	10.13
405.06	9.97
405.267	10.08
405.474	10.15
405.681	10.33
405.887	10.35
406.094	10.04
406.301	10.03
406.508	10.29
406.715	9.89
406.922	10.07
407.128	10.3
407.335	10.19
407.542	9.96
407.749	10.03
407.955	10
408.162	10.14
408.369	10.26
408.575	10.32
408.782	10.19
408.989	10.42
409.195	10.4
409.402	10.26
409.609	10.6
409.815	10.7
410.022	10.61
410.228	10.61
410.435	10.6
410.642	10.85
410.848	10.73
411.055	10.56
411.261	10.37
411.468	10.05
411.674	10.04
411.881	9.75
412.087	9.74
412.294	9.69
412.5	9.79
412.706	9.77
412.913	9.21
413.119	9.13
413.326	9.33
413.532	9.53
413.738	9.67
413.945	9.67
414.151	9.75
414.357	9.86
414.564	9.87
414.77	9.42
414.976	9.46
415.182	9.64
415.389	9.61
415.595	9.45
415.801	9.39
416.007	9.42
416.214	9.19
416.42	9.26
416.626	8.96
416.832	8.89
417.038	9.15
417.244	9.16
417.45	9.31
417.657	9.31
417.863	9.32
418.069	9.16
418.275	8.93
418.481	9.09
418.687	9.09
418.893	9.21
419.099	9.18
419.305	9.12
419.511	9.03
419.717	8.96
419.923	8.97
420.129	8.91
420.335	8.95
420.541	9.17
420.746	9.07
420.952	9.02
421.158	8.99
421.364	8.87
421.57	8.87
421.776	8.84
421.982	8.64
422.187	8.56
422.393	8.54
422.599	8.59
422.805	8.44
423.01	8.64
423.216	8.53
423.422	8.48
423.628	8.5
423.833	8.41
424.039	8.53
424.245	8.72
424.45	8.74
424.656	8.7
424.862	8.64
425.067	8.56
425.273	8.34
425.478	8.39
425.684	8.32
425.889	8.27
426.095	8.42
426.301	8.16
426.506	7.96
426.712	7.97
426.917	8.24
427.123	8.01
427.328	8.12
427.533	8.22
427.739	8.18
427.944	8.17
428.15	8.14
428.355	7.9
428.561	7.89
428.766	8.1
428.971	8.02
429.177	7.85
429.382	8.23
429.587	8.06
429.793	8.04
429.998	8.17
430.203	8.23
430.408	8.36
430.614	8.35
430.819	8.23
431.024	8.27
431.229	8.34
431.434	8.11
431.64	8.02
431.845	8.2
432.05	8.04
432.255	8.08
432.46	8.01
432.665	7.98
432.87	8.08
433.076	8.25
433.281	8.05
433.486	8.06
433.691	8.07
433.896	7.89
434.101	7.9
434.306	7.87
434.511	7.59
434.716	7.56
434.921	7.62
435.126	7.57
435.331	7.54
435.535	7.68
435.74	7.68
435.945	7.77
436.15	7.64
436.355	7.59
436.56	7.73
436.765	7.86
436.97	7.98
437.174	8.06
437.379	8
437.584	8.07
437.789	8.09
437.993	8.16
438.198	8.1
438.403	8.41
438.608	8.36
438.812	8.44
439.017	8.38
439.222	8.47
439.426	8.3
439.631	8.35
439.836	8.13
440.04	8.15
440.245	8.1
440.45	8.11
440.654	8
440.859	7.96
441.063	7.87
441.268	7.85
441.472	7.71
441.677	7.83
441.881	7.74
442.086	7.92
442.29	7.79
442.495	7.67
442.699	7.63
442.904	7.67
443.108	7.62
443.312	7.43
443.517	7.37
443.721	7.28
443.925	7.12
444.13	7.27
444.334	7.27
444.538	7.3
444.743	7.42
444.947	7.54
445.151	7.59
445.356	7.76
445.56	8.05
445.764	8.3
445.968	8.43
446.173	8.47
446.377	8.3
446.581	8.23
446.785	8.14
446.989	8.06
447.193	8.04
447.398	8.06
447.602	8.04
447.806	7.86
448.01	7.66
448.214	7.58
448.418	7.4
448.622	7.48
448.826	7.47
449.03	7.67
449.234	7.73
449.438	7.63
449.642	7.35
449.846	7.09
450.05	7.06
450.254	7.09
450.458	7.19
450.662	7.32
450.866	7.42
451.069	7.55
451.273	7.25
451.477	7.23
451.681	7.17
451.885	7.46
452.089	7.36
452.292	7.47
452.496	7.32
452.7	7.25
452.904	7.25
453.107	7.08
453.311	7.09
453.515	7.21
453.719	7.23
453.922	7.2
454.126	7.01
454.33	7.05
454.533	6.9
454.737	7.04
454.94	6.95
455.144	7.1
455.348	7.27
455.551	6.97
455.755	7
455.958	7.1
456.162	7.12
456.365	7.15
456.569	7.27
456.772	7.5
456.976	7.44
457.179	7.5
457.383	7.44
457.586	7.42
457.79	7.65
457.993	7.62
458.196	7.38
458.4	7.52
458.603	7.46
458.807	7.46
459.01	7.32
459.213	7.41
459.417	7.37
459.62	7.21
459.823	7.11
460.026	7.04
460.23	7.03
460.433	7.14
460.636	7.25
460.839	7.28
461.042	7.29
461.246	7.2
461.449	7.14
461.652	7.06
461.855	7.2
462.058	7.15
462.261	7.26
462.464	7.28
462.668	7.28
