Data from CB_112_Reflection_1.txt Node
Date: Sat Nov 14 18:18:20 EST 2015
User: robert
Spectrometer: USB4E03001
Autoset integration time: false
Trigger mode: 4
Integration Time (sec): 1.000000E-1
Scans to average: 15
Electric dark correction enabled: true
Nonlinearity correction enabled: false
Boxcar width: 5
Stray light correction enabled: false
XAxis mode: Wavelengths
Stop averaging: false
Number of Pixels in Spectrum: 3648
>>>>>Begin Spectral Data<<<<<
177.566	263.84
177.785	-2379.8
178.005	605.21
178.225	589.87
178.445	-414.74
178.665	165.8
178.885	570.1
179.105	99.27
179.324	137.83
179.544	66.01
179.764	60.88
179.984	71.38
180.204	49.35
180.423	47.11
180.643	57.97
180.863	19.17
181.083	28.29
181.302	35.41
181.522	49.63
181.742	46.67
181.961	74.76
182.181	110.34
182.401	168.4
182.621	157.1
182.84	170.8
183.06	53.92
183.279	19.49
183.499	46.91
183.719	-19.27
183.938	-32.77
184.158	18.36
184.377	10.07
184.597	5.3
184.816	40.11
185.036	35.57
185.256	40.71
185.475	63.18
185.695	72.62
185.914	58.69
186.134	60.5
186.353	61.96
186.572	48.32
186.792	50.24
187.011	56.33
187.231	58.32
187.45	67.4
187.67	60.01
187.889	58.98
188.108	57.63
188.328	63.26
188.547	75.44
188.766	78.92
188.986	83.52
189.205	87.26
189.424	72.62
189.644	87.9
189.863	97
190.082	105.18
190.302	94.42
190.521	67.85
190.74	68.21
190.959	76.32
191.178	85.12
191.398	86.99
191.617	90.64
191.836	100.86
192.055	64.58
192.274	55.87
192.494	91.7
192.713	171.93
192.932	305.4
193.151	474.13
193.37	296.33
193.589	257.87
193.808	394.63
194.027	641.59
194.246	-1805.91
194.465	2053.92
194.685	126.76
194.904	153.1
195.123	58.38
195.342	17.58
195.561	29.5
195.78	14.84
195.999	13.92
196.218	3.4
196.436	38.46
196.655	35.24
196.874	53.25
197.093	81.77
197.312	54.34
197.531	77.47
197.75	76.03
197.969	83.01
198.188	89.37
198.407	86.81
198.625	105
198.844	91.21
199.063	83.09
199.282	99.99
199.501	91.94
199.719	119.07
199.938	104.83
200.157	88.06
200.376	98.63
200.594	109.07
200.813	129.66
201.032	91.12
201.251	86.41
201.469	103.75
201.688	80.26
201.907	89.26
202.125	97.45
202.344	135.2
202.563	147.38
202.781	121.48
203	103.16
203.218	49.03
203.437	97.63
203.656	128.03
203.874	84.91
204.093	94.67
204.311	93.85
204.53	52.79
204.748	27.71
204.967	48.51
205.185	54.14
205.404	38.93
205.622	38.16
205.841	44.89
206.059	19.53
206.278	25.61
206.496	12.11
206.715	5.63
206.933	31.61
207.151	42
207.37	25.31
207.588	29.03
207.806	40.26
208.025	55.14
208.243	38.27
208.461	41.74
208.68	38.28
208.898	68.27
209.116	66.85
209.335	78.42
209.553	74.58
209.771	82.23
209.989	71.11
210.208	70.4
210.426	62.66
210.644	70.32
210.862	64.98
211.081	66.82
211.299	61.67
211.517	68.92
211.735	56.24
211.953	70.29
212.171	75.91
212.39	71.98
212.608	85.97
212.826	95.84
213.044	98.55
213.262	98.82
213.48	102.84
213.698	86.38
213.916	90.52
214.134	85.21
214.352	88.87
214.57	75.89
214.788	88.5
215.006	74.98
215.224	69.97
215.442	63.78
215.66	74.63
215.878	73.51
216.096	103.73
216.314	67.92
216.532	87.07
216.75	68.82
216.968	82.45
217.185	92.92
217.403	129.72
217.621	188.8
217.839	146.44
218.057	162.04
218.275	125.52
218.492	144.37
218.71	210.29
218.928	189.69
219.146	280.54
219.363	184.5
219.581	207.27
219.799	213.17
220.017	172.44
220.234	161.74
220.452	203.82
220.67	256.24
220.887	335.82
221.105	414.58
221.323	6439.88
221.54	532.08
221.758	4185.36
221.976	1483.28
222.193	255.21
222.411	338.61
222.629	507.1
222.846	557.88
223.064	-463.51
223.281	523.88
223.499	293.3
223.716	448.74
223.934	-350.38
224.151	-79
224.369	-27.99
224.586	-6.4
224.804	22.1
225.021	-4.89
225.239	-12.59
225.456	3.45
225.674	-11.2
225.891	-35.35
226.108	-55.65
226.326	-52.52
226.543	1.43
226.76	-3.37
226.978	-3.16
227.195	-21.93
227.413	-8.96
227.63	7.9
227.847	-1.56
228.064	4.27
228.282	5.94
228.499	5.63
228.716	5.64
228.934	-1.01
229.151	-1.11
229.368	0.38
229.585	0.37
229.802	-0.71
230.02	-2.59
230.237	0.25
230.454	2.67
230.671	4.4
230.888	5.26
231.105	2.11
231.323	2.54
231.54	-3.17
231.757	-8.9
231.974	-9.93
232.191	-5.74
232.408	-11.39
232.625	-11.6
232.842	-18.45
233.059	-23.28
233.276	-26.76
233.493	-19.12
233.71	-10.34
233.927	-0.06
234.144	6.31
234.361	6.9
234.578	-1.55
234.795	5.69
235.012	0.05
235.229	-2.2
235.446	-3.28
235.663	1.25
235.879	-2.6
236.096	-7.2
236.313	-10.41
236.53	-16.35
236.747	-18.24
236.964	-15.35
237.181	-24.29
237.397	-22.73
237.614	-25.19
237.831	-20.52
238.048	-22.92
238.264	-26.04
238.481	-26.35
238.698	-16.23
238.915	-6.24
239.131	-0.66
239.348	1.61
239.565	2.05
239.781	2.7
239.998	-1.02
240.215	0.2
240.431	-1.3
240.648	6.52
240.865	11.83
241.081	10.15
241.298	7.17
241.514	6.14
241.731	6.98
241.947	8.31
242.164	8.24
242.38	13.57
242.597	12.53
242.814	13.27
243.03	11.58
243.246	10.86
243.463	10.52
243.679	11.06
243.896	12.09
244.112	12.28
244.329	13.26
244.545	13.27
244.762	11.86
244.978	13.56
245.194	12.82
245.411	11.49
245.627	12.2
245.843	12.46
246.06	12.54
246.276	12.63
246.492	12.34
246.709	11.4
246.925	12.1
247.141	11.62
247.357	11.45
247.574	12.21
247.79	12.69
248.006	12.57
248.222	12.64
248.439	13.15
248.655	12.21
248.871	11.89
249.087	12.61
249.303	11.14
249.519	9.63
249.736	9.04
249.952	8.93
250.168	9.79
250.384	8.97
250.6	9.88
250.816	6.72
251.032	8.27
251.248	8.04
251.464	4.06
251.68	5.65
251.896	7.64
252.112	6.7
252.328	4.44
252.544	0.36
252.76	-2.13
252.976	-5.97
253.192	-5.98
253.408	-5.79
253.624	-6.18
253.84	-3.33
254.056	-4.22
254.272	-6.08
254.487	-7.39
254.703	-3.85
254.919	-2.13
255.135	1.51
255.351	1.78
255.567	5.56
255.782	5.21
255.998	6.87
256.214	7.05
256.43	10.19
256.646	9.44
256.861	10.63
257.077	7.51
257.293	7.83
257.508	9.49
257.724	11.42
257.94	10.06
258.155	8.76
258.371	8.08
258.587	6.81
258.802	6
259.018	8.41
259.234	9.48
259.449	8.97
259.665	9.34
259.88	8.64
260.096	8.26
260.312	9.02
260.527	9.44
260.743	9.04
260.958	9.27
261.174	9.57
261.389	8.42
261.605	7.46
261.82	8.13
262.036	7.42
262.251	7.53
262.466	8.16
262.682	6.57
262.897	4.75
263.113	5.68
263.328	6.35
263.543	2.5
263.759	-0.35
263.974	-1.14
264.189	-1.7
264.405	-2.45
264.62	-3.47
264.835	-4.3
265.051	-3.03
265.266	-2.55
265.481	-2.24
265.696	-3.85
265.912	0.46
266.127	3.78
266.342	3.82
266.557	3.27
266.773	3.48
266.988	3.24
267.203	4.21
267.418	4.96
267.633	6.13
267.848	5.92
268.064	7.17
268.279	7.44
268.494	5.56
268.709	7.3
268.924	8.87
269.139	8.22
269.354	9.69
269.569	9.25
269.784	5.85
269.999	6.15
270.214	6.11
270.429	5.26
270.644	3.66
270.859	3.78
271.074	2.84
271.289	1.45
271.504	3.48
271.719	3.49
271.934	1.87
272.149	4.27
272.363	4.26
272.578	4.53
272.793	5
273.008	4.44
273.223	6.32
273.438	5.32
273.653	6.98
273.867	6.39
274.082	6.07
274.297	7.71
274.512	6.14
274.726	4.24
274.941	4.06
275.156	4.57
275.371	5.64
275.585	3.51
275.8	4.76
276.015	3.15
276.229	3.44
276.444	1.87
276.659	0.66
276.873	2.68
277.088	4.85
277.302	5.33
277.517	6.36
277.732	5.96
277.946	7.5
278.161	6.68
278.375	6.72
278.59	7.66
278.804	8.45
279.019	8.74
279.233	9.19
279.448	8.8
279.662	8.13
279.877	6.91
280.091	8.65
280.306	8.04
280.52	8.62
280.735	9.45
280.949	9.6
281.163	10.72
281.378	10
281.592	9.17
281.806	8.94
282.021	9.03
282.235	9.25
282.449	8.3
282.664	8.54
282.878	8.5
283.092	7.14
283.307	7.15
283.521	6.12
283.735	7.31
283.949	7.34
284.164	7.92
284.378	8.17
284.592	8.47
284.806	8.9
285.02	10.34
285.234	11.3
285.449	12.27
285.663	11.78
285.877	12.67
286.091	12.31
286.305	12.38
286.519	12.49
286.733	12.3
286.947	11.9
287.161	12.58
287.375	10.88
287.589	10.79
287.803	10.05
288.017	10.38
288.231	10.3
288.445	10.89
288.659	10.26
288.873	9.52
289.087	9.68
289.301	9.54
289.515	8.45
289.729	8.76
289.943	7.43
290.157	6.47
290.371	6
290.584	6.83
290.798	5.63
291.012	6.15
291.226	6.49
291.44	6.8
291.654	6.48
291.867	7.24
292.081	7.84
292.295	8.91
292.509	10.06
292.722	10.13
292.936	8.35
293.15	10.65
293.364	10.31
293.577	9.78
293.791	9.33
294.005	9.51
294.218	9.25
294.432	9.27
294.645	8.94
294.859	10.46
295.073	10.39
295.286	10.75
295.5	9.79
295.713	10.05
295.927	10.51
296.14	10.18
296.354	9.61
296.568	9.75
296.781	9.75
296.994	10
297.208	9.01
297.421	9.5
297.635	8.69
297.848	9.26
298.062	9.43
298.275	9.91
298.489	10.18
298.702	10.78
298.915	10.76
299.129	11.62
299.342	11.85
299.555	11.76
299.769	12.03
299.982	13.58
300.195	12.26
300.409	12.11
300.622	11.45
300.835	11.09
301.048	11.21
301.262	10.12
301.475	8.28
301.688	6.49
301.901	7
302.115	5.96
302.328	5.92
302.541	6.81
302.754	7.36
302.967	8.05
303.18	9.18
303.393	9.19
303.607	9.6
303.82	10.09
304.033	13.04
304.246	12.71
304.459	13.24
304.672	13.4
304.885	13.54
305.098	12.51
305.311	11.93
305.524	10.57
305.737	10.43
305.95	11.23
306.163	11.87
306.376	9.71
306.589	10.52
306.802	9.24
307.015	8.61
307.228	9.27
307.44	10.61
307.653	10.89
307.866	12.4
308.079	12.54
308.292	11.67
308.505	11.66
308.718	12.04
308.93	12.6
309.143	12.94
309.356	12.36
309.569	12.02
309.781	12.44
309.994	12.24
310.207	11.77
310.42	11.18
310.632	12.01
310.845	11.16
311.058	11.76
311.27	11.34
311.483	12.36
311.696	13.44
311.908	14.09
312.121	13.51
312.333	13.49
312.546	13.14
312.759	13.79
312.971	13.21
313.184	13.78
313.396	12.86
313.609	12.46
313.821	11.91
314.034	10.46
314.246	9.06
314.459	9.61
314.671	9.81
314.884	9.91
315.096	9.98
315.309	8.84
315.521	8.79
315.733	8.96
315.946	7.95
316.158	7.66
316.371	8.97
316.583	8.68
316.795	8.14
317.008	9.59
317.22	10.43
317.432	10.17
317.644	9.79
317.857	10.47
318.069	12.26
318.281	12.56
318.494	13.01
318.706	12.29
318.918	12.53
319.13	13.79
319.342	12.31
319.555	12.08
319.767	13.09
319.979	12.49
320.191	12.45
320.403	11.48
320.615	12.25
320.827	11.36
321.039	10.79
321.252	11.97
321.464	11.18
321.676	11.82
321.888	12.21
322.1	11.75
322.312	15.26
322.524	15.03
322.736	15.22
322.948	15.38
323.16	15.93
323.372	17.35
323.584	16.65
323.796	16.17
324.007	15.97
324.219	16.49
324.431	16.02
324.643	14.8
324.855	15.6
325.067	15.82
325.279	15.49
325.491	17.7
325.702	17.29
325.914	17.62
326.126	18.54
326.338	19.4
326.55	19.32
326.761	21.11
326.973	22.11
327.185	22.78
327.396	23.18
327.608	24.09
327.82	22.25
328.032	23.45
328.243	23.84
328.455	24.57
328.666	24.78
328.878	25.93
329.09	26.2
329.301	26.81
329.513	26.25
329.725	26.58
329.936	26.33
330.148	27.05
330.359	27.31
330.571	27.79
330.782	27.74
330.994	28.09
331.205	28.38
331.417	27.14
331.628	27.88
331.84	28.1
332.051	28.45
332.262	29.86
332.474	30.5
332.685	30.27
332.897	30.59
333.108	31.18
333.319	31.51
333.531	31.01
333.742	32.89
333.953	32.79
334.165	32.7
334.376	33.23
334.587	33.96
334.799	35.04
335.01	35.79
335.221	36.44
335.432	36.87
335.644	38.19
335.855	38.72
336.066	38.23
336.277	37.87
336.488	37.97
336.7	37.44
336.911	36.37
337.122	35.73
337.333	35.25
337.544	34.67
337.755	33.55
337.966	32.51
338.177	32.85
338.388	32.92
338.599	33.29
338.811	34.36
339.022	35.07
339.233	35.04
339.444	34.76
339.655	34.87
339.866	35.75
340.076	36.6
340.287	36.19
340.498	36.83
340.709	36.72
340.92	36.85
341.131	36.02
341.342	34.6
341.553	34.88
341.764	35.34
341.975	35.33
342.185	35.61
342.396	35.25
342.607	35.35
342.818	34.31
343.029	33.88
343.239	34.26
343.45	34.45
343.661	35.56
343.872	36.07
344.082	35.83
344.293	35.6
344.504	35.24
344.714	35.68
344.925	35.74
345.136	36.01
345.346	35.47
345.557	35.25
345.768	35.65
345.978	35.08
346.189	35.22
346.399	35.57
346.61	35.24
346.821	34.64
347.031	34.04
347.242	33.41
347.452	32.68
347.663	33.41
347.873	32.29
348.084	31.79
348.294	31.72
348.504	30.59
348.715	29.8
348.925	30.46
349.136	30.92
349.346	31.04
349.557	31.55
349.767	31.72
349.977	32.13
350.188	31.57
350.398	31.84
350.608	32.36
350.819	32.44
351.029	32.89
351.239	32.12
351.449	31.88
351.66	31.92
351.87	31.8
352.08	31.26
352.29	30.94
352.501	32.84
352.711	32.86
352.921	32.06
353.131	32.1
353.341	32.07
353.552	32.52
353.762	32.41
353.972	32.57
354.182	31.96
354.392	31.95
354.602	31.55
354.812	31.32
355.022	30.93
355.232	31.94
355.442	32.56
355.652	32.39
355.862	32.65
356.072	32.06
356.282	31.58
356.492	32.26
356.702	32.83
356.912	32.91
357.122	32.47
357.332	32.33
357.542	31.21
357.752	30.35
357.962	30.14
358.171	29.78
358.381	30.16
358.591	30.12
358.801	29.85
359.011	29.55
359.221	29.27
359.43	29.01
359.64	28.47
359.85	28.69
360.06	29
360.269	28.88
360.479	29.07
360.689	29.29
360.899	29.18
361.108	29.49
361.318	29.55
361.528	29.6
361.737	29.78
361.947	30.39
362.156	30.12
362.366	30.12
362.576	29.99
362.785	29.91
362.995	29.9
363.204	30.19
363.414	29.79
363.623	29.95
363.833	29.79
364.042	29.65
364.252	29.67
364.461	30.39
364.671	30.34
364.88	30
365.09	29.87
365.299	29.52
365.509	29.29
365.718	29.33
365.927	28.44
366.137	28.87
366.346	28.63
366.555	28.32
366.765	27.5
366.974	27.45
367.183	27.39
367.393	27.64
367.602	27.8
367.811	27.72
368.021	27.31
368.23	27.55
368.439	27.09
368.648	27.32
368.857	27.09
369.067	27.13
369.276	26.95
369.485	27.36
369.694	27.24
369.903	26.54
370.112	26.32
370.321	27.07
370.531	27.12
370.74	27.03
370.949	26.91
371.158	26.52
371.367	26.64
371.576	26.46
371.785	26.42
371.994	26.08
372.203	27.22
372.412	27.27
372.621	26.74
372.83	26.6
373.039	26.81
373.248	26.6
373.457	26.67
373.666	26.84
373.874	26.44
374.083	26.1
374.292	25.16
374.501	24.27
374.71	23.6
374.919	23.67
375.128	24.18
375.336	23.97
375.545	24.13
375.754	24.21
375.963	23.88
376.171	24.2
376.38	24.15
376.589	24.5
376.798	24.35
377.006	24.58
377.215	24.29
377.424	23.68
377.632	23.46
377.841	23.24
378.05	22.85
378.258	22.84
378.467	22.6
378.675	22.69
378.884	22.33
379.093	21.88
379.301	21.97
379.51	22.04
379.718	21.8
379.927	21.62
380.135	21.72
380.344	21.85
380.552	21.39
380.761	21.63
380.969	21.56
381.177	22.16
381.386	22.32
381.594	22.65
381.803	22.13
382.011	21.88
382.219	22.07
382.428	21.87
382.636	21.91
382.845	22.07
383.053	22.14
383.261	21.74
383.469	21.38
383.678	21.63
383.886	20.96
384.094	21.21
384.302	21.3
384.511	21.37
384.719	21.41
384.927	21.07
385.135	20.96
385.343	20.26
385.552	20.49
385.76	20.24
385.968	19.86
386.176	19.47
386.384	19.54
386.592	19.57
386.8	18.65
387.008	18.5
387.216	18.76
387.424	18.59
387.633	18.56
387.841	18.08
388.049	18.49
388.257	18.12
388.465	18.37
388.672	17.69
388.88	17.49
389.088	17.71
389.296	17.45
389.504	17.1
389.712	16.92
389.92	17.11
390.128	17.61
390.336	17.36
390.544	17.47
390.751	17.21
390.959	17.34
391.167	17.42
391.375	17.7
391.583	17.39
391.79	17.44
391.998	17.79
392.206	17.79
392.414	17.51
392.621	17.2
392.829	17.09
393.037	17.1
393.244	17.22
393.452	16.96
393.66	16.78
393.867	16.88
394.075	16.95
394.283	16.68
394.49	16.63
394.698	16.71
394.905	16.64
395.113	16.91
395.32	16.72
395.528	16.53
395.735	16.63
395.943	16.4
396.15	16.42
396.358	16.17
396.565	16.47
396.773	16.36
396.98	15.81
397.188	16.17
397.395	15.87
397.602	16.34
397.81	16.47
398.017	16.35
398.225	16.6
398.432	16.72
398.639	16.78
398.847	16.48
399.054	16.47
399.261	16.63
399.468	16.52
399.676	16.36
399.883	16.11
400.09	16.1
400.297	16.13
400.505	16.13
400.712	15.83
400.919	15.69
401.126	15.58
401.333	15.67
401.54	15.82
401.748	15.66
401.955	15.64
402.162	15.93
402.369	15.66
402.576	15.49
402.783	15.27
402.99	15.34
403.197	15.39
403.404	15.4
403.611	15.06
403.818	14.95
404.025	14.82
404.232	14.88
404.439	14.77
404.646	14.93
404.853	15.03
405.06	14.87
405.267	14.96
405.474	14.87
405.681	14.8
405.887	14.95
406.094	14.73
406.301	14.85
406.508	14.77
406.715	14.47
406.922	14.19
407.128	14.34
407.335	14.56
407.542	14.71
407.749	14.54
407.955	14.38
408.162	14.4
408.369	14.56
408.575	14.31
408.782	14.42
408.989	14.49
409.195	14.65
409.402	14.38
409.609	14.17
409.815	14
410.022	14.19
410.228	14.35
410.435	14.31
410.642	14.51
410.848	14.58
411.055	14.5
411.261	14.54
411.468	14.41
411.674	14.73
411.881	14.79
412.087	14.46
412.294	14.61
412.5	14.75
412.706	14.93
412.913	14.79
413.119	14.96
413.326	15.13
413.532	15.38
413.738	15.57
413.945	15.31
414.151	15.42
414.357	15.62
414.564	15.69
414.77	15.26
414.976	15.17
415.182	15.04
415.389	15
415.595	14.88
415.801	14.5
416.007	14.47
416.214	14.37
416.42	14.57
416.626	14.7
416.832	14.6
417.038	14.85
417.244	14.86
417.45	14.85
417.657	14.63
417.863	14.62
418.069	14.49
418.275	14.16
418.481	14.38
418.687	14.12
418.893	14.12
419.099	13.94
419.305	13.85
419.511	13.67
419.717	13.62
419.923	13.73
420.129	13.64
420.335	13.75
420.541	14.04
420.746	13.91
420.952	13.91
421.158	13.94
421.364	14.01
421.57	14.01
421.776	14.06
421.982	14.1
422.187	14.08
422.393	14.13
422.599	14.19
422.805	14.04
423.01	14.11
423.216	14.17
423.422	13.96
423.628	13.99
423.833	13.95
424.039	14.02
424.245	14.04
424.45	14.02
424.656	14.02
424.862	13.96
425.067	13.92
425.273	13.78
425.478	13.73
425.684	13.79
425.889	13.65
426.095	13.77
426.301	13.57
426.506	13.57
426.712	13.54
426.917	13.64
427.123	13.71
427.328	14.05
427.533	14.21
427.739	14.33
427.944	14.47
428.15	14.55
428.355	14.34
428.561	14.39
428.766	14.38
428.971	14.47
429.177	14.38
429.382	14.33
429.587	14
429.793	13.87
429.998	13.77
430.203	13.47
430.408	13.63
430.614	13.47
430.819	13.47
431.024	13.56
431.229	13.5
431.434	13.26
431.64	13.28
431.845	13.23
432.05	13.27
432.255	13.32
432.46	13.5
432.665	13.45
432.87	13.75
433.076	13.73
433.281	13.5
433.486	13.42
433.691	13.44
433.896	13.31
434.101	13.37
434.306	13.21
434.511	13.02
434.716	12.94
434.921	12.84
435.126	12.74
435.331	12.95
435.535	13.11
435.74	13.11
435.945	13.26
436.15	13.24
436.355	13.12
436.56	13.35
436.765	13.54
436.97	13.63
437.174	13.74
437.379	13.71
437.584	13.38
437.789	13.33
437.993	13.41
438.198	13.47
438.403	13.49
438.608	13.51
438.812	13.52
439.017	13.39
439.222	13.48
439.426	13.39
439.631	13.44
439.836	13.53
440.04	13.59
440.245	13.6
440.45	13.46
440.654	13.52
440.859	13.48
441.063	13.36
441.268	13.33
441.472	13.14
441.677	13.21
441.881	13.23
442.086	13.35
442.29	13.26
442.495	13.23
442.699	13.3
442.904	13.19
443.108	13.34
443.312	13.49
443.517	13.52
443.721	13.55
443.925	13.48
444.13	13.51
444.334	13.32
444.538	13.18
444.743	13.13
444.947	13.13
445.151	13.19
445.356	13.24
445.56	13.16
445.764	13.25
445.968	13.25
446.173	13.29
446.377	13.11
446.581	13.22
446.785	13.29
446.989	13.3
447.193	13.32
447.398	13.34
447.602	13.29
447.806	13.26
448.01	13.24
448.214	13.28
448.418	12.99
448.622	12.94
448.826	12.74
449.03	12.88
449.234	12.95
449.438	12.87
449.642	12.77
449.846	12.61
450.05	12.42
450.254	12.34
450.458	12.19
450.662	12.43
450.866	12.74
451.069	12.92
451.273	12.8
451.477	12.94
451.681	12.74
451.885	12.94
452.089	13.06
452.292	13.43
452.496	13.46
452.7	13.46
452.904	13.41
453.107	13.21
453.311	13.3
453.515	13.2
453.719	13.03
453.922	13.04
454.126	12.79
454.33	12.71
454.533	12.53
454.737	12.41
454.94	12.5
455.144	12.62
455.348	12.67
455.551	12.31
455.755	12.31
455.958	12.43
456.162	12.5
456.365	12.62
456.569	12.66
456.772	12.7
456.976	12.91
457.179	12.73
457.383	12.71
457.586	12.89
457.79	13.11
457.993	13.15
458.196	13
458.4	13.09
458.603	13.06
458.807	13.12
459.01	12.96
459.213	12.87
459.417	13.02
