Data from CB_101_Reflection_3.txt Node
Date: Sat Nov 14 17:47:48 EST 2015
User: robert
Spectrometer: USB4E03001
Autoset integration time: false
Trigger mode: 4
Integration Time (sec): 1.000000E-1
Scans to average: 15
Electric dark correction enabled: true
Nonlinearity correction enabled: false
Boxcar width: 5
Stray light correction enabled: false
XAxis mode: Wavelengths
Stop averaging: false
Number of Pixels in Spectrum: 3648
>>>>>Begin Spectral Data<<<<<
177.566	36.2
177.785	643.84
178.005	-193.42
178.225	-40.23
178.445	1406.32
178.665	-123.5
178.885	122.68
179.105	33.79
179.324	34.97
179.544	51.58
179.764	48.5
179.984	57.2
180.204	15.22
180.423	8.36
180.643	25.78
180.863	33.25
181.083	9.59
181.302	24.75
181.522	42.86
181.742	22.4
181.961	10.34
182.181	-20.76
182.401	-209.4
182.621	-25.36
182.84	-4.32
183.06	5.52
183.279	-3
183.499	27.66
183.719	-45.19
183.938	-70.92
184.158	-8.84
184.377	10.33
184.597	9.07
184.816	20.32
185.036	15.9
185.256	4.36
185.475	1.96
185.695	-15.74
185.914	-6
186.134	14.63
186.353	25.2
186.572	10.84
186.792	22.31
187.011	34.37
187.231	31.8
187.45	41.31
187.67	49.1
187.889	57.22
188.108	77.06
188.328	90.89
188.547	96.47
188.766	98.56
188.986	87.12
189.205	71.08
189.424	45.12
189.644	58.27
189.863	59.6
190.082	57.07
190.302	55.27
190.521	43.79
190.74	23.82
190.959	13.35
191.178	31.8
191.398	20.68
191.617	46.69
191.836	89.04
192.055	34.52
192.274	-5.03
192.494	11.02
192.713	-77.98
192.932	-56.58
193.151	-88.82
193.37	-57.55
193.589	-91.07
193.808	-77.3
194.027	-391.14
194.246	1377.22
194.465	-1542.81
194.685	-8.27
194.904	-8.85
195.123	5.84
195.342	20.87
195.561	31.35
195.78	45.86
195.999	66.39
196.218	61.48
196.436	75.27
196.655	72.21
196.874	77.81
197.093	69.98
197.312	59.28
197.531	75.34
197.75	82.55
197.969	90.64
198.188	86.8
198.407	65.81
198.625	85.21
198.844	86.6
199.063	82.93
199.282	94.09
199.501	113.73
199.719	113.77
199.938	88.64
200.157	59.92
200.376	47.44
200.594	60.41
200.813	79.73
201.032	49.51
201.251	37.83
201.469	39.38
201.688	47.48
201.907	42.17
202.125	48.99
202.344	64.29
202.563	76.27
202.781	65.83
203	78.63
203.218	86.58
203.437	98.69
203.656	109.09
203.874	75.07
204.093	68.6
204.311	83.87
204.53	89.83
204.748	75.11
204.967	89.11
205.185	116.06
205.404	88.76
205.622	57.42
205.841	53.8
206.059	21.26
206.278	57.69
206.496	41.26
206.715	49.17
206.933	30.96
207.151	38.93
207.37	24.7
207.588	29.16
207.806	46.98
208.025	58
208.243	61.03
208.461	88.83
208.68	69.56
208.898	76.4
209.116	70.8
209.335	87.91
209.553	95.67
209.771	110.04
209.989	95.86
210.208	80.63
210.426	70.56
210.644	66.19
210.862	57.94
211.081	56.97
211.299	64.35
211.517	61.49
211.735	51.03
211.953	44.82
212.171	44.28
212.39	48.23
212.608	56.56
212.826	59.06
213.044	68.59
213.262	73.09
213.48	79.33
213.698	65.8
213.916	73.98
214.134	54.53
214.352	61.21
214.57	52.38
214.788	67.38
215.006	88.28
215.224	100.03
215.442	99.45
215.66	92.28
215.878	80.11
216.096	91.31
216.314	62.74
216.532	117.18
216.75	109.22
216.968	113.89
217.185	97.87
217.403	65.08
217.621	87.67
217.839	88.1
218.057	57.82
218.275	54.92
218.492	50.02
218.71	107.19
218.928	98.94
219.146	109.34
219.363	88.38
219.581	86.29
219.799	94.84
220.017	77.64
220.234	80.64
220.452	122.35
220.67	169.46
220.887	285.72
221.105	352.47
221.323	5406.13
221.54	584.67
221.758	3741.43
221.976	1635.37
222.193	372.86
222.411	499.63
222.629	839.29
222.846	835.98
223.064	-763.51
223.281	780.45
223.499	520.62
223.716	629.55
223.934	-261.14
224.151	-16.15
224.369	8.28
224.586	43.65
224.804	62.48
225.021	62.89
225.239	47.4
225.456	64.5
225.674	47.31
225.891	24.67
226.108	-21.05
226.326	-39.94
226.543	-27
226.76	-9.4
226.978	4.79
227.195	-7.46
227.413	-6.14
227.63	-0.48
227.847	1.89
228.064	8.19
228.282	9.92
228.499	16.02
228.716	12.54
228.934	7.34
229.151	6.04
229.368	3.69
229.585	0.85
229.802	1.52
230.02	2.29
230.237	1.96
230.454	2.33
230.671	1.31
230.888	-2.9
231.105	-6.72
231.323	-4.14
231.54	-15.29
231.757	-22.67
231.974	-18.9
232.191	-21.65
232.408	-27.61
232.625	-25.54
232.842	-25.58
233.059	-19.96
233.276	-17.7
233.493	-7.62
233.71	-1.72
233.927	10.56
234.144	12.84
234.361	7.79
234.578	8.8
234.795	12.29
235.012	9.07
235.229	5.19
235.446	3.75
235.663	1.14
235.879	-4.87
236.096	-11.13
236.313	-10.31
236.53	-8
236.747	-8.61
236.964	-10.42
237.181	-9.13
237.397	-9.99
237.614	-11.47
237.831	-11.79
238.048	-8.69
238.264	-11.29
238.481	-13.18
238.698	-14.76
238.915	-9.42
239.131	-5.84
239.348	-7.64
239.565	-10.61
239.781	-5.03
239.998	-3.68
240.215	-1.37
240.431	-2.74
240.648	6.49
240.865	8.89
241.081	11.05
241.298	10.97
241.514	10.66
241.731	11.63
241.947	11.96
242.164	10.25
242.38	11.11
242.597	10.62
242.814	14.31
243.03	11.01
243.246	10.88
243.463	11.03
243.679	9.8
243.896	10.41
244.112	9.01
244.329	9.22
244.545	12.71
244.762	13.64
244.978	16.31
245.194	10.43
245.411	12.15
245.627	13.18
245.843	11.69
246.06	10.33
246.276	10.83
246.492	11.31
246.709	10.4
246.925	9.09
247.141	8.72
247.357	8.45
247.574	9.06
247.79	9.42
248.006	8.93
248.222	8.98
248.439	9.38
248.655	8.41
248.871	8.06
249.087	8.19
249.303	8.05
249.519	6.86
249.736	4.48
249.952	4.66
250.168	5.24
250.384	3.52
250.6	3.48
250.816	2.55
251.032	3.4
251.248	3.34
251.464	2.77
251.68	2.17
251.896	2.39
252.112	1.46
252.328	2.24
252.544	-2.14
252.76	-0.68
252.976	-1.89
253.192	-1.93
253.408	-2.27
253.624	-0.52
253.84	0.71
254.056	0.47
254.272	2.54
254.487	5.22
254.703	5.03
254.919	7.58
255.135	6.05
255.351	3.42
255.567	5.61
255.782	5.52
255.998	4.17
256.214	-0.1
256.43	4.15
256.646	1.48
256.861	3.38
257.077	-0.84
257.293	2.62
257.508	4.42
257.724	5.61
257.94	6.32
258.155	5.55
258.371	4.78
258.587	5.21
258.802	3.85
259.018	5.32
259.234	5.8
259.449	6.33
259.665	5.92
259.88	5.74
260.096	6.57
260.312	6.16
260.527	6.83
260.743	6.6
260.958	7.72
261.174	8.53
261.389	8.56
261.605	8.21
261.82	7.92
262.036	7.77
262.251	6.88
262.466	6.66
262.682	6.69
262.897	6.23
263.113	7.36
263.328	7.07
263.543	5.99
263.759	4.05
263.974	3.57
264.189	4.05
264.405	3.47
264.62	7.59
264.835	8.13
265.051	9.73
265.266	9.36
265.481	10.62
265.696	9.44
265.912	10.03
266.127	11.31
266.342	11.11
266.557	11.38
266.773	10.26
266.988	8.1
267.203	7.47
267.418	6.2
267.633	6.08
267.848	5.4
268.064	5.6
268.279	4.56
268.494	3.94
268.709	3.53
268.924	5.3
269.139	5.38
269.354	5.95
269.569	6.04
269.784	5.78
269.999	5.31
270.214	5.24
270.429	2.65
270.644	2.44
270.859	3.85
271.074	3.96
271.289	2.74
271.504	4.79
271.719	5.7
271.934	4.85
272.149	5.83
272.363	5.77
272.578	6.32
272.793	7.74
273.008	7.65
273.223	7.24
273.438	7.09
273.653	7.83
273.867	6.23
274.082	5.16
274.297	5.71
274.512	3.84
274.726	3.73
274.941	3.28
275.156	4.77
275.371	5.19
275.585	4.47
275.8	4.4
276.015	3.96
276.229	5.39
276.444	5.63
276.659	5.35
276.873	6.95
277.088	7.44
277.302	6.85
277.517	6.12
277.732	5.57
277.946	6.37
278.161	6.12
278.375	5.74
278.59	6.57
278.804	5.72
279.019	6.65
279.233	6.24
279.448	5.48
279.662	5.73
279.877	5.07
280.091	5.74
280.306	4.9
280.52	6.19
280.735	5.14
280.949	4.96
281.163	5.26
281.378	4.64
281.592	5.18
281.806	6.12
282.021	5.63
282.235	5.9
282.449	5.85
282.664	6.45
282.878	5.75
283.092	5.87
283.307	5.32
283.521	5.17
283.735	5.65
283.949	5.48
284.164	5.24
284.378	6.45
284.592	7.26
284.806	7.6
285.02	7.6
285.234	8.18
285.449	8.98
285.663	8.85
285.877	8.76
286.091	8.84
286.305	8.35
286.519	7.79
286.733	6.84
286.947	6.7
287.161	7.12
287.375	6.87
287.589	7.12
287.803	6.9
288.017	6.8
288.231	7.43
288.445	6.96
288.659	7.26
288.873	8.68
289.087	8.73
289.301	7.15
289.515	7.09
289.729	6.31
289.943	5.45
290.157	4.81
290.371	6.36
290.584	6.79
290.798	6.51
291.012	6.94
291.226	7.07
291.44	6.53
291.654	7.1
291.867	6.74
292.081	8.1
292.295	8.45
292.509	8.49
292.722	7.58
292.936	7.43
293.15	8.36
293.364	8.67
293.577	6.48
293.791	9.13
294.005	10.05
294.218	9.8
294.432	9.3
294.645	9.97
294.859	11.81
295.073	11.59
295.286	11.69
295.5	10.95
295.713	10.24
295.927	11.45
296.14	10.16
296.354	9.48
296.568	9.25
296.781	9.67
296.994	9.35
297.208	8.17
297.421	8.87
297.635	8.54
297.848	8.9
298.062	8.82
298.275	9.72
298.489	9.68
298.702	9.87
298.915	10.26
299.129	10.4
299.342	10.73
299.555	10.51
299.769	9.1
299.982	9.27
300.195	8.71
300.409	9.51
300.622	8.19
300.835	8.99
301.048	8.79
301.262	8.45
301.475	7.52
301.688	6.19
301.901	7.22
302.115	6.61
302.328	6.67
302.541	6.69
302.754	6.65
302.967	6.87
303.18	5.79
303.393	6.68
303.607	6.16
303.82	7.77
304.033	9.21
304.246	9.76
304.459	10.53
304.672	10.7
304.885	10.86
305.098	10.16
305.311	8.94
305.524	9.11
305.737	7.8
305.95	8.33
306.163	6.57
306.376	5.02
306.589	4.24
306.802	2.79
307.015	2.47
307.228	3
307.44	4.75
307.653	6.66
307.866	8
308.079	8.64
308.292	9.74
308.505	9.92
308.718	10.67
308.93	12.26
309.143	13.31
309.356	13.24
309.569	13.28
309.781	12.91
309.994	12.53
310.207	11.74
310.42	11.67
310.632	11.48
310.845	12.06
311.058	13.19
311.27	12.69
311.483	13.06
311.696	13.53
311.908	14.16
312.121	13.32
312.333	13.72
312.546	13.81
312.759	13.85
312.971	12.78
313.184	12.54
313.396	11.7
313.609	10.79
313.821	11.16
314.034	9.67
314.246	8.57
314.459	9.44
314.671	7.66
314.884	7.32
315.096	7.99
315.309	8.3
315.521	8.3
315.733	7.79
315.946	7.93
316.158	7.48
316.371	8.8
316.583	8.35
316.795	9.03
317.008	10.92
317.22	11.27
317.432	10.3
317.644	10.15
317.857	11.25
318.069	11.67
318.281	11.24
318.494	10.35
318.706	9.11
318.918	10.32
319.13	9.14
319.342	9.41
319.555	9.5
319.767	10.76
319.979	10.69
320.191	9.65
320.403	9.12
320.615	9.67
320.827	9.62
321.039	10.79
321.252	11.16
321.464	12.28
321.676	12.09
321.888	12.07
322.1	11.03
322.312	11.35
322.524	11.58
322.736	11.57
322.948	11.14
323.16	12.47
323.372	12.43
323.584	11.92
323.796	9.88
324.007	9.56
324.219	9.74
324.431	9.44
324.643	9.45
324.855	10
325.067	11.04
325.279	11.67
325.491	12.56
325.702	12.67
325.914	11.67
326.126	13.24
326.338	14.05
326.55	15.95
326.761	16.82
326.973	17.25
327.185	17.3
327.396	18.1
327.608	18.45
327.82	18.62
328.032	19.69
328.243	21.78
328.455	22.74
328.666	22.88
328.878	22.09
329.09	21.99
329.301	23.02
329.513	23.17
329.725	22.37
329.936	22.53
330.148	20.73
330.359	18.93
330.571	18.86
330.782	19.01
330.994	19.93
331.205	20.36
331.417	21.25
331.628	21.52
331.84	21.19
332.051	20.41
332.262	21.74
332.474	22.42
332.685	23.23
332.897	23.12
333.108	23
333.319	22.05
333.531	21.71
333.742	21.64
333.953	22.17
334.165	21.82
334.376	22.41
334.587	21.99
334.799	23.29
335.01	24.05
335.221	24.91
335.432	25.31
335.644	25.45
335.855	26.05
336.066	26.6
336.277	25.94
336.488	26.29
336.7	26.27
336.911	25.72
337.122	25.25
337.333	25.64
337.544	24.89
337.755	23.47
337.966	23.88
338.177	23.48
338.388	22.97
338.599	23.21
338.811	23.81
339.022	23.92
339.233	24.64
339.444	24.84
339.655	24.79
339.866	24.31
340.076	25.16
340.287	24.3
340.498	24.22
340.709	24.45
340.92	24.78
341.131	24.13
341.342	24.82
341.553	24.51
341.764	24.37
341.975	24.8
342.185	25.05
342.396	25.23
342.607	25.53
342.818	26.06
343.029	25.93
343.239	24.93
343.45	25.19
343.661	24.7
343.872	23.96
344.082	23.46
344.293	22.66
344.504	23
344.714	23.37
344.925	23.47
345.136	23.48
345.346	23.45
345.557	24.02
345.768	24.33
345.978	23.77
346.189	23.91
346.399	24.43
346.61	24.34
346.821	24.28
347.031	24.1
347.242	24.54
347.452	23.67
347.663	23.25
347.873	22.92
348.084	22.77
348.294	23.19
348.504	23.31
348.715	23.03
348.925	23.1
349.136	22.82
349.346	22.29
349.557	22.39
349.767	22.68
349.977	23.33
350.188	22.23
350.398	22.09
350.608	22.65
350.819	23.03
351.029	22.66
351.239	22.89
351.449	22.67
351.66	22.84
351.87	22.52
352.08	22.09
352.29	21.95
352.501	23.65
352.711	23.55
352.921	23.27
353.131	22.42
353.341	23.08
353.552	22.42
353.762	23.07
353.972	23.47
354.182	22.42
354.392	23.19
354.602	23.05
354.812	22.77
355.022	22.64
355.232	22.86
355.442	23.41
355.652	22.81
355.862	22.61
356.072	21.83
356.282	21.73
356.492	22.6
356.702	21.86
356.912	22.24
357.122	22.33
357.332	22.51
357.542	21.57
357.752	21.73
357.962	21.76
358.171	22.06
358.381	22.82
358.591	22.12
358.801	21.65
359.011	21.74
359.221	21.95
359.43	21.87
359.64	21.23
359.85	21.7
360.06	21.06
360.269	21.19
360.479	21.19
360.689	20.88
360.899	21.17
361.108	21.38
361.318	21.41
361.528	21.09
361.737	21.25
361.947	21.64
362.156	21.66
362.366	21.84
362.576	21.45
362.785	21.83
362.995	22.1
363.204	21.82
363.414	21.89
363.623	21.78
363.833	21.45
364.042	21.32
364.252	21.92
364.461	21.88
364.671	22.21
364.88	22.65
365.09	21.97
365.299	21.72
365.509	21.9
365.718	21.73
365.927	21.56
366.137	22.03
366.346	21.83
366.555	21.4
366.765	21.22
366.974	20.7
367.183	20.49
367.393	20.66
367.602	20.11
367.811	20.58
368.021	20.01
368.23	19.83
368.439	19.35
368.648	19.45
368.857	19.17
369.067	18.7
369.276	18.22
369.485	17.66
369.694	17.48
369.903	17.95
370.112	17.84
370.321	18.7
370.531	18.78
370.74	18.99
370.949	18.85
371.158	18.99
371.367	19.82
371.576	20.07
371.785	20.54
371.994	20.75
372.203	20.78
372.412	20.13
372.621	19.71
372.83	19.77
373.039	19.28
373.248	19.42
373.457	19.32
373.666	18.65
373.874	18.6
374.083	18.37
374.292	18.08
374.501	17.39
374.71	17.02
374.919	16.84
375.128	17.1
375.336	17.7
375.545	17.34
375.754	17.33
375.963	17.96
376.171	17.83
376.38	18.01
376.589	17.99
376.798	18.27
377.006	18.57
377.215	18.52
377.424	18.05
377.632	17.7
377.841	17.94
378.05	17.48
378.258	17.26
378.467	17.1
378.675	16.82
378.884	16.01
379.093	15.85
379.301	15.53
379.51	15.41
379.718	15.64
379.927	15.87
380.135	15.94
380.344	16.36
380.552	16.19
380.761	15.91
380.969	16.03
381.177	16.81
381.386	16.24
381.594	16.47
381.803	16.31
382.011	15.78
382.219	14.98
382.428	14.71
382.636	14.32
382.845	13.96
383.053	14.47
383.261	14.42
383.469	14.13
383.678	14.89
383.886	14.76
384.094	15.05
384.302	15.13
384.511	15.55
384.719	15.48
384.927	15.35
385.135	15.22
385.343	14.95
385.552	14.66
385.76	14.49
385.968	14.07
386.176	13.94
386.384	13.75
386.592	13.94
386.8	13.53
387.008	13.1
387.216	13.53
387.424	13.47
387.633	13.55
387.841	13.34
388.049	13.69
388.257	13.56
388.465	13.33
388.672	13.21
388.88	12.96
389.088	13.37
389.296	13.44
389.504	12.73
389.712	13.03
389.92	13.05
390.128	13.35
390.336	13.01
390.544	13.17
390.751	13.36
390.959	13.09
391.167	13.3
391.375	12.83
391.583	12.62
391.79	12.77
391.998	12.58
392.206	12.29
392.414	11.98
392.621	11.66
392.829	11.34
393.037	11.47
393.244	11.63
393.452	11.11
393.66	11.26
393.867	11.26
394.075	11.47
394.283	11.41
394.49	11.49
394.698	11.55
394.905	11.75
395.113	11.84
395.32	11.65
395.528	11.3
395.735	11.8
395.943	11.63
396.15	11.37
396.358	10.84
396.565	10.75
396.773	10.81
396.98	10.34
397.188	10.4
397.395	10.52
397.602	10.64
397.81	10.99
398.017	10.59
398.225	10.94
398.432	10.96
398.639	11.25
398.847	11.22
399.054	11.06
399.261	11.4
399.468	11.25
399.676	11.21
399.883	10.89
400.09	10.65
400.297	10.84
400.505	10.31
400.712	10.45
400.919	10.14
401.126	9.97
401.333	10.3
401.54	10.41
401.748	10.87
401.955	10.46
402.162	10.65
402.369	10.51
402.576	10.32
402.783	10.48
402.99	10.57
403.197	10.65
403.404	10.59
403.611	10.18
403.818	10.21
404.025	9.57
404.232	9.64
404.439	9.62
404.646	9.83
404.853	9.67
405.06	9.71
405.267	9.68
405.474	9.5
405.681	9.65
405.887	9.49
406.094	8.99
406.301	9.14
406.508	9.19
406.715	8.82
406.922	8.57
407.128	8.76
407.335	8.76
407.542	8.8
407.749	9.15
407.955	8.78
408.162	9.02
408.369	9.41
408.575	9.53
408.782	9.56
408.989	9.78
409.195	9.9
409.402	9.76
409.609	9.84
409.815	9.88
410.022	9.46
410.228	9.65
410.435	9.6
410.642	9.7
410.848	9.37
411.055	9.34
411.261	9.17
411.468	8.88
411.674	8.94
411.881	8.72
412.087	8.59
412.294	9.14
412.5	9.16
412.706	9.05
412.913	8.86
413.119	8.91
413.326	8.95
413.532	9.09
413.738	9.27
413.945	9.18
414.151	9.13
414.357	9.11
414.564	8.57
414.77	8.31
414.976	8.51
415.182	8.75
415.389	8.73
415.595	8.72
415.801	8.62
416.007	8.66
416.214	8.59
416.42	8.54
416.626	8.46
416.832	8.66
417.038	9.21
417.244	9.43
417.45	9.17
417.657	9.06
417.863	8.94
418.069	8.93
418.275	8.79
418.481	8.82
418.687	8.85
418.893	8.81
419.099	8.81
419.305	8.51
419.511	8.06
419.717	8.09
419.923	8.09
420.129	8.11
420.335	8.13
420.541	8.25
420.746	8.16
420.952	8.16
421.158	8.22
421.364	8.09
421.57	8.05
421.776	8.2
421.982	8.11
422.187	8.21
422.393	8.23
422.599	8.21
422.805	8.22
423.01	8.39
423.216	8.35
423.422	8.24
423.628	8.34
423.833	8.36
424.039	8.39
424.245	8.42
424.45	8.46
424.656	8.4
424.862	8.41
425.067	8.34
425.273	8.13
425.478	8.19
425.684	8.39
425.889	8.32
426.095	8.42
426.301	8.38
426.506	8.51
426.712	8.34
426.917	8.45
427.123	8.38
427.328	8.42
427.533	8.62
427.739	8.77
427.944	8.67
428.15	8.75
428.355	8.58
428.561	8.51
428.766	8.48
428.971	8.49
429.177	8.43
429.382	8.67
429.587	8.77
429.793	8.48
429.998	8.32
430.203	8.07
430.408	8.21
430.614	8.1
430.819	8.2
431.024	7.97
431.229	8.13
431.434	8.08
431.64	7.98
431.845	7.93
432.05	8
432.255	7.91
432.46	7.91
432.665	7.68
432.87	7.76
433.076	7.59
433.281	7.57
433.486	7.56
433.691	7.47
433.896	7.34
434.101	7.28
434.306	7.16
434.511	7.17
434.716	7.39
434.921	7.5
435.126	7.41
435.331	7.56
435.535	7.74
435.74	7.66
435.945	7.93
436.15	8.02
436.355	7.93
436.56	8.15
436.765	8.3
436.97	8.26
437.174	8.24
437.379	8.36
437.584	8.32
437.789	8.22
437.993	8.29
438.198	8.07
438.403	8.19
438.608	8.22
438.812	8.23
439.017	8.02
439.222	7.87
439.426	7.73
439.631	7.67
439.836	7.71
440.04	7.73
440.245	7.72
440.45	7.61
440.654	7.55
440.859	7.63
441.063	7.58
441.268	7.6
441.472	7.53
441.677	7.63
441.881	7.65
442.086	7.69
442.29	7.6
442.495	7.73
442.699	7.81
442.904	7.75
443.108	7.62
443.312	7.52
443.517	7.63
443.721	7.68
443.925	7.63
444.13	7.7
444.334	7.57
444.538	7.7
444.743	7.61
444.947	7.81
445.151	7.72
445.356	7.83
445.56	7.96
445.764	7.98
445.968	8.02
446.173	8.05
446.377	7.96
446.581	7.91
446.785	7.8
446.989	7.71
447.193	7.57
447.398	7.68
447.602	7.63
447.806	7.63
448.01	7.57
448.214	7.62
448.418	7.43
448.622	7.45
448.826	7.4
449.03	7.54
449.234	7.65
449.438	7.59
449.642	7.44
449.846	7.33
450.05	7.17
450.254	6.94
450.458	6.7
450.662	6.88
450.866	6.82
451.069	7.06
451.273	6.92
451.477	6.91
451.681	6.93
451.885	7.07
452.089	7
452.292	7.1
452.496	7.23
452.7	7.3
452.904	7.31
453.107	7.29
453.311	7.28
453.515	7.18
453.719	7.01
453.922	6.95
454.126	6.84
454.33	7.05
454.533	7.05
454.737	7.17
454.94	7.21
455.144	7.1
455.348	7.12
455.551	7.04
455.755	7.04
455.958	7.05
456.162	7.09
456.365	7.24
456.569	7
456.772	7.1
456.976	7.04
457.179	6.92
457.383	7.09
457.586	7.25
457.79	7.29
457.993	7.52
458.196	7.5
458.4	7.55
458.603	7.37
458.807	7.51
459.01	7.49
459.213	7.52
459.417	7.59
459.62	7.53
459.823	7.43
460.026	7.34
460.23	7.19
460.433	7.26
460.636	7.3
460.839	7.24
461.042	7.19
461.246	7.13
461.449	7.11
461.652	7.03
461.855	6.97
462.058	6.86
462.261	6.83
462.464	6.76
462.668	6.73
462.871	6.75
463.074	6.97
463.277	7.06
463.48	6.84
463.683	6.59
463.886	6.78
464.089	6.76
464.292	6.88
464.495	7.2
464.698	7.22
464.901	7.25
