Data from CB_112_Reflection_4.txt Node
Date: Sat Nov 14 18:20:46 EST 2015
User: robert
Spectrometer: USB4E03001
Autoset integration time: false
Trigger mode: 4
Integration Time (sec): 1.000000E-1
Scans to average: 15
Electric dark correction enabled: true
Nonlinearity correction enabled: false
Boxcar width: 5
Stray light correction enabled: false
XAxis mode: Wavelengths
Stop averaging: false
Number of Pixels in Spectrum: 3648
>>>>>Begin Spectral Data<<<<<
177.566	92.68
177.785	-267.98
178.005	127.4
178.225	234.09
178.445	-286.32
178.665	55.93
178.885	-367.01
179.105	63.3
179.324	58.5
179.544	26.88
179.764	29.75
179.984	42.32
180.204	21.77
180.423	30.33
180.643	43.73
180.863	61.12
181.083	37.43
181.302	57.81
181.522	80.97
181.742	74.52
181.961	105.46
182.181	141.92
182.401	274.93
182.621	220.28
182.84	347.54
183.06	146.31
183.279	79.21
183.499	187.05
183.719	47.77
183.938	11.54
184.158	58.72
184.377	78.54
184.597	104.73
184.816	94.51
185.036	100.72
185.256	106.86
185.475	123.51
185.695	117.41
185.914	97.04
186.134	105.95
186.353	120.53
186.572	119.7
186.792	110.2
187.011	101.89
187.231	97.4
187.45	98.24
187.67	83.98
187.889	86.47
188.108	91.91
188.328	100.08
188.547	108.95
188.766	98.4
188.986	84.61
189.205	87.63
189.424	81.3
189.644	90.72
189.863	88.47
190.082	111.45
190.302	108.64
190.521	98.88
190.74	79.28
190.959	69.85
191.178	70.24
191.398	68.7
191.617	62.17
191.836	89.38
192.055	75.63
192.274	80.7
192.494	60.98
192.713	0.95
192.932	18.47
193.151	164.84
193.37	124.9
193.589	86.25
193.808	203.82
194.027	231.82
194.246	-582.49
194.465	723.86
194.685	73.78
194.904	20.77
195.123	31.05
195.342	16.33
195.561	21.2
195.78	11.84
195.999	46.93
196.218	31.78
196.436	47.56
196.655	36.65
196.874	47.84
197.093	53.91
197.312	62.49
197.531	85.87
197.75	90.89
197.969	91.17
198.188	100.73
198.407	79.88
198.625	88.11
198.844	97.46
199.063	112.5
199.282	120.14
199.501	152.43
199.719	142.12
199.938	119.67
200.157	97.18
200.376	94.45
200.594	95.09
200.813	121.43
201.032	98.72
201.251	95.42
201.469	105.41
201.688	94.93
201.907	85.64
202.125	102.52
202.344	109.61
202.563	133.99
202.781	151.51
203	219.68
203.218	236
203.437	207.52
203.656	224.65
203.874	160.46
204.093	203.33
204.311	180.72
204.53	222.92
204.748	167.48
204.967	177.66
205.185	191.23
205.404	160.8
205.622	119.63
205.841	135.43
206.059	112.83
206.278	107.3
206.496	89.34
206.715	99.33
206.933	68.42
207.151	80.56
207.37	93.45
207.588	92.6
207.806	89.45
208.025	84.09
208.243	82.01
208.461	103.88
208.68	95.48
208.898	91.25
209.116	79.65
209.335	82.87
209.553	68.51
209.771	55.68
209.989	39.06
210.208	27.75
210.426	23.23
210.644	29.27
210.862	24.56
211.081	18.43
211.299	19.75
211.517	17.53
211.735	10.98
211.953	33.85
212.171	47.57
212.39	58.09
212.608	58.91
212.826	63.4
213.044	68.19
213.262	73.28
213.48	81.02
213.698	76.69
213.916	89.47
214.134	80.48
214.352	89.27
214.57	75.06
214.788	81.2
215.006	103.83
215.224	111.12
215.442	142.65
215.66	115.15
215.878	124.92
216.096	174.01
216.314	163.29
216.532	193.13
216.75	178.49
216.968	224.83
217.185	229.49
217.403	256.81
217.621	363.1
217.839	254.49
218.057	339.51
218.275	242.94
218.492	223.45
218.71	227.83
218.928	258.6
219.146	342.45
219.363	219.14
219.581	253.09
219.799	270.7
220.017	219.86
220.234	208.92
220.452	242.51
220.67	318.21
220.887	447.6
221.105	604.58
221.323	7970.55
221.54	772.82
221.758	4198.93
221.976	1502.54
222.193	265.87
222.411	372.41
222.629	655.98
222.846	712.42
223.064	-489.74
223.281	821.17
223.499	594.99
223.716	823.62
223.934	-673.93
224.151	-234.43
224.369	-122.77
224.586	-52.61
224.804	-10.83
225.021	-8.8
225.239	-20.52
225.456	-24.38
225.674	-10.64
225.891	-20.87
226.108	-61.24
226.326	-18
226.543	0.22
226.76	-7.21
226.978	-5.67
227.195	-22.53
227.413	-24.84
227.63	-18.65
227.847	-15.65
228.064	-0.04
228.282	2.9
228.499	8.05
228.716	3.57
228.934	2.59
229.151	4.12
229.368	4.45
229.585	5.54
229.802	6.71
230.02	7.15
230.237	7.91
230.454	7.78
230.671	9.18
230.888	6.9
231.105	6.17
231.323	0.32
231.54	-6.25
231.757	-11.69
231.974	-21.3
232.191	-20.31
232.408	-15.32
232.625	-13.46
232.842	-17.62
233.059	-17.5
233.276	-19.37
233.493	-19.96
233.71	-6.1
233.927	6.2
234.144	3.82
234.361	4.65
234.578	0.1
234.795	0.69
235.012	-5.55
235.229	-10.99
235.446	-14.88
235.663	-14.38
235.879	-16.19
236.096	-20.93
236.313	-32.96
236.53	-23.48
236.747	-20.31
236.964	-20.05
237.181	-29.67
237.397	-31.06
237.614	-25.38
237.831	-23.25
238.048	-19.04
238.264	-26.49
238.481	-26.88
238.698	-9.94
238.915	-8.1
239.131	-2.26
239.348	-3.73
239.565	-0.73
239.781	2.78
239.998	-1.74
240.215	-2.9
240.431	-4.91
240.648	7.27
240.865	8.99
241.081	7.01
241.298	6.61
241.514	5.96
241.731	8.02
241.947	8.49
242.164	9.76
242.38	13.13
242.597	14.3
242.814	16.97
243.03	14.02
243.246	13.16
243.463	10.59
243.679	8.71
243.896	9.53
244.112	8.86
244.329	8.03
244.545	8.84
244.762	7.49
244.978	8.17
245.194	5.49
245.411	4.63
245.627	5.15
245.843	5.01
246.06	5.9
246.276	6.22
246.492	7.08
246.709	7.26
246.925	6.43
247.141	5.91
247.357	6.52
247.574	7.15
247.79	8.05
248.006	9.03
248.222	9.84
248.439	10.4
248.655	9.26
248.871	8.57
249.087	10.19
249.303	9.99
249.519	9.92
249.736	7.8
249.952	6.07
250.168	6.57
250.384	4.75
250.6	3.08
250.816	-0.09
251.032	1.4
251.248	0.59
251.464	-4.35
251.68	-3.09
251.896	-2.64
252.112	-3.1
252.328	-4.49
252.544	-6.61
252.76	-8.33
252.976	-10.05
253.192	-7.93
253.408	-9.04
253.624	-8.55
253.84	-7.38
254.056	-8.84
254.272	-9.64
254.487	-7.74
254.703	-4.89
254.919	-6.71
255.135	-5.44
255.351	-4.83
255.567	-3.97
255.782	-3.1
255.998	-2.63
256.214	-1.96
256.43	1.15
256.646	0.47
256.861	1.46
257.077	-0.68
257.293	2.24
257.508	4.54
257.724	6.08
257.94	7.22
258.155	6.82
258.371	5.45
258.587	3.29
258.802	2.36
259.018	3.76
259.234	4.35
259.449	5.57
259.665	5.57
259.88	5.5
260.096	5.44
260.312	5.11
260.527	5.5
260.743	5.28
260.958	6.01
261.174	5.99
261.389	5.87
261.605	5.59
261.82	4.93
262.036	4.07
262.251	4.06
262.466	5.27
262.682	4.25
262.897	3.02
263.113	4.59
263.328	6.33
263.543	3.75
263.759	2.17
263.974	0.07
264.189	-2.58
264.405	-5.06
264.62	-6.58
264.835	-6.95
265.051	-4.15
265.266	-1.35
265.481	-1.97
265.696	-3.93
265.912	-0.56
266.127	1.32
266.342	2.61
266.557	4.2
266.773	7.48
266.988	7.29
267.203	7.39
267.418	6.98
267.633	6.9
267.848	6.76
268.064	7.42
268.279	7.56
268.494	5.76
268.709	5.98
268.924	8.33
269.139	6.27
269.354	6.51
269.569	5.35
269.784	4.52
269.999	3.54
270.214	3.66
270.429	2.79
270.644	2.81
270.859	4.09
271.074	3.28
271.289	1.09
271.504	3.41
271.719	4.17
271.934	3.92
272.149	4.73
272.363	4.86
272.578	5.97
272.793	6.78
273.008	6.26
273.223	6.94
273.438	7.16
273.653	7.97
273.867	6.9
274.082	5.84
274.297	6.41
274.512	4.49
274.726	3.27
274.941	2.13
275.156	2.44
275.371	4.27
275.585	3.34
275.8	4.34
276.015	4.18
276.229	4.25
276.444	4.24
276.659	3.5
276.873	4.96
277.088	5.9
277.302	5.03
277.517	4.29
277.732	1.98
277.946	1.96
278.161	0.29
278.375	0.19
278.59	2.02
278.804	1.76
279.019	1.9
279.233	1.81
279.448	1.53
279.662	2.99
279.877	3.49
280.091	4.75
280.306	4.69
280.52	5.24
280.735	5.42
280.949	3.79
281.163	3.71
281.378	3.85
281.592	4.2
281.806	5.2
282.021	5.08
282.235	5.21
282.449	4.23
282.664	5.13
282.878	5.08
283.092	4.9
283.307	4.94
283.521	5.97
283.735	6.13
283.949	5.48
284.164	5.1
284.378	5.94
284.592	6.02
284.806	6.9
285.02	5.95
285.234	6.52
285.449	6.94
285.663	8.07
285.877	7.98
286.091	7.57
286.305	7.39
286.519	7.96
286.733	7.38
286.947	7.48
287.161	8.04
287.375	8.42
287.589	8.55
287.803	8.7
288.017	7.88
288.231	8.63
288.445	9.09
288.659	9.64
288.873	8.52
289.087	8.26
289.301	7.76
289.515	6.71
289.729	6.19
289.943	4.9
290.157	4.05
290.371	4.73
290.584	3.5
290.798	2.42
291.012	2.56
291.226	2.44
291.44	1.87
291.654	2.01
291.867	2.17
292.081	2.68
292.295	4
292.509	3.23
292.722	2.39
292.936	2.35
293.15	4.34
293.364	4.37
293.577	4.87
293.791	5.99
294.005	5.79
294.218	6.25
294.432	6.17
294.645	5.37
294.859	7.59
295.073	7.19
295.286	6.85
295.5	7.11
295.713	6.55
295.927	6.52
296.14	6.42
296.354	6.82
296.568	6.44
296.781	6.7
296.994	7.57
297.208	5.75
297.421	6.49
297.635	6.55
297.848	6.08
298.062	6.33
298.275	7.12
298.489	6.39
298.702	5.98
298.915	6.06
299.129	5.93
299.342	6.16
299.555	6.34
299.769	6.25
299.982	7.02
300.195	6.57
300.409	6.56
300.622	5.67
300.835	5.54
301.048	5.74
301.262	5.44
301.475	4.58
301.688	3.26
301.901	3.74
302.115	2.75
302.328	3.35
302.541	3.35
302.754	2.76
302.967	3.76
303.18	4.54
303.393	5.46
303.607	6.2
303.82	7.13
304.033	8.09
304.246	9.84
304.459	10.32
304.672	10.07
304.885	10.73
305.098	11.25
305.311	10.35
305.524	10.08
305.737	8.68
305.95	9.28
306.163	8.37
306.376	7.13
306.589	6
306.802	4.4
307.015	3.28
307.228	2.94
307.44	3.45
307.653	3.5
307.866	3.57
308.079	4.54
308.292	4.27
308.505	5.51
308.718	5.93
308.93	6.85
309.143	7.64
309.356	8.37
309.569	9.31
309.781	10.12
309.994	10.05
310.207	10.29
310.42	9.67
310.632	9.29
310.845	9.2
311.058	10.53
311.27	10.12
311.483	10.76
311.696	11.06
311.908	10.85
312.121	9.95
312.333	9.11
312.546	9.36
312.759	9.49
312.971	9.57
313.184	9.41
313.396	7.21
313.609	6.7
313.821	6.45
314.034	4.94
314.246	4.41
314.459	5.26
314.671	5.81
314.884	5.91
315.096	6.04
315.309	5.25
315.521	5.45
315.733	7.11
315.946	7.1
316.158	7.24
316.371	9.61
316.583	8.41
316.795	8.3
317.008	9.22
317.22	9.34
317.432	9.01
317.644	8.2
317.857	8.61
318.069	8.59
318.281	8.66
318.494	8.05
318.706	5.39
318.918	5.84
319.13	5.12
319.342	5.93
319.555	5.52
319.767	6.31
319.979	6.39
320.191	6.82
320.403	6.62
320.615	6.51
320.827	5.27
321.039	6.88
321.252	9.3
321.464	10.55
321.676	9.01
321.888	9.11
322.1	8.53
322.312	10.02
322.524	8.42
322.736	8.66
322.948	8.53
323.16	10.63
323.372	10.42
323.584	8.43
323.796	5.5
324.007	6.14
324.219	6.57
324.431	6.78
324.643	6.28
324.855	7.38
325.067	8.14
325.279	7.55
325.491	8.56
325.702	8.7
325.914	8.91
326.126	11.12
326.338	11.86
326.55	13.01
326.761	13.96
326.973	15.04
327.185	15.34
327.396	15.25
327.608	15.52
327.82	14.61
328.032	15.46
328.243	17.11
328.455	17.88
328.666	18.45
328.878	18.66
329.09	18.66
329.301	18.91
329.513	19.11
329.725	18.4
329.936	19.52
330.148	19.24
330.359	17.96
330.571	16.79
330.782	17.62
330.994	17.83
331.205	16.59
331.417	16.38
331.628	17.43
331.84	16.27
332.051	16.58
332.262	17.85
332.474	18.67
332.685	19.79
332.897	20.82
333.108	20.31
333.319	19.43
333.531	20.39
333.742	21.85
333.953	20.67
334.165	21.5
334.376	21.35
334.587	21.11
334.799	21.32
335.01	21.33
335.221	21.31
335.432	22.3
335.644	24.07
335.855	24.12
336.066	23.18
336.277	23.35
336.488	23.67
336.7	23.93
336.911	24.15
337.122	24.64
337.333	24.64
337.544	23.74
337.755	21.43
337.966	20.57
338.177	20.75
338.388	21.1
338.599	21.78
338.811	21.72
339.022	22.61
339.233	22.32
339.444	21.08
339.655	21.8
339.866	22.35
340.076	23.9
340.287	22.87
340.498	22.94
340.709	22.72
340.92	22.66
341.131	21.93
341.342	21.23
341.553	20.72
341.764	21.45
341.975	20.64
342.185	21.59
342.396	21.77
342.607	22.24
342.818	21.87
343.029	22.12
343.239	21.56
343.45	22.8
343.661	23.15
343.872	23.17
344.082	22.97
344.293	22.81
344.504	22.28
344.714	23.09
344.925	22.63
345.136	22.57
345.346	21.92
345.557	21.83
345.768	21.95
345.978	21.66
346.189	22.51
346.399	22.59
346.61	23.31
346.821	23.57
347.031	23
347.242	23.07
347.452	23.14
347.663	23.23
347.873	23.51
348.084	22.67
348.294	22.95
348.504	22.26
348.715	22.1
348.925	21.23
349.136	20.63
349.346	20.38
349.557	20.23
349.767	20.28
349.977	20.37
350.188	19
350.398	18.76
350.608	18.72
350.819	18.96
351.029	18.67
351.239	18.42
351.449	18.55
351.66	17.78
351.87	18.73
352.08	17.87
352.29	18.12
352.501	20.53
352.711	21.07
352.921	20.81
353.131	20.62
353.341	20.61
353.552	20.56
353.762	20.85
353.972	21.21
354.182	20.3
354.392	20.74
354.602	21.04
354.812	20.69
355.022	20.77
355.232	21.12
355.442	21.13
355.652	21.63
355.862	21.6
356.072	21.05
356.282	21.26
356.492	22.34
356.702	22.58
356.912	21.91
357.122	22.09
357.332	21.78
357.542	21.45
357.752	21.6
357.962	21.75
358.171	21.63
358.381	22.9
358.591	22.44
358.801	21.37
359.011	21.76
359.221	21.99
359.43	21.27
359.64	20.99
359.85	20.45
360.06	19.9
360.269	19.78
360.479	20.59
360.689	19.67
360.899	19.63
361.108	20.56
361.318	19.76
361.528	19.7
361.737	19.99
361.947	20.15
362.156	21.05
362.366	21.46
362.576	21.11
362.785	21.05
362.995	21.63
363.204	21.37
363.414	20.96
363.623	21.26
363.833	21.21
364.042	20.92
364.252	20.93
364.461	20.37
364.671	20.59
364.88	20.39
365.09	20.39
365.299	19.41
365.509	20.12
365.718	19.74
365.927	19.5
366.137	19.78
366.346	19.69
366.555	19.7
366.765	19.81
366.974	19.31
367.183	18.92
367.393	18.83
367.602	19.23
367.811	19.05
368.021	19.04
368.23	18.94
368.439	18.77
368.648	19.29
368.857	18.96
369.067	18.48
369.276	18.02
369.485	18.06
369.694	17.86
369.903	17.64
370.112	17.82
370.321	18.22
370.531	18.52
370.74	18.72
370.949	18.77
371.158	19.21
371.367	19.2
371.576	19.3
371.785	19.88
371.994	19.83
372.203	19.91
372.412	19.38
372.621	19.02
372.83	18.79
373.039	18.2
373.248	17.56
373.457	17.02
373.666	17.44
373.874	17.3
374.083	16.43
374.292	15.87
374.501	15.45
374.71	15.25
374.919	15.68
375.128	16.44
375.336	16.86
375.545	16.49
375.754	16.84
375.963	16.55
376.171	16.88
376.38	17.35
376.589	17.79
376.798	17.76
377.006	17.94
377.215	17.25
377.424	16.34
377.632	15.85
377.841	16.5
378.05	16.42
378.258	16.34
378.467	16.08
378.675	16.07
378.884	15.63
379.093	15.9
379.301	15.77
379.51	16.16
379.718	16.21
379.927	16.54
380.135	16.36
380.344	16.03
380.552	15.85
380.761	15.83
380.969	16.12
381.177	16.54
381.386	16.39
381.594	16.48
381.803	16.11
382.011	16.05
382.219	16.06
382.428	15.6
382.636	15.56
382.845	15.41
383.053	15.5
383.261	15.15
383.469	14.42
383.678	14.82
383.886	15.19
384.094	15.05
384.302	14.85
384.511	14.7
384.719	14.91
384.927	14.74
385.135	14.77
385.343	14.39
385.552	14.57
385.76	14.67
385.968	14.01
386.176	13.57
386.384	13.91
386.592	13.99
386.8	13.52
387.008	13.67
387.216	13.9
387.424	13.59
387.633	13.83
387.841	13.9
388.049	14.25
388.257	13.97
388.465	13.5
388.672	13
388.88	12.99
389.088	13.2
389.296	12.75
389.504	12.27
389.712	12.74
389.92	12.76
390.128	12.83
390.336	12.52
390.544	12.55
390.751	12.51
390.959	12.57
391.167	12.74
391.375	12.6
391.583	12.65
391.79	12.74
391.998	12.42
392.206	11.95
392.414	11.49
392.621	11.12
392.829	10.95
393.037	11.04
393.244	10.88
393.452	10.42
393.66	10.72
393.867	10.52
394.075	10.79
394.283	10.58
394.49	10.61
394.698	10.53
394.905	10.67
395.113	10.9
395.32	10.69
395.528	10.58
395.735	10.68
395.943	10.31
396.15	10.35
396.358	10.14
396.565	10.18
396.773	10.46
396.98	10.37
397.188	10.6
397.395	10.27
397.602	10.62
397.81	10.69
398.017	10.58
398.225	10.48
398.432	10.46
398.639	10.39
398.847	10.32
399.054	10.13
399.261	9.97
399.468	9.89
399.676	10.18
399.883	9.93
400.09	10.13
400.297	10.15
400.505	10.01
400.712	9.79
400.919	9.24
401.126	9.29
401.333	9.4
401.54	9.75
401.748	9.47
401.955	9.21
402.162	9.26
402.369	9.3
402.576	9.05
402.783	9.23
402.99	9.17
403.197	9.58
403.404	9.56
403.611	9.33
403.818	9.11
404.025	9.17
404.232	9.3
404.439	9.5
404.646	9.32
404.853	9.51
405.06	9.27
405.267	9.22
405.474	9.18
405.681	9.39
405.887	9.22
406.094	9.05
406.301	9.06
406.508	8.97
406.715	8.57
406.922	8.32
407.128	8.41
407.335	8.59
407.542	8.6
407.749	8.7
407.955	8.34
408.162	8.71
408.369	8.79
408.575	8.65
408.782	8.69
408.989	8.64
409.195	8.84
409.402	8.69
409.609	8.95
409.815	8.97
410.022	8.88
410.228	9.2
410.435	9.34
410.642	9.52
410.848	9.37
411.055	9.23
411.261	9.39
411.468	9.35
411.674	9.44
411.881	9.12
412.087	9.07
412.294	9.25
412.5	9.24
412.706	8.89
412.913	8.64
413.119	8.9
413.326	9
413.532	9.42
413.738	9.39
413.945	9.3
414.151	9.4
414.357	9.71
414.564	9.36
414.77	8.84
414.976	9.07
415.182	9.12
415.389	8.95
415.595	9.2
415.801	8.72
416.007	8.73
416.214	8.74
416.42	8.78
416.626	8.64
416.832	8.62
417.038	8.86
417.244	8.7
417.45	8.7
417.657	8.84
417.863	8.62
418.069	8.71
418.275	8.54
418.481	8.59
418.687	8.61
418.893	8.55
419.099	8.64
419.305	8.62
419.511	8.49
419.717	8.52
419.923	8.41
420.129	8.47
420.335	8.52
420.541	8.76
420.746	8.63
420.952	8.59
421.158	8.61
421.364	8.47
421.57	8.48
421.776	8.48
421.982	8.36
422.187	8.38
422.393	8.32
422.599	8.28
422.805	8.12
423.01	8.27
423.216	8.2
423.422	8.18
423.628	8.2
423.833	8.2
424.039	8.39
424.245	8.41
424.45	8.43
424.656	8.39
424.862	8.31
425.067	8.18
425.273	8.06
425.478	8.04
425.684	8.15
425.889	8.16
426.095	8.36
426.301	8.14
426.506	8.27
426.712	8.2
426.917	8.21
427.123	8.15
427.328	8.45
427.533	8.49
427.739	8.55
427.944	8.46
428.15	8.5
428.355	7.91
428.561	7.92
428.766	7.84
428.971	7.87
429.177	8.08
429.382	8.3
429.587	7.93
429.793	7.89
429.998	7.87
430.203	7.68
430.408	7.83
430.614	8.06
430.819	8
431.024	8.22
431.229	8.34
431.434	7.95
431.64	7.8
431.845	7.87
432.05	7.76
432.255	7.72
432.46	7.7
432.665	7.6
432.87	7.7
433.076	7.72
433.281	7.6
433.486	7.52
433.691	7.67
433.896	7.7
434.101	7.69
434.306	7.75
434.511	7.53
434.716	7.47
434.921	7.39
435.126	7.18
435.331	7.25
435.535	7.19
435.74	7.15
435.945	7.08
436.15	6.94
436.355	6.96
436.56	6.93
436.765	7.1
436.97	7.27
437.174	7.4
437.379	7.58
437.584	7.52
437.789	7.47
437.993	7.52
438.198	7.55
438.403	7.76
438.608	7.89
438.812	8.01
439.017	8.05
439.222	8.14
439.426	8.06
439.631	7.99
439.836	8.02
440.04	7.98
440.245	7.85
440.45	7.96
440.654	7.87
440.859	7.84
441.063	7.84
441.268	7.92
441.472	7.76
441.677	7.88
441.881	7.87
442.086	7.99
442.29	8.08
442.495	8.24
442.699	8.08
442.904	8.16
443.108	8.05
443.312	7.86
443.517	7.84
443.721	7.86
443.925	7.65
444.13	7.81
444.334	7.68
444.538	7.72
444.743	7.66
444.947	7.67
445.151	7.54
445.356	7.6
445.56	7.63
445.764	7.71
445.968	7.67
446.173	7.83
446.377	7.61
446.581	7.48
446.785	7.34
446.989	7.3
447.193	7.37
447.398	7.44
447.602	7.5
447.806	7.49
448.01	7.4
448.214	7.51
448.418	7.24
448.622	7.16
448.826	7.32
449.03	7.46
449.234	7.57
449.438	7.58
449.642	7.56
449.846	7.27
450.05	7.27
450.254	7.25
450.458	6.97
450.662	7.23
450.866	7.47
451.069	7.41
451.273	7.21
451.477	7.07
451.681	6.82
451.885	6.98
452.089	7.16
452.292	7.08
452.496	7.1
452.7	7.2
452.904	7.28
453.107	7.19
453.311	7.15
453.515	7.31
453.719	7.38
453.922	7.4
454.126	7.09
454.33	7.11
454.533	7.05
454.737	6.92
454.94	7.02
455.144	6.92
455.348	7.03
455.551	6.97
455.755	6.96
455.958	7.02
456.162	7.05
456.365	7.21
456.569	7.1
456.772	7.34
456.976	7.55
457.179	7.46
457.383	7.36
457.586	7.36
457.79	7.37
457.993	7.33
458.196	7.16
458.4	7.31
458.603	7.3
458.807	7.44
459.01	7.32
459.213	7.31
459.417	7.44
459.62	7.4
459.823	7.36
460.026	7.4
460.23	7.37
460.433	7.36
460.636	7.38
460.839	7.36
461.042	7.2
461.246	7.23
461.449	7.04
461.652	6.88
461.855	6.91
462.058	6.92
462.261	7.01
462.464	7.06
462.668	7.11
462.871	6.89
463.074	6.88
463.277	7.1
463.48	7.09
463.683	7.06
463.886	7.16
464.089	7.02
464.292	6.92
464.495	6.84
464.698	6.93
464.901	6.85
