Data from CB_114_Reflection_1.txt Node
Date: Sat Nov 14 19:00:37 EST 2015
User: robert
Spectrometer: USB4E03001
Autoset integration time: false
Trigger mode: 4
Integration Time (sec): 1.000000E-1
Scans to average: 15
Electric dark correction enabled: true
Nonlinearity correction enabled: false
Boxcar width: 5
Stray light correction enabled: false
XAxis mode: Wavelengths
Stop averaging: false
Number of Pixels in Spectrum: 3648
>>>>>Begin Spectral Data<<<<<
177.566	34.32
177.785	39.66
178.005	40.11
178.225	68.71
178.445	35.2
178.665	117.89
178.885	166.67
179.105	160.86
179.324	147.63
179.544	1307.02
179.764	-22.24
179.984	-26.74
180.204	21.28
180.423	-15.11
180.643	7.14
180.863	-37.59
181.083	-33.12
181.302	-3.22
181.522	-429.17
181.742	-328.33
181.961	-60.72
182.181	-126.11
182.401	-56.54
182.621	-77.93
182.84	-106.42
183.06	-79.39
183.279	575.81
183.499	177.72
183.719	110.97
183.938	268.3
184.158	184.27
184.377	73.7
184.597	18.16
184.816	2.03
185.036	-6.63
185.256	-29.09
185.475	-5.03
185.695	6.35
185.914	-11.98
186.134	-41.32
186.353	-52.77
186.572	-43.69
186.792	13.91
187.011	27.14
187.231	7.04
187.45	31.64
187.67	176.18
187.889	220.6
188.108	154.56
188.328	181.72
188.547	97.82
188.766	176.82
188.986	-451.84
189.205	-23.47
189.424	-4.19
189.644	-29.08
189.863	-11.36
190.082	123.6
190.302	192.04
190.521	142.94
190.74	115.99
190.959	145.36
191.178	147.12
191.398	130.85
191.617	106.9
191.836	142.75
192.055	109.29
192.274	99.23
192.494	301.83
192.713	-193.51
192.932	415.31
193.151	-199.31
193.37	-62.53
193.589	-36.28
193.808	-60.99
194.027	-89.24
194.246	-12.74
194.465	10.14
194.685	21.2
194.904	78.06
195.123	70.78
195.342	102.35
195.561	139.71
195.78	98.2
195.999	85.44
196.218	248.22
196.436	166.67
196.655	73.94
196.874	188.62
197.093	134.22
197.312	1011.67
197.531	36.04
197.75	-1.35
197.969	-31.29
198.188	-127.93
198.407	-214.84
198.625	-139.03
198.844	-86.05
199.063	-104.04
199.282	-80.22
199.501	-184.74
199.719	-557.39
199.938	268.27
200.157	71.72
200.376	92
200.594	141.53
200.813	59.47
201.032	12.8
201.251	7.52
201.469	61.32
201.688	57.95
201.907	51.55
202.125	65.43
202.344	60.22
202.563	65.62
202.781	46.19
203	71.73
203.218	121.72
203.437	159.01
203.656	267.77
203.874	428.63
204.093	306.61
204.311	-80.07
204.53	-26.6
204.748	3.71
204.967	-63.13
205.185	-67.17
205.404	-55.66
205.622	10.99
205.841	-71.42
206.059	22.99
206.278	-148.33
206.496	-13.39
206.715	-4.47
206.933	-73.65
207.151	-73.02
207.37	2.12
207.588	45.74
207.806	63.47
208.025	171.18
208.243	190.87
208.461	-33.22
208.68	338.2
208.898	-330.23
209.116	-649.19
209.335	165.23
209.553	301.44
209.771	153.87
209.989	-72.98
210.208	-10.28
210.426	-92.99
210.644	-110.22
210.862	20.99
211.081	34.39
211.299	56.96
211.517	520.3
211.735	-19.49
211.953	-739.04
212.171	221.92
212.39	192.62
212.608	8.32
212.826	-38.9
213.044	-309.18
213.262	-1822.73
213.48	56.65
213.698	290.01
213.916	125.24
214.134	64.13
214.352	22.85
214.57	137.78
214.788	1066.27
215.006	1885.06
215.224	-2960.87
215.442	219.92
215.66	473.87
215.878	-4.39
216.096	-16.85
216.314	66.66
216.532	68.69
216.75	88.03
216.968	94.5
217.185	146.29
217.403	163.8
217.621	148.89
217.839	121.82
218.057	118.66
218.275	240.89
218.492	-420.13
218.71	-350.66
218.928	212.58
219.146	112.5
219.363	80.98
219.581	61.91
219.799	10.82
220.017	-55.04
220.234	-47.33
220.452	-101.4
220.67	-77.64
220.887	-266.02
221.105	-135.73
221.323	-374.68
221.54	-263.45
221.758	-783
221.976	1240.17
222.193	652.57
222.411	373.65
222.629	-4342.15
222.846	-1665.71
223.064	1887.17
223.281	-92.83
223.499	335.16
223.716	-184.63
223.934	179.73
224.151	998.43
224.369	-99.7
224.586	-39.72
224.804	-8.89
225.021	12.69
225.239	-29.96
225.456	-65.23
225.674	-40.09
225.891	-9.8
226.108	1.05
226.326	20.37
226.543	24.53
226.76	20.53
226.978	16.34
227.195	23.86
227.413	22.45
227.63	20.35
227.847	28.04
228.064	22
228.282	16.62
228.499	17.62
228.716	16.9
228.934	16.05
229.151	14.46
229.368	11.7
229.585	11.16
229.802	12.58
230.02	12.94
230.237	12.59
230.454	12.31
230.671	14.06
230.888	8.81
231.105	9.65
231.323	12.53
231.54	15.2
231.757	20.05
231.974	12.77
232.191	6.98
232.408	5.21
232.625	-4.53
232.842	0.54
233.059	-1.46
233.276	6.4
233.493	3.53
233.71	0.3
233.927	-9.44
234.144	-13.73
234.361	-6.83
234.578	-4.81
234.795	-8.57
235.012	-2.19
235.229	-4.9
235.446	-2.71
235.663	-3.93
235.879	-4.37
236.096	-2.33
236.313	2.01
236.53	0.77
236.747	-2.68
236.964	-4.8
237.181	2
237.397	7.43
237.614	5.33
237.831	3.17
238.048	0.94
238.264	3.08
238.481	1.46
238.698	8.61
238.915	11.01
239.131	14.88
239.348	14.24
239.565	12.84
239.781	6.17
239.998	12.38
240.215	14.86
240.431	16.57
240.648	15
240.865	15.26
241.081	12.95
241.298	12.77
241.514	10.53
241.731	9.63
241.947	8.77
242.164	9.13
242.38	8.98
242.597	8.26
242.814	9.49
243.03	10.4
243.246	10.08
243.463	9.29
243.679	9.71
243.896	8.71
244.112	10.41
244.329	12.96
244.545	14.08
244.762	13.77
244.978	13.87
245.194	12.43
245.411	12.29
245.627	10.26
245.843	10.72
246.06	10.55
246.276	12.9
246.492	12.6
246.709	10.8
246.925	9.88
247.141	9.24
247.357	9.4
247.574	9.42
247.79	8.36
248.006	9.28
248.222	9.88
248.439	9.49
248.655	9.01
248.871	8.64
249.087	9.33
249.303	9.56
249.519	10.87
249.736	9.72
249.952	9.15
250.168	10.22
250.384	9.68
250.6	7.85
250.816	8.15
251.032	8.04
251.248	6.19
251.464	6.8
251.68	6.13
251.896	4.48
252.112	6.53
252.328	6.52
252.544	6.67
252.76	7.47
252.976	8.79
253.192	8.2
253.408	6.7
253.624	7
253.84	5.09
254.056	7.36
254.272	8.65
254.487	5.85
254.703	7.97
254.919	9.14
255.135	8.03
255.351	8.52
255.567	9.2
255.782	10.69
255.998	9.41
256.214	11.02
256.43	8.6
256.646	4.99
256.861	6.9
257.077	5.76
257.293	3.28
257.508	3.07
257.724	0.55
257.94	2.45
258.155	1.91
258.371	3.38
258.587	3.46
258.802	2.53
259.018	2.68
259.234	2.29
259.449	3.45
259.665	4.51
259.88	4.52
260.096	4.63
260.312	4.02
260.527	4.06
260.743	4.03
260.958	4.09
261.174	4.76
261.389	5.29
261.605	6.56
261.82	4.9
262.036	4.72
262.251	5.99
262.466	7.29
262.682	7.64
262.897	9.08
263.113	9.25
263.328	9.67
263.543	10.45
263.759	10.47
263.974	10.26
264.189	11.34
264.405	11.23
264.62	10.63
264.835	9.7
265.051	10.79
265.266	8.91
265.481	9.03
265.696	8.57
265.912	8.96
266.127	11.3
266.342	9.24
266.557	9.06
266.773	10.23
266.988	8.89
267.203	9.06
267.418	10.42
267.633	10.26
267.848	9.62
268.064	10.31
268.279	9.59
268.494	8.27
268.709	8.16
268.924	9.17
269.139	8.77
269.354	9.31
269.569	9.48
269.784	9.07
269.999	9.25
270.214	9.46
270.429	8.41
270.644	7.89
270.859	8.08
271.074	7.42
271.289	7.19
271.504	6.85
271.719	7.48
271.934	7.18
272.149	5.66
272.363	6.89
272.578	6.97
272.793	6.95
273.008	8.54
273.223	9.15
273.438	10.11
273.653	10.96
273.867	10.45
274.082	9.54
274.297	9.59
274.512	9.74
274.726	8.71
274.941	9.21
275.156	9.56
275.371	8.11
275.585	6.08
275.8	7.14
276.015	4.65
276.229	6.6
276.444	6.53
276.659	7.04
276.873	7.35
277.088	6.27
277.302	5.13
277.517	4.17
277.732	4.89
277.946	5.29
278.161	6.2
278.375	7.32
278.59	6.28
278.804	5.68
279.019	4.6
279.233	3.74
279.448	5.14
279.662	5.82
279.877	8.81
280.091	9.06
280.306	8.48
280.52	7.17
280.735	6.84
280.949	7.19
281.163	8.32
281.378	8.81
281.592	8.91
281.806	7.92
282.021	9.63
282.235	6.35
282.449	5.63
282.664	6.75
282.878	4.54
283.092	5.74
283.307	5.67
283.521	4.83
283.735	4.93
283.949	5.55
284.164	6.66
284.378	5.83
284.592	6.77
284.806	5.51
285.02	5.09
285.234	7.25
285.449	6.82
285.663	6.45
285.877	6.71
286.091	6.9
286.305	6.99
286.519	7.58
286.733	6.96
286.947	7.89
287.161	8.78
287.375	8.76
287.589	8.37
287.803	8.18
288.017	8.98
288.231	9.2
288.445	9.04
288.659	9.08
288.873	7.83
289.087	8.4
289.301	7.58
289.515	7.4
289.729	6.15
289.943	5.75
290.157	5.24
290.371	3.15
290.584	3.6
290.798	4
291.012	4.31
291.226	4.73
291.44	5.88
291.654	5.7
291.867	6.22
292.081	7.72
292.295	9.74
292.509	10.85
292.722	12.03
292.936	11.03
293.15	10.94
293.364	8.85
293.577	9.23
293.791	6.76
294.005	7.63
294.218	8.26
294.432	8.05
294.645	7.34
294.859	7.11
295.073	7.21
295.286	9.21
295.5	8.56
295.713	10.36
295.927	9.99
296.14	10.11
296.354	9.67
296.568	8.57
296.781	9.38
296.994	8.64
297.208	8.5
297.421	8.9
297.635	8.38
297.848	8.62
298.062	8.03
298.275	7.66
298.489	8.84
298.702	8.52
298.915	8.53
299.129	8.15
299.342	8.56
299.555	8.5
299.769	8.23
299.982	7.98
300.195	7.85
300.409	7.17
300.622	7.66
300.835	5.97
301.048	7.4
301.262	8.61
301.475	8.21
301.688	7.97
301.901	7.91
302.115	7.94
302.328	7.54
302.541	6.3
302.754	7.05
302.967	7.96
303.18	8.85
303.393	7.89
303.607	6.37
303.82	7.2
304.033	7.4
304.246	6.84
304.459	6.99
304.672	6.64
304.885	9.05
305.098	10.24
305.311	9.39
305.524	10.01
305.737	10.87
305.95	11.43
306.163	11.72
306.376	11.25
306.589	11.69
306.802	11.76
307.015	13.44
307.228	11.8
307.44	10.65
307.653	10.81
307.866	10.44
308.079	9.95
308.292	10.42
308.505	9.76
308.718	9.68
308.93	10.11
309.143	10.13
309.356	9.78
309.569	9.55
309.781	9.09
309.994	8.8
310.207	9.16
310.42	8.9
310.632	7.98
310.845	7.69
311.058	8.09
311.27	9.06
311.483	8.7
311.696	7.85
311.908	7.88
312.121	8.68
312.333	9.34
312.546	9.06
312.759	9.1
312.971	9.96
313.184	8.97
313.396	8.62
313.609	6.12
313.821	6.42
314.034	6.79
314.246	6.95
314.459	6.57
314.671	6.15
314.884	6.77
315.096	6.74
315.309	6.5
315.521	7.2
315.733	7.58
315.946	7.98
316.158	8.34
316.371	8.43
316.583	9.45
316.795	10.51
317.008	9.29
317.22	7.69
317.432	7.18
317.644	8.23
317.857	9.12
318.069	9.15
318.281	10.08
318.494	11.13
318.706	12.09
318.918	11.95
319.13	11.18
319.342	13.12
319.555	13.12
319.767	13.86
319.979	11.73
320.191	11.85
320.403	11.67
320.615	11.43
320.827	10.17
321.039	9.85
321.252	9.51
321.464	9.08
321.676	8.5
321.888	8.78
322.1	9.57
322.312	11.24
322.524	11.87
322.736	13.51
322.948	13.93
323.16	13.46
323.372	13.15
323.584	12.62
323.796	13.56
324.007	13.53
324.219	13.59
324.431	13.11
324.643	12.75
324.855	12.15
325.067	11.41
325.279	11.15
325.491	11.63
325.702	12.24
325.914	13.26
326.126	12.86
326.338	11.95
326.55	11.77
326.761	12.1
326.973	12.16
327.185	12.12
327.396	13.13
327.608	14.23
327.82	14.91
328.032	14.68
328.243	15.09
328.455	15.95
328.666	17.51
328.878	19.4
329.09	18.31
329.301	18.53
329.513	18.04
329.725	18.23
329.936	18.76
330.148	19.04
330.359	21.29
330.571	21.48
330.782	21.94
330.994	21.84
331.205	20.21
331.417	21.45
331.628	23.06
331.84	22.85
332.051	22.12
332.262	21.55
332.474	21.1
332.685	19.28
332.897	19.73
333.108	18.51
333.319	19.37
333.531	19.73
333.742	19.46
333.953	18.91
334.165	20.74
334.376	20.28
334.587	20.33
334.799	21
335.01	20.62
335.221	19.6
335.432	19.28
335.644	18.37
335.855	18.23
336.066	18.93
336.277	19.6
336.488	19.42
336.7	19.48
336.911	18.93
337.122	18.26
337.333	18.04
337.544	18.77
337.755	19.54
337.966	20.04
338.177	20.77
338.388	20.82
338.599	20.94
338.811	20.54
339.022	20.78
339.233	21.47
339.444	20.87
339.655	20.67
339.866	20.12
340.076	20.55
340.287	21.12
340.498	21.27
340.709	21.27
340.92	20.86
341.131	21.38
341.342	21.95
341.553	21.76
341.764	23.37
341.975	23.46
342.185	23.99
342.396	24.21
342.607	23.88
342.818	24.17
343.029	24.53
343.239	25.57
343.45	25.55
343.661	24.88
343.872	23.5
344.082	22.35
344.293	22.58
344.504	22.35
344.714	22.2
344.925	21.69
345.136	20.96
345.346	20.09
345.557	18.99
345.768	18.37
345.978	18.34
346.189	19.39
346.399	20.16
346.61	20.36
346.821	20.99
347.031	20.52
347.242	20.52
347.452	20.94
347.663	21.36
347.873	20.56
348.084	20.02
348.294	19.6
348.504	20.21
348.715	19.59
348.925	20.08
349.136	19.4
349.346	19.06
349.557	19.69
349.767	19.64
349.977	19.34
350.188	20.67
350.398	21.26
350.608	21.76
350.819	21.35
351.029	21.15
351.239	20.44
351.449	19.91
351.66	20.26
351.87	19.54
352.08	18.68
352.29	18.96
352.501	17.79
352.711	18.23
352.921	18.1
353.131	18.5
353.341	18.44
353.552	17.95
353.762	18.74
353.972	18.96
354.182	19.1
354.392	20.5
354.602	20.32
354.812	20.52
355.022	20.54
355.232	20.97
355.442	20.08
355.652	20.68
355.862	21.44
356.072	21.32
356.282	21.02
356.492	19.81
356.702	18.69
356.912	19.42
357.122	19.19
357.332	19.31
357.542	18.81
357.752	20.01
357.962	19.54
358.171	19.97
358.381	19.73
358.591	19.48
358.801	20.66
359.011	21.12
359.221	20.78
359.43	21.09
359.64	20.95
359.85	20.86
360.06	19.71
360.269	20.18
360.479	19.95
360.689	19.95
360.899	20.14
361.108	19.86
361.318	19.81
361.528	19.21
361.737	19.37
361.947	19
362.156	19.61
362.366	20.42
362.576	19.86
362.785	19.78
362.995	19.61
363.204	19.2
363.414	19.65
363.623	20.22
363.833	20.49
364.042	20.39
364.252	20.96
364.461	19.98
364.671	19.45
364.88	19.45
365.09	19.31
365.299	20.13
365.509	20.59
365.718	19.9
365.927	19.62
366.137	19.47
366.346	19.24
366.555	19.24
366.765	19.65
366.974	19.21
367.183	19.55
367.393	19.47
367.602	18.79
367.811	18.46
368.021	18.35
368.23	18.13
368.439	17.79
368.648	18.09
368.857	17.17
369.067	17.02
369.276	17.39
369.485	17.76
369.694	17.46
369.903	17.53
370.112	17.68
370.321	18.04
370.531	17.66
370.74	18.05
370.949	17.91
371.158	18.83
371.367	19.11
371.576	19.02
371.785	18.4
371.994	18.41
372.203	17.62
372.412	16.69
372.621	16.9
372.83	16.46
373.039	16.54
373.248	16.09
373.457	15.5
373.666	15.31
373.874	15.16
374.083	15.65
374.292	16.43
374.501	16.92
374.71	18.01
374.919	18.05
375.128	18.75
375.336	18.13
375.545	18.62
375.754	18.68
375.963	18.36
376.171	18.23
376.38	17.77
376.589	16.98
376.798	17.83
377.006	17.84
377.215	17.38
377.424	17.06
377.632	17.63
377.841	17.48
378.05	17.38
378.258	17.92
378.467	18.02
378.675	18.03
378.884	18.3
379.093	17.74
379.301	18.06
379.51	18.15
379.718	18.29
379.927	18.43
380.135	18.47
380.344	18.78
380.552	18.37
380.761	18.48
380.969	18.64
381.177	18.62
381.386	18.1
381.594	17.69
381.803	17.94
382.011	17.68
382.219	17.18
382.428	16.83
382.636	16.92
382.845	16.6
383.053	16.69
383.261	16.65
383.469	16.8
383.678	17.4
383.886	17.12
384.094	17.13
384.302	17.52
384.511	17.44
384.719	17.4
384.927	17.17
385.135	17.24
385.343	16.82
385.552	16.53
385.76	16.45
385.968	16.08
386.176	15.85
386.384	15.78
386.592	15.41
386.8	15.59
387.008	15.59
387.216	15.25
387.424	15.5
387.633	15.3
387.841	15.48
388.049	15.03
388.257	15.14
388.465	15.4
388.672	14.95
388.88	14.9
389.088	14.88
389.296	15.04
389.504	14.76
389.712	14.55
389.92	14.76
390.128	14.78
390.336	14.86
390.544	14.94
390.751	14.92
390.959	15.22
391.167	15.09
391.375	14.91
391.583	14.97
391.79	15
391.998	14.98
392.206	15.4
392.414	15.33
392.621	15.21
392.829	15.34
393.037	15.23
393.244	15.3
393.452	15.45
393.66	15.45
393.867	15.43
394.075	15.72
394.283	15.68
394.49	15.34
394.698	15.09
394.905	15.05
395.113	14.85
395.32	14.96
395.528	14.91
395.735	14.96
395.943	14.9
396.15	14.74
396.358	14.72
396.565	14.45
396.773	14.32
396.98	14.67
397.188	14.98
397.395	15.02
397.602	14.96
397.81	14.45
398.017	14.24
398.225	14.34
398.432	14.47
398.639	14.34
398.847	14.28
399.054	13.96
399.261	13.58
399.468	13.27
399.676	13.35
399.883	13.28
400.09	13.52
400.297	13.68
400.505	13.53
400.712	13.3
400.919	13.42
401.126	13.97
401.333	14.44
401.54	14.84
401.748	14.88
401.955	14.77
402.162	14.81
402.369	14.62
402.576	14.71
402.783	15.13
402.99	15.57
403.197	15.65
403.404	15.33
403.611	15.27
403.818	14.98
404.025	14.9
404.232	14.78
404.439	14.88
404.646	15.16
404.853	15
405.06	14.7
405.267	14.38
405.474	14.34
405.681	14.4
405.887	14.34
406.094	14.55
406.301	14.88
406.508	15.19
406.715	15.41
406.922	15.33
407.128	15.54
407.335	15.8
407.542	15.98
407.749	15.79
407.955	15.91
408.162	15.65
408.369	15.77
408.575	15.71
408.782	15.53
408.989	15.38
409.195	15.63
409.402	15.7
409.609	15.59
409.815	15.57
410.022	15.85
410.228	15.82
410.435	16.3
410.642	16.21
410.848	16.38
411.055	16.41
411.261	16.36
411.468	16.38
411.674	16.43
411.881	16.48
412.087	16.7
412.294	16.86
412.5	17.06
412.706	17.17
412.913	17.41
413.119	17.67
413.326	17.69
413.532	17.94
413.738	17.97
413.945	17.97
414.151	17.8
414.357	17.58
414.564	17.33
414.77	17.26
414.976	17.21
415.182	17.02
415.389	16.55
415.595	16.42
415.801	16.3
416.007	16.28
416.214	16.51
416.42	16.68
416.626	16.74
416.832	17.14
417.038	17.04
417.244	16.93
417.45	17.13
417.657	17.21
417.863	17.21
418.069	17.36
418.275	17.22
418.481	17.11
418.687	17.13
418.893	17.23
419.099	17.1
419.305	17.22
419.511	17.35
419.717	17.22
419.923	17.34
420.129	17.37
420.335	17.29
420.541	17.35
420.746	17.34
420.952	17.44
421.158	17.43
421.364	17.4
421.57	17.39
421.776	17.41
421.982	17.61
422.187	17.7
422.393	17.74
422.599	17.67
422.805	17.8
423.01	17.89
423.216	17.86
423.422	17.82
423.628	17.9
423.833	17.92
424.039	18.03
424.245	17.91
424.45	17.82
424.656	17.85
424.862	18.05
425.067	18.06
425.273	18.01
425.478	18.04
425.684	18.09
425.889	18.1
426.095	17.96
426.301	17.88
426.506	17.87
426.712	17.95
426.917	18.07
427.123	17.95
427.328	17.93
427.533	17.95
427.739	17.93
427.944	17.94
428.15	17.81
428.355	18.19
428.561	18.29
428.766	18.28
428.971	18.23
429.177	18.13
429.382	18.07
429.587	18.04
429.793	17.97
429.998	18.01
430.203	18.15
430.408	18.13
430.614	17.94
430.819	17.77
431.024	17.97
431.229	17.97
431.434	17.9
431.64	17.95
431.845	18
432.05	18.17
432.255	18.21
432.46	18.27
432.665	18.16
432.87	18.04
433.076	18.05
433.281	17.68
433.486	17.78
433.691	17.77
433.896	17.77
434.101	17.76
434.306	17.52
434.511	17.45
434.716	17.38
434.921	17.59
435.126	17.76
435.331	17.77
435.535	18.09
435.74	17.89
435.945	18.02
436.15	18.13
436.355	18.21
436.56	18.38
436.765	18.54
436.97	18.46
437.174	18.56
437.379	18.56
437.584	18.69
437.789	18.72
437.993	18.75
438.198	18.82
438.403	18.75
438.608	18.68
438.812	18.66
439.017	18.58
439.222	18.55
439.426	18.37
439.631	18.39
439.836	18.37
440.04	18.32
440.245	18.49
440.45	18.43
440.654	18.53
440.859	18.39
441.063	18.25
441.268	18.26
441.472	18.41
441.677	18.45
441.881	18.5
442.086	18.43
442.29	18.54
442.495	18.32
442.699	18.28
442.904	18.2
443.108	18.34
443.312	18.63
443.517	18.69
443.721	18.51
443.925	18.59
444.13	18.69
444.334	18.67
444.538	18.55
444.743	18.59
444.947	18.66
445.151	18.7
445.356	18.64
445.56	18.6
445.764	18.66
445.968	18.66
446.173	18.65
446.377	18.53
446.581	18.55
446.785	18.53
446.989	18.41
447.193	18.39
447.398	18.3
447.602	18.32
447.806	18.32
448.01	18.15
448.214	18.25
448.418	18.27
448.622	18.07
448.826	18.05
449.03	18.08
449.234	18.34
449.438	18.49
449.642	18.55
449.846	18.69
450.05	18.56
450.254	18.49
450.458	18.36
450.662	18.29
450.866	18.44
451.069	18.28
451.273	18.19
451.477	18.13
451.681	17.86
451.885	17.86
452.089	17.79
452.292	17.94
452.496	18.06
452.7	17.86
452.904	17.82
453.107	17.86
453.311	18.09
453.515	18.25
453.719	18.38
453.922	18.61
454.126	18.8
454.33	18.68
454.533	18.46
454.737	18.37
454.94	18.61
455.144	18.63
455.348	18.65
455.551	18.62
455.755	18.49
455.958	18.13
456.162	17.82
456.365	17.7
456.569	17.71
456.772	17.78
456.976	17.8
457.179	18.04
457.383	18.08
457.586	18.07
457.79	18.04
457.993	18.18
458.196	18.37
458.4	18.46
458.603	18.27
458.807	18.3
459.01	18.23
459.213	18.29
459.417	18.14
