Data from CB_110_Reflection_2.txt Node
Date: Sat Nov 14 18:13:04 EST 2015
User: robert
Spectrometer: USB4E03001
Autoset integration time: false
Trigger mode: 4
Integration Time (sec): 1.000000E-1
Scans to average: 15
Electric dark correction enabled: true
Nonlinearity correction enabled: false
Boxcar width: 5
Stray light correction enabled: false
XAxis mode: Wavelengths
Stop averaging: false
Number of Pixels in Spectrum: 3648
>>>>>Begin Spectral Data<<<<<
177.566	211.21
177.785	-1745.81
178.005	594.52
178.225	463.77
178.445	-1112.63
178.665	278.85
178.885	-837.11
179.105	214.49
179.324	239.56
179.544	90.62
179.764	84.03
179.984	74.72
180.204	87.28
180.423	97.86
180.643	90.72
180.863	98.78
181.083	88.55
181.302	69.65
181.522	67.66
181.742	86.31
181.961	120.33
182.181	119.63
182.401	354.34
182.621	244.67
182.84	337.78
183.06	191.77
183.279	140.57
183.499	229.45
183.719	184.43
183.938	87.31
184.158	126.62
184.377	116.15
184.597	127.93
184.816	100.37
185.036	89.09
185.256	89.98
185.475	79.84
185.695	81.28
185.914	71.71
186.134	83.08
186.353	91.25
186.572	65.38
186.792	69.6
187.011	69.51
187.231	67.72
187.45	74.57
187.67	66.24
187.889	85.8
188.108	96.08
188.328	119.56
188.547	108.55
188.766	120.27
188.986	121.69
189.205	112.63
189.424	105.45
189.644	108.94
189.863	121.8
190.082	152.01
190.302	123.86
190.521	96.69
190.74	67.42
190.959	73.55
191.178	83.93
191.398	112.17
191.617	144.01
191.836	179.36
192.055	140.32
192.274	129.83
192.494	120
192.713	202.54
192.932	300.72
193.151	598.86
193.37	391.43
193.589	285.6
193.808	416.23
194.027	735.15
194.246	-1808.65
194.465	2793.14
194.685	236.64
194.904	219.42
195.123	134.63
195.342	102.93
195.561	81.19
195.78	104.53
195.999	140.57
196.218	98.73
196.436	98.02
196.655	93.94
196.874	108.58
197.093	114.62
197.312	116.4
197.531	127.07
197.75	126.41
197.969	124.26
198.188	136.51
198.407	108.44
198.625	134.45
198.844	131.39
199.063	114.75
199.282	113.84
199.501	125.73
199.719	114.81
199.938	83.3
200.157	74.28
200.376	80.49
200.594	77.5
200.813	102.59
201.032	74.28
201.251	78.74
201.469	97.67
201.688	91.76
201.907	89.26
202.125	100.63
202.344	185.8
202.563	211.68
202.781	215.2
203	235.07
203.218	221.5
203.437	211.85
203.656	215.44
203.874	149.63
204.093	179.86
204.311	193.92
204.53	217.9
204.748	134.14
204.967	151.07
205.185	167.73
205.404	147.69
205.622	131.02
205.841	142.12
206.059	130.23
206.278	129.14
206.496	115.42
206.715	117.85
206.933	89.47
207.151	111.02
207.37	121.98
207.588	93.46
207.806	93.21
208.025	93.19
208.243	89.23
208.461	100.87
208.68	106.51
208.898	116.45
209.116	93.29
209.335	93.43
209.553	105.63
209.771	112.27
209.989	110.5
210.208	112.46
210.426	107.76
210.644	98.43
210.862	80.93
211.081	81.6
211.299	81.64
211.517	92.34
211.735	86.37
211.953	76.63
212.171	63.37
212.39	67.15
212.608	71.04
212.826	65.78
213.044	67.83
213.262	76.65
213.48	77.87
213.698	76.14
213.916	74.91
214.134	72.12
214.352	65.81
214.57	67.85
214.788	81.39
215.006	72.65
215.224	90.23
215.442	139.66
215.66	129.87
215.878	127.3
216.096	154.22
216.314	153.12
216.532	171.06
216.75	189.28
216.968	190.25
217.185	187.62
217.403	225.34
217.621	296.92
217.839	177.15
218.057	226.8
218.275	178.88
218.492	179.79
218.71	179.22
218.928	188.11
219.146	206.28
219.363	162.1
219.581	155.89
219.799	168.7
220.017	135.95
220.234	141.83
220.452	144.23
220.67	190.25
220.887	276.64
221.105	349.58
221.323	6144.79
221.54	665.38
221.758	3930
221.976	1591.94
222.193	305.96
222.411	363.66
222.629	668.18
222.846	780.45
223.064	-716.18
223.281	1003.09
223.499	704.9
223.716	1004.02
223.934	-609.5
224.151	-196.51
224.369	-145.82
224.586	-85.46
224.804	-62.18
225.021	-63.84
225.239	-72.05
225.456	-88.57
225.674	-58.21
225.891	-70.04
226.108	-105.27
226.326	-91.63
226.543	-51.93
226.76	-30.55
226.978	-21.65
227.195	-30.78
227.413	-28.87
227.63	-21.86
227.847	-16.26
228.064	-5.6
228.282	-3.42
228.499	0.75
228.716	-1.45
228.934	-5.17
229.151	-3.99
229.368	-2.03
229.585	-4.72
229.802	-2.22
230.02	-1.93
230.237	-2
230.454	-1.98
230.671	-0.26
230.888	-3.76
231.105	-4.19
231.323	-6.99
231.54	-16.49
231.757	-23.63
231.974	-24.36
232.191	-28.2
232.408	-30.75
232.625	-30.97
232.842	-29.58
233.059	-29.06
233.276	-29.41
233.493	-30.47
233.71	-18.63
233.927	-7.03
234.144	-6.68
234.361	-6.19
234.578	-10.64
234.795	-3.58
235.012	-7.35
235.229	-11.95
235.446	-20.54
235.663	-13.15
235.879	-17.83
236.096	-27.12
236.313	-29
236.53	-25.08
236.747	-22.95
236.964	-24.36
237.181	-28.04
237.397	-30.43
237.614	-31.31
237.831	-25.58
238.048	-28.07
238.264	-27.69
238.481	-26.14
238.698	-14.39
238.915	-8.14
239.131	-5.54
239.348	-4.08
239.565	-3.18
239.781	2.67
239.998	2.98
240.215	4.87
240.431	4.69
240.648	10.15
240.865	14.19
241.081	11.3
241.298	10.57
241.514	9.44
241.731	10.83
241.947	10.46
242.164	10.09
242.38	11.16
242.597	10.98
242.814	11.22
243.03	9.52
243.246	8.99
243.463	9.54
243.679	7.91
243.896	9.05
244.112	6.8
244.329	6.44
244.545	6.43
244.762	6.07
244.978	5.25
245.194	3.05
245.411	1.75
245.627	1.91
245.843	2.02
246.06	3.45
246.276	3.87
246.492	7.11
246.709	6.71
246.925	6.9
247.141	7.39
247.357	8.37
247.574	9.04
247.79	10.05
248.006	10.9
248.222	10.73
248.439	10.46
248.655	9.94
248.871	8.89
249.087	9.46
249.303	9.52
249.519	9.23
249.736	6.88
249.952	7.58
250.168	6.45
250.384	2.23
250.6	1.77
250.816	2.03
251.032	2.56
251.248	1.15
251.464	-0.82
251.68	-1.63
251.896	-2.15
252.112	-2.43
252.328	-4.28
252.544	-5.55
252.76	-4.92
252.976	-5.91
253.192	-7.33
253.408	-7.65
253.624	-6.48
253.84	-6.03
254.056	-5.57
254.272	-8.92
254.487	-9.54
254.703	-6.41
254.919	-8.07
255.135	-7.58
255.351	-8.8
255.567	-4.24
255.782	-5.78
255.998	-3.37
256.214	-3.34
256.43	1.32
256.646	4.73
256.861	7.09
257.077	5.07
257.293	9.27
257.508	10.7
257.724	10.82
257.94	10.72
258.155	9.85
258.371	7.33
258.587	5.89
258.802	4.29
259.018	5.09
259.234	5.78
259.449	5.52
259.665	5.65
259.88	5.68
260.096	6.15
260.312	5.61
260.527	6.76
260.743	7.3
260.958	8.12
261.174	8.45
261.389	8.64
261.605	8.7
261.82	8.57
262.036	7.64
262.251	8.15
262.466	7.6
262.682	8.37
262.897	6.45
263.113	5.36
263.328	6.72
263.543	6.84
263.759	2.89
263.974	1.33
264.189	0.64
264.405	0.92
264.62	-0.7
264.835	-0.41
265.051	-0.12
265.266	-1.51
265.481	-0.02
265.696	-1.74
265.912	-2.92
266.127	-0.2
266.342	2.31
266.557	2.73
266.773	2.95
266.988	3.59
267.203	4.57
267.418	4.52
267.633	8.34
267.848	8.57
268.064	8.67
268.279	9.75
268.494	9.42
268.709	8.46
268.924	9.94
269.139	9.37
269.354	9.51
269.569	9.19
269.784	8.46
269.999	5.22
270.214	4.54
270.429	4.28
270.644	2.8
270.859	3.58
271.074	3.05
271.289	1.64
271.504	3.02
271.719	3.31
271.934	1.96
272.149	3.3
272.363	4.64
272.578	6
272.793	5.79
273.008	6.05
273.223	6.46
273.438	5.35
273.653	6.44
273.867	5.35
274.082	4.89
274.297	5.4
274.512	3.15
274.726	2.1
274.941	1.17
275.156	1.48
275.371	2.39
275.585	1.72
275.8	3.47
276.015	2.22
276.229	2.52
276.444	0.87
276.659	0.81
276.873	3.33
277.088	3.95
277.302	4.06
277.517	5.52
277.732	3.6
277.946	4.39
278.161	4.11
278.375	5.24
278.59	7.13
278.804	8.06
279.019	8.79
279.233	7.47
279.448	7.26
279.662	6.85
279.877	6.14
280.091	7.91
280.306	7.2
280.52	8.11
280.735	8.81
280.949	7.79
281.163	8.15
281.378	7.92
281.592	8.68
281.806	9.43
282.021	8.29
282.235	7.74
282.449	7.44
282.664	7.34
282.878	7.09
283.092	5.92
283.307	5.42
283.521	5.79
283.735	5.38
283.949	4.72
284.164	5.23
284.378	6.92
284.592	6.55
284.806	6.57
285.02	7.18
285.234	7.04
285.449	7.89
285.663	8.47
285.877	7.88
286.091	7.77
286.305	7.24
286.519	6.06
286.733	5.02
286.947	5.36
287.161	5.82
287.375	4.52
287.589	4.61
287.803	3.78
288.017	3.68
288.231	4.21
288.445	3.83
288.659	3.42
288.873	4.56
289.087	4.81
289.301	3.81
289.515	3.49
289.729	3.64
289.943	2.44
290.157	2.13
290.371	2.19
290.584	2.25
290.798	1.97
291.012	3.5
291.226	3.46
291.44	3
291.654	3.86
291.867	3.74
292.081	4.7
292.295	5.56
292.509	5.5
292.722	5.89
292.936	6.37
293.15	8.02
293.364	7.9
293.577	7.78
293.791	7.75
294.005	7.26
294.218	6.99
294.432	6.45
294.645	6.62
294.859	8.1
295.073	7.98
295.286	7.11
295.5	6.96
295.713	6.31
295.927	6.78
296.14	8.07
296.354	8.71
296.568	9.22
296.781	9.91
296.994	10.26
297.208	8.94
297.421	9.51
297.635	9.57
297.848	9.59
298.062	10.84
298.275	11.25
298.489	10.89
298.702	11.83
298.915	11.75
299.129	11.97
299.342	12.01
299.555	11.84
299.769	11.42
299.982	11.91
300.195	12.33
300.409	11.37
300.622	10.21
300.835	9.19
301.048	8.27
301.262	8.1
301.475	6.97
301.688	5.72
301.901	6.93
302.115	5.57
302.328	5.49
302.541	5.79
302.754	5.27
302.967	5.36
303.18	5.63
303.393	5.32
303.607	5.17
303.82	6.06
304.033	7.37
304.246	8.07
304.459	9.42
304.672	9.35
304.885	8.5
305.098	9.01
305.311	8.94
305.524	10.13
305.737	9.2
305.95	9.67
306.163	8.14
306.376	7.25
306.589	7.31
306.802	5.36
307.015	5.7
307.228	6.58
307.44	6.29
307.653	7.85
307.866	7.12
308.079	7.55
308.292	8.3
308.505	10.08
308.718	10.79
308.93	10.94
309.143	11.11
309.356	10.21
309.569	10.07
309.781	11.04
309.994	10.33
310.207	10.19
310.42	10.27
310.632	9.69
310.845	9.13
311.058	10.36
311.27	10.67
311.483	11.7
311.696	12.76
311.908	13.9
312.121	12.73
312.333	12.29
312.546	12.82
312.759	13.37
312.971	13.22
313.184	13.21
313.396	11.38
313.609	9.46
313.821	9.12
314.034	8.36
314.246	6.82
314.459	8.84
314.671	8.35
314.884	8.34
315.096	7.19
315.309	7.18
315.521	7.83
315.733	7.27
315.946	7.64
316.158	7.9
316.371	8.26
316.583	6.97
316.795	5.43
317.008	6.92
317.22	7.71
317.432	8.85
317.644	7.28
317.857	7.03
318.069	9.09
318.281	8.93
318.494	8.31
318.706	7.54
318.918	8.51
319.13	9.22
319.342	8.53
319.555	7.08
319.767	6.13
319.979	7.54
320.191	7.82
320.403	5.97
320.615	7.23
320.827	7.16
321.039	7.21
321.252	7.93
321.464	7.95
321.676	8.17
321.888	8.84
322.1	10.03
322.312	10.82
322.524	10.16
322.736	11.56
322.948	12.02
323.16	12.9
323.372	12.5
323.584	12.38
323.796	11.46
324.007	11.57
324.219	12.08
324.431	12.08
324.643	10.92
324.855	11.94
325.067	12.34
325.279	11.41
325.491	11.62
325.702	12.33
325.914	12.62
326.126	12.9
326.338	13.18
326.55	14.15
326.761	14.84
326.973	16.17
327.185	17
327.396	17.77
327.608	18.06
327.82	16.9
328.032	18.13
328.243	18.7
328.455	20.54
328.666	21.09
328.878	20.75
329.09	21.57
329.301	22.72
329.513	21.87
329.725	20.63
329.936	20.6
330.148	21.47
330.359	20.29
330.571	19.01
330.782	18.21
330.994	17.94
331.205	17.46
331.417	16.27
331.628	15.23
331.84	14.51
332.051	14.73
332.262	16.08
332.474	16.99
332.685	18.01
332.897	19.79
333.108	19.38
333.319	18.86
333.531	18.9
333.742	18.91
333.953	20.44
334.165	21.42
334.376	21.66
334.587	21.8
334.799	21.8
335.01	21.95
335.221	21.24
335.432	22.3
335.644	23.88
335.855	24.73
336.066	25.62
336.277	24.52
336.488	24.17
336.7	24.2
336.911	24.01
337.122	23.76
337.333	23.93
337.544	23.76
337.755	22.6
337.966	21.71
338.177	21.39
338.388	21.29
338.599	20.78
338.811	20.63
339.022	21.48
339.233	20.49
339.444	19.73
339.655	19.71
339.866	19.29
340.076	19.45
340.287	19.05
340.498	19.05
340.709	18.76
340.92	19.79
341.131	19.47
341.342	19.34
341.553	19.61
341.764	21.46
341.975	20.61
342.185	20.92
342.396	20.69
342.607	21.52
342.818	21.65
343.029	20.92
343.239	20.68
343.45	21.36
343.661	20.48
343.872	20.5
344.082	19.76
344.293	20.52
344.504	21.04
344.714	22.4
344.925	22.27
345.136	22.09
345.346	22.59
345.557	23.03
345.768	23.15
345.978	23.39
346.189	24
346.399	23.96
346.61	23.69
346.821	23.25
347.031	22.9
347.242	22.27
347.452	22.57
347.663	22.04
347.873	21.92
348.084	21.67
348.294	22.27
348.504	22.25
348.715	21.11
348.925	20.85
349.136	21.22
349.346	20.92
349.557	21.59
349.767	21.61
349.977	22.34
350.188	20.77
350.398	21.2
350.608	20.92
350.819	20.89
351.029	21.58
351.239	21.31
351.449	20.82
351.66	20.48
351.87	20.48
352.08	19.57
352.29	19.01
352.501	20.41
352.711	20.36
352.921	20.03
353.131	18.94
353.341	19.51
353.552	20.09
353.762	19.94
353.972	19.82
354.182	18.85
354.392	19.08
354.602	19.27
354.812	19
355.022	18.94
355.232	19.53
355.442	20.65
355.652	20.45
355.862	20.11
356.072	20.56
356.282	20.69
356.492	21.75
356.702	21.71
356.912	21.69
357.122	21.64
357.332	21.79
357.542	21.69
357.752	20.99
357.962	21.13
358.171	21.47
358.381	21.93
358.591	22.1
358.801	21.48
359.011	22.08
359.221	22.19
359.43	22.5
359.64	22.21
359.85	21.98
360.06	22.06
360.269	22.39
360.479	22.13
360.689	21.68
360.899	21.43
361.108	21.64
361.318	21.26
361.528	21.02
361.737	21.16
361.947	20.59
362.156	20.57
362.366	20.69
362.576	20.11
362.785	20.57
362.995	21.16
363.204	21.03
363.414	20.89
363.623	21.05
363.833	21.46
364.042	20.67
364.252	21.4
364.461	21.22
364.671	21.32
364.88	21.56
365.09	20.99
365.299	19.91
365.509	20.07
365.718	19.64
365.927	18.85
366.137	18.82
366.346	19.45
366.555	19.49
366.765	19.14
366.974	18.73
367.183	17.86
367.393	18.05
367.602	18.5
367.811	18.95
368.021	19.25
368.23	19.6
368.439	19.21
368.648	19.32
368.857	19.13
369.067	18.95
369.276	18.63
369.485	18.46
369.694	18.15
369.903	18.01
370.112	18.09
370.321	17.88
370.531	17.89
370.74	17.77
370.949	17.4
371.158	17.43
371.367	17.4
371.576	18.15
371.785	18.65
371.994	18.37
372.203	18.53
372.412	17.92
372.621	18.1
372.83	17.39
373.039	17.32
373.248	17.33
373.457	16.59
373.666	16.9
373.874	16.29
374.083	16.41
374.292	16.47
374.501	16.15
374.71	15.31
374.919	15.53
375.128	16.89
375.336	17.07
375.545	17.03
375.754	17.45
375.963	17.78
376.171	17.86
376.38	17.67
376.589	17.92
376.798	17.79
377.006	18.11
377.215	17.77
377.424	17.01
377.632	17
377.841	16.66
378.05	16.5
378.258	16.03
378.467	15.95
378.675	16.54
378.884	15.86
379.093	15.94
379.301	16.03
379.51	15.92
379.718	15.44
379.927	15.31
380.135	15.91
380.344	16.19
380.552	15.89
380.761	15.6
380.969	15.05
381.177	15.77
381.386	15.95
381.594	16.54
381.803	16.91
382.011	16.97
382.219	16.73
382.428	16.07
382.636	15.86
382.845	16.18
383.053	16.47
383.261	16.73
383.469	16.24
383.678	15.78
383.886	15.51
384.094	15.04
384.302	15.33
384.511	15.27
384.719	15.57
384.927	15.3
385.135	15.08
385.343	14.67
385.552	14.23
385.76	14.11
385.968	14.14
386.176	13.88
386.384	14.15
386.592	14.13
386.8	13.92
387.008	13.66
387.216	13.98
387.424	13.81
387.633	14.14
387.841	14.19
388.049	14.42
388.257	14.21
388.465	13.8
388.672	13.41
388.88	13.25
389.088	13.63
389.296	13.21
389.504	12.63
389.712	12.9
389.92	12.65
390.128	12.51
390.336	12.06
390.544	12.04
390.751	12.16
390.959	11.88
391.167	11.84
391.375	11.45
391.583	11.79
391.79	11.85
391.998	11.63
392.206	11.69
392.414	11.36
392.621	11.15
392.829	11.22
393.037	11.63
393.244	11.73
393.452	11.26
393.66	11.56
393.867	11.45
394.075	11.62
394.283	11.81
394.49	11.58
394.698	11.73
394.905	11.83
395.113	11.55
395.32	11.2
395.528	11.05
395.735	11.49
395.943	11.32
396.15	11.23
396.358	11.21
396.565	11.1
396.773	11.42
396.98	11.3
397.188	11.51
397.395	11.71
397.602	11.35
397.81	11.48
398.017	11.32
398.225	11.08
398.432	10.95
398.639	10.7
398.847	10.41
399.054	10.33
399.261	10.36
399.468	10.22
399.676	10.1
399.883	10.23
400.09	10.4
400.297	10.23
400.505	10.15
400.712	10.16
400.919	10.1
401.126	10.06
401.333	10.13
401.54	10.42
401.748	10.44
401.955	10.23
402.162	10.15
402.369	9.93
402.576	10.1
402.783	10.4
402.99	10.49
403.197	10.66
403.404	10.68
403.611	10.44
403.818	10.2
404.025	10.09
404.232	10.14
404.439	10.35
404.646	10.39
404.853	10.35
405.06	10.16
405.267	10.28
405.474	10.01
405.681	9.99
405.887	9.68
406.094	9.57
406.301	9.56
406.508	9.62
406.715	9.48
406.922	9.36
407.128	9.69
407.335	9.84
407.542	9.72
407.749	9.85
407.955	9.79
408.162	10.44
408.369	10.45
408.575	10.73
408.782	10.84
408.989	10.81
409.195	11.12
409.402	10.99
409.609	10.95
409.815	11.06
410.022	11.05
410.228	11.09
410.435	10.66
410.642	10.76
410.848	10.53
411.055	10.14
411.261	10.29
411.468	9.89
411.674	9.83
411.881	9.59
412.087	9.14
412.294	9.47
412.5	9.78
412.706	10.06
412.913	9.81
413.119	9.88
413.326	10.04
413.532	10.16
413.738	10.22
413.945	10.23
414.151	10.13
414.357	10.45
414.564	10.13
414.77	9.69
414.976	9.7
415.182	9.98
415.389	9.99
415.595	10.16
415.801	9.89
416.007	10.11
416.214	9.85
416.42	10.09
416.626	9.96
416.832	9.98
417.038	10.31
417.244	10.43
417.45	10.49
417.657	10.17
417.863	10.12
418.069	9.99
418.275	9.68
418.481	9.85
418.687	9.74
418.893	9.81
419.099	9.87
419.305	9.79
419.511	9.53
419.717	9.4
419.923	9.55
420.129	9.55
420.335	9.54
420.541	9.72
420.746	9.6
420.952	9.75
421.158	9.74
421.364	9.54
421.57	9.48
421.776	9.5
421.982	9.38
422.187	9.3
422.393	9.4
422.599	9.49
422.805	9.46
423.01	9.64
423.216	9.56
423.422	9.55
423.628	9.72
423.833	9.7
424.039	9.8
424.245	9.99
424.45	10.1
424.656	10.15
424.862	10.12
425.067	10.12
425.273	9.97
425.478	9.94
425.684	10
425.889	9.89
426.095	10.04
426.301	9.91
426.506	9.95
426.712	9.95
426.917	9.9
427.123	9.84
427.328	10.03
427.533	10.09
427.739	10.04
427.944	10.09
428.15	10.12
428.355	9.75
428.561	9.72
428.766	9.62
428.971	9.49
429.177	9.43
429.382	9.45
429.587	9.18
429.793	9.17
429.998	9.31
430.203	9
430.408	9.19
430.614	9.27
430.819	9.39
431.024	9.4
431.229	9.59
431.434	9.37
431.64	9.57
431.845	9.56
432.05	9.45
432.255	9.26
432.46	9.37
432.665	9.11
432.87	9.3
433.076	9.14
433.281	9.16
433.486	9.14
433.691	9.06
433.896	8.99
434.101	9.11
434.306	9.06
434.511	9.22
434.716	9.18
434.921	9.31
435.126	9.18
435.331	9.29
435.535	9.29
435.74	9.13
435.945	9.39
436.15	9.32
436.355	9.22
436.56	9.27
436.765	9.26
436.97	9.39
437.174	9.42
437.379	9.48
437.584	9.38
437.789	9.52
437.993	9.64
438.198	9.52
438.403	9.59
438.608	9.7
438.812	9.77
439.017	9.71
439.222	9.75
439.426	9.7
439.631	9.66
439.836	9.81
440.04	9.79
440.245	9.89
440.45	9.8
440.654	9.77
440.859	9.74
441.063	9.83
441.268	9.73
441.472	9.74
441.677	9.93
441.881	10.06
442.086	10.12
442.29	9.97
442.495	10.13
442.699	10.2
442.904	10.43
443.108	10.29
443.312	10.12
443.517	10.38
443.721	10.25
443.925	10.07
444.13	10.02
444.334	9.81
444.538	9.89
444.743	9.54
444.947	9.63
445.151	9.5
445.356	9.8
445.56	9.92
445.764	9.94
445.968	10
446.173	10.05
446.377	9.87
446.581	9.91
446.785	9.76
446.989	9.78
447.193	9.8
447.398	9.78
447.602	9.7
447.806	9.63
448.01	9.44
448.214	9.57
448.418	9.36
448.622	9.35
448.826	9.28
449.03	9.37
449.234	9.41
449.438	9.32
449.642	9.3
449.846	9.05
450.05	8.98
450.254	9.13
450.458	8.77
450.662	8.88
450.866	9.1
451.069	9.34
451.273	9.27
451.477	9.31
451.681	9.3
451.885	9.41
452.089	9.39
452.292	9.53
452.496	9.33
452.7	9.44
452.904	9.54
453.107	9.5
453.311	9.41
453.515	9.52
453.719	9.47
453.922	9.46
454.126	9.18
454.33	9.15
454.533	9.06
454.737	9.14
454.94	9.04
455.144	8.81
455.348	8.84
455.551	8.79
455.755	8.71
455.958	8.69
456.162	8.58
456.365	8.65
456.569	8.83
456.772	9.02
456.976	9.16
457.179	9.27
457.383	9.35
457.586	9.24
457.79	9.25
457.993	9.36
458.196	9.32
458.4	9.52
458.603	9.47
458.807	9.49
459.01	9.39
459.213	9.31
459.417	9.36
459.62	9.37
459.823	9.34
460.026	9.29
460.23	9.16
460.433	9.27
460.636	9.3
460.839	9.4
461.042	9.36
461.246	9.3
461.449	9.27
461.652	9.27
461.855	9.33
