Data from CB_110_Reflection_1.txt Node
Date: Sat Nov 14 18:12:58 EST 2015
User: robert
Spectrometer: USB4E03001
Autoset integration time: false
Trigger mode: 4
Integration Time (sec): 1.000000E-1
Scans to average: 15
Electric dark correction enabled: true
Nonlinearity correction enabled: false
Boxcar width: 5
Stray light correction enabled: false
XAxis mode: Wavelengths
Stop averaging: false
Number of Pixels in Spectrum: 3648
>>>>>Begin Spectral Data<<<<<
177.566	173.14
177.785	-11.82
178.005	82.88
178.225	119.12
178.445	1000
178.665	167.45
178.885	-407.22
179.105	106.67
179.324	130.76
179.544	66.92
179.764	74.44
179.984	64.98
180.204	7.5
180.423	17.68
180.643	22.89
180.863	14.33
181.083	36.52
181.302	44.73
181.522	59.04
181.742	54
181.961	52.16
182.181	81.63
182.401	18.97
182.621	53.1
182.84	47.27
183.06	13.1
183.279	19.01
183.499	74.2
183.719	-28.41
183.938	-52.52
184.158	26.29
184.377	48.75
184.597	0.95
184.816	26.24
185.036	35.2
185.256	62.46
185.475	72.49
185.695	56.58
185.914	48.88
186.134	56.67
186.353	69.97
186.572	47.57
186.792	49.48
187.011	53.78
187.231	61.54
187.45	67.57
187.67	50.95
187.889	59.42
188.108	70.94
188.328	68.33
188.547	73.09
188.766	76.07
188.986	79.67
189.205	74.72
189.424	75.69
189.644	75.48
189.863	86.13
190.082	100.34
190.302	79.2
190.521	46.71
190.74	45.37
190.959	36.18
191.178	35.89
191.398	29.11
191.617	35.59
191.836	23.68
192.055	32.4
192.274	-18.46
192.494	-5.46
192.713	-83.33
192.932	-10.37
193.151	-78.19
193.37	-64.23
193.589	-58.27
193.808	-37.98
194.027	-244.85
194.246	303.38
194.465	-542.16
194.685	13.21
194.904	-13.4
195.123	1.9
195.342	-29.67
195.561	7.24
195.78	30.9
195.999	34.33
196.218	15.34
196.436	28.82
196.655	31.86
196.874	42.53
197.093	55.22
197.312	51.79
197.531	65.2
197.75	74.13
197.969	93.68
198.188	95.24
198.407	81.31
198.625	82.51
198.844	93.22
199.063	68.13
199.282	68.99
199.501	45.11
199.719	38.62
199.938	33.89
200.157	37.24
200.376	20.42
200.594	29.28
200.813	29.09
201.032	31.27
201.251	20.46
201.469	50.62
201.688	51.9
201.907	46.78
202.125	53.25
202.344	67.91
202.563	29.18
202.781	23.96
203	30.83
203.218	50.28
203.437	61.31
203.656	51.37
203.874	18.76
204.093	1.3
204.311	56.83
204.53	60.89
204.748	34.65
204.967	49.29
205.185	43.26
205.404	49.95
205.622	33.1
205.841	27.79
206.059	20.68
206.278	24.88
206.496	22.42
206.715	17.27
206.933	33.16
207.151	48.79
207.37	41.96
207.588	50.34
207.806	58.94
208.025	61.75
208.243	57.85
208.461	71.05
208.68	66.25
208.898	70.65
209.116	58.63
209.335	54.42
209.553	57.35
209.771	70.32
209.989	60.42
210.208	28.24
210.426	25.42
210.644	35.52
210.862	26.54
211.081	23.67
211.299	22.06
211.517	19.17
211.735	-5.32
211.953	9.38
212.171	5.91
212.39	10.22
212.608	25.47
212.826	26.89
213.044	25.24
213.262	28.27
213.48	47.12
213.698	47.66
213.916	58.17
214.134	51.8
214.352	51.51
214.57	44.39
214.788	51.01
215.006	51.07
215.224	57.65
215.442	61.81
215.66	85.51
215.878	62.77
216.096	55.73
216.314	61.72
216.532	90.51
216.75	100.41
216.968	118.16
217.185	125.54
217.403	158.27
217.621	174.71
217.839	167.56
218.057	221.98
218.275	161.31
218.492	174.57
218.71	175.88
218.928	198.04
219.146	230.29
219.363	205.9
219.581	205.82
219.799	162.26
220.017	150.01
220.234	150.01
220.452	138.33
220.67	151.92
220.887	294.85
221.105	376.18
221.323	4333.74
221.54	388.7
221.758	1598.93
221.976	542.09
222.193	198.1
222.411	246.72
222.629	176.77
222.846	300.76
223.064	-351.66
223.281	347.99
223.499	209.75
223.716	380.7
223.934	-213.62
224.151	-60.92
224.369	-34.28
224.586	-9.27
224.804	14.38
225.021	1.22
225.239	15.14
225.456	32.33
225.674	51.08
225.891	51.46
226.108	13.02
226.326	-9.8
226.543	36.34
226.76	36.02
226.978	26
227.195	10.82
227.413	1
227.63	-4.8
227.847	-4.29
228.064	1.35
228.282	1.83
228.499	5.12
228.716	2.16
228.934	-4.97
229.151	-5.37
229.368	-3.53
229.585	-5.28
229.802	-3.69
230.02	-1.42
230.237	-2.82
230.454	-1.02
230.671	1.3
230.888	2.13
231.105	3.85
231.323	7.06
231.54	-3.31
231.757	-9.62
231.974	-10.18
232.191	-11.5
232.408	-11.6
232.625	-8.36
232.842	-19.04
233.059	-23.41
233.276	-20.37
233.493	-14.1
233.71	-9.43
233.927	9.59
234.144	13.08
234.361	11.65
234.578	13.79
234.795	11.02
235.012	5.47
235.229	8.87
235.446	7.19
235.663	2.36
235.879	-1.94
236.096	-9.15
236.313	-17.74
236.53	-11.53
236.747	-10.08
236.964	-16.94
237.181	-21.73
237.397	-18.09
237.614	-22.81
237.831	-20.64
238.048	-14.75
238.264	-15.9
238.481	-17.47
238.698	-9.98
238.915	-7.84
239.131	-4.44
239.348	2.86
239.565	8.54
239.781	8.93
239.998	10.42
240.215	8.99
240.431	5.8
240.648	9.69
240.865	13.7
241.081	17.12
241.298	16.37
241.514	17.65
241.731	17.65
241.947	15.24
242.164	15.31
242.38	16.83
242.597	16.81
242.814	18.77
243.03	18.27
243.246	18.19
243.463	16.04
243.679	14.43
243.896	13.6
244.112	12.38
244.329	13.63
244.545	15.5
244.762	13.19
244.978	14.29
245.194	10.45
245.411	9.05
245.627	7.48
245.843	6.91
246.06	7.94
246.276	8.5
246.492	9.65
246.709	8.89
246.925	8.04
247.141	8.68
247.357	9.25
247.574	9.49
247.79	10.21
248.006	10.99
248.222	11.38
248.439	11.2
248.655	10.62
248.871	11.14
249.087	12.65
249.303	12.88
249.519	13.58
249.736	11.51
249.952	13.13
250.168	13.69
250.384	12.91
250.6	12.49
250.816	11.35
251.032	12.78
251.248	11.43
251.464	7.85
251.68	9.5
251.896	7.19
252.112	8
252.328	6.69
252.544	5.6
252.76	4.18
252.976	3.03
253.192	3.37
253.408	1.71
253.624	1.72
253.84	3.51
254.056	1.01
254.272	1.23
254.487	2.38
254.703	3.76
254.919	0.21
255.135	3.88
255.351	1.62
255.567	6.7
255.782	9.43
255.998	6.41
256.214	4.55
256.43	7.53
256.646	8.85
256.861	9.74
257.077	6.24
257.293	11.44
257.508	12.06
257.724	13.32
257.94	12.57
258.155	10.77
258.371	10.83
258.587	10.23
258.802	9.83
259.018	10.11
259.234	9.96
259.449	10.49
259.665	9.11
259.88	8.5
260.096	8.36
260.312	7.98
260.527	8.1
260.743	7.6
260.958	7.96
261.174	7.83
261.389	7.3
261.605	6.55
261.82	5.85
262.036	5.67
262.251	5.79
262.466	7.29
262.682	6.83
262.897	6.07
263.113	7.17
263.328	7.35
263.543	4.97
263.759	4.4
263.974	3.75
264.189	2.52
264.405	2.22
264.62	0.54
264.835	-0.31
265.051	1.97
265.266	2.32
265.481	2.04
265.696	2.57
265.912	5.08
266.127	6.34
266.342	7.32
266.557	9.36
266.773	9.41
266.988	9.69
267.203	9.09
267.418	7.96
267.633	8.33
267.848	8.11
268.064	6.93
268.279	6.73
268.494	6.01
268.709	5.22
268.924	5.4
269.139	5.63
269.354	7.08
269.569	6.94
269.784	6
269.999	4.7
270.214	5.9
270.429	6.31
270.644	5.67
270.859	5.39
271.074	5.27
271.289	4.45
271.504	4.5
271.719	3.85
271.934	2.36
272.149	3.19
272.363	4.66
272.578	5.7
272.793	5.62
273.008	3.96
273.223	4.93
273.438	4.45
273.653	6.27
273.867	4.91
274.082	4.36
274.297	5.88
274.512	3.8
274.726	1.64
274.941	-0.22
275.156	0.4
275.371	2.84
275.585	1.81
275.8	4.65
276.015	2.84
276.229	5.89
276.444	6.06
276.659	7.12
276.873	9.43
277.088	11.09
277.302	11.08
277.517	10.27
277.732	8.7
277.946	8.9
278.161	6.98
278.375	7.63
278.59	8.12
278.804	7.44
279.019	5.47
279.233	5.62
279.448	3.99
279.662	2.24
279.877	2.51
280.091	5.25
280.306	5.06
280.52	6.13
280.735	6.66
280.949	5.25
281.163	5.7
281.378	6.73
281.592	6.95
281.806	8.48
282.021	9.95
282.235	9.92
282.449	8.68
282.664	8.69
282.878	8.32
283.092	7
283.307	6.94
283.521	6.16
283.735	5.89
283.949	4.86
284.164	4.91
284.378	5.61
284.592	6.04
284.806	6.91
285.02	7.74
285.234	7.82
285.449	8.11
285.663	8.63
285.877	9.05
286.091	8.63
286.305	8.97
286.519	9
286.733	8.46
286.947	8.55
287.161	8.49
287.375	7.94
287.589	7.71
287.803	7.76
288.017	7.29
288.231	8.56
288.445	9.42
288.659	9.25
288.873	9.04
289.087	8.58
289.301	8.28
289.515	8.43
289.729	8.61
289.943	8.09
290.157	7.06
290.371	7.39
290.584	6.82
290.798	6.13
291.012	6.98
291.226	6.47
291.44	6.64
291.654	6.27
291.867	6.83
292.081	6.52
292.295	7.74
292.509	9.25
292.722	8.27
292.936	8.15
293.15	8.79
293.364	8.76
293.577	8.34
293.791	8.73
294.005	9
294.218	8.44
294.432	8.78
294.645	8.68
294.859	8.42
295.073	9.24
295.286	9.38
295.5	10.17
295.713	9.45
295.927	10.62
296.14	11
296.354	11
296.568	11.09
296.781	10.89
296.994	10.14
297.208	9.62
297.421	9.67
297.635	8.69
297.848	8.44
298.062	9.08
298.275	9.03
298.489	8.35
298.702	8.66
298.915	8.85
299.129	9.41
299.342	10.63
299.555	11.17
299.769	11.62
299.982	13.31
300.195	12.77
300.409	13.57
300.622	12.96
300.835	13.41
301.048	12.82
301.262	12.18
301.475	11.12
301.688	10.49
301.901	10.12
302.115	9.22
302.328	9.31
302.541	10.45
302.754	8.71
302.967	9.66
303.18	9.25
303.393	10.22
303.607	10.09
303.82	10.42
304.033	11.12
304.246	10.69
304.459	11.87
304.672	11.74
304.885	11.23
305.098	11.62
305.311	11.41
305.524	11.57
305.737	10.32
305.95	10.08
306.163	10.45
306.376	8.04
306.589	9.51
306.802	7.87
307.015	7.15
307.228	7.71
307.44	9.03
307.653	9.06
307.866	9.33
308.079	8.98
308.292	10.01
308.505	10.39
308.718	11.58
308.93	11.85
309.143	12.1
309.356	12.37
309.569	11.94
309.781	12.29
309.994	12.07
310.207	12.55
310.42	13.36
310.632	12.84
310.845	12.53
311.058	13.45
311.27	13.38
311.483	14.42
311.696	14.79
311.908	14.67
312.121	13.07
312.333	12.83
312.546	13.41
312.759	13.54
312.971	13.73
313.184	13.9
313.396	12.87
313.609	11.87
313.821	10.5
314.034	9.45
314.246	9.6
314.459	9.71
314.671	10
314.884	8.69
315.096	8.33
315.309	7.78
315.521	8.45
315.733	8.89
315.946	9.5
316.158	9.37
316.371	10.38
316.583	9.04
316.795	11.11
317.008	11.67
317.22	12.75
317.432	13.05
317.644	12.78
317.857	13.21
318.069	13.32
318.281	13.16
318.494	13.14
318.706	12.21
318.918	13.81
319.13	13.3
319.342	13.28
319.555	12.14
319.767	11.17
319.979	10.28
320.191	9.27
320.403	8.43
320.615	9.09
320.827	8.44
321.039	9.58
321.252	11.16
321.464	11.28
321.676	10.37
321.888	11
322.1	11.81
322.312	13.59
322.524	12.6
322.736	14.59
322.948	14.2
323.16	14.34
323.372	13.21
323.584	10.26
323.796	10.18
324.007	10.56
324.219	11.56
324.431	12.19
324.643	11.44
324.855	12.71
325.067	12.59
325.279	13.07
325.491	15.19
325.702	15.68
325.914	16.77
326.126	17.46
326.338	18.85
326.55	19.5
326.761	20.04
326.973	21.52
327.185	22
327.396	22.7
327.608	22.42
327.82	21.24
328.032	21.13
328.243	21.45
328.455	22.01
328.666	22.29
328.878	22.26
329.09	23.26
329.301	23.1
329.513	23.12
329.725	21.9
329.936	22.62
330.148	23.37
330.359	23.31
330.571	24.28
330.782	23.67
330.994	23.68
331.205	22.73
331.417	21.28
331.628	21.32
331.84	21.06
332.051	21.77
332.262	22.46
332.474	23.28
332.685	24.23
332.897	24.2
333.108	24.82
333.319	24.88
333.531	24.84
333.742	25.23
333.953	25.84
334.165	25.53
334.376	25.6
334.587	25.94
334.799	26.8
335.01	26.67
335.221	26.87
335.432	26.89
335.644	27.61
335.855	28.48
336.066	28.94
336.277	28.05
336.488	29.18
336.7	28.57
336.911	27.92
337.122	26.73
337.333	27.35
337.544	26.97
337.755	26.16
337.966	26.35
338.177	26.11
338.388	26.2
338.599	26.28
338.811	25.5
339.022	26.29
339.233	26.21
339.444	25.54
339.655	25.82
339.866	26.22
340.076	26.96
340.287	25.95
340.498	26.53
340.709	25.96
340.92	27.34
341.131	26.71
341.342	27.3
341.553	26.59
341.764	28.4
341.975	27.91
342.185	28.24
342.396	27.35
342.607	27.59
342.818	26.39
343.029	27.11
343.239	26.95
343.45	28.08
343.661	27.91
343.872	28.4
344.082	27.66
344.293	28.07
344.504	27.18
344.714	27.5
344.925	27.17
345.136	27.7
345.346	26.81
345.557	26.16
345.768	26.09
345.978	24.78
346.189	25.82
346.399	26.07
346.61	25.4
346.821	26.03
347.031	27.11
347.242	28.06
347.452	27.74
347.663	27.24
347.873	27.34
348.084	26.92
348.294	28.12
348.504	27.17
348.715	26.12
348.925	25.43
349.136	25.18
349.346	23.58
349.557	23.09
349.767	23.34
349.977	24.21
350.188	23.31
350.398	23.81
350.608	23.8
350.819	23.96
351.029	24.03
351.239	24.06
351.449	24.54
351.66	24.67
351.87	24.26
352.08	23.73
352.29	24
352.501	24.86
352.711	25.19
352.921	25.53
353.131	25.98
353.341	25.88
353.552	26.91
353.762	26.61
353.972	26.82
354.182	25.8
354.392	25.79
354.602	25.3
354.812	25.07
355.022	24.11
355.232	23.61
355.442	22.82
355.652	23.53
355.862	23.51
356.072	22.78
356.282	22.7
356.492	23.41
356.702	23.6
356.912	23.47
357.122	23.63
357.332	23.63
357.542	23.53
357.752	23.43
357.962	23.06
358.171	22.72
358.381	23.31
358.591	23.35
358.801	23.44
359.011	23.82
359.221	24.03
359.43	23.93
359.64	24.09
359.85	23.56
360.06	23.9
360.269	24.71
360.479	24.72
360.689	24.6
360.899	24.84
361.108	25.15
361.318	24.97
361.528	24.88
361.737	25.16
361.947	25.06
362.156	25.43
362.366	25.42
362.576	24.62
362.785	24.83
362.995	25.32
363.204	25.24
363.414	24.71
363.623	24.68
363.833	24.54
364.042	23.95
364.252	24.1
364.461	24.52
364.671	24.84
364.88	24.77
365.09	24.11
365.299	23.28
365.509	23.12
365.718	22.87
365.927	22.6
366.137	22.73
366.346	23.25
366.555	23.2
366.765	22.34
366.974	22.03
367.183	21.73
367.393	22.57
367.602	22.42
367.811	22.39
368.021	22.56
368.23	22.57
368.439	22.37
368.648	22.76
368.857	22.45
369.067	22.88
369.276	22.34
369.485	22.64
369.694	21.77
369.903	22.24
370.112	22.15
370.321	22.44
370.531	22.37
370.74	22.29
370.949	21.7
371.158	21.86
371.367	21.37
371.576	21.44
371.785	21.69
371.994	21.58
372.203	21.53
372.412	21.59
372.621	21.62
372.83	21.8
373.039	21.93
373.248	21.98
373.457	21.66
373.666	21.52
373.874	21.14
374.083	20.86
374.292	20.5
374.501	20.39
374.71	19.73
374.919	19.46
375.128	19.09
375.336	19.03
375.545	18.86
375.754	18.94
375.963	19.51
376.171	19.87
376.38	19.9
376.589	20.33
376.798	19.91
377.006	20.11
377.215	19.53
377.424	19.6
377.632	19.36
377.841	19.21
378.05	18.9
378.258	18.27
378.467	17.83
378.675	17.74
378.884	17.32
379.093	17.44
379.301	17.56
379.51	17.93
379.718	17.79
379.927	18.04
380.135	18.35
380.344	18.21
380.552	17.99
380.761	18.01
380.969	18.27
381.177	18.72
381.386	18.33
381.594	18.37
381.803	18.73
382.011	18.62
382.219	18.27
382.428	17.9
382.636	18.33
382.845	18.54
383.053	18.74
383.261	18.15
383.469	17.62
383.678	17.87
383.886	17.64
384.094	16.85
384.302	16.4
384.511	16.53
384.719	16.35
384.927	15.87
385.135	15.86
385.343	15.39
385.552	14.99
385.76	14.98
385.968	14.68
386.176	14.3
386.384	14.74
386.592	14.97
386.8	14.03
387.008	13.83
387.216	14.3
387.424	13.97
387.633	14.26
387.841	14.57
388.049	14.67
388.257	14.65
388.465	14.46
388.672	13.78
388.88	13.39
389.088	14.04
389.296	13.52
389.504	12.89
389.712	12.77
389.92	12.67
390.128	12.58
390.336	12.48
390.544	12.16
390.751	11.96
390.959	11.82
391.167	12.22
391.375	11.81
391.583	11.99
391.79	12.04
391.998	12.22
392.206	12.19
392.414	12.02
392.621	11.53
392.829	11.71
393.037	11.96
393.244	12.36
393.452	12.01
393.66	12.17
393.867	12
394.075	12.36
394.283	12.2
394.49	11.88
394.698	11.75
394.905	11.88
395.113	11.73
395.32	11.66
395.528	11.27
395.735	11.53
395.943	11.36
396.15	11.43
396.358	11.04
396.565	11
396.773	11.21
396.98	11.3
397.188	11.49
397.395	11.4
397.602	11.32
397.81	11.46
398.017	11.08
398.225	10.94
398.432	10.84
398.639	10.51
398.847	10.56
399.054	10.6
399.261	10.63
399.468	10.47
399.676	10.46
399.883	10.19
400.09	10.3
400.297	10.22
400.505	10.23
400.712	10.22
400.919	10.14
401.126	9.89
401.333	9.48
401.54	9.79
401.748	9.57
401.955	9.31
402.162	9.62
402.369	9.25
402.576	9.14
402.783	9.27
402.99	9.35
403.197	9.57
403.404	9.64
403.611	9.73
403.818	9.42
404.025	9.52
404.232	9.52
404.439	9.59
404.646	9.45
404.853	9.56
405.06	9.45
405.267	9.67
405.474	9.64
405.681	9.57
405.887	9.43
406.094	9.16
406.301	9.13
406.508	9.26
406.715	9
406.922	9.18
407.128	9.29
407.335	9.27
407.542	9.06
407.749	9.02
407.955	8.82
408.162	8.97
408.369	8.87
408.575	8.78
408.782	8.68
408.989	8.77
409.195	8.91
409.402	8.6
409.609	8.75
409.815	8.75
410.022	8.59
410.228	8.59
410.435	8.71
410.642	9.04
410.848	9.07
411.055	9.24
411.261	9.07
411.468	8.95
411.674	9.12
411.881	9.08
412.087	8.77
412.294	9.14
412.5	9.36
412.706	9.13
412.913	8.82
413.119	8.74
413.326	8.52
413.532	8.93
413.738	8.99
413.945	8.89
414.151	8.91
414.357	9.47
414.564	9.07
414.77	8.9
414.976	9.08
415.182	9.03
415.389	9.24
415.595	9.47
415.801	9.24
416.007	9.18
416.214	9.12
416.42	9.11
416.626	8.77
416.832	8.76
417.038	8.96
417.244	8.9
417.45	9.1
417.657	8.96
417.863	8.68
418.069	8.59
418.275	8.4
418.481	8.41
418.687	8.37
418.893	8.43
419.099	8.48
419.305	8.34
419.511	8.3
419.717	8.18
419.923	8.12
420.129	8.23
420.335	8.34
420.541	8.52
420.746	8.5
420.952	8.56
421.158	8.56
421.364	8.44
421.57	8.4
421.776	8.34
421.982	8.34
422.187	8.27
422.393	8.22
422.599	8.02
422.805	7.94
423.01	8.12
423.216	8.07
423.422	8.02
423.628	8.15
423.833	8.27
424.039	8.43
424.245	8.4
424.45	8.48
424.656	8.57
424.862	8.55
425.067	8.46
425.273	8.26
425.478	8.21
425.684	8.24
425.889	8.08
426.095	8.08
426.301	7.92
426.506	8.03
426.712	8.08
426.917	8.07
427.123	8.07
427.328	8.3
427.533	8.36
427.739	8.46
427.944	8.36
428.15	8.39
428.355	8.04
428.561	8
428.766	7.88
428.971	7.79
429.177	7.82
429.382	7.94
429.587	7.81
429.793	7.73
429.998	7.43
430.203	7.49
430.408	7.84
430.614	7.95
430.819	7.97
431.024	8.11
431.229	8.02
431.434	7.86
431.64	7.74
431.845	7.73
432.05	7.76
432.255	7.98
432.46	8.01
432.665	7.62
432.87	7.8
433.076	7.72
433.281	7.58
433.486	7.7
433.691	7.66
433.896	7.79
434.101	7.83
434.306	7.73
434.511	7.58
434.716	7.46
434.921	7.57
435.126	7.44
435.331	7.5
435.535	7.63
435.74	7.53
435.945	7.59
436.15	7.49
436.355	7.3
436.56	7.52
436.765	7.53
436.97	7.66
437.174	7.74
437.379	7.82
437.584	7.78
437.789	7.71
437.993	7.75
438.198	7.83
438.403	7.91
438.608	8.08
438.812	8
439.017	7.99
439.222	8.04
439.426	8
439.631	7.93
439.836	7.93
440.04	8.06
440.245	7.93
440.45	7.95
440.654	7.98
440.859	7.92
441.063	7.81
441.268	7.82
441.472	7.79
441.677	7.92
441.881	8.05
442.086	8.12
442.29	7.92
442.495	8.15
442.699	8
442.904	7.98
443.108	7.82
443.312	7.91
443.517	7.92
443.721	7.74
443.925	7.62
444.13	7.47
444.334	7.42
444.538	7.44
444.743	7.39
444.947	7.53
445.151	7.58
445.356	7.77
445.56	7.78
445.764	7.86
445.968	7.88
446.173	7.81
446.377	7.73
446.581	7.79
446.785	7.83
446.989	7.81
447.193	7.8
447.398	7.85
447.602	7.88
447.806	7.89
448.01	7.79
448.214	7.84
448.418	7.75
448.622	7.83
448.826	7.61
449.03	7.62
449.234	7.71
449.438	7.68
449.642	7.48
449.846	7.29
450.05	7.03
450.254	7.11
450.458	7.04
450.662	7.25
450.866	7.25
451.069	7.48
451.273	7.35
451.477	7.25
451.681	7.12
451.885	7.23
452.089	7.25
452.292	7.54
452.496	7.39
452.7	7.55
452.904	7.59
453.107	7.55
453.311	7.5
453.515	7.6
453.719	7.56
453.922	7.42
454.126	7.17
454.33	7.13
454.533	6.93
454.737	7.02
454.94	6.74
455.144	6.65
455.348	6.72
455.551	6.7
455.755	6.55
455.958	6.63
456.162	6.72
456.365	6.87
456.569	6.93
456.772	7.17
456.976	7.2
457.179	7.23
457.383	7.14
457.586	7.14
457.79	7.03
457.993	7.12
458.196	7.04
458.4	7.21
458.603	7.09
458.807	7.12
459.01	7.08
459.213	7.19
459.417	7.34
459.62	7.31
459.823	7.21
460.026	7.27
460.23	7.27
460.433	7.4
460.636	7.38
460.839	7.58
461.042	7.59
461.246	7.56
461.449	7.4
461.652	7.32
461.855	7.5
462.058	7.5
462.261	7.55
462.464	7.69
462.668	7.62
462.871	7.56
463.074	7.38
463.277	7.51
463.48	7.27
463.683	7.23
463.886	7.26
464.089	7.06
464.292	7.3
464.495	7.29
464.698	7.03
