Data from CB_112_Reflection_2.txt Node
Date: Sat Nov 14 18:18:33 EST 2015
User: robert
Spectrometer: USB4E03001
Autoset integration time: false
Trigger mode: 4
Integration Time (sec): 1.000000E-1
Scans to average: 15
Electric dark correction enabled: true
Nonlinearity correction enabled: false
Boxcar width: 5
Stray light correction enabled: false
XAxis mode: Wavelengths
Stop averaging: false
Number of Pixels in Spectrum: 3648
>>>>>Begin Spectral Data<<<<<
177.566	210.28
177.785	-1053.2
178.005	385.34
178.225	464.19
178.445	24.21
178.665	114.81
178.885	538.14
179.105	151.72
179.324	120.56
179.544	63.7
179.764	74.03
179.984	55.75
180.204	25.38
180.423	32.24
180.643	41.82
180.863	24.57
181.083	39.18
181.302	73.74
181.522	81.2
181.742	90.79
181.961	119.59
182.181	151.6
182.401	442.55
182.621	272.01
182.84	335.94
183.06	152.33
183.279	82.51
183.499	126.65
183.719	35.13
183.938	35.04
184.158	76.44
184.377	76.99
184.597	77.1
184.816	61.39
185.036	77.01
185.256	92.78
185.475	101.2
185.695	100.13
185.914	82.93
186.134	87.44
186.353	83.63
186.572	72.37
186.792	81.81
187.011	82.8
187.231	90.53
187.45	78.8
187.67	68.51
187.889	63.86
188.108	71.23
188.328	84.25
188.547	84.55
188.766	76.92
188.986	77.51
189.205	66.56
189.424	67.96
189.644	69.15
189.863	80.75
190.082	89.3
190.302	77.65
190.521	65.69
190.74	70.82
190.959	49.93
191.178	60.79
191.398	78.74
191.617	87.19
191.836	113.96
192.055	90.86
192.274	76.33
192.494	99.54
192.713	235.69
192.932	215.11
193.151	321.36
193.37	238.25
193.589	170.24
193.808	297.35
194.027	634.09
194.246	-1266.67
194.465	1962.09
194.685	209.67
194.904	244.92
195.123	146.07
195.342	176.08
195.561	118.84
195.78	121.56
195.999	136.21
196.218	94.06
196.436	71.23
196.655	72.21
196.874	81.52
197.093	84.7
197.312	61.9
197.531	73.11
197.75	74.4
197.969	73.82
198.188	70.31
198.407	77.97
198.625	90.6
198.844	111.34
199.063	107.5
199.282	113.22
199.501	115.82
199.719	106.91
199.938	58.59
200.157	64.75
200.376	57.43
200.594	71.02
200.813	67.86
201.032	54.31
201.251	45.6
201.469	36.28
201.688	38.75
201.907	42.36
202.125	50.52
202.344	130.27
202.563	89.44
202.781	115.98
203	148.82
203.218	116.89
203.437	69.64
203.656	75.66
203.874	68.94
204.093	75.14
204.311	104.54
204.53	127.14
204.748	72.94
204.967	91.35
205.185	95.34
205.404	78.21
205.622	75.66
205.841	98.24
206.059	106.66
206.278	104.84
206.496	95.69
206.715	108.19
206.933	71.97
207.151	73.63
207.37	77.39
207.588	82.03
207.806	75.57
208.025	81.57
208.243	85.78
208.461	97.3
208.68	95.33
208.898	92.49
209.116	78.25
209.335	80.49
209.553	83.66
209.771	89.45
209.989	73.5
210.208	57.08
210.426	53.74
210.644	52.31
210.862	29.46
211.081	20.44
211.299	27.56
211.517	14.2
211.735	13.28
211.953	39.51
212.171	41.1
212.39	30.94
212.608	58.94
212.826	55.42
213.044	64.46
213.262	76.68
213.48	87.72
213.698	68.71
213.916	88.71
214.134	75.79
214.352	81.11
214.57	73.7
214.788	86.99
215.006	75.83
215.224	81.25
215.442	76.31
215.66	66.45
215.878	50.85
216.096	82.21
216.314	60.95
216.532	88.33
216.75	72.66
216.968	98.92
217.185	122.76
217.403	146.12
217.621	205.45
217.839	174.63
218.057	211.92
218.275	188.77
218.492	186.49
218.71	232.21
218.928	223.22
219.146	312.09
219.363	210.67
219.581	190.91
219.799	188.77
220.017	156.52
220.234	147.08
220.452	165.71
220.67	170.87
220.887	279.44
221.105	392.19
221.323	5549.69
221.54	396.91
221.758	2288.21
221.976	1097.91
222.193	161.53
222.411	266.26
222.629	445.89
222.846	755.23
223.064	-799.21
223.281	1103.94
223.499	614.37
223.716	1274.97
223.934	-1069.13
224.151	-313.06
224.369	-215.5
224.586	-157.65
224.804	-93.8
225.021	-94.06
225.239	-74.05
225.456	-92.14
225.674	-52.9
225.891	-85.3
226.108	-97.86
226.326	-86.74
226.543	-74.52
226.76	-34.98
226.978	-11.27
227.195	-21.87
227.413	-20.85
227.63	-10.42
227.847	-8.24
228.064	-0.09
228.282	4.07
228.499	7.43
228.716	6.58
228.934	6.97
229.151	8.1
229.368	6.5
229.585	6.67
229.802	7.59
230.02	5.39
230.237	9.3
230.454	12.17
230.671	11.04
230.888	10.84
231.105	8.44
231.323	8.01
231.54	0.73
231.757	1.48
231.974	1.21
232.191	1.45
232.408	10.14
232.625	6.79
232.842	-0.72
233.059	2.28
233.276	4.57
233.493	7.12
233.71	9.24
233.927	11.52
234.144	6.22
234.361	-3.27
234.578	-10.66
234.795	-6.96
235.012	-13.64
235.229	-20.85
235.446	-23.51
235.663	-24.45
235.879	-27.4
236.096	-31.9
236.313	-33.53
236.53	-31.14
236.747	-23.58
236.964	-16.39
237.181	-31.56
237.397	-25.64
237.614	-21.74
237.831	-18.49
238.048	-20.12
238.264	-23.94
238.481	-28.13
238.698	-22.2
238.915	-12.62
239.131	-7.91
239.348	-7.13
239.565	0.26
239.781	-0.77
239.998	0.8
240.215	-0.54
240.431	-2.3
240.648	4.83
240.865	9.89
241.081	11.44
241.298	8.64
241.514	7.85
241.731	9.48
241.947	9.55
242.164	10.08
242.38	12.2
242.597	12.67
242.814	14.38
243.03	14.54
243.246	12.32
243.463	11.8
243.679	12.15
243.896	11.75
244.112	10.55
244.329	10.3
244.545	11.86
244.762	10.22
244.978	11.47
245.194	10.82
245.411	8.03
245.627	10.16
245.843	7.71
246.06	7.28
246.276	8.46
246.492	9.71
246.709	9.69
246.925	8.83
247.141	8.64
247.357	8.04
247.574	8.24
247.79	8.54
248.006	8.52
248.222	8.73
248.439	8.75
248.655	8.15
248.871	7.37
249.087	7.08
249.303	5.69
249.519	4.66
249.736	3.63
249.952	3.65
250.168	3.58
250.384	2.24
250.6	3.09
250.816	1.38
251.032	2.96
251.248	2.33
251.464	0.99
251.68	2.62
251.896	3.04
252.112	2.77
252.328	0.2
252.544	-0.78
252.76	-1.59
252.976	-3.17
253.192	-2.36
253.408	-1.01
253.624	0.78
253.84	3.29
254.056	4.26
254.272	5.21
254.487	4.98
254.703	8.84
254.919	11.85
255.135	15.02
255.351	12.5
255.567	15.3
255.782	12.12
255.998	9.79
256.214	9.56
256.43	11.35
256.646	11.15
256.861	14.04
257.077	9.65
257.293	9.92
257.508	10.13
257.724	12.61
257.94	12.7
258.155	11.73
258.371	10.63
258.587	8.91
258.802	7.04
259.018	7.17
259.234	6.55
259.449	7.71
259.665	6.86
259.88	6.19
260.096	6.52
260.312	6.56
260.527	6.8
260.743	6.25
260.958	6.92
261.174	7.59
261.389	7.6
261.605	7.83
261.82	6.96
262.036	6.59
262.251	6.35
262.466	5.63
262.682	5
262.897	4.1
263.113	5.45
263.328	5.16
263.543	1.88
263.759	-0.14
263.974	-1.8
264.189	-2.17
264.405	-0.81
264.62	0.23
264.835	1.65
265.051	1.68
265.266	2.39
265.481	1.72
265.696	0.05
265.912	3.44
266.127	5.77
266.342	8.64
266.557	9.5
266.773	8.53
266.988	7.93
267.203	7.65
267.418	7.45
267.633	7.81
267.848	8.1
268.064	9.51
268.279	7.88
268.494	6.9
268.709	5.12
268.924	6.41
269.139	5.56
269.354	7.7
269.569	8.01
269.784	6.18
269.999	5.48
270.214	5.95
270.429	4.88
270.644	5.77
270.859	5.72
271.074	5.34
271.289	3.99
271.504	5.87
271.719	4.94
271.934	3.25
272.149	4.85
272.363	6.17
272.578	7.23
272.793	7.03
273.008	5.68
273.223	6.51
273.438	6.38
273.653	7.26
273.867	5.55
274.082	4.67
274.297	6.7
274.512	6.14
274.726	4.11
274.941	2.32
275.156	3.86
275.371	6.27
275.585	5.34
275.8	6.25
276.015	6.34
276.229	8.42
276.444	10.23
276.659	9.43
276.873	10
277.088	10.57
277.302	10.86
277.517	11.21
277.732	9.81
277.946	9.9
278.161	8.22
278.375	8.29
278.59	7.75
278.804	5.92
279.019	5.24
279.233	4.07
279.448	2.32
279.662	1.83
279.877	0.73
280.091	2.14
280.306	2.8
280.52	3.76
280.735	2.91
280.949	2.37
281.163	3.13
281.378	3.8
281.592	4.74
281.806	6.2
282.021	6.3
282.235	6.9
282.449	5.87
282.664	6.24
282.878	7.34
283.092	7.66
283.307	8.78
283.521	8.06
283.735	7.71
283.949	7.75
284.164	7.86
284.378	8.25
284.592	8.22
284.806	9.55
285.02	9.83
285.234	9.32
285.449	10.08
285.663	9.08
285.877	9.6
286.091	9.43
286.305	10.3
286.519	10.41
286.733	9.59
286.947	9.73
287.161	9.29
287.375	8.55
287.589	8.86
287.803	8.09
288.017	8.83
288.231	8.6
288.445	9.08
288.659	7.27
288.873	6.56
289.087	7.05
289.301	5.87
289.515	5.76
289.729	5.02
289.943	2.99
290.157	2.51
290.371	2.91
290.584	3.59
290.798	2.43
291.012	2.94
291.226	3.61
291.44	3.52
291.654	3.62
291.867	4.13
292.081	5.23
292.295	7.55
292.509	8.63
292.722	6.68
292.936	5.53
293.15	8.1
293.364	9.37
293.577	9.39
293.791	10.24
294.005	10.25
294.218	9.46
294.432	8.83
294.645	7.67
294.859	8.03
295.073	9.25
295.286	9.77
295.5	9.73
295.713	9.18
295.927	9.36
296.14	9
296.354	8.89
296.568	9.43
296.781	10.39
296.994	10.47
297.208	9.07
297.421	9.69
297.635	8.87
297.848	8.1
298.062	8.39
298.275	8.98
298.489	9.49
298.702	9.92
298.915	9.37
299.129	8.57
299.342	9.38
299.555	9.25
299.769	9.16
299.982	9.85
300.195	9.14
300.409	9.52
300.622	7.77
300.835	6.92
301.048	6.37
301.262	6.8
301.475	6.74
301.688	5.45
301.901	6.12
302.115	4.95
302.328	5.21
302.541	5.29
302.754	4.77
302.967	6.78
303.18	6.07
303.393	7.35
303.607	7.18
303.82	8.67
304.033	10.48
304.246	10.91
304.459	12.21
304.672	12.41
304.885	13.28
305.098	13.16
305.311	12.4
305.524	13.24
305.737	12.82
305.95	13.97
306.163	12.61
306.376	11.58
306.589	12.15
306.802	10.51
307.015	10.72
307.228	10.63
307.44	10.57
307.653	11
307.866	11.24
308.079	11.53
308.292	11.1
308.505	12.25
308.718	12.54
308.93	11.89
309.143	12.61
309.356	10.9
309.569	10.7
309.781	11
309.994	11.26
310.207	11.01
310.42	10.95
310.632	11.39
310.845	10.9
311.058	11.4
311.27	12.45
311.483	12.72
311.696	13.96
311.908	14.72
312.121	14.04
312.333	13.23
312.546	13.48
312.759	13.42
312.971	12.09
313.184	11.47
313.396	9.87
313.609	7.96
313.821	7.23
314.034	6.26
314.246	5.85
314.459	5.99
314.671	5.92
314.884	6.24
315.096	6.18
315.309	6.16
315.521	7.17
315.733	7.58
315.946	9.14
316.158	9.26
316.371	10.2
316.583	9.23
316.795	10.33
317.008	12.08
317.22	11.28
317.432	11.3
317.644	10.04
317.857	10.48
318.069	12.21
318.281	10.07
318.494	9.63
318.706	10.05
318.918	10.68
319.13	10.71
319.342	10.22
319.555	10.03
319.767	9.48
319.979	10.99
320.191	11
320.403	9.95
320.615	11.73
320.827	11.22
321.039	9.94
321.252	10.8
321.464	10.72
321.676	8.57
321.888	9.5
322.1	9.79
322.312	10.55
322.524	10.39
322.736	11.35
322.948	11
323.16	12.24
323.372	13.07
323.584	12.5
323.796	10.7
324.007	11.51
324.219	12.03
324.431	12.41
324.643	12.54
324.855	12.46
325.067	12.1
325.279	12.95
325.491	14.09
325.702	14.72
325.914	14.47
326.126	16.08
326.338	18.18
326.55	18.67
326.761	20.43
326.973	21.14
327.185	21.54
327.396	22.56
327.608	22.14
327.82	21.03
328.032	21.84
328.243	22.88
328.455	24
328.666	23.99
328.878	25.18
329.09	24.5
329.301	25.52
329.513	26.93
329.725	26.64
329.936	27.61
330.148	28.89
330.359	28.4
330.571	28.47
330.782	28.17
330.994	27.76
331.205	26.47
331.417	26.62
331.628	25.56
331.84	23.18
332.051	23.48
332.262	24.15
332.474	23.56
332.685	24.29
332.897	24.5
333.108	24.47
333.319	23.88
333.531	24.74
333.742	24.73
333.953	25.74
334.165	25.95
334.376	26.32
334.587	26.28
334.799	27.97
335.01	27.3
335.221	28.52
335.432	29.14
335.644	29.77
335.855	29.7
336.066	30.17
336.277	28.76
336.488	29.94
336.7	29.86
336.911	30.13
337.122	29.71
337.333	29.95
337.544	29.33
337.755	27.33
337.966	27.66
338.177	27.48
338.388	27.33
338.599	28.28
338.811	27.75
339.022	28.41
339.233	27.4
339.444	26.39
339.655	26.91
339.866	26.4
340.076	27.29
340.287	26.2
340.498	26.06
340.709	26.18
340.92	26.54
341.131	26.75
341.342	26.31
341.553	26.75
341.764	27.64
341.975	27.42
342.185	27.84
342.396	28.09
342.607	28.23
342.818	28.08
343.029	27.92
343.239	28.1
343.45	28.94
343.661	29.35
343.872	29.58
344.082	29.3
344.293	29.95
344.504	30.03
344.714	31
344.925	31.15
345.136	32.03
345.346	31.26
345.557	31.06
345.768	30.8
345.978	30
346.189	29.73
346.399	29.99
346.61	29.27
346.821	29.14
347.031	28.56
347.242	28.94
347.452	28.54
347.663	28.99
347.873	28.14
348.084	27.54
348.294	27.88
348.504	27.84
348.715	27.53
348.925	27.35
349.136	27.56
349.346	27.09
349.557	26.9
349.767	26.5
349.977	26.66
350.188	26.78
350.398	26.8
350.608	26.49
350.819	26.91
351.029	26.88
351.239	27.13
351.449	26.72
351.66	26.71
351.87	27.29
352.08	27.21
352.29	27.18
352.501	27.3
352.711	27.85
352.921	27.85
353.131	27.54
353.341	27.23
353.552	27.89
353.762	27.95
353.972	27.77
354.182	27.11
354.392	26.33
354.602	26.35
354.812	26.56
355.022	26.27
355.232	26.09
355.442	25.81
355.652	26.07
355.862	25.27
356.072	25.28
356.282	25.64
356.492	25.81
356.702	26.92
356.912	27.16
357.122	27.35
357.332	26.74
357.542	26.66
357.752	27.02
357.962	27.16
358.171	26.82
358.381	26.75
358.591	27.18
358.801	26.72
359.011	26.43
359.221	26.36
359.43	26.51
359.64	26.82
359.85	26.91
360.06	26.66
360.269	26.26
360.479	26.68
360.689	26.69
360.899	26.63
361.108	27.19
361.318	26.97
361.528	26.78
361.737	26.78
361.947	26.92
362.156	26.98
362.366	27.05
362.576	26.93
362.785	27.05
362.995	27.21
363.204	26.89
363.414	26.55
363.623	26.76
363.833	26.31
364.042	25.73
364.252	25.81
364.461	25.75
364.671	25.76
364.88	25.7
365.09	25.09
365.299	24.84
365.509	25.22
365.718	25.09
365.927	24.51
366.137	24.88
366.346	24.89
366.555	24.66
366.765	24.27
366.974	23.79
367.183	23.97
367.393	24.58
367.602	24.72
367.811	24.17
368.021	24.33
368.23	24.79
368.439	24.95
368.648	24.95
368.857	25.09
369.067	25.19
369.276	25.14
369.485	24.46
369.694	23.75
369.903	22.86
370.112	22.81
370.321	23.18
370.531	22.97
370.74	22.36
370.949	22.56
371.158	22.43
371.367	22.77
371.576	22.81
371.785	23.21
371.994	23.58
372.203	24.35
372.412	24.25
372.621	23.42
372.83	23.01
373.039	23.02
373.248	22.64
373.457	22.29
373.666	21.8
373.874	21.32
374.083	20.82
374.292	20.22
374.501	19.67
374.71	19.13
374.919	19.39
375.128	20.16
375.336	20.4
375.545	20.6
375.754	20.88
375.963	21.11
376.171	21.35
376.38	22.21
376.589	22.32
376.798	21.88
377.006	22.14
377.215	21.43
377.424	20.71
377.632	20.26
377.841	19.9
378.05	19.09
378.258	18.92
378.467	18.6
378.675	17.75
378.884	17.51
379.093	17.52
379.301	17.33
379.51	17.99
379.718	18.23
379.927	18.42
380.135	18.78
380.344	19.38
380.552	18.89
380.761	19.19
380.969	19.36
381.177	20.08
381.386	20.01
381.594	20.15
381.803	19.63
382.011	19.12
382.219	19.12
382.428	18.89
382.636	18.44
382.845	18.69
383.053	18.49
383.261	18.32
383.469	17.77
383.678	18.16
383.886	18.46
384.094	18.65
384.302	18.77
384.511	18.94
384.719	19.03
384.927	18.98
385.135	18.98
385.343	19
385.552	18.8
385.76	18.15
385.968	17.71
386.176	17.09
386.384	17
386.592	17.18
386.8	16.54
387.008	16.36
387.216	16.33
387.424	15.78
387.633	15.72
387.841	15.92
388.049	16.67
388.257	16.59
388.465	16.55
388.672	16.39
388.88	15.9
389.088	15.99
389.296	15.61
389.504	15.61
389.712	16.02
389.92	16.05
390.128	15.79
390.336	15.35
390.544	15.34
390.751	14.98
390.959	14.62
391.167	14.85
391.375	14.79
391.583	14.6
391.79	14.61
391.998	14.32
392.206	14.07
392.414	14.22
392.621	13.65
392.829	13.67
393.037	13.83
393.244	13.97
393.452	13.65
393.66	13.7
393.867	13.77
394.075	13.64
394.283	13.61
394.49	13.24
394.698	13.03
394.905	13.38
395.113	13.43
395.32	13.6
395.528	13.62
395.735	13.86
395.943	14.16
396.15	14.15
396.358	14.21
396.565	14.48
396.773	14.87
396.98	14.56
397.188	14.96
397.395	14.86
397.602	14.59
397.81	14.57
398.017	14.32
398.225	13.89
398.432	13.82
398.639	13.64
398.847	13.11
399.054	13.07
399.261	13.24
399.468	12.82
399.676	13.01
399.883	13.25
400.09	13.16
400.297	12.88
400.505	12.75
400.712	12.82
400.919	12.7
401.126	12.61
401.333	12.71
401.54	12.66
401.748	12.83
401.955	12.3
402.162	12.3
402.369	12.45
402.576	12.51
402.783	12.83
402.99	12.73
403.197	12.98
403.404	12.93
403.611	12.66
403.818	12.99
404.025	12.85
404.232	12.93
404.439	12.73
404.646	12.6
404.853	12.53
405.06	12.04
405.267	12.02
405.474	11.78
405.681	11.79
405.887	11.75
406.094	11.05
406.301	10.85
406.508	10.77
406.715	10.59
406.922	10.44
407.128	10.95
407.335	11.24
407.542	11.26
407.749	11.4
407.955	11.56
408.162	11.94
408.369	12.53
408.575	12.81
408.782	12.88
408.989	12.8
409.195	12.96
409.402	12.69
409.609	12.69
409.815	12.58
410.022	12.28
410.228	12.23
410.435	11.82
410.642	11.98
410.848	11.66
411.055	11.71
411.261	11.86
411.468	11.73
411.674	11.55
411.881	11.55
412.087	11.35
412.294	11.72
412.5	11.71
412.706	11.68
412.913	11.41
413.119	11.54
413.326	11.43
413.532	11.48
413.738	11.77
413.945	11.81
414.151	11.7
414.357	11.79
414.564	11.66
414.77	11.56
414.976	11.63
415.182	11.43
415.389	11.35
415.595	11.54
415.801	11.13
416.007	10.96
416.214	10.84
416.42	10.92
416.626	11.08
416.832	10.82
417.038	10.86
417.244	11.06
417.45	11.04
417.657	11.08
417.863	11.01
418.069	11.13
418.275	11.02
418.481	11.13
418.687	11.07
418.893	10.91
419.099	11.01
419.305	11.17
419.511	11.07
419.717	11.12
419.923	11.04
420.129	10.96
420.335	11.04
420.541	11.23
420.746	11.22
420.952	11.15
421.158	11.28
421.364	11.33
421.57	11.15
421.776	11.06
421.982	10.93
422.187	10.91
422.393	11.04
422.599	11.04
422.805	10.94
423.01	11.05
423.216	11.03
423.422	11.04
423.628	11
423.833	11.08
424.039	11.15
424.245	11.33
424.45	11.4
424.656	11.36
424.862	11.3
425.067	11.21
425.273	11.11
425.478	11.22
425.684	11.07
425.889	10.92
426.095	11.12
426.301	10.95
426.506	10.8
426.712	10.8
426.917	10.73
427.123	10.79
427.328	10.98
427.533	11.05
427.739	10.98
427.944	11.05
428.15	11.09
428.355	10.67
428.561	10.87
428.766	11.03
428.971	10.86
429.177	10.88
429.382	10.91
429.587	10.6
429.793	10.52
429.998	10.62
430.203	10.49
430.408	10.83
430.614	10.73
430.819	10.74
431.024	10.57
431.229	10.84
431.434	10.68
431.64	10.6
431.845	10.71
432.05	10.6
432.255	10.48
432.46	10.66
432.665	10.52
432.87	10.76
433.076	10.68
433.281	10.73
433.486	10.64
433.691	10.62
433.896	10.67
434.101	10.69
434.306	10.56
434.511	10.56
434.716	10.56
434.921	10.54
435.126	10.42
435.331	10.55
435.535	10.53
435.74	10.37
435.945	10.5
436.15	10.37
436.355	10.34
436.56	10.45
436.765	10.5
436.97	10.48
437.174	10.34
437.379	10.34
437.584	10.24
437.789	10.35
437.993	10.55
438.198	10.37
438.403	10.54
438.608	10.58
438.812	10.68
439.017	10.68
439.222	10.73
439.426	10.86
439.631	10.89
439.836	10.83
440.04	10.85
440.245	10.78
440.45	10.81
440.654	10.84
440.859	10.7
441.063	10.66
441.268	10.59
441.472	10.52
441.677	10.55
441.881	10.49
442.086	10.55
442.29	10.42
442.495	10.32
442.699	10.29
442.904	10.22
443.108	10.26
443.312	10.04
443.517	10.09
443.721	9.91
443.925	9.9
444.13	9.97
444.334	9.97
444.538	10
444.743	10.13
444.947	10.15
445.151	10.2
445.356	10.39
445.56	10.63
445.764	10.75
445.968	10.74
446.173	10.6
446.377	10.45
446.581	10.39
446.785	10.34
446.989	10.27
447.193	10.4
447.398	10.35
447.602	10.25
447.806	10.18
448.01	10.02
448.214	10.13
448.418	10
448.622	9.97
448.826	9.86
449.03	10
449.234	10.17
449.438	10.11
449.642	10.03
449.846	9.81
450.05	9.63
450.254	9.71
450.458	9.67
450.662	9.91
450.866	10.07
451.069	10.28
451.273	10.04
451.477	10.04
451.681	9.85
451.885	9.98
452.089	10.14
452.292	10.36
452.496	10.14
452.7	10.17
452.904	10.28
453.107	10.21
453.311	10.34
453.515	10.58
453.719	10.43
453.922	10.48
454.126	10.24
454.33	10.12
454.533	9.89
454.737	10.03
454.94	10.18
455.144	10.18
455.348	10.35
455.551	10.05
455.755	9.89
455.958	9.91
456.162	10
456.365	10.17
456.569	10.2
456.772	10.52
456.976	10.51
457.179	10.22
457.383	10.12
457.586	10.11
457.79	10.25
457.993	10.37
458.196	10.2
458.4	10.27
458.603	10.18
458.807	10.27
459.01	10.12
459.213	10.08
459.417	10.09
459.62	9.89
459.823	9.84
460.026	9.83
460.23	9.73
