Data from CB_107_Reflection_2.txt Node
Date: Sat Nov 14 18:04:59 EST 2015
User: robert
Spectrometer: USB4E03001
Autoset integration time: false
Trigger mode: 4
Integration Time (sec): 1.000000E-1
Scans to average: 15
Electric dark correction enabled: true
Nonlinearity correction enabled: false
Boxcar width: 5
Stray light correction enabled: false
XAxis mode: Wavelengths
Stop averaging: false
Number of Pixels in Spectrum: 3648
>>>>>Begin Spectral Data<<<<<
177.566	256.13
177.785	-1529.56
178.005	444.38
178.225	632.81
178.445	-2311.58
178.665	217.86
178.885	-1291.75
179.105	239.52
179.324	388.94
179.544	113.01
179.764	119.93
179.984	83.13
180.204	74.36
180.423	77.38
180.643	146.95
180.863	222.27
181.083	135.52
181.302	141.59
181.522	168.86
181.742	157.61
181.961	253.16
182.181	332.34
182.401	912.87
182.621	525.61
182.84	706.04
183.06	248.93
183.279	172.25
183.499	316.14
183.719	201.78
183.938	123.59
184.158	156.89
184.377	150.65
184.597	166.7
184.816	139.27
185.036	159.5
185.256	160.64
185.475	169.52
185.695	142.09
185.914	124.19
186.134	125.88
186.353	130.81
186.572	115.22
186.792	105.85
187.011	111.66
187.231	108.19
187.45	109.6
187.67	99.05
187.889	99.84
188.108	118.88
188.328	127.95
188.547	148.89
188.766	149.5
188.986	123.51
189.205	134.12
189.424	118.6
189.644	144.4
189.863	149.59
190.082	182.42
190.302	160.34
190.521	134.32
190.74	138.93
190.959	134.41
191.178	138.04
191.398	189.91
191.617	191.34
191.836	178.68
192.055	119.72
192.274	130.18
192.494	140.35
192.713	298.72
192.932	294.84
193.151	391.15
193.37	278.22
193.589	254.91
193.808	415.74
194.027	738.03
194.246	-2321.31
194.465	3281.37
194.685	241.79
194.904	249.51
195.123	150.2
195.342	158.26
195.561	129.69
195.78	124.61
195.999	136.53
196.218	106.48
196.436	103.77
196.655	109.34
196.874	123.54
197.093	131
197.312	121.55
197.531	128.91
197.75	129.48
197.969	140.42
198.188	149.45
198.407	135.47
198.625	150.84
198.844	150.56
199.063	126.79
199.282	127.87
199.501	173.5
199.719	162.57
199.938	129.69
200.157	116.05
200.376	121.14
200.594	120.32
200.813	144.65
201.032	122.8
201.251	145.29
201.469	149.12
201.688	140.34
201.907	126.49
202.125	142.01
202.344	206.73
202.563	227.2
202.781	208.62
203	252
203.218	244.15
203.437	203.4
203.656	180.66
203.874	149.15
204.093	198.22
204.311	185.96
204.53	189.34
204.748	172.03
204.967	204.25
205.185	235.16
205.404	209.6
205.622	160.42
205.841	180.52
206.059	163.05
206.278	137.05
206.496	126.6
206.715	134.02
206.933	118.98
207.151	101.87
207.37	91.38
207.588	76.02
207.806	72.23
208.025	87.71
208.243	90.32
208.461	114.4
208.68	127.3
208.898	118.93
209.116	108.2
209.335	97.02
209.553	112.74
209.771	121.05
209.989	126.15
210.208	129.18
210.426	126.56
210.644	113.09
210.862	85.1
211.081	84.34
211.299	83.68
211.517	79.49
211.735	101.59
211.953	86.92
212.171	92.79
212.39	85.57
212.608	90.88
212.826	96.87
213.044	104.41
213.262	110.89
213.48	113.94
213.698	104.83
213.916	120.46
214.134	104.71
214.352	119.39
214.57	105.4
214.788	122.15
215.006	127.43
215.224	134.78
215.442	160.83
215.66	147.35
215.878	174.54
216.096	236.98
216.314	210.09
216.532	236.26
216.75	219.71
216.968	245.42
217.185	229.82
217.403	252.15
217.621	333.59
217.839	257.09
218.057	373.69
218.275	282.16
218.492	277.99
218.71	301.61
218.928	314.86
219.146	424.72
219.363	291.58
219.581	316.19
219.799	350.59
220.017	255.65
220.234	224.82
220.452	232.35
220.67	257.43
220.887	433.85
221.105	605.03
221.323	8161.96
221.54	653.86
221.758	3623.21
221.976	1615.07
222.193	297.25
222.411	438.34
222.629	795.21
222.846	1024.62
223.064	-993.21
223.281	1097.45
223.499	770.03
223.716	1624.52
223.934	-1294.95
224.151	-433.35
224.369	-276.48
224.586	-164.64
224.804	-101.35
225.021	-112.54
225.239	-107.81
225.456	-135.01
225.674	-100.81
225.891	-84.05
226.108	-94.38
226.326	-92.64
226.543	-52.33
226.76	-24.65
226.978	-4.98
227.195	-17.4
227.413	-25.13
227.63	-13
227.847	-12.54
228.064	-6.08
228.282	-7.01
228.499	-4.98
228.716	-5.99
228.934	-8.7
229.151	-8.69
229.368	-9.34
229.585	-9.48
229.802	-6.02
230.02	-7.72
230.237	-6.83
230.454	-6.45
230.671	-6.04
230.888	-5.61
231.105	-10.37
231.323	-12.82
231.54	-23.11
231.757	-30.69
231.974	-32.18
232.191	-40.44
232.408	-38.62
232.625	-38.83
232.842	-40.29
233.059	-37.11
233.276	-38.53
233.493	-30.88
233.71	-18.97
233.927	-6.99
234.144	-4.55
234.361	-4.34
234.578	-2.37
234.795	-1.36
235.012	-6.91
235.229	-13.17
235.446	-14.02
235.663	-13.54
235.879	-15.6
236.096	-28.08
236.313	-31.08
236.53	-28.33
236.747	-28.17
236.964	-27.08
237.181	-37.01
237.397	-37.41
237.614	-38.55
237.831	-33.16
238.048	-31.53
238.264	-35.09
238.481	-36
238.698	-30.49
238.915	-32.27
239.131	-30.22
239.348	-33.21
239.565	-22.56
239.781	-13.21
239.998	-9.75
240.215	-13.11
240.431	-12.86
240.648	-5.76
240.865	-0.33
241.081	0.68
241.298	1.53
241.514	1
241.731	3.75
241.947	1.72
242.164	0.24
242.38	3.74
242.597	5.36
242.814	7.6
243.03	7.13
243.246	8.23
243.463	8.36
243.679	7.54
243.896	7.28
244.112	6.23
244.329	6.29
244.545	6.65
244.762	7.35
244.978	7.92
245.194	4.83
245.411	3.25
245.627	2.23
245.843	2.03
246.06	4.2
246.276	4.95
246.492	6.55
246.709	7.12
246.925	8.74
247.141	8.58
247.357	8.73
247.574	9.85
247.79	10.47
248.006	11.32
248.222	11.44
248.439	10.81
248.655	10.6
248.871	10.76
249.087	11.26
249.303	9.41
249.519	7.79
249.736	6.21
249.952	4.35
250.168	5.51
250.384	4.47
250.6	4.22
250.816	3.5
251.032	5.28
251.248	3.34
251.464	-0.39
251.68	0.39
251.896	0.23
252.112	0.14
252.328	-1.23
252.544	-3.28
252.76	-4.54
252.976	-6.51
253.192	-6.48
253.408	-7.27
253.624	-6.55
253.84	-6.04
254.056	-6.36
254.272	-5.94
254.487	-6.8
254.703	-4.65
254.919	-7.87
255.135	-7.86
255.351	-8.9
255.567	-6.48
255.782	-7.13
255.998	-9.1
256.214	-6.85
256.43	-1.6
256.646	-3.59
256.861	-1.71
257.077	-4.86
257.293	-1.37
257.508	1.67
257.724	3.34
257.94	3.85
258.155	3.53
258.371	5.61
258.587	5.32
258.802	4.31
259.018	6.34
259.234	7.27
259.449	8.45
259.665	8.5
259.88	8.21
260.096	8.6
260.312	8.52
260.527	8.92
260.743	7.96
260.958	8.49
261.174	8.82
261.389	8.33
261.605	7.11
261.82	6.33
262.036	5.58
262.251	4.03
262.466	3.41
262.682	3.09
262.897	2.06
263.113	1.19
263.328	1
263.543	-3.61
263.759	-7.58
263.974	-8.84
264.189	-10.72
264.405	-10.89
264.62	-10.44
264.835	-9.14
265.051	-7.75
265.266	-8.68
265.481	-5.26
265.696	-6.15
265.912	-2.64
266.127	0.17
266.342	3.4
266.557	3.91
266.773	4.07
266.988	3.9
267.203	4.05
267.418	2.67
267.633	5.84
267.848	5.41
268.064	5.39
268.279	6.14
268.494	6.12
268.709	5.71
268.924	7.55
269.139	5.98
269.354	6.93
269.569	6.73
269.784	6.5
269.999	4.5
270.214	3.81
270.429	3.32
270.644	3.38
270.859	4.15
271.074	1.95
271.289	1.35
271.504	3.98
271.719	3.58
271.934	2.66
272.149	3.61
272.363	4.12
272.578	5.94
272.793	5.77
273.008	4.82
273.223	4.25
273.438	4.92
273.653	5.29
273.867	4.28
274.082	3.57
274.297	4.46
274.512	3.65
274.726	1.75
274.941	-0.91
275.156	0.48
275.371	1.17
275.585	0.9
275.8	2.26
276.015	1.32
276.229	2.27
276.444	2.24
276.659	1.62
276.873	2.44
277.088	4.21
277.302	4.32
277.517	3.32
277.732	2.13
277.946	3.28
278.161	2.8
278.375	3.06
278.59	2.29
278.804	2.01
279.019	0.95
279.233	1.38
279.448	-0.85
279.662	-0.63
279.877	-0.04
280.091	1.35
280.306	0.86
280.52	-0.22
280.735	0.79
280.949	0.35
281.163	1.24
281.378	2.73
281.592	3.71
281.806	5.2
282.021	4.74
282.235	4.44
282.449	3.16
282.664	3.51
282.878	4.69
283.092	3.37
283.307	3.51
283.521	4.11
283.735	4.03
283.949	3.01
284.164	4.25
284.378	5.99
284.592	6.54
284.806	8.14
285.02	8.53
285.234	9.12
285.449	10.41
285.663	10.89
285.877	10.45
286.091	9.74
286.305	10.29
286.519	9.61
286.733	8.61
286.947	8.8
287.161	8.28
287.375	7.39
287.589	6.63
287.803	6.67
288.017	5.91
288.231	6.97
288.445	7.84
288.659	6.48
288.873	5.23
289.087	5.57
289.301	4.89
289.515	5.04
289.729	4.53
289.943	3.33
290.157	1.72
290.371	2.24
290.584	1.08
290.798	0.21
291.012	1.14
291.226	1.23
291.44	1.12
291.654	1.45
291.867	1.42
292.081	2.56
292.295	4.69
292.509	5.37
292.722	5.94
292.936	7.38
293.15	8.51
293.364	8.72
293.577	9.7
293.791	11.04
294.005	10.87
294.218	10.72
294.432	9.53
294.645	8.79
294.859	10.13
295.073	8.68
295.286	7.05
295.5	7.3
295.713	7.19
295.927	7.3
296.14	6.83
296.354	6.98
296.568	6.35
296.781	7.82
296.994	7.68
297.208	6.84
297.421	7.72
297.635	7.97
297.848	7.64
298.062	7.53
298.275	8.29
298.489	7.61
298.702	8.19
298.915	9.06
299.129	8.03
299.342	8.52
299.555	7.78
299.769	7.75
299.982	7.28
300.195	7.29
300.409	8.39
300.622	7.04
300.835	8.12
301.048	7.15
301.262	6.07
301.475	6.87
301.688	6.36
301.901	7.13
302.115	6.58
302.328	7.92
302.541	8.37
302.754	6.75
302.967	8.2
303.18	7.28
303.393	7.64
303.607	7.65
303.82	8.67
304.033	9.28
304.246	9.52
304.459	9.92
304.672	9.76
304.885	9.04
305.098	9.41
305.311	8.07
305.524	8.16
305.737	7.08
305.95	7.97
306.163	5.21
306.376	3.34
306.589	2.86
306.802	1.79
307.015	1.06
307.228	1.75
307.44	3.53
307.653	4.75
307.866	5.88
308.079	8.05
308.292	8.71
308.505	9.83
308.718	11.46
308.93	12.35
309.143	13.43
309.356	12.93
309.569	12.97
309.781	13.08
309.994	12.76
310.207	11.96
310.42	11.09
310.632	11.23
310.845	10.95
311.058	11.59
311.27	12.27
311.483	12.86
311.696	14.51
311.908	14.94
312.121	13.3
312.333	13.4
312.546	13.63
312.759	13.94
312.971	14.08
313.184	14.37
313.396	12.93
313.609	11.56
313.821	10.89
314.034	9.27
314.246	8.29
314.459	10.23
314.671	9.23
314.884	9.56
315.096	8.55
315.309	7.58
315.521	7.74
315.733	7.87
315.946	8.28
316.158	8.58
316.371	10.19
316.583	9.71
316.795	8.39
317.008	9.76
317.22	9.24
317.432	10.09
317.644	9.19
317.857	10.84
318.069	11.19
318.281	11.85
318.494	10.49
318.706	9.67
318.918	9.73
319.13	10.02
319.342	9.94
319.555	9.92
319.767	10.26
319.979	10.86
320.191	10.19
320.403	9.22
320.615	9.03
320.827	8.97
321.039	8.8
321.252	10.47
321.464	10.21
321.676	8.42
321.888	9.67
322.1	9.67
322.312	9.75
322.524	8.99
322.736	10.95
322.948	10.26
323.16	10.24
323.372	10.01
323.584	8.83
323.796	9.2
324.007	10.67
324.219	10.98
324.431	10.75
324.643	10.2
324.855	10.54
325.067	10.44
325.279	10.54
325.491	12.52
325.702	12.16
325.914	12.56
326.126	13.06
326.338	14.08
326.55	14.12
326.761	15.89
326.973	17.53
327.185	18.31
327.396	19.69
327.608	20.46
327.82	19.43
328.032	21.73
328.243	22.04
328.455	22.51
328.666	22.63
328.878	22.96
329.09	22.92
329.301	23.78
329.513	23.16
329.725	22.47
329.936	22.92
330.148	23.28
330.359	22.48
330.571	23.47
330.782	24.35
330.994	24.02
331.205	24.3
331.417	23.32
331.628	22.98
331.84	23.3
332.051	23.09
332.262	23.61
332.474	24.4
332.685	24.43
332.897	24.51
333.108	23.27
333.319	23.87
333.531	23.59
333.742	24.23
333.953	24.84
334.165	25.05
334.376	25.76
334.587	26.07
334.799	26.19
335.01	26.01
335.221	26.69
335.432	28.66
335.644	28.95
335.855	28.91
336.066	29.14
336.277	29.03
336.488	29.17
336.7	28.04
336.911	27.48
337.122	27.95
337.333	28.58
337.544	27.53
337.755	25.06
337.966	25.08
338.177	25.71
338.388	25.34
338.599	25.21
338.811	24.98
339.022	25.78
339.233	24.81
339.444	23.23
339.655	23.41
339.866	23.7
340.076	24.69
340.287	24.04
340.498	24.04
340.709	24.18
340.92	24.12
341.131	24.48
341.342	24.21
341.553	24.23
341.764	25.38
341.975	25.68
342.185	26.63
342.396	26.16
342.607	26.72
342.818	26.29
343.029	26.44
343.239	26.93
343.45	27.13
343.661	27.6
343.872	28.69
344.082	28.85
344.293	28.57
344.504	27.7
344.714	28.73
344.925	27.62
345.136	27.88
345.346	27.33
345.557	27.35
345.768	27.18
345.978	26.22
346.189	25.76
346.399	25.49
346.61	24.98
346.821	24.79
347.031	24.21
347.242	25.27
347.452	25.32
347.663	25.69
347.873	24.69
348.084	25.19
348.294	26.04
348.504	26.19
348.715	26.33
348.925	26.71
349.136	27.04
349.346	27.62
349.557	27.71
349.767	26.86
349.977	26.99
350.188	26.58
350.398	26.26
350.608	26.32
350.819	26.49
351.029	26.49
351.239	25.93
351.449	25.58
351.66	25.18
351.87	24.96
352.08	24.99
352.29	24.76
352.501	25.67
352.711	26.22
352.921	25.75
353.131	25.5
353.341	25.7
353.552	26.1
353.762	26.22
353.972	26.17
354.182	25.16
354.392	25.12
354.602	25.32
354.812	25.28
355.022	24.2
355.232	24.53
355.442	25.04
355.652	24.4
355.862	24.41
356.072	24.19
356.282	23.92
356.492	24.86
356.702	25.11
356.912	24.7
357.122	24.54
357.332	24.52
357.542	24.08
357.752	23.48
357.962	24.09
358.171	23.93
358.381	24.28
358.591	24.62
358.801	24.41
359.011	24.22
359.221	24.71
359.43	24.78
359.64	24.65
359.85	24.75
360.06	24.56
360.269	24.25
360.479	24.37
360.689	24.17
360.899	24.02
361.108	24.4
361.318	24.41
361.528	24.36
361.737	24.61
361.947	25.3
362.156	25.13
362.366	25.09
362.576	24.74
362.785	24.51
362.995	24.63
363.204	24.5
363.414	23.98
363.623	24.08
363.833	23.86
364.042	23.95
364.252	23.74
364.461	24.08
364.671	25.01
364.88	25.57
365.09	25.43
365.299	24.68
365.509	24.6
365.718	24.42
365.927	24.28
366.137	24.36
366.346	23.95
366.555	23.83
366.765	23.73
366.974	22.93
367.183	22.11
367.393	22.42
367.602	22.26
367.811	22.9
368.021	23.27
368.23	23.53
368.439	22.84
368.648	23.19
368.857	22.57
369.067	22.05
369.276	21.68
369.485	21.44
369.694	20.95
369.903	21.35
370.112	21.17
370.321	21.07
370.531	20.72
370.74	21.14
370.949	20.55
371.158	21.88
371.367	22.34
371.576	22.48
371.785	22.86
371.994	23.02
372.203	23.42
372.412	22.79
372.621	22.71
372.83	22.82
373.039	22.72
373.248	22.67
373.457	21.12
373.666	20.38
373.874	20.46
374.083	19.73
374.292	19.34
374.501	18.73
374.71	18.14
374.919	17.91
375.128	17.95
375.336	18.02
375.545	17.75
375.754	17.81
375.963	18.35
376.171	18.13
376.38	19.09
376.589	19.39
376.798	19.47
377.006	19.95
377.215	19.79
377.424	19.57
377.632	19.33
377.841	19.53
378.05	19.36
378.258	19.02
378.467	18.81
378.675	18.87
378.884	17.8
379.093	17.73
379.301	17.76
379.51	17.72
379.718	17.61
379.927	17.61
380.135	17.55
380.344	17.67
380.552	17.18
380.761	17.03
380.969	16.69
381.177	17.62
381.386	18.08
381.594	18.12
381.803	18.2
382.011	17.68
382.219	17.29
382.428	17.46
382.636	17.56
382.845	17.89
383.053	18.53
383.261	18.37
383.469	18.02
383.678	17.33
383.886	17.27
384.094	17.1
384.302	17.42
384.511	17.62
384.719	17.28
384.927	17.12
385.135	17.23
385.343	16.77
385.552	16.74
385.76	16.27
385.968	16.19
386.176	15.65
386.384	15.77
386.592	15.5
386.8	14.62
387.008	14.45
387.216	14.49
387.424	13.73
387.633	13.5
387.841	13.21
388.049	13.98
388.257	13.89
388.465	13.86
388.672	13.41
388.88	13.48
389.088	14.2
389.296	14.05
389.504	13.69
389.712	14.34
389.92	14.41
390.128	14.13
390.336	13.82
390.544	14.14
390.751	14.08
390.959	13.82
391.167	13.81
391.375	13.89
391.583	13.94
391.79	13.84
391.998	13.57
392.206	13.51
392.414	13.24
392.621	12.95
392.829	12.5
393.037	12.69
393.244	12.89
393.452	12.68
393.66	12.71
393.867	12.21
394.075	12.46
394.283	12.51
394.49	12.63
394.698	13
394.905	13.02
395.113	12.95
395.32	12.68
395.528	12.54
395.735	12.56
395.943	12.07
396.15	12.18
396.358	12.11
396.565	12.16
396.773	12.18
396.98	11.97
397.188	11.91
397.395	12
397.602	11.94
397.81	11.87
398.017	11.57
398.225	11.61
398.432	11.92
398.639	11.65
398.847	11.4
399.054	11.18
399.261	11.21
399.468	11.35
399.676	11.54
399.883	11.54
400.09	11.55
400.297	11.55
400.505	11.29
400.712	10.82
400.919	10.62
401.126	10.18
401.333	10.14
401.54	10.65
401.748	10.28
401.955	9.83
402.162	9.87
402.369	9.88
402.576	10.02
402.783	10.17
402.99	10.39
403.197	10.76
403.404	10.91
403.611	10.71
403.818	10.06
404.025	10
404.232	9.82
404.439	9.87
404.646	9.88
404.853	9.94
405.06	9.8
405.267	9.84
405.474	9.71
405.681	9.75
405.887	9.6
406.094	9.53
406.301	9.75
406.508	10.17
406.715	9.77
406.922	9.76
407.128	9.94
407.335	10.28
407.542	10.38
407.749	10.56
407.955	10.55
408.162	10.74
408.369	10.61
408.575	10.57
408.782	10.2
408.989	10.19
409.195	10.25
409.402	9.83
409.609	9.78
409.815	9.78
410.022	9.51
410.228	9.65
410.435	9.62
410.642	10.15
410.848	9.94
411.055	10.26
411.261	10.37
411.468	10.14
411.674	10.27
411.881	9.95
412.087	9.6
412.294	9.62
412.5	9.6
412.706	9.66
412.913	9.28
413.119	9.57
413.326	9.22
413.532	9.44
413.738	9.7
413.945	9.51
414.151	9.64
414.357	9.85
414.564	9.82
414.77	9.55
414.976	9.58
415.182	9.71
415.389	9.56
415.595	9.61
415.801	9.52
416.007	9.39
416.214	9.41
416.42	9.51
416.626	9.4
416.832	9.38
417.038	9.82
417.244	9.77
417.45	9.67
417.657	9.46
417.863	9.42
418.069	9.39
418.275	9.1
418.481	9.14
418.687	9.07
418.893	9.25
419.099	9.27
419.305	9.02
419.511	9.06
419.717	8.97
419.923	9.04
420.129	9.05
420.335	9.04
420.541	9.3
420.746	9.28
420.952	9.24
421.158	9.08
421.364	8.96
421.57	8.92
421.776	8.94
421.982	9.07
422.187	9.02
422.393	9.07
422.599	9.06
422.805	8.96
423.01	9.11
423.216	9.02
423.422	9.06
423.628	9.08
423.833	9.16
424.039	9.09
424.245	9.08
424.45	9.15
424.656	9.03
424.862	9.08
425.067	9.05
425.273	8.88
425.478	8.86
425.684	8.8
425.889	8.81
426.095	8.89
426.301	8.78
426.506	8.73
426.712	8.59
426.917	8.8
427.123	8.61
427.328	8.73
427.533	8.77
427.739	8.93
427.944	8.95
428.15	8.86
428.355	8.62
428.561	8.81
428.766	8.84
428.971	8.99
429.177	8.82
429.382	9.02
429.587	8.69
429.793	8.65
429.998	8.84
430.203	8.77
430.408	9.08
430.614	8.82
430.819	8.65
431.024	8.58
431.229	8.54
431.434	8.48
431.64	8.42
431.845	8.43
432.05	8.3
432.255	8.05
432.46	8.1
432.665	7.72
432.87	7.81
433.076	7.83
433.281	7.77
433.486	7.72
433.691	7.68
433.896	7.7
434.101	7.92
434.306	8.09
434.511	8.18
434.716	8.28
434.921	8.44
435.126	8.58
435.331	8.5
435.535	8.65
435.74	8.7
435.945	8.67
436.15	8.55
436.355	8.36
436.56	8.3
436.765	8.22
436.97	8.11
437.174	8.24
437.379	8.2
437.584	8.37
437.789	8.36
437.993	8.4
438.198	8.42
438.403	8.46
438.608	8.43
438.812	8.65
439.017	8.54
439.222	8.61
439.426	8.53
439.631	8.5
439.836	8.39
440.04	8.39
440.245	8.29
440.45	8.42
440.654	8.34
440.859	8.5
441.063	8.25
441.268	8.22
441.472	8.13
441.677	8.22
441.881	8.33
442.086	8.47
442.29	8.18
442.495	8.4
442.699	8.34
442.904	8.5
443.108	8.18
443.312	8.22
443.517	8.28
443.721	8.2
443.925	8.17
444.13	8.07
444.334	7.96
444.538	8.25
444.743	7.97
444.947	7.96
445.151	7.95
445.356	8.32
445.56	8.28
445.764	8.41
445.968	8.53
446.173	8.46
446.377	8.36
446.581	8.28
446.785	8.1
446.989	8.15
447.193	8.13
447.398	8.2
447.602	8.1
447.806	8.16
448.01	8.03
448.214	8.07
448.418	7.79
448.622	7.8
448.826	7.73
449.03	7.87
449.234	7.98
449.438	8.02
449.642	7.65
449.846	7.31
450.05	7.18
450.254	7.27
450.458	6.93
450.662	7.28
450.866	7.23
451.069	7.56
451.273	7.43
451.477	7.45
451.681	7.34
451.885	7.68
452.089	7.77
452.292	7.93
452.496	7.8
452.7	7.93
452.904	7.95
453.107	7.94
453.311	7.79
453.515	7.91
453.719	7.62
453.922	7.48
454.126	7.32
454.33	7.4
454.533	7.17
454.737	7.16
454.94	7.23
455.144	7.08
455.348	7.25
455.551	7.21
455.755	7.17
455.958	7.31
456.162	7.45
456.365	7.47
456.569	7.55
456.772	7.74
456.976	7.84
457.179	7.8
457.383	7.76
457.586	7.69
457.79	7.85
457.993	7.94
458.196	7.89
458.4	7.93
458.603	7.79
458.807	7.71
459.01	7.7
459.213	7.76
459.417	7.83
459.62	7.77
459.823	7.72
460.026	7.54
460.23	7.47
460.433	7.56
460.636	7.66
460.839	7.67
461.042	7.73
