Data from CB_111_Reflection_1.txt Node
Date: Sat Nov 14 18:15:29 EST 2015
User: robert
Spectrometer: USB4E03001
Autoset integration time: false
Trigger mode: 4
Integration Time (sec): 1.000000E-1
Scans to average: 15
Electric dark correction enabled: true
Nonlinearity correction enabled: false
Boxcar width: 5
Stray light correction enabled: false
XAxis mode: Wavelengths
Stop averaging: false
Number of Pixels in Spectrum: 3648
>>>>>Begin Spectral Data<<<<<
177.566	165.51
177.785	-499.01
178.005	199.04
178.225	203.28
178.445	62.11
178.665	81.43
178.885	-572.16
179.105	93.33
179.324	2.59
179.544	12.06
179.764	57.89
179.984	51.22
180.204	37.67
180.423	50.84
180.643	70.42
180.863	107.27
181.083	97.74
181.302	93.34
181.522	99.54
181.742	128.77
181.961	227.79
182.181	306.39
182.401	724.06
182.621	475.65
182.84	638.21
183.06	289.21
183.279	206.98
183.499	318.25
183.719	326.94
183.938	182.12
184.158	194.12
184.377	160.88
184.597	168.72
184.816	166.39
185.036	163.95
185.256	169.06
185.475	172.35
185.695	148.3
185.914	141.49
186.134	134.29
186.353	158.73
186.572	145.64
186.792	134.22
187.011	133.75
187.231	124.08
187.45	120.55
187.67	112.25
187.889	105.84
188.108	111.91
188.328	103.24
188.547	104.29
188.766	113.16
188.986	105.51
189.205	115.95
189.424	92.02
189.644	99.93
189.863	98.89
190.082	103.04
190.302	94.08
190.521	91.21
190.74	100.8
190.959	125.54
191.178	104.19
191.398	138.81
191.617	131.18
191.836	174.34
192.055	128.11
192.274	127.27
192.494	143.34
192.713	283.73
192.932	275.86
193.151	474.28
193.37	274.35
193.589	241.96
193.808	397.03
194.027	885.08
194.246	-2599.16
194.465	4327.78
194.685	375.51
194.904	349.09
195.123	189.48
195.342	249.35
195.561	152.82
195.78	125.16
195.999	124.97
196.218	76.86
196.436	76.89
196.655	78.17
196.874	93.29
197.093	98.35
197.312	106.2
197.531	108.34
197.75	101.67
197.969	112.47
198.188	130.29
198.407	115.56
198.625	144.69
198.844	141.81
199.063	120.85
199.282	99.64
199.501	100.99
199.719	92.47
199.938	103.01
200.157	98.35
200.376	109.52
200.594	113.27
200.813	132.6
201.032	111.42
201.251	108.21
201.469	113.85
201.688	125.89
201.907	113.03
202.125	118.94
202.344	191.4
202.563	192.65
202.781	156.15
203	181.62
203.218	203.21
203.437	167.35
203.656	158.62
203.874	107.41
204.093	117.6
204.311	137.32
204.53	142.52
204.748	83.29
204.967	88.96
205.185	107.96
205.404	105.05
205.622	88.74
205.841	95.27
206.059	109.49
206.278	124.01
206.496	120.22
206.715	145.2
206.933	127
207.151	124.62
207.37	126.58
207.588	125.4
207.806	120.44
208.025	108.23
208.243	107.9
208.461	124.56
208.68	121.29
208.898	115.74
209.116	79.9
209.335	93.21
209.553	110.44
209.771	122.4
209.989	98.02
210.208	70.03
210.426	80.5
210.644	77.63
210.862	56.18
211.081	65.55
211.299	56.48
211.517	77.42
211.735	67.85
211.953	73.72
212.171	74.85
212.39	69.74
212.608	87.81
212.826	90.59
213.044	98.78
213.262	101.84
213.48	98.74
213.698	97.94
213.916	112.28
214.134	98.26
214.352	96.6
214.57	84.1
214.788	103.39
215.006	104.57
215.224	100.02
215.442	115.8
215.66	110.09
215.878	107.83
216.096	130.89
216.314	124.8
216.532	142.55
216.75	153.92
216.968	180.47
217.185	160.24
217.403	184.77
217.621	265.82
217.839	188.56
218.057	256.25
218.275	204.24
218.492	226.83
218.71	216.04
218.928	211.21
219.146	272.91
219.363	213.36
219.581	260.35
219.799	268.39
220.017	203.06
220.234	216.17
220.452	237.22
220.67	271.53
220.887	436.03
221.105	616.46
221.323	10437.42
221.54	1048.24
221.758	5212.5
221.976	2073.58
222.193	437.9
222.411	564.16
222.629	844.02
222.846	1130.3
223.064	-1036.71
223.281	1022.41
223.499	708
223.716	969.05
223.934	-494.95
224.151	-175.23
224.369	-124.54
224.586	-44.16
224.804	-22.45
225.021	-41.07
225.239	-32.4
225.456	-37.91
225.674	-39.27
225.891	-61.36
226.108	-136.07
226.326	-106.02
226.543	-86.45
226.76	-41.27
226.978	-43.01
227.195	-64.59
227.413	-62.4
227.63	-38.54
227.847	-31.78
228.064	-21.64
228.282	-10.01
228.499	-3.41
228.716	-8.99
228.934	-10.86
229.151	-12.21
229.368	-10.71
229.585	-9.75
229.802	-8.81
230.02	-9.94
230.237	-10.74
230.454	-9.54
230.671	-12.27
230.888	-13.25
231.105	-13.63
231.323	-15.94
231.54	-23.79
231.757	-31.74
231.974	-35.89
232.191	-36.21
232.408	-36.96
232.625	-28.99
232.842	-27.35
233.059	-31.87
233.276	-33.16
233.493	-32.2
233.71	-21.05
233.927	-9.9
234.144	-2.7
234.361	-7.47
234.578	-11.55
234.795	-9.84
235.012	-19.7
235.229	-28.6
235.446	-23.33
235.663	-23.21
235.879	-27.82
236.096	-34.99
236.313	-42.66
236.53	-39.5
236.747	-34.92
236.964	-37.3
237.181	-48.52
237.397	-47.59
237.614	-46.17
237.831	-52.71
238.048	-52.49
238.264	-55.17
238.481	-52.15
238.698	-36.64
238.915	-33.44
239.131	-29.44
239.348	-24.01
239.565	-20.16
239.781	-16.34
239.998	-12.49
240.215	-9.11
240.431	-11.41
240.648	-2.11
240.865	-1.18
241.081	-3.67
241.298	-4.67
241.514	-2.49
241.731	-0.29
241.947	0.04
242.164	1.13
242.38	5.08
242.597	6.21
242.814	8.14
243.03	4.96
243.246	6.31
243.463	6.43
243.679	5.45
243.896	4.77
244.112	2.15
244.329	2.27
244.545	3.63
244.762	0.25
244.978	0.09
245.194	-0.9
245.411	-1.64
245.627	-2.55
245.843	-2.74
246.06	-1.57
246.276	-0.17
246.492	1.86
246.709	1.95
246.925	1.61
247.141	2.61
247.357	2.63
247.574	3.34
247.79	5.15
248.006	5.79
248.222	5.65
248.439	6.02
248.655	4.85
248.871	5.04
249.087	6.36
249.303	6.1
249.519	5.55
249.736	3.31
249.952	1.69
250.168	0.39
250.384	-2.09
250.6	-0.22
250.816	-1.64
251.032	1.56
251.248	-1.05
251.464	-6.3
251.68	-5.98
251.896	-5.64
252.112	-4.38
252.328	-4.26
252.544	-6.03
252.76	-6.67
252.976	-10.24
253.192	-10.56
253.408	-11.88
253.624	-9.14
253.84	-6.06
254.056	-7.73
254.272	-9.2
254.487	-9.02
254.703	-8.67
254.919	-10.6
255.135	-8.93
255.351	-9.29
255.567	-5.73
255.782	-6.83
255.998	-5.75
256.214	-7.4
256.43	-3.53
256.646	-5.05
256.861	-1.35
257.077	-3.66
257.293	0.12
257.508	1.52
257.724	4.06
257.94	3.7
258.155	2.31
258.371	0.66
258.587	1.52
258.802	2.04
259.018	3.23
259.234	3.19
259.449	4.13
259.665	3.55
259.88	3.33
260.096	3.8
260.312	3.75
260.527	4.4
260.743	4.8
260.958	4.86
261.174	3.96
261.389	4.08
261.605	3.63
261.82	3.39
262.036	3.21
262.251	2.63
262.466	1.86
262.682	1.32
262.897	0.67
263.113	-0.23
263.328	-0.08
263.543	-1.48
263.759	-4.54
263.974	-6.26
264.189	-7.4
264.405	-6.76
264.62	-6.9
264.835	-5.91
265.051	-5.42
265.266	-3.92
265.481	-2.13
265.696	-1.63
265.912	0.65
266.127	2.37
266.342	3.79
266.557	4.13
266.773	3.39
266.988	3.46
267.203	3.92
267.418	3.52
267.633	3.91
267.848	3.46
268.064	2.9
268.279	2.86
268.494	2.6
268.709	2.93
268.924	3.97
269.139	3.01
269.354	4.05
269.569	3.55
269.784	3.48
269.999	1.18
270.214	-0.14
270.429	-0.36
270.644	-0.66
270.859	0.11
271.074	-1.36
271.289	-1.65
271.504	0.91
271.719	0.74
271.934	-0.99
272.149	-0.43
272.363	-0.03
272.578	0.85
272.793	0.39
273.008	-0.31
273.223	-0.85
273.438	-1
273.653	-0.71
273.867	-2.21
274.082	-2.85
274.297	-1.6
274.512	-3.43
274.726	-3.71
274.941	-3.9
275.156	-2.78
275.371	-0.98
275.585	-0.84
275.8	0.15
276.015	-0.39
276.229	0.18
276.444	-0.16
276.659	0.19
276.873	3.12
277.088	4.47
277.302	4.81
277.517	4.91
277.732	3.35
277.946	3.01
278.161	2.26
278.375	2.5
278.59	3.1
278.804	3.21
279.019	1.93
279.233	0.84
279.448	-1.3
279.662	-2.72
279.877	-3.51
280.091	-2.45
280.306	-1.44
280.52	-0.87
280.735	-0.68
280.949	-0.33
281.163	0.97
281.378	1.29
281.592	1.4
281.806	3.4
282.021	4.11
282.235	4.14
282.449	2.93
282.664	3.81
282.878	4.22
283.092	3.76
283.307	3.46
283.521	3.36
283.735	3.24
283.949	2.6
284.164	3.2
284.378	3.93
284.592	4.73
284.806	6.62
285.02	5.18
285.234	5.29
285.449	5.73
285.663	5.92
285.877	5.25
286.091	5.44
286.305	5.57
286.519	4.09
286.733	3.47
286.947	3.88
287.161	3.39
287.375	3.54
287.589	4.14
287.803	4.68
288.017	3.94
288.231	4.87
288.445	4.82
288.659	4.2
288.873	4.26
289.087	4.81
289.301	3.34
289.515	3.03
289.729	2.54
289.943	0.61
290.157	-0.77
290.371	-0.6
290.584	-0.42
290.798	-1.12
291.012	-0.08
291.226	-0.41
291.44	-0.71
291.654	-0.8
291.867	-0
292.081	1.3
292.295	3.2
292.509	3.57
292.722	3.49
292.936	1.96
293.15	2.53
293.364	2.67
293.577	4.92
293.791	5.94
294.005	6.73
294.218	6.01
294.432	5.32
294.645	4.53
294.859	5.53
295.073	4.95
295.286	5.62
295.5	6.16
295.713	6.52
295.927	5.62
296.14	4.88
296.354	5.03
296.568	5.41
296.781	6.89
296.994	7.15
297.208	6.72
297.421	8.04
297.635	7.96
297.848	8.03
298.062	8.09
298.275	8.24
298.489	8.29
298.702	8.51
298.915	8.69
299.129	7.63
299.342	7.79
299.555	6.83
299.769	6.21
299.982	6.82
300.195	6.09
300.409	6.37
300.622	6.04
300.835	5.97
301.048	6.11
301.262	5.99
301.475	5.42
301.688	4.04
301.901	4.26
302.115	4.3
302.328	4.12
302.541	5.88
302.754	4.57
302.967	5.44
303.18	6.23
303.393	6.58
303.607	6.58
303.82	6.56
304.033	8.42
304.246	9.03
304.459	9.22
304.672	9.74
304.885	8.75
305.098	9.53
305.311	9.27
305.524	8.59
305.737	7.25
305.95	6.86
306.163	7.5
306.376	6.58
306.589	7.29
306.802	5.74
307.015	4.51
307.228	5.06
307.44	5.56
307.653	5.45
307.866	6.56
308.079	7.46
308.292	9.29
308.505	9.76
308.718	10.44
308.93	10.28
309.143	11.1
309.356	11
309.569	10.78
309.781	11.1
309.994	10.72
310.207	10.2
310.42	9.57
310.632	9.1
310.845	9.07
311.058	9.95
311.27	10.55
311.483	11.49
311.696	12.53
311.908	12.42
312.121	11.09
312.333	11.02
312.546	11.58
312.759	11.47
312.971	10.89
313.184	10.71
313.396	9.09
313.609	8.02
313.821	6.25
314.034	4.57
314.246	5.45
314.459	6.77
314.671	6.95
314.884	6.03
315.096	7.53
315.309	6.78
315.521	6.68
315.733	5.96
315.946	5.67
316.158	6.96
316.371	7.93
316.583	5.94
316.795	5.68
317.008	6.45
317.22	6.47
317.432	5.59
317.644	4.76
317.857	6.13
318.069	7.41
318.281	7.21
318.494	5.98
318.706	5.73
318.918	5.98
319.13	5.15
319.342	5.48
319.555	5.72
319.767	6
319.979	6.39
320.191	6.28
320.403	6.24
320.615	7.98
320.827	8.52
321.039	8.54
321.252	9.96
321.464	11.13
321.676	10.79
321.888	11.25
322.1	11.42
322.312	13.31
322.524	11.49
322.736	13.13
322.948	11.79
323.16	11.47
323.372	11.36
323.584	11.07
323.796	9
324.007	8.34
324.219	8.66
324.431	8.74
324.643	7.5
324.855	9.08
325.067	8.75
325.279	9.82
325.491	11.55
325.702	11.33
325.914	11.34
326.126	12.75
326.338	14.04
326.55	14.37
326.761	15.21
326.973	15.85
327.185	15.95
327.396	15.61
327.608	14.35
327.82	13.29
328.032	14.79
328.243	14.6
328.455	16.28
328.666	16.28
328.878	16.34
329.09	16.19
329.301	17.6
329.513	16.47
329.725	15.95
329.936	17.69
330.148	17.92
330.359	16.85
330.571	17.21
330.782	17.52
330.994	18.76
331.205	18.25
331.417	18.4
331.628	17.48
331.84	17.05
332.051	16.94
332.262	16.84
332.474	17.22
332.685	17.72
332.897	18.77
333.108	17.42
333.319	16.38
333.531	16.79
333.742	16.82
333.953	17.21
334.165	18.26
334.376	19.4
334.587	19.4
334.799	19.78
335.01	19.63
335.221	20.4
335.432	20.62
335.644	21.06
335.855	21.11
336.066	20.98
336.277	21.44
336.488	21.93
336.7	21.92
336.911	22.46
337.122	22.86
337.333	23.65
337.544	22.14
337.755	22.17
337.966	22.57
338.177	22.51
338.388	22.86
338.599	22.29
338.811	22.52
339.022	23.06
339.233	22.12
339.444	21.68
339.655	21.64
339.866	22.06
340.076	22.69
340.287	21.73
340.498	21.9
340.709	22.15
340.92	22.46
341.131	21.7
341.342	21.17
341.553	20.82
341.764	21.29
341.975	21.14
342.185	22.09
342.396	21.63
342.607	21.11
342.818	21.33
343.029	20.84
343.239	20.51
343.45	21.23
343.661	21.53
343.872	21.86
344.082	20.71
344.293	21.01
344.504	19.63
344.714	19.51
344.925	20.32
345.136	20.56
345.346	19.89
345.557	19.59
345.768	19.23
345.978	18.85
346.189	19.85
346.399	20.51
346.61	20.29
346.821	20.71
347.031	20.95
347.242	20.96
347.452	20.62
347.663	20.63
347.873	21.18
348.084	21.22
348.294	20.95
348.504	19.97
348.715	19.66
348.925	19.34
349.136	19.25
349.346	19.28
349.557	19.15
349.767	18.21
349.977	18.57
350.188	17.6
350.398	18.16
350.608	18.74
350.819	18.82
351.029	18.83
351.239	18.38
351.449	18.38
351.66	18.33
351.87	18.83
352.08	19.46
352.29	20.24
352.501	20.94
352.711	20.23
352.921	19.39
353.131	19.83
353.341	20.04
353.552	20
353.762	20.48
353.972	20.44
354.182	19.33
354.392	19.09
354.602	18.78
354.812	19.07
355.022	18.93
355.232	19.17
355.442	18.64
355.652	17.93
355.862	18.35
356.072	17.48
356.282	17.34
356.492	18.05
356.702	18.44
356.912	18.69
357.122	18.04
357.332	18.62
357.542	18.65
357.752	18.59
357.962	19.22
358.171	18.98
358.381	20.17
358.591	20.03
358.801	19.68
359.011	20.01
359.221	19.66
359.43	20.12
359.64	19.5
359.85	19.45
360.06	19.63
360.269	19.86
360.479	20.15
360.689	19.64
360.899	19.76
361.108	19.69
361.318	19.12
361.528	19.14
361.737	19.18
361.947	19.42
362.156	19.18
362.366	19.28
362.576	19.06
362.785	18.88
362.995	19.32
363.204	19.18
363.414	19.39
363.623	19.35
363.833	19.34
364.042	18.95
364.252	19.12
364.461	19.72
364.671	19.48
364.88	19.38
365.09	19.3
365.299	18.63
365.509	18.45
365.718	18.2
365.927	18.12
366.137	18.05
366.346	18.56
366.555	18.32
366.765	17.92
366.974	18.11
367.183	17.74
367.393	18
367.602	17.97
367.811	18.13
368.021	17.77
368.23	17.84
368.439	17.85
368.648	18.2
368.857	18.18
369.067	17.91
369.276	16.92
369.485	16.56
369.694	16.33
369.903	16.22
370.112	16.09
370.321	16.38
370.531	16.32
370.74	16.54
370.949	15.61
371.158	16.14
371.367	16.4
371.576	16.92
371.785	17.84
371.994	17.89
372.203	18.22
372.412	18
372.621	18.24
372.83	18.15
373.039	18.21
373.248	18.66
373.457	17.78
373.666	17.43
373.874	17.26
374.083	16.48
374.292	15.99
374.501	15.65
374.71	15.66
374.919	15.24
375.128	15.61
375.336	15.48
375.545	14.99
375.754	15.48
375.963	15.52
376.171	15.43
376.38	15.88
376.589	16.15
376.798	16.07
377.006	16.33
377.215	15.62
377.424	15.5
377.632	15.53
377.841	15.89
378.05	15.28
378.258	15.72
378.467	15.74
378.675	15.7
378.884	15.01
379.093	14.88
379.301	14.77
379.51	15.75
379.718	15.37
379.927	15.5
380.135	15.3
380.344	15.59
380.552	14.56
380.761	15
380.969	14.76
381.177	15.31
381.386	14.96
381.594	15.53
381.803	15.33
382.011	15.37
382.219	15.11
382.428	15.15
382.636	15.35
382.845	15.97
383.053	15.77
383.261	15.63
383.469	15.19
383.678	15.6
383.886	15.38
384.094	15.2
384.302	15.13
384.511	15.08
384.719	15.11
384.927	14.43
385.135	14.23
385.343	13.83
385.552	14.15
385.76	14.25
385.968	14
386.176	13.52
386.384	13.68
386.592	13.69
386.8	12.96
387.008	12.96
387.216	13.45
387.424	13.36
387.633	13.39
387.841	12.93
388.049	13.3
388.257	13.25
388.465	13.35
388.672	12.92
388.88	12.77
389.088	12.98
389.296	12.5
389.504	12.2
389.712	12.55
389.92	12.73
390.128	13.15
390.336	12.67
390.544	12.72
390.751	12.16
390.959	12.19
391.167	12.45
391.375	12.6
391.583	12.69
391.79	12.74
391.998	12.54
392.206	12.27
392.414	11.54
392.621	11.43
392.829	11.23
393.037	11.78
393.244	12.01
393.452	11.32
393.66	11.32
393.867	11.16
394.075	11.35
394.283	11.02
394.49	10.75
394.698	10.79
394.905	10.93
395.113	11.02
395.32	10.67
395.528	10.07
395.735	10.88
395.943	10.73
396.15	10.74
396.358	10.12
396.565	10.32
396.773	10.58
396.98	10.82
397.188	11.11
397.395	11.18
397.602	11.16
397.81	11.38
398.017	10.9
398.225	10.88
398.432	10.94
398.639	11.08
398.847	11.18
399.054	11.52
399.261	11.44
399.468	11.1
399.676	11.15
399.883	10.87
400.09	10.88
400.297	10.96
400.505	10.66
400.712	10.69
400.919	10.45
401.126	9.9
401.333	9.6
401.54	9.65
401.748	9.45
401.955	9.04
402.162	9.15
402.369	8.96
402.576	8.87
402.783	8.96
402.99	9
403.197	9.2
403.404	9.22
403.611	9.05
403.818	9.12
404.025	9.24
404.232	9.22
404.439	9.45
404.646	9.83
404.853	9.64
405.06	9.59
405.267	9.72
405.474	9.58
405.681	9.96
405.887	9.88
406.094	9.67
406.301	9.77
406.508	9.98
406.715	9.71
406.922	9.59
407.128	9.94
407.335	10.12
407.542	9.69
407.749	10.11
407.955	9.89
408.162	10.36
408.369	10.4
408.575	10.29
408.782	10.32
408.989	10.52
409.195	10.82
409.402	10.74
409.609	10.85
409.815	11.23
410.022	11.01
410.228	10.97
410.435	10.57
410.642	10.66
410.848	10.24
411.055	10.34
411.261	10.18
411.468	9.81
411.674	9.49
411.881	9.55
412.087	9.13
412.294	9.21
412.5	9.33
412.706	9.58
412.913	9.29
413.119	9.48
413.326	9.49
413.532	9.66
413.738	9.64
413.945	9.82
414.151	9.53
414.357	9.96
414.564	10.04
414.77	9.82
414.976	9.57
415.182	9.68
415.389	10
415.595	9.69
415.801	9.64
416.007	9.74
416.214	9.59
416.42	9.81
416.626	9.42
416.832	9.27
417.038	9.55
417.244	9.7
417.45	9.83
417.657	9.59
417.863	9.77
418.069	9.81
418.275	9.64
418.481	9.56
418.687	9.49
418.893	9.72
419.099	9.66
419.305	9.34
419.511	9.26
419.717	9.23
419.923	9.28
420.129	9.19
420.335	9.03
420.541	9.1
420.746	9.21
420.952	9.17
421.158	9.1
421.364	9.14
421.57	9.25
421.776	9.33
421.982	9.16
422.187	9.11
422.393	9.09
422.599	9.12
422.805	9.24
423.01	9.38
423.216	9.31
423.422	9.28
423.628	9.33
423.833	9.43
424.039	9.44
424.245	9.56
424.45	9.67
424.656	9.71
424.862	9.79
425.067	9.7
425.273	9.6
425.478	9.72
425.684	9.86
425.889	9.66
426.095	9.75
426.301	9.58
426.506	9.54
426.712	9.47
426.917	9.53
427.123	9.43
427.328	9.59
427.533	9.54
427.739	9.43
427.944	9.21
428.15	9.24
428.355	8.81
428.561	8.98
428.766	9.07
428.971	8.96
429.177	8.9
429.382	9.04
429.587	8.72
429.793	8.76
429.998	8.83
430.203	8.9
430.408	9.16
430.614	9.3
430.819	9.1
431.024	9.12
431.229	9.32
431.434	9.17
431.64	9.04
431.845	9.16
432.05	9.14
432.255	9.09
432.46	9.22
432.665	8.88
432.87	9.05
433.076	9.24
433.281	9.12
433.486	9.14
433.691	9.03
433.896	9.08
434.101	9.08
434.306	8.89
434.511	8.9
434.716	8.62
434.921	8.95
435.126	8.79
435.331	8.86
435.535	8.91
435.74	8.67
435.945	8.83
436.15	8.68
436.355	8.48
436.56	8.62
436.765	8.55
436.97	8.69
437.174	8.57
437.379	8.64
437.584	8.45
437.789	8.4
437.993	8.55
438.198	8.56
438.403	8.82
438.608	8.93
438.812	9.13
439.017	9.17
439.222	9.22
439.426	9.13
439.631	9.11
439.836	9.12
440.04	9.2
440.245	9.24
440.45	9.33
440.654	9.23
440.859	9.21
441.063	9.15
441.268	8.96
441.472	8.87
441.677	9.01
441.881	9.06
442.086	9.13
442.29	9.06
442.495	9.02
442.699	8.87
442.904	8.84
443.108	8.64
443.312	8.61
443.517	8.82
443.721	8.78
443.925	8.67
444.13	8.67
444.334	8.61
444.538	8.63
444.743	8.61
444.947	8.71
445.151	8.66
445.356	8.82
445.56	8.9
445.764	8.93
445.968	9.02
446.173	9.07
446.377	8.98
446.581	8.93
446.785	8.8
446.989	8.78
447.193	8.7
447.398	8.8
447.602	8.83
447.806	8.6
448.01	8.54
448.214	8.53
448.418	8.33
448.622	8.06
448.826	7.89
449.03	8.07
449.234	8.09
449.438	8
449.642	7.9
449.846	7.76
450.05	7.86
450.254	7.82
450.458	7.73
450.662	7.78
450.866	7.99
451.069	8.36
451.273	8.2
451.477	8.36
451.681	8.52
451.885	8.57
452.089	8.56
452.292	8.72
452.496	8.65
452.7	8.58
452.904	8.73
453.107	8.72
453.311	8.66
453.515	8.77
453.719	8.48
453.922	8.32
454.126	8.22
454.33	8.4
454.533	8.05
454.737	8.2
454.94	8.35
455.144	8.36
455.348	8.5
455.551	8.27
455.755	8.2
455.958	8.25
456.162	8.32
456.365	8.45
456.569	8.47
456.772	8.87
456.976	8.83
457.179	8.84
457.383	8.86
457.586	9.02
457.79	9.1
457.993	9.22
458.196	9.19
458.4	9.29
458.603	9.1
458.807	9.03
459.01	8.79
459.213	8.9
459.417	8.92
459.62	8.71
459.823	8.59
460.026	8.55
460.23	8.47
460.433	8.51
460.636	8.5
460.839	8.64
461.042	8.59
461.246	8.6
461.449	8.47
461.652	8.26
461.855	8.51
