Data from CB_114_Reflection_3.txt Node
Date: Sat Nov 14 19:00:53 EST 2015
User: robert
Spectrometer: USB4E03001
Autoset integration time: false
Trigger mode: 4
Integration Time (sec): 1.000000E-1
Scans to average: 15
Electric dark correction enabled: true
Nonlinearity correction enabled: false
Boxcar width: 5
Stray light correction enabled: false
XAxis mode: Wavelengths
Stop averaging: false
Number of Pixels in Spectrum: 3648
>>>>>Begin Spectral Data<<<<<
177.566	111.43
177.785	99.55
178.005	106.83
178.225	122.29
178.445	151.34
178.665	167.24
178.885	107.92
179.105	102.23
179.324	99.66
179.544	8043.86
179.764	160.7
179.984	169.56
180.204	168.64
180.423	184.5
180.643	200.31
180.863	170.14
181.083	255.74
181.302	222.21
181.522	1021.39
181.742	948.35
181.961	166.57
182.181	372.72
182.401	149.03
182.621	145.33
182.84	216.84
183.06	199.31
183.279	-956.74
183.499	-287.65
183.719	-43
183.938	-174.91
184.158	-141.02
184.377	-180.46
184.597	-40.07
184.816	-44.76
185.036	-12.29
185.256	-9.68
185.475	-0.27
185.695	18.72
185.914	-12.85
186.134	-38.65
186.353	35.03
186.572	30.82
186.792	47.64
187.011	-2.27
187.231	-42.81
187.45	-65.52
187.67	-93.7
187.889	-47.48
188.108	-203.31
188.328	-131.92
188.547	3.43
188.766	-268.23
188.986	459.47
189.205	170.12
189.424	117.98
189.644	170.65
189.863	142.75
190.082	153.21
190.302	151.5
190.521	186.91
190.74	104.7
190.959	153.01
191.178	93.08
191.398	92.74
191.617	28.79
191.836	44.04
192.055	75.79
192.274	21.71
192.494	15.92
192.713	689.87
192.932	-294.19
193.151	99.03
193.37	158.47
193.589	23.47
193.808	4.85
194.027	-16.81
194.246	5.54
194.465	44.56
194.685	-3.8
194.904	-52.5
195.123	-55.84
195.342	-2.24
195.561	19.77
195.78	-29.73
195.999	57.05
196.218	152.6
196.436	51.35
196.655	75.71
196.874	290.78
197.093	235.96
197.312	5423.33
197.531	-72.87
197.75	7.11
197.969	-7.45
198.188	-53.21
198.407	-40.94
198.625	-74.75
198.844	-55.34
199.063	-66.79
199.282	-24.43
199.501	-26.11
199.719	191.57
199.938	-67.75
200.157	51.04
200.376	58.72
200.594	26.62
200.813	-12.7
201.032	-1.09
201.251	22.12
201.469	-4.71
201.688	12.9
201.907	12.94
202.125	59.97
202.344	54.38
202.563	48.93
202.781	46.65
203	75.24
203.218	146.12
203.437	161.74
203.656	235.86
203.874	549.37
204.093	460.57
204.311	-148.97
204.53	-56.48
204.748	-9.86
204.967	1.43
205.185	17.08
205.404	49.37
205.622	101.73
205.841	102.43
206.059	111.67
206.278	-20.48
206.496	38.18
206.715	69.35
206.933	32.12
207.151	15.76
207.37	-7.53
207.588	-51.51
207.806	-32.01
208.025	42.52
208.243	115.35
208.461	12.13
208.68	257.43
208.898	-248.47
209.116	-697.39
209.335	201.04
209.553	269.57
209.771	123.14
209.989	161.24
210.208	75.82
210.426	20.83
210.644	-10.81
210.862	-4.7
211.081	-58.8
211.299	-72.94
211.517	-165.75
211.735	93.89
211.953	208.11
212.171	50
212.39	42.28
212.608	105.89
212.826	105.49
213.044	-106.33
213.262	4304.55
213.48	-112.03
213.698	-226.72
213.916	69.72
214.134	24.42
214.352	-53.6
214.57	-50.06
214.788	-176.96
215.006	-458.05
215.224	1227.54
215.442	-119.54
215.66	-274.72
215.878	888.16
216.096	157.65
216.314	127.87
216.532	71.75
216.75	24.41
216.968	10.13
217.185	-7.23
217.403	-59.74
217.621	-16.08
217.839	-39.27
218.057	-46.93
218.275	-346.51
218.492	907.01
218.71	1160.06
218.928	-3707.95
219.146	-340.71
219.363	-147.44
219.581	-48.02
219.799	-56.94
220.017	-93.3
220.234	-42.56
220.452	-58.08
220.67	-75.45
220.887	-248.12
221.105	-119.36
221.323	-343.23
221.54	-141.57
221.758	-360.65
221.976	688.94
222.193	334.06
222.411	213.89
222.629	-2313.64
222.846	-903.9
223.064	751.32
223.281	-12.23
223.499	222.75
223.716	11.41
223.934	109.26
224.151	987.92
224.369	-208.25
224.586	-94.24
224.804	-58.38
225.021	-48.72
225.239	-92.24
225.456	-132.86
225.674	-84.4
225.891	-84
226.108	-117.34
226.326	-50.12
226.543	-20.23
226.76	-1.94
226.978	8.84
227.195	14.13
227.413	10.08
227.63	21.48
227.847	21.36
228.064	19.6
228.282	24.94
228.499	22.82
228.716	17.88
228.934	16.44
229.151	14.23
229.368	8.73
229.585	9.77
229.802	10.27
230.02	5.95
230.237	6.31
230.454	6.59
230.671	6.91
230.888	10.59
231.105	14.3
231.323	13.67
231.54	13.76
231.757	20.48
231.974	15.76
232.191	14.34
232.408	19.61
232.625	17.09
232.842	19.54
233.059	11.76
233.276	4.38
233.493	4.32
233.71	10.32
233.927	1.05
234.144	-6.83
234.361	-2.75
234.578	-7.04
234.795	-8.37
235.012	-3.02
235.229	-4.33
235.446	-4.74
235.663	-2.08
235.879	-6.81
236.096	-15.55
236.313	-9.65
236.53	-6.74
236.747	-7.31
236.964	-2.25
237.181	-4.62
237.397	-5.15
237.614	-9.14
237.831	-10.99
238.048	-11.72
238.264	-11.49
238.481	-4.47
238.698	-0.24
238.915	6.78
239.131	12.18
239.348	8.29
239.565	14.92
239.781	12.74
239.998	15.19
240.215	15.99
240.431	16.27
240.648	16.84
240.865	14.69
241.081	14.65
241.298	11.49
241.514	7.76
241.731	8.98
241.947	7.29
242.164	6.58
242.38	5.78
242.597	5.87
242.814	5.79
243.03	6.64
243.246	5.89
243.463	5.23
243.679	5.87
243.896	7.22
244.112	7.36
244.329	6
244.545	8.15
244.762	9.8
244.978	7.8
245.194	8.87
245.411	10.05
245.627	10.05
245.843	11.66
246.06	11.48
246.276	11.19
246.492	10.43
246.709	10.42
246.925	10.62
247.141	10.5
247.357	12
247.574	11.79
247.79	10.49
248.006	10.36
248.222	10.52
248.439	9.35
248.655	9.28
248.871	9.9
249.087	10.46
249.303	9.56
249.519	9.38
249.736	6.45
249.952	6.47
250.168	7.15
250.384	8.13
250.6	7.35
250.816	8.05
251.032	7.94
251.248	5.78
251.464	6.49
251.68	8.18
251.896	8.37
252.112	10.01
252.328	8.74
252.544	8.03
252.76	6.5
252.976	6.71
253.192	7.28
253.408	7.12
253.624	6.55
253.84	5.19
254.056	4.42
254.272	3.24
254.487	0.95
254.703	-1.07
254.919	1.85
255.135	2
255.351	-0.83
255.567	0.33
255.782	0.53
255.998	2.5
256.214	2.36
256.43	3
256.646	2.99
256.861	6.77
257.077	12.82
257.293	10.72
257.508	8.6
257.724	7.74
257.94	6.88
258.155	7.24
258.371	7.99
258.587	7.6
258.802	5.58
259.018	4.56
259.234	5.19
259.449	4.05
259.665	4.85
259.88	6.49
260.096	7.27
260.312	7.61
260.527	7.06
260.743	6.93
260.958	7.09
261.174	7.64
261.389	8.39
261.605	7.66
261.82	7.25
262.036	7.3
262.251	7.66
262.466	7.71
262.682	6.03
262.897	6.75
263.113	7.9
263.328	8.7
263.543	11.07
263.759	11.03
263.974	11.82
264.189	11.7
264.405	11.65
264.62	9.18
264.835	7.26
265.051	9.49
265.266	7.49
265.481	6.06
265.696	7.02
265.912	4.74
266.127	6.22
266.342	3.55
266.557	2.6
266.773	2.54
266.988	2.86
267.203	4.22
267.418	5.66
267.633	6.35
267.848	6.97
268.064	6.46
268.279	6.37
268.494	6.04
268.709	6.36
268.924	7.17
269.139	7.18
269.354	6.89
269.569	7.67
269.784	6.64
269.999	7
270.214	6.79
270.429	7.08
270.644	7.02
270.859	6.1
271.074	6.13
271.289	7.71
271.504	7.84
271.719	8.17
271.934	6.61
272.149	5.57
272.363	6.33
272.578	6.28
272.793	4.99
273.008	5.02
273.223	6.28
273.438	6.46
273.653	5.78
273.867	5.07
274.082	4.6
274.297	4.12
274.512	4.75
274.726	3.74
274.941	2.84
275.156	4.56
275.371	5.68
275.585	3.69
275.8	3.81
276.015	2.13
276.229	2.7
276.444	3.41
276.659	5
276.873	5.38
277.088	4.7
277.302	4.91
277.517	2.74
277.732	2.3
277.946	1.76
278.161	3.8
278.375	4.75
278.59	4.82
278.804	3.74
279.019	2.53
279.233	2.32
279.448	2.97
279.662	4.48
279.877	6.72
280.091	6.75
280.306	6.8
280.52	5.7
280.735	5.03
280.949	5.97
281.163	7.29
281.378	9.02
281.592	7.4
281.806	8.01
282.021	6.96
282.235	5.92
282.449	4.53
282.664	6.37
282.878	4.6
283.092	6.48
283.307	5.47
283.521	5.01
283.735	3.95
283.949	4.6
284.164	4.27
284.378	3.57
284.592	3.66
284.806	3.84
285.02	3.19
285.234	5.51
285.449	4.94
285.663	5.33
285.877	4.57
286.091	4.81
286.305	5.08
286.519	5.67
286.733	6.45
286.947	7.03
287.161	7.16
287.375	6.25
287.589	5.91
287.803	6.34
288.017	5.83
288.231	6.32
288.445	7.53
288.659	8.12
288.873	7.27
289.087	7.2
289.301	6.33
289.515	7.76
289.729	8.29
289.943	7.3
290.157	7.01
290.371	6.45
290.584	7.64
290.798	6.54
291.012	5.75
291.226	6.17
291.44	6.02
291.654	6.37
291.867	5.72
292.081	5.55
292.295	7.35
292.509	7.19
292.722	8.74
292.936	6.94
293.15	7.79
293.364	6.55
293.577	6.79
293.791	4.96
294.005	5.6
294.218	6.18
294.432	6.72
294.645	7.14
294.859	7.25
295.073	6.11
295.286	7.49
295.5	7.09
295.713	8.45
295.927	8.33
296.14	9.61
296.354	8.68
296.568	7.77
296.781	8.49
296.994	7.28
297.208	6.72
297.421	7.56
297.635	7.27
297.848	6.79
298.062	7.08
298.275	7.05
298.489	7.97
298.702	8.46
298.915	8.87
299.129	7.43
299.342	7.84
299.555	7.36
299.769	6.89
299.982	7.32
300.195	7.55
300.409	6.64
300.622	6.32
300.835	5.07
301.048	5.81
301.262	5.54
301.475	6.62
301.688	6.78
301.901	7.57
302.115	7.84
302.328	7.21
302.541	6.43
302.754	6.9
302.967	7.12
303.18	8.02
303.393	6.88
303.607	6.86
303.82	7.05
304.033	5.96
304.246	5.99
304.459	6.22
304.672	5.96
304.885	7.39
305.098	7.86
305.311	7.67
305.524	6.31
305.737	6.31
305.95	6.83
306.163	6.32
306.376	6.84
306.589	7.65
306.802	6.95
307.015	7.65
307.228	6.46
307.44	6.38
307.653	5.71
307.866	6.1
308.079	5.6
308.292	5.76
308.505	6.1
308.718	4.82
308.93	5.05
309.143	4.73
309.356	5.01
309.569	5.43
309.781	5.22
309.994	6.84
310.207	8
310.42	8.59
310.632	7.75
310.845	7.44
311.058	8.1
311.27	8.03
311.483	8.76
311.696	8.01
311.908	7.43
312.121	6.9
312.333	6.31
312.546	4.95
312.759	5.32
312.971	6.99
313.184	7.07
313.396	7.74
313.609	7.21
313.821	6.74
314.034	6.65
314.246	6.59
314.459	7.36
314.671	7.48
314.884	7.75
315.096	7.35
315.309	6.57
315.521	6.07
315.733	6.45
315.946	5.85
316.158	5.97
316.371	6.63
316.583	7.99
316.795	8.95
317.008	7.63
317.22	7.59
317.432	7.84
317.644	8.65
317.857	9.77
318.069	8.78
318.281	9.63
318.494	9.84
318.706	10.94
318.918	11.76
319.13	11.02
319.342	12.05
319.555	12.45
319.767	11.9
319.979	10.38
320.191	11.54
320.403	11.52
320.615	12.37
320.827	12
321.039	11.63
321.252	10.62
321.464	11.51
321.676	12.09
321.888	13.15
322.1	13.94
322.312	14.97
322.524	13.25
322.736	13.56
322.948	12.38
323.16	12
323.372	12.11
323.584	12.12
323.796	11.71
324.007	10.49
324.219	9.93
324.431	9.96
324.643	8.79
324.855	9.5
325.067	9.39
325.279	10.57
325.491	10.54
325.702	10.66
325.914	10.96
326.126	10.44
326.338	10.55
326.55	10.47
326.761	9.78
326.973	10.67
327.185	10.37
327.396	11.86
327.608	12.01
327.82	13.15
328.032	12.07
328.243	12.35
328.455	13.24
328.666	14.4
328.878	15.78
329.09	16.96
329.301	16.16
329.513	16.87
329.725	17.03
329.936	16.37
330.148	17.56
330.359	19.38
330.571	20.22
330.782	20.8
330.994	21.9
331.205	20.7
331.417	20.76
331.628	22.22
331.84	21.86
332.051	20.85
332.262	22.26
332.474	20.7
332.685	20.25
332.897	19.5
333.108	18.54
333.319	17.57
333.531	16.81
333.742	15.89
333.953	15.5
334.165	16.75
334.376	17.06
334.587	14.98
334.799	15.3
335.01	14.63
335.221	14.68
335.432	15.5
335.644	14.87
335.855	16.03
336.066	17.07
336.277	18.44
336.488	18.61
336.7	18.25
336.911	19.37
337.122	19.72
337.333	19.58
337.544	19.73
337.755	19.09
337.966	19.69
338.177	20.2
338.388	19.82
338.599	19.06
338.811	18.68
339.022	19.4
339.233	19.49
339.444	19.8
339.655	19.83
339.866	19.48
340.076	19.6
340.287	20.39
340.498	19.76
340.709	18.9
340.92	19.73
341.131	19.51
341.342	19.16
341.553	18.63
341.764	18.64
341.975	19.96
342.185	20.32
342.396	21.06
342.607	20.11
342.818	20.49
343.029	20.98
343.239	21.27
343.45	21.69
343.661	22.03
343.872	22.03
344.082	21.44
344.293	20.41
344.504	20.45
344.714	19.35
344.925	19.57
345.136	19.48
345.346	20.25
345.557	18.99
345.768	18.13
345.978	17.7
346.189	17.37
346.399	17.94
346.61	18.29
346.821	18.5
347.031	19.05
347.242	19.39
347.452	19.58
347.663	19.14
347.873	18.93
348.084	18.72
348.294	18.85
348.504	19.18
348.715	18.33
348.925	17.41
349.136	16.69
349.346	16.82
349.557	17.67
349.767	17.35
349.977	17.86
350.188	18.96
350.398	19.43
350.608	19.86
350.819	19.9
351.029	20.11
351.239	20.9
351.449	20.97
351.66	21.36
351.87	20.42
352.08	19.69
352.29	18.92
352.501	17.92
352.711	18.2
352.921	17.18
353.131	18.12
353.341	18.39
353.552	18.42
353.762	18.75
353.972	18.28
354.182	18.93
354.392	19.6
354.602	19.85
354.812	19.01
355.022	19.03
355.232	19.73
355.442	18.86
355.652	18.84
355.862	18.76
356.072	18.87
356.282	18.49
356.492	17.08
356.702	17.3
356.912	18.23
357.122	18.6
357.332	18.22
357.542	17.93
357.752	18.22
357.962	18.22
358.171	18.96
358.381	18.83
358.591	18.65
358.801	18.75
359.011	18.49
359.221	18.51
359.43	19.16
359.64	19.22
359.85	18.75
360.06	18.33
360.269	17.96
360.479	17.28
360.689	17.69
360.899	17.77
361.108	18.33
361.318	18.36
361.528	16.92
361.737	16.57
361.947	16.45
362.156	17.04
362.366	17.58
362.576	17.69
362.785	17.77
362.995	17.82
363.204	18.15
363.414	18.06
363.623	18.22
363.833	19.08
364.042	19.26
364.252	19.06
364.461	18.48
364.671	17.9
364.88	17.67
365.09	17.69
365.299	17.34
365.509	17.13
365.718	17.58
365.927	17.56
366.137	17.24
366.346	17.79
366.555	18.52
366.765	18.11
366.974	17.84
367.183	18.22
367.393	17.65
367.602	17.32
367.811	17.09
368.021	16.3
368.23	16.4
368.439	16.22
368.648	15.75
368.857	15.24
369.067	15.87
369.276	16.97
369.485	16.65
369.694	16.46
369.903	16.83
370.112	16.93
370.321	17.57
370.531	17.26
370.74	17.51
370.949	17.31
371.158	17.43
371.367	17.74
371.576	16.62
371.785	16.6
371.994	16.86
372.203	15.93
372.412	15
372.621	14.52
372.83	13.95
373.039	14.4
373.248	14.54
373.457	14.28
373.666	13.52
373.874	13.98
374.083	14.06
374.292	14.67
374.501	15.38
374.71	16.64
374.919	16.61
375.128	16.85
375.336	16.25
375.545	15.92
375.754	15.76
375.963	16.04
376.171	16.35
376.38	16.33
376.589	15.83
376.798	16.12
377.006	15.77
377.215	15.54
377.424	15.15
377.632	15.14
377.841	15.19
378.05	15.12
378.258	15.46
378.467	14.69
378.675	14.62
378.884	14.38
379.093	14.26
379.301	14.51
379.51	14.92
379.718	15.44
379.927	16.07
380.135	15.81
380.344	16.29
380.552	15.97
380.761	16.43
380.969	16.54
381.177	16.69
381.386	15.78
381.594	15.69
381.803	15.69
382.011	15.44
382.219	15.01
382.428	15.24
382.636	15.32
382.845	15.18
383.053	15.09
383.261	14.66
383.469	14.88
383.678	15.46
383.886	15.71
384.094	15.3
384.302	15.11
384.511	14.71
384.719	14.61
384.927	14.37
385.135	14.52
385.343	14.53
385.552	14.5
385.76	14.63
385.968	14.56
386.176	13.81
386.384	14.16
386.592	14.27
386.8	14.15
387.008	14.07
387.216	13.88
387.424	13.81
387.633	13.65
387.841	13.59
388.049	13.28
388.257	13.09
388.465	13.44
388.672	13.37
388.88	13.35
389.088	13.39
389.296	13.26
389.504	12.81
389.712	12.99
389.92	12.77
390.128	13.04
390.336	13.06
390.544	13.37
390.751	13.47
390.959	13.32
391.167	13.16
391.375	13.14
391.583	13.43
391.79	13.68
391.998	13.73
392.206	14.34
392.414	14.21
392.621	14.11
392.829	14.27
393.037	14.13
393.244	14.33
393.452	14.62
393.66	14.67
393.867	14.76
394.075	15.06
394.283	14.52
394.49	14.14
394.698	14.07
394.905	14.07
395.113	13.98
395.32	13.84
395.528	13.71
395.735	13.57
395.943	13.39
396.15	13.22
396.358	13.11
396.565	13.33
396.773	13.31
396.98	13.58
397.188	13.67
397.395	13.44
397.602	13.83
397.81	13.75
398.017	13.82
398.225	14
398.432	14.18
398.639	14.26
398.847	13.92
399.054	13.65
399.261	13.33
399.468	13.48
399.676	13.31
399.883	13.03
400.09	13
400.297	12.76
400.505	12.93
400.712	12.64
400.919	12.27
401.126	12.78
401.333	13.06
401.54	13.5
401.748	13.39
401.955	13.63
402.162	13.87
402.369	13.8
402.576	14.15
402.783	14.19
402.99	14.2
403.197	14.45
403.404	14.28
403.611	14.37
403.818	13.87
404.025	13.79
404.232	13.65
404.439	13.15
404.646	13.1
404.853	12.78
405.06	12.77
405.267	12.78
405.474	12.43
405.681	12.3
405.887	12.28
406.094	12.65
406.301	12.8
406.508	13
406.715	13.42
406.922	13.49
407.128	13.85
407.335	14.03
407.542	14.09
407.749	14.49
407.955	14.98
408.162	14.69
408.369	14.54
408.575	14.49
408.782	14.36
408.989	14.22
409.195	14.44
409.402	14.33
409.609	13.76
409.815	13.94
410.022	14.05
410.228	13.77
410.435	14.04
410.642	14.23
410.848	14.21
411.055	14.43
411.261	14.77
411.468	14.57
411.674	14.79
411.881	15.22
412.087	15.5
412.294	15.36
412.5	15.07
412.706	15.4
412.913	15.34
413.119	15.47
413.326	15.28
413.532	15.34
413.738	15.6
413.945	15.52
414.151	15.37
414.357	14.84
414.564	14.97
414.77	15.2
414.976	14.92
415.182	14.82
415.389	14.5
415.595	14.58
415.801	14.26
416.007	14.25
416.214	14.07
416.42	14.17
416.626	14.34
416.832	14.35
417.038	14.24
417.244	14.43
417.45	14.54
417.657	14.91
417.863	14.93
418.069	15.21
418.275	15.2
418.481	15.44
418.687	15.39
418.893	15.4
419.099	15.37
419.305	15.55
419.511	15.52
419.717	15.45
419.923	15.43
420.129	15.52
420.335	15.51
420.541	15.59
420.746	15.54
420.952	15.65
421.158	15.6
421.364	15.66
421.57	15.71
421.776	15.72
421.982	15.87
422.187	15.96
422.393	16.09
422.599	16.07
422.805	16.03
423.01	16.09
423.216	16.19
423.422	16.36
423.628	16.29
423.833	16.27
424.039	16.31
424.245	16.37
424.45	16.28
424.656	16.12
424.862	16.12
425.067	16.16
425.273	16.1
425.478	15.96
425.684	15.92
425.889	15.87
426.095	15.71
426.301	15.73
426.506	15.65
426.712	15.58
426.917	15.6
427.123	15.42
427.328	15.45
427.533	15.6
427.739	15.62
427.944	15.79
428.15	16.01
428.355	16.35
428.561	16.45
428.766	16.48
428.971	16.51
429.177	16.49
429.382	16.91
429.587	16.84
429.793	16.81
429.998	16.85
430.203	16.68
430.408	16.6
430.614	16.5
430.819	16.25
431.024	16.13
431.229	16.15
431.434	16.16
431.64	16
431.845	16.04
432.05	16.05
432.255	16.08
432.46	15.97
432.665	15.98
432.87	16.02
433.076	16.06
433.281	16.05
433.486	16.16
433.691	16.08
433.896	16.12
434.101	16.05
434.306	16.01
434.511	16.09
434.716	16.25
434.921	16.28
435.126	16.37
435.331	16.35
435.535	16.42
435.74	16.4
435.945	16.71
436.15	16.72
436.355	16.75
436.56	16.75
436.765	16.65
436.97	16.81
437.174	16.92
437.379	16.89
437.584	16.93
437.789	16.95
437.993	16.97
438.198	16.68
438.403	16.76
438.608	16.9
438.812	16.94
439.017	16.93
439.222	16.66
439.426	16.59
439.631	16.62
439.836	16.69
440.04	16.73
440.245	16.77
440.45	16.8
440.654	16.75
440.859	16.51
441.063	16.55
441.268	16.61
441.472	16.69
441.677	16.71
441.881	16.8
442.086	16.67
442.29	16.71
442.495	16.54
442.699	16.51
442.904	16.46
443.108	16.69
443.312	16.67
443.517	16.6
443.721	16.66
443.925	16.63
444.13	16.51
444.334	16.66
444.538	16.71
444.743	16.75
444.947	16.83
445.151	16.84
445.356	16.77
445.56	16.75
445.764	16.79
445.968	16.71
446.173	16.78
446.377	16.68
446.581	16.72
446.785	16.65
446.989	16.61
447.193	16.64
447.398	16.54
447.602	16.62
447.806	16.54
448.01	16.49
448.214	16.71
448.418	16.6
448.622	16.46
448.826	16.47
449.03	16.51
449.234	16.6
449.438	16.56
449.642	16.58
449.846	16.49
450.05	16.53
450.254	16.33
450.458	16.09
450.662	16.06
450.866	16
451.069	15.95
451.273	15.86
451.477	15.91
451.681	15.79
451.885	15.76
452.089	15.84
452.292	15.81
452.496	16.07
452.7	16
452.904	16.13
453.107	16.35
453.311	16.14
453.515	16.11
453.719	16.05
453.922	15.97
454.126	16.13
454.33	15.88
454.533	15.88
454.737	15.94
454.94	15.9
455.144	15.86
455.348	15.88
455.551	16.19
455.755	16.16
455.958	16.17
456.162	16.22
456.365	16.12
456.569	16.2
456.772	16.18
456.976	15.9
457.179	16.01
457.383	15.97
457.586	15.92
457.79	15.72
457.993	15.84
458.196	15.91
458.4	16.06
458.603	16.18
458.807	16.23
459.01	16.31
459.213	16.42
459.417	16.4
459.62	16.33
459.823	16.38
