Data from CB_108_Reflection_1.txt Node
Date: Sat Nov 14 18:08:02 EST 2015
User: robert
Spectrometer: USB4E03001
Autoset integration time: false
Trigger mode: 4
Integration Time (sec): 1.000000E-1
Scans to average: 15
Electric dark correction enabled: true
Nonlinearity correction enabled: false
Boxcar width: 5
Stray light correction enabled: false
XAxis mode: Wavelengths
Stop averaging: false
Number of Pixels in Spectrum: 3648
>>>>>Begin Spectral Data<<<<<
177.566	216.54
177.785	-2459.61
178.005	570.27
178.225	703.57
178.445	-1813.68
178.665	144.65
178.885	-1170.1
179.105	153.39
179.324	177.71
179.544	93.16
179.764	100.76
179.984	95.75
180.204	119.11
180.423	90.16
180.643	123.62
180.863	148.19
181.083	94.93
181.302	105.67
181.522	129.69
181.742	136.57
181.961	202.9
182.181	231.4
182.401	671.63
182.621	445.97
182.84	604.26
183.06	254.78
183.279	145.33
183.499	235.73
183.719	113.15
183.938	79.48
184.158	78.04
184.377	70.35
184.597	116.85
184.816	109.51
185.036	117.24
185.256	127.36
185.475	124.78
185.695	117.8
185.914	115.6
186.134	126.09
186.353	130.07
186.572	131.45
186.792	114
187.011	96.33
187.231	82.09
187.45	77.96
187.67	79.19
187.889	94.68
188.108	105.81
188.328	117.24
188.547	109.96
188.766	112.21
188.986	103.27
189.205	113.65
189.424	113.59
189.644	122.79
189.863	130.67
190.082	132.68
190.302	113.58
190.521	91.83
190.74	75.13
190.959	63.84
191.178	59.82
191.398	64.22
191.617	84.38
191.836	55.63
192.055	38.18
192.274	26.75
192.494	65.28
192.713	140.06
192.932	208.67
193.151	420.67
193.37	329.54
193.589	299.57
193.808	424.43
194.027	796.06
194.246	-2485.65
194.465	3880.07
194.685	322.13
194.904	334.75
195.123	177.31
195.342	214.32
195.561	149.59
195.78	129.13
195.999	135.38
196.218	96.31
196.436	92.25
196.655	87.49
196.874	97.41
197.093	107.6
197.312	101.49
197.531	107.54
197.75	114.61
197.969	98.2
198.188	102.21
198.407	92.12
198.625	122.36
198.844	113.61
199.063	114.08
199.282	120.33
199.501	146.14
199.719	132.36
199.938	109.76
200.157	76.9
200.376	102.11
200.594	103.12
200.813	125.38
201.032	97.81
201.251	112.31
201.469	106.06
201.688	104.84
201.907	86.68
202.125	88.16
202.344	126.83
202.563	131.22
202.781	103.73
203	135.17
203.218	138.66
203.437	94.46
203.656	75.17
203.874	61.47
204.093	58.28
204.311	88.58
204.53	92.01
204.748	65.37
204.967	93.52
205.185	104.08
205.404	79.98
205.622	69.06
205.841	101.25
206.059	122.42
206.278	104.41
206.496	104.86
206.715	128.06
206.933	97.93
207.151	106.3
207.37	120.22
207.588	117.32
207.806	123.71
208.025	120.82
208.243	113.97
208.461	120.04
208.68	122.69
208.898	111.75
209.116	97.5
209.335	109.75
209.553	145.06
209.771	131.53
209.989	106.59
210.208	104.03
210.426	95.3
210.644	101.54
210.862	85.17
211.081	90.7
211.299	91.27
211.517	90.59
211.735	95.58
211.953	73.37
212.171	70.33
212.39	82.77
212.608	78.11
212.826	89
213.044	83.03
213.262	87.18
213.48	93.61
213.698	85.6
213.916	100.94
214.134	85.74
214.352	90.64
214.57	91.13
214.788	102.26
215.006	113.14
215.224	106.45
215.442	131.22
215.66	121.63
215.878	124.22
216.096	183.45
216.314	158.19
216.532	194.78
216.75	180.08
216.968	198.27
217.185	208.45
217.403	239.69
217.621	333.29
217.839	259.26
218.057	315.5
218.275	250.68
218.492	248.22
218.71	225.91
218.928	246.83
219.146	327.64
219.363	216.21
219.581	173.74
219.799	213.37
220.017	169.63
220.234	170.75
220.452	208.25
220.67	243.97
220.887	364.47
221.105	508.4
221.323	6191.41
221.54	476.79
221.758	2322.86
221.976	1060
222.193	196.4
222.411	250.2
222.629	360.46
222.846	261.29
223.064	-59.47
223.281	84.7
223.499	101.3
223.716	140.2
223.934	-196.05
224.151	-76.74
224.369	-70.87
224.586	-25.1
224.804	5.08
225.021	-6.71
225.239	-28.79
225.456	-53.97
225.674	-33.86
225.891	-41.67
226.108	-66.33
226.326	-58.13
226.543	-36.98
226.76	-13.52
226.978	-9.92
227.195	-37.28
227.413	-35.08
227.63	-14.9
227.847	-16.72
228.064	-13.51
228.282	-11.02
228.499	-6.72
228.716	-7.43
228.934	-9.94
229.151	-9.75
229.368	-11.36
229.585	-10.82
229.802	-6.29
230.02	-7.45
230.237	-8.44
230.454	-7.9
230.671	-5.65
230.888	-9.11
231.105	-10.8
231.323	-10.92
231.54	-19.84
231.757	-25.35
231.974	-30.58
232.191	-38.84
232.408	-45.24
232.625	-40.77
232.842	-46.72
233.059	-45.51
233.276	-46.38
233.493	-48.26
233.71	-36.92
233.927	-20.63
234.144	-21.11
234.361	-21.6
234.578	-20.89
234.795	-15.63
235.012	-15.76
235.229	-15.52
235.446	-19.16
235.663	-14.8
235.879	-15.46
236.096	-25.16
236.313	-31.82
236.53	-22.93
236.747	-22.32
236.964	-30.25
237.181	-35.22
237.397	-35.15
237.614	-36.33
237.831	-38.81
238.048	-41.78
238.264	-48.87
238.481	-46.68
238.698	-35.18
238.915	-27.35
239.131	-18.55
239.348	-10.26
239.565	-7.93
239.781	-7.17
239.998	-3.02
240.215	-2.09
240.431	-1.6
240.648	7.87
240.865	10.04
241.081	11.43
241.298	9.11
241.514	9.92
241.731	9.64
241.947	8.1
242.164	6.48
242.38	8.02
242.597	8.26
242.814	9.5
243.03	7.45
243.246	6.98
243.463	5.59
243.679	3.31
243.896	1.36
244.112	-1.13
244.329	-0.75
244.545	2.1
244.762	0.51
244.978	4.12
245.194	2.23
245.411	-0.42
245.627	0.27
245.843	0.93
246.06	3.11
246.276	4.58
246.492	7.01
246.709	6.29
246.925	6.03
247.141	6.18
247.357	5.27
247.574	5.29
247.79	6.67
248.006	6.95
248.222	6.42
248.439	5.9
248.655	4.48
248.871	4.32
249.087	6.14
249.303	5.08
249.519	3.92
249.736	3.01
249.952	4.23
250.168	4.06
250.384	1.06
250.6	1.1
250.816	-1.2
251.032	2.75
251.248	1.64
251.464	-3.46
251.68	-4.31
251.896	-4.49
252.112	-5.88
252.328	-8.87
252.544	-10.18
252.76	-9.95
252.976	-11.22
253.192	-9.47
253.408	-11.76
253.624	-11.58
253.84	-8.73
254.056	-5.95
254.272	-5.31
254.487	-3.47
254.703	0.03
254.919	-3.1
255.135	-1.75
255.351	-2.68
255.567	-1.04
255.782	-0.65
255.998	-1.86
256.214	-3.91
256.43	-2.51
256.646	-3.59
256.861	-3.12
257.077	-5.32
257.293	1.09
257.508	2.82
257.724	4.94
257.94	6.57
258.155	4.73
258.371	4.64
258.587	4.35
258.802	3.12
259.018	3.9
259.234	4.53
259.449	4.5
259.665	3.61
259.88	3.55
260.096	3.99
260.312	3.58
260.527	4.08
260.743	3.45
260.958	3.06
261.174	3.11
261.389	3.62
261.605	3.19
261.82	2.9
262.036	2.62
262.251	2.16
262.466	2.18
262.682	1.81
262.897	0.38
263.113	1.99
263.328	3.6
263.543	2.37
263.759	-0.19
263.974	-0.46
264.189	-2.22
264.405	-4.43
264.62	-4.25
264.835	-4.88
265.051	-3.85
265.266	-2.75
265.481	-1.88
265.696	-1.3
265.912	1.05
266.127	3.2
266.342	3.83
266.557	6.24
266.773	6.39
266.988	6.11
267.203	4.46
267.418	3.86
267.633	5.62
267.848	4.63
268.064	4.34
268.279	3.79
268.494	2.55
268.709	1.48
268.924	2.34
269.139	2.6
269.354	3.63
269.569	4.01
269.784	2.92
269.999	0.6
270.214	-0.15
270.429	-0.24
270.644	-0.02
270.859	-0.22
271.074	-0.49
271.289	-0.93
271.504	-0.3
271.719	-1.09
271.934	-2.15
272.149	-1.67
272.363	-0.22
272.578	1.58
272.793	1.1
273.008	0.24
273.223	1.21
273.438	1.1
273.653	1
273.867	0.39
274.082	0.75
274.297	2.3
274.512	2.06
274.726	0.1
274.941	-1.99
275.156	-0.7
275.371	0.9
275.585	0.69
275.8	2.16
276.015	0.83
276.229	1.3
276.444	0.31
276.659	0.39
276.873	0.84
277.088	1.6
277.302	2.33
277.517	1.26
277.732	-0.43
277.946	-1.57
278.161	-2.27
278.375	0.11
278.59	1.18
278.804	0.82
279.019	-0.03
279.233	0.84
279.448	0.72
279.662	-0.63
279.877	0.23
280.091	0.77
280.306	1.47
280.52	1.13
280.735	0.32
280.949	-0.14
281.163	0.88
281.378	1.01
281.592	1.11
281.806	1.81
282.021	2.74
282.235	2.62
282.449	2.69
282.664	2.49
282.878	3.43
283.092	2.86
283.307	1.93
283.521	1.65
283.735	2.81
283.949	2.15
284.164	2.45
284.378	2.69
284.592	3.29
284.806	3.76
285.02	4.53
285.234	3.88
285.449	4.8
285.663	5.9
285.877	5.71
286.091	5
286.305	5.06
286.519	4.87
286.733	4.69
286.947	4.41
287.161	4.79
287.375	4.13
287.589	4.87
287.803	4.1
288.017	3.97
288.231	4.24
288.445	3.76
288.659	3.48
288.873	2.72
289.087	2.43
289.301	1.13
289.515	0.46
289.729	-0.3
289.943	-1.51
290.157	-1.89
290.371	-2.06
290.584	-1.4
290.798	-2.36
291.012	-1.76
291.226	-0.77
291.44	-0.25
291.654	1.23
291.867	0.67
292.081	2.05
292.295	3.05
292.509	3.86
292.722	3.5
292.936	3.88
293.15	6.87
293.364	6.17
293.577	5.59
293.791	5.67
294.005	5.02
294.218	5.43
294.432	4.19
294.645	4.23
294.859	4.48
295.073	5.12
295.286	4.74
295.5	3.56
295.713	3.48
295.927	3.73
296.14	2.99
296.354	3.8
296.568	4.15
296.781	5.34
296.994	5.38
297.208	4.19
297.421	4.27
297.635	3.53
297.848	4.16
298.062	5.29
298.275	5.18
298.489	5.66
298.702	5.14
298.915	4.4
299.129	4.17
299.342	4.24
299.555	4.57
299.769	5.16
299.982	6.5
300.195	5.37
300.409	4.64
300.622	4.36
300.835	4.86
301.048	5.17
301.262	5.9
301.475	5.1
301.688	4.21
301.901	4.26
302.115	2.99
302.328	2.84
302.541	3.84
302.754	3.59
302.967	4.74
303.18	3.92
303.393	3.29
303.607	3.29
303.82	4.04
304.033	5.33
304.246	5.6
304.459	6.33
304.672	6.77
304.885	6.91
305.098	7.55
305.311	6.64
305.524	6.74
305.737	6.1
305.95	6.93
306.163	5.19
306.376	3.57
306.589	3.54
306.802	1.73
307.015	0.32
307.228	-0.42
307.44	-0
307.653	1.17
307.866	2.2
308.079	3.47
308.292	3.55
308.505	5.65
308.718	6.45
308.93	7.06
309.143	8.44
309.356	8.91
309.569	9.41
309.781	9.36
309.994	9.29
310.207	9.57
310.42	9.9
310.632	10.31
310.845	9.53
311.058	9.81
311.27	9.5
311.483	9.79
311.696	10.12
311.908	10.59
312.121	10.72
312.333	10
312.546	9.84
312.759	8.97
312.971	8
313.184	8.19
313.396	7.59
313.609	6.93
313.821	6.16
314.034	4.89
314.246	3.62
314.459	3.36
314.671	3.32
314.884	1.46
315.096	1.6
315.309	0.42
315.521	0.98
315.733	0.52
315.946	2
316.158	2.28
316.371	3.11
316.583	1.74
316.795	1.18
317.008	2.53
317.22	3.6
317.432	4.5
317.644	4.2
317.857	4.93
318.069	6.97
318.281	5.54
318.494	4.83
318.706	4.84
318.918	5.88
319.13	6.29
319.342	6.42
319.555	6.27
319.767	3.87
319.979	4.63
320.191	4.71
320.403	3.72
320.615	4.92
320.827	4.48
321.039	4.01
321.252	5.4
321.464	5.56
321.676	4.19
321.888	5.21
322.1	6.06
322.312	6.81
322.524	5.65
322.736	5.9
322.948	5.12
323.16	6.3
323.372	6.69
323.584	5.68
323.796	5.01
324.007	5.36
324.219	5.61
324.431	6.52
324.643	5.35
324.855	5.8
325.067	6.44
325.279	6.17
325.491	6.67
325.702	6.27
325.914	6.93
326.126	7.68
326.338	10.55
326.55	11.54
326.761	13.14
326.973	14.35
327.185	14.95
327.396	14.9
327.608	15.53
327.82	15.14
328.032	16.72
328.243	16.62
328.455	18.26
328.666	15.84
328.878	15.61
329.09	14.62
329.301	16.38
329.513	14.97
329.725	14.97
329.936	15.42
330.148	15.34
330.359	13.38
330.571	12.91
330.782	11.8
330.994	12.82
331.205	12.01
331.417	12.23
331.628	11.04
331.84	11.77
332.051	10.26
332.262	10.75
332.474	12.34
332.685	14.2
332.897	15.53
333.108	15.27
333.319	14.05
333.531	14.22
333.742	15.13
333.953	15.52
334.165	15.49
334.376	17.21
334.587	17.18
334.799	17.53
335.01	17.23
335.221	16.96
335.432	17.88
335.644	19.33
335.855	20.09
336.066	18.91
336.277	18.33
336.488	18.73
336.7	17.86
336.911	18.15
337.122	18.16
337.333	18.46
337.544	18.65
337.755	17.71
337.966	17.54
338.177	17.35
338.388	17.84
338.599	19.16
338.811	18.51
339.022	20.33
339.233	20.1
339.444	18.59
339.655	18.64
339.866	18.31
340.076	18.16
340.287	17.69
340.498	17.86
340.709	17.11
340.92	16.99
341.131	17.24
341.342	16.11
341.553	15.59
341.764	16.83
341.975	16.79
342.185	17.51
342.396	16.9
342.607	17.06
342.818	16.56
343.029	16.23
343.239	15.43
343.45	16.65
343.661	16.94
343.872	17.14
344.082	16.73
344.293	16.22
344.504	16.1
344.714	16.88
344.925	16.26
345.136	17.02
345.346	17.35
345.557	17.22
345.768	16.89
345.978	15.76
346.189	16.48
346.399	16.8
346.61	16.99
346.821	16.67
347.031	17.01
347.242	17.5
347.452	16.32
347.663	16.58
347.873	17.06
348.084	17.42
348.294	18.63
348.504	17.91
348.715	17.26
348.925	16.89
349.136	16.46
349.346	16.14
349.557	16.65
349.767	16.75
349.977	17.33
350.188	16.21
350.398	15.7
350.608	15.51
350.819	16.13
351.029	16.4
351.239	16.29
351.449	16.83
351.66	16.67
351.87	17.05
352.08	16.98
352.29	16.72
352.501	17.69
352.711	18.18
352.921	18.36
353.131	18.07
353.341	17.98
353.552	18.62
353.762	18.33
353.972	18.85
354.182	17.78
354.392	17.76
354.602	17.24
354.812	17.89
355.022	17.4
355.232	16.82
355.442	16.73
355.652	16.8
355.862	16.38
356.072	16.53
356.282	16.48
356.492	16.58
356.702	16.83
356.912	17.17
357.122	16.87
357.332	17.13
357.542	16.64
357.752	16.48
357.962	16.45
358.171	17.13
358.381	17.47
358.591	17.74
358.801	18.04
359.011	18.06
359.221	18.24
359.43	17.47
359.64	16.7
359.85	17.34
360.06	17.31
360.269	17.5
360.479	17.4
360.689	17.28
360.899	17.19
361.108	17.2
361.318	17.35
361.528	17.56
361.737	18.17
361.947	18.62
362.156	19.07
362.366	19.26
362.576	18.8
362.785	19.02
362.995	19.23
363.204	18.91
363.414	18.57
363.623	18.66
363.833	18.43
364.042	18.08
364.252	17.88
364.461	17.45
364.671	17.16
364.88	17.51
365.09	16.93
365.299	16.7
365.509	16.83
365.718	16.97
365.927	16.68
366.137	16.49
366.346	16.44
366.555	17.06
366.765	16.8
366.974	17.42
367.183	16.65
367.393	16.69
367.602	16.35
367.811	16.97
368.021	17.12
368.23	16.76
368.439	16.58
368.648	16.94
368.857	15.84
369.067	15.64
369.276	14.72
369.485	15.22
369.694	14.65
369.903	14.68
370.112	13.85
370.321	13.63
370.531	14.12
370.74	14.5
370.949	14.06
371.158	14.99
371.367	15.21
371.576	15.07
371.785	14.83
371.994	15.08
372.203	15.31
372.412	15.36
372.621	15.54
372.83	15.39
373.039	15.35
373.248	15.35
373.457	14.6
373.666	14.47
373.874	14.52
374.083	14.76
374.292	14.69
374.501	14.31
374.71	13.29
374.919	13.25
375.128	13.21
375.336	13.02
375.545	12.9
375.754	13.21
375.963	13.36
376.171	13.63
376.38	13.83
376.589	14.08
376.798	14.44
377.006	14.93
377.215	14.59
377.424	14.59
377.632	14.08
377.841	14.58
378.05	14
378.258	13.84
378.467	13.58
378.675	13.1
378.884	12.11
379.093	11.79
379.301	12.2
379.51	12.36
379.718	12.2
379.927	12.52
380.135	12.36
380.344	12.75
380.552	12.26
380.761	12.25
380.969	12.92
381.177	13.97
381.386	13.61
381.594	13.65
381.803	13.43
382.011	13.19
382.219	12.93
382.428	12.79
382.636	12.77
382.845	13.05
383.053	13.29
383.261	12.61
383.469	12.03
383.678	12.06
383.886	11.72
384.094	11.65
384.302	11.7
384.511	12.3
384.719	12.06
384.927	11.76
385.135	11.8
385.343	11.48
385.552	11.42
385.76	11.43
385.968	11.39
386.176	11.39
386.384	11.02
386.592	11.03
386.8	10.16
387.008	10.28
387.216	10.8
387.424	10.55
387.633	10.42
387.841	10.49
388.049	10.49
388.257	10.4
388.465	10.07
388.672	10.06
388.88	9.92
389.088	10.12
389.296	9.6
389.504	9.02
389.712	8.88
389.92	8.97
390.128	9.12
390.336	8.81
390.544	8.75
390.751	8.63
390.959	8.69
391.167	8.8
391.375	8.87
391.583	8.84
391.79	9.05
391.998	9.09
392.206	9.15
392.414	8.71
392.621	8.5
392.829	8.27
393.037	8.62
393.244	8.85
393.452	8.46
393.66	8.75
393.867	8.6
394.075	8.71
394.283	8.66
394.49	8.48
394.698	8.41
394.905	8.7
395.113	8.9
395.32	8.67
395.528	8.31
395.735	8.66
395.943	8.47
396.15	8.5
396.358	8.14
396.565	8.17
396.773	8.27
396.98	8.33
397.188	8.36
397.395	8.12
397.602	8.12
397.81	8.2
398.017	7.81
398.225	7.23
398.432	7.51
398.639	7.7
398.847	7.53
399.054	7.4
399.261	7.67
399.468	7.65
399.676	7.85
399.883	8.05
400.09	8
400.297	8.02
400.505	8.13
400.712	7.71
400.919	7.45
401.126	7.41
401.333	7.38
401.54	7.53
401.748	7.35
401.955	7.16
402.162	6.8
402.369	6.78
402.576	6.85
402.783	7.06
402.99	7.42
403.197	7.35
403.404	7.52
403.611	7.47
403.818	7.15
404.025	7.15
404.232	6.97
404.439	7.2
404.646	7.48
404.853	7.51
405.06	7.58
405.267	7.32
405.474	7.51
405.681	7.4
405.887	7.39
406.094	7.35
406.301	7.64
406.508	7.95
406.715	7.4
406.922	7.16
407.128	7.31
407.335	7.37
407.542	7.49
407.749	7.55
407.955	7.74
408.162	8.1
408.369	7.95
408.575	7.66
408.782	7.44
408.989	7.79
409.195	7.78
409.402	7.44
409.609	7.35
409.815	7.16
410.022	6.83
410.228	6.85
410.435	6.63
410.642	6.9
410.848	6.71
411.055	6.86
411.261	6.61
411.468	6.52
411.674	6.72
411.881	6.42
412.087	6.48
412.294	6.85
412.5	6.77
412.706	6.73
412.913	6.3
413.119	6.53
413.326	6.48
413.532	7.03
413.738	7.22
413.945	7.21
414.151	7.28
414.357	7.53
414.564	7.21
414.77	6.95
414.976	6.83
415.182	6.94
415.389	6.74
415.595	6.78
415.801	6.39
416.007	6.45
416.214	6.29
416.42	6.63
416.626	6.24
416.832	6.34
417.038	6.71
417.244	6.85
417.45	6.9
417.657	6.87
417.863	6.86
418.069	6.81
418.275	6.44
418.481	6.5
418.687	6.33
418.893	6.57
419.099	6.57
419.305	6.32
419.511	6.29
419.717	6.37
419.923	6.35
420.129	6.3
420.335	6.42
420.541	6.67
420.746	6.68
420.952	6.65
421.158	6.64
421.364	6.62
421.57	6.69
421.776	6.69
421.982	6.58
422.187	6.53
422.393	6.52
422.599	6.54
422.805	6.49
423.01	6.61
423.216	6.63
423.422	6.69
423.628	6.7
423.833	6.6
424.039	6.61
424.245	6.72
424.45	6.9
424.656	7
424.862	7
425.067	6.94
425.273	6.79
425.478	6.81
425.684	6.69
425.889	6.43
426.095	6.7
426.301	6.55
426.506	6.51
426.712	6.4
426.917	6.47
427.123	6.29
427.328	6.51
427.533	6.49
427.739	6.56
427.944	6.58
428.15	6.96
428.355	6.51
428.561	6.62
428.766	6.66
428.971	6.61
429.177	6.55
429.382	6.71
429.587	6.38
429.793	6.4
429.998	6.34
430.203	6.33
430.408	6.32
430.614	6.16
430.819	6.16
431.024	6.09
431.229	6.23
431.434	6.01
431.64	6
431.845	6.18
432.05	6.15
432.255	6.15
432.46	6.17
432.665	5.99
432.87	6.39
433.076	6.54
433.281	6.54
433.486	6.48
433.691	6.66
433.896	6.65
434.101	6.63
434.306	6.54
434.511	6.53
434.716	6.51
434.921	6.71
435.126	6.63
435.331	6.53
435.535	6.53
435.74	6.57
435.945	6.61
436.15	6.5
436.355	6.4
436.56	6.65
436.765	6.55
436.97	6.66
437.174	6.57
437.379	6.53
437.584	6.4
437.789	6.41
437.993	6.49
438.198	6.22
438.403	6.48
438.608	6.46
438.812	6.42
439.017	6.41
439.222	6.46
439.426	6.28
439.631	6.36
439.836	6.46
440.04	6.5
440.245	6.36
440.45	6.46
440.654	6.38
440.859	6.49
441.063	6.56
441.268	6.58
441.472	6.34
441.677	6.52
441.881	6.56
442.086	6.6
442.29	6.52
442.495	6.63
442.699	6.65
442.904	6.57
443.108	6.37
443.312	6.11
443.517	6.09
443.721	6.24
443.925	6.14
444.13	5.88
444.334	5.78
444.538	5.88
444.743	5.79
444.947	5.84
445.151	6
445.356	6.22
445.56	6.27
445.764	6.52
445.968	6.46
446.173	6.6
446.377	6.61
446.581	6.59
446.785	6.42
446.989	6.47
447.193	6.53
447.398	6.57
447.602	6.53
447.806	6.6
448.01	6.4
448.214	6.5
448.418	6.29
448.622	6.23
448.826	6.24
449.03	6.36
449.234	6.52
449.438	6.42
449.642	6.16
449.846	5.87
450.05	5.75
450.254	5.69
450.458	5.58
450.662	5.79
450.866	5.95
451.069	5.98
451.273	5.98
451.477	5.84
451.681	5.74
451.885	5.86
452.089	6.09
452.292	6.32
452.496	6.37
452.7	6.32
452.904	6.32
453.107	6.2
453.311	6.19
453.515	6.23
453.719	6.14
453.922	6.05
454.126	5.97
454.33	6.01
454.533	5.86
454.737	5.78
454.94	5.91
455.144	5.64
455.348	5.7
455.551	5.57
455.755	5.51
455.958	5.53
456.162	5.68
456.365	5.65
456.569	5.58
456.772	5.54
456.976	5.55
457.179	5.38
457.383	5.5
457.586	5.66
457.79	5.72
457.993	5.81
458.196	5.73
458.4	5.82
458.603	5.82
458.807	5.88
459.01	5.87
459.213	5.98
459.417	6
459.62	5.94
459.823	5.8
460.026	5.84
460.23	5.71
460.433	5.7
460.636	5.72
460.839	5.68
461.042	5.69
461.246	5.72
461.449	5.55
461.652	5.64
461.855	5.8
462.058	5.84
462.261	5.91
462.464	5.98
462.668	6.12
462.871	5.83
463.074	5.95
463.277	5.97
463.48	5.82
463.683	5.83
463.886	5.68
464.089	5.34
464.292	5.47
464.495	5.48
