Data from CB_103_Reflection_2.txt Node
Date: Sat Nov 14 17:54:31 EST 2015
User: robert
Spectrometer: USB4E03001
Autoset integration time: false
Trigger mode: 4
Integration Time (sec): 1.000000E-1
Scans to average: 15
Electric dark correction enabled: true
Nonlinearity correction enabled: false
Boxcar width: 5
Stray light correction enabled: false
XAxis mode: Wavelengths
Stop averaging: false
Number of Pixels in Spectrum: 3648
>>>>>Begin Spectral Data<<<<<
177.566	31.65
177.785	253.2
178.005	-150.68
178.225	63.62
178.445	1871.58
178.665	30.79
178.885	1181.44
179.105	-29.93
179.324	-190.93
179.544	15.4
179.764	16.41
179.984	25.25
180.204	5.44
180.423	-7.27
180.643	15.69
180.863	20.71
181.083	23.93
181.302	33.38
181.522	20.61
181.742	45.07
181.961	59.17
182.181	72.99
182.401	128.25
182.621	136.67
182.84	298.06
183.06	121.11
183.279	55.6
183.499	130.22
183.719	67.42
183.938	63.29
184.158	105.65
184.377	92.06
184.597	125.2
184.816	104.62
185.036	102.49
185.256	105.67
185.475	127.64
185.695	113.77
185.914	96.99
186.134	111.42
186.353	130.62
186.572	130.5
186.792	125.62
187.011	108.92
187.231	105.01
187.45	104.4
187.67	93.5
187.889	84.63
188.108	99.86
188.328	114.24
188.547	120.51
188.766	98.22
188.986	91.61
189.205	85.51
189.424	80.57
189.644	91.4
189.863	99.19
190.082	99.19
190.302	91.88
190.521	56.34
190.74	53.7
190.959	26.88
191.178	40.12
191.398	12.76
191.617	19.49
191.836	38.55
192.055	21.76
192.274	8.13
192.494	28.27
192.713	32.94
192.932	131.69
193.151	237.78
193.37	182.2
193.589	117.06
193.808	173.69
194.027	144.62
194.246	-68.14
194.465	351.96
194.685	57.79
194.904	62.55
195.123	36.27
195.342	-32.75
195.561	23.2
195.78	35.75
195.999	49.76
196.218	62.53
196.436	81.38
196.655	94.68
196.874	105.96
197.093	114.31
197.312	101.77
197.531	109.2
197.75	125.17
197.969	125.09
198.188	123.22
198.407	122.33
198.625	129.78
198.844	114.06
199.063	84.99
199.282	82.22
199.501	61.92
199.719	57.35
199.938	59.51
200.157	49.13
200.376	27.35
200.594	36.31
200.813	38.4
201.032	36.02
201.251	57.94
201.469	74.03
201.688	67.11
201.907	66.78
202.125	74.64
202.344	95.79
202.563	117.76
202.781	127.72
203	180.07
203.218	143.9
203.437	107.32
203.656	58.76
203.874	52.29
204.093	66.36
204.311	110.98
204.53	127.14
204.748	85.69
204.967	86.87
205.185	99.6
205.404	96.97
205.622	86.08
205.841	104.02
206.059	98.61
206.278	73.52
206.496	62.23
206.715	61.6
206.933	59.31
207.151	77.78
207.37	84.79
207.588	76.44
207.806	72.91
208.025	88.55
208.243	90.28
208.461	111.82
208.68	126.19
208.898	121.45
209.116	102.96
209.335	99.16
209.553	112.26
209.771	105.89
209.989	95.05
210.208	75.79
210.426	49.26
210.644	31.31
210.862	27.71
211.081	25.94
211.299	33.53
211.517	29.78
211.735	30.65
211.953	24.46
212.171	30.73
212.39	35.55
212.608	48.22
212.826	55.65
213.044	74.6
213.262	87.88
213.48	88.55
213.698	90.62
213.916	103.21
214.134	91.99
214.352	101
214.57	104.45
214.788	126.2
215.006	128.49
215.224	117.54
215.442	134
215.66	96.1
215.878	82.2
216.096	85.25
216.314	100.32
216.532	119.43
216.75	122.04
216.968	154.27
217.185	129.32
217.403	158.17
217.621	224.76
217.839	201.35
218.057	278.48
218.275	206.1
218.492	167.6
218.71	147.52
218.928	152.27
219.146	232.59
219.363	109.99
219.581	117.94
219.799	101.26
220.017	79.9
220.234	54.36
220.452	78.83
220.67	123.73
220.887	284.82
221.105	360.14
221.323	5398.16
221.54	385.45
221.758	2348.57
221.976	663.28
222.193	175.89
222.411	313.29
222.629	592.4
222.846	631.14
223.064	-641.4
223.281	547.37
223.499	399.04
223.716	523.72
223.934	-434.99
224.151	-178.97
224.369	-191.25
224.586	-105.96
224.804	-72.79
225.021	-52.26
225.239	-50.93
225.456	-42.18
225.674	-45.75
225.891	-53.26
226.108	-98.03
226.326	-114.41
226.543	-48.45
226.76	-17.96
226.978	-8.06
227.195	-4.5
227.413	-20.26
227.63	-7.7
227.847	-14.52
228.064	-4.44
228.282	-2.75
228.499	2.86
228.716	1.99
228.934	-4.32
229.151	-1.33
229.368	-0.11
229.585	-2
229.802	1
230.02	-1.35
230.237	-0.78
230.454	-1.01
230.671	-1.34
230.888	-4.98
231.105	-6.57
231.323	-8.12
231.54	-20.47
231.757	-26.72
231.974	-32.8
232.191	-35.18
232.408	-36.24
232.625	-30.64
232.842	-36.03
233.059	-34.46
233.276	-34.95
233.493	-35.36
233.71	-23.69
233.927	-11.35
234.144	-17.85
234.361	-19.25
234.578	-22.89
234.795	-16
235.012	-17.51
235.229	-19.82
235.446	-25.53
235.663	-21.23
235.879	-17.18
236.096	-22.37
236.313	-23.18
236.53	-13.65
236.747	-6.91
236.964	-15.15
237.181	-23.74
237.397	-25.68
237.614	-27.94
237.831	-23.99
238.048	-26.53
238.264	-33.62
238.481	-32.44
238.698	-31.08
238.915	-26.48
239.131	-22.67
239.348	-15.09
239.565	-9.73
239.781	-4.17
239.998	-2.7
240.215	-2.08
240.431	-2.5
240.648	5.57
240.865	9.25
241.081	9.23
241.298	7.56
241.514	8.86
241.731	9.35
241.947	7.7
242.164	5.36
242.38	7.7
242.597	8.91
242.814	11.02
243.03	8.26
243.246	6.73
243.463	6.48
243.679	5.17
243.896	3.02
244.112	0.45
244.329	0.5
244.545	3.94
244.762	4.56
244.978	5.41
245.194	3.08
245.411	3.18
245.627	5.06
245.843	5.05
246.06	5.43
246.276	5.97
246.492	8.54
246.709	7.79
246.925	6.88
247.141	5.95
247.357	6.42
247.574	6.87
247.79	7.89
248.006	7.63
248.222	7.5
248.439	7.22
248.655	6.29
248.871	5.42
249.087	6.06
249.303	5.58
249.519	5.66
249.736	3.12
249.952	2.75
250.168	3.54
250.384	3.44
250.6	4.39
250.816	4.89
251.032	8.38
251.248	7.6
251.464	5.23
251.68	4.58
251.896	3.38
252.112	2.25
252.328	0.86
252.544	-2.06
252.76	-4.75
252.976	-6.98
253.192	-6.66
253.408	-9.48
253.624	-8.31
253.84	-6.33
254.056	-6.8
254.272	-8.65
254.487	-8.07
254.703	-8.44
254.919	-8.75
255.135	-5.66
255.351	-6.51
255.567	-2.78
255.782	-3.18
255.998	-3.36
256.214	-6.81
256.43	-1.58
256.646	3.2
256.861	4.49
257.077	4.5
257.293	8.06
257.508	9.9
257.724	11.89
257.94	10.8
258.155	10.56
258.371	9.13
258.587	8.72
258.802	5.8
259.018	4.76
259.234	5.39
259.449	5.92
259.665	4.28
259.88	4.08
260.096	3.75
260.312	3.5
260.527	4.3
260.743	4.02
260.958	4.85
261.174	5.05
261.389	5.36
261.605	5.06
261.82	4.73
262.036	4.8
262.251	3.17
262.466	3.05
262.682	2.34
262.897	0
263.113	0.11
263.328	0.75
263.543	0.38
263.759	-2.71
263.974	-3.24
264.189	-4.51
264.405	-4.72
264.62	-3.46
264.835	-2.8
265.051	-0.58
265.266	1.27
265.481	1.58
265.696	1.12
265.912	2.75
266.127	4.11
266.342	4.36
266.557	4.96
266.773	5.06
266.988	5.02
267.203	5.83
267.418	3.44
267.633	4.17
267.848	3.56
268.064	1.41
268.279	0.48
268.494	0.97
268.709	1.52
268.924	2.32
269.139	0.81
269.354	2.2
269.569	2.07
269.784	3.33
269.999	1.76
270.214	2.56
270.429	2.24
270.644	2.25
270.859	1.78
271.074	0.9
271.289	0.22
271.504	3.5
271.719	2.27
271.934	0.75
272.149	0.68
272.363	0.98
272.578	2.57
272.793	4.45
273.008	3.26
273.223	3.86
273.438	3.68
273.653	4.17
273.867	3.17
274.082	3.47
274.297	3.85
274.512	2.81
274.726	1.67
274.941	-0.66
275.156	0.1
275.371	2.77
275.585	2.25
275.8	2.5
276.015	1.64
276.229	1.41
276.444	0.56
276.659	0.33
276.873	2.01
277.088	2.5
277.302	2.62
277.517	1.23
277.732	-1.33
277.946	-1.93
278.161	-2.78
278.375	-1.38
278.59	-0.55
278.804	-0.86
279.019	-2.75
279.233	-3.17
279.448	-3.73
279.662	-3.96
279.877	-3.97
280.091	-0.62
280.306	0.21
280.52	1.18
280.735	1.14
280.949	-0.84
281.163	0.42
281.378	2.54
281.592	4.1
281.806	5.29
282.021	6.12
282.235	6.35
282.449	5.07
282.664	4.62
282.878	3.91
283.092	3.42
283.307	4.28
283.521	4.14
283.735	4.67
283.949	2.91
284.164	3.11
284.378	3.55
284.592	3.37
284.806	3.07
285.02	4.02
285.234	4.93
285.449	5.25
285.663	5.93
285.877	5.67
286.091	5.27
286.305	5.57
286.519	5.45
286.733	5.03
286.947	5.6
287.161	5.88
287.375	5.21
287.589	6
287.803	5.81
288.017	5.03
288.231	5.18
288.445	5.36
288.659	5.02
288.873	5.26
289.087	5.31
289.301	5.05
289.515	6.37
289.729	6.03
289.943	4.12
290.157	3.89
290.371	4.71
290.584	4.86
290.798	4.02
291.012	5.31
291.226	5.2
291.44	5.17
291.654	4.77
291.867	4.12
292.081	5.54
292.295	6.92
292.509	6.88
292.722	6.08
292.936	6.57
293.15	8.03
293.364	7.19
293.577	7.05
293.791	7.62
294.005	7.33
294.218	6.98
294.432	6.61
294.645	5.73
294.859	6.16
295.073	6.16
295.286	5.58
295.5	5.63
295.713	6.04
295.927	6.4
296.14	6.82
296.354	6.46
296.568	6.42
296.781	6.92
296.994	7.57
297.208	7.05
297.421	7.67
297.635	7.66
297.848	8.22
298.062	7.56
298.275	7.73
298.489	7.29
298.702	8.19
298.915	8.4
299.129	8.33
299.342	8.24
299.555	7.8
299.769	7.89
299.982	8.36
300.195	7.19
300.409	7.87
300.622	6.93
300.835	6.46
301.048	5.74
301.262	5.93
301.475	5.13
301.688	4.65
301.901	6.32
302.115	6.06
302.328	6.32
302.541	7.22
302.754	7.35
302.967	8.26
303.18	8.52
303.393	8.83
303.607	8.7
303.82	9.12
304.033	9.29
304.246	8.49
304.459	9.51
304.672	8.83
304.885	8.48
305.098	8.1
305.311	7.97
305.524	7.57
305.737	7.64
305.95	7.81
306.163	7.38
306.376	6.81
306.589	7.9
306.802	6.03
307.015	6.32
307.228	7.29
307.44	7.95
307.653	8.15
307.866	9.13
308.079	9.31
308.292	10.35
308.505	9.9
308.718	10.67
308.93	11.04
309.143	10.61
309.356	10.02
309.569	10.28
309.781	10.87
309.994	10.36
310.207	9.6
310.42	8.59
310.632	7.3
310.845	7.31
311.058	8.03
311.27	7.73
311.483	9.03
311.696	9.97
311.908	9.19
312.121	8.23
312.333	8.44
312.546	9.32
312.759	11.19
312.971	11.47
313.184	11.85
313.396	10.43
313.609	8.97
313.821	7.62
314.034	6.84
314.246	6.88
314.459	8.08
314.671	7.33
314.884	5.96
315.096	5.26
315.309	4.55
315.521	5.24
315.733	5.76
315.946	6.31
316.158	7.12
316.371	7.54
316.583	6.57
316.795	5.93
317.008	6.94
317.22	7.43
317.432	6.03
317.644	5.68
317.857	6.7
318.069	8.27
318.281	8.39
318.494	7.68
318.706	7.5
318.918	8.01
319.13	8.12
319.342	8.36
319.555	8.64
319.767	7.96
319.979	8.63
320.191	8.55
320.403	7.63
320.615	8.51
320.827	8.23
321.039	8.44
321.252	9.76
321.464	9.75
321.676	9.41
321.888	9.38
322.1	11.37
322.312	12.24
322.524	11.41
322.736	12.61
322.948	12.84
323.16	13.12
323.372	12.95
323.584	11.69
323.796	12.21
324.007	12.14
324.219	13.31
324.431	13.22
324.643	12.24
324.855	12.81
325.067	12.96
325.279	12.16
325.491	13.2
325.702	13.83
325.914	15.05
326.126	15.37
326.338	16.38
326.55	16.68
326.761	17.48
326.973	18.91
327.185	19.47
327.396	19.65
327.608	21.72
327.82	22.39
328.032	22.95
328.243	23.44
328.455	24.41
328.666	24.48
328.878	25.27
329.09	26.39
329.301	27.29
329.513	28.24
329.725	28
329.936	27.03
330.148	26.63
330.359	26.63
330.571	27.04
330.782	26.55
330.994	26.88
331.205	26.16
331.417	25.95
331.628	26.97
331.84	25.6
332.051	26.17
332.262	27.11
332.474	27.42
332.685	28.96
332.897	29.46
333.108	29.84
333.319	30
333.531	31.11
333.742	30.93
333.953	30.73
334.165	31.35
334.376	31.81
334.587	32.53
334.799	33.93
335.01	34.24
335.221	34.61
335.432	35.59
335.644	36.85
335.855	37.01
336.066	37.46
336.277	36.63
336.488	37.06
336.7	36.64
336.911	37.3
337.122	36.63
337.333	36.77
337.544	36.07
337.755	35.19
337.966	35.04
338.177	35.32
338.388	34.92
338.599	36.32
338.811	35.85
339.022	36.89
339.233	36
339.444	35.86
339.655	34.96
339.866	34.29
340.076	35.18
340.287	34.94
340.498	35.15
340.709	35.36
340.92	35.49
341.131	35.85
341.342	36.01
341.553	36.25
341.764	37.26
341.975	37.23
342.185	37.89
342.396	37.43
342.607	37.97
342.818	37.55
343.029	38.28
343.239	37.48
343.45	37.58
343.661	36.75
343.872	37.05
344.082	36.78
344.293	37.29
344.504	38.34
344.714	38.24
344.925	38.33
345.136	38.23
345.346	37.71
345.557	37.61
345.768	38
345.978	37.58
346.189	37.36
346.399	37.45
346.61	37.45
346.821	36.59
347.031	36.98
347.242	36.05
347.452	36.02
347.663	35.67
347.873	36.07
348.084	36.3
348.294	36.44
348.504	36.51
348.715	35.82
348.925	35.53
349.136	36.12
349.346	34.8
349.557	35.6
349.767	35.52
349.977	36.09
350.188	35.39
350.398	35.38
350.608	36.1
350.819	36.28
351.029	36.93
351.239	36.43
351.449	36.19
351.66	37.09
351.87	37.16
352.08	36.99
352.29	36.91
352.501	37.83
352.711	37.51
352.921	37.36
353.131	36.91
353.341	36.8
353.552	37.51
353.762	36.79
353.972	36.67
354.182	35.8
354.392	35.37
354.602	35.09
354.812	34.7
355.022	34.68
355.232	34.68
355.442	34.84
355.652	33.85
355.862	33.54
356.072	33.56
356.282	33.5
356.492	34.09
356.702	35.46
356.912	35.38
357.122	35.82
357.332	35.62
357.542	35.35
357.752	34.68
357.962	36.27
358.171	36.01
358.381	36.57
358.591	36.64
358.801	36.49
359.011	35.75
359.221	36.06
359.43	35.67
359.64	35.04
359.85	35.09
360.06	35.55
360.269	35.17
360.479	35.32
360.689	34.8
360.899	34.63
361.108	34.75
361.318	34.64
361.528	34.55
361.737	34.42
361.947	34.85
362.156	34.74
362.366	34.73
362.576	34.36
362.785	33.78
362.995	34.5
363.204	34.49
363.414	34.07
363.623	33.84
363.833	33.29
364.042	32.8
364.252	32.6
364.461	32.64
364.671	32.79
364.88	32.68
365.09	33.11
365.299	32.49
365.509	32.54
365.718	32.11
365.927	32.3
366.137	32.63
366.346	32.77
366.555	32.8
366.765	32.64
366.974	32.29
367.183	31.66
367.393	31.8
367.602	31.85
367.811	31.76
368.021	32.48
368.23	32.19
368.439	31.56
368.648	32.03
368.857	32.04
369.067	31.81
369.276	30.85
369.485	31.04
369.694	30.68
369.903	30.71
370.112	31.53
370.321	31.46
370.531	31.39
370.74	31.81
370.949	31.46
371.158	31.19
371.367	31
371.576	31.07
371.785	30.72
371.994	30.47
372.203	30.27
372.412	29.2
372.621	28.95
372.83	28.67
373.039	28.53
373.248	28.63
373.457	28.36
373.666	28.41
373.874	28.12
374.083	28.55
374.292	27.96
374.501	27.76
374.71	27.06
374.919	26.94
375.128	26.77
375.336	27
375.545	26.01
375.754	26.16
375.963	26.12
376.171	26.72
376.38	26.81
376.589	27.47
376.798	27.26
377.006	27.87
377.215	27.23
377.424	27
377.632	26.43
377.841	27.11
378.05	26.8
378.258	26.77
378.467	26.14
378.675	25.7
378.884	24.98
379.093	24.55
379.301	24.34
379.51	24.38
379.718	24.64
379.927	24.77
380.135	24.69
380.344	24.71
380.552	24.18
380.761	24.38
380.969	24.66
381.177	25.18
381.386	25.26
381.594	25.26
381.803	24.87
382.011	24.36
382.219	24.07
382.428	23.59
382.636	23.87
382.845	24
383.053	23.88
383.261	23.33
383.469	22.94
383.678	23.37
383.886	23.37
384.094	23.7
384.302	23.94
384.511	24.03
384.719	24.26
384.927	23.73
385.135	23.35
385.343	23.48
385.552	23.24
385.76	22.86
385.968	22.64
386.176	22.26
386.384	22.39
386.592	22.65
386.8	22.27
387.008	22.25
387.216	22.35
387.424	22.48
387.633	22.42
387.841	22.72
388.049	23.37
388.257	23.25
388.465	22.89
388.672	22.32
388.88	21.8
389.088	21.92
389.296	21.19
389.504	20.8
389.712	20.87
389.92	20.87
390.128	20.69
390.336	20.02
390.544	19.96
390.751	20.24
390.959	20.29
391.167	20.41
391.375	20.3
391.583	20.15
391.79	20.41
391.998	20.28
392.206	20.01
392.414	19.6
392.621	19.28
392.829	19.13
393.037	19.29
393.244	19.22
393.452	19.03
393.66	18.95
393.867	18.93
394.075	18.76
394.283	18.75
394.49	18.67
394.698	18.62
394.905	18.98
395.113	18.93
395.32	18.52
395.528	18.43
395.735	18.26
395.943	18.03
396.15	18.36
396.358	18.09
396.565	18.17
396.773	18.35
396.98	18.28
397.188	18.28
397.395	18.11
397.602	18.23
397.81	18.43
398.017	18.41
398.225	18.63
398.432	18.48
398.639	18.6
398.847	18.42
399.054	18.29
399.261	18.41
399.468	18.05
399.676	18.03
399.883	17.85
400.09	17.66
400.297	17.69
400.505	17.33
400.712	17.43
400.919	17.1
401.126	16.9
401.333	16.74
401.54	16.88
401.748	17.13
401.955	17.01
402.162	17.14
402.369	16.87
402.576	16.65
402.783	16.84
402.99	16.48
403.197	16.85
403.404	17.09
403.611	16.92
403.818	16.86
404.025	17.08
404.232	16.96
404.439	16.99
404.646	17.1
404.853	17.17
405.06	17.04
405.267	17.46
405.474	17.42
405.681	17.09
405.887	16.93
406.094	16.65
406.301	16.35
406.508	16.25
406.715	16.03
406.922	15.96
407.128	15.98
407.335	16.08
407.542	15.77
407.749	15.66
407.955	15.67
408.162	16.11
408.369	16.19
408.575	16.17
408.782	16.37
408.989	16.41
409.195	16.73
409.402	16.85
409.609	16.67
409.815	16.69
410.022	16.51
410.228	16.6
410.435	16.41
410.642	16.79
410.848	16.76
411.055	16.74
411.261	16.58
411.468	16.26
411.674	16.27
411.881	16.38
412.087	16.01
412.294	16.19
412.5	16.15
412.706	16.27
412.913	15.76
413.119	15.7
413.326	15.79
413.532	16.21
413.738	16.19
413.945	15.93
414.151	16.1
414.357	16.56
414.564	16.29
414.77	16.04
414.976	16
415.182	15.98
415.389	16.09
415.595	16.01
415.801	15.73
416.007	15.69
416.214	15.61
416.42	15.47
416.626	15.21
416.832	15.27
417.038	15.48
417.244	15.38
417.45	15.5
417.657	15.26
417.863	15.13
418.069	15.08
418.275	14.98
418.481	15.04
418.687	15.15
418.893	15.15
419.099	15.25
419.305	15.14
419.511	15.09
419.717	15.14
419.923	15.15
420.129	15.2
420.335	15.14
420.541	15.38
420.746	15.38
420.952	15.27
421.158	15.39
421.364	15.27
421.57	15.27
421.776	15.21
421.982	15.06
422.187	15.15
422.393	15.19
422.599	15.27
422.805	15.17
423.01	15.16
423.216	15.08
423.422	14.93
423.628	15.04
423.833	15.03
424.039	15.27
424.245	15.27
424.45	15.18
424.656	15.11
424.862	15.07
425.067	14.97
425.273	14.91
425.478	14.98
425.684	15.04
425.889	14.95
426.095	15.02
426.301	14.75
426.506	14.79
426.712	14.76
426.917	14.87
427.123	14.77
427.328	14.99
427.533	15.07
427.739	14.96
427.944	14.79
428.15	14.73
428.355	14.64
428.561	14.63
428.766	14.7
428.971	14.63
429.177	14.51
429.382	14.68
429.587	14.41
429.793	14.21
429.998	14.23
430.203	14.43
430.408	14.54
430.614	14.39
430.819	14.48
431.024	14.41
431.229	14.5
431.434	14.42
431.64	14.25
431.845	14.32
432.05	14.36
432.255	14.34
432.46	14.37
432.665	14.23
432.87	14.27
433.076	14.12
433.281	13.92
433.486	14.02
433.691	13.91
433.896	14.07
434.101	14.06
434.306	14.07
434.511	14.07
434.716	14.1
434.921	14.1
435.126	14.07
435.331	14.08
435.535	14.39
435.74	14.28
435.945	14.44
436.15	14.38
436.355	14.31
436.56	14.47
436.765	14.63
436.97	14.49
437.174	14.67
437.379	14.73
437.584	14.87
437.789	14.91
437.993	14.92
438.198	14.83
438.403	14.87
438.608	14.95
438.812	15.03
439.017	14.87
439.222	15
439.426	14.88
439.631	14.86
439.836	14.79
440.04	14.66
440.245	14.65
440.45	14.67
440.654	14.61
440.859	14.56
441.063	14.45
441.268	14.37
441.472	14.22
441.677	14.24
441.881	14.28
442.086	14.33
442.29	14.31
442.495	14.41
442.699	14.41
442.904	14.32
443.108	14.33
443.312	14.13
443.517	14.2
443.721	14.08
443.925	13.99
444.13	13.98
444.334	13.91
444.538	14.01
444.743	13.95
444.947	14.04
445.151	14.12
445.356	14.21
445.56	14.3
445.764	14.42
445.968	14.56
446.173	14.53
446.377	14.4
446.581	14.44
446.785	14.22
446.989	14.16
447.193	13.96
447.398	13.88
447.602	13.81
447.806	13.86
448.01	13.73
448.214	13.65
448.418	13.57
448.622	13.56
448.826	13.47
449.03	13.68
449.234	13.85
449.438	13.9
449.642	13.93
449.846	13.76
450.05	13.63
450.254	13.59
450.458	13.52
450.662	13.65
450.866	13.8
451.069	14
451.273	13.88
451.477	13.78
451.681	13.82
451.885	13.96
452.089	14
452.292	14.16
452.496	14.1
452.7	14.11
452.904	13.95
453.107	13.82
453.311	13.7
453.515	13.65
453.719	13.58
453.922	13.48
454.126	13.29
454.33	13.44
454.533	13.25
454.737	13.3
454.94	13.3
455.144	13.53
455.348	13.69
455.551	13.66
455.755	13.61
455.958	13.8
456.162	13.95
456.365	13.98
456.569	14.06
456.772	14.1
456.976	14.16
457.179	14.09
457.383	13.87
457.586	13.9
457.79	13.93
457.993	14.08
458.196	13.92
458.4	14.01
458.603	13.92
458.807	13.79
459.01	13.75
459.213	13.79
459.417	13.88
459.62	13.94
459.823	13.93
460.026	13.8
