Data from CB_101_Reflection_2.txt Node
Date: Sat Nov 14 17:47:41 EST 2015
User: robert
Spectrometer: USB4E03001
Autoset integration time: false
Trigger mode: 4
Integration Time (sec): 1.000000E-1
Scans to average: 15
Electric dark correction enabled: true
Nonlinearity correction enabled: false
Boxcar width: 5
Stray light correction enabled: false
XAxis mode: Wavelengths
Stop averaging: false
Number of Pixels in Spectrum: 3648
>>>>>Begin Spectral Data<<<<<
177.566	210.39
177.785	-1775.37
178.005	380.55
178.225	428.67
178.445	-1130.53
178.665	97.88
178.885	-2076.29
179.105	178.21
179.324	261.63
179.544	88.32
179.764	69.74
179.984	60.55
180.204	47.68
180.423	41.21
180.643	60.2
180.863	114.81
181.083	63.91
181.302	59.55
181.522	75.21
181.742	50.53
181.961	28.67
182.181	24.41
182.401	79.29
182.621	104.39
182.84	90.45
183.06	40.16
183.279	-15.98
183.499	-7.16
183.719	-77.45
183.938	-17.07
184.158	64.42
184.377	94.08
184.597	130.63
184.816	101.32
185.036	112.42
185.256	125.19
185.475	121.83
185.695	101.63
185.914	86.06
186.134	93.33
186.353	91.29
186.572	77.67
186.792	74.66
187.011	70.81
187.231	77.45
187.45	66.57
187.67	48.53
187.889	49.6
188.108	65.16
188.328	72.07
188.547	70.29
188.766	86.33
188.986	87.04
189.205	81.93
189.424	73.58
189.644	78.91
189.863	80.57
190.082	107.77
190.302	94.98
190.521	80.56
190.74	73.63
190.959	67.32
191.178	53.37
191.398	48.51
191.617	58.96
191.836	62.16
192.055	49.52
192.274	36.31
192.494	12.76
192.713	4.34
192.932	-17.18
193.151	25.67
193.37	-14.85
193.589	1.61
193.808	47.31
194.027	38.33
194.246	170.25
194.465	-157.52
194.685	25.24
194.904	79.15
195.123	29.5
195.342	1.46
195.561	27.22
195.78	46.26
195.999	42.71
196.218	13.19
196.436	18.47
196.655	30.25
196.874	23.81
197.093	26.8
197.312	25.2
197.531	33.31
197.75	49.26
197.969	46.49
198.188	35.3
198.407	37
198.625	53.7
198.844	71.06
199.063	64.63
199.282	86.66
199.501	103.44
199.719	96.07
199.938	98.89
200.157	70.72
200.376	76.65
200.594	84.28
200.813	99.1
201.032	84.55
201.251	74.64
201.469	87.54
201.688	83.98
201.907	84.84
202.125	94.84
202.344	123.98
202.563	117.77
202.781	111.02
203	203.67
203.218	152.32
203.437	147.57
203.656	161.74
203.874	98.49
204.093	82.92
204.311	81.48
204.53	68.6
204.748	61.46
204.967	80.04
205.185	104.61
205.404	62.28
205.622	51.63
205.841	30.17
206.059	17.51
206.278	43.78
206.496	48.66
206.715	61.99
206.933	67.31
207.151	67.98
207.37	59.87
207.588	43.76
207.806	61.37
208.025	73.81
208.243	88.42
208.461	112.31
208.68	81.64
208.898	80.36
209.116	72.91
209.335	74.24
209.553	76.12
209.771	76.7
209.989	75.32
210.208	65.11
210.426	57.03
210.644	33.05
210.862	23.01
211.081	18.39
211.299	14.5
211.517	14.12
211.735	4.82
211.953	26.69
212.171	45.29
212.39	42.2
212.608	47.52
212.826	57.21
213.044	75.69
213.262	76.32
213.48	92.16
213.698	88.07
213.916	98.44
214.134	86.46
214.352	84.44
214.57	67.97
214.788	91.83
215.006	84.55
215.224	78.93
215.442	106.22
215.66	103.29
215.878	106.6
216.096	131.65
216.314	114.09
216.532	145.58
216.75	133.99
216.968	142.86
217.185	110.16
217.403	120.68
217.621	130.45
217.839	66.18
218.057	47.05
218.275	72.27
218.492	93.24
218.71	113.14
218.928	70.48
219.146	108.75
219.363	97.35
219.581	93.09
219.799	95.57
220.017	126.3
220.234	124.33
220.452	130.75
220.67	124.95
220.887	212.21
221.105	222.95
221.323	4489.57
221.54	401.98
221.758	1652.5
221.976	742.99
222.193	176.25
222.411	163.89
222.629	236.3
222.846	302.27
223.064	-276.08
223.281	229.98
223.499	64.39
223.716	-96.78
223.934	245
224.151	-16.18
224.369	-9.44
224.586	7.5
224.804	18.18
225.021	2.2
225.239	5.64
225.456	-10.39
225.674	-13.46
225.891	-54.6
226.108	-85.97
226.326	-105.89
226.543	-45.48
226.76	-35.31
226.978	-32.45
227.195	-42.29
227.413	-45.44
227.63	-29.54
227.847	-17.77
228.064	-4.67
228.282	3.44
228.499	6.65
228.716	6.77
228.934	4.29
229.151	3.87
229.368	2.51
229.585	3.49
229.802	7.1
230.02	6.54
230.237	4.19
230.454	5.04
230.671	2.78
230.888	1.46
231.105	-1.47
231.323	-1.64
231.54	-4.78
231.757	-5.96
231.974	-13.97
232.191	-15.01
232.408	-20.47
232.625	-11.58
232.842	-14.04
233.059	-10.05
233.276	-15.37
233.493	-13.94
233.71	-6.73
233.927	2.06
234.144	5.14
234.361	8.32
234.578	1.24
234.795	4.65
235.012	1.95
235.229	-4.08
235.446	-6.59
235.663	-4.97
235.879	0.53
236.096	-4.62
236.313	-10.78
236.53	-7.06
236.747	-6.98
236.964	-3.88
237.181	-5.82
237.397	-5.69
237.614	-2.37
237.831	-4.53
238.048	-0.12
238.264	-17.04
238.481	-21.77
238.698	-12.6
238.915	-8.83
239.131	-6.7
239.348	-4.8
239.565	-3.63
239.781	-0.25
239.998	-0.67
240.215	0.12
240.431	-4.54
240.648	4.54
240.865	7.26
241.081	6.33
241.298	4.7
241.514	5.18
241.731	7.04
241.947	7.67
242.164	5.76
242.38	7.84
242.597	8.69
242.814	9.94
243.03	8.5
243.246	8.56
243.463	8.29
243.679	7.5
243.896	9.51
244.112	6.55
244.329	5.71
244.545	6.85
244.762	5.8
244.978	8.25
245.194	7.7
245.411	7.5
245.627	8.04
245.843	6.91
246.06	7.4
246.276	5.73
246.492	7.4
246.709	7.49
246.925	7.88
247.141	7.25
247.357	6.74
247.574	6.92
247.79	7.84
248.006	8.07
248.222	8.85
248.439	8.59
248.655	8.32
248.871	8.23
249.087	8.94
249.303	8.92
249.519	8.62
249.736	7.18
249.952	7.73
250.168	7.11
250.384	5.86
250.6	5.41
250.816	4.33
251.032	4.16
251.248	2.29
251.464	-0.84
251.68	-2.74
251.896	-1.74
252.112	-2.4
252.328	-4.24
252.544	-4.04
252.76	-5.74
252.976	-7.9
253.192	-7
253.408	-6.91
253.624	-4.03
253.84	-1.3
254.056	-1.18
254.272	-2.81
254.487	0.54
254.703	2.88
254.919	-0.92
255.135	0.73
255.351	-0.85
255.567	1.34
255.782	1.71
255.998	0.64
256.214	-1.99
256.43	4.02
256.646	3.7
256.861	4.91
257.077	2.2
257.293	5.6
257.508	7.02
257.724	7.63
257.94	8.31
258.155	7.71
258.371	7.92
258.587	7.01
258.802	4.88
259.018	6.28
259.234	6.13
259.449	6.67
259.665	6.56
259.88	6.94
260.096	7.63
260.312	6.66
260.527	7.44
260.743	6.68
260.958	6.9
261.174	7.42
261.389	7.56
261.605	7.28
261.82	7.38
262.036	6.59
262.251	5.96
262.466	5.71
262.682	5.83
262.897	3.06
263.113	4.98
263.328	7.05
263.543	6.14
263.759	3.96
263.974	3.4
264.189	1.26
264.405	1.24
264.62	0.96
264.835	2.4
265.051	3.55
265.266	5.72
265.481	4.03
265.696	2.91
265.912	4.1
266.127	5.05
266.342	6.03
266.557	8.71
266.773	8.2
266.988	6.54
267.203	5.17
267.418	5.48
267.633	6.64
267.848	7.03
268.064	6.51
268.279	6.53
268.494	6.66
268.709	5.74
268.924	6.18
269.139	5.64
269.354	8.82
269.569	10.34
269.784	9.19
269.999	8.55
270.214	8.09
270.429	6.1
270.644	6.03
270.859	6.43
271.074	5.62
271.289	3.65
271.504	5.89
271.719	4.88
271.934	2.32
272.149	4.07
272.363	3.95
272.578	4.92
272.793	5.7
273.008	4.24
273.223	4.79
273.438	4.27
273.653	5.91
273.867	4.57
274.082	3.99
274.297	6.04
274.512	3.88
274.726	2.1
274.941	1.06
275.156	1.34
275.371	3.5
275.585	2.42
275.8	3.4
276.015	1.42
276.229	2.46
276.444	1.26
276.659	1.38
276.873	2.43
277.088	3.49
277.302	2.46
277.517	3.79
277.732	2.01
277.946	2.22
278.161	1.49
278.375	1.46
278.59	2.86
278.804	4.21
279.019	2.41
279.233	3.28
279.448	2.69
279.662	3.1
279.877	3.36
280.091	4.77
280.306	3.46
280.52	4.79
280.735	4.96
280.949	3.04
281.163	3.14
281.378	4.31
281.592	4.2
281.806	5.01
282.021	6.24
282.235	6.51
282.449	5.23
282.664	6.38
282.878	6.31
283.092	6.76
283.307	6.64
283.521	6.99
283.735	6.71
283.949	6.52
284.164	6.12
284.378	6.59
284.592	6.04
284.806	7.28
285.02	7.76
285.234	8.34
285.449	7.79
285.663	8.57
285.877	7.89
286.091	7.51
286.305	6.99
286.519	7.46
286.733	6.54
286.947	6.9
287.161	7.28
287.375	6.64
287.589	5.91
287.803	6.34
288.017	5.92
288.231	6.04
288.445	6.74
288.659	6.84
288.873	5.89
289.087	6.2
289.301	5.17
289.515	4.58
289.729	4.49
289.943	4.72
290.157	3.93
290.371	3.33
290.584	3.8
290.798	2.77
291.012	3.37
291.226	3.73
291.44	3.52
291.654	3.56
291.867	3.71
292.081	4.61
292.295	4.62
292.509	6.01
292.722	7.24
292.936	6.98
293.15	9.03
293.364	9.17
293.577	10.15
293.791	11.25
294.005	12.59
294.218	12.07
294.432	11.67
294.645	11.48
294.859	12.92
295.073	11.93
295.286	12.33
295.5	11.66
295.713	10.65
295.927	10.47
296.14	9.66
296.354	8.6
296.568	8.82
296.781	9.02
296.994	9.4
297.208	7.39
297.421	8.14
297.635	7.75
297.848	7.74
298.062	8.62
298.275	8.28
298.489	8.4
298.702	8.98
298.915	9.02
299.129	9.1
299.342	9.31
299.555	9.84
299.769	10.51
299.982	10.94
300.195	11.15
300.409	10.97
300.622	11.01
300.835	10.33
301.048	9.4
301.262	8.19
301.475	7.79
301.688	5.98
301.901	7
302.115	4.84
302.328	4.97
302.541	4.44
302.754	4.28
302.967	4.2
303.18	4.47
303.393	5.89
303.607	7.41
303.82	6.52
304.033	7.76
304.246	7.53
304.459	8.64
304.672	8.97
304.885	8.32
305.098	7.85
305.311	8.34
305.524	9.22
305.737	8.54
305.95	8.2
306.163	9.03
306.376	8.16
306.589	9.05
306.802	8.07
307.015	7.22
307.228	8.35
307.44	9.52
307.653	10.29
307.866	9.97
308.079	10.31
308.292	10.71
308.505	10.72
308.718	10.89
308.93	9.72
309.143	10.26
309.356	9.98
309.569	10.15
309.781	11.04
309.994	10.33
310.207	9.81
310.42	9.96
310.632	9.6
310.845	9.25
311.058	10.44
311.27	11.63
311.483	11.86
311.696	13.11
311.908	13.88
312.121	13.02
312.333	13.3
312.546	13.17
312.759	12.5
312.971	12.52
313.184	12.74
313.396	11.34
313.609	9.62
313.821	9.81
314.034	8.26
314.246	6.42
314.459	6.3
314.671	5.67
314.884	6.55
315.096	6.7
315.309	6.11
315.521	7.22
315.733	7.69
315.946	7.8
316.158	6.9
316.371	7.4
316.583	7.62
316.795	7.34
317.008	8.37
317.22	8.97
317.432	9.28
317.644	8.95
317.857	10.5
318.069	10.6
318.281	10.48
318.494	10.13
318.706	10.13
318.918	11.07
319.13	11.69
319.342	11.9
319.555	10.99
319.767	10.87
319.979	10.3
320.191	9.42
320.403	9.32
320.615	10.22
320.827	10.68
321.039	10.34
321.252	10.19
321.464	10.56
321.676	9.71
321.888	9.83
322.1	10.34
322.312	13.71
322.524	11.97
322.736	12.43
322.948	12.05
323.16	13.28
323.372	14.22
323.584	14.01
323.796	12.8
324.007	13.43
324.219	14.11
324.431	13.87
324.643	12.08
324.855	13.2
325.067	14.46
325.279	14.69
325.491	15.57
325.702	15.33
325.914	15.99
326.126	17.81
326.338	18.47
326.55	19.38
326.761	19.89
326.973	20.81
327.185	21.62
327.396	20.94
327.608	20.77
327.82	20.35
328.032	21.8
328.243	22.78
328.455	22.05
328.666	22.23
328.878	22.86
329.09	24.43
329.301	25.99
329.513	25.7
329.725	26.72
329.936	27.89
330.148	27.17
330.359	26.59
330.571	25.54
330.782	26.14
330.994	27.56
331.205	27.04
331.417	26.57
331.628	26.36
331.84	25.65
332.051	25.48
332.262	26.58
332.474	27.69
332.685	28.63
332.897	29.1
333.108	29.76
333.319	28.02
333.531	28.24
333.742	28.16
333.953	27.76
334.165	28.17
334.376	27.57
334.587	28.33
334.799	28.73
335.01	28.57
335.221	29.36
335.432	30.63
335.644	31.77
335.855	31.45
336.066	31.06
336.277	30.35
336.488	30.76
336.7	31.75
336.911	31.05
337.122	31.4
337.333	31.84
337.544	31.78
337.755	29.62
337.966	28.71
338.177	29.19
338.388	29.38
338.599	30.62
338.811	30.28
339.022	30.78
339.233	30.45
339.444	29.06
339.655	28.55
339.866	28.34
340.076	28.67
340.287	28.17
340.498	28.79
340.709	29.08
340.92	29.58
341.131	29.16
341.342	28.96
341.553	29.43
341.764	30.89
341.975	30.83
342.185	30.81
342.396	30.9
342.607	32.7
342.818	31.95
343.029	31.78
343.239	30.68
343.45	31.55
343.661	30.76
343.872	30.66
344.082	30
344.293	30.37
344.504	31.01
344.714	32.01
344.925	31.03
345.136	31.24
345.346	31.05
345.557	31.68
345.768	32.97
345.978	33.03
346.189	33
346.399	32.64
346.61	32.6
346.821	32.23
347.031	31.95
347.242	32.25
347.452	31.76
347.663	31.54
347.873	31.41
348.084	29.47
348.294	30.33
348.504	30.22
348.715	30.56
348.925	29.64
349.136	29.29
349.346	28.33
349.557	28.53
349.767	28.44
349.977	29.06
350.188	28.21
350.398	28.77
350.608	28.73
350.819	28.88
351.029	28.99
351.239	28.94
351.449	29.22
351.66	30.12
351.87	30.71
352.08	30.44
352.29	30.56
352.501	31.02
352.711	31.27
352.921	30.19
353.131	28.91
353.341	28.56
353.552	28.83
353.762	28.78
353.972	28.47
354.182	27.35
354.392	27.26
354.602	26.85
354.812	26.69
355.022	26.45
355.232	26.97
355.442	28.22
355.652	28.08
355.862	27.78
356.072	27.32
356.282	27.19
356.492	27.43
356.702	27.93
356.912	28.19
357.122	28.36
357.332	28.79
357.542	28.62
357.752	27.5
357.962	27.72
358.171	28.25
358.381	28.79
358.591	28.54
358.801	28.54
359.011	28.88
359.221	28.86
359.43	28.96
359.64	28.29
359.85	28.66
360.06	28.96
360.269	29.07
360.479	29.04
360.689	28.69
360.899	28.91
361.108	28.87
361.318	28.4
361.528	28.11
361.737	27.92
361.947	27.95
362.156	28.18
362.366	28.47
362.576	27.88
362.785	27.6
362.995	27.79
363.204	27.31
363.414	26.98
363.623	26.83
363.833	26.78
364.042	26.85
364.252	26.87
364.461	26.3
364.671	26.31
364.88	26.78
365.09	27.07
365.299	26.72
365.509	27
365.718	27.75
365.927	27.8
366.137	27.84
366.346	27.85
366.555	27.46
366.765	26.68
366.974	26.65
367.183	25.76
367.393	25.71
367.602	25.81
367.811	26.56
368.021	26.31
368.23	26.06
368.439	26.23
368.648	26.39
368.857	26.6
369.067	26.73
369.276	25.51
369.485	25.76
369.694	24.99
369.903	25.04
370.112	24.37
370.321	24.31
370.531	23.99
370.74	23.18
370.949	23
371.158	23.39
371.367	23.52
371.576	23.91
371.785	24.29
371.994	24.65
372.203	24.63
372.412	24.41
372.621	23.98
372.83	23.98
373.039	24.22
373.248	24.24
373.457	23.56
373.666	23.61
373.874	23.25
374.083	23.16
374.292	23.02
374.501	22.81
374.71	22.65
374.919	22.66
375.128	23.12
375.336	23.53
375.545	22.83
375.754	22.86
375.963	22.84
376.171	23.32
376.38	23.32
376.589	23.52
376.798	23.32
377.006	23.42
377.215	23.07
377.424	22.83
377.632	22.38
377.841	22.83
378.05	22.83
378.258	22.93
378.467	22.7
378.675	22.82
378.884	22.25
379.093	22.16
379.301	21.59
379.51	21.59
379.718	21.52
379.927	21.81
380.135	21.91
380.344	21.84
380.552	21.28
380.761	21.65
380.969	21.36
381.177	21.83
381.386	21.69
381.594	22.44
381.803	22.25
382.011	22.02
382.219	21.74
382.428	21.31
382.636	20.96
382.845	20.96
383.053	20.84
383.261	21.09
383.469	20.8
383.678	20.79
383.886	20.64
384.094	20.76
384.302	20.95
384.511	21.2
384.719	21.33
384.927	21.55
385.135	21.41
385.343	20.93
385.552	20.4
385.76	20.02
385.968	19.88
386.176	19.28
386.384	19.38
386.592	19.35
386.8	18.75
387.008	18.36
387.216	18.73
387.424	18.54
387.633	18.73
387.841	18.56
388.049	18.88
388.257	18.71
388.465	18.35
388.672	18.08
388.88	17.63
389.088	17.68
389.296	17.68
389.504	16.59
389.712	17.01
389.92	16.85
390.128	16.78
390.336	16.44
390.544	16.63
390.751	16.6
390.959	16.23
391.167	16.32
391.375	16.39
391.583	16.22
391.79	16.67
391.998	16.59
392.206	16.77
392.414	16.74
392.621	16.43
392.829	16.41
393.037	16.81
393.244	17.14
393.452	16.85
393.66	16.74
393.867	16.53
394.075	16.56
394.283	16.4
394.49	15.92
394.698	15.72
394.905	16.11
395.113	15.78
395.32	15.54
395.528	15.27
395.735	15.54
395.943	15.44
396.15	15.7
396.358	15.4
396.565	15.43
396.773	15.46
396.98	15.53
397.188	15.22
397.395	15.56
397.602	15.83
397.81	16.02
398.017	15.76
398.225	15.63
398.432	15.39
398.639	15.66
398.847	15.53
399.054	15.66
399.261	15.66
399.468	15.83
399.676	15.68
399.883	15.58
400.09	15.33
400.297	15.43
400.505	15.48
400.712	15.53
400.919	14.91
401.126	14.56
401.333	14.45
401.54	14.73
401.748	14.68
401.955	14.65
402.162	14.61
402.369	14.56
402.576	14.42
402.783	14.57
402.99	14.48
403.197	14.85
403.404	14.81
403.611	14.56
403.818	14.27
404.025	13.96
404.232	13.68
404.439	13.49
404.646	13.52
404.853	13.47
405.06	13.37
405.267	13.52
405.474	13.23
405.681	13.44
405.887	13.51
406.094	13.31
406.301	13.44
406.508	13.72
406.715	13.72
406.922	13.52
407.128	13.54
407.335	13.68
407.542	13.49
407.749	13.79
407.955	13.71
408.162	13.95
408.369	14.07
408.575	14.1
408.782	13.89
408.989	13.79
409.195	14.08
409.402	14.15
409.609	13.88
409.815	14.17
410.022	13.83
410.228	13.73
410.435	13.77
410.642	14.13
410.848	14.14
411.055	13.8
411.261	13.5
411.468	13.48
411.674	13.29
411.881	13.26
412.087	12.87
412.294	12.88
412.5	13.22
412.706	13.16
412.913	12.8
413.119	12.59
413.326	12.8
413.532	13.35
413.738	13.1
413.945	13.25
414.151	13.32
414.357	13.61
414.564	13.65
414.77	13.32
414.976	13.19
415.182	13.18
415.389	13.52
415.595	13.59
415.801	13.42
416.007	13.72
416.214	13.4
416.42	13.34
416.626	12.96
416.832	12.98
417.038	13.21
417.244	13.25
417.45	13.29
417.657	13.02
417.863	13.08
418.069	12.95
418.275	12.71
418.481	12.89
418.687	13.07
418.893	13.36
419.099	13.39
419.305	13.29
419.511	13.06
419.717	13.04
419.923	12.94
420.129	12.82
420.335	12.89
420.541	13.02
420.746	12.89
420.952	12.7
421.158	12.61
421.364	12.47
421.57	12.36
421.776	12.38
421.982	12.22
422.187	12.24
422.393	12.3
422.599	12.32
422.805	12.28
423.01	12.47
423.216	12.49
423.422	12.41
423.628	12.47
423.833	12.61
424.039	12.86
424.245	12.9
424.45	13.01
424.656	13.03
424.862	12.99
425.067	12.9
425.273	12.78
425.478	12.73
425.684	12.78
425.889	12.73
426.095	12.68
426.301	12.36
426.506	12.34
426.712	12.26
426.917	12.29
427.123	12.05
427.328	12.13
427.533	12.03
427.739	12.07
427.944	12.11
428.15	12.08
428.355	11.83
428.561	11.89
428.766	12.21
428.971	12.11
429.177	12.11
429.382	12.27
429.587	12.15
429.793	12.02
429.998	11.99
430.203	11.63
430.408	11.86
430.614	11.93
430.819	12.1
431.024	12.02
431.229	12.02
431.434	11.69
431.64	11.95
431.845	11.82
432.05	11.97
432.255	11.92
432.46	12.28
432.665	12.08
432.87	12.12
433.076	11.86
433.281	11.69
433.486	11.76
433.691	11.86
433.896	11.76
434.101	11.82
434.306	11.72
434.511	11.84
434.716	11.68
434.921	11.73
435.126	11.73
435.331	11.91
435.535	11.97
435.74	11.97
435.945	12.05
436.15	11.95
436.355	11.99
436.56	12.05
436.765	12.13
436.97	12.11
437.174	12.15
437.379	12.07
437.584	11.99
437.789	11.98
437.993	11.98
438.198	11.82
438.403	11.91
438.608	11.97
438.812	12.1
439.017	12
439.222	12.2
439.426	12.12
439.631	12.11
439.836	12.33
440.04	12.31
440.245	12.33
440.45	12.4
440.654	12.28
440.859	12.34
441.063	12.27
441.268	12.11
441.472	11.87
441.677	11.97
441.881	11.92
442.086	11.74
442.29	11.63
442.495	11.65
442.699	11.65
442.904	11.64
443.108	11.37
443.312	11.39
443.517	11.56
443.721	11.54
443.925	11.4
444.13	11.6
444.334	11.62
444.538	11.71
444.743	11.71
444.947	11.65
445.151	11.68
445.356	11.89
445.56	11.93
445.764	12.04
445.968	12.11
446.173	12.23
446.377	12.02
446.581	12
446.785	11.94
446.989	11.84
447.193	11.85
447.398	11.9
447.602	11.87
447.806	11.85
448.01	11.76
448.214	11.9
448.418	11.71
448.622	11.79
448.826	11.66
449.03	11.75
449.234	11.95
449.438	11.97
449.642	11.88
449.846	11.71
450.05	11.57
450.254	11.4
450.458	11.33
450.662	11.58
450.866	11.61
451.069	11.71
451.273	11.77
451.477	11.52
451.681	11.58
451.885	11.61
452.089	11.53
452.292	11.67
452.496	11.78
452.7	11.62
452.904	11.48
453.107	11.49
453.311	11.57
453.515	11.52
453.719	11.57
453.922	11.46
454.126	11.26
454.33	11.36
454.533	11.22
454.737	11.13
454.94	11.16
455.144	11.2
455.348	11.21
455.551	11.07
455.755	10.96
455.958	10.94
456.162	10.84
456.365	11.12
456.569	11.11
456.772	11.38
456.976	11.41
457.179	11.41
457.383	11.29
457.586	11.27
457.79	11.41
457.993	11.55
458.196	11.51
458.4	11.58
458.603	11.33
458.807	11.47
459.01	11.35
459.213	11.36
459.417	11.26
459.62	11.19
459.823	11.06
460.026	10.93
460.23	10.82
460.433	10.87
460.636	10.92
