Data from CB_111_Reflection_3.txt Node
Date: Sat Nov 14 18:15:41 EST 2015
User: robert
Spectrometer: USB4E03001
Autoset integration time: false
Trigger mode: 4
Integration Time (sec): 1.000000E-1
Scans to average: 15
Electric dark correction enabled: true
Nonlinearity correction enabled: false
Boxcar width: 5
Stray light correction enabled: false
XAxis mode: Wavelengths
Stop averaging: false
Number of Pixels in Spectrum: 3648
>>>>>Begin Spectral Data<<<<<
177.566	439.28
177.785	-5244.33
178.005	1249.73
178.225	1158.35
178.445	-5863.16
178.665	478.61
178.885	-1671.13
179.105	354.95
179.324	487.37
179.544	180.1
179.764	135.78
179.984	115.27
180.204	154.18
180.423	100.31
180.643	134.76
180.863	149.25
181.083	79.28
181.302	62.72
181.522	54.86
181.742	55.56
181.961	88.23
182.181	137.22
182.401	454.88
182.621	289.73
182.84	397.57
183.06	185.35
183.279	155.9
183.499	296.47
183.719	191.97
183.938	139.01
184.158	205.93
184.377	165.06
184.597	185.62
184.816	122.9
185.036	121.94
185.256	137.92
185.475	116.79
185.695	112.76
185.914	93.59
186.134	109.13
186.353	124.42
186.572	99.02
186.792	103.82
187.011	120.02
187.231	138.46
187.45	137.06
187.67	124.57
187.889	134.3
188.108	137.71
188.328	158.99
188.547	173.17
188.766	160.07
188.986	156.4
189.205	154.23
189.424	118.77
189.644	127.34
189.863	151.02
190.082	159.76
190.302	134.15
190.521	96.71
190.74	87.15
190.959	80.5
191.178	86.79
191.398	88.46
191.617	96.92
191.836	115.47
192.055	79.09
192.274	34.79
192.494	77.08
192.713	162.08
192.932	298.47
193.151	467.21
193.37	272.18
193.589	260.88
193.808	485.29
194.027	717.65
194.246	-1737.97
194.465	3189.22
194.685	313.42
194.904	332.51
195.123	177.75
195.342	191.05
195.561	137.89
195.78	127.89
195.999	121.44
196.218	83.99
196.436	108.61
196.655	110.23
196.874	120.91
197.093	113.94
197.312	100.88
197.531	112.82
197.75	117.81
197.969	123.47
198.188	135.6
198.407	124.85
198.625	134.28
198.844	124.45
199.063	113.47
199.282	104.16
199.501	137.03
199.719	116.63
199.938	108.54
200.157	92.12
200.376	92.93
200.594	102.02
200.813	130.62
201.032	109.97
201.251	127.59
201.469	136.43
201.688	127.98
201.907	109.42
202.125	132.53
202.344	162.67
202.563	132.48
202.781	146.4
203	168.38
203.218	96.47
203.437	105.92
203.656	95.03
203.874	71.27
204.093	105.55
204.311	123.84
204.53	137.33
204.748	105.48
204.967	147.94
205.185	137.93
205.404	120.5
205.622	124.28
205.841	139.07
206.059	126.88
206.278	121.73
206.496	99.8
206.715	126.43
206.933	115.89
207.151	121.04
207.37	148.35
207.588	154.87
207.806	159.56
208.025	154.05
208.243	150.54
208.461	189.25
208.68	198.62
208.898	208.52
209.116	167.13
209.335	156.99
209.553	206.87
209.771	171.72
209.989	139.94
210.208	131.29
210.426	122.61
210.644	115.11
210.862	87.4
211.081	88.75
211.299	71.85
211.517	89.54
211.735	113.21
211.953	84.33
212.171	81.35
212.39	98.2
212.608	103.52
212.826	121.61
213.044	122.9
213.262	126.94
213.48	134.51
213.698	126.07
213.916	128.84
214.134	101.56
214.352	102.2
214.57	102.47
214.788	112.14
215.006	133.74
215.224	123.57
215.442	145.1
215.66	139.74
215.878	147.55
216.096	202.96
216.314	180.4
216.532	219.33
216.75	231.11
216.968	257.05
217.185	259.14
217.403	251.23
217.621	370.63
217.839	269.71
218.057	366.88
218.275	302.98
218.492	286.56
218.71	307.14
218.928	294.14
219.146	386.61
219.363	275.09
219.581	264.25
219.799	289.79
220.017	200.98
220.234	219.18
220.452	224.73
220.67	245.26
220.887	378.94
221.105	523.02
221.323	7829.45
221.54	731.48
221.758	3833.57
221.976	1691.34
222.193	374.47
222.411	517.14
222.629	863.45
222.846	1144.09
223.064	-908.96
223.281	1138.95
223.499	817.13
223.716	1576.58
223.934	-1264.68
224.151	-474.72
224.369	-326.74
224.586	-169.44
224.804	-116.15
225.021	-124.78
225.239	-125.67
225.456	-170.37
225.674	-150.07
225.891	-158.64
226.108	-181.44
226.326	-164.09
226.543	-94.06
226.76	-51.98
226.978	-49.52
227.195	-63.63
227.413	-56.69
227.63	-30.67
227.847	-18.36
228.064	-7.62
228.282	-6.76
228.499	-5.17
228.716	-6.65
228.934	-7.76
229.151	-7.72
229.368	-6.11
229.585	-7.53
229.802	-4.65
230.02	-5.14
230.237	-6.85
230.454	-6.33
230.671	-4.35
230.888	-4.3
231.105	-5.61
231.323	-8.89
231.54	-13.88
231.757	-15
231.974	-13.74
232.191	-15.24
232.408	-15.33
232.625	-16.97
232.842	-24.48
233.059	-23.25
233.276	-29.69
233.493	-28.8
233.71	-16.35
233.927	-2.31
234.144	-3
234.361	-7.17
234.578	-11.18
234.795	-4.61
235.012	-7.08
235.229	-9.48
235.446	-11.42
235.663	-5.58
235.879	-9.42
236.096	-15.14
236.313	-32.03
236.53	-32.11
236.747	-27.35
236.964	-29.42
237.181	-41.22
237.397	-47.26
237.614	-42.87
237.831	-40.43
238.048	-41.06
238.264	-47.97
238.481	-55.56
238.698	-38.12
238.915	-34.74
239.131	-33.93
239.348	-33.79
239.565	-30.58
239.781	-22.24
239.998	-16.87
240.215	-19.06
240.431	-20.29
240.648	-8.16
240.865	-3.58
241.081	-3.95
241.298	-2.19
241.514	-0.39
241.731	2.28
241.947	2.92
242.164	2.69
242.38	3
242.597	4
242.814	6.76
243.03	4.68
243.246	5.2
243.463	5.02
243.679	2.85
243.896	1.21
244.112	-0.62
244.329	-2.18
244.545	-2.34
244.762	-2.29
244.978	-1.24
245.194	-3.44
245.411	-4.3
245.627	-4.19
245.843	-3.91
246.06	-2.7
246.276	-0.49
246.492	2.68
246.709	3.55
246.925	3.91
247.141	3.72
247.357	3.88
247.574	4.18
247.79	4.92
248.006	5.51
248.222	5.55
248.439	6.46
248.655	6.09
248.871	4.86
249.087	4.76
249.303	4.64
249.519	4.28
249.736	3.57
249.952	3.12
250.168	3.27
250.384	1.05
250.6	0.8
250.816	-1.14
251.032	0.06
251.248	1.47
251.464	-0.85
251.68	-1.69
251.896	-1.63
252.112	-1.13
252.328	-3.32
252.544	-5.27
252.76	-5.32
252.976	-6.61
253.192	-5.98
253.408	-7.12
253.624	-7.54
253.84	-5.41
254.056	-6.31
254.272	-7.15
254.487	-9.02
254.703	-3.54
254.919	-3.55
255.135	-4.94
255.351	-6.96
255.567	-5.89
255.782	-5.51
255.998	-7.57
256.214	-10.5
256.43	-5.44
256.646	-7.06
256.861	-4.36
257.077	-9.93
257.293	-7.14
257.508	-3.82
257.724	-2.61
257.94	-1.67
258.155	-1.64
258.371	0.23
258.587	0.44
258.802	0.25
259.018	1.84
259.234	1.62
259.449	3.03
259.665	2.81
259.88	2.58
260.096	3.38
260.312	3.36
260.527	3.65
260.743	3.24
260.958	3.98
261.174	3.55
261.389	3.28
261.605	2.74
261.82	2.27
262.036	1.97
262.251	1.38
262.466	2.1
262.682	1.2
262.897	-0.28
263.113	0.5
263.328	1.1
263.543	1.57
263.759	-0.28
263.974	0.14
264.189	-2.58
264.405	-2.01
264.62	-0.76
264.835	-1.92
265.051	-1.38
265.266	-0.07
265.481	-0.32
265.696	-1.19
265.912	-0.75
266.127	0.91
266.342	1.1
266.557	3.23
266.773	2.92
266.988	3.77
267.203	3.81
267.418	3.3
267.633	3.75
267.848	4.47
268.064	3.29
268.279	2.92
268.494	2.03
268.709	2.02
268.924	2.04
269.139	-0.37
269.354	-0.49
269.569	-0.89
269.784	-0.91
269.999	-2.73
270.214	-3.58
270.429	-1.99
270.644	-1.92
270.859	-0.15
271.074	-0.71
271.289	-0.79
271.504	1.77
271.719	1.38
271.934	1.1
272.149	1.82
272.363	2.64
272.578	2.73
272.793	1.25
273.008	1.05
273.223	0.18
273.438	-0.08
273.653	0.14
273.867	-1.2
274.082	-0.92
274.297	-0.74
274.512	-1.99
274.726	-2.72
274.941	-3.44
275.156	-1.86
275.371	-0.63
275.585	-0.64
275.8	0.91
276.015	0.44
276.229	1.99
276.444	0.15
276.659	-0.55
276.873	0.5
277.088	0.94
277.302	1.11
277.517	1.44
277.732	-0.4
277.946	0.19
278.161	-0.66
278.375	-0.36
278.59	1.07
278.804	0.52
279.019	1.1
279.233	0.79
279.448	1.52
279.662	1.23
279.877	-0.38
280.091	1.62
280.306	0.54
280.52	1.53
280.735	2.34
280.949	0.31
281.163	2.57
281.378	2.06
281.592	3.66
281.806	3.57
282.021	4.28
282.235	4.74
282.449	3.69
282.664	3.92
282.878	3.74
283.092	2.87
283.307	3.19
283.521	1.99
283.735	2.15
283.949	0.63
284.164	0.64
284.378	0.59
284.592	0.88
284.806	1.68
285.02	2.3
285.234	2.16
285.449	3.02
285.663	4.01
285.877	4.75
286.091	4.31
286.305	4.17
286.519	4.64
286.733	4.14
286.947	4.53
287.161	4.43
287.375	4.18
287.589	4.37
287.803	4.07
288.017	4.08
288.231	3.8
288.445	4.41
288.659	4.83
288.873	3.88
289.087	4.29
289.301	3.73
289.515	2.86
289.729	3.01
289.943	2.06
290.157	0.38
290.371	-0.37
290.584	-0.13
290.798	-0.9
291.012	-1.03
291.226	-0.3
291.44	-0.61
291.654	-0.92
291.867	1.23
292.081	2.12
292.295	3.62
292.509	4.28
292.722	3.38
292.936	3.27
293.15	4.7
293.364	5.02
293.577	4.4
293.791	6.03
294.005	7.57
294.218	5.41
294.432	5.28
294.645	4.41
294.859	6.35
295.073	6.97
295.286	6.37
295.5	6.46
295.713	6.59
295.927	7.42
296.14	7
296.354	6.63
296.568	7.74
296.781	7.57
296.994	8.15
297.208	7.2
297.421	7.85
297.635	8.04
297.848	8.14
298.062	8.65
298.275	8.92
298.489	8.78
298.702	8.57
298.915	7.46
299.129	7.35
299.342	7.53
299.555	6.29
299.769	5.87
299.982	6.17
300.195	4.58
300.409	4.57
300.622	3.53
300.835	3.19
301.048	3.03
301.262	3.54
301.475	1.88
301.688	0.11
301.901	1.48
302.115	1.17
302.328	1.65
302.541	3.34
302.754	2.87
302.967	3.08
303.18	4.2
303.393	4.52
303.607	4.82
303.82	7.02
304.033	9.14
304.246	9.71
304.459	10.31
304.672	10.64
304.885	10.48
305.098	10.51
305.311	11.07
305.524	10.03
305.737	10.05
305.95	10.64
306.163	9.11
306.376	8.35
306.589	10.06
306.802	8.85
307.015	6.53
307.228	7.3
307.44	8.46
307.653	8.57
307.866	9.05
308.079	8.83
308.292	9.42
308.505	10.31
308.718	10.8
308.93	10.06
309.143	11.06
309.356	12.73
309.569	13.37
309.781	13.69
309.994	14.11
310.207	13.51
310.42	13.37
310.632	12.49
310.845	12.14
311.058	12.53
311.27	13.13
311.483	13.3
311.696	13.53
311.908	13.41
312.121	12.06
312.333	11.13
312.546	11.33
312.759	12.28
312.971	13.56
313.184	13.55
313.396	12.49
313.609	10.6
313.821	10.94
314.034	10.08
314.246	9.45
314.459	11.08
314.671	10.65
314.884	11.35
315.096	10.25
315.309	8.8
315.521	10.42
315.733	10
315.946	11.63
316.158	11.6
316.371	12.28
316.583	11.36
316.795	11.29
317.008	12.51
317.22	12.7
317.432	13.23
317.644	13.03
317.857	13.31
318.069	15.7
318.281	14.97
318.494	14.08
318.706	13.14
318.918	12.72
319.13	12.31
319.342	12.7
319.555	13.03
319.767	13.63
319.979	13.3
320.191	13.46
320.403	12.33
320.615	12.66
320.827	12.01
321.039	13.36
321.252	15.94
321.464	16.05
321.676	14.79
321.888	14.22
322.1	13.64
322.312	14.04
322.524	13.06
322.736	14.04
322.948	13.6
323.16	14.88
323.372	13.91
323.584	12.16
323.796	11
324.007	11.9
324.219	12.6
324.431	12.03
324.643	12.18
324.855	13.3
325.067	13.56
325.279	13.25
325.491	13.53
325.702	14.08
325.914	14.97
326.126	16.42
326.338	17.33
326.55	17.59
326.761	19.62
326.973	20.43
327.185	20.32
327.396	20.19
327.608	21.25
327.82	20.41
328.032	21.13
328.243	21.27
328.455	21.51
328.666	21.15
328.878	21.59
329.09	21.39
329.301	22.44
329.513	22.36
329.725	22.5
329.936	21.93
330.148	22.03
330.359	21.72
330.571	21.32
330.782	20.83
330.994	21
331.205	21.03
331.417	20.98
331.628	20.16
331.84	20.29
332.051	19.49
332.262	19.91
332.474	21.32
332.685	22.26
332.897	23.42
333.108	23.31
333.319	23.6
333.531	23.83
333.742	22.92
333.953	23.32
334.165	23.64
334.376	24.4
334.587	25.23
334.799	26.03
335.01	25.44
335.221	26.08
335.432	27.77
335.644	28
335.855	28.3
336.066	29.62
336.277	29
336.488	28.64
336.7	28.34
336.911	28.94
337.122	28.09
337.333	28.85
337.544	28.38
337.755	26.73
337.966	26.86
338.177	26.94
338.388	26.86
338.599	27.79
338.811	28.04
339.022	28.92
339.233	27.96
339.444	27.72
339.655	27.05
339.866	26.87
340.076	27.47
340.287	27.43
340.498	26.89
340.709	25.84
340.92	26.97
341.131	26.96
341.342	26.79
341.553	27.17
341.764	27.94
341.975	28.73
342.185	29.44
342.396	29.49
342.607	29.69
342.818	29.92
343.029	30.28
343.239	29.48
343.45	29.9
343.661	29.77
343.872	30.07
344.082	29.98
344.293	29.69
344.504	29.19
344.714	29.9
344.925	29.56
345.136	29.65
345.346	30
345.557	29.59
345.768	29.84
345.978	29.36
346.189	29.62
346.399	29.92
346.61	29.58
346.821	30.33
347.031	30.08
347.242	29.96
347.452	29.55
347.663	29.18
347.873	29.21
348.084	28.64
348.294	28.95
348.504	28.67
348.715	28.52
348.925	28.56
349.136	27.84
349.346	27.82
349.557	28.31
349.767	28.74
349.977	29.28
350.188	27.53
350.398	28.08
350.608	28.14
350.819	28.05
351.029	27.76
351.239	27.63
351.449	27.95
351.66	27.9
351.87	27.97
352.08	27.97
352.29	27.8
352.501	29.55
352.711	29.06
352.921	29.37
353.131	28.82
353.341	28.04
353.552	28.04
353.762	27.79
353.972	26.99
354.182	26.05
354.392	25.55
354.602	25.07
354.812	25.17
355.022	25
355.232	24.16
355.442	24.07
355.652	24.78
355.862	24.56
356.072	24.53
356.282	25.33
356.492	26.07
356.702	26.12
356.912	26.95
357.122	26.71
357.332	26.54
357.542	26.8
357.752	27.22
357.962	27.13
358.171	27.95
358.381	27.67
358.591	27.27
358.801	26.76
359.011	27.35
359.221	26.91
359.43	26.64
359.64	26.8
359.85	26.59
360.06	26.4
360.269	26.5
360.479	26.46
360.689	26.47
360.899	26.6
361.108	27.44
361.318	27
361.528	26.95
361.737	27.3
361.947	27.19
362.156	27.42
362.366	27.97
362.576	27.81
362.785	27.78
362.995	27.91
363.204	27.63
363.414	26.98
363.623	26.82
363.833	26.81
364.042	26.67
364.252	26.92
364.461	27.23
364.671	26.68
364.88	26.63
365.09	25.86
365.299	25.56
365.509	25.56
365.718	25.24
365.927	25.32
366.137	25.53
366.346	25.25
366.555	25.32
366.765	24.45
366.974	24.34
367.183	23.59
367.393	24.11
367.602	24.29
367.811	24.36
368.021	24.29
368.23	23.84
368.439	23.82
368.648	24.48
368.857	24.17
369.067	24.66
369.276	23.72
369.485	24.07
369.694	23.72
369.903	23.94
370.112	24.29
370.321	25.13
370.531	25.36
370.74	24.68
370.949	24.37
371.158	24.46
371.367	24.35
371.576	25
371.785	24.88
371.994	24.88
372.203	24.54
372.412	23.99
372.621	23.71
372.83	23.81
373.039	23.73
373.248	23.37
373.457	22.89
373.666	22.75
373.874	22.47
374.083	22.84
374.292	22.33
374.501	22.2
374.71	21.94
374.919	21.64
375.128	21.26
375.336	21.4
375.545	21.25
375.754	21.53
375.963	21.48
376.171	21.81
376.38	22.04
376.589	22.31
376.798	22.15
377.006	23.17
377.215	22.57
377.424	22.67
377.632	22.53
377.841	22.77
378.05	22.41
378.258	22.66
378.467	22.08
378.675	21.78
378.884	21.51
379.093	21.7
379.301	21.22
379.51	21.62
379.718	21.8
379.927	22.27
380.135	22.6
380.344	22.85
380.552	22.09
380.761	22.52
380.969	22.89
381.177	23.4
381.386	23.25
381.594	23.31
381.803	23.11
382.011	22.71
382.219	22.27
382.428	21.83
382.636	21.7
382.845	22.23
383.053	22.45
383.261	21.28
383.469	20.67
383.678	20.61
383.886	20.5
384.094	20.58
384.302	20.42
384.511	20.18
384.719	19.92
384.927	19.9
385.135	19.69
385.343	19.18
385.552	19.31
385.76	19.29
385.968	18.84
386.176	18.21
386.384	18.34
386.592	18.44
386.8	18.36
387.008	18.6
387.216	18.46
387.424	18.22
387.633	18.78
387.841	18.88
388.049	19.15
388.257	19.42
388.465	19.52
388.672	18.98
388.88	18.9
389.088	19.04
389.296	18.95
389.504	18.87
389.712	19.09
389.92	18.4
390.128	18.5
390.336	18.39
390.544	18.06
390.751	17.91
390.959	17.96
391.167	18.21
391.375	18.19
391.583	17.84
391.79	17.8
391.998	17.54
392.206	17.74
392.414	17.61
392.621	17.37
392.829	17.66
393.037	17.67
393.244	17.8
393.452	17.26
393.66	17.22
393.867	17.06
394.075	17.14
394.283	17.15
394.49	16.9
394.698	16.85
394.905	16.61
395.113	16.43
395.32	16.31
395.528	15.86
395.735	15.96
395.943	15.79
396.15	15.86
396.358	15.77
396.565	15.88
396.773	16.03
396.98	15.9
397.188	16.29
397.395	16.33
397.602	16.49
397.81	16.68
398.017	16.61
398.225	16.62
398.432	16.74
398.639	16.86
398.847	16.57
399.054	16.41
399.261	16.39
399.468	16.19
399.676	16.25
399.883	16.39
400.09	16.62
400.297	16.45
400.505	16.47
400.712	16.33
400.919	15.87
401.126	15.96
401.333	15.91
401.54	16.33
401.748	16.54
401.955	16.24
402.162	16.15
402.369	15.76
402.576	15.93
402.783	15.91
402.99	15.88
403.197	15.97
403.404	15.98
403.611	15.91
403.818	15.56
404.025	15.53
404.232	15.77
404.439	15.8
404.646	15.85
404.853	15.64
405.06	15.54
405.267	15.69
405.474	15.76
405.681	15.67
405.887	15.51
406.094	15.29
406.301	15.06
406.508	14.74
406.715	14.17
406.922	14.29
407.128	14.61
407.335	14.66
407.542	14.59
407.749	14.52
407.955	14.29
408.162	14.7
408.369	14.94
408.575	14.97
408.782	15.22
408.989	15.42
409.195	15.39
409.402	15.27
409.609	15.23
409.815	14.95
410.022	14.85
410.228	15.05
410.435	15.04
410.642	15.21
410.848	14.96
411.055	14.72
411.261	14.79
411.468	14.72
411.674	14.59
411.881	14.32
412.087	14.23
412.294	14.36
412.5	14.12
412.706	13.83
412.913	13.49
413.119	13.64
413.326	13.79
413.532	13.72
413.738	13.71
413.945	13.89
414.151	14.06
414.357	14.24
414.564	14.39
414.77	14.39
414.976	14.49
415.182	14.35
415.389	14.47
415.595	14.41
415.801	14.46
416.007	14.48
416.214	14.15
416.42	14.24
416.626	14.32
416.832	14.2
417.038	14.36
417.244	14.43
417.45	14.49
417.657	14.39
417.863	14.39
418.069	14.4
418.275	14.17
418.481	14.34
418.687	14.43
418.893	14.59
419.099	14.69
419.305	14.74
419.511	14.53
419.717	14.58
419.923	14.56
420.129	14.55
420.335	14.54
420.541	14.63
420.746	14.66
420.952	14.63
421.158	14.41
421.364	14.21
421.57	14.09
421.776	14.11
421.982	14.04
422.187	13.95
422.393	14.01
422.599	14.01
422.805	14.1
423.01	14.07
423.216	13.95
423.422	14.09
423.628	14.17
423.833	14.19
424.039	14.42
424.245	14.43
424.45	14.48
424.656	14.44
424.862	14.41
425.067	14.25
425.273	14.22
425.478	14.23
425.684	14.08
425.889	14.01
426.095	14.13
426.301	13.82
426.506	13.83
426.712	13.81
426.917	13.95
427.123	13.89
427.328	14.16
427.533	14.22
427.739	14.38
427.944	14.48
428.15	14.34
428.355	14.08
428.561	14.17
428.766	14.2
428.971	14.21
429.177	14.03
429.382	14.04
429.587	13.77
429.793	13.81
429.998	13.69
430.203	13.63
430.408	14.03
430.614	14.02
430.819	14.09
431.024	14.03
431.229	14.03
431.434	13.91
431.64	13.98
431.845	14
432.05	13.84
432.255	13.68
432.46	13.58
432.665	13.33
432.87	13.4
433.076	13.21
433.281	13.31
433.486	13.35
433.691	13.3
433.896	13.28
434.101	13.3
434.306	13.29
434.511	13.25
434.716	13.43
434.921	13.53
435.126	13.44
435.331	13.5
435.535	13.42
435.74	13.28
435.945	13.36
436.15	13.26
436.355	13.15
436.56	13.35
436.765	13.37
436.97	13.32
437.174	13.45
437.379	13.66
437.584	13.58
437.789	13.68
437.993	13.74
438.198	13.72
438.403	13.87
438.608	14.01
438.812	13.97
439.017	13.98
439.222	14.12
439.426	13.91
439.631	13.87
439.836	14.04
440.04	14.15
440.245	14.27
440.45	14.26
440.654	14.16
440.859	14.15
441.063	14.07
441.268	14.1
441.472	13.99
441.677	14.2
441.881	14.27
442.086	14.26
442.29	14.19
442.495	14.09
442.699	14.03
442.904	14.17
443.108	13.98
443.312	14
443.517	13.93
443.721	13.85
443.925	13.75
444.13	13.68
444.334	13.67
444.538	13.6
444.743	13.59
444.947	13.6
445.151	13.58
445.356	13.72
445.56	13.78
445.764	14.01
445.968	14.13
446.173	14.1
446.377	13.97
446.581	13.93
446.785	13.94
446.989	13.87
447.193	13.93
447.398	14.01
447.602	14.03
447.806	13.94
448.01	13.79
448.214	13.65
448.418	13.48
448.622	13.44
448.826	13.36
449.03	13.42
449.234	13.6
449.438	13.61
449.642	13.54
449.846	13.26
450.05	13.21
450.254	13.2
450.458	13.13
450.662	13.28
450.866	13.46
451.069	13.72
451.273	13.68
451.477	13.66
451.681	13.62
451.885	13.65
452.089	13.78
452.292	13.79
452.496	13.84
452.7	13.93
452.904	13.86
453.107	13.71
453.311	13.53
453.515	13.4
453.719	13.28
453.922	13.32
454.126	13.16
454.33	13.31
454.533	13.38
454.737	13.38
454.94	13.52
455.144	13.72
455.348	13.81
455.551	13.75
455.755	13.85
455.958	13.92
456.162	13.8
456.365	13.81
456.569	13.69
456.772	13.71
