Data from CB_100_Reflection_2.txt Node
Date: Sat Nov 14 17:45:14 EST 2015
User: robert
Spectrometer: USB4E03001
Autoset integration time: false
Trigger mode: 4
Integration Time (sec): 1.000000E-1
Scans to average: 15
Electric dark correction enabled: true
Nonlinearity correction enabled: false
Boxcar width: 5
Stray light correction enabled: false
XAxis mode: Wavelengths
Stop averaging: false
Number of Pixels in Spectrum: 3648
>>>>>Begin Spectral Data<<<<<
177.566	177.15
177.785	-1158.62
178.005	435.89
178.225	670.61
178.445	-1703.16
178.665	153.23
178.885	-1362.89
179.105	197.71
179.324	276.2
179.544	107.74
179.764	92.2
179.984	79.98
180.204	81.46
180.423	67.19
180.643	129.97
180.863	163.96
181.083	99.57
181.302	115.89
181.522	174.59
181.742	157.77
181.961	240.2
182.181	341.18
182.401	854.76
182.621	577.27
182.84	887.26
183.06	374.82
183.279	274.93
183.499	500
183.719	427.55
183.938	217.2
184.158	182.09
184.377	167.78
184.597	173.05
184.816	122.27
185.036	125.12
185.256	129.16
185.475	123.43
185.695	107.18
185.914	99.75
186.134	110.53
186.353	113.2
186.572	119.39
186.792	112.51
187.011	109.7
187.231	126.29
187.45	120.81
187.67	115.58
187.889	106.14
188.108	120.15
188.328	128.07
188.547	110.51
188.766	95.26
188.986	82.62
189.205	80.4
189.424	83.48
189.644	83.89
189.863	98.05
190.082	80.35
190.302	76.52
190.521	51.92
190.74	51.33
190.959	49.14
191.178	60.03
191.398	71.4
191.617	91.73
191.836	90.55
192.055	70.58
192.274	19.4
192.494	68.79
192.713	137.03
192.932	164.77
193.151	263.4
193.37	209.26
193.589	207.7
193.808	351.98
194.027	505.91
194.246	-1156.54
194.465	1638.56
194.685	203.23
194.904	223.56
195.123	117.44
195.342	140.62
195.561	97.26
195.78	82.39
195.999	94.35
196.218	69.84
196.436	84.37
196.655	103.55
196.874	122.59
197.093	118.5
197.312	106.99
197.531	114.74
197.75	126.5
197.969	148.86
198.188	164.1
198.407	149.36
198.625	188.48
198.844	190.88
199.063	149.52
199.282	162.75
199.501	244.83
199.719	222.73
199.938	197.31
200.157	149.95
200.376	129.81
200.594	125.24
200.813	135.41
201.032	95.22
201.251	92.76
201.469	104.33
201.688	83.06
201.907	77.31
202.125	74.12
202.344	112.45
202.563	134.84
202.781	131.47
203	170.23
203.218	193.53
203.437	192.86
203.656	209.15
203.874	183.13
204.093	245.88
204.311	214.17
204.53	231.73
204.748	170.25
204.967	189.94
205.185	224.04
205.404	193.21
205.622	175.7
205.841	198.15
206.059	189.7
206.278	181.72
206.496	154.66
206.715	165
206.933	136.35
207.151	143.86
207.37	153.14
207.588	131.75
207.806	125.85
208.025	122
208.243	116.8
208.461	142.68
208.68	136.53
208.898	139.37
209.116	127.51
209.335	134.63
209.553	151.8
209.771	137.24
209.989	120.47
210.208	117.23
210.426	105.19
210.644	95.76
210.862	65.83
211.081	63.74
211.299	69.46
211.517	65.21
211.735	71.92
211.953	68.81
212.171	69.66
212.39	89.22
212.608	91.32
212.826	104.98
213.044	121.09
213.262	137.92
213.48	138.56
213.698	123.58
213.916	142.46
214.134	109.73
214.352	112.11
214.57	112.64
214.788	114.24
215.006	117.53
215.224	121.87
215.442	131.28
215.66	118.31
215.878	127.48
216.096	122.15
216.314	98.37
216.532	120.01
216.75	138.91
216.968	164.22
217.185	161.08
217.403	190.01
217.621	229.96
217.839	144.89
218.057	171.7
218.275	159.78
218.492	216.2
218.71	254.71
218.928	260.92
219.146	295.4
219.363	186.88
219.581	196.84
219.799	181.12
220.017	155.45
220.234	193.58
220.452	193.33
220.67	215.37
220.887	303.61
221.105	404.31
221.323	4559.51
221.54	625.41
221.758	3991.43
221.976	1739.85
222.193	384.16
222.411	462.2
222.629	725.84
222.846	1129.32
223.064	-884.54
223.281	1072.64
223.499	683.1
223.716	1543.92
223.934	-1031.79
224.151	-278.38
224.369	-159.21
224.586	-80.88
224.804	-55.28
225.021	-59.96
225.239	-42.75
225.456	-74.1
225.674	-71.85
225.891	-93.83
226.108	-119.07
226.326	-129.59
226.543	-105.46
226.76	-82.37
226.978	-57.42
227.195	-68.93
227.413	-62.99
227.63	-46.41
227.847	-34.17
228.064	-20.93
228.282	-14.63
228.499	-9.34
228.716	-9.83
228.934	-10.65
229.151	-10.43
229.368	-12.38
229.585	-12.05
229.802	-10.23
230.02	-9.97
230.237	-12.91
230.454	-11.39
230.671	-9.08
230.888	-11.08
231.105	-12.05
231.323	-16.15
231.54	-23.01
231.757	-25.08
231.974	-30.2
232.191	-31.65
232.408	-30.51
232.625	-21.99
232.842	-27.67
233.059	-33.43
233.276	-36.63
233.493	-30.29
233.71	-14.75
233.927	-9.17
234.144	-15.73
234.361	-20.64
234.578	-13.35
234.795	-8.2
235.012	-11.94
235.229	-19.52
235.446	-19.21
235.663	-11.4
235.879	-12.82
236.096	-22.5
236.313	-24.82
236.53	-19.83
236.747	-12.37
236.964	-19.88
237.181	-30.88
237.397	-33.96
237.614	-24.91
237.831	-25.87
238.048	-32.24
238.264	-46.36
238.481	-45.54
238.698	-32.49
238.915	-23.35
239.131	-21.7
239.348	-25.1
239.565	-21.19
239.781	-14.85
239.998	-12.23
240.215	-14.08
240.431	-15.08
240.648	-1.91
240.865	1.91
241.081	0.55
241.298	-2.71
241.514	-3.11
241.731	-0.74
241.947	0.27
242.164	1.3
242.38	3.13
242.597	4.45
242.814	5.32
243.03	2.27
243.246	0.9
243.463	-0.11
243.679	0.3
243.896	0.71
244.112	-0.36
244.329	-2.35
244.545	-2.82
244.762	-5.76
244.978	-3.14
245.194	-3.82
245.411	-3.4
245.627	-1.57
245.843	-0.36
246.06	0.48
246.276	1.05
246.492	2.44
246.709	3.36
246.925	3.3
247.141	4.27
247.357	3.59
247.574	4.38
247.79	4.96
248.006	5.38
248.222	5.58
248.439	5.62
248.655	4.77
248.871	5.25
249.087	5.66
249.303	5.81
249.519	4.42
249.736	3.14
249.952	2.53
250.168	3.79
250.384	0.65
250.6	0.3
250.816	-1.95
251.032	1.25
251.248	-0.44
251.464	-4.74
251.68	-6.15
251.896	-5.93
252.112	-6.73
252.328	-7.84
252.544	-11.01
252.76	-10.57
252.976	-12.7
253.192	-10.75
253.408	-12.4
253.624	-12.72
253.84	-8.91
254.056	-11.76
254.272	-13.43
254.487	-14.28
254.703	-14.2
254.919	-13.29
255.135	-13.77
255.351	-14.73
255.567	-15.29
255.782	-14.59
255.998	-11.82
256.214	-12.81
256.43	-7.25
256.646	-4.69
256.861	0.29
257.077	-0.41
257.293	2.16
257.508	5.27
257.724	6.78
257.94	7.38
258.155	5.26
258.371	3.25
258.587	1.24
258.802	1.16
259.018	2.29
259.234	2.54
259.449	3.01
259.665	3.12
259.88	3.07
260.096	3.34
260.312	3.34
260.527	4.1
260.743	4.16
260.958	4.63
261.174	4.82
261.389	4.99
261.605	4.92
261.82	5.04
262.036	4.22
262.251	2.34
262.466	2.94
262.682	1.94
262.897	0.45
263.113	-0.08
263.328	0.61
263.543	0.18
263.759	-3.56
263.974	-5.33
264.189	-7.16
264.405	-6.97
264.62	-4.64
264.835	-4.98
265.051	-3.83
265.266	-3.27
265.481	-1.13
265.696	-0.81
265.912	-0.12
266.127	1.21
266.342	2.47
266.557	5.22
266.773	3.2
266.988	2.31
267.203	1.74
267.418	3.15
267.633	5.55
267.848	3.76
268.064	4.14
268.279	3.58
268.494	3.91
268.709	3.79
268.924	3.26
269.139	3.77
269.354	5.22
269.569	5.36
269.784	3.74
269.999	1.42
270.214	1.83
270.429	0.08
270.644	0.24
270.859	-0.52
271.074	-1.26
271.289	-2.9
271.504	-0.84
271.719	-0.97
271.934	-1.72
272.149	-0.43
272.363	0.87
272.578	2.22
272.793	3.11
273.008	2.46
273.223	3.78
273.438	3.37
273.653	5.34
273.867	3.57
274.082	3.2
274.297	3.06
274.512	0.1
274.726	-1.61
274.941	-2.31
275.156	-2.09
275.371	-1.87
275.585	-2.28
275.8	-1.15
276.015	-1.41
276.229	0.04
276.444	0.29
276.659	0.79
276.873	2.59
277.088	3.66
277.302	3.16
277.517	2.03
277.732	2.43
277.946	1.88
278.161	1.2
278.375	0.1
278.59	0.32
278.804	-1.48
279.019	-2.04
279.233	-1.36
279.448	-3.06
279.662	-3.23
279.877	-2.42
280.091	-1.61
280.306	-2.89
280.52	-2.12
280.735	-2.15
280.949	-2.95
281.163	-1.03
281.378	0.09
281.592	1.11
281.806	3.28
282.021	3.84
282.235	3.96
282.449	3.5
282.664	4.94
282.878	5.02
283.092	5.72
283.307	5.83
283.521	5.22
283.735	4.7
283.949	3.92
284.164	3.62
284.378	4.17
284.592	4.83
284.806	6.25
285.02	5.8
285.234	6.3
285.449	5.81
285.663	6.43
285.877	6.94
286.091	6.95
286.305	6.82
286.519	6.25
286.733	5.5
286.947	5.07
287.161	4.31
287.375	4.42
287.589	4.25
287.803	4.3
288.017	4.16
288.231	3.39
288.445	3.57
288.659	2.02
288.873	2.6
289.087	3.54
289.301	3.03
289.515	2.28
289.729	1.5
289.943	0.36
290.157	-0.44
290.371	-0.86
290.584	0.19
290.798	-0.68
291.012	1.14
291.226	0.77
291.44	0.05
291.654	0.79
291.867	1.46
292.081	3.09
292.295	3.5
292.509	4.64
292.722	5.35
292.936	4.51
293.15	7.19
293.364	7.95
293.577	7.07
293.791	7.95
294.005	7.85
294.218	7.27
294.432	6.41
294.645	7.25
294.859	7.69
295.073	7.38
295.286	8.44
295.5	7.14
295.713	5.66
295.927	7.2
296.14	6.58
296.354	6.8
296.568	6.59
296.781	7.2
296.994	7.28
297.208	6.36
297.421	6.73
297.635	5.74
297.848	6.32
298.062	6.27
298.275	6.08
298.489	5.75
298.702	5.32
298.915	5.48
299.129	5.09
299.342	5.48
299.555	5.85
299.769	6.21
299.982	6.91
300.195	5.99
300.409	6.94
300.622	5.69
300.835	5.99
301.048	6.25
301.262	5.85
301.475	5.39
301.688	3.62
301.901	4.79
302.115	3.96
302.328	3.99
302.541	4.2
302.754	4.62
302.967	5.06
303.18	5.37
303.393	5.3
303.607	4.77
303.82	5.03
304.033	5.83
304.246	5.15
304.459	5.59
304.672	5.71
304.885	5.79
305.098	5.51
305.311	6.33
305.524	6.42
305.737	5.18
305.95	6.34
306.163	6.06
306.376	4.9
306.589	6.02
306.802	4.5
307.015	3.08
307.228	3.8
307.44	4.28
307.653	4.4
307.866	5.28
308.079	5.79
308.292	6.97
308.505	8.02
308.718	9.22
308.93	9.06
309.143	10.35
309.356	11.37
309.569	10.57
309.781	11.31
309.994	10.53
310.207	9.12
310.42	9.52
310.632	9
310.845	8
311.058	8.77
311.27	8.62
311.483	8.48
311.696	9.22
311.908	9.32
312.121	8.21
312.333	7.86
312.546	7.77
312.759	7.68
312.971	7.79
313.184	8.79
313.396	6.77
313.609	5.38
313.821	5.64
314.034	3.81
314.246	4.46
314.459	4.41
314.671	4.48
314.884	4.88
315.096	5.99
315.309	4.74
315.521	4.37
315.733	5.2
315.946	6.16
316.158	6.64
316.371	9.05
316.583	7.78
316.795	8.24
317.008	9.74
317.22	10.09
317.432	9.2
317.644	8.5
317.857	9.91
318.069	10.85
318.281	10.59
318.494	8.75
318.706	5.99
318.918	6.56
319.13	6.43
319.342	5.7
319.555	6.5
319.767	6.33
319.979	6.55
320.191	5.59
320.403	4.43
320.615	4.09
320.827	3.47
321.039	3.67
321.252	5.05
321.464	5.49
321.676	4.67
321.888	4.46
322.1	4.47
322.312	6.2
322.524	5.69
322.736	7.17
322.948	7.13
323.16	8.88
323.372	9.62
323.584	7.48
323.796	6.58
324.007	7.05
324.219	7.71
324.431	8.81
324.643	7.7
324.855	9.07
325.067	9.35
325.279	10.01
325.491	10.42
325.702	11.12
325.914	11.35
326.126	12.47
326.338	14.17
326.55	14.13
326.761	14.78
326.973	16.2
327.185	16.53
327.396	15.89
327.608	16.05
327.82	15.31
328.032	15.75
328.243	16.79
328.455	17.59
328.666	17.15
328.878	18.41
329.09	18.01
329.301	18.2
329.513	17.15
329.725	17.33
329.936	18.11
330.148	18.07
330.359	17.67
330.571	19.88
330.782	19.66
330.994	20.45
331.205	19.62
331.417	19.74
331.628	19.97
331.84	19.73
332.051	20.31
332.262	21.75
332.474	23.7
332.685	23.74
332.897	23.22
333.108	23.87
333.319	23.18
333.531	22.67
333.742	23.28
333.953	23.83
334.165	23.85
334.376	23.73
334.587	23.19
334.799	23.43
335.01	24.26
335.221	23.39
335.432	22.92
335.644	23.27
335.855	24.03
336.066	24.11
336.277	24.39
336.488	24.69
336.7	24.47
336.911	24.46
337.122	24.45
337.333	24.38
337.544	24.27
337.755	23.19
337.966	23.41
338.177	24
338.388	24.43
338.599	24.38
338.811	25.03
339.022	26.86
339.233	26.34
339.444	26.23
339.655	26.21
339.866	26.9
340.076	27.55
340.287	27.33
340.498	26.85
340.709	26.31
340.92	26.03
341.131	25.96
341.342	25.45
341.553	25.99
341.764	26.43
341.975	26.84
342.185	26.88
342.396	26.86
342.607	27.35
342.818	28.18
343.029	28.09
343.239	28.37
343.45	28.39
343.661	28.19
343.872	28.79
344.082	28.01
344.293	28.5
344.504	28.31
344.714	28.85
344.925	28.4
345.136	28.04
345.346	27.96
345.557	27.67
345.768	27.15
345.978	27.1
346.189	26.21
346.399	27.07
346.61	26.16
346.821	26.61
347.031	27.23
347.242	27.56
347.452	26.87
347.663	26.16
347.873	26.17
348.084	27.28
348.294	27.75
348.504	27.73
348.715	26.93
348.925	27.15
349.136	27.18
349.346	26.31
349.557	26.31
349.767	26.01
349.977	27.24
350.188	26.97
350.398	26.47
350.608	25.68
350.819	26.48
351.029	26.43
351.239	26.13
351.449	26.14
351.66	25.81
351.87	26.28
352.08	26.15
352.29	26.45
352.501	26.69
352.711	26.77
352.921	26.58
353.131	26.13
353.341	25.64
353.552	26.27
353.762	25.57
353.972	26.35
354.182	25.87
354.392	26.28
354.602	25.42
354.812	25.74
355.022	25.41
355.232	25.57
355.442	25.67
355.652	26.24
355.862	25.72
356.072	26.02
356.282	25.52
356.492	26.03
356.702	26.19
356.912	26.19
357.122	26.28
357.332	26.59
357.542	26.63
357.752	26.14
357.962	25.59
358.171	25.62
358.381	25.83
358.591	25.69
358.801	25.43
359.011	25.55
359.221	25.59
359.43	25.55
359.64	24.72
359.85	24.49
360.06	24.61
360.269	25.21
360.479	25.31
360.689	24.77
360.899	25.38
361.108	25.49
361.318	25.19
361.528	25.42
361.737	25.08
361.947	25.25
362.156	25.43
362.366	25.61
362.576	25.2
362.785	25.19
362.995	25.73
363.204	24.97
363.414	24.24
363.623	24.62
363.833	24.37
364.042	24.59
364.252	25.22
364.461	25.43
364.671	25.13
364.88	25.15
365.09	24.96
365.299	23.8
365.509	24.06
365.718	24.13
365.927	23.56
366.137	23.66
366.346	23.03
366.555	22.84
366.765	22.66
366.974	22.13
367.183	21.37
367.393	21.67
367.602	22.66
367.811	23.01
368.021	22.9
368.23	22.52
368.439	22.59
368.648	22.94
368.857	22.4
369.067	21.7
369.276	22.04
369.485	22.39
369.694	22.03
369.903	21.76
370.112	21.37
370.321	21.7
370.531	22
370.74	21.59
370.949	21.51
371.158	21.9
371.367	22.07
371.576	22.3
371.785	22.69
371.994	22.51
372.203	21.92
372.412	21.72
372.621	21.76
372.83	21.81
373.039	21.74
373.248	21.69
373.457	21.36
373.666	21.25
373.874	20.29
374.083	20.02
374.292	19.7
374.501	19.82
374.71	19.03
374.919	19.03
375.128	18.99
375.336	19.65
375.545	19.86
375.754	19.88
375.963	20.32
376.171	21.28
376.38	21.7
376.589	22.02
376.798	21.94
377.006	22.41
377.215	22.02
377.424	21.73
377.632	20.97
377.841	20.72
378.05	20.3
378.258	19.94
378.467	19.19
378.675	19.08
378.884	18.71
379.093	18.85
379.301	19.06
379.51	19.32
379.718	19.57
379.927	19.6
380.135	19.92
380.344	20.3
380.552	19.98
380.761	20.56
380.969	20.35
381.177	20.48
381.386	20.39
381.594	20.9
381.803	20.52
382.011	20.14
382.219	20.27
382.428	19.65
382.636	19.44
382.845	19.58
383.053	19.44
383.261	19.44
383.469	19.5
383.678	19.61
383.886	19.21
384.094	19.03
384.302	18.77
384.511	18.59
384.719	18.51
384.927	18.44
385.135	18.37
385.343	18.04
385.552	17.86
385.76	17.38
385.968	17.04
386.176	16.38
386.384	16.3
386.592	16.5
386.8	16.27
387.008	16.59
387.216	16.87
387.424	16.52
387.633	16.61
387.841	16.38
388.049	16.65
388.257	16.46
388.465	16.4
388.672	16.37
388.88	16.2
389.088	16.34
389.296	16.02
389.504	15.28
389.712	15.72
389.92	15.74
390.128	15.85
390.336	15.77
390.544	16.25
390.751	16.29
390.959	16.01
391.167	16.1
391.375	15.98
391.583	15.78
391.79	15.94
391.998	15.7
392.206	15.74
392.414	15.22
392.621	14.76
392.829	14.31
393.037	14.42
393.244	14.63
393.452	14.28
393.66	14.22
393.867	14.2
394.075	14.46
394.283	14.56
394.49	14.1
394.698	14.2
394.905	14.38
395.113	14.48
395.32	14.52
395.528	14.56
395.735	15.25
395.943	15.25
396.15	15.23
396.358	14.93
396.565	14.73
396.773	14.81
396.98	14.68
397.188	14.93
397.395	15.05
397.602	14.98
397.81	14.89
398.017	14.15
398.225	14.27
398.432	14.18
398.639	14.1
398.847	14.51
399.054	14.41
399.261	14.67
399.468	14.36
399.676	14.24
399.883	14.02
400.09	13.77
400.297	14.13
400.505	13.97
400.712	13.86
400.919	13.77
401.126	13.48
401.333	13.62
401.54	13.79
401.748	13.78
401.955	13.44
402.162	13.47
402.369	13.44
402.576	13.4
402.783	13.57
402.99	13.74
403.197	13.87
403.404	13.73
403.611	13.37
403.818	13.21
404.025	13.52
404.232	13.68
404.439	13.94
404.646	14.16
404.853	14.17
405.06	13.76
405.267	13.82
405.474	13.91
405.681	13.82
405.887	13.93
406.094	13.78
406.301	13.59
406.508	13.5
406.715	13.11
406.922	12.89
407.128	12.65
407.335	12.95
407.542	12.75
407.749	12.66
407.955	12.63
408.162	12.94
408.369	12.97
408.575	13.13
408.782	13.17
408.989	13.27
409.195	13.45
409.402	13.65
409.609	13.49
409.815	13.65
410.022	13.4
410.228	13.39
410.435	13.36
410.642	13.62
410.848	13.11
411.055	12.94
411.261	12.87
411.468	12.7
411.674	12.42
411.881	12.49
412.087	12.24
412.294	12.41
412.5	12.5
412.706	12.2
412.913	11.73
413.119	12
413.326	11.82
413.532	11.93
413.738	12.07
413.945	12.38
414.151	12.19
414.357	12.53
414.564	12.53
414.77	12.41
414.976	12.56
415.182	12.81
415.389	12.84
415.595	13.31
415.801	13.1
416.007	13.07
416.214	12.72
416.42	12.78
416.626	12.5
416.832	12.47
417.038	12.65
417.244	12.66
417.45	12.71
417.657	12.59
417.863	12.44
418.069	12.51
418.275	12.51
418.481	12.74
418.687	12.93
418.893	13.17
419.099	13.07
419.305	12.88
419.511	12.89
419.717	12.88
419.923	12.94
420.129	12.87
420.335	12.95
420.541	13
420.746	12.88
420.952	12.86
421.158	12.83
421.364	12.82
421.57	12.86
421.776	12.95
421.982	12.78
422.187	12.71
422.393	12.82
422.599	12.69
422.805	12.66
423.01	12.79
423.216	12.68
423.422	12.54
423.628	12.66
423.833	12.78
424.039	12.76
424.245	12.88
424.45	12.93
424.656	12.91
424.862	12.92
425.067	12.82
425.273	12.65
425.478	12.55
425.684	12.55
425.889	12.41
426.095	12.41
426.301	12.26
426.506	12.32
426.712	12.22
426.917	12.31
427.123	12.22
427.328	12.3
427.533	12.46
427.739	12.62
427.944	12.59
428.15	12.56
428.355	12.36
428.561	12.33
428.766	12.22
428.971	12.17
429.177	12.07
429.382	12.29
429.587	12.29
429.793	12.08
429.998	12.19
430.203	12.2
430.408	12.5
430.614	12.27
430.819	12.22
431.024	12.22
431.229	12.31
431.434	12
431.64	11.9
431.845	11.99
432.05	12.06
432.255	11.91
432.46	11.9
432.665	11.63
432.87	11.93
433.076	12.02
433.281	12.01
433.486	12.05
433.691	12.2
433.896	12.13
434.101	11.95
434.306	11.82
434.511	11.63
434.716	11.7
434.921	11.78
435.126	11.61
435.331	11.7
435.535	11.63
435.74	11.43
435.945	11.41
436.15	11.54
436.355	11.57
436.56	11.86
436.765	12.01
436.97	11.95
437.174	12.05
437.379	12.09
437.584	12.1
437.789	12.13
437.993	12.35
438.198	12.36
438.403	12.39
438.608	12.37
438.812	12.35
439.017	12.46
439.222	12.61
439.426	12.43
439.631	12.44
439.836	12.36
440.04	12.47
440.245	12.49
440.45	12.52
440.654	12.49
440.859	12.56
441.063	12.49
441.268	12.4
441.472	12.11
441.677	12.34
441.881	12.36
442.086	12.36
442.29	12.11
442.495	11.96
442.699	11.95
442.904	11.99
443.108	11.94
443.312	11.87
443.517	11.89
443.721	12.01
443.925	11.86
444.13	11.97
444.334	11.89
444.538	12.14
444.743	12.21
444.947	12.21
445.151	12.28
445.356	12.36
445.56	12.43
445.764	12.52
445.968	12.57
446.173	12.52
446.377	12.27
446.581	12.35
446.785	12.28
446.989	12.22
447.193	12.21
447.398	12.2
447.602	12.23
447.806	12.34
448.01	12.26
448.214	12.34
448.418	12.27
448.622	12.41
448.826	12.27
449.03	12.38
449.234	12.44
449.438	12.49
449.642	12.36
449.846	12.12
450.05	11.75
450.254	11.8
450.458	11.64
450.662	11.74
450.866	11.78
451.069	11.92
451.273	11.75
451.477	11.82
451.681	11.7
451.885	11.96
452.089	12.02
452.292	12.31
452.496	12.29
452.7	12.18
452.904	12.19
453.107	12.16
453.311	12.04
453.515	12.2
453.719	12.11
453.922	12.03
454.126	11.61
454.33	11.67
454.533	11.5
454.737	11.46
454.94	11.5
455.144	11.57
455.348	11.6
455.551	11.54
455.755	11.47
455.958	11.67
456.162	11.73
456.365	12
456.569	11.86
456.772	11.84
456.976	11.87
457.179	12.07
457.383	11.92
457.586	12
457.79	12.23
457.993	12.3
