Data from CB_102_Reflection_2.txt Node
Date: Sat Nov 14 17:51:23 EST 2015
User: robert
Spectrometer: USB4E03001
Autoset integration time: false
Trigger mode: 4
Integration Time (sec): 1.000000E-1
Scans to average: 15
Electric dark correction enabled: true
Nonlinearity correction enabled: false
Boxcar width: 5
Stray light correction enabled: false
XAxis mode: Wavelengths
Stop averaging: false
Number of Pixels in Spectrum: 3648
>>>>>Begin Spectral Data<<<<<
177.566	199.34
177.785	-865.02
178.005	123.29
178.225	267.76
178.445	-623.16
178.665	43.83
178.885	-57.73
179.105	88.32
179.324	85.81
179.544	60.84
179.764	57.03
179.984	77.89
180.204	69.85
180.423	45.1
180.643	53.98
180.863	55.8
181.083	36.96
181.302	46.67
181.522	67.47
181.742	61.85
181.961	92.83
182.181	104.98
182.401	62.48
182.621	13.72
182.84	-69.24
183.06	55.42
183.279	58.45
183.499	72.19
183.719	1.37
183.938	-17.46
184.158	-11.1
184.377	-7.57
184.597	13.72
184.816	52.17
185.036	56.01
185.256	61.07
185.475	39.52
185.695	36.66
185.914	34.82
186.134	46.88
186.353	38.64
186.572	42.92
186.792	55.41
187.011	50.04
187.231	50.56
187.45	50.79
187.67	67.03
187.889	70.77
188.108	80.51
188.328	102.66
188.547	111.39
188.766	136.46
188.986	111.79
189.205	110.35
189.424	100.75
189.644	107.72
189.863	130.02
190.082	135.94
190.302	127.8
190.521	95.02
190.74	82.52
190.959	83.52
191.178	82.27
191.398	97.52
191.617	83.34
191.836	109.43
192.055	70.35
192.274	41.39
192.494	66.49
192.713	101.9
192.932	156.82
193.151	184.08
193.37	108.6
193.589	94.38
193.808	232.28
194.027	340.08
194.246	-201.05
194.465	387.91
194.685	67.67
194.904	26.83
195.123	22.6
195.342	3.52
195.561	18.84
195.78	30.11
195.999	49.44
196.218	33.87
196.436	59.24
196.655	69.49
196.874	81.21
197.093	86.4
197.312	74.06
197.531	83.48
197.75	87.25
197.969	106.61
198.188	120.66
198.407	95.16
198.625	92.42
198.844	71.71
199.063	50.94
199.282	46.75
199.501	0.69
199.719	39.57
199.938	42.29
200.157	39.25
200.376	37
200.594	43.66
200.813	48.34
201.032	48.1
201.251	53.43
201.469	68.87
201.688	66.26
201.907	76.42
202.125	80.04
202.344	116.08
202.563	135.94
202.781	97.17
203	106.3
203.218	98.41
203.437	113.1
203.656	84.97
203.874	61.79
204.093	72.38
204.311	91.88
204.53	92.83
204.748	58.54
204.967	51.12
205.185	75.43
205.404	71.65
205.622	51.02
205.841	47.95
206.059	58.31
206.278	93.49
206.496	77.16
206.715	92.72
206.933	78.06
207.151	86.78
207.37	85.82
207.588	77.24
207.806	77.72
208.025	94.24
208.243	82.26
208.461	101.73
208.68	75.45
208.898	84.9
209.116	64.05
209.335	65.83
209.553	62.87
209.771	72.11
209.989	65.85
210.208	49.01
210.426	51.6
210.644	58.51
210.862	43.93
211.081	42.83
211.299	40.74
211.517	43.67
211.735	26.09
211.953	45.25
212.171	58.4
212.39	55.14
212.608	71.87
212.826	75.94
213.044	72.24
213.262	92.3
213.48	107.78
213.698	99.71
213.916	121.65
214.134	119.42
214.352	130.51
214.57	106.21
214.788	120.95
215.006	120.03
215.224	118.01
215.442	155.56
215.66	121.05
215.878	85.61
216.096	99.6
216.314	58.54
216.532	56.99
216.75	55.69
216.968	74.22
217.185	47.99
217.403	32.32
217.621	27.12
217.839	35.35
218.057	-44.88
218.275	28.8
218.492	45.88
218.71	108.72
218.928	127.06
219.146	125.5
219.363	83.21
219.581	102.21
219.799	130.86
220.017	113.86
220.234	109.33
220.452	147.95
220.67	147.49
220.887	223.98
221.105	203.26
221.323	1964.42
221.54	198.73
221.758	1672.86
221.976	718.51
222.193	148.66
222.411	184.28
222.629	214.76
222.846	144.09
223.064	-235.12
223.281	309.74
223.499	270.48
223.716	410.65
223.934	-105.3
224.151	16.83
224.369	20.53
224.586	34.37
224.804	42.44
225.021	41.88
225.239	31.71
225.456	42.74
225.674	41.88
225.891	30.07
226.108	19.49
226.326	-8.08
226.543	17.2
226.76	12.06
226.978	5.61
227.195	17.26
227.413	9.34
227.63	14.27
227.847	10.11
228.064	13.59
228.282	11.95
228.499	12.49
228.716	10.58
228.934	7.92
229.151	11.07
229.368	10.21
229.585	5.73
229.802	7.32
230.02	6.49
230.237	9.81
230.454	12.42
230.671	12.84
230.888	12.73
231.105	11.25
231.323	6.95
231.54	-2.22
231.757	-0.32
231.974	-5.16
232.191	-11.46
232.408	-10.14
232.625	-10.86
232.842	-19.99
233.059	-13.93
233.276	-14.66
233.493	-11.77
233.71	-4.46
233.927	7.69
234.144	3.26
234.361	2.77
234.578	0.03
234.795	-0.68
235.012	-8.12
235.229	-9.44
235.446	-8.73
235.663	-6.87
235.879	-7.8
236.096	-8.87
236.313	-19.11
236.53	-16.89
236.747	-11.25
236.964	-12.34
237.181	-24.04
237.397	-20.3
237.614	-22.52
237.831	-27.5
238.048	-34.1
238.264	-43.94
238.481	-46.59
238.698	-35.79
238.915	-30.37
239.131	-24.33
239.348	-17.44
239.565	-9.87
239.781	1.07
239.998	4.04
240.215	5.08
240.431	5.84
240.648	14.87
240.865	17.57
241.081	18.5
241.298	15.81
241.514	13.49
241.731	13.26
241.947	13.53
242.164	11.49
242.38	12.51
242.597	11.57
242.814	13.74
243.03	12.38
243.246	12.9
243.463	12.73
243.679	12.35
243.896	13.43
244.112	10.97
244.329	11.49
244.545	11.63
244.762	10.54
244.978	13.86
245.194	12.48
245.411	11.81
245.627	9.78
245.843	8.99
246.06	8.56
246.276	9.38
246.492	10.5
246.709	10.11
246.925	9.51
247.141	9.66
247.357	9.13
247.574	8.96
247.79	9.4
248.006	9.57
248.222	8.59
248.439	8.39
248.655	7.31
248.871	7.44
249.087	8.56
249.303	9.14
249.519	8.96
249.736	8.79
249.952	9.48
250.168	10.33
250.384	10.29
250.6	12.55
250.816	13.18
251.032	15.26
251.248	14.08
251.464	10.05
251.68	8.73
251.896	7.79
252.112	6.87
252.328	6.44
252.544	4.18
252.76	3.56
252.976	1.96
253.192	0.65
253.408	-1.72
253.624	-3.07
253.84	-3.45
254.056	-3.18
254.272	-4.24
254.487	-4.9
254.703	-4.66
254.919	-5.04
255.135	-7.56
255.351	-8.32
255.567	-1.89
255.782	-0.24
255.998	5.66
256.214	6.73
256.43	8.25
256.646	8.48
256.861	8.99
257.077	5.93
257.293	8.63
257.508	11.48
257.724	11.12
257.94	8.95
258.155	7.97
258.371	5.69
258.587	4.37
258.802	4.09
259.018	4.99
259.234	5.8
259.449	6.49
259.665	6.2
259.88	5.82
260.096	6.41
260.312	6.39
260.527	7.19
260.743	7.3
260.958	7.97
261.174	8.08
261.389	8.18
261.605	7.55
261.82	6.98
262.036	5.57
262.251	4.76
262.466	3.63
262.682	3.01
262.897	0.84
263.113	-0.2
263.328	1.38
263.543	-0.62
263.759	-2.96
263.974	-4.33
264.189	-6.7
264.405	-5.46
264.62	-3.91
264.835	-2.8
265.051	-0.42
265.266	0.31
265.481	2.22
265.696	1.89
265.912	2.36
266.127	3.2
266.342	5.99
266.557	8.02
266.773	7.33
266.988	6.74
267.203	6.13
267.418	4.93
267.633	5.32
267.848	4.75
268.064	4.31
268.279	4.15
268.494	4.81
268.709	3.55
268.924	3.57
269.139	3.26
269.354	5.29
269.569	6.69
269.784	5.25
269.999	5.03
270.214	5.23
270.429	3.04
270.644	3.36
270.859	3.34
271.074	2.79
271.289	3.79
271.504	6.27
271.719	4.88
271.934	3.1
272.149	5.5
272.363	6.08
272.578	6.62
272.793	7.29
273.008	7.48
273.223	7.56
273.438	7.63
273.653	8.07
273.867	6.25
274.082	6.12
274.297	7.96
274.512	4.99
274.726	3.29
274.941	2.74
275.156	3.41
275.371	3.45
275.585	3.57
275.8	4.48
276.015	3.15
276.229	3.55
276.444	3.41
276.659	2.28
276.873	5.44
277.088	7.35
277.302	7.91
277.517	8.94
277.732	8.16
277.946	7.62
278.161	7.37
278.375	8.17
278.59	8.66
278.804	7.74
279.019	8.05
279.233	6.44
279.448	4.86
279.662	4.42
279.877	3.78
280.091	5.03
280.306	5.74
280.52	6.47
280.735	6.1
280.949	5.52
281.163	7.12
281.378	7.71
281.592	8.14
281.806	8.12
282.021	6.96
282.235	7.2
282.449	6.13
282.664	6.05
282.878	4.91
283.092	4.34
283.307	4.66
283.521	4.29
283.735	3.94
283.949	4.27
284.164	5.29
284.378	6.51
284.592	5.68
284.806	6.7
285.02	6.89
285.234	7.93
285.449	8.44
285.663	8.81
285.877	8.53
286.091	7.43
286.305	7.49
286.519	6.88
286.733	7.05
286.947	7.93
287.161	7.62
287.375	7.48
287.589	6.19
287.803	6.44
288.017	6.7
288.231	7.09
288.445	8.36
288.659	7.61
288.873	7.79
289.087	7.61
289.301	7.18
289.515	6.7
289.729	5.92
289.943	6.61
290.157	5.89
290.371	4.86
290.584	5.23
290.798	4.85
291.012	5.44
291.226	6.18
291.44	5.65
291.654	5.61
291.867	6.37
292.081	8.5
292.295	9.17
292.509	9.57
292.722	10.53
292.936	9.61
293.15	10.43
293.364	11.6
293.577	10.48
293.791	11.47
294.005	12.59
294.218	12.74
294.432	11.53
294.645	11.77
294.859	12.49
295.073	11.97
295.286	12.78
295.5	12.3
295.713	10.73
295.927	11.85
296.14	10.71
296.354	9.75
296.568	9.12
296.781	9.8
296.994	9.79
297.208	8.8
297.421	9.1
297.635	8.34
297.848	8.26
298.062	8.79
298.275	8.28
298.489	9.02
298.702	9.3
298.915	9.82
299.129	9.46
299.342	9.97
299.555	9.39
299.769	9.53
299.982	10.83
300.195	11.52
300.409	12.5
300.622	11.76
300.835	11.35
301.048	11.49
301.262	10.95
301.475	10.4
301.688	9.7
301.901	11.29
302.115	11.04
302.328	10.63
302.541	10.44
302.754	10.21
302.967	11.27
303.18	11.68
303.393	11.29
303.607	11.18
303.82	11.99
304.033	11.77
304.246	12.49
304.459	12.61
304.672	13.24
304.885	12.66
305.098	11.57
305.311	11.99
305.524	11.7
305.737	11.2
305.95	11.9
306.163	9.7
306.376	8.23
306.589	7.59
306.802	7.39
307.015	5.96
307.228	6.71
307.44	8.2
307.653	7.54
307.866	8.44
308.079	9.89
308.292	10.78
308.505	12.93
308.718	14.36
308.93	13.62
309.143	13.82
309.356	14.08
309.569	14.45
309.781	14.32
309.994	15.37
310.207	14.6
310.42	13.48
310.632	13.25
310.845	12.98
311.058	14.69
311.27	15.93
311.483	16.38
311.696	17.1
311.908	17.33
312.121	16.53
312.333	16
312.546	16.52
312.759	17.39
312.971	17.44
313.184	17.69
313.396	15.87
313.609	15.07
313.821	15.16
314.034	14.73
314.246	13.93
314.459	14.44
314.671	13.29
314.884	13.32
315.096	12.88
315.309	11.59
315.521	11.48
315.733	10.83
315.946	11.21
316.158	11.39
316.371	12.44
316.583	11.12
316.795	11.48
317.008	12.73
317.22	12.23
317.432	12.33
317.644	11.71
317.857	13.48
318.069	14.39
318.281	14.12
318.494	12.88
318.706	11.05
318.918	11.69
319.13	12.02
319.342	12.15
319.555	12.17
319.767	13.15
319.979	13.35
320.191	12.11
320.403	11.4
320.615	10.79
320.827	10.78
321.039	11.2
321.252	12.07
321.464	11.41
321.676	11.4
321.888	12.17
322.1	11.6
322.312	14.47
322.524	13.36
322.736	14.04
322.948	14.86
323.16	15.25
323.372	14.69
323.584	14.52
323.796	13.41
324.007	12.78
324.219	14.03
324.431	14
324.643	11.98
324.855	13.21
325.067	13.89
325.279	13.45
325.491	14.3
325.702	15.14
325.914	14.94
326.126	16.31
326.338	17.69
326.55	17.89
326.761	19.43
326.973	20.87
327.185	20.52
327.396	20.66
327.608	21.3
327.82	20.79
328.032	21.63
328.243	22.64
328.455	23.87
328.666	23.32
328.878	22.78
329.09	22.61
329.301	22.64
329.513	22.01
329.725	21.8
329.936	22.52
330.148	23.49
330.359	23
330.571	22.71
330.782	21.88
330.994	22.87
331.205	22.83
331.417	22.61
331.628	22.27
331.84	23.41
332.051	22.89
332.262	23.56
332.474	22.74
332.685	23.56
332.897	24.39
333.108	25.34
333.319	25.17
333.531	24.87
333.742	24.79
333.953	25.69
334.165	24.34
334.376	25.23
334.587	25.13
334.799	25.96
335.01	25.98
335.221	26.32
335.432	26.3
335.644	27.28
335.855	28.38
336.066	29.11
336.277	28.55
336.488	29.86
336.7	29.49
336.911	29.51
337.122	29.55
337.333	29.95
337.544	29.85
337.755	28.51
337.966	28.08
338.177	27.47
338.388	26.99
338.599	27.92
338.811	28.55
339.022	29.07
339.233	28.58
339.444	27.81
339.655	27.35
339.866	27.47
340.076	28.68
340.287	28.59
340.498	29.37
340.709	29.01
340.92	28.41
341.131	27.02
341.342	26.64
341.553	26.98
341.764	27.83
341.975	27.7
342.185	27.81
342.396	27.32
342.607	26.45
342.818	26.63
343.029	26.79
343.239	27.43
343.45	27.88
343.661	27.87
343.872	27.56
344.082	26.85
344.293	27.27
344.504	27.6
344.714	28.19
344.925	29.23
345.136	29
345.346	29.26
345.557	29.02
345.768	29.49
345.978	29.07
346.189	29.29
346.399	29.46
346.61	29.29
346.821	28.84
347.031	28.96
347.242	28.98
347.452	28.42
347.663	27.41
347.873	26.8
348.084	26.75
348.294	27.61
348.504	27.46
348.715	27.72
348.925	27.24
349.136	27
349.346	26.26
349.557	25.06
349.767	24.51
349.977	25.56
350.188	25.29
350.398	24.52
350.608	23.97
350.819	23.95
351.029	23.84
351.239	23.57
351.449	23.25
351.66	23.71
351.87	24.36
352.08	24.7
352.29	24.57
352.501	25.36
352.711	26.12
352.921	26.39
353.131	26.59
353.341	26.07
353.552	26.76
353.762	27.25
353.972	26.89
354.182	26.32
354.392	26.1
354.602	25.27
354.812	25.56
355.022	25.53
355.232	25.83
355.442	25.92
355.652	26.91
355.862	25.93
356.072	25.76
356.282	26.36
356.492	26.87
356.702	27.31
356.912	27.95
357.122	27.33
357.332	27.54
357.542	27.04
357.752	26.37
357.962	26.07
358.171	26.25
358.381	26.96
358.591	26.24
358.801	26.14
359.011	25.81
359.221	25.57
359.43	25.11
359.64	24.71
359.85	24.37
360.06	24.53
360.269	24.16
360.479	24.39
360.689	23.4
360.899	23.63
361.108	23.68
361.318	23.8
361.528	23.76
361.737	24.1
361.947	24.37
362.156	24.98
362.366	24.89
362.576	24.74
362.785	24.76
362.995	25.34
363.204	24.82
363.414	25.23
363.623	25.07
363.833	24.94
364.042	24.9
364.252	24.78
364.461	24.51
364.671	24.82
364.88	24.92
365.09	25.03
365.299	24.63
365.509	24.76
365.718	23.9
365.927	23.59
366.137	23.58
366.346	23.14
366.555	22.82
366.765	22.44
366.974	21.67
367.183	21.61
367.393	21.83
367.602	21.65
367.811	21.95
368.021	21.7
368.23	21.64
368.439	21.43
368.648	22.27
368.857	21.84
369.067	21.67
369.276	21.57
369.485	20.92
369.694	20.69
369.903	20.85
370.112	20.59
370.321	21.69
370.531	21.91
370.74	21.72
370.949	21.26
371.158	21.83
371.367	22.19
371.576	22.35
371.785	22.81
371.994	22.13
372.203	22.23
372.412	22.05
372.621	21.32
372.83	21.46
373.039	22.08
373.248	21.76
373.457	21.27
373.666	20.56
373.874	20.61
374.083	20.62
374.292	20.6
374.501	20.19
374.71	19.56
374.919	19.51
375.128	18.95
375.336	18.72
375.545	19.07
375.754	19.04
375.963	19.16
376.171	19.09
376.38	19.25
376.589	19.13
376.798	18.78
377.006	19.74
377.215	19.46
377.424	19.64
377.632	19.46
377.841	19.23
378.05	18.85
378.258	19.45
378.467	19.44
378.675	19.09
378.884	18.84
379.093	18.87
379.301	18.36
379.51	18.34
379.718	18.06
379.927	18.4
380.135	18.67
380.344	19.13
380.552	18.17
380.761	17.57
380.969	17.79
381.177	18.46
381.386	18.38
381.594	18.78
381.803	18.73
382.011	18.33
382.219	17.89
382.428	17.48
382.636	17
382.845	17.4
383.053	17.71
383.261	17.54
383.469	16.61
383.678	16.58
383.886	16.4
384.094	16.25
384.302	16.45
384.511	16.88
384.719	16.85
384.927	16.82
385.135	16.65
385.343	16.79
385.552	16.51
385.76	16.44
385.968	16.39
386.176	15.82
386.384	15.92
386.592	15.65
386.8	14.53
387.008	14.43
387.216	14.69
387.424	14.31
387.633	14.05
387.841	13.91
388.049	14.12
388.257	14.02
388.465	13.88
388.672	13.43
388.88	13.29
389.088	13.67
389.296	13.53
389.504	12.96
389.712	12.98
389.92	12.93
390.128	13.11
390.336	13.04
390.544	12.91
390.751	13.01
390.959	12.94
391.167	13.29
391.375	13.37
391.583	13.35
391.79	13.45
391.998	13.74
392.206	13.85
392.414	13.34
392.621	13.34
392.829	13.47
393.037	13.69
393.244	13.97
393.452	13.79
393.66	13.52
393.867	13.34
394.075	13.54
394.283	13.28
394.49	13.02
394.698	13.18
394.905	13.09
395.113	12.7
395.32	12.5
395.528	12.24
395.735	12.09
395.943	11.95
396.15	12.07
396.358	11.69
396.565	11.68
396.773	11.68
396.98	11.79
397.188	11.87
397.395	12.08
397.602	11.96
397.81	12.02
398.017	12.17
398.225	12.46
398.432	12.47
398.639	12.62
398.847	12.39
399.054	12.22
399.261	11.98
399.468	11.9
399.676	12.03
399.883	11.96
400.09	11.9
400.297	11.61
400.505	11.17
400.712	10.72
400.919	10.16
401.126	10.42
401.333	10.65
401.54	10.72
401.748	10.76
401.955	10.43
402.162	10.51
402.369	10.48
402.576	10.86
402.783	11.13
402.99	11.1
403.197	11.57
403.404	11.15
403.611	10.97
403.818	10.87
404.025	10.78
404.232	10.65
404.439	10.78
404.646	10.62
404.853	10.45
405.06	10.27
405.267	10.51
405.474	10.41
405.681	10.51
405.887	10.52
406.094	10.41
406.301	10.46
406.508	10.54
406.715	10.05
406.922	10.12
407.128	10.24
407.335	10.48
407.542	10.48
407.749	10.41
407.955	10.61
408.162	10.69
408.369	10.42
408.575	10.26
408.782	10.23
408.989	10.29
409.195	10.37
409.402	10.26
409.609	9.99
409.815	9.87
410.022	9.94
410.228	9.96
410.435	9.99
410.642	10.47
410.848	10.43
411.055	10.34
411.261	10.31
411.468	10.13
411.674	9.99
411.881	10.03
412.087	9.93
412.294	9.87
412.5	9.88
412.706	9.68
412.913	9.41
413.119	9.55
413.326	9.59
413.532	9.81
413.738	10
413.945	10.08
414.151	9.99
414.357	10.21
414.564	10.21
414.77	9.76
414.976	9.73
415.182	9.8
415.389	9.53
415.595	9.47
415.801	9.09
416.007	9.01
416.214	8.77
416.42	8.99
416.626	8.73
416.832	8.72
417.038	9.09
417.244	9.18
417.45	9.15
417.657	9.21
417.863	9.23
418.069	9.51
418.275	9.45
418.481	9.6
418.687	9.54
418.893	9.82
419.099	9.83
419.305	9.67
419.511	9.59
419.717	9.61
419.923	9.56
420.129	9.58
420.335	9.53
420.541	9.49
420.746	9.43
420.952	9.38
421.158	9.21
421.364	9.13
421.57	9.03
421.776	9
421.982	8.85
422.187	8.7
422.393	8.67
422.599	8.72
422.805	8.81
423.01	8.87
423.216	8.91
423.422	8.94
423.628	9
423.833	9.07
424.039	9.11
424.245	9.18
424.45	9.31
424.656	9.43
424.862	9.22
425.067	9.12
425.273	9.09
425.478	8.95
425.684	8.89
425.889	8.83
426.095	9.04
426.301	9
426.506	8.97
426.712	9.02
426.917	9.07
427.123	9.27
427.328	9.48
427.533	9.5
427.739	9.71
427.944	9.91
428.15	9.89
428.355	9.5
428.561	9.5
428.766	9.62
428.971	9.62
429.177	9.52
429.382	9.53
429.587	9.29
429.793	9.23
429.998	9.14
430.203	8.89
430.408	8.99
430.614	8.89
430.819	8.92
431.024	8.83
431.229	8.67
431.434	8.35
431.64	8.46
431.845	8.51
432.05	8.68
432.255	8.73
432.46	8.78
432.665	8.73
432.87	8.88
433.076	8.89
433.281	8.78
433.486	8.83
433.691	8.95
433.896	8.67
434.101	8.5
434.306	8.29
434.511	8.1
434.716	7.92
434.921	7.86
435.126	7.77
435.331	7.82
435.535	8.04
435.74	7.98
435.945	8.06
436.15	7.99
436.355	8.18
436.56	8.27
436.765	8.22
436.97	8.48
437.174	8.5
437.379	8.59
437.584	8.58
437.789	8.52
437.993	8.69
438.198	8.5
438.403	8.72
438.608	8.71
438.812	8.79
439.017	8.91
439.222	8.92
439.426	8.81
439.631	8.87
439.836	8.78
440.04	8.78
440.245	8.76
440.45	8.85
440.654	8.83
440.859	8.73
441.063	8.63
441.268	8.61
441.472	8.46
441.677	8.6
441.881	8.6
442.086	8.63
442.29	8.56
442.495	8.45
442.699	8.42
442.904	8.39
443.108	8.35
443.312	8.35
443.517	8.28
443.721	8.27
443.925	8.25
444.13	8.23
444.334	8.15
444.538	8.26
444.743	8.25
444.947	8.3
445.151	8.33
445.356	8.54
445.56	8.65
445.764	8.81
445.968	8.77
446.173	8.79
446.377	8.65
446.581	8.79
446.785	8.74
446.989	8.79
447.193	8.73
447.398	8.79
447.602	8.74
447.806	8.69
448.01	8.52
448.214	8.65
448.418	8.39
448.622	8.32
448.826	8.18
449.03	8.21
449.234	8.15
449.438	8.31
449.642	8.1
449.846	7.95
450.05	7.71
450.254	7.78
450.458	7.58
450.662	7.89
450.866	8.18
451.069	8.35
451.273	8.23
451.477	8.31
451.681	8.09
451.885	8.36
452.089	8.28
452.292	8.42
452.496	8.42
452.7	8.51
452.904	8.41
453.107	8.12
453.311	8.08
453.515	8.13
453.719	8.09
453.922	8.13
454.126	7.87
454.33	7.93
454.533	7.91
454.737	7.9
454.94	7.96
455.144	8.09
455.348	8.14
455.551	7.93
455.755	7.96
455.958	8.02
456.162	8.02
456.365	8.17
456.569	8.2
456.772	8.38
456.976	8.34
457.179	8.11
457.383	8.06
457.586	8.2
457.79	8.45
457.993	8.5
458.196	8.29
458.4	8.3
458.603	8.14
458.807	8.15
459.01	8.07
459.213	8.13
459.417	8.28
459.62	8.14
459.823	8.01
460.026	7.91
460.23	7.81
460.433	7.85
460.636	7.95
460.839	7.92
461.042	7.9
461.246	7.91
461.449	7.86
461.652	7.81
461.855	7.98
462.058	8.1
462.261	8.1
462.464	8.08
462.668	8.22
