Data from CB_116_Reflection_3.txt Node
Date: Sat Nov 14 19:06:58 EST 2015
User: robert
Spectrometer: USB4E03001
Autoset integration time: false
Trigger mode: 4
Integration Time (sec): 1.000000E-1
Scans to average: 15
Electric dark correction enabled: true
Nonlinearity correction enabled: false
Boxcar width: 5
Stray light correction enabled: false
XAxis mode: Wavelengths
Stop averaging: false
Number of Pixels in Spectrum: 3648
>>>>>Begin Spectral Data<<<<<
177.566	42.89
177.785	13.54
178.005	20.61
178.225	42.55
178.445	69.51
178.665	131.75
178.885	269.14
179.105	13.1
179.324	19.63
179.544	-2108.77
179.764	34.71
179.984	30.87
180.204	13.09
180.423	42.64
180.643	48.44
180.863	67.7
181.083	60.44
181.302	48.62
181.522	-416.11
181.742	-271.41
181.961	-30.4
182.181	-155.62
182.401	-40.04
182.621	-74.22
182.84	-111.13
183.06	-39.9
183.279	583.41
183.499	132.15
183.719	88.68
183.938	12.68
184.158	38.46
184.377	-43.99
184.597	-45.81
184.816	16.42
185.036	-19.84
185.256	0.66
185.475	0.07
185.695	-2.84
185.914	12.53
186.134	-14.76
186.353	-14.57
186.572	-4.61
186.792	16.14
187.011	43.42
187.231	-71.72
187.45	-31.9
187.67	-172.91
187.889	-142.81
188.108	-259.56
188.328	-213.48
188.547	-87.82
188.766	-532.12
188.986	1154.04
189.205	287.24
189.424	265.11
189.644	496.94
189.863	541.44
190.082	364.81
190.302	274.75
190.521	247.93
190.74	200.21
190.959	191.7
191.178	113.34
191.398	104.47
191.617	63.64
191.836	52.12
192.055	34.9
192.274	9.94
192.494	-123.92
192.713	572.21
192.932	155.35
193.151	-64.29
193.37	-32.27
193.589	-107.74
193.808	-107.13
194.027	-125.56
194.246	-124.07
194.465	-91.32
194.685	-117.38
194.904	-278.88
195.123	-155.28
195.342	-130.24
195.561	-129.45
195.78	-232.31
195.999	-221.8
196.218	-62.12
196.436	-16
196.655	-22.85
196.874	71.76
197.093	30.97
197.312	-2048.33
197.531	39.64
197.75	42.76
197.969	47.94
198.188	1.07
198.407	-26.61
198.625	45.98
198.844	23.89
199.063	7.08
199.282	57.23
199.501	129.97
199.719	377.27
199.938	-136.28
200.157	-63.33
200.376	-14.84
200.594	18.45
200.813	10.12
201.032	24.82
201.251	28.75
201.469	48.31
201.688	59.59
201.907	71.88
202.125	77.34
202.344	88.73
202.563	133.55
202.781	131.21
203	126.11
203.218	162.26
203.437	221.62
203.656	323.86
203.874	834.42
204.093	539.95
204.311	-76.64
204.53	-28.33
204.748	-11.71
204.967	-11.75
205.185	41.94
205.404	-11.52
205.622	-65.41
205.841	-120.34
206.059	-22.2
206.278	-43.78
206.496	-0.09
206.715	-79.53
206.933	-256.92
207.151	-247.05
207.37	-268.68
207.588	-393.61
207.806	-206.16
208.025	-211.89
208.243	-72.27
208.461	35.69
208.68	-60.58
208.898	-13.71
209.116	-116.61
209.335	100.08
209.553	235.79
209.771	185.16
209.989	286
210.208	112.99
210.426	117.99
210.644	41.05
210.862	22.95
211.081	84.76
211.299	-64.76
211.517	-212.9
211.735	-40.58
211.953	-177.78
212.171	103.87
212.39	79.5
212.608	40.37
212.826	-30.44
213.044	-200.63
213.262	-634.09
213.48	8.58
213.698	91.64
213.916	75.56
214.134	7.82
214.352	11.61
214.57	86.42
214.788	742.76
215.006	1625.29
215.224	-1653.62
215.442	110.5
215.66	311.49
215.878	-392.54
216.096	-74.68
216.314	-8.15
216.532	6.45
216.75	-42.72
216.968	-50.51
217.185	-100.22
217.403	-172.34
217.621	-61.1
217.839	-111.08
218.057	-88.87
218.275	-633.31
218.492	1242.93
218.71	1154.04
218.928	-5230.46
219.146	-274.86
219.363	-27.14
219.581	-18.91
219.799	-32.32
220.017	-24.86
220.234	81.05
220.452	33.81
220.67	34.45
220.887	-72.11
221.105	-33.59
221.323	-190.5
221.54	-87.73
221.758	-213.81
221.976	221.83
222.193	180.3
222.411	86.14
222.629	-389.67
222.846	383.12
223.064	-647.7
223.281	192.58
223.499	-327.3
223.716	326.25
223.934	-85.9
224.151	-376.51
224.369	131.03
224.586	125.23
224.804	38.83
225.021	27.64
225.239	-43.86
225.456	-80.12
225.674	-64.16
225.891	-75.8
226.108	-104.04
226.326	-56.77
226.543	-53.49
226.76	-25.97
226.978	-25.93
227.195	-23.67
227.413	-26.24
227.63	-15.95
227.847	-2.47
228.064	-4.4
228.282	2.68
228.499	5.77
228.716	4.69
228.934	6.73
229.151	5.63
229.368	6.65
229.585	6.44
229.802	9.46
230.02	10.56
230.237	9.88
230.454	9.67
230.671	9.65
230.888	7.78
231.105	9.5
231.323	8.46
231.54	7.31
231.757	4.48
231.974	3.6
232.191	1.72
232.408	-1.06
232.625	-9.26
232.842	4.12
233.059	7
233.276	12.27
233.493	8.1
233.71	6.74
233.927	-1.06
234.144	4.35
234.361	11.54
234.578	3.96
234.795	7.67
235.012	9.48
235.229	4.43
235.446	1.24
235.663	0.65
235.879	4.11
236.096	3.69
236.313	12.6
236.53	8.99
236.747	1.75
236.964	7.26
237.181	3.38
237.397	9.36
237.614	7.67
237.831	2.37
238.048	2.24
238.264	0.26
238.481	6.84
238.698	12.67
238.915	13.93
239.131	14.54
239.348	14.42
239.565	15.26
239.781	6.64
239.998	8.46
240.215	10.46
240.431	9.66
240.648	11.81
240.865	10.51
241.081	9.35
241.298	8.03
241.514	7.79
241.731	9.16
241.947	10.55
242.164	10.31
242.38	9.16
242.597	10.23
242.814	10.75
243.03	10.27
243.246	8.32
243.463	5.09
243.679	5.98
243.896	4.92
244.112	1.48
244.329	0.83
244.545	3.83
244.762	4.24
244.978	0.26
245.194	1.47
245.411	1.77
245.627	3.11
245.843	7.23
246.06	7.77
246.276	10.27
246.492	11.24
246.709	10.59
246.925	10.46
247.141	11.33
247.357	12.76
247.574	12.36
247.79	11.64
248.006	12.32
248.222	12.2
248.439	11.31
248.655	10.3
248.871	10.47
249.087	10.64
249.303	11.5
249.519	11.08
249.736	10.34
249.952	9.72
250.168	9.21
250.384	8.52
250.6	7.79
250.816	8.94
251.032	10.03
251.248	7.84
251.464	8.52
251.68	6.03
251.896	5.93
252.112	5.15
252.328	4.08
252.544	5.73
252.76	4.97
252.976	6.79
253.192	7.14
253.408	5.37
253.624	3.47
253.84	1.55
254.056	3.21
254.272	2.56
254.487	2.55
254.703	5.32
254.919	7.32
255.135	7.13
255.351	4.2
255.567	4.35
255.782	5.45
255.998	6.99
256.214	8.17
256.43	7.19
256.646	7.43
256.861	9.52
257.077	8.74
257.293	4.29
257.508	5.45
257.724	2.55
257.94	1.59
258.155	1.65
258.371	4.35
258.587	5.18
258.802	4.06
259.018	4.25
259.234	3.97
259.449	4.42
259.665	6.12
259.88	6.2
260.096	7.03
260.312	7.21
260.527	7.39
260.743	7.08
260.958	6.73
261.174	7.89
261.389	7.61
261.605	7.17
261.82	6.32
262.036	5.2
262.251	5.67
262.466	5.8
262.682	4.88
262.897	4.63
263.113	4.78
263.328	5.7
263.543	4.75
263.759	3.99
263.974	6.06
264.189	6.91
264.405	7.46
264.62	5.28
264.835	6.97
265.051	9.01
265.266	9.27
265.481	9.31
265.696	8.62
265.912	7.87
266.127	10.11
266.342	7.47
266.557	7.74
266.773	7.31
266.988	7.33
267.203	5.63
267.418	6.19
267.633	5.08
267.848	5.13
268.064	5.02
268.279	5.15
268.494	4.45
268.709	4.93
268.924	5.93
269.139	6.55
269.354	7.42
269.569	7.7
269.784	7.33
269.999	8.56
270.214	8.31
270.429	8.35
270.644	8.08
270.859	7.94
271.074	8.16
271.289	8.4
271.504	8.7
271.719	8.68
271.934	8.88
272.149	9.06
272.363	9.24
272.578	9.43
272.793	9.35
273.008	9.13
273.223	9.54
273.438	8.49
273.653	6.43
273.867	5.54
274.082	5.76
274.297	5.3
274.512	4.92
274.726	3.29
274.941	2.49
275.156	1.39
275.371	2.86
275.585	1.86
275.8	1.74
276.015	3.05
276.229	4.17
276.444	4.19
276.659	5.22
276.873	4.59
277.088	5.77
277.302	6.21
277.517	6.92
277.732	6.04
277.946	5.5
278.161	8.55
278.375	7.91
278.59	7.62
278.804	6.64
279.019	6.36
279.233	7.29
279.448	7.97
279.662	9.18
279.877	10.35
280.091	11.36
280.306	10.45
280.52	10.02
280.735	9.99
280.949	10.2
281.163	10.89
281.378	9.13
281.592	8.31
281.806	7.32
282.021	6.38
282.235	5.39
282.449	4.38
282.664	6.73
282.878	3.71
283.092	5.06
283.307	5.3
283.521	4.28
283.735	6.68
283.949	6.12
284.164	4.98
284.378	4.14
284.592	4.41
284.806	4.1
285.02	3.05
285.234	5.53
285.449	5.6
285.663	4.83
285.877	5.73
286.091	5
286.305	5.73
286.519	7.98
286.733	8.15
286.947	9.08
287.161	10.28
287.375	10.3
287.589	10.15
287.803	10.03
288.017	10.36
288.231	9.95
288.445	11.11
288.659	10.74
288.873	8.24
289.087	8.89
289.301	8.83
289.515	7.75
289.729	7.47
289.943	7.11
290.157	8.1
290.371	7.69
290.584	8.63
290.798	7.85
291.012	8.11
291.226	8.37
291.44	9.23
291.654	7.94
291.867	8.74
292.081	9.47
292.295	11.09
292.509	10.12
292.722	11.78
292.936	9.81
293.15	8.9
293.364	8.12
293.577	8.81
293.791	6.87
294.005	7.44
294.218	6.39
294.432	5.95
294.645	5.78
294.859	5.96
295.073	4.45
295.286	5.94
295.5	5.65
295.713	6
295.927	5.99
296.14	6.31
296.354	6.32
296.568	7.37
296.781	7.34
296.994	6.68
297.208	6.35
297.421	6.64
297.635	5.79
297.848	5.56
298.062	6.37
298.275	6.05
298.489	7.67
298.702	6.88
298.915	6.57
299.129	7.51
299.342	8.17
299.555	7.7
299.769	7.51
299.982	8.36
300.195	9.23
300.409	7.73
300.622	8.64
300.835	6.87
301.048	8
301.262	7.56
301.475	6.48
301.688	5.87
301.901	6.91
302.115	8
302.328	7.89
302.541	6.63
302.754	7.32
302.967	6.51
303.18	7.15
303.393	6.82
303.607	6.4
303.82	7.58
304.033	6.67
304.246	5.49
304.459	3.56
304.672	2.59
304.885	4.34
305.098	4.27
305.311	5.05
305.524	5.74
305.737	6.22
305.95	6.92
306.163	6.15
306.376	6.18
306.589	7.38
306.802	9.39
307.015	9.68
307.228	10.01
307.44	10.28
307.653	10.03
307.866	9.02
308.079	10.5
308.292	10.68
308.505	11.44
308.718	11.78
308.93	12.12
309.143	10.63
309.356	12.05
309.569	11.42
309.781	10.97
309.994	12.08
310.207	12.43
310.42	11.4
310.632	10.24
310.845	9.85
311.058	9.99
311.27	9.89
311.483	10.39
311.696	8.88
311.908	7.98
312.121	7.57
312.333	6.59
312.546	6.48
312.759	5.5
312.971	7.37
313.184	7.05
313.396	5.08
313.609	4.66
313.821	5.18
314.034	6.51
314.246	7.98
314.459	9.06
314.671	8.64
314.884	9.45
315.096	10.79
315.309	10.42
315.521	10.4
315.733	11.93
315.946	10.38
316.158	10.42
316.371	9.57
316.583	9.93
316.795	10.62
317.008	11.2
317.22	8.39
317.432	8.04
317.644	6.96
317.857	7.51
318.069	8.3
318.281	9.58
318.494	9.21
318.706	11.12
318.918	11.09
319.13	10.6
319.342	11.02
319.555	12.95
319.767	12.72
319.979	11.56
320.191	11.91
320.403	11.65
320.615	11.94
320.827	12
321.039	10.6
321.252	10.48
321.464	10.78
321.676	10.43
321.888	10.81
322.1	10.91
322.312	12.63
322.524	12.92
322.736	12.72
322.948	13.49
323.16	12.56
323.372	12.87
323.584	13.48
323.796	14.64
324.007	14.85
324.219	13.68
324.431	13.71
324.643	13.2
324.855	12.35
325.067	12.6
325.279	11.77
325.491	12.37
325.702	12.9
325.914	12.19
326.126	10.91
326.338	11.05
326.55	12.04
326.761	12.24
326.973	12.92
327.185	13.38
327.396	14.23
327.608	15.04
327.82	15.55
328.032	14.79
328.243	16.52
328.455	16.37
328.666	16.51
328.878	17.57
329.09	18.34
329.301	17.39
329.513	16.77
329.725	17.53
329.936	17.78
330.148	18.59
330.359	20.54
330.571	20.04
330.782	21.13
330.994	21.76
331.205	21.4
331.417	20.58
331.628	22.44
331.84	22.31
332.051	20.75
332.262	20.15
332.474	19.42
332.685	18.66
332.897	18.67
333.108	18.86
333.319	19.1
333.531	17.89
333.742	18.33
333.953	16.91
334.165	19.07
334.376	20.05
334.587	20.02
334.799	20.15
335.01	20.34
335.221	20.47
335.432	20.03
335.644	19.48
335.855	20.44
336.066	21.17
336.277	22.84
336.488	22.1
336.7	22.56
336.911	22.94
337.122	23.94
337.333	22.95
337.544	21.89
337.755	21.62
337.966	22.07
338.177	22.77
338.388	22.97
338.599	22.79
338.811	22.79
339.022	22.5
339.233	21.51
339.444	20.69
339.655	20.93
339.866	21.72
340.076	23.56
340.287	23.72
340.498	23.43
340.709	22.48
340.92	22.41
341.131	22.19
341.342	21.83
341.553	23.38
341.764	24.24
341.975	24.12
342.185	24
342.396	23.37
342.607	23.07
342.818	22.77
343.029	23.36
343.239	22.64
343.45	22.94
343.661	22.89
343.872	21.86
344.082	20.53
344.293	20.92
344.504	20.78
344.714	19.61
344.925	19.94
345.136	20.04
345.346	19.74
345.557	19.75
345.768	19.19
345.978	19.63
346.189	20.41
346.399	20.94
346.61	20.93
346.821	21.48
347.031	22.32
347.242	22.62
347.452	22.78
347.663	23.15
347.873	22.96
348.084	22.57
348.294	22.22
348.504	22.25
348.715	22.13
348.925	22.03
349.136	21.03
349.346	20.61
349.557	20.29
349.767	20.26
349.977	19.74
350.188	20.81
350.398	21.75
350.608	22.31
350.819	21.74
351.029	21.16
351.239	21.7
351.449	22.12
351.66	22.7
351.87	22.79
352.08	22.49
352.29	22.53
352.501	21.3
352.711	21.6
352.921	21.05
353.131	21.23
353.341	21.71
353.552	21.29
353.762	21.85
353.972	20.38
354.182	20.35
354.392	20.88
354.602	20.28
354.812	20.26
355.022	19.96
355.232	20.52
355.442	20.8
355.652	20.36
355.862	20.02
356.072	19.63
356.282	20.84
356.492	20.32
356.702	20.56
356.912	21.61
357.122	21.81
357.332	21.75
357.542	21.34
357.752	21.11
357.962	21.69
358.171	22.87
358.381	23.23
358.591	22.5
358.801	22.76
359.011	22.47
359.221	22.14
359.43	22.77
359.64	22.88
359.85	22.71
360.06	22.05
360.269	22.42
360.479	21.65
360.689	20.96
360.899	21.44
361.108	21.66
361.318	21.26
361.528	20.83
361.737	20.07
361.947	19.68
362.156	20.05
362.366	20.92
362.576	20.51
362.785	20.89
362.995	20.97
363.204	20.67
363.414	20.85
363.623	21.2
363.833	21.61
364.042	22.01
364.252	21.88
364.461	20.81
364.671	20.45
364.88	20.54
365.09	19.85
365.299	20.64
365.509	20.9
365.718	20.59
365.927	20.04
366.137	20.05
366.346	19.88
366.555	20.36
366.765	20.61
366.974	20.24
367.183	20.2
367.393	20.28
367.602	19.51
367.811	19.61
368.021	18.76
368.23	19.01
368.439	18.51
368.648	18.8
368.857	18.54
369.067	19.18
369.276	19.63
369.485	19.6
369.694	19.57
369.903	20.01
370.112	19.38
370.321	19.96
370.531	19.82
370.74	20.54
370.949	20.5
371.158	21.2
371.367	20.92
371.576	20.68
371.785	20.35
371.994	20.07
372.203	19.1
372.412	18.27
372.621	18.35
372.83	18.19
373.039	18.15
373.248	18.1
373.457	17.61
373.666	17.68
373.874	17.84
374.083	18.06
374.292	18.73
374.501	19.45
374.71	20.64
374.919	20.69
375.128	21.1
375.336	20.53
375.545	20.18
375.754	19.78
375.963	19.34
376.171	19.13
376.38	19.37
376.589	19.5
376.798	19.75
377.006	19.62
377.215	19.16
377.424	18.91
377.632	19.44
377.841	19.69
378.05	19.73
378.258	20.23
378.467	19.96
378.675	19.16
378.884	18.73
379.093	18.62
379.301	18.86
379.51	18.89
379.718	19.34
379.927	19.64
380.135	19.36
380.344	19.45
380.552	19.13
380.761	19.61
380.969	20.47
381.177	20.33
381.386	19.63
381.594	19.44
381.803	19.68
382.011	18.57
382.219	17.48
382.428	17.51
382.636	18.02
382.845	18.02
383.053	17.63
383.261	16.98
383.469	17.12
383.678	17.64
383.886	17.43
384.094	17.62
384.302	18.59
384.511	18.82
384.719	18.75
384.927	18.51
385.135	18.49
385.343	18.68
385.552	18.78
385.76	19.05
385.968	18.7
386.176	18.69
386.384	18.42
386.592	17.9
386.8	17.77
387.008	17.96
387.216	17.45
387.424	17.63
387.633	17.17
387.841	17.02
388.049	16.54
388.257	16.5
388.465	16.27
388.672	15.92
388.88	15.74
389.088	15.54
389.296	15.15
389.504	15.24
389.712	15.04
389.92	14.97
390.128	15.04
390.336	15.29
390.544	15.52
390.751	15.7
390.959	16.26
391.167	16.12
391.375	16.1
391.583	16.27
391.79	16.2
391.998	16.4
392.206	16.75
392.414	16.72
392.621	16.53
392.829	16.57
393.037	16.22
393.244	15.78
393.452	16.25
393.66	16.54
393.867	16.49
394.075	16.76
394.283	16.24
394.49	16.17
394.698	16.2
394.905	16.26
395.113	16.05
395.32	16.54
395.528	16.91
395.735	16.67
395.943	16.58
396.15	16.28
396.358	16.61
396.565	16.87
396.773	16.66
396.98	16.82
397.188	16.4
397.395	16.48
397.602	16.32
397.81	15.89
398.017	15.68
398.225	15.56
398.432	15.99
398.639	15.46
398.847	15.11
399.054	14.85
399.261	14.43
399.468	14.66
399.676	14.78
399.883	14.55
400.09	14.71
400.297	14.66
400.505	14.83
400.712	14.94
400.919	14.81
401.126	15.21
401.333	15.72
401.54	16.33
401.748	16.38
401.955	16.31
402.162	16.68
402.369	16.55
402.576	16.97
402.783	16.97
402.99	16.72
403.197	16.94
403.404	16.86
403.611	16.77
403.818	16.44
404.025	16.64
404.232	16.49
404.439	16.35
404.646	16.68
404.853	16.35
405.06	16.3
405.267	16.35
405.474	16.07
405.681	16.09
405.887	16.07
406.094	16.44
406.301	16.43
406.508	16.52
406.715	16.83
406.922	16.59
407.128	16.72
407.335	16.81
407.542	16.84
407.749	17.02
407.955	17.15
408.162	17.24
408.369	17.12
408.575	17.01
408.782	17.22
408.989	17.15
409.195	17.35
409.402	17.58
409.609	17.55
409.815	17.68
410.022	17.89
410.228	17.65
410.435	17.76
410.642	17.91
410.848	17.98
411.055	17.93
411.261	17.93
411.468	17.87
411.674	17.84
411.881	17.99
412.087	18.23
412.294	18.21
412.5	18.37
412.706	18.47
412.913	18.62
413.119	18.87
413.326	18.78
413.532	18.75
413.738	18.84
413.945	18.68
414.151	18.18
414.357	18.09
414.564	18.15
414.77	18.1
414.976	17.86
415.182	17.33
415.389	17.18
415.595	17.4
415.801	17.19
416.007	17.14
416.214	17.33
416.42	17.83
416.626	17.94
416.832	17.9
417.038	18.14
417.244	18.46
417.45	18.79
417.657	18.88
417.863	18.85
418.069	19.1
418.275	19.07
418.481	19.23
418.687	19.1
418.893	19.06
419.099	19.09
419.305	18.96
419.511	18.96
419.717	18.94
419.923	18.99
420.129	19.14
420.335	19.07
420.541	19.13
420.746	19.17
420.952	19.21
421.158	19.12
421.364	19.06
421.57	19.13
421.776	19.07
421.982	19.06
422.187	19.13
422.393	19.14
422.599	19.18
422.805	19.09
423.01	18.92
423.216	18.89
423.422	18.94
423.628	18.99
423.833	19.02
424.039	19.13
424.245	19.06
424.45	18.89
424.656	18.83
424.862	18.83
425.067	18.95
425.273	19.05
425.478	19.08
425.684	18.96
425.889	19.16
426.095	19.02
426.301	18.86
426.506	18.97
426.712	18.98
426.917	18.92
427.123	18.78
427.328	18.57
427.533	18.59
427.739	18.67
427.944	18.83
428.15	18.73
428.355	18.92
428.561	18.91
428.766	18.94
428.971	19.06
429.177	19.06
429.382	19.36
429.587	19.66
429.793	19.59
429.998	19.59
430.203	19.76
430.408	19.58
430.614	19.53
430.819	19.42
431.024	18.99
431.229	18.77
431.434	18.76
431.64	18.71
431.845	18.49
432.05	18.57
432.255	18.6
432.46	18.61
432.665	18.76
432.87	18.91
433.076	19.04
433.281	19.39
433.486	19.75
433.691	19.78
433.896	19.73
434.101	19.84
434.306	19.66
434.511	19.63
434.716	19.51
434.921	19.58
435.126	19.51
435.331	19.41
435.535	19.41
435.74	19.2
435.945	19.28
436.15	19.39
436.355	19.53
436.56	19.65
436.765	19.78
436.97	19.75
437.174	19.63
437.379	19.63
437.584	19.69
437.789	19.61
437.993	19.83
438.198	19.77
438.403	19.87
438.608	19.94
438.812	19.98
439.017	19.88
439.222	19.86
439.426	19.79
439.631	19.83
439.836	19.82
440.04	19.86
440.245	19.79
440.45	19.75
440.654	19.7
440.859	19.35
441.063	19.36
441.268	19.38
441.472	19.36
441.677	19.51
441.881	19.54
442.086	19.53
442.29	19.62
442.495	19.49
442.699	19.57
442.904	19.55
443.108	19.8
443.312	19.9
443.517	19.89
443.721	19.98
443.925	19.97
444.13	20.09
444.334	20.18
444.538	19.83
444.743	19.82
444.947	19.73
445.151	19.59
445.356	19.52
445.56	19.33
445.764	19.26
445.968	19.13
446.173	18.99
446.377	18.78
446.581	18.71
446.785	18.72
446.989	18.7
447.193	18.68
447.398	18.54
447.602	18.56
447.806	18.61
448.01	18.61
448.214	18.77
448.418	18.75
448.622	18.61
448.826	18.64
449.03	18.81
449.234	18.75
449.438	18.72
449.642	18.86
449.846	18.94
450.05	18.81
450.254	18.65
450.458	18.6
450.662	18.47
450.866	18.58
451.069	18.63
451.273	18.61
451.477	18.72
451.681	18.72
451.885	18.67
452.089	18.62
452.292	18.72
452.496	18.79
452.7	18.54
452.904	18.79
453.107	18.91
453.311	18.84
453.515	18.88
453.719	18.91
453.922	18.92
454.126	19.13
454.33	19.12
454.533	19.1
454.737	19.32
454.94	19.45
455.144	19.4
455.348	19.37
455.551	19.4
455.755	19.32
455.958	19.46
456.162	19.41
456.365	19.21
456.569	19.08
456.772	19.17
456.976	19.03
457.179	19.13
457.383	19.14
457.586	19.01
457.79	18.99
457.993	19.04
458.196	18.88
458.4	18.85
458.603	18.92
458.807	18.99
459.01	18.93
