Data from 2938551_Reflection_1.txt Node
Date: Sun Jun 14 23:58:31 EDT 2015
User: robert
Spectrometer: USB4E03002
Autoset integration time: false
Trigger mode: 4
Integration Time (sec): 1.000000E-1
Scans to average: 10
Electric dark correction enabled: true
Nonlinearity correction enabled: false
Boxcar width: 5
Stray light correction enabled: false
XAxis mode: Wavelengths
Stop averaging: false
Number of Pixels in Spectrum: 3648
>>>>>Begin Spectral Data<<<<<
177.575	42.82
177.794	49.47
178.014	62.41
178.233	60.67
178.452	52.4
178.672	27.11
178.891	58.51
179.11	4.1
179.33	-153.22
179.549	-51.61
179.768	-24.74
179.987	-26.02
180.207	-31.9
180.426	-107.41
180.645	-52.43
180.864	-139.77
181.084	-165.01
181.303	-546.96
181.522	579.13
181.741	-223.33
181.96	418.75
182.179	62.33
182.398	13.57
182.618	-33.27
182.837	277.4
183.056	136.84
183.275	168.14
183.494	-552.65
183.713	202.46
183.932	-106.95
184.151	-15.5
184.37	5.55
184.589	-69.42
184.808	-22.33
185.027	57.07
185.246	46.43
185.465	79.95
185.684	117.49
185.903	163.12
186.122	153.67
186.341	630
186.56	681.89
186.779	-174.68
186.998	-115.5
187.216	-56.13
187.435	-24.94
187.654	32.45
187.873	47.54
188.092	35.48
188.311	40.8
188.53	43.32
188.748	43.37
188.967	36.62
189.186	31.07
189.405	33.2
189.623	5.41
189.842	26.05
190.061	8.81
190.28	-22.89
190.498	6.41
190.717	-0.31
190.936	-49.69
191.154	-100.72
191.373	-334.17
191.592	-15.46
191.81	84.31
192.029	46.98
192.248	122.6
192.466	137.36
192.685	102.69
192.904	79.85
193.122	89.01
193.341	127.66
193.559	59.37
193.778	55.99
193.996	51.9
194.215	54.79
194.433	90.09
194.652	12.79
194.87	-90.87
195.089	1205.08
195.307	120.25
195.526	347.99
195.744	3148.87
195.963	-345.82
196.181	-1186.83
196.399	-388.72
196.618	-417.05
196.836	-1054.19
197.055	-134.12
197.273	-66.62
197.491	6.82
197.71	63.59
197.928	25.99
198.146	103.85
198.365	134.7
198.583	66.67
198.801	160.98
199.019	-80.32
199.238	1172.41
199.456	78.25
199.674	94.22
199.892	-2
200.111	107.05
200.329	35.92
200.547	113.43
200.765	-114.33
200.983	54.93
201.202	-300.53
201.42	-107.34
201.638	-13.41
201.856	258.91
202.074	454.12
202.292	-83.17
202.51	28.01
202.728	47.66
202.946	-341
203.165	-144.5
203.383	105.8
203.601	56.91
203.819	109.92
204.037	32.67
204.255	17.7
204.473	33.73
204.691	26.4
204.909	47.58
205.127	22.17
205.345	14.95
205.562	-14.77
205.78	-45.97
205.998	-72.69
206.216	-165.56
206.434	-2171.65
206.652	274
206.87	164.11
207.088	140.36
207.306	76.37
207.523	33.87
207.741	13.33
207.959	15.61
208.177	-715.97
208.395	-70.42
208.612	-151.09
208.83	640.92
209.048	261.57
209.266	142.8
209.483	88.6
209.701	98.63
209.919	81.95
210.136	60.31
210.354	67.98
210.572	67.89
210.79	78.92
211.007	79.12
211.225	100.02
211.442	72.91
211.66	92.9
211.878	149.07
212.095	83.62
212.313	59.01
212.53	67.8
212.748	76.22
212.966	49.1
213.183	35.49
213.401	31.28
213.618	0.94
213.836	8.41
214.053	21.84
214.271	30.44
214.488	6.45
214.705	-14.11
214.923	31.06
215.14	59.25
215.358	71.8
215.575	79.78
215.793	86.81
216.01	100.39
216.227	120.26
216.445	102.24
216.662	97.31
216.879	146.06
217.097	144.79
217.314	95.64
217.531	70.37
217.749	58.98
217.966	46.55
218.183	31.59
218.4	25.31
218.618	19.92
218.835	22.68
219.052	27.17
219.269	16.42
219.487	10.2
219.704	12.08
219.921	7.09
220.138	0.25
220.355	1.36
220.572	-14.51
220.79	-7.11
221.007	-7.77
221.224	-22.99
221.441	-17.08
221.658	-0.78
221.875	-5.98
222.092	5.5
222.309	1.28
222.526	7.28
222.743	0.15
222.96	8.83
223.177	5.19
223.394	13.05
223.611	16.84
223.828	9.66
224.045	1.15
224.262	1.62
224.479	-4.98
224.696	3.42
224.913	2.2
225.13	6.27
225.347	8.89
225.564	8.49
225.781	5.4
225.997	4.23
226.214	6.22
226.431	6.19
226.648	6.47
226.865	7.84
227.082	6.18
227.298	8.14
227.515	9.11
227.732	8.41
227.949	9.33
228.165	10.68
228.382	11.43
228.599	10.19
228.816	10.68
229.032	12.09
229.249	11.55
229.466	11.88
229.682	10.67
229.899	9.97
230.116	10.48
230.332	10.54
230.549	6.73
230.765	5.31
230.982	7.78
231.199	7.2
231.415	7.39
231.632	6.97
231.848	8.33
232.065	8.94
232.281	7.7
232.498	7.67
232.714	4.98
232.931	6.49
233.147	7.58
233.364	6.07
233.58	5.45
233.797	6.95
234.013	9.33
234.23	10.53
234.446	8.53
234.662	10.69
234.879	10.47
235.095	11.77
235.312	12.45
235.528	13.72
235.744	14.58
235.961	15.15
236.177	13.53
236.393	12.2
236.61	11.21
236.826	12.83
237.042	11.02
237.258	10.24
237.475	10.33
237.691	10.25
237.907	8.68
238.123	8.19
238.339	8.63
238.556	7.25
238.772	7.98
238.988	9.33
239.204	8.13
239.42	7.87
239.636	8.15
239.853	8.25
240.069	8.26
240.285	7.92
240.501	8.99
240.717	9.25
240.933	10.05
241.149	9.57
241.365	8.57
241.581	9.58
241.797	9.92
242.013	9.95
242.229	10.04
242.445	10.22
242.661	10.72
242.877	10.21
243.093	10.04
243.309	10.53
243.525	10.29
243.741	10.87
243.957	10.19
244.173	10.11
244.388	10.1
244.604	9.79
244.82	10.06
245.036	9.82
245.252	9.27
245.468	9.13
245.683	9.02
245.899	8.88
246.115	8.52
246.331	8.43
246.547	8.17
246.762	7.74
246.978	7.58
247.194	7.47
247.409	7.29
247.625	7.47
247.841	7.7
248.057	7.47
248.272	7.53
248.488	7.64
248.703	7.5
248.919	8.27
249.135	8.44
249.35	9.2
249.566	8.96
249.782	9.89
249.997	9.37
250.213	8.82
250.428	8.11
250.644	8.87
250.859	8.64
251.075	9.48
251.29	9.31
251.506	9.96
251.721	9.23
251.937	9.07
252.152	8.4
252.368	9.03
252.583	8.69
252.798	7.96
253.014	7.54
253.229	6.72
253.445	5.39
253.66	4.68
253.875	5.25
254.091	5.93
254.306	5.61
254.521	6.52
254.737	6.56
254.952	7.43
255.167	8.99
255.383	8.98
255.598	9.32
255.813	9.05
256.028	8.97
256.244	7.56
256.459	7.25
256.674	7.01
256.889	6.27
257.104	6.37
257.32	6.45
257.535	5.89
257.75	5.86
257.965	6.07
258.18	6.04
258.395	5.98
258.61	6.31
258.826	6.28
259.041	6.64
259.256	6.76
259.471	6.66
259.686	6.64
259.901	7.11
260.116	6.76
260.331	6.93
260.546	7.02
260.761	7.4
260.976	7.2
261.191	7.17
261.406	6.25
261.621	5.95
261.836	5.85
262.05	6.3
262.265	5.75
262.48	6.78
262.695	6.3
262.91	6.25
263.125	5.78
263.34	6.18
263.555	6
263.769	6.64
263.984	6.77
264.199	6.54
264.414	5.66
264.629	6.35
264.843	6.09
265.058	5.97
265.273	5.69
265.488	5.8
265.702	5.54
265.917	6.17
266.132	6.04
266.346	6.17
266.561	5.74
266.776	6.07
266.99	5.54
267.205	5.59
267.42	5.49
267.634	6.29
267.849	6.41
268.063	6.14
268.278	5.87
268.492	5.83
268.707	5.83
268.922	6.71
269.136	6.46
269.351	6.36
269.565	6.09
269.78	6.59
269.994	6.24
270.209	6.09
270.423	6.25
270.637	6.05
270.852	6.26
271.066	5.97
271.281	5.66
271.495	5.95
271.709	6.36
271.924	6.61
272.138	6.27
272.353	6.6
272.567	6.36
272.781	6.45
272.996	6.41
273.21	6.51
273.424	6.78
273.638	7.18
273.853	6.96
274.067	6.54
274.281	6.35
274.495	6.12
274.71	5.88
274.924	6.03
275.138	6.11
275.352	6.23
275.566	6.03
275.781	6.09
275.995	6.05
276.209	5.96
276.423	6.22
276.637	6.39
276.851	6.97
277.065	6.9
277.279	7.29
277.493	7.08
277.707	6.97
277.921	7.18
278.135	7.4
278.349	7.11
278.563	6.66
278.777	6.27
278.991	6.07
279.205	5.42
279.419	5.2
279.633	5.16
279.847	5.47
280.061	5.54
280.275	5.37
280.489	5.27
280.703	5.49
280.917	5.91
281.131	6.14
281.344	6.14
281.558	6.54
281.772	6.4
281.986	6.66
282.2	6.88
282.414	6.95
282.627	6.95
282.841	7.01
283.055	6.61
283.269	6.07
283.482	6.15
283.696	6.23
283.91	6.25
284.123	6.55
284.337	6.23
284.551	5.85
284.764	5.82
284.978	5.78
285.192	5.18
285.405	5.04
285.619	5.11
285.833	4.57
286.046	4.45
286.26	4.42
286.473	4.22
286.687	4.3
286.9	4.16
287.114	4.54
287.327	4.59
287.541	5.16
287.754	5.37
287.968	5.71
288.181	6.17
288.395	6.04
288.608	6.07
288.822	5.78
289.035	5.21
289.248	5.2
289.462	5.13
289.675	5.32
289.889	5.74
290.102	5.9
290.315	5.97
290.529	5.93
290.742	6.1
290.955	5.63
291.169	5.33
291.382	5.98
291.595	6.2
291.808	5.67
292.022	5.91
292.235	5.18
292.448	5.06
292.661	4.93
292.875	4.81
293.088	4.79
293.301	4.79
293.514	5.38
293.727	5.37
293.94	5.29
294.153	5.5
294.367	4.77
294.58	4.97
294.793	4.79
295.006	4.7
295.219	4.53
295.432	4.47
295.645	4.95
295.858	4.93
296.071	4.71
296.284	4.75
296.497	4.78
296.71	4.7
296.923	4.68
297.136	4.74
297.349	4.59
297.562	4.63
297.775	4.39
297.988	4.02
298.201	3.87
298.414	3.79
298.626	3.52
298.839	3.62
299.052	3.89
299.265	4.11
299.478	4.36
299.691	4.44
299.903	4.55
300.116	4.92
300.329	5.19
300.542	5.27
300.755	5.4
300.967	5.89
301.18	5.47
301.393	5.49
301.605	5.07
301.818	4.98
302.031	5.35
302.243	5.62
302.456	5.13
302.669	5
302.881	5.01
303.094	5.33
303.307	5
303.519	5.41
303.732	5.58
303.944	5.89
304.157	5.99
304.37	5.83
304.582	5.57
304.795	6.12
305.007	5.97
305.22	6.25
305.432	6.02
305.645	6.27
305.857	6.15
306.069	6.28
306.282	6.36
306.494	6.27
306.707	6.3
306.919	6.53
307.132	6.33
307.344	6.52
307.556	6.68
307.769	6.59
307.981	6.47
308.193	6.34
308.406	6.23
308.618	5.96
308.83	5.78
309.043	5.47
309.255	5.4
309.467	5.4
309.679	5.43
309.892	4.82
310.104	4.6
310.316	4.64
310.528	4.45
310.74	4.43
310.953	4.76
311.165	4.81
311.377	5.35
311.589	5.14
311.801	5.23
312.013	5.07
312.225	5.25
312.437	5.33
312.649	5.14
312.862	5.51
313.074	5.7
313.286	5.12
313.498	5.28
313.71	4.73
313.922	4.91
314.134	4.6
314.346	4.35
314.558	4.48
314.77	4.84
314.982	4.94
315.193	4.56
315.405	4.48
315.617	4.94
315.829	4.69
316.041	4.65
316.253	4.18
316.465	4.5
316.677	4.43
316.888	4.4
317.1	4.07
317.312	4.07
317.524	4.5
317.736	3.85
317.947	3.85
318.159	3.74
318.371	3.93
318.583	4.53
318.794	4.47
319.006	4.49
319.218	4.78
319.43	5.07
319.641	5.25
319.853	5.19
320.064	5.64
320.276	5.17
320.488	5.64
320.699	5.58
320.911	5.36
321.123	5.61
321.334	5.37
321.546	5.35
321.757	5.15
321.969	5.03
322.18	4.5
322.392	4.14
322.603	4.32
322.815	3.88
323.026	3.89
323.238	3.44
323.449	3.37
323.661	3.8
323.872	3.62
324.083	3.74
324.295	3.8
324.506	4.23
324.718	4.52
324.929	4.29
325.14	4.66
325.352	4.97
325.563	5.64
325.774	5.57
325.986	5.56
326.197	5.54
326.408	5.75
326.62	5.68
326.831	5.58
327.042	5.34
327.253	5.54
327.464	5.37
327.676	5.46
327.887	5.04
328.098	4.9
328.309	4.81
328.52	4.64
328.732	4.29
328.943	4.26
329.154	4.18
329.365	4.73
329.576	4.37
329.787	4.72
329.998	4.61
330.209	4.96
330.42	5.09
330.631	4.92
330.842	5.06
331.053	5.55
331.264	5.21
331.475	5.26
331.686	5.27
331.897	5.44
332.108	4.73
332.319	4.75
332.53	4.71
332.741	5.02
332.952	5.14
333.163	5.15
333.374	4.83
333.585	5.05
333.795	5.1
334.006	4.76
334.217	5.21
334.428	5.85
334.639	5.85
334.849	5.85
335.06	5.18
335.271	5.37
335.482	5.19
335.692	5.21
335.903	5.16
336.114	5.07
336.325	5.37
336.535	5.16
336.746	4.89
336.957	4.68
337.167	4.75
337.378	5.14
337.589	4.65
337.799	4.63
338.01	4.79
338.22	4.92
338.431	5.06
338.642	4.41
338.852	4.38
339.063	4.53
339.273	4.74
339.484	4.53
339.694	4.46
339.905	4.69
340.115	5.26
340.326	4.96
340.536	4.99
340.746	4.93
340.957	5.27
341.167	4.9
341.378	4.96
341.588	4.56
341.799	4.8
342.009	4.97
342.219	5.21
342.43	5.25
342.64	5.26
342.85	4.96
343.061	4.91
343.271	5.05
343.481	5.19
343.691	5.04
343.902	5.36
344.112	5.29
344.322	5.17
344.532	5.01
344.743	4.73
344.953	5.04
345.163	5.08
345.373	5.04
345.583	4.77
345.793	4.72
346.004	4.67
346.214	4.68
346.424	4.64
346.634	4.7
346.844	4.72
347.054	4.72
347.264	4.5
347.474	4.78
347.684	4.92
347.894	5.23
348.104	5.1
348.314	5.15
348.524	5.17
348.734	5
348.944	4.79
349.154	5.09
349.364	4.95
349.574	5.04
349.784	5.21
349.994	5.02
350.204	5.05
350.413	5.42
350.623	5.06
350.833	5.07
351.043	5.09
351.253	5.4
351.463	5.2
351.672	5.16
351.882	5.23
352.092	5.21
352.302	5.07
352.511	4.71
352.721	4.61
352.931	5.05
353.141	4.89
353.35	4.93
353.56	5.06
353.77	5.04
353.979	5.01
354.189	5.02
354.399	4.92
354.608	4.96
354.818	4.99
355.027	5.08
355.237	4.84
355.447	4.82
355.656	4.88
355.866	4.46
356.075	4.26
356.285	4.56
356.494	4.43
356.704	4.34
356.913	4.29
357.123	4.52
357.332	4.53
357.542	4.71
357.751	4.74
357.96	4.44
358.17	4.55
358.379	4.72
358.589	4.4
358.798	4.36
359.007	4.12
359.217	4.45
359.426	4.26
359.635	4.24
359.845	4.27
360.054	4.33
360.263	4.61
360.472	4.55
360.682	4.45
360.891	4.63
361.1	4.58
361.309	4.67
361.519	4.41
361.728	4.37
361.937	4.51
362.146	4.49
362.355	4.22
362.564	3.74
362.774	3.81
362.983	3.94
363.192	3.87
363.401	3.88
363.61	3.93
363.819	3.96
364.028	4.03
364.237	3.74
364.446	3.49
364.655	3.65
364.864	3.83
365.073	3.73
365.282	3.62
365.491	3.38
365.7	3.43
365.909	3.4
366.118	3.53
366.327	3.56
366.536	3.61
366.745	3.82
366.954	3.71
367.162	3.84
367.371	4.18
367.58	4.07
367.789	4.18
367.998	4.11
368.207	4.11
368.415	3.91
368.624	4.17
368.833	3.85
369.042	3.61
369.25	3.81
369.459	3.87
369.668	3.68
369.877	3.89
370.085	3.87
370.294	3.86
370.503	3.57
370.711	3.74
370.92	3.51
371.129	3.79
371.337	3.9
371.546	3.75
371.754	3.63
371.963	3.58
372.171	3.43
372.38	3.37
372.589	3.23
372.797	3.51
373.006	3.46
373.214	3.59
373.423	3.71
373.631	3.81
373.84	3.78
374.048	3.65
374.256	3.7
374.465	3.71
374.673	3.6
374.882	3.68
375.09	3.73
375.298	3.6
375.507	3.63
375.715	3.36
375.923	3.32
376.132	3.55
376.34	3.63
376.548	3.51
376.757	3.66
376.965	3.74
377.173	3.7
377.381	3.61
377.59	3.67
377.798	3.52
378.006	3.76
378.214	3.7
378.423	3.69
378.631	3.67
378.839	3.48
379.047	3.15
379.255	3.43
379.463	3.61
379.671	3.52
379.879	3.49
380.088	3.44
380.296	3.41
380.504	3.33
380.712	3.22
380.92	3.44
381.128	3.43
381.336	3.63
381.544	3.34
381.752	3.26
381.96	3.39
382.168	3.33
382.376	3.41
382.584	3.37
382.791	3.46
382.999	3.46
383.207	3.33
383.415	3.65
383.623	3.45
383.831	3.61
384.039	3.86
384.247	3.74
384.454	3.91
384.662	3.74
384.87	3.79
385.078	3.77
385.285	3.8
385.493	3.66
385.701	3.63
385.909	3.74
386.116	3.57
386.324	3.4
386.532	3.6
386.739	3.52
386.947	3.59
387.155	3.56
387.362	3.61
387.57	3.26
387.778	3.27
387.985	3.08
388.193	3.19
388.4	3.14
388.608	2.99
388.816	2.87
389.023	3.01
389.231	3.02
389.438	3
389.646	3
389.853	3.04
390.061	3.28
390.268	3.54
390.475	3.49
390.683	3.51
390.89	3.5
391.098	3.51
391.305	3.42
391.512	3.3
391.72	3.38
391.927	3.33
392.135	3.73
392.342	3.44
392.549	3.2
392.756	3.25
392.964	3.31
393.171	3.25
393.378	3.16
393.586	3.08
393.793	3.3
394	3.2
394.207	3.26
394.414	2.87
394.622	3.08
394.829	3.21
395.036	3
395.243	2.95
395.45	3.05
395.657	3.08
395.864	3.1
396.072	2.93
396.279	2.99
396.486	3.1
396.693	3.33
396.9	3.18
397.107	3.04
397.314	2.92
397.521	2.93
397.728	2.96
397.935	3.15
398.142	3.29
398.349	3.32
398.556	3.18
398.763	2.85
398.97	2.81
399.177	2.75
399.383	2.87
399.59	3.17
399.797	3.2
400.004	3.03
400.211	2.94
400.418	2.7
400.625	2.67
400.831	2.66
401.038	2.89
401.245	2.56
401.452	2.55
401.658	2.41
401.865	2.3
402.072	2.21
402.279	2.2
402.485	2.07
402.692	2.12
402.899	2.09
403.105	2.06
403.312	1.85
403.519	2.01
403.725	2
403.932	2.11
404.138	2.05
404.345	2.04
404.552	2.26
404.758	2.18
404.965	2.12
405.171	2.17
405.378	2.05
405.584	2.35
405.791	2.21
405.997	2.07
406.204	1.98
406.41	2.23
406.617	2.3
406.823	2.1
407.029	2.17
407.236	2.29
407.442	2.31
407.649	2.4
407.855	2.28
408.061	2.41
408.268	2.77
408.474	2.82
408.68	2.79
408.887	2.64
409.093	2.61
409.299	2.73
409.505	2.66
409.712	2.72
409.918	2.73
410.124	2.81
410.33	2.82
410.537	2.72
410.743	2.79
410.949	2.52
411.155	2.48
411.361	2.42
411.567	2.32
411.773	2.21
411.98	2.22
412.186	2.39
412.392	2.28
412.598	2.36
412.804	2.49
413.01	2.3
413.216	2.43
413.422	2.6
413.628	2.63
413.834	2.73
414.04	2.92
414.246	2.81
414.452	2.75
414.658	2.73
414.864	2.79
415.07	2.73
415.275	2.8
415.481	2.85
415.687	2.73
415.893	2.72
416.099	2.68
416.305	2.67
416.511	2.67
416.716	2.67
416.922	2.59
417.128	2.47
417.334	2.4
417.539	2.32
417.745	2.3
417.951	2.38
418.157	2.46
418.362	2.56
418.568	2.48
418.774	2.34
418.979	2.31
419.185	2.34
419.391	2.42
419.596	2.39
419.802	2.48
420.008	2.47
420.213	2.48
420.419	2.37
420.624	2.33
420.83	2.44
421.035	2.55
421.241	2.58
421.446	2.6
421.652	2.52
421.857	2.55
422.063	2.5
422.268	2.58
422.474	2.57
422.679	2.68
422.885	2.62
423.09	2.61
423.295	2.58
423.501	2.5
423.706	2.49
423.911	2.53
424.117	2.51
424.322	2.42
424.527	2.27
424.733	2.2
424.938	2.13
425.143	2.14
425.349	2.02
425.554	2.07
425.759	2.18
425.964	2.12
426.169	2.09
426.375	2.11
426.58	2.2
426.785	2.31
426.99	2.3
427.195	2.35
427.4	2.4
427.605	2.36
427.811	2.51
428.016	2.51
428.221	2.53
428.426	2.56
428.631	2.53
428.836	2.56
429.041	2.61
429.246	2.65
429.451	2.61
429.656	2.47
429.861	2.64
430.066	2.52
430.271	2.47
430.476	2.42
430.681	2.32
430.886	2.32
431.09	2.35
431.295	2.31
431.5	2.44
431.705	2.44
431.91	2.56
432.115	2.37
432.32	2.34
432.524	2.28
432.729	2.34
432.934	2.4
433.139	2.48
433.343	2.48
433.548	2.43
433.753	2.27
433.958	2.2
434.162	2.12
434.367	2.05
434.572	2.07
434.776	2.02
434.981	2
435.186	1.9
435.39	1.92
435.595	1.9
435.799	1.85
436.004	1.92
436.209	2.12
436.413	2.1
436.618	2.31
436.822	2.21
437.027	2.24
437.231	2.24
437.436	2.29
437.64	2.14
437.845	2.13
438.049	2.18
438.253	2.15
438.458	2.05
438.662	2.12
438.867	2.11
439.071	2.18
439.275	2.23
439.48	2.21
439.684	2.25
439.888	2.34
440.093	2.32
440.297	2.34
440.501	2.44
440.706	2.5
440.91	2.41
441.114	2.36
441.318	2.39
441.523	2.35
441.727	2.38
441.931	2.43
442.135	2.49
442.339	2.55
442.543	2.51
442.748	2.47
442.952	2.37
443.156	2.4
443.36	2.42
443.564	2.35
443.768	2.34
443.972	2.36
444.176	2.37
444.38	2.3
444.584	2.29
444.788	2.3
444.992	2.3
445.196	2.38
445.4	2.39
445.604	2.44
445.808	2.45
446.012	2.46
446.216	2.46
446.42	2.38
446.624	2.35
446.828	2.34
447.032	2.36
447.235	2.37
447.439	2.27
447.643	2.32
447.847	2.32
448.051	2.27
448.254	2.31
448.458	2.22
448.662	2.26
448.866	2.4
449.069	2.39
449.273	2.31
449.477	2.21
449.681	2.25
449.884	2.24
450.088	2.2
450.292	2.19
450.495	2.22
450.699	2.32
450.902	2.27
451.106	2.18
451.31	2.21
451.513	2.2
451.717	2.24
451.92	2.3
452.124	2.37
452.327	2.36
452.531	2.43
452.734	2.48
452.938	2.46
453.141	2.57
453.345	2.65
453.548	2.67
453.752	2.69
453.955	2.61
454.158	2.61
454.362	2.58
454.565	2.49
454.769	2.46
454.972	2.36
455.175	2.39
455.379	2.31
455.582	2.2
455.785	2.21
455.988	2.26
456.192	2.32
456.395	2.3
456.598	2.24
456.801	2.4
457.005	2.41
457.208	2.44
457.411	2.43
457.614	2.43
457.817	2.47
458.021	2.39
458.224	2.37
458.427	2.41
458.63	2.38
458.833	2.32
459.036	2.25
459.239	2.28
459.442	2.27
459.645	2.21
459.848	2.27
460.051	2.28
460.254	2.45
460.457	2.41
460.66	2.4
460.863	2.42
461.066	2.48
461.269	2.5
461.472	2.4
461.675	2.43
461.878	2.53
462.081	2.39
462.284	2.27
462.486	2.08
462.689	2.13
462.892	2.2
463.095	2.21
463.298	2.2
463.5	2.19
463.703	2.22
463.906	2.22
464.109	2.12
464.311	2.15
464.514	2.19
464.717	2.16
464.92	2.17
465.122	2.16
465.325	2.24
465.528	2.33
465.73	2.35
465.933	2.35
466.135	2.34
466.338	2.41
466.541	2.47
466.743	2.51
466.946	2.6
467.148	2.59
467.351	2.41
467.553	2.33
467.756	2.14
467.958	2.14
468.161	2.15
468.363	2.12
468.566	2.05
468.768	2.06
468.971	2.04
469.173	1.97
469.375	1.96
469.578	2.06
469.78	2.07
469.983	2.21
470.185	2.21
470.387	2.18
470.59	2.26
470.792	2.3
470.994	2.2
471.196	2.22
