Data from 2938505_Reflection_1.txt Node
Date: Tue Jun 16 23:05:57 EDT 2015
User: robert
Spectrometer: USB4E03002
Autoset integration time: false
Trigger mode: 4
Integration Time (sec): 1.000000E-1
Scans to average: 10
Electric dark correction enabled: true
Nonlinearity correction enabled: false
Boxcar width: 5
Stray light correction enabled: false
XAxis mode: Wavelengths
Stop averaging: false
Number of Pixels in Spectrum: 3648
>>>>>Begin Spectral Data<<<<<
177.575	216
177.794	57.68
178.014	63.18
178.233	54.58
178.452	55.62
178.672	46.62
178.891	47.43
179.11	2075
179.33	-132.29
179.549	-1062.44
179.768	-59.34
179.987	1138.96
180.207	-74.54
180.426	-2.91
180.645	8.18
180.864	15.32
181.084	13.8
181.303	10.04
181.522	15.6
181.741	8.88
181.96	49.3
182.179	49.8
182.398	50.06
182.618	54.66
182.837	57.33
183.056	35.99
183.275	44.9
183.494	40.61
183.713	22.27
183.932	25.14
184.151	44.78
184.37	27.19
184.589	22.27
184.808	38.24
185.027	33.91
185.246	36.15
185.465	46.07
185.684	32.26
185.903	22.47
186.122	38.14
186.341	16.8
186.56	-52.18
186.779	-251.86
186.998	-53.95
187.216	-63.68
187.435	-22.66
187.654	-72.02
187.873	-28.54
188.092	18.59
188.311	36.97
188.53	34.83
188.748	24.69
188.967	32.17
189.186	28.77
189.405	25.94
189.623	30.98
189.842	12.5
190.061	5.23
190.28	-3.65
190.498	2.49
190.717	-10.97
190.936	6.8
191.154	21.54
191.373	32.57
191.592	41.78
191.81	49.03
192.029	29.66
192.248	30.42
192.466	34.66
192.685	17.85
192.904	18.69
193.122	22.96
193.341	16.47
193.559	12.67
193.778	5.66
193.996	-14.42
194.215	-14.92
194.433	-3.91
194.652	-1.8
194.87	3.35
195.089	19.42
195.307	4.51
195.526	0.24
195.744	-9.47
195.963	-8.01
196.181	-59.3
196.399	-22.39
196.618	-1.49
196.836	10.47
197.055	11.48
197.273	-7.8
197.491	-19.21
197.71	-30.95
197.928	-21.1
198.146	-11.39
198.365	1.22
198.583	0.91
198.801	21.81
199.019	8.99
199.238	8.19
199.456	4.43
199.674	22.93
199.892	32.57
200.111	38.8
200.329	41.15
200.547	54.4
200.765	50.08
200.983	57.9
201.202	35.6
201.42	72.88
201.638	78.33
201.856	106.83
202.074	51.05
202.292	44.59
202.51	25.62
202.728	5.87
202.946	-39.58
203.165	-25.96
203.383	-5.32
203.601	5.52
203.819	-71.76
204.037	-92.79
204.255	-77.89
204.473	-59.61
204.691	-77.98
204.909	-105.52
205.127	-58.37
205.345	-64.98
205.562	-76.77
205.78	-66.58
205.998	-82.44
206.216	-39.72
206.434	-41.7
206.652	-19.64
206.87	-11.91
207.088	14.24
207.306	24.06
207.523	8.61
207.741	22.61
207.959	34.56
208.177	38.34
208.395	27.94
208.612	22.09
208.83	16.99
209.048	23.24
209.266	12.47
209.483	-7.34
209.701	-14.39
209.919	2.38
210.136	2.43
210.354	-12.57
210.572	-7.45
210.79	-3.43
211.007	7.55
211.225	5.27
211.442	-3.3
211.66	-13.64
211.878	-6.04
212.095	-4.41
212.313	1.79
212.53	9.32
212.748	7.21
212.966	8.83
213.183	18.01
213.401	3.77
213.618	-6.93
213.836	6.84
214.053	16.58
214.271	24.45
214.488	21.56
214.705	15.16
214.923	2.09
215.14	-4.22
215.358	16.83
215.575	41.3
215.793	43.5
216.01	59.2
216.227	57.87
216.445	51.63
216.662	48.26
216.879	47.99
217.097	44.98
217.314	38.1
217.531	33.5
217.749	21.2
217.966	15.34
218.183	15.92
218.4	2.62
218.618	-13.23
218.835	-8.82
219.052	-14.24
219.269	-42.05
219.487	-54.29
219.704	-33.52
219.921	-24.64
220.138	-21
220.355	-27.88
220.572	-21.05
220.79	-7.18
221.007	-7.97
221.224	-0.21
221.441	-2.38
221.658	10.65
221.875	14.95
222.092	15.86
222.309	16.67
222.526	16.85
222.743	15.25
222.96	14.35
223.177	17.59
223.394	20.7
223.611	18.34
223.828	20.17
224.045	16.94
224.262	18.69
224.479	16.95
224.696	11.37
224.913	9.74
225.13	12.74
225.347	10.81
225.564	9.72
225.781	10.15
225.997	11.07
226.214	13.4
226.431	12.51
226.648	12.55
226.865	12.9
227.082	13.99
227.298	13.43
227.515	12.43
227.732	13.3
227.949	12.08
228.165	11.63
228.382	10.23
228.599	9.29
228.816	10.61
229.032	10.78
229.249	11.17
229.466	10.53
229.682	10.34
229.899	9.32
230.116	8.06
230.332	9.46
230.549	9.87
230.765	9.64
230.982	7.91
231.199	6.88
231.415	6.28
231.632	3.43
231.848	2.13
232.065	5.4
232.281	6.42
232.498	8.09
232.714	9.52
232.931	10.23
233.147	11.77
233.364	12.38
233.58	10.6
233.797	9.7
234.013	9.86
234.23	13.67
234.446	11.75
234.662	10.95
234.879	7.82
235.095	4.58
235.312	2.46
235.528	1.17
235.744	0.78
235.961	1.8
236.177	1.42
236.393	1.28
236.61	-0.44
236.826	-1.15
237.042	-2.44
237.258	-1.61
237.475	-2.02
237.691	-0.78
237.907	0.58
238.123	1.73
238.339	2.39
238.556	3.43
238.772	4.95
238.988	5.41
239.204	7.01
239.42	8.91
239.636	9.32
239.853	10.68
240.069	11.91
240.285	11.32
240.501	12.04
240.717	12.49
240.933	11.86
241.149	11.88
241.365	11.94
241.581	10.98
241.797	10.81
242.013	10.63
242.229	10.74
242.445	9.84
242.661	10.23
242.877	9.21
243.093	8.52
243.309	8.94
243.525	9.19
243.741	8.96
243.957	9.49
244.173	9.05
244.388	9.55
244.604	9.12
244.82	8.64
245.036	8.58
245.252	8.46
245.468	8.42
245.683	8.31
245.899	8.44
246.115	8.64
246.331	8.72
246.547	8.93
246.762	8.79
246.978	8.53
247.194	8.7
247.409	8.95
247.625	8.9
247.841	9.21
248.057	9.44
248.272	8.66
248.488	8.21
248.703	7.82
248.919	6.9
249.135	6.92
249.35	7.4
249.566	7.74
249.782	7.08
249.997	7.22
250.213	6.94
250.428	6.74
250.644	7.3
250.859	8.11
251.075	7.67
251.29	8.62
251.506	7.94
251.721	7.75
251.937	7.09
252.152	7.38
252.368	7.64
252.583	7.15
252.798	7.17
253.014	6.78
253.229	4.74
253.445	6.42
253.66	5.71
253.875	6.96
254.091	6.86
254.306	7.78
254.521	7.64
254.737	8.14
254.952	8.78
255.167	8.35
255.383	8.27
255.598	8.88
255.813	8
256.028	8.38
256.244	7.89
256.459	7.35
256.674	7.19
256.889	6.99
257.104	6.4
257.32	6.34
257.535	6.22
257.75	6.25
257.965	6.28
258.18	6.72
258.395	6.4
258.61	6.89
258.826	7.02
259.041	7.04
259.256	7.1
259.471	7.5
259.686	7.14
259.901	7.2
260.116	6.99
260.331	6.9
260.546	6
260.761	5.87
260.976	5.09
261.191	4.91
261.406	4.65
261.621	4.36
261.836	3.61
262.05	4.56
262.265	4.84
262.48	5.05
262.695	5.56
262.91	6.93
263.125	7.26
263.34	7.57
263.555	7.61
263.769	7.61
263.984	8.04
264.199	8.72
264.414	7.86
264.629	6.74
264.843	7.13
265.058	6.62
265.273	6.35
265.488	6.54
265.702	5.93
265.917	6.02
266.132	6.08
266.346	6.03
266.561	5.48
266.776	5.32
266.99	6.3
267.205	6
267.42	5.97
267.634	5.64
267.849	5.33
268.063	5.8
268.278	5.59
268.492	5.05
268.707	5.04
268.922	5.28
269.136	5.89
269.351	6.26
269.565	6.34
269.78	6.27
269.994	6.18
270.209	6.1
270.423	5.93
270.637	6.25
270.852	6.78
271.066	6.67
271.281	6.42
271.495	6.29
271.709	5.5
271.924	5.46
272.138	5.8
272.353	5.68
272.567	5.6
272.781	5.75
272.996	5.52
273.21	4.92
273.424	4.69
273.638	4.35
273.853	3.82
274.067	4.25
274.281	4.26
274.495	4.53
274.71	4.67
274.924	4.3
275.138	4.2
275.352	4.22
275.566	4.25
275.781	3.89
275.995	4.54
276.209	5.26
276.423	5.42
276.637	5.89
276.851	5.14
277.065	4.86
277.279	6.34
277.493	6.54
277.707	6.28
277.921	6.12
278.135	6.78
278.349	6.7
278.563	6.77
278.777	6.63
278.991	6.18
279.205	6.49
279.419	6.93
279.633	6.14
279.847	6.08
280.061	6.58
280.275	6.72
280.489	7.22
280.703	7.58
280.917	7.33
281.131	7.35
281.344	7.13
281.558	7.05
281.772	6.81
281.986	6.52
282.2	6.26
282.414	5.65
282.627	5.8
282.841	5.24
283.055	4.7
283.269	4.89
283.482	5.17
283.696	4.99
283.91	5.08
284.123	5.3
284.337	5.43
284.551	5.66
284.764	6.25
284.978	6.36
285.192	6.23
285.405	6.42
285.619	6.38
285.833	5.89
286.046	6.14
286.26	6.29
286.473	5.87
286.687	5.95
286.9	5.68
287.114	5.19
287.327	5.12
287.541	4.96
287.754	4.81
287.968	4.99
288.181	5.05
288.395	5.24
288.608	5.31
288.822	5.64
289.035	5.84
289.248	5.75
289.462	5.8
289.675	5.6
289.889	5.92
290.102	5.41
290.315	4.89
290.529	5.07
290.742	4.42
290.955	4.27
291.169	4.28
291.382	3.93
291.595	4.13
291.808	4.3
292.022	4.49
292.235	4.9
292.448	5.62
292.661	6.15
292.875	6.3
293.088	6.75
293.301	6.36
293.514	6.1
293.727	6.35
293.94	6.5
294.153	6.29
294.367	6.48
294.58	6.23
294.793	6.09
295.006	6.14
295.219	6.04
295.432	5.97
295.645	6.21
295.858	6.19
296.071	6.39
296.284	6.26
296.497	6.41
296.71	6.31
296.923	6.2
297.136	5.95
297.349	5.56
297.562	5.45
297.775	5.45
297.988	5.4
298.201	5.8
298.414	5.35
298.626	5.36
298.839	5.38
299.052	5.75
299.265	5.82
299.478	6.33
299.691	6.56
299.903	6.77
300.116	7.17
300.329	6.79
300.542	6.59
300.755	7.03
300.967	7.09
301.18	7.22
301.393	6.95
301.605	6.76
301.818	6.93
302.031	7.03
302.243	6.93
302.456	7.07
302.669	7.37
302.881	7.19
303.094	7.05
303.307	7.53
303.519	7.52
303.732	7.11
303.944	7.35
304.157	6.99
304.37	7.06
304.582	6.92
304.795	6.5
305.007	6.81
305.22	6.49
305.432	6.22
305.645	5.74
305.857	5.56
306.069	5.81
306.282	5.63
306.494	6
306.707	5.72
306.919	5.97
307.132	6.16
307.344	6.07
307.556	6.48
307.769	6.58
307.981	6.37
308.193	6.57
308.406	6.68
308.618	7.04
308.83	6.83
309.043	6.96
309.255	7.12
309.467	7.06
309.679	7.02
309.892	7.19
310.104	7.22
310.316	7.38
310.528	7.43
310.74	7.27
310.953	6.91
311.165	6.96
311.377	7.26
311.589	7.53
311.801	7.6
312.013	7.33
312.225	7.08
312.437	7.14
312.649	7.57
312.862	7.33
313.074	7.63
313.286	7.86
313.498	7.94
313.71	7.8
313.922	7.23
314.134	7.22
314.346	6.87
314.558	7.12
314.77	7.32
314.982	7.06
315.193	6.77
315.405	6.75
315.617	6.55
315.829	6.46
316.041	6.34
316.253	5.86
316.465	5.91
316.677	6.72
316.888	6.42
317.1	6.66
317.312	6.53
317.524	6.19
317.736	6.41
317.947	6.54
318.159	6.23
318.371	6.09
318.583	6.93
318.794	6.51
319.006	6.3
319.218	6.58
319.43	6.18
319.641	6.38
319.853	7.86
320.064	7.17
320.276	7.1
320.488	7.7
320.699	7.67
320.911	7.34
321.123	7.92
321.334	8.2
321.546	8.72
321.757	8.53
321.969	7.88
322.18	7.2
322.392	7.58
322.603	7.79
322.815	7.63
323.026	7.39
323.238	7.19
323.449	6.82
323.661	6.52
323.872	6.33
324.083	5.87
324.295	6.13
324.506	6.49
324.718	6.57
324.929	6.48
325.14	6.09
325.352	6.35
325.563	6.72
325.774	7.06
325.986	7.07
326.197	6.57
326.408	7.14
326.62	7.08
326.831	6.94
327.042	6.29
327.253	6.18
327.464	6.51
327.676	6.4
327.887	6.23
328.098	5.91
328.309	5.8
328.52	6.38
328.732	6.53
328.943	6.4
329.154	6.37
329.365	6.81
329.576	6.96
329.787	7.02
329.998	7.72
330.209	7.75
330.42	7.86
330.631	7.93
330.842	7.73
331.053	7.18
331.264	7.64
331.475	7.44
331.686	7.6
331.897	7.34
332.108	7.07
332.319	6.59
332.53	6.86
332.741	6.91
332.952	6.61
333.163	6.42
333.374	6.86
333.585	6.45
333.795	6.21
334.006	5.96
334.217	6.46
334.428	6.44
334.639	6.42
334.849	5.9
335.06	6.04
335.271	6.39
335.482	6.15
335.692	6.19
335.903	6.69
336.114	6.68
336.325	6.9
336.535	6.72
336.746	6.88
336.957	7.36
337.167	7.54
337.378	7.11
337.589	6.57
337.799	6.78
338.01	6.42
338.22	6.3
338.431	6.5
338.642	6.26
338.852	6.21
339.063	6.1
339.273	5.68
339.484	5.83
339.694	5.96
339.905	6.72
340.115	6.7
340.326	6.71
340.536	6.55
340.746	6.53
340.957	6.6
341.167	6.59
341.378	6.85
341.588	6.47
341.799	6.24
342.009	5.87
342.219	5.33
342.43	5.43
342.64	5.39
342.85	5.34
343.061	5.54
343.271	5.44
343.481	5.43
343.691	5.55
343.902	5.55
344.112	5.66
344.322	5.71
344.532	6.27
344.743	6.18
344.953	6.31
345.163	6.41
345.373	6.03
345.583	6.08
345.793	6.27
346.004	6.07
346.214	6.28
346.424	6.38
346.634	6.5
346.844	6.12
347.054	5.97
347.264	6.02
347.474	6.09
347.684	6.3
347.894	6.43
348.104	6.27
348.314	6.19
348.524	6.16
348.734	6.27
348.944	6.28
349.154	5.96
349.364	5.86
349.574	5.68
349.784	5.45
349.994	5.32
350.204	5.15
350.413	5.29
350.623	5.15
350.833	5.14
351.043	4.67
351.253	4.91
351.463	4.95
351.672	5.01
351.882	4.9
352.092	5.09
352.302	4.92
352.511	5.2
352.721	5.38
352.931	5.31
353.141	5.58
353.35	5.76
353.56	5.67
353.77	5.94
353.979	6.09
354.189	6.62
354.399	6.72
354.608	6.95
354.818	6.69
355.027	6.43
355.237	6.86
355.447	6.57
355.656	6.58
355.866	6.49
356.075	6.43
356.285	6.45
356.494	6.11
356.704	5.94
356.913	6.04
357.123	6.18
357.332	5.92
357.542	5.58
357.751	5.53
357.96	5.72
358.17	5.48
358.379	5.47
358.589	5.49
358.798	5.42
359.007	5.33
359.217	5.46
359.426	5.38
359.635	5.43
359.845	5.48
360.054	5.62
360.263	5.38
360.472	5.35
360.682	5.4
360.891	5.36
361.1	5.56
361.309	5.52
361.519	5.34
361.728	5.45
361.937	5.78
362.146	5.84
362.355	5.95
362.564	6.01
362.774	6.25
362.983	6.25
363.192	6.3
363.401	6.11
363.61	6.29
363.819	6.3
364.028	6.23
364.237	5.9
364.446	5.65
364.655	5.56
364.864	5.61
365.073	5.56
365.282	5.51
365.491	5.62
365.7	5.81
365.909	5.62
366.118	5.38
366.327	5.35
366.536	5.15
366.745	5.45
366.954	5.37
367.162	5.38
367.371	5.51
367.58	5.55
367.789	5.46
367.998	5.38
368.207	5.44
368.415	5.49
368.624	5.46
368.833	5.7
369.042	5.71
369.25	5.82
369.459	5.5
369.668	5.19
369.877	5.18
370.085	4.98
370.294	4.88
370.503	5.03
370.711	4.72
370.92	4.61
371.129	4.59
371.337	4.6
371.546	4.32
371.754	4.37
371.963	4.47
372.171	4.29
372.38	4.23
372.589	3.88
372.797	3.62
373.006	3.91
373.214	4.13
373.423	4.01
373.631	4.13
373.84	4.22
374.048	4.55
374.256	4.62
374.465	4.77
374.673	5.09
374.882	5.42
375.09	5.49
375.298	5.63
375.507	5.17
375.715	5.31
375.923	5.25
376.132	5.29
376.34	4.94
376.548	4.87
376.757	5
376.965	4.57
377.173	4.36
377.381	4.27
377.59	4.08
377.798	4.36
378.006	4.32
378.214	4.07
378.423	3.97
378.631	3.84
378.839	4.12
379.047	4.07
379.255	4.24
379.463	4.43
379.671	4.56
379.879	4.74
380.088	4.78
380.296	4.5
380.504	4.61
380.712	4.9
380.92	5.21
381.128	5.1
381.336	5.12
381.544	5.42
381.752	5.33
381.96	5.27
382.168	5.31
382.376	5.25
382.584	5.35
382.791	5.19
382.999	4.85
383.207	4.87
383.415	4.78
383.623	4.46
383.831	4.22
384.039	4.15
384.247	3.99
384.454	3.75
384.662	3.53
384.87	3.54
385.078	3.53
385.285	3.64
385.493	3.73
385.701	3.47
385.909	3.54
386.116	3.2
386.324	3.35
386.532	3.46
386.739	3.43
386.947	3.6
387.155	3.48
387.362	3.55
387.57	3.55
387.778	3.17
387.985	3.48
388.193	3.56
388.4	3.82
388.608	3.89
388.816	4
389.023	4.06
389.231	4.18
389.438	4.18
389.646	4.12
389.853	3.99
390.061	4.19
390.268	3.98
390.475	4.07
390.683	4.03
390.89	3.89
391.098	3.77
391.305	3.66
391.512	3.67
391.72	3.64
391.927	3.84
392.135	3.97
392.342	4.1
392.549	4.27
392.756	4.13
392.964	4.09
393.171	4.04
393.378	3.93
393.586	4.04
393.793	3.99
394	4.19
394.207	4.13
394.414	4.07
394.622	3.72
394.829	3.76
395.036	3.75
395.243	3.76
395.45	3.9
395.657	4.07
395.864	4.09
396.072	4.11
396.279	4.08
396.486	4.04
396.693	4.08
396.9	4.09
397.107	4.02
397.314	3.81
397.521	3.96
397.728	3.84
397.935	3.77
398.142	3.63
398.349	3.64
398.556	3.46
398.763	3.32
398.97	3.22
399.177	3.36
399.383	3.11
399.59	3.37
399.797	3.17
400.004	3.03
400.211	3.18
400.418	3.19
400.625	2.96
400.831	3.05
401.038	3.09
401.245	2.95
401.452	2.97
401.658	3.18
401.865	3.13
402.072	3.2
402.279	3.14
402.485	3.16
402.692	3.22
402.899	3.45
403.105	3.41
403.312	3.47
403.519	3.72
403.725	3.66
403.932	3.48
404.138	3.44
404.345	3.36
404.552	3.54
404.758	3.41
404.965	3.44
405.171	3.12
405.378	3.23
405.584	3.15
405.791	2.94
405.997	3
406.204	3.11
406.41	3.21
406.617	3.64
406.823	3.54
407.029	3.44
407.236	3.32
407.442	3.46
407.649	3.29
407.855	3.4
408.061	3.29
408.268	3.23
408.474	3.24
408.68	3.05
408.887	2.69
409.093	2.81
409.299	2.9
409.505	3.09
409.712	3.23
409.918	3.27
410.124	3.04
410.33	3.04
410.537	2.94
410.743	3.05
410.949	3.19
411.155	3.37
411.361	3.26
411.567	3.33
411.773	3.4
411.98	3.18
412.186	3.19
412.392	3.38
412.598	3.6
412.804	3.73
413.01	3.79
413.216	3.69
413.422	3.55
413.628	3.6
413.834	3.43
414.04	3.35
414.246	3.4
414.452	3.41
414.658	3.42
414.864	3.45
415.07	3.43
415.275	3.29
415.481	3.32
415.687	3.25
415.893	3.29
416.099	3.36
416.305	3.2
416.511	3.24
416.716	3.12
416.922	3.02
417.128	2.98
417.334	3
417.539	3.02
417.745	3.07
417.951	3.11
418.157	3.03
418.362	2.95
418.568	2.99
418.774	2.98
418.979	3.06
419.185	3.11
419.391	3.06
419.596	2.99
419.802	2.91
420.008	2.83
420.213	3.5
420.419	3.58
420.624	3.57
420.83	3.57
421.035	3.55
421.241	3.51
421.446	3.45
421.652	3.42
421.857	3.44
422.063	3.49
422.268	3.54
422.474	2.86
422.679	2.73
422.885	2.85
423.09	2.92
423.295	2.91
423.501	2.99
423.706	3.05
423.911	3.17
424.117	3.2
424.322	3.21
424.527	3.18
424.733	3.26
424.938	3.33
425.143	3.24
425.349	3.21
425.554	3.3
425.759	3.19
425.964	3.17
426.169	2.91
426.375	2.93
426.58	2.99
426.785	2.99
426.99	2.85
427.195	2.9
427.4	2.93
427.605	2.92
427.811	2.78
428.016	2.74
428.221	2.64
428.426	2.74
428.631	2.63
428.836	2.61
429.041	2.55
429.246	2.47
429.451	2.36
429.656	2.31
429.861	2.36
430.066	2.46
430.271	2.45
430.476	2.55
430.681	2.58
430.886	2.61
431.09	2.6
431.295	2.68
431.5	2.7
431.705	2.76
431.91	2.85
432.115	2.88
432.32	2.84
432.524	2.92
432.729	2.75
432.934	2.75
433.139	2.73
433.343	2.67
433.548	2.59
433.753	2.55
433.958	2.51
434.162	2.47
434.367	2.33
434.572	2.3
434.776	2.37
434.981	2.41
435.186	2.32
435.39	2.31
435.595	2.34
435.799	2.41
436.004	2.52
436.209	2.48
436.413	2.37
436.618	2.27
436.822	2.31
437.027	2.33
437.231	2.37
437.436	2.49
437.64	2.5
437.845	2.4
438.049	2.3
438.253	2.23
438.458	2.26
438.662	2.34
438.867	2.47
439.071	2.43
439.275	2.38
439.48	2.37
439.684	2.35
439.888	2.3
440.093	2.36
440.297	2.44
440.501	2.53
440.706	2.51
440.91	2.55
441.114	2.57
441.318	2.54
441.523	2.51
441.727	2.54
441.931	2.51
442.135	2.47
442.339	2.4
442.543	2.36
442.748	2.43
442.952	2.57
443.156	2.46
443.36	2.46
443.564	2.47
443.768	2.42
443.972	2.43
444.176	2.5
444.38	2.66
444.584	2.77
444.788	2.8
444.992	2.7
445.196	2.57
445.4	2.58
445.604	2.49
445.808	2.46
446.012	2.54
446.216	2.6
446.42	2.54
446.624	2.39
446.828	2.28
447.032	2.23
447.235	2.21
447.439	2.37
447.643	2.39
447.847	2.51
448.051	2.53
448.254	2.57
448.458	2.36
448.662	2.39
448.866	2.54
449.069	2.62
449.273	2.58
449.477	2.68
449.681	2.65
449.884	2.59
450.088	2.55
450.292	2.58
450.495	2.6
450.699	2.72
450.902	2.65
451.106	2.64
451.31	2.55
451.513	2.52
451.717	2.42
451.92	2.32
452.124	2.33
452.327	2.28
452.531	2.3
452.734	2.15
452.938	2.22
453.141	2.24
453.345	2.27
453.548	2.32
453.752	2.28
453.955	2.27
454.158	2.29
454.362	2.17
454.565	2.2
454.769	2.07
454.972	2.06
455.175	1.95
455.379	1.98
455.582	1.88
455.785	1.97
455.988	2.02
456.192	1.95
456.395	1.96
456.598	2.16
456.801	2.19
457.005	2.26
457.208	2.27
457.411	2.34
457.614	2.33
457.817	2.33
458.021	2.27
458.224	2.35
458.427	2.42
458.63	2.37
458.833	2.35
459.036	2.37
459.239	2.37
459.442	2.36
459.645	2.34
459.848	2.32
460.051	2.33
460.254	2.36
460.457	2.35
460.66	2.26
460.863	2.32
461.066	2.22
461.269	2.18
461.472	2.19
461.675	2.29
461.878	2.26
462.081	2.26
462.284	2.35
462.486	2.46
462.689	2.42
462.892	2.59
463.095	2.57
463.298	2.72
463.5	2.62
463.703	2.57
463.906	2.46
464.109	2.5
464.311	2.5
464.514	2.34
464.717	2.19
464.92	2.28
465.122	2.29
465.325	2.18
465.528	2.15
465.73	2.21
465.933	2.27
466.135	2.28
466.338	2.31
466.541	2.3
466.743	2.41
466.946	2.52
467.148	2.46
467.351	2.27
467.553	2.35
467.756	2.33
467.958	2.41
468.161	2.45
468.363	2.55
468.566	2.54
468.768	2.5
468.971	2.45
469.173	2.42
469.375	2.49
469.578	2.59
469.78	2.7
469.983	2.67
470.185	2.57
470.387	2.51
470.59	2.32
470.792	2.31
470.994	2.37
471.196	2.48
471.399	2.5
471.601	2.47
471.803	2.5
472.005	2.43
472.208	2.36
