Data from 2938563_Reflection_3.txt Node
Date: Sun Jun 14 23:11:20 EDT 2015
User: robert
Spectrometer: USB4E03002
Autoset integration time: false
Trigger mode: 4
Integration Time (sec): 1.000000E-1
Scans to average: 10
Electric dark correction enabled: true
Nonlinearity correction enabled: false
Boxcar width: 5
Stray light correction enabled: false
XAxis mode: Wavelengths
Stop averaging: false
Number of Pixels in Spectrum: 3648
>>>>>Begin Spectral Data<<<<<
177.575	187.76
177.794	-124.93
178.014	295.87
178.233	-124.84
178.452	-23.32
178.672	137.52
178.891	142.56
179.11	-78.19
179.33	5.71
179.549	39.6
179.768	75.95
179.987	81.91
180.207	89.04
180.426	115.98
180.645	164.09
180.864	140.96
181.084	91.01
181.303	72.92
181.522	92.39
181.741	94.43
181.96	154.79
182.179	141.42
182.398	218.78
182.618	346.17
182.837	133.01
183.056	96.53
183.275	149.74
183.494	158.42
183.713	155.32
183.932	116.63
184.151	197.44
184.37	180.6
184.589	311.01
184.808	338.37
185.027	239.33
185.246	-251.8
185.465	-184.64
185.684	-175.59
185.903	72.64
186.122	527.08
186.341	240.98
186.56	67.86
186.779	145.5
186.998	67.42
187.216	67.99
187.435	86.78
187.654	89.67
187.873	84.7
188.092	88.74
188.311	313.68
188.53	310.6
188.748	-388.09
188.967	-251.19
189.186	-889.26
189.405	-1318.53
189.623	-894.2
189.842	-5628.57
190.061	-863.67
190.28	-1061.64
190.498	254.78
190.717	116.11
190.936	129.77
191.154	69.58
191.373	85.38
191.592	117.3
191.81	103.39
192.029	208.43
192.248	186.12
192.466	350.76
192.685	231.67
192.904	441.52
193.122	-913.37
193.341	7047.56
193.559	-451.44
193.778	602.59
193.996	154.59
194.215	100.09
194.433	91.16
194.652	170.44
194.87	107.59
195.089	100.06
195.307	59.52
195.526	41.66
195.744	32.48
195.963	74.32
196.181	85.56
196.399	138.59
196.618	136.79
196.836	69.61
197.055	82.68
197.273	65.59
197.491	142.95
197.71	207.94
197.928	141.89
198.146	183.1
198.365	117.45
198.583	123.47
198.801	92.79
199.019	145.41
199.238	424.69
199.456	72.09
199.674	66.42
199.892	72.49
200.111	68.9
200.329	149.4
200.547	108.91
200.765	121.94
200.983	118.85
201.202	123.86
201.42	107.03
201.638	92.2
201.856	142.23
202.074	93.45
202.292	108.83
202.51	122.86
202.728	65.21
202.946	120.06
203.165	127.12
203.383	116.06
203.601	403.41
203.819	-187.19
204.037	-4462.7
204.255	-611.08
204.473	-430.12
204.691	-140.72
204.909	-238.55
205.127	-293.48
205.345	-466.93
205.562	-504.69
205.78	-1103.02
205.998	1814.89
206.216	-9421.84
206.434	-7539.08
206.652	-463.71
206.87	-745.2
207.088	6871.07
207.306	-6832
207.523	-347.11
207.741	-113.77
207.959	-89.55
208.177	-60.37
208.395	-83.59
208.612	-112.34
208.83	-70.4
209.048	-54.21
209.266	-36.47
209.483	-15.82
209.701	-15.77
209.919	-18.63
210.136	-37.84
210.354	-40.31
210.572	-127.04
210.79	-198.62
211.007	-364.44
211.225	-1741.56
211.442	404.25
211.66	158.21
211.878	184.88
212.095	91
212.313	90.37
212.53	103.56
212.748	98.75
212.966	97.21
213.183	89.69
213.401	83.45
213.618	61.05
213.836	64.3
214.053	72.81
214.271	75.19
214.488	-8.09
214.705	12.69
214.923	1.09
215.14	-10.71
215.358	-42.72
215.575	-76.82
215.793	-40.73
216.01	-98.96
216.227	-101.75
216.445	-132.52
216.662	-240.32
216.879	-166.58
217.097	-278.12
217.314	-171.04
217.531	-109.75
217.749	-105.33
217.966	-104.02
218.183	-196.9
218.4	-59.21
218.618	-98.82
218.835	-80.9
219.052	-67.17
219.269	-54.7
219.487	-52.74
219.704	-67.79
219.921	-78.64
220.138	-51.53
220.355	-45.72
220.572	-42.88
220.79	-53.86
221.007	-33.46
221.224	-40.12
221.441	-33.99
221.658	-29.94
221.875	-23.17
222.092	-16.02
222.309	-20.25
222.526	-31.11
222.743	-14.99
222.96	-11.59
223.177	-6.44
223.394	-3.89
223.611	-1.32
223.828	-2.74
224.045	-1.64
224.262	-3.09
224.479	-3.49
224.696	2.89
224.913	1.4
225.13	-3.86
225.347	-1.01
225.564	0.66
225.781	-0.46
225.997	1.05
226.214	2.97
226.431	1.59
226.648	1.84
226.865	2.34
227.082	2.29
227.298	4.34
227.515	5.89
227.732	6.61
227.949	5.09
228.165	5.54
228.382	5.35
228.599	4.69
228.816	5.48
229.032	4.57
229.249	5.37
229.466	6.08
229.682	6.08
229.899	6.01
230.116	4.73
230.332	4.74
230.549	2.5
230.765	-0.61
230.982	-1.64
231.199	-2.03
231.415	0.24
231.632	-1.33
231.848	-0.88
232.065	-3.62
232.281	-5.42
232.498	-4.8
232.714	-2.86
232.931	-0.16
233.147	5.64
233.364	7
233.58	6.57
233.797	5.75
234.013	6.69
234.23	6.15
234.446	6.49
234.662	7.63
234.879	5.85
235.095	5.54
235.312	6.68
235.528	2.15
235.744	1.58
235.961	3.84
236.177	6.03
236.393	3.75
236.61	1.38
236.826	1.63
237.042	-1.58
237.258	-0.06
237.475	0.86
237.691	1.04
237.907	1.15
238.123	2.91
238.339	1.97
238.556	0.64
238.772	0.01
238.988	0.96
239.204	1.89
239.42	2.59
239.636	2.5
239.853	2.77
240.069	2.75
240.285	3.46
240.501	2.76
240.717	2.46
240.933	2.46
241.149	3.53
241.365	4.15
241.581	3.59
241.797	4.12
242.013	4.51
242.229	3.95
242.445	3.94
242.661	4.71
242.877	5.48
243.093	5.91
243.309	6.49
243.525	5.94
243.741	5.1
243.957	5.12
244.173	5.75
244.388	5.87
244.604	6.34
244.82	6.02
245.036	5.64
245.252	5.15
245.468	5.41
245.683	5.07
245.899	5.1
246.115	5.49
246.331	5.88
246.547	5.74
246.762	5.69
246.978	5.73
247.194	5.91
247.409	5.82
247.625	5.91
247.841	5.8
248.057	5.65
248.272	5.96
248.488	5.6
248.703	5.25
248.919	4.97
249.135	4.33
249.35	3.79
249.566	3.62
249.782	3.26
249.997	3.48
250.213	3.1
250.428	4.43
250.644	4.47
250.859	4.36
251.075	3.84
251.29	3.98
251.506	4.43
251.721	3.62
251.937	4.21
252.152	5.16
252.368	5.21
252.583	5.02
252.798	3.47
253.014	2.49
253.229	2.15
253.445	1.95
253.66	1.68
253.875	0.29
254.091	0.99
254.306	0.04
254.521	-1.62
254.737	-1.72
254.952	-1.2
255.167	-0.93
255.383	-0.27
255.598	-0.29
255.813	0.96
256.028	0.35
256.244	1.12
256.459	1.93
256.674	2.3
256.889	2.39
257.104	2.83
257.32	2.77
257.535	3.08
257.75	3.16
257.965	3.37
258.18	3.13
258.395	3.47
258.61	3.59
258.826	3.33
259.041	3.15
259.256	3.62
259.471	3.16
259.686	3.27
259.901	3.4
260.116	3.36
260.331	3.36
260.546	3.71
260.761	4.14
260.976	4.29
261.191	4.42
261.406	5.05
261.621	4.47
261.836	4.82
262.05	5.49
262.265	5.05
262.48	4.82
262.695	4.82
262.91	3.63
263.125	2.1
263.34	1.24
263.555	0.57
263.769	-0.23
263.984	0.14
264.199	0.88
264.414	0.52
264.629	0.69
264.843	0.94
265.058	0.94
265.273	1.5
265.488	1.8
265.702	2.02
265.917	2.8
266.132	2.61
266.346	2.57
266.561	1.72
266.776	1.19
266.99	1.21
267.205	1.52
267.42	1.86
267.634	2.49
267.849	2.51
268.063	3.15
268.278	3.08
268.492	3.64
268.707	3.21
268.922	3.33
269.136	4.01
269.351	3.98
269.565	4.05
269.78	3.82
269.994	3.35
270.209	3.4
270.423	3.39
270.637	2.92
270.852	3
271.066	3.14
271.281	3.04
271.495	2.8
271.709	2.86
271.924	2.56
272.138	2.09
272.353	1.86
272.567	2.12
272.781	1.39
272.996	1.76
273.21	1.96
273.424	2.09
273.638	2.43
273.853	2.55
274.067	3.12
274.281	3.14
274.495	3.32
274.71	3.78
274.924	3.35
275.138	3.56
275.352	3.17
275.566	3.16
275.781	3.48
275.995	3.76
276.209	4.07
276.423	3.96
276.637	3.74
276.851	4.03
277.065	3.9
277.279	4.42
277.493	4.67
277.707	4.32
277.921	3.92
278.135	2.99
278.349	2.93
278.563	2.12
278.777	1.86
278.991	2.51
279.205	2.32
279.419	2.33
279.633	2.27
279.847	2.66
280.061	3.09
280.275	3.15
280.489	3.58
280.703	3.68
280.917	3.79
281.131	3.82
281.344	3.46
281.558	4.04
281.772	4.17
281.986	4.13
282.2	3.49
282.414	3.74
282.627	3.59
282.841	3.56
283.055	3.43
283.269	3.18
283.482	3.1
283.696	2.95
283.91	2.59
284.123	2.3
284.337	2.32
284.551	2.7
284.764	2.86
284.978	2.75
285.192	2.84
285.405	2.73
285.619	3.41
285.833	3.39
286.046	3.5
286.26	3.41
286.473	3.72
286.687	3.65
286.9	3.63
287.114	3.02
287.327	3.01
287.541	3.21
287.754	3.62
287.968	3.21
288.181	3.41
288.395	3.84
288.608	3.87
288.822	3.54
289.035	3.65
289.248	3.51
289.462	3.92
289.675	4
289.889	3.85
290.102	3.66
290.315	3.66
290.529	3.42
290.742	2.63
290.955	2.55
291.169	2.63
291.382	3.01
291.595	2.96
291.808	3
292.022	3.27
292.235	3.33
292.448	3.22
292.661	3.42
292.875	3.48
293.088	3.81
293.301	3.68
293.514	3.87
293.727	3.26
293.94	3.18
294.153	3.11
294.367	3.21
294.58	3.26
294.793	3.5
295.006	3.46
295.219	3.58
295.432	3.57
295.645	4.08
295.858	4.32
296.071	4.78
296.284	5.05
296.497	5.32
296.71	5.33
296.923	5.21
297.136	5.01
297.349	4.94
297.562	4.88
297.775	5.32
297.988	5.32
298.201	5.17
298.414	4.88
298.626	5.15
298.839	4.99
299.052	4.55
299.265	4.87
299.478	4.79
299.691	5.4
299.903	5.43
300.116	4.93
300.329	4.75
300.542	4.43
300.755	4.12
300.967	3.39
301.18	3.04
301.393	3.09
301.605	2.93
301.818	3.01
302.031	2.42
302.243	2.55
302.456	2.72
302.669	2.58
302.881	3.05
303.094	3.87
303.307	4.24
303.519	4.77
303.732	5.23
303.944	5.05
304.157	5.3
304.37	5.61
304.582	5.29
304.795	5.57
305.007	6
305.22	5.94
305.432	5.49
305.645	5.66
305.857	5.09
306.069	4.91
306.282	5.04
306.494	4.89
306.707	4.51
306.919	4.56
307.132	4.21
307.344	3.92
307.556	3.83
307.769	3.66
307.981	3.55
308.193	3.95
308.406	4.14
308.618	4.26
308.83	4.24
309.043	4.28
309.255	4.35
309.467	4.75
309.679	4.7
309.892	4.67
310.104	4.81
310.316	4.62
310.528	4.43
310.74	4.43
310.953	4.18
311.165	4.3
311.377	3.98
311.589	4.34
311.801	4.26
312.013	4.21
312.225	4.18
312.437	4
312.649	4.69
312.862	4.78
313.074	4.45
313.286	4.9
313.498	4.66
313.71	5.15
313.922	4.8
314.134	4.21
314.346	4.2
314.558	4.16
314.77	4.29
314.982	3.92
315.193	4.01
315.405	4.32
315.617	3.82
315.829	3.89
316.041	3.75
316.253	3.7
316.465	3.91
316.677	4.17
316.888	4.19
317.1	4.41
317.312	4.03
317.524	4.4
317.736	3.87
317.947	4.55
318.159	4.64
318.371	4.64
318.583	5.06
318.794	5.31
319.006	5.07
319.218	5.69
319.43	5.76
319.641	5.76
319.853	5.17
320.064	5.94
320.276	5.64
320.488	5.76
320.699	5.41
320.911	5.11
321.123	4.9
321.334	5.44
321.546	5.1
321.757	4.6
321.969	4.54
322.18	4.43
322.392	4.02
322.603	3.66
322.815	3.56
323.026	4
323.238	4.51
323.449	4.39
323.661	4.26
323.872	3.75
324.083	4
324.295	4.02
324.506	4.23
324.718	4.34
324.929	4.25
325.14	4.47
325.352	4.44
325.563	3.96
325.774	4.14
325.986	3.68
326.197	4.04
326.408	4.04
326.62	4.44
326.831	4.56
327.042	4.98
327.253	5.14
327.464	5.1
327.676	5.09
327.887	5.17
328.098	4.69
328.309	5.16
328.52	4.94
328.732	4.91
328.943	4.95
329.154	4.85
329.365	4.3
329.576	4.56
329.787	4.45
329.998	4.71
330.209	4.68
330.42	5.02
330.631	4.91
330.842	5.13
331.053	5.2
331.264	5.32
331.475	5.04
331.686	4.95
331.897	5.01
332.108	5.01
332.319	4.84
332.53	4.53
332.741	4.87
332.952	4.82
333.163	4.96
333.374	4.96
333.585	4.63
333.795	4.7
334.006	4.75
334.217	4.78
334.428	5.05
334.639	4.73
334.849	4.63
335.06	4.45
335.271	4.34
335.482	4.04
335.692	3.98
335.903	3.66
336.114	3.91
336.325	3.77
336.535	3.49
336.746	3.57
336.957	3.86
337.167	4.09
337.378	4.21
337.589	4.29
337.799	4.55
338.01	4.91
338.22	5.25
338.431	5.28
338.642	5.22
338.852	5
339.063	4.7
339.273	4.8
339.484	4.61
339.694	4.13
339.905	3.65
340.115	3.43
340.326	3.2
340.536	2.87
340.746	2.53
340.957	2.84
341.167	3.06
341.378	3.05
341.588	3.15
341.799	3.24
342.009	3.55
342.219	3.61
342.43	3.75
342.64	3.12
342.85	3.46
343.061	3.5
343.271	3.36
343.481	3.31
343.691	3.42
343.902	3.4
344.112	3.27
344.322	3.48
344.532	3.84
344.743	3.6
344.953	3.75
345.163	3.68
345.373	3.92
345.583	4.1
345.793	4.33
346.004	4.01
346.214	3.76
346.424	4.16
346.634	3.79
346.844	3.46
347.054	3.4
347.264	3.79
347.474	3.83
347.684	3.99
347.894	3.76
348.104	3.4
348.314	3.3
348.524	3.18
348.734	3.08
348.944	3.49
349.154	3.86
349.364	4.03
349.574	4.03
349.784	4.13
349.994	3.8
350.204	3.97
350.413	4.19
350.623	4.56
350.833	4.88
351.043	4.67
351.253	4.55
351.463	4.32
351.672	4.36
351.882	4.22
352.092	4.11
352.302	4.02
352.511	3.91
352.721	3.84
352.931	3.85
353.141	3.62
353.35	3.87
353.56	3.84
353.77	4.26
353.979	4.13
354.189	4.36
354.399	4.26
354.608	4.27
354.818	4.08
355.027	4.14
355.237	3.92
355.447	4.13
355.656	4.1
355.866	3.91
356.075	3.7
356.285	3.91
356.494	3.73
356.704	3.84
356.913	4.09
357.123	4.09
357.332	4.2
357.542	4.23
357.751	4.28
357.96	4.16
358.17	4.13
358.379	4.07
358.589	3.87
358.798	3.84
359.007	3.85
359.217	3.74
359.426	3.82
359.635	3.79
359.845	3.97
360.054	3.64
360.263	3.67
360.472	3.64
360.682	3.81
360.891	3.96
361.1	3.83
361.309	3.78
361.519	3.76
361.728	3.73
361.937	3.74
362.146	3.58
362.355	3.59
362.564	3.65
362.774	3.84
362.983	3.38
363.192	3.3
363.401	3.29
363.61	3.26
363.819	3.33
364.028	3.18
364.237	3
364.446	2.98
364.655	2.84
364.864	2.75
365.073	2.71
365.282	3.11
365.491	2.92
365.7	3.19
365.909	3.08
366.118	3.2
366.327	3.54
366.536	3.45
366.745	3.69
366.954	3.9
367.162	3.93
367.371	3.68
367.58	3.36
367.789	3.38
367.998	3.44
368.207	3.66
368.415	3.3
368.624	2.93
368.833	3.07
369.042	2.82
369.25	2.87
369.459	3.12
369.668	3.24
369.877	3.33
370.085	3.55
370.294	3.57
370.503	3.48
370.711	3.68
370.92	4.03
371.129	3.93
371.337	3.84
371.546	3.83
371.754	3.52
371.963	3.6
372.171	3.6
372.38	3.52
372.589	3.48
372.797	3.3
373.006	2.96
373.214	2.64
373.423	2.72
373.631	2.9
373.84	2.93
374.048	2.95
374.256	2.87
374.465	2.73
374.673	2.64
374.882	2.45
375.09	2.46
375.298	2.67
375.507	2.9
375.715	2.89
375.923	2.75
376.132	2.74
376.34	2.63
376.548	2.72
376.757	2.94
376.965	3.07
377.173	3.13
377.381	3.19
377.59	3.31
377.798	3.26
378.006	3.11
378.214	3.19
378.423	3.13
378.631	3.28
378.839	3
379.047	2.64
379.255	2.49
379.463	2.48
379.671	2.34
379.879	1.89
380.088	1.93
380.296	2.05
380.504	2.02
380.712	2.15
380.92	2.27
381.128	2.67
381.336	2.79
381.544	2.77
381.752	2.76
381.96	2.86
382.168	3.19
382.376	2.96
382.584	2.96
382.791	2.81
382.999	2.9
383.207	2.78
383.415	2.58
383.623	2.57
383.831	2.55
384.039	2.44
384.247	2.47
384.454	2.47
384.662	2.65
384.87	2.73
385.078	2.79
385.285	2.6
385.493	2.48
385.701	2.61
385.909	2.79
386.116	2.81
386.324	2.95
386.532	2.94
386.739	2.78
386.947	2.69
387.155	2.78
387.362	2.7
387.57	2.6
387.778	2.39
387.985	2.24
388.193	2.25
388.4	2.4
388.608	2.56
388.816	2.51
389.023	2.57
389.231	2.66
389.438	2.4
389.646	2.62
389.853	2.78
390.061	2.95
390.268	2.86
390.475	2.77
390.683	2.79
390.89	2.49
391.098	2.56
391.305	2.57
391.512	2.54
391.72	2.73
391.927	2.71
392.135	2.49
392.342	2.54
392.549	2.61
392.756	2.59
392.964	2.24
393.171	2.42
393.378	2.3
393.586	2.16
393.793	2.21
394	1.99
394.207	1.79
394.414	1.8
394.622	1.87
394.829	1.95
395.036	2.14
395.243	2.2
395.45	2.08
395.657	2.1
395.864	2.33
396.072	2.28
396.279	2.53
396.486	2.67
396.693	2.68
396.9	2.54
397.107	2.58
397.314	2.29
397.521	2.53
397.728	2.55
397.935	2.6
398.142	2.48
398.349	2.44
398.556	2.28
398.763	2.23
398.97	2.39
399.177	2.37
399.383	2.19
399.59	2.47
399.797	2.43
400.004	2.39
400.211	2.45
400.418	2.46
400.625	2.35
400.831	2.3
401.038	2.22
401.245	2.18
401.452	2.15
401.658	2.09
401.865	1.77
402.072	1.61
402.279	1.73
402.485	1.71
402.692	1.72
402.899	1.81
403.105	1.9
403.312	1.96
403.519	1.88
403.725	1.79
403.932	1.77
404.138	1.76
404.345	1.87
404.552	1.81
404.758	1.8
404.965	1.68
405.171	1.57
405.378	1.6
405.584	1.55
405.791	1.62
405.997	1.78
406.204	2.1
406.41	2.32
406.617	2.52
406.823	2.44
407.029	2.39
407.236	2.48
407.442	2.64
407.649	2.53
407.855	2.65
408.061	2.57
408.268	2.55
408.474	2.42
408.68	2.45
408.887	2.15
409.093	2.16
409.299	2.37
409.505	2.42
409.712	2.28
409.918	2.23
410.124	2.16
410.33	2.14
410.537	2.24
410.743	2.3
410.949	2.27
411.155	2.3
411.361	2.23
411.567	2
411.773	1.89
411.98	2.09
412.186	2.06
412.392	1.95
412.598	1.91
412.804	1.74
413.01	1.61
413.216	1.63
413.422	1.58
413.628	1.59
413.834	1.67
414.04	1.75
414.246	1.75
414.452	1.87
414.658	1.89
414.864	2.09
415.07	2.08
415.275	1.9
415.481	1.8
415.687	1.85
415.893	1.94
416.099	1.89
416.305	1.88
416.511	1.78
416.716	1.8
416.922	1.89
417.128	1.77
417.334	1.81
417.539	1.92
417.745	1.92
417.951	1.92
418.157	1.93
418.362	2
418.568	1.96
418.774	1.99
418.979	1.93
419.185	1.99
419.391	1.99
419.596	2.04
419.802	2
420.008	2.06
420.213	2
420.419	1.88
420.624	1.79
420.83	1.87
421.035	1.83
421.241	1.8
421.446	1.68
421.652	1.71
421.857	1.67
422.063	1.72
422.268	1.69
422.474	1.77
422.679	1.87
422.885	1.81
423.09	1.72
423.295	1.73
423.501	1.79
423.706	1.83
423.911	1.8
424.117	1.68
424.322	1.7
424.527	1.74
424.733	1.72
424.938	1.69
425.143	1.78
425.349	1.82
425.554	1.84
425.759	1.8
425.964	1.71
426.169	1.61
426.375	1.79
426.58	1.71
426.785	1.6
426.99	1.57
427.195	1.64
427.4	1.71
427.605	1.8
427.811	1.88
428.016	1.82
428.221	1.91
428.426	2.03
428.631	1.94
428.836	2.01
429.041	2.13
429.246	2.06
429.451	2
429.656	1.89
429.861	1.8
430.066	1.7
430.271	1.75
430.476	1.57
430.681	1.57
430.886	1.66
431.09	1.68
431.295	1.49
431.5	1.62
431.705	1.76
431.91	1.71
432.115	1.67
432.32	1.61
432.524	1.62
432.729	1.78
432.934	1.82
433.139	1.63
433.343	1.56
433.548	1.54
433.753	1.46
433.958	1.2
434.162	1.29
434.367	1.31
434.572	1.33
434.776	1.31
434.981	1.26
435.186	1.33
435.39	1.56
435.595	1.61
435.799	1.73
436.004	1.75
436.209	1.74
436.413	1.73
436.618	1.65
436.822	1.76
437.027	1.75
437.231	1.73
437.436	1.6
437.64	1.52
437.845	1.56
438.049	1.52
438.253	1.46
438.458	1.53
438.662	1.54
438.867	1.55
439.071	1.52
439.275	1.51
439.48	1.51
439.684	1.53
439.888	1.54
440.093	1.51
440.297	1.49
440.501	1.57
440.706	1.55
440.91	1.49
441.114	1.54
441.318	1.48
441.523	1.49
441.727	1.55
441.931	1.57
442.135	1.62
442.339	1.59
442.543	1.57
442.748	1.54
442.952	1.6
443.156	1.56
443.36	1.58
443.564	1.59
443.768	1.55
443.972	1.39
444.176	1.43
444.38	1.28
444.584	1.32
444.788	1.38
444.992	1.35
445.196	1.29
445.4	1.36
445.604	1.29
445.808	1.31
446.012	1.34
446.216	1.48
446.42	1.41
446.624	1.45
446.828	1.44
447.032	1.36
447.235	1.42
447.439	1.44
447.643	1.44
447.847	1.52
448.051	1.49
448.254	1.37
448.458	1.29
448.662	1.35
448.866	1.34
449.069	1.32
449.273	1.46
449.477	1.41
449.681	1.41
449.884	1.33
450.088	1.37
450.292	1.27
450.495	1.33
450.699	1.34
450.902	1.37
451.106	1.46
451.31	1.42
451.513	1.38
451.717	1.45
451.92	1.45
452.124	1.5
452.327	1.33
452.531	1.34
452.734	1.38
452.938	1.36
453.141	1.26
453.345	1.3
453.548	1.44
453.752	1.35
453.955	1.28
454.158	1.2
454.362	1.2
454.565	1.27
454.769	1.45
454.972	1.55
455.175	1.55
455.379	1.63
455.582	1.49
455.785	1.3
455.988	1.46
456.192	1.43
456.395	1.61
456.598	1.59
456.801	1.63
457.005	1.49
457.208	1.38
457.411	1.45
457.614	1.42
457.817	1.41
458.021	1.53
458.224	1.45
458.427	1.55
458.63	1.49
458.833	1.52
459.036	1.48
459.239	1.54
459.442	1.57
459.645	1.56
459.848	1.55
460.051	1.6
460.254	1.59
460.457	1.55
460.66	1.44
460.863	1.39
461.066	1.49
461.269	1.48
461.472	1.47
461.675	1.52
461.878	1.39
462.081	1.5
462.284	1.51
462.486	1.5
462.689	1.57
462.892	1.62
463.095	1.64
463.298	1.52
463.5	1.6
463.703	1.52
463.906	1.52
464.109	1.61
464.311	1.54
464.514	1.55
464.717	1.51
464.92	1.49
465.122	1.46
465.325	1.47
465.528	1.41
465.73	1.43
465.933	1.55
466.135	1.47
466.338	1.45
466.541	1.45
466.743	1.43
466.946	1.41
467.148	1.32
467.351	1.32
467.553	1.32
467.756	1.24
467.958	1.29
468.161	1.25
468.363	1.21
468.566	1.12
468.768	1.14
468.971	1.09
469.173	1.17
469.375	1.29
469.578	1.16
469.78	1.18
469.983	1.36
