Data from 2938543_Reflection_2.txt Node
Date: Mon Jun 15 00:32:34 EDT 2015
User: robert
Spectrometer: USB4E03002
Autoset integration time: false
Trigger mode: 4
Integration Time (sec): 1.000000E-1
Scans to average: 10
Electric dark correction enabled: true
Nonlinearity correction enabled: false
Boxcar width: 5
Stray light correction enabled: false
XAxis mode: Wavelengths
Stop averaging: false
Number of Pixels in Spectrum: 3648
>>>>>Begin Spectral Data<<<<<
177.575	23.52
177.794	-5.65
178.014	83.76
178.233	181.2
178.452	-9.76
178.672	-117.3
178.891	32.46
179.11	33.02
179.33	26.83
179.549	9.81
179.768	32.17
179.987	-12.57
180.207	-175.24
180.426	-88.85
180.645	-112.08
180.864	-23.93
181.084	-100.39
181.303	-46.38
181.522	-32.55
181.741	-61.8
181.96	-66.56
182.179	-87.28
182.398	-41.93
182.618	-32.28
182.837	-36.3
183.056	-55.65
183.275	-77.02
183.494	-68.41
183.713	-79.08
183.932	-91.33
184.151	-104.38
184.37	-62.53
184.589	-36.71
184.808	-23.79
185.027	-33.78
185.246	-23.39
185.465	4.25
185.684	10.64
185.903	15.31
186.122	12.64
186.341	30.12
186.56	37.4
186.779	34.64
186.998	28.47
187.216	29.65
187.435	46.9
187.654	35.77
187.873	35.31
188.092	35.99
188.311	38.72
188.53	41.03
188.748	41.46
188.967	41.51
189.186	35.84
189.405	40.25
189.623	40.25
189.842	15.5
190.061	29.24
190.28	22.48
190.498	24.83
190.717	21.14
190.936	13.96
191.154	3.83
191.373	18.87
191.592	26.24
191.81	36.87
192.029	51.8
192.248	56.78
192.466	67.89
192.685	89.39
192.904	68.46
193.122	65.74
193.341	32.2
193.559	26.98
193.778	-6.22
193.996	12.12
194.215	-20.76
194.433	-60.47
194.652	-5.81
194.87	-8.29
195.089	7.03
195.307	-16.07
195.526	-9
195.744	15.1
195.963	37.31
196.181	29.59
196.399	-49.92
196.618	-93.55
196.836	-85.15
197.055	-174.04
197.273	-246.8
197.491	-743.69
197.71	-186.12
197.928	-139.79
198.146	-146.42
198.365	-292.53
198.583	-132.83
198.801	-21.9
199.019	-18.05
199.238	50.11
199.456	40.36
199.674	49.33
199.892	42.93
200.111	23.24
200.329	26.22
200.547	42.59
200.765	43
200.983	20.15
201.202	22.87
201.42	28.54
201.638	2.84
201.856	12.75
202.074	-7.34
202.292	16
202.51	31.44
202.728	31.07
202.946	19.79
203.165	18.12
203.383	6.05
203.601	-3.97
203.819	-7.77
204.037	7.36
204.255	16.5
204.473	37.4
204.691	24.43
204.909	14.91
205.127	0.31
205.345	-1.39
205.562	20.35
205.78	35.87
205.998	38.66
206.216	29.21
206.434	29.34
206.652	15.24
206.87	5.53
207.088	8.06
207.306	16.78
207.523	31.3
207.741	33.6
207.959	25.7
208.177	29.01
208.395	32.78
208.612	42.6
208.83	52.45
209.048	54.75
209.266	52.82
209.483	51.66
209.701	47.57
209.919	42.48
210.136	41.34
210.354	38.95
210.572	31.3
210.79	30.17
211.007	29.38
211.225	13.47
211.442	17.54
211.66	7.77
211.878	9.88
212.095	22.19
212.313	31.73
212.53	30.96
212.748	33.4
212.966	37.96
213.183	42.84
213.401	47.35
213.618	43.03
213.836	33.8
214.053	38.74
214.271	28.92
214.488	21.89
214.705	17.71
214.923	13.94
215.14	2.5
215.358	3.86
215.575	0.98
215.793	8.01
216.01	16.65
216.227	25.62
216.445	22.12
216.662	24.37
216.879	24.94
217.097	20.85
217.314	18.55
217.531	26.29
217.749	28.77
217.966	33.7
218.183	37.89
218.4	23.18
218.618	11.76
218.835	9.66
219.052	8.9
219.269	8.82
219.487	17.78
219.704	23.35
219.921	19.51
220.138	17.6
220.355	5.03
220.572	-0.68
220.79	7.85
221.007	16.65
221.224	19.35
221.441	22.13
221.658	20.42
221.875	14.19
222.092	7.93
222.309	10.09
222.526	10.04
222.743	13.01
222.96	16.2
223.177	14.85
223.394	8.47
223.611	7.34
223.828	1.93
224.045	0.02
224.262	-2.49
224.479	1.05
224.696	-0.63
224.913	-1.61
225.13	-0.01
225.347	1.6
225.564	5.9
225.781	6.96
225.997	5.74
226.214	7.55
226.431	9.16
226.648	9.43
226.865	9.4
227.082	9.24
227.298	9.43
227.515	8.88
227.732	8.39
227.949	7.84
228.165	9.31
228.382	10.77
228.599	11.09
228.816	11.28
229.032	11.91
229.249	12.98
229.466	13.08
229.682	13.5
229.899	14.37
230.116	14.29
230.332	12.7
230.549	11.32
230.765	10.77
230.982	11.19
231.199	9.6
231.415	10
231.632	8.66
231.848	8.19
232.065	9.47
232.281	9.11
232.498	10.26
232.714	10.86
232.931	9.92
233.147	8.5
233.364	8.2
233.58	9.09
233.797	9.26
234.013	9.29
234.23	10.02
234.446	11.18
234.662	11.54
234.879	10.69
235.095	10.09
235.312	11.22
235.528	10.67
235.744	11.03
235.961	8.61
236.177	8.59
236.393	7.16
236.61	7.85
236.826	4.98
237.042	3.64
237.258	3.25
237.475	2.76
237.691	2.51
237.907	5.95
238.123	6.57
238.339	8.45
238.556	8.94
238.772	9.89
238.988	9.29
239.204	9.65
239.42	9.48
239.636	9.39
239.853	9.96
240.069	9.11
240.285	8.48
240.501	8.53
240.717	8.2
240.933	8.31
241.149	8.63
241.365	8.09
241.581	7.42
241.797	7.08
242.013	6.41
242.229	6.41
242.445	7.79
242.661	7.93
242.877	7.31
243.093	7.41
243.309	7.08
243.525	6.42
243.741	6.95
243.957	7.16
244.173	7.64
244.388	8.08
244.604	8.12
244.82	7.49
245.036	7.12
245.252	7.03
245.468	7.03
245.683	6.95
245.899	7.04
246.115	7.35
246.331	7.59
246.547	7.58
246.762	7.59
246.978	7.46
247.194	7.02
247.409	7.2
247.625	7.94
247.841	7.9
248.057	8.36
248.272	7.95
248.488	7.96
248.703	8.13
248.919	8.21
249.135	8.21
249.35	8.54
249.566	9.13
249.782	8.6
249.997	7.67
250.213	8.39
250.428	7.54
250.644	7.82
250.859	7.35
251.075	7.02
251.29	7.21
251.506	7.15
251.721	6.87
251.937	6.68
252.152	7.5
252.368	7.37
252.583	6.83
252.798	7.46
253.014	7.71
253.229	7.18
253.445	7.42
253.66	7.03
253.875	7.62
254.091	6.66
254.306	8.21
254.521	8.21
254.737	8.66
254.952	9
255.167	8.54
255.383	8.89
255.598	9.23
255.813	8.75
256.028	8.39
256.244	7.96
256.459	8.78
256.674	7.93
256.889	7.21
257.104	6.65
257.32	6.33
257.535	6.08
257.75	5.86
257.965	5.6
258.18	5.55
258.395	5.4
258.61	5.31
258.826	4.97
259.041	4.93
259.256	5.01
259.471	5.19
259.686	5.31
259.901	5.3
260.116	5.2
260.331	5.39
260.546	5.18
260.761	5.6
260.976	5.56
261.191	5.56
261.406	5.34
261.621	5.71
261.836	5.57
262.05	5.28
262.265	5.26
262.48	4.75
262.695	5.19
262.91	5.92
263.125	5.57
263.34	5.49
263.555	5.05
263.769	5.59
263.984	4.45
264.199	4.12
264.414	3.87
264.629	4.43
264.843	5.18
265.058	4.59
265.273	4.59
265.488	4.83
265.702	5.6
265.917	6.23
266.132	6.06
266.346	6.32
266.561	5.91
266.776	5.94
266.99	5.55
267.205	5.31
267.42	5.53
267.634	5.56
267.849	5.3
268.063	4.93
268.278	4.39
268.492	4.26
268.707	4.74
268.922	5.47
269.136	5.79
269.351	5.48
269.565	5.61
269.78	5.71
269.994	5.27
270.209	5.5
270.423	5.18
270.637	5.46
270.852	5.69
271.066	5.82
271.281	5.61
271.495	5.49
271.709	5.78
271.924	5.51
272.138	5.84
272.353	5.65
272.567	5.52
272.781	6.01
272.996	5.94
273.21	5.56
273.424	4.56
273.638	4.45
273.853	4.25
274.067	4.13
274.281	4.61
274.495	3.85
274.71	3.76
274.924	3.98
275.138	3.77
275.352	3.22
275.566	2.97
275.781	4.13
275.995	4.16
276.209	4.5
276.423	4.59
276.637	3.93
276.851	4.22
277.065	4.79
277.279	4.09
277.493	3.57
277.707	4.55
277.921	5.31
278.135	5.03
278.349	5.21
278.563	4.75
278.777	4.89
278.991	5.68
279.205	5.21
279.419	4.86
279.633	5.73
279.847	5.81
280.061	5.13
280.275	4.37
280.489	4.02
280.703	3.77
280.917	3.99
281.131	3.73
281.344	3.07
281.558	3.81
281.772	4.04
281.986	3.86
282.2	3.76
282.414	3.98
282.627	4.21
282.841	4.41
283.055	4.11
283.269	4.29
283.482	4.7
283.696	4.99
283.91	4.65
284.123	4.43
284.337	4.05
284.551	4.14
284.764	3.77
284.978	4.26
285.192	4.39
285.405	4.74
285.619	4.63
285.833	4.24
286.046	3.88
286.26	3.96
286.473	4.26
286.687	4.51
286.9	4.78
287.114	5.04
287.327	4.46
287.541	4.56
287.754	4.82
287.968	4.66
288.181	4.9
288.395	5.31
288.608	4.91
288.822	4.73
289.035	4.62
289.248	4.23
289.462	4.3
289.675	4.52
289.889	4.21
290.102	4.09
290.315	4.25
290.529	4.45
290.742	4.11
290.955	3.93
291.169	4.55
291.382	4.29
291.595	4.71
291.808	5.21
292.022	5.45
292.235	5.54
292.448	5.43
292.661	5.13
292.875	4.82
293.088	4.99
293.301	5.49
293.514	4.94
293.727	5.49
293.94	5.36
294.153	5.01
294.367	4.74
294.58	4.23
294.793	4.33
295.006	4.73
295.219	5.04
295.432	5.09
295.645	4.73
295.858	4.92
296.071	4.73
296.284	4.51
296.497	4.67
296.71	4.59
296.923	5.17
297.136	5.29
297.349	5.2
297.562	4.75
297.775	4.84
297.988	5.14
298.201	5.26
298.414	5.58
298.626	5.76
298.839	5.55
299.052	5.74
299.265	5.56
299.478	5.36
299.691	5.33
299.903	5.49
300.116	5.24
300.329	5.39
300.542	5.35
300.755	4.91
300.967	4.69
301.18	4.65
301.393	4.24
301.605	4.56
301.818	4.56
302.031	4.4
302.243	4.46
302.456	4.46
302.669	4.6
302.881	4.44
303.094	4.83
303.307	5.03
303.519	5.19
303.732	5.41
303.944	5.13
304.157	5.09
304.37	4.93
304.582	4.86
304.795	5.14
305.007	4.37
305.22	3.89
305.432	3.74
305.645	3.77
305.857	3.93
306.069	4.27
306.282	4.32
306.494	4.09
306.707	4.31
306.919	4.32
307.132	4.29
307.344	4.98
307.556	5.47
307.769	5.07
307.981	5.19
308.193	5.27
308.406	5.23
308.618	5.39
308.83	5.66
309.043	5.7
309.255	5.75
309.467	5.64
309.679	5.05
309.892	4.99
310.104	5.11
310.316	5.03
310.528	4.84
310.74	4.93
310.953	4.74
311.165	4.66
311.377	4.63
311.589	4.52
311.801	4.36
312.013	4.94
312.225	4.76
312.437	5
312.649	4.99
312.862	4.67
313.074	4.22
313.286	4.35
313.498	4.65
313.71	4.72
313.922	4.53
314.134	4.92
314.346	4.74
314.558	4.83
314.77	4.92
314.982	5.33
315.193	5.3
315.405	5.15
315.617	5.18
315.829	4.58
316.041	4.48
316.253	4.69
316.465	4.26
316.677	4.56
316.888	4.83
317.1	4.94
317.312	4.74
317.524	5.12
317.736	5.55
317.947	5.66
318.159	6.21
318.371	6.29
318.583	6.44
318.794	6.73
319.006	6.6
319.218	6.69
319.43	6.31
319.641	6.23
319.853	6.44
320.064	6.03
320.276	5.54
320.488	5.3
320.699	5.07
320.911	5.33
321.123	5.23
321.334	4.53
321.546	4.69
321.757	4.6
321.969	4.47
322.18	4.88
322.392	5.51
322.603	5.63
322.815	5.91
323.026	5.98
323.238	5.91
323.449	6.01
323.661	6.47
323.872	5.95
324.083	6.14
324.295	6.13
324.506	5.75
324.718	5.5
324.929	6.03
325.14	5.75
325.352	6.24
325.563	6.23
325.774	6.13
325.986	6.23
326.197	6.02
326.408	6.05
326.62	6.28
326.831	5.83
327.042	6.03
327.253	5.75
327.464	5.81
327.676	5.59
327.887	5.32
328.098	5.53
328.309	5.22
328.52	5.76
328.732	5.79
328.943	6
329.154	6.42
329.365	6.48
329.576	6.51
329.787	6.31
329.998	6.34
330.209	6.23
330.42	5.73
330.631	6.29
330.842	6.16
331.053	5.96
331.264	5.69
331.475	5.73
331.686	5.36
331.897	4.83
332.108	4.7
332.319	4.79
332.53	5.15
332.741	5.68
332.952	5.15
333.163	5.11
333.374	5.02
333.585	5.48
333.795	5.06
334.006	5.51
334.217	5.42
334.428	5.64
334.639	5.37
334.849	5.29
335.06	4.94
335.271	4.86
335.482	4.73
335.692	4.76
335.903	4.45
336.114	4.62
336.325	4.5
336.535	4.74
336.746	5.21
336.957	4.75
337.167	4.82
337.378	4.63
337.589	4.81
337.799	4.9
338.01	5.05
338.22	4.8
338.431	5.09
338.642	4.61
338.852	4.76
339.063	4.3
339.273	4.83
339.484	4.47
339.694	4.86
339.905	4.99
340.115	5.23
340.326	5.17
340.536	5.23
340.746	5.04
340.957	5.29
341.167	5.23
341.378	5.52
341.588	5.33
341.799	5.67
342.009	5.51
342.219	5
342.43	4.51
342.64	4.56
342.85	4.51
343.061	4.76
343.271	5.1
343.481	5.16
343.691	5.11
343.902	5.33
344.112	5.24
344.322	5.19
344.532	5.67
344.743	6.05
344.953	6.11
345.163	6.06
345.373	5.74
345.583	5.57
345.793	5.54
346.004	5.67
346.214	5.4
346.424	5.47
346.634	5.47
346.844	5.55
347.054	5.54
347.264	5.35
347.474	5.64
347.684	5.52
347.894	5.62
348.104	5.58
348.314	5.48
348.524	5.46
348.734	5.49
348.944	5.29
349.154	5.2
349.364	5.19
349.574	5.16
349.784	4.68
349.994	4.85
350.204	4.85
350.413	4.76
350.623	4.19
350.833	4.54
351.043	4.42
351.253	4.67
351.463	4.42
351.672	4.23
351.882	4.3
352.092	4.67
352.302	4.69
352.511	4.39
352.721	4.28
352.931	4.5
353.141	4.26
353.35	3.91
353.56	3.99
353.77	3.88
353.979	4.03
354.189	4.02
354.399	3.8
354.608	3.83
354.818	4.06
355.027	4.3
355.237	4.49
355.447	4.33
355.656	4.49
355.866	4.27
356.075	4.59
356.285	4.6
356.494	4.68
356.704	4.57
356.913	4.37
357.123	4.25
357.332	4.19
357.542	4.13
357.751	4.11
357.96	3.97
358.17	3.98
358.379	3.89
358.589	3.59
358.798	3.26
359.007	3.36
359.217	3.6
359.426	3.55
359.635	3.51
359.845	3.52
360.054	3.66
360.263	3.98
360.472	3.94
360.682	3.91
360.891	4.11
361.1	4.38
361.309	4.64
361.519	4.48
361.728	4.22
361.937	4.32
362.146	4.19
362.355	4.17
362.564	4.07
362.774	4.12
362.983	4.28
363.192	4.15
363.401	4.16
363.61	4.12
363.819	4.13
364.028	4.38
364.237	4.28
364.446	4.44
364.655	4.43
364.864	4.24
365.073	4.42
365.282	4.48
365.491	4.38
365.7	4.42
365.909	4.23
366.118	4.19
366.327	4.09
366.536	4.24
366.745	4.13
366.954	4.07
367.162	4.13
367.371	4.1
367.58	3.84
367.789	4.08
367.998	3.81
368.207	4.02
368.415	4.01
368.624	4.03
368.833	3.71
369.042	3.8
369.25	3.87
369.459	3.75
369.668	3.48
369.877	3.41
370.085	3.11
370.294	3.25
370.503	2.89
370.711	2.83
370.92	2.91
371.129	2.99
371.337	2.83
371.546	2.77
371.754	3.09
371.963	3.35
372.171	3.58
372.38	3.78
372.589	3.92
372.797	4.02
373.006	4.05
373.214	4.21
373.423	4.2
373.631	4.07
373.84	4.06
374.048	3.84
374.256	3.57
374.465	3.43
374.673	3.38
374.882	3.05
375.09	3.12
375.298	3.16
375.507	2.93
375.715	3.08
375.923	3.29
376.132	3.24
376.34	3.25
376.548	3.49
376.757	3.47
376.965	3.63
377.173	3.65
377.381	3.49
377.59	3.56
377.798	3.68
378.006	3.74
378.214	3.75
378.423	3.86
378.631	3.7
378.839	3.64
379.047	3.6
379.255	3.27
379.463	3.66
379.671	3.97
379.879	3.88
380.088	3.88
380.296	3.58
380.504	3.58
380.712	3.47
380.92	3.68
381.128	3.79
381.336	3.82
381.544	3.77
381.752	3.71
381.96	3.55
382.168	3.64
382.376	3.84
382.584	3.98
382.791	3.81
382.999	3.88
383.207	3.87
383.415	3.78
383.623	3.75
383.831	3.92
384.039	3.67
384.247	3.74
384.454	3.76
384.662	3.44
384.87	3.39
385.078	3.14
385.285	3.19
385.493	3.23
385.701	3.23
385.909	3.2
386.116	3.22
386.324	3.21
386.532	3.12
386.739	2.99
386.947	2.89
387.155	2.86
387.362	3.04
387.57	2.86
387.778	2.7
387.985	2.68
388.193	2.74
388.4	2.54
388.608	2.38
388.816	2.62
389.023	2.57
389.231	2.83
389.438	2.76
389.646	2.94
389.853	3.13
390.061	3.19
390.268	3.19
390.475	3.23
390.683	3.29
390.89	3.6
391.098	3.44
391.305	3.52
391.512	3.43
391.72	3.43
391.927	3.34
392.135	3.19
392.342	3.2
392.549	3.11
392.756	3.13
392.964	3.22
393.171	3.24
393.378	3.27
393.586	3.3
393.793	3.38
394	3.38
394.207	3.25
394.414	3.12
394.622	3.11
394.829	3.11
395.036	2.93
395.243	2.94
395.45	2.74
395.657	2.77
395.864	2.6
396.072	2.56
396.279	2.56
396.486	2.62
396.693	2.7
396.9	2.59
397.107	2.57
397.314	2.61
397.521	2.62
397.728	2.69
397.935	2.5
398.142	2.44
398.349	2.25
398.556	2.3
398.763	2.38
398.97	2.46
399.177	2.57
399.383	2.62
399.59	2.79
399.797	2.58
400.004	2.5
400.211	2.38
400.418	2.58
400.625	2.81
400.831	2.71
401.038	2.7
401.245	2.62
401.452	2.56
401.658	2.63
401.865	2.37
402.072	2.51
402.279	2.45
402.485	2.58
402.692	2.39
402.899	2.17
403.105	2.26
403.312	2.17
403.519	2.19
403.725	2.1
403.932	2.14
404.138	2.14
404.345	2.11
404.552	2.2
404.758	2.21
404.965	2.26
405.171	2.34
405.378	2.21
405.584	2.3
405.791	2.36
405.997	2.37
406.204	2.23
406.41	2.26
406.617	2.51
406.823	2.38
407.029	2.38
407.236	2.5
407.442	2.59
407.649	2.73
407.855	2.82
408.061	2.67
408.268	2.61
408.474	2.57
408.68	2.49
408.887	2.35
409.093	2.42
409.299	2.5
409.505	2.36
409.712	2.17
409.918	2.02
410.124	1.88
410.33	1.96
410.537	2.16
410.743	2.03
410.949	2.11
411.155	2.16
411.361	2.02
411.567	1.89
411.773	2.17
411.98	2.22
412.186	2.24
412.392	2.12
412.598	1.94
412.804	1.93
413.01	2.11
413.216	2.29
413.422	2.02
413.628	2.14
413.834	2.17
414.04	2.08
414.246	2
414.452	1.94
414.658	1.91
414.864	2.1
415.07	1.93
415.275	1.83
415.481	1.74
415.687	1.81
415.893	1.82
416.099	1.82
416.305	1.75
416.511	1.79
416.716	1.84
416.922	1.93
417.128	1.89
417.334	1.93
417.539	2.01
417.745	1.98
417.951	2.06
418.157	2.02
418.362	1.98
418.568	1.91
418.774	1.95
418.979	1.96
419.185	2.06
419.391	2.03
419.596	2.11
419.802	2.02
420.008	1.99
420.213	1.17
420.419	1.2
420.624	1.24
420.83	1.25
421.035	1.23
421.241	1.19
421.446	1.06
421.652	1.02
421.857	0.94
422.063	1.04
422.268	1.07
422.474	1.86
422.679	1.78
422.885	1.74
423.09	1.8
423.295	1.82
423.501	1.86
423.706	1.88
423.911	1.96
424.117	1.97
424.322	1.96
424.527	1.93
424.733	1.87
424.938	1.89
425.143	1.88
425.349	1.81
425.554	1.74
425.759	1.76
425.964	1.8
426.169	1.71
426.375	1.62
426.58	1.59
426.785	1.49
426.99	1.53
427.195	1.64
427.4	1.61
427.605	1.52
427.811	1.5
428.016	1.58
428.221	1.61
428.426	1.66
428.631	1.76
428.836	1.85
429.041	1.87
429.246	1.8
429.451	1.69
429.656	1.8
429.861	2
430.066	2.15
430.271	1.95
430.476	1.94
430.681	1.97
430.886	1.96
431.09	1.9
431.295	1.95
431.5	2.03
431.705	2.05
431.91	2.05
432.115	1.9
432.32	1.78
432.524	1.9
432.729	1.78
432.934	1.82
433.139	1.83
433.343	1.76
433.548	1.73
433.753	1.74
433.958	1.65
434.162	1.52
434.367	1.56
434.572	1.74
434.776	1.63
434.981	1.84
435.186	1.71
435.39	1.65
435.595	1.69
435.799	1.75
436.004	1.74
436.209	1.83
436.413	1.84
436.618	1.81
436.822	1.63
437.027	1.66
437.231	1.57
437.436	1.58
437.64	1.69
437.845	1.72
438.049	1.68
438.253	1.63
438.458	1.6
438.662	1.6
438.867	1.62
439.071	1.7
439.275	1.61
439.48	1.66
439.684	1.68
439.888	1.6
440.093	1.55
440.297	1.52
440.501	1.61
440.706	1.59
440.91	1.55
441.114	1.5
441.318	1.35
441.523	1.46
441.727	1.28
441.931	1.21
442.135	1.21
442.339	1.18
442.543	1.16
442.748	1.09
442.952	1.13
443.156	1.2
443.36	1.27
443.564	1.35
443.768	1.32
443.972	1.4
444.176	1.44
444.38	1.45
444.584	1.44
444.788	1.48
444.992	1.44
445.196	1.51
445.4	1.52
445.604	1.52
445.808	1.54
446.012	1.58
446.216	1.51
446.42	1.53
446.624	1.51
446.828	1.54
447.032	1.53
447.235	1.54
447.439	1.48
447.643	1.49
447.847	1.49
448.051	1.46
448.254	1.49
448.458	1.52
448.662	1.49
448.866	1.53
449.069	1.6
449.273	1.55
449.477	1.66
449.681	1.73
449.884	1.58
450.088	1.61
450.292	1.44
450.495	1.38
450.699	1.52
450.902	1.57
451.106	1.59
451.31	1.45
451.513	1.51
451.717	1.56
451.92	1.53
452.124	1.72
452.327	1.75
452.531	1.88
452.734	1.96
452.938	1.76
453.141	1.74
453.345	1.74
453.548	1.74
453.752	1.72
453.955	1.6
454.158	1.56
454.362	1.38
454.565	1.26
454.769	1.39
454.972	1.31
455.175	1.37
455.379	1.35
455.582	1.29
455.785	1.4
455.988	1.37
456.192	1.26
456.395	1.27
456.598	1.43
456.801	1.46
457.005	1.32
457.208	1.3
457.411	1.36
457.614	1.37
457.817	1.43
458.021	1.43
458.224	1.45
458.427	1.57
458.63	1.59
458.833	1.46
459.036	1.47
459.239	1.47
459.442	1.48
459.645	1.38
459.848	1.38
460.051	1.32
460.254	1.33
460.457	1.34
460.66	1.26
460.863	1.18
461.066	1.19
461.269	1.23
461.472	1.25
461.675	1.27
461.878	1.37
462.081	1.31
462.284	1.33
462.486	1.24
462.689	1.19
462.892	1.25
463.095	1.35
463.298	1.32
463.5	1.16
463.703	1.13
463.906	1.06
464.109	1.17
464.311	1.21
464.514	1.09
464.717	1.07
464.92	1.12
465.122	1.1
465.325	1.19
465.528	1.3
465.73	1.42
465.933	1.41
466.135	1.47
466.338	1.41
466.541	1.45
466.743	1.59
466.946	1.64
467.148	1.69
467.351	1.68
467.553	1.62
467.756	1.54
467.958	1.52
468.161	1.6
468.363	1.59
468.566	1.57
468.768	1.5
468.971	1.41
469.173	1.29
469.375	1.31
469.578	1.3
469.78	1.35
469.983	1.41
470.185	1.46
470.387	1.41
470.59	1.4
470.792	1.28
470.994	1.35
471.196	1.4
471.399	1.5
471.601	1.48
471.803	1.52
472.005	1.45
472.208	1.52
