Data from 2938450_Reflection_1.txt Node
Date: Fri Jun 19 18:00:20 EDT 2015
User: robert
Spectrometer: USB4E03002
Autoset integration time: false
Trigger mode: 4
Integration Time (sec): 1.000000E-1
Scans to average: 10
Electric dark correction enabled: true
Nonlinearity correction enabled: false
Boxcar width: 5
Stray light correction enabled: false
XAxis mode: Wavelengths
Stop averaging: false
Number of Pixels in Spectrum: 3648
>>>>>Begin Spectral Data<<<<<
177.575	-615.47
177.794	-231.21
178.014	-313.34
178.233	-148.78
178.452	-31.84
178.672	-66.35
178.891	126.84
179.11	-699.61
179.33	-695.5
179.549	-306.13
179.768	-171.8
179.987	-177.87
180.207	-201.63
180.426	-345.77
180.645	-210.49
180.864	-283.82
181.084	456.67
181.303	269.49
181.522	136.26
181.741	148.32
181.96	71.97
182.179	92.81
182.398	69.16
182.618	82.53
182.837	109.09
183.056	105.79
183.275	86.14
183.494	72
183.713	82.8
183.932	94.79
184.151	135.95
184.37	255.23
184.589	385.96
184.808	421.71
185.027	440.4
185.246	342.58
185.465	925.1
185.684	598500
185.903	-371.09
186.122	-334.05
186.341	-314.37
186.56	-278.85
186.779	-255.25
186.998	-250.22
187.216	-97.05
187.435	-59.87
187.654	-58.05
187.873	-51.93
188.092	-112.61
188.311	-53.29
188.53	-38.3
188.748	-99.96
188.967	5.79
189.186	-95.49
189.405	-450.97
189.623	-13861.9
189.842	-1445.08
190.061	-289.96
190.28	-566.2
190.498	-513.93
190.717	727.73
190.936	538.73
191.154	480.68
191.373	297.33
191.592	304.72
191.81	764.36
192.029	1356.88
192.248	366.62
192.466	360.23
192.685	397.66
192.904	255.35
193.122	539.86
193.341	-1561.57
193.559	3903.47
193.778	-9263.83
193.996	-1703.16
194.215	937.6
194.433	465.44
194.652	-975.91
194.87	-145.29
195.089	-302.01
195.307	-257.98
195.526	-858.18
195.744	424.71
195.963	442500
196.181	1451.88
196.399	536.23
196.618	365.78
196.836	371.57
197.055	273.21
197.273	244.59
197.491	256.93
197.71	195.04
197.928	213.94
198.146	233.01
198.365	148.85
198.583	154.04
198.801	254.37
199.019	559.64
199.238	370.76
199.456	418.21
199.674	387.87
199.892	-1621.32
200.111	-161.38
200.329	-155.56
200.547	-73.34
200.765	-34.23
200.983	-39.18
201.202	-1.92
201.42	4.65
201.638	13.96
201.856	16.54
202.074	-13.52
202.292	-61.67
202.51	-97.89
202.728	-84.17
202.946	-759.5
203.165	-8753.95
203.383	800.94
203.601	345.31
203.819	994.05
204.037	-912.26
204.255	-494.08
204.473	-260.33
204.691	-470.83
204.909	-284
205.127	-184.31
205.345	-131.52
205.562	-89.48
205.78	-107.8
205.998	-112.38
206.216	-248.64
206.434	-1410.1
206.652	636.5
206.87	376.63
207.088	2122.43
207.306	372.18
207.523	141.44
207.741	103.87
207.959	121.42
208.177	107.16
208.395	93.01
208.612	108.92
208.83	92.47
209.048	96.43
209.266	69.54
209.483	86.35
209.701	76.29
209.919	74.14
210.136	111.72
210.354	128.88
210.572	118.65
210.79	165.49
211.007	117.57
211.225	127.23
211.442	76.73
211.66	92.65
211.878	68.03
212.095	98.3
212.313	104.59
212.53	94.29
212.748	83
212.966	88.51
213.183	77.81
213.401	94.57
213.618	120.7
213.836	145.03
214.053	177.24
214.271	307.93
214.488	214.29
214.705	211.72
214.923	200.71
215.14	148.7
215.358	148.36
215.575	202.45
215.793	180.16
216.01	66.96
216.227	45.83
216.445	38.87
216.662	47.69
216.879	59.48
217.097	69.45
217.314	59.76
217.531	89.31
217.749	77.75
217.966	92.47
218.183	102
218.4	102.84
218.618	113.86
218.835	91.65
219.052	104.08
219.269	96.08
219.487	82.81
219.704	71.63
219.921	63.85
220.138	77.1
220.355	73.42
220.572	44.26
220.79	33.53
221.007	41.17
221.224	47.15
221.441	48.76
221.658	44.31
221.875	43.02
222.092	38.88
222.309	44.52
222.526	39.27
222.743	29.28
222.96	37.33
223.177	32.11
223.394	22.03
223.611	20.33
223.828	23.63
224.045	28.03
224.262	29.3
224.479	34.1
224.696	32.02
224.913	34.58
225.13	36.88
225.347	35.16
225.564	32.28
225.781	32.72
225.997	31.09
226.214	27.5
226.431	26.3
226.648	24.18
226.865	21.84
227.082	22.1
227.298	20.59
227.515	19.85
227.732	19.22
227.949	20.72
228.165	19.87
228.382	19.5
228.599	18.73
228.816	17
229.032	15.88
229.249	17.75
229.466	15.63
229.682	14.33
229.899	12.1
230.116	11.43
230.332	11.57
230.549	12.04
230.765	11.89
230.982	10.79
231.199	11.54
231.415	13.67
231.632	11.29
231.848	14.93
232.065	16.05
232.281	19.1
232.498	19.53
232.714	20.43
232.931	19.06
233.147	20.12
233.364	22.55
233.58	22.43
233.797	25.74
234.013	27.34
234.23	23.21
234.446	24.11
234.662	24.15
234.879	22.57
235.095	18.36
235.312	18.12
235.528	19.76
235.744	19.79
235.961	18.64
236.177	14.14
236.393	13.83
236.61	19.01
236.826	20.52
237.042	21.15
237.258	20.79
237.475	21.94
237.691	21.5
237.907	20.62
238.123	20.52
238.339	20.86
238.556	20.8
238.772	19.81
238.988	18.48
239.204	18.02
239.42	17.15
239.636	18.48
239.853	17.28
240.069	17.26
240.285	16.84
240.501	16.15
240.717	16.17
240.933	16.37
241.149	16.53
241.365	15.95
241.581	15.33
241.797	15.59
242.013	14.92
242.229	15.44
242.445	15.69
242.661	15.39
242.877	15.85
243.093	14.71
243.309	14.27
243.525	13.85
243.741	13.72
243.957	13.72
244.173	13.25
244.388	12.33
244.604	12.29
244.82	12.05
245.036	11.36
245.252	10.94
245.468	11.33
245.683	10.93
245.899	10.89
246.115	10.61
246.331	10.37
246.547	10
246.762	10.06
246.978	10.31
247.194	10.2
247.409	10.4
247.625	10.3
247.841	10.23
248.057	10.69
248.272	10.27
248.488	10.17
248.703	9.48
248.919	9.73
249.135	10.19
249.35	9.55
249.566	9.32
249.782	9.6
249.997	10.11
250.213	10.51
250.428	10.38
250.644	11.39
250.859	12.26
251.075	13.31
251.29	13.31
251.506	13.22
251.721	13.73
251.937	13.58
252.152	14.44
252.368	13.73
252.583	14.35
252.798	14.65
253.014	15
253.229	14.43
253.445	13.42
253.66	11.86
253.875	10.96
254.091	8.69
254.306	9.19
254.521	8.63
254.737	9.61
254.952	8
255.167	7.62
255.383	6.67
255.598	7.55
255.813	7.73
256.028	8.61
256.244	9.63
256.459	10.38
256.674	10.38
256.889	9.29
257.104	8.7
257.32	8.76
257.535	8.33
257.75	8.35
257.965	7.9
258.18	7.94
258.395	8.18
258.61	8.21
258.826	7.74
259.041	7.46
259.256	7.61
259.471	7.58
259.686	7.83
259.901	8.44
260.116	7.93
260.331	8.09
260.546	8.51
260.761	8.41
260.976	7.69
261.191	8.82
261.406	9.32
261.621	9.66
261.836	9.63
262.05	9.95
262.265	9.97
262.48	11.14
262.695	11.31
262.91	11.37
263.125	10.9
263.34	11.76
263.555	10.37
263.769	9.41
263.984	9.76
264.199	10.27
264.414	9.71
264.629	9.06
264.843	8.16
265.058	7.97
265.273	7.29
265.488	7.47
265.702	6.67
265.917	7.51
266.132	8.05
266.346	8.21
266.561	8.3
266.776	8.05
266.99	7.59
267.205	8.21
267.42	8.5
267.634	8.36
267.849	8.71
268.063	9.51
268.278	9.15
268.492	9.18
268.707	8.76
268.922	8.25
269.136	8.21
269.351	8.22
269.565	8.26
269.78	7.51
269.994	7.58
270.209	7.86
270.423	7.67
270.637	8
270.852	8.24
271.066	8.39
271.281	9.11
271.495	9.39
271.709	9.59
271.924	9.28
272.138	9.9
272.353	9.86
272.567	9.57
272.781	10.12
272.996	9.98
273.21	9.73
273.424	9.57
273.638	8.97
273.853	8.75
274.067	8.58
274.281	9.12
274.495	8.22
274.71	8.63
274.924	8.44
275.138	8.09
275.352	7.85
275.566	8.02
275.781	7.89
275.995	7.78
276.209	8.44
276.423	8.97
276.637	8.77
276.851	9.05
277.065	8.67
277.279	8.98
277.493	8.97
277.707	8.59
277.921	8.3
278.135	8.71
278.349	8.26
278.563	8.03
278.777	8.03
278.991	7.72
279.205	8.13
279.419	8.18
279.633	8.88
279.847	8.56
280.061	9.06
280.275	9.2
280.489	8.93
280.703	9.43
280.917	8.99
281.131	8.58
281.344	8.61
281.558	8.09
281.772	8.38
281.986	7.79
282.2	7.79
282.414	7.41
282.627	7.24
282.841	7.33
283.055	7.07
283.269	7.27
283.482	7.5
283.696	7.65
283.91	8.03
284.123	7.83
284.337	7.67
284.551	7.71
284.764	7.96
284.978	8.07
285.192	8.22
285.405	8.84
285.619	8.75
285.833	9.27
286.046	9.59
286.26	9.66
286.473	9.95
286.687	10.26
286.9	10.49
287.114	10.83
287.327	11.25
287.541	10.47
287.754	10.07
287.968	10.15
288.181	9.76
288.395	9.53
288.608	9.77
288.822	10.02
289.035	9.91
289.248	9.13
289.462	8.94
289.675	8.66
289.889	9.53
290.102	9.23
290.315	9.09
290.529	9.15
290.742	9.43
290.955	9.23
291.169	8.82
291.382	8.94
291.595	9.59
291.808	9.53
292.022	9.21
292.235	8.64
292.448	8.94
292.661	9.04
292.875	9.08
293.088	8.43
293.301	9.16
293.514	8.92
293.727	8.6
293.94	8.97
294.153	8.81
294.367	8.99
294.58	9.21
294.793	9.11
295.006	9.35
295.219	9.29
295.432	9.62
295.645	8.88
295.858	9.46
296.071	9.77
296.284	9.62
296.497	10.12
296.71	10.4
296.923	10.67
297.136	10.89
297.349	10.46
297.562	10.52
297.775	10.14
297.988	10.38
298.201	10.16
298.414	9.92
298.626	10.3
298.839	9.22
299.052	8.53
299.265	8.53
299.478	8.44
299.691	8.93
299.903	8.95
300.116	9.61
300.329	9.85
300.542	9.89
300.755	10.23
300.967	10.03
301.18	10.6
301.393	11.15
301.605	11.11
301.818	11.55
302.031	11.53
302.243	11.79
302.456	11.44
302.669	11.42
302.881	11.54
303.094	11.21
303.307	11.03
303.519	10.98
303.732	10.93
303.944	11.1
304.157	11.34
304.37	11.44
304.582	11.21
304.795	11.36
305.007	11.55
305.22	11.02
305.432	11.17
305.645	11.25
305.857	11.98
306.069	11.71
306.282	11.31
306.494	10.82
306.707	10.43
306.919	10.65
307.132	10.59
307.344	10.46
307.556	11.06
307.769	11.53
307.981	11.64
308.193	11.05
308.406	10.69
308.618	10.61
308.83	10.33
309.043	10.48
309.255	10.21
309.467	10.27
309.679	10.07
309.892	9.78
310.104	9.22
310.316	9.14
310.528	9.53
310.74	10.18
310.953	10.31
311.165	10.75
311.377	11.17
311.589	11.54
311.801	11.99
312.013	12.93
312.225	12.79
312.437	13.19
312.649	13.77
312.862	13.4
313.074	12.73
313.286	12.93
313.498	12.67
313.71	13.03
313.922	12.87
314.134	13.24
314.346	11.73
314.558	11.97
314.77	11.41
314.982	11.17
315.193	11.54
315.405	12.19
315.617	12.26
315.829	12.54
316.041	12.56
316.253	12.61
316.465	11.87
316.677	12.39
316.888	12.59
317.1	12.63
317.312	12.37
317.524	11.8
317.736	12.08
317.947	13.16
318.159	12.73
318.371	12.02
318.583	11.95
318.794	11.86
319.006	11.69
319.218	11.23
319.43	11.73
319.641	11.18
319.853	11.21
320.064	11.79
320.276	10.65
320.488	10.61
320.699	9.9
320.911	9.84
321.123	9.07
321.334	9.82
321.546	10.26
321.757	10.21
321.969	10.66
322.18	11.35
322.392	10.36
322.603	9.43
322.815	9.84
323.026	9.99
323.238	9.88
323.449	10.57
323.661	10.14
323.872	10.05
324.083	9.92
324.295	9.71
324.506	9.28
324.718	9.65
324.929	10.35
325.14	9.96
325.352	10.82
325.563	10.65
325.774	10.75
325.986	10.94
326.197	10.93
326.408	11.05
326.62	11.57
326.831	11.96
327.042	11.34
327.253	11.21
327.464	11.87
327.676	10.85
327.887	10.78
328.098	10.7
328.309	10.44
328.52	10.79
328.732	10.71
328.943	10.92
329.154	10.71
329.365	11.04
329.576	11.21
329.787	10.95
329.998	11.82
330.209	11.97
330.42	12.54
330.631	12.7
330.842	12.41
331.053	12.02
331.264	11.66
331.475	11.47
331.686	11.83
331.897	12.21
332.108	11.76
332.319	11.46
332.53	11.67
332.741	11.31
332.952	11.56
333.163	11.47
333.374	11.68
333.585	11.08
333.795	11.5
334.006	11.5
334.217	11.2
334.428	11.39
334.639	11.43
334.849	11.58
335.06	11.38
335.271	11.03
335.482	10.64
335.692	10.52
335.903	11.08
336.114	10.87
336.325	10.57
336.535	10.72
336.746	10.86
336.957	10.86
337.167	10.87
337.378	10.84
337.589	11.33
337.799	11.37
338.01	11.66
338.22	11.5
338.431	11.51
338.642	11.64
338.852	11.67
339.063	11.39
339.273	11.24
339.484	10.93
339.694	10.93
339.905	10.95
340.115	11.3
340.326	10.93
340.536	10.96
340.746	11.12
340.957	11.19
341.167	11.08
341.378	11.3
341.588	11.48
341.799	11.46
342.009	10.98
342.219	10.03
342.43	9.77
342.64	9.92
342.85	9.48
343.061	8.9
343.271	8.82
343.481	8.79
343.691	8.88
343.902	8.69
344.112	8.59
344.322	9.07
344.532	9.82
344.743	9.91
344.953	9.76
345.163	9.89
345.373	10.12
345.583	10.27
345.793	10.09
346.004	10.11
346.214	9.92
346.424	10.55
346.634	10.68
346.844	10.39
347.054	10.04
347.264	10.31
347.474	10.4
347.684	10.63
347.894	10.08
348.104	10.99
348.314	10.6
348.524	10.62
348.734	10.01
348.944	9.5
349.154	9.56
349.364	10.07
349.574	9.81
349.784	9.96
349.994	10.13
350.204	10.31
350.413	9.08
350.623	9.49
350.833	9.38
351.043	9.29
351.253	9.09
351.463	8.96
351.672	8.95
351.882	9.74
352.092	9.88
352.302	10.23
352.511	10.54
352.721	10.42
352.931	10.45
353.141	10.4
353.35	10.48
353.56	10.55
353.77	10.52
353.979	9.8
354.189	9.52
354.399	9.29
354.608	8.85
354.818	8.74
355.027	9.26
355.237	9.1
355.447	9.51
355.656	9.53
355.866	9.53
356.075	9.95
356.285	10.73
356.494	10.89
356.704	10.87
356.913	10.76
357.123	10.45
357.332	10.05
357.542	9.64
357.751	9.5
357.96	9.79
358.17	9.84
358.379	9.85
358.589	9.6
358.798	9.28
359.007	9.2
359.217	8.95
359.426	8.7
359.635	8.77
359.845	9.11
360.054	9.01
360.263	8.61
360.472	8.99
360.682	8.59
360.891	8.19
361.1	8.03
361.309	8.27
361.519	8.26
361.728	8.71
361.937	8.87
362.146	8.67
362.355	8.67
362.564	8.71
362.774	8.61
362.983	8.68
363.192	8.86
363.401	9.03
363.61	8.82
363.819	9.23
364.028	9.06
364.237	8.74
364.446	8.36
364.655	8.01
364.864	8.3
365.073	8.36
365.282	8.05
365.491	8.1
365.7	8.23
365.909	8.16
366.118	7.69
366.327	7.71
366.536	8.24
366.745	8.67
366.954	8.98
367.162	8.64
367.371	8.47
367.58	8.6
367.789	8.59
367.998	8.03
368.207	7.86
368.415	7.79
368.624	7.81
368.833	7.57
369.042	7.19
369.25	7.28
369.459	7.6
369.668	7.55
369.877	7.72
370.085	7.72
370.294	7.95
370.503	7.83
370.711	8.05
370.92	8.01
371.129	8.1
371.337	8.14
371.546	8.11
371.754	7.76
371.963	7.36
372.171	7.17
372.38	7.13
372.589	7.4
372.797	7.8
373.006	7.88
373.214	7.88
373.423	7.48
373.631	7.97
373.84	7.93
374.048	8.09
374.256	8.41
374.465	8.54
374.673	8.34
374.882	7.98
375.09	7.86
375.298	7.38
375.507	7.68
375.715	7.78
375.923	7.49
376.132	7.34
376.34	6.98
376.548	6.7
376.757	6.48
376.965	6.69
377.173	6.78
377.381	6.75
377.59	7.01
377.798	6.85
378.006	6.69
378.214	6.77
378.423	6.84
378.631	6.93
378.839	7.25
379.047	7.37
379.255	7.05
379.463	6.82
379.671	6.91
379.879	6.79
380.088	6.56
380.296	6.65
380.504	6.52
380.712	6.77
380.92	6.93
381.128	6.73
381.336	6.49
381.544	6.42
381.752	6.26
381.96	6.04
382.168	6.28
382.376	6.42
382.584	6.24
382.791	6.43
382.999	6.37
383.207	6.18
383.415	6.13
383.623	6.31
383.831	6.68
384.039	7
384.247	7.04
384.454	6.66
384.662	6.28
384.87	6.29
385.078	6.01
385.285	5.83
385.493	5.97
385.701	6
385.909	6.06
386.116	5.99
386.324	5.95
386.532	5.88
386.739	6.16
386.947	6.11
387.155	6.14
387.362	6.37
387.57	6.4
387.778	6.3
387.985	6.07
388.193	5.82
388.4	5.62
388.608	5.46
388.816	5.41
389.023	5.11
389.231	5.23
389.438	5.16
389.646	5.13
389.853	5.11
390.061	4.81
390.268	4.91
390.475	4.81
390.683	4.97
390.89	4.9
391.098	4.87
391.305	5.08
391.512	4.97
391.72	4.86
391.927	4.7
392.135	4.53
392.342	4.88
392.549	4.96
392.756	5.13
392.964	4.93
393.171	5.2
393.378	5.35
393.586	5.28
393.793	5.29
394	5.34
394.207	5.27
394.414	5.5
394.622	5.47
394.829	5.44
395.036	5.53
395.243	5.52
395.45	5.28
395.657	4.94
395.864	4.85
396.072	5
396.279	5.01
396.486	4.97
396.693	4.9
396.9	4.72
397.107	4.58
397.314	4.42
397.521	4.42
397.728	4.37
397.935	4.55
398.142	4.45
398.349	4.54
398.556	4.62
398.763	4.67
398.97	4.65
399.177	4.77
399.383	4.83
399.59	4.95
399.797	5
400.004	5.02
400.211	4.95
400.418	5.05
400.625	4.84
400.831	4.6
401.038	4.68
401.245	4.62
401.452	4.37
401.658	4.26
401.865	4.13
402.072	4.2
402.279	4.16
402.485	3.97
402.692	3.97
402.899	3.97
403.105	4.17
403.312	4.06
403.519	4.13
403.725	4.21
403.932	4.35
404.138	4.41
404.345	4.3
404.552	4.31
404.758	4.51
404.965	4.43
405.171	4.16
405.378	4.13
405.584	4.04
405.791	3.9
405.997	3.86
406.204	3.68
406.41	3.57
406.617	3.56
406.823	3.4
407.029	3.21
407.236	3.35
407.442	3.56
407.649	3.55
407.855	3.63
408.061	3.7
408.268	3.75
408.474	3.77
408.68	3.69
408.887	3.76
409.093	3.93
409.299	4.09
409.505	4.05
409.712	4.11
409.918	3.99
410.124	3.94
410.33	3.87
410.537	3.82
410.743	3.77
410.949	3.95
411.155	3.95
411.361	3.87
411.567	3.87
411.773	3.88
411.98	3.92
412.186	4.12
412.392	4.07
412.598	4.08
412.804	4.15
413.01	4.17
413.216	4.17
413.422	4.01
413.628	4.06
413.834	4.07
414.04	4.12
414.246	4
414.452	3.94
414.658	3.93
414.864	3.96
415.07	3.91
415.275	4.01
415.481	4.06
415.687	4
415.893	3.93
416.099	3.84
416.305	3.8
416.511	3.97
416.716	3.95
416.922	3.9
417.128	3.89
417.334	3.85
417.539	3.7
417.745	3.62
417.951	3.69
418.157	3.69
418.362	3.69
418.568	3.57
418.774	3.42
418.979	3.37
419.185	3.44
419.391	3.46
419.596	3.49
419.802	3.56
420.008	3.57
420.213	3.66
420.419	3.76
420.624	3.86
420.83	3.85
421.035	3.81
421.241	3.86
421.446	3.85
421.652	3.78
421.857	3.77
422.063	3.81
422.268	3.76
422.474	3.65
422.679	3.55
422.885	3.5
423.09	3.57
423.295	3.63
423.501	3.61
423.706	3.54
423.911	3.53
424.117	3.54
424.322	3.49
424.527	3.47
424.733	3.47
424.938	3.43
425.143	3.42
425.349	3.4
425.554	3.39
425.759	3.44
425.964	3.5
426.169	3.56
426.375	3.55
426.58	3.58
426.785	3.74
426.99	3.89
427.195	3.95
427.4	3.82
427.605	3.77
427.811	3.75
428.016	3.65
428.221	3.63
428.426	3.66
428.631	3.7
428.836	3.61
429.041	3.43
429.246	3.26
429.451	3.35
429.656	3.42
429.861	3.47
430.066	3.47
430.271	3.53
430.476	3.62
430.681	3.6
430.886	3.44
431.09	3.51
431.295	3.65
431.5	3.71
431.705	3.62
431.91	3.67
432.115	3.68
432.32	3.73
432.524	3.81
432.729	3.76
432.934	3.74
433.139	3.86
433.343	3.8
433.548	3.72
433.753	3.7
433.958	3.73
434.162	3.74
434.367	3.77
434.572	3.68
434.776	3.56
434.981	3.53
435.186	3.5
435.39	3.51
435.595	3.58
435.799	3.55
436.004	3.65
436.209	3.55
436.413	3.47
436.618	3.36
436.822	3.42
437.027	3.39
437.231	3.34
437.436	3.38
437.64	3.34
437.845	3.31
438.049	3.27
438.253	3.1
438.458	3.25
438.662	3.21
438.867	3.23
439.071	3.26
439.275	3.26
439.48	3.23
439.684	3.22
439.888	3.17
440.093	3.18
440.297	3.22
440.501	3.3
440.706	3.29
440.91	3.29
441.114	3.24
441.318	3.24
441.523	3.24
441.727	3.18
441.931	3.12
442.135	3.22
442.339	3.23
442.543	3.35
442.748	3.28
442.952	3.2
443.156	3.24
443.36	3.3
443.564	3.3
443.768	3.28
443.972	3.38
444.176	3.47
444.38	3.36
444.584	3.27
444.788	3.13
444.992	3.14
445.196	3.12
445.4	3.08
445.604	3.11
445.808	3.2
446.012	3.2
446.216	3.2
446.42	3.17
446.624	3.28
446.828	3.35
447.032	3.45
447.235	3.47
447.439	3.46
447.643	3.47
447.847	3.47
448.051	3.31
448.254	3.42
448.458	3.4
448.662	3.41
448.866	3.29
449.069	3.31
449.273	3.18
449.477	3.17
449.681	3.19
449.884	3.23
450.088	3.19
450.292	3.16
450.495	3.01
450.699	3.06
450.902	3.05
451.106	3.08
451.31	2.98
451.513	3.03
451.717	3
451.92	3.07
452.124	3.04
452.327	3.06
452.531	3.08
452.734	3.07
452.938	2.96
453.141	2.95
453.345	2.99
453.548	3.08
453.752	3.11
453.955	3.18
454.158	3.14
454.362	3.15
454.565	3.21
454.769	3.18
454.972	3.33
455.175	3.39
455.379	3.39
455.582	3.28
455.785	3.21
455.988	3.23
456.192	3.09
456.395	3.02
456.598	3
456.801	2.94
457.005	2.99
457.208	3
457.411	3.05
457.614	3.04
457.817	3.15
458.021	3.18
458.224	3.24
458.427	3.32
458.63	3.31
458.833	3.38
459.036	3.31
459.239	3.28
459.442	3.24
459.645	3.21
459.848	3.21
460.051	3.16
460.254	3.13
460.457	3.12
460.66	3.06
460.863	3.21
461.066	3.13
461.269	3.25
461.472	3.16
461.675	3.17
461.878	3.16
462.081	3.14
462.284	3.06
462.486	2.99
462.689	2.8
462.892	2.89
463.095	2.82
463.298	2.8
463.5	2.78
463.703	2.87
463.906	2.9
464.109	2.83
464.311	2.85
464.514	3
464.717	3.15
