Data from 2938522_Reflection_3.txt Node
Date: Tue Jun 16 22:14:24 EDT 2015
User: robert
Spectrometer: USB4E03002
Autoset integration time: false
Trigger mode: 4
Integration Time (sec): 1.000000E-1
Scans to average: 10
Electric dark correction enabled: true
Nonlinearity correction enabled: false
Boxcar width: 5
Stray light correction enabled: false
XAxis mode: Wavelengths
Stop averaging: false
Number of Pixels in Spectrum: 3648
>>>>>Begin Spectral Data<<<<<
177.575	-213.26
177.794	-187.51
178.014	-72.19
178.233	-47.56
178.452	-59.95
178.672	-43.49
178.891	105.72
179.11	2078.51
179.33	4758.76
179.549	1212.04
179.768	463.93
179.987	684.56
180.207	783.42
180.426	284.52
180.645	195.95
180.864	224.24
181.084	217.72
181.303	174.23
181.522	118.95
181.741	112.38
181.96	118.79
182.179	134.51
182.398	112.13
182.618	90.96
182.837	89.58
183.056	79.13
183.275	72.13
183.494	70.41
183.713	68.49
183.932	75.43
184.151	66.01
184.37	68.84
184.589	70.12
184.808	64.37
185.027	82.39
185.246	105.53
185.465	112.05
185.684	124.24
185.903	133.08
186.122	137.1
186.341	127.54
186.56	185.7
186.779	167.82
186.998	179.69
187.216	202.87
187.435	250.43
187.654	257.48
187.873	432.44
188.092	604.96
188.311	-402.35
188.53	-120.29
188.748	-251.48
188.967	-4156.25
189.186	412.34
189.405	192.96
189.623	150.12
189.842	156.68
190.061	119.11
190.28	104.37
190.498	71.65
190.717	94
190.936	96.99
191.154	92.09
191.373	95.74
191.592	95.8
191.81	100.27
192.029	104.53
192.248	99.13
192.466	105.56
192.685	99.38
192.904	118.66
193.122	111.57
193.341	136.65
193.559	123.12
193.778	117.47
193.996	144.38
194.215	176.91
194.433	179.47
194.652	197.29
194.87	172.93
195.089	172.57
195.307	177.36
195.526	199.62
195.744	187.68
195.963	224.53
196.181	197.93
196.399	195.93
196.618	188.83
196.836	174.84
197.055	147.65
197.273	167.89
197.491	163.39
197.71	170.25
197.928	138.35
198.146	144.91
198.365	121.69
198.583	136.33
198.801	128.65
199.019	129.52
199.238	146.07
199.456	145.71
199.674	141.34
199.892	132.46
200.111	104.17
200.329	105.68
200.547	76.57
200.765	73.67
200.983	74.81
201.202	65.19
201.42	70.74
201.638	75.91
201.856	86.62
202.074	93.27
202.292	96.14
202.51	119.24
202.728	119.1
202.946	133.27
203.165	154.06
203.383	179.11
203.601	202.63
203.819	166.42
204.037	141.81
204.255	139.9
204.473	125.12
204.691	135.18
204.909	129.41
205.127	136.64
205.345	133.13
205.562	123.42
205.78	138.62
205.998	120.97
206.216	117.01
206.434	122.75
206.652	126.78
206.87	122.86
207.088	117.88
207.306	124.26
207.523	109.63
207.741	108.69
207.959	119.19
208.177	105.64
208.395	109.01
208.612	112.47
208.83	108.25
209.048	92.16
209.266	90.38
209.483	71.56
209.701	63.08
209.919	60.68
210.136	63.01
210.354	56.5
210.572	59.98
210.79	65.8
211.007	65.53
211.225	76.19
211.442	77.02
211.66	82.61
211.878	108.74
212.095	182.46
212.313	204.23
212.53	229.24
212.748	199.44
212.966	186.98
213.183	180.03
213.401	191.02
213.618	169.13
213.836	190.68
214.053	169.61
214.271	164.9
214.488	71.04
214.705	80.27
214.923	81.59
215.14	74.57
215.358	69.86
215.575	58.7
215.793	63.99
216.01	67.13
216.227	76.04
216.445	78.25
216.662	88.35
216.879	97.37
217.097	87.11
217.314	84.49
217.531	90.03
217.749	101.8
217.966	102.95
218.183	97.25
218.4	85.81
218.618	76.61
218.835	77.2
219.052	63.27
219.269	56.01
219.487	54.23
219.704	58.24
219.921	55.76
220.138	47.19
220.355	45.91
220.572	60.75
220.79	63.87
221.007	60.98
221.224	58.09
221.441	58.82
221.658	64.73
221.875	64.01
222.092	47.63
222.309	46.29
222.526	47.4
222.743	49.43
222.96	37.95
223.177	39.27
223.394	37.44
223.611	34.11
223.828	34.04
224.045	30.15
224.262	33.78
224.479	38.58
224.696	36.73
224.913	35.12
225.13	30.66
225.347	28.21
225.564	24.24
225.781	21.64
225.997	21.66
226.214	21.66
226.431	20.08
226.648	17.59
226.865	16.49
227.082	14.72
227.298	14.56
227.515	14.82
227.732	15.79
227.949	15.53
228.165	16.31
228.382	16.39
228.599	16.57
228.816	17.01
229.032	16.74
229.249	15.85
229.466	17.01
229.682	17.94
229.899	18.3
230.116	16.59
230.332	18.27
230.549	17.92
230.765	17.83
230.982	18.22
231.199	17.51
231.415	20.41
231.632	21.01
231.848	22.12
232.065	19.26
232.281	21.19
232.498	21.53
232.714	20.76
232.931	20.65
233.147	20.65
233.364	18.66
233.58	18.58
233.797	17.99
234.013	19
234.23	19.46
234.446	20.21
234.662	18.87
234.879	18.74
235.095	18.72
235.312	19.03
235.528	21.11
235.744	21.29
235.961	22.3
236.177	21.1
236.393	22.33
236.61	20.97
236.826	22.46
237.042	23.12
237.258	24.54
237.475	25.17
237.691	25.61
237.907	23.85
238.123	23.87
238.339	23.25
238.556	22.03
238.772	20.96
238.988	20.71
239.204	19.07
239.42	17.44
239.636	15.54
239.853	14.21
240.069	12.73
240.285	12.16
240.501	11.13
240.717	10.67
240.933	9.93
241.149	9.53
241.365	9.61
241.581	9.82
241.797	10.14
242.013	10.74
242.229	10.92
242.445	11.72
242.661	11.66
242.877	12.61
243.093	12.74
243.309	13.29
243.525	12.74
243.741	11.62
243.957	11.12
244.173	10.58
244.388	10.72
244.604	10.48
244.82	9.72
245.036	9.35
245.252	9.32
245.468	9.07
245.683	9.33
245.899	9.67
246.115	9.87
246.331	9.49
246.547	9.52
246.762	9.46
246.978	9.66
247.194	10.12
247.409	10.68
247.625	11.08
247.841	11.41
248.057	10.82
248.272	10.67
248.488	11.12
248.703	11.28
248.919	11.08
249.135	10.75
249.35	10.29
249.566	9.65
249.782	9.78
249.997	9.34
250.213	9.21
250.428	10.04
250.644	10.48
250.859	10.86
251.075	11.63
251.29	12.14
251.506	12.19
251.721	12.61
251.937	13.45
252.152	13.13
252.368	12.62
252.583	12.69
252.798	12.98
253.014	13.28
253.229	11.85
253.445	12.36
253.66	12.2
253.875	12.31
254.091	12.86
254.306	12.13
254.521	11.79
254.737	11.78
254.952	10.92
255.167	9.79
255.383	9.46
255.598	9.93
255.813	8.96
256.028	9.03
256.244	8.83
256.459	8.14
256.674	7.85
256.889	7.78
257.104	7.53
257.32	7.93
257.535	7.62
257.75	7.26
257.965	6.83
258.18	7.01
258.395	7.12
258.61	6.79
258.826	7.01
259.041	7.2
259.256	7.26
259.471	7.33
259.686	7.47
259.901	7.6
260.116	7.75
260.331	8.08
260.546	8.52
260.761	8.28
260.976	8.55
261.191	8.17
261.406	8.57
261.621	8.01
261.836	7.78
262.05	7.82
262.265	8.6
262.48	9.13
262.695	9.05
262.91	8.22
263.125	8.37
263.34	8.5
263.555	8.58
263.769	8.13
263.984	9.4
264.199	9.85
264.414	9.35
264.629	9.46
264.843	9.26
265.058	9.22
265.273	9.22
265.488	9.18
265.702	9.37
265.917	9.85
266.132	10.02
266.346	9.48
266.561	9.85
266.776	9.61
266.99	9.07
267.205	9
267.42	8.87
267.634	8.71
267.849	8.89
268.063	8.72
268.278	8.21
268.492	8.26
268.707	8.24
268.922	8.12
269.136	8.19
269.351	8.12
269.565	7.69
269.78	7.86
269.994	7.95
270.209	7.5
270.423	7.54
270.637	7.6
270.852	6.65
271.066	6.77
271.281	6.56
271.495	6.55
271.709	6.95
271.924	6.67
272.138	6.8
272.353	6.95
272.567	7.16
272.781	7.09
272.996	7.32
273.21	8.26
273.424	8.31
273.638	8.51
273.853	9.1
274.067	8.72
274.281	9.66
274.495	9.39
274.71	9.42
274.924	8.98
275.138	8.85
275.352	8.51
275.566	8.38
275.781	8.64
275.995	8.04
276.209	7.57
276.423	7.59
276.637	7.69
276.851	7.34
277.065	6.88
277.279	7.22
277.493	7.36
277.707	7.21
277.921	7.04
278.135	6.75
278.349	7.45
278.563	7.06
278.777	7.54
278.991	7.01
279.205	6.84
279.419	7.09
279.633	7.62
279.847	8.03
280.061	8.29
280.275	8.58
280.489	8.5
280.703	8.16
280.917	8.53
281.131	8.06
281.344	8.27
281.558	8.61
281.772	8.82
281.986	8.07
282.2	7.71
282.414	7.54
282.627	7.14
282.841	7.41
283.055	7.26
283.269	7.23
283.482	7.29
283.696	6.97
283.91	7.15
284.123	6.54
284.337	6.94
284.551	6.66
284.764	7.02
284.978	7.02
285.192	6.58
285.405	6.6
285.619	6.49
285.833	6.64
286.046	6.47
286.26	6.38
286.473	6.83
286.687	6.66
286.9	6.83
287.114	6.47
287.327	6.74
287.541	6.74
287.754	6.72
287.968	6.93
288.181	6.46
288.395	6.67
288.608	6.81
288.822	6.67
289.035	6.78
289.248	6.6
289.462	6.78
289.675	6.49
289.889	6.98
290.102	7.15
290.315	7.02
290.529	7.29
290.742	7.03
290.955	6.38
291.169	6.25
291.382	6.8
291.595	7.21
291.808	6.92
292.022	7.38
292.235	7.18
292.448	7.3
292.661	7.17
292.875	7.32
293.088	7.94
293.301	8.33
293.514	8.44
293.727	7.81
293.94	7.8
294.153	7.67
294.367	7.48
294.58	6.87
294.793	6.8
295.006	6.57
295.219	6.46
295.432	6.56
295.645	6.46
295.858	6.4
296.071	6.26
296.284	6.33
296.497	6.43
296.71	6.32
296.923	6.77
297.136	6.64
297.349	7.1
297.562	7.43
297.775	7.35
297.988	7.57
298.201	7.87
298.414	8.18
298.626	7.81
298.839	7.93
299.052	7.87
299.265	8
299.478	8.33
299.691	8.43
299.903	8.22
300.116	7.86
300.329	8.16
300.542	8.11
300.755	7.98
300.967	8.39
301.18	8.42
301.393	8.6
301.605	7.89
301.818	7.68
302.031	7.51
302.243	7.47
302.456	7.45
302.669	6.95
302.881	7.3
303.094	7.44
303.307	7.22
303.519	7.17
303.732	7.77
303.944	8.16
304.157	8.44
304.37	8.25
304.582	8.2
304.795	8.36
305.007	8.84
305.22	8.33
305.432	8.37
305.645	8.25
305.857	8.73
306.069	8.56
306.282	8.52
306.494	8.16
306.707	8.23
306.919	8.32
307.132	8.45
307.344	8.25
307.556	8.47
307.769	8.74
307.981	8.9
308.193	8.5
308.406	7.95
308.618	8.36
308.83	8.22
309.043	8.27
309.255	8.33
309.467	8.26
309.679	8.44
309.892	8.36
310.104	8.24
310.316	8.7
310.528	8.48
310.74	8.74
310.953	8.54
311.165	8.89
311.377	8.95
311.589	8.77
311.801	8.67
312.013	8.59
312.225	8.66
312.437	8.41
312.649	8.28
312.862	8.71
313.074	8.66
313.286	8.72
313.498	8.61
313.71	8.75
313.922	9.23
314.134	9.03
314.346	9.1
314.558	9.18
314.77	9.64
314.982	9.38
315.193	9.44
315.405	9.56
315.617	9.29
315.829	9.33
316.041	9.1
316.253	8.92
316.465	9.82
316.677	9.05
316.888	9.08
317.1	8.89
317.312	9.03
317.524	9.14
317.736	9.16
317.947	10.28
318.159	10.24
318.371	10.14
318.583	10.08
318.794	9.45
319.006	10.36
319.218	10.12
319.43	9.88
319.641	9.44
319.853	9.28
320.064	9.51
320.276	9.22
320.488	9.64
320.699	9.9
320.911	9.55
321.123	9.14
321.334	8.96
321.546	9.56
321.757	9.4
321.969	9.78
322.18	10.02
322.392	9.66
322.603	9.22
322.815	8.84
323.026	8.8
323.238	9.09
323.449	9.68
323.661	9.89
323.872	9.69
324.083	10.04
324.295	9.53
324.506	9.16
324.718	9.31
324.929	9.5
325.14	9.67
325.352	9.98
325.563	10.1
325.774	10.06
325.986	9.75
326.197	9.76
326.408	9.78
326.62	10.09
326.831	10.14
327.042	10.22
327.253	10.1
327.464	10.37
327.676	9.7
327.887	9.79
328.098	9.76
328.309	10.29
328.52	10.41
328.732	10.77
328.943	11.1
329.154	11.24
329.365	11.39
329.576	11.34
329.787	11.2
329.998	11.76
330.209	11.76
330.42	12.22
330.631	11.82
330.842	11.81
331.053	11.39
331.264	11.22
331.475	11.28
331.686	11.08
331.897	11.15
332.108	11.11
332.319	11.5
332.53	11.05
332.741	10.75
332.952	10.94
333.163	10.89
333.374	11.01
333.585	10.88
333.795	10.53
334.006	10.99
334.217	10.65
334.428	10.6
334.639	10.14
334.849	10.5
335.06	10.44
335.271	10.43
335.482	10.34
335.692	10.21
335.903	10.35
336.114	10.79
336.325	10.5
336.535	11.22
336.746	11.38
336.957	11.82
337.167	12.29
337.378	12.58
337.589	12.53
337.799	12.52
338.01	12.89
338.22	12.74
338.431	13.04
338.642	13.1
338.852	12.95
339.063	12.7
339.273	12.35
339.484	12.23
339.694	12.1
339.905	11.79
340.115	11.7
340.326	11.15
340.536	11.31
340.746	10.76
340.957	10.79
341.167	10.62
341.378	10.67
341.588	10.47
341.799	10.12
342.009	10.48
342.219	10.88
342.43	10.94
342.64	11
342.85	10.86
343.061	11.03
343.271	10.68
343.481	10.42
343.691	10.43
343.902	10.65
344.112	10.88
344.322	10.47
344.532	10.41
344.743	10.33
344.953	10.34
345.163	10.22
345.373	10.01
345.583	10.17
345.793	9.99
346.004	10.09
346.214	9.82
346.424	9.59
346.634	9.64
346.844	9.71
347.054	9.72
347.264	10.15
347.474	9.98
347.684	9.91
347.894	9.69
348.104	10.05
348.314	10
348.524	10.3
348.734	10.13
348.944	10.11
349.154	9.92
349.364	9.7
349.574	9.23
349.784	9.42
349.994	9.95
350.204	10.11
350.413	10.18
350.623	10.39
350.833	10.36
351.043	10.51
351.253	10.66
351.463	10.47
351.672	10.87
351.882	11.12
352.092	11.25
352.302	10.86
352.511	10.66
352.721	10.48
352.931	10.45
353.141	10.54
353.35	10.7
353.56	10.28
353.77	10.29
353.979	10.25
354.189	10.12
354.399	10.2
354.608	10.46
354.818	10.82
355.027	10.94
355.237	10.79
355.447	10.46
355.656	10.35
355.866	10.25
356.075	10.2
356.285	10.15
356.494	10.25
356.704	10.2
356.913	10.11
357.123	10
357.332	9.94
357.542	9.84
357.751	9.92
357.96	9.63
358.17	9.84
358.379	10.1
358.589	10.04
358.798	9.82
359.007	9.77
359.217	9.59
359.426	9.5
359.635	9.68
359.845	9.58
360.054	9.56
360.263	9.75
360.472	9.6
360.682	9.54
360.891	9.44
361.1	9.43
361.309	9.32
361.519	9.28
361.728	9.22
361.937	9.11
362.146	9.17
362.355	9.31
362.564	9.11
362.774	9.21
362.983	9.15
363.192	9.36
363.401	9.58
363.61	9.76
363.819	9.8
364.028	9.84
364.237	9.64
364.446	9.53
364.655	9.27
364.864	9.39
365.073	9.29
365.282	9.23
365.491	8.89
365.7	8.77
365.909	8.6
366.118	8.66
366.327	8.74
366.536	8.71
366.745	8.8
366.954	8.85
367.162	9.03
367.371	9.05
367.58	9.07
367.789	8.9
367.998	8.9
368.207	8.93
368.415	8.61
368.624	8.49
368.833	8.47
369.042	8.22
369.25	8.34
369.459	8.11
369.668	8.16
369.877	7.9
370.085	8.27
370.294	8.23
370.503	8.11
370.711	8.34
370.92	8.04
371.129	8.27
371.337	8.37
371.546	8.1
371.754	8.03
371.963	7.83
372.171	7.96
372.38	7.77
372.589	7.62
372.797	7.54
373.006	7.46
373.214	7.77
373.423	7.48
373.631	7.37
373.84	7.53
374.048	7.57
374.256	7.69
374.465	7.71
374.673	7.85
374.882	7.78
375.09	7.96
375.298	8.02
375.507	8.09
375.715	8.17
375.923	8.51
376.132	8.35
376.34	8.46
376.548	8.32
376.757	8.25
376.965	8.16
377.173	8.25
377.381	8.05
377.59	8.14
377.798	7.99
378.006	7.83
378.214	7.54
378.423	7.56
378.631	7.22
378.839	7.48
379.047	7.51
379.255	7.46
379.463	7.53
379.671	7.34
379.879	7.11
380.088	7.08
380.296	7.11
380.504	7.17
380.712	7.29
380.92	7.6
381.128	7.37
381.336	7.36
381.544	7.04
381.752	7.08
381.96	7.21
382.168	7.31
382.376	7.24
382.584	7.32
382.791	7.06
382.999	7.09
383.207	6.96
383.415	7
383.623	6.78
383.831	7.03
384.039	6.79
384.247	6.79
384.454	6.65
384.662	6.57
384.87	6.36
385.078	6.66
385.285	6.47
385.493	6.35
385.701	6.16
385.909	6.33
386.116	6.16
386.324	6.2
386.532	6.45
386.739	6.64
386.947	6.52
387.155	6.62
387.362	6.67
387.57	6.62
387.778	6.52
387.985	6.6
388.193	6.57
388.4	6.56
388.608	6.68
388.816	6.34
389.023	6.07
389.231	6.02
389.438	6.11
389.646	5.95
389.853	6.01
390.061	6.03
390.268	6.03
390.475	5.96
390.683	6
390.89	5.8
391.098	6.02
391.305	6.26
391.512	6.49
391.72	6.15
391.927	6.03
392.135	5.76
392.342	5.78
392.549	5.83
392.756	5.63
392.964	5.46
393.171	5.53
393.378	5.47
393.586	5.35
393.793	5.09
394	5.42
394.207	5.52
394.414	5.71
394.622	5.74
394.829	5.64
395.036	5.81
395.243	5.83
395.45	5.78
395.657	5.59
395.864	5.53
396.072	5.81
396.279	5.71
396.486	5.53
396.693	5.43
396.9	5.44
397.107	5.35
397.314	5.45
397.521	5.58
397.728	5.67
397.935	5.88
398.142	5.84
398.349	5.77
398.556	5.64
398.763	5.78
398.97	5.86
399.177	5.67
399.383	5.73
399.59	5.43
399.797	5.4
400.004	5.15
400.211	4.96
400.418	4.78
400.625	4.67
400.831	4.64
401.038	4.48
401.245	4.47
401.452	4.55
401.658	4.56
401.865	4.74
402.072	4.75
402.279	4.98
402.485	4.99
402.692	5.03
402.899	4.95
403.105	4.97
403.312	5.06
403.519	4.98
403.725	4.9
403.932	4.83
404.138	4.88
404.345	4.85
404.552	4.69
404.758	4.58
404.965	4.55
405.171	4.65
405.378	4.65
405.584	4.66
405.791	4.73
405.997	4.96
406.204	5.24
406.41	5.19
406.617	5.21
406.823	5.16
407.029	5.27
407.236	5.52
407.442	5.5
407.649	5.56
407.855	5.27
408.061	5.23
408.268	4.95
408.474	4.7
408.68	4.67
408.887	4.58
409.093	4.78
409.299	4.67
409.505	4.51
409.712	4.43
409.918	4.48
410.124	4.62
410.33	4.75
410.537	4.86
410.743	4.87
410.949	4.87
411.155	5.06
411.361	4.79
411.567	4.93
411.773	4.84
411.98	4.95
412.186	4.84
412.392	4.97
412.598	4.64
412.804	4.5
413.01	4.52
413.216	4.55
413.422	4.5
413.628	4.58
413.834	4.41
414.04	4.41
414.246	4.33
414.452	4.22
414.658	4.24
414.864	4.42
415.07	4.39
415.275	4.45
415.481	4.33
415.687	4.31
415.893	4.31
416.099	4.32
416.305	4.33
416.511	4.31
416.716	4.4
416.922	4.34
417.128	4.31
417.334	4.28
417.539	4.06
417.745	4.01
417.951	3.96
418.157	3.96
418.362	4.04
418.568	4.02
418.774	3.97
418.979	3.91
419.185	3.78
419.391	3.64
419.596	3.7
419.802	3.73
420.008	3.71
420.213	4.38
420.419	4.32
420.624	4.17
420.83	4.21
421.035	4.22
421.241	4.22
421.446	4.28
421.652	4.33
421.857	4.23
422.063	4.3
422.268	4.39
422.474	3.69
422.679	3.71
422.885	3.72
423.09	3.58
423.295	3.56
423.501	3.59
423.706	3.54
423.911	3.49
424.117	3.6
424.322	3.49
424.527	3.47
424.733	3.5
424.938	3.48
425.143	3.61
425.349	3.75
425.554	3.71
425.759	3.6
425.964	3.72
426.169	3.82
426.375	3.75
426.58	3.88
426.785	3.9
426.99	3.83
427.195	3.89
427.4	3.83
427.605	3.86
427.811	3.93
428.016	3.88
428.221	3.92
428.426	3.88
428.631	3.94
428.836	3.91
429.041	3.9
429.246	3.87
429.451	3.75
429.656	3.61
429.861	3.62
430.066	3.63
430.271	3.74
430.476	3.61
430.681	3.69
430.886	3.68
431.09	3.66
431.295	3.57
431.5	3.58
431.705	3.63
431.91	3.71
432.115	3.63
432.32	3.63
432.524	3.6
432.729	3.73
432.934	3.69
433.139	3.68
433.343	3.65
433.548	3.65
433.753	3.61
433.958	3.6
434.162	3.68
434.367	3.67
434.572	3.63
434.776	3.5
434.981	3.43
435.186	3.48
435.39	3.41
435.595	3.45
435.799	3.5
436.004	3.54
436.209	3.45
436.413	3.35
436.618	3.39
436.822	3.39
437.027	3.56
437.231	3.42
437.436	3.37
437.64	3.37
437.845	3.32
438.049	3.24
438.253	3.23
438.458	3.27
438.662	3.28
438.867	3.24
439.071	3.23
439.275	3.17
439.48	3.31
439.684	3.24
439.888	3.36
440.093	3.33
440.297	3.36
440.501	3.42
440.706	3.42
440.91	3.48
441.114	3.51
441.318	3.52
441.523	3.6
441.727	3.59
441.931	3.63
442.135	3.51
442.339	3.56
442.543	3.54
442.748	3.48
442.952	3.57
443.156	3.46
443.36	3.4
443.564	3.38
443.768	3.3
443.972	3.25
444.176	3.34
444.38	3.37
444.584	3.33
444.788	3.33
444.992	3.35
445.196	3.27
445.4	3.26
445.604	3.27
445.808	3.34
446.012	3.27
446.216	3.24
446.42	3.18
446.624	3.16
446.828	3.24
447.032	3.26
447.235	3.28
447.439	3.29
447.643	3.37
447.847	3.36
448.051	3.33
448.254	3.44
448.458	3.44
448.662	3.48
448.866	3.44
449.069	3.47
449.273	3.46
449.477	3.33
449.681	3.34
449.884	3.37
450.088	3.35
450.292	3.28
450.495	3.36
450.699	3.51
450.902	3.42
451.106	3.41
451.31	3.38
451.513	3.47
451.717	3.54
451.92	3.48
452.124	3.37
452.327	3.44
452.531	3.5
452.734	3.4
452.938	3.36
453.141	3.43
453.345	3.43
453.548	3.33
453.752	3.25
453.955	3.26
454.158	3.29
454.362	3.33
454.565	3.37
454.769	3.34
454.972	3.36
455.175	3.3
455.379	3.28
455.582	3.33
455.785	3.42
455.988	3.42
456.192	3.46
456.395	3.43
456.598	3.43
456.801	3.3
457.005	3.33
457.208	3.32
457.411	3.29
457.614	3.23
457.817	3.17
458.021	3.14
458.224	3.13
458.427	3.07
458.63	3.09
458.833	3.14
459.036	3.15
459.239	3.11
459.442	3.06
459.645	3.08
459.848	3.14
460.051	3.13
460.254	3.11
460.457	3.06
460.66	3.14
460.863	3.18
461.066	3.22
461.269	3.23
461.472	3.31
461.675	3.36
461.878	3.38
462.081	3.3
462.284	3.38
462.486	3.38
462.689	3.49
462.892	3.49
463.095	3.41
463.298	3.21
463.5	3.34
463.703	3.25
463.906	3.33
464.109	3.38
464.311	3.47
464.514	3.52
464.717	3.5
464.92	3.5
465.122	3.58
465.325	3.64
465.528	3.8
465.73	3.76
465.933	3.71
466.135	3.73
466.338	3.65
466.541	3.67
466.743	3.61
466.946	3.63
