Data from 2938513_Reflection_1.txt Node
Date: Tue Jun 16 22:41:12 EDT 2015
User: robert
Spectrometer: USB4E03002
Autoset integration time: false
Trigger mode: 4
Integration Time (sec): 1.000000E-1
Scans to average: 10
Electric dark correction enabled: true
Nonlinearity correction enabled: false
Boxcar width: 5
Stray light correction enabled: false
XAxis mode: Wavelengths
Stop averaging: false
Number of Pixels in Spectrum: 3648
>>>>>Begin Spectral Data<<<<<
177.575	33.81
177.794	29.02
178.014	26.47
178.233	17.63
178.452	32.6
178.672	49.94
178.891	86.35
179.11	-240.91
179.33	-929.03
179.549	-44.6
179.768	19.26
179.987	32.95
180.207	-13.62
180.426	-56.68
180.645	-1004.71
180.864	598.84
181.084	89.47
181.303	93.27
181.522	64.38
181.741	51.65
181.96	43.35
182.179	59.67
182.398	75.83
182.618	64.67
182.837	40.37
183.056	41.12
183.275	40.08
183.494	-116.93
183.713	326.64
183.932	364.59
184.151	310.18
184.37	924.27
184.589	-3.87
184.808	43.87
185.027	60.5
185.246	59.44
185.465	60.29
185.684	67.5
185.903	119.68
186.122	112.17
186.341	109.26
186.56	115.98
186.779	182.46
186.998	241.98
187.216	236.96
187.435	156.86
187.654	97.95
187.873	161.01
188.092	112.06
188.311	100.19
188.53	63.57
188.748	31.71
188.967	-2075.27
189.186	-129.29
189.405	32.2
189.623	52.04
189.842	55.39
190.061	107.83
190.28	79
190.498	53.39
190.717	68.76
190.936	82.75
191.154	92.79
191.373	117.08
191.592	117.4
191.81	102.56
192.029	88.47
192.248	81.22
192.466	87.79
192.685	97.83
192.904	201.83
193.122	293.85
193.341	2.99
193.559	-3.12
193.778	46.63
193.996	-32.66
194.215	-435.08
194.433	-264.19
194.652	-720.73
194.87	2367.87
195.089	357.38
195.307	345.84
195.526	139.27
195.744	168.23
195.963	141
196.181	102.42
196.399	87.09
196.618	77.79
196.836	79.72
197.055	49.51
197.273	58.83
197.491	86.63
197.71	39.95
197.928	61.64
198.146	63.96
198.365	19.26
198.583	67.05
198.801	58.69
199.019	56.87
199.238	47.59
199.456	42.51
199.674	34.6
199.892	78.19
200.111	93.03
200.329	66.51
200.547	63.2
200.765	54.34
200.983	52.95
201.202	42.57
201.42	32.76
201.638	29.11
201.856	54.93
202.074	46.39
202.292	33.11
202.51	50.63
202.728	52.76
202.946	45.79
203.165	72.76
203.383	49.36
203.601	61.85
203.819	108.03
204.037	110.83
204.255	82.65
204.473	96.16
204.691	85.61
204.909	84.12
205.127	78.08
205.345	82.03
205.562	55.37
205.78	84.52
205.998	86.01
206.216	48.12
206.434	47.21
206.652	63.04
206.87	92.4
207.088	109.09
207.306	55.28
207.523	66.69
207.741	52.32
207.959	81.15
208.177	79.32
208.395	83.26
208.612	70.62
208.83	70.77
209.048	72.37
209.266	71.33
209.483	57.89
209.701	60.75
209.919	76.36
210.136	79.74
210.354	76.84
210.572	69.24
210.79	59.5
211.007	75.45
211.225	66.68
211.442	62.96
211.66	51.97
211.878	55.53
212.095	72.71
212.313	71.85
212.53	69.7
212.748	71.22
212.966	76.21
213.183	82.59
213.401	86.42
213.618	91.09
213.836	88.85
214.053	96.96
214.271	106.41
214.488	104.53
214.705	103.42
214.923	110.63
215.14	102.97
215.358	69.68
215.575	57.81
215.793	44.42
216.01	38.52
216.227	52.34
216.445	13.92
216.662	12.56
216.879	16.79
217.097	6.71
217.314	-4.3
217.531	-6.55
217.749	5.22
217.966	24.27
218.183	17.96
218.4	11.21
218.618	1.61
218.835	24.09
219.052	4.66
219.269	3.22
219.487	15.34
219.704	16.28
219.921	17.97
220.138	25.25
220.355	20.38
220.572	25.62
220.79	28.09
221.007	23.02
221.224	23.2
221.441	43.47
221.658	44.4
221.875	44.6
222.092	45.46
222.309	42.99
222.526	34.6
222.743	39.63
222.96	41.63
223.177	46.79
223.394	49.39
223.611	44.87
223.828	40.62
224.045	41.87
224.262	32.83
224.479	31.33
224.696	33.09
224.913	30.15
225.13	26.04
225.347	22.69
225.564	17.52
225.781	16.03
225.997	14.83
226.214	12.68
226.431	10.93
226.648	12.95
226.865	12.7
227.082	11.85
227.298	12.78
227.515	11.79
227.732	11.87
227.949	11.6
228.165	10.56
228.382	11.07
228.599	11.94
228.816	11.9
229.032	11.77
229.249	12.28
229.466	11.39
229.682	9.77
229.899	10.66
230.116	11.68
230.332	12.77
230.549	12.12
230.765	12.74
230.982	10.61
231.199	10.99
231.415	8.37
231.632	6.62
231.848	8.3
232.065	9.8
232.281	9.9
232.498	7.04
232.714	6.82
232.931	9.06
233.147	5.29
233.364	6.55
233.58	4.97
233.797	5.38
234.013	5.53
234.23	3.54
234.446	3.84
234.662	1.41
234.879	4.06
235.095	6.12
235.312	6.69
235.528	10.28
235.744	9.56
235.961	10.76
236.177	13.35
236.393	13.46
236.61	15.19
236.826	13.43
237.042	14.55
237.258	11.09
237.475	8.82
237.691	8.45
237.907	8.93
238.123	8.79
238.339	10.66
238.556	10.6
238.772	9.63
238.988	10.55
239.204	11.94
239.42	12.06
239.636	13.28
239.853	13.66
240.069	13.06
240.285	11.54
240.501	12.11
240.717	11.48
240.933	11.4
241.149	11.69
241.365	10.6
241.581	10.54
241.797	10.17
242.013	10.06
242.229	9.25
242.445	9.45
242.661	9.94
242.877	9.59
243.093	10.18
243.309	10.56
243.525	10.5
243.741	10.91
243.957	10.65
244.173	10.9
244.388	10.39
244.604	10.56
244.82	10.26
245.036	9.86
245.252	9.83
245.468	9.43
245.683	9.09
245.899	9.06
246.115	9.21
246.331	9.23
246.547	8.9
246.762	8.94
246.978	9.09
247.194	9.37
247.409	10.1
247.625	10.05
247.841	10.08
248.057	10.37
248.272	10.72
248.488	10.64
248.703	10.06
248.919	11.07
249.135	11.05
249.35	10.84
249.566	10.67
249.782	9.61
249.997	9.89
250.213	10.26
250.428	9.78
250.644	9.19
250.859	9.56
251.075	9.97
251.29	9.24
251.506	8.66
251.721	8.55
251.937	8.54
252.152	8.93
252.368	8.53
252.583	8.42
252.798	8.36
253.014	9.72
253.229	9.26
253.445	9.08
253.66	8.49
253.875	9.38
254.091	9.49
254.306	9.97
254.521	9.72
254.737	9.69
254.952	9.8
255.167	9.59
255.383	8.3
255.598	7.84
255.813	7.69
256.028	7.33
256.244	7.96
256.459	7.9
256.674	6.82
256.889	7.6
257.104	7.33
257.32	7.11
257.535	7.25
257.75	7.15
257.965	7.28
258.18	7.26
258.395	7.47
258.61	7.27
258.826	7.41
259.041	8.08
259.256	7.67
259.471	7.82
259.686	7.95
259.901	7.76
260.116	8.2
260.331	8.5
260.546	8.48
260.761	8.21
260.976	8.24
261.191	7.95
261.406	6.69
261.621	6.77
261.836	6.4
262.05	5.94
262.265	6.12
262.48	5.78
262.695	5.21
262.91	4.68
263.125	5.09
263.34	5.48
263.555	4.9
263.769	5.9
263.984	5.39
264.199	5.98
264.414	6.14
264.629	6.41
264.843	6.54
265.058	7.22
265.273	8.03
265.488	8.13
265.702	8.08
265.917	8.58
266.132	8.52
266.346	8.88
266.561	8.6
266.776	8.43
266.99	8.49
267.205	8.57
267.42	7.89
267.634	7.73
267.849	7.55
268.063	7.65
268.278	6.73
268.492	6.42
268.707	6.69
268.922	6.56
269.136	7.09
269.351	7.17
269.565	6.9
269.78	6.93
269.994	6.96
270.209	6.87
270.423	6.33
270.637	7.15
270.852	7.17
271.066	6.88
271.281	6.95
271.495	7.17
271.709	6.68
271.924	6.5
272.138	6.43
272.353	6.51
272.567	6.8
272.781	7.08
272.996	6.86
273.21	6.92
273.424	6.77
273.638	6.52
273.853	5.96
274.067	6.42
274.281	6.45
274.495	6.88
274.71	6.56
274.924	6.07
275.138	6.19
275.352	5.76
275.566	5.94
275.781	6.21
275.995	6.79
276.209	6.43
276.423	6.35
276.637	5.96
276.851	6.03
277.065	5.94
277.279	6.18
277.493	6.1
277.707	6.26
277.921	6.18
278.135	6.29
278.349	6.04
278.563	6
278.777	5.96
278.991	6.73
279.205	6.74
279.419	6.93
279.633	6.89
279.847	7.04
280.061	6.81
280.275	6.78
280.489	6.98
280.703	6.86
280.917	7.07
281.131	6.73
281.344	6.44
281.558	6.63
281.772	6.79
281.986	6.87
282.2	7.03
282.414	7.48
282.627	7.82
282.841	7.44
283.055	7.53
283.269	7.21
283.482	7.81
283.696	8.06
283.91	7.55
284.123	7.41
284.337	7.47
284.551	7.32
284.764	7.1
284.978	6.87
285.192	7.12
285.405	7.31
285.619	7.26
285.833	7.16
286.046	7.09
286.26	6.84
286.473	6.79
286.687	7.28
286.9	7.21
287.114	7.87
287.327	7.7
287.541	7.5
287.754	7.52
287.968	7.94
288.181	7.8
288.395	7.75
288.608	8.23
288.822	8.35
289.035	7.72
289.248	8.18
289.462	7.95
289.675	7.82
289.889	7.78
290.102	7.48
290.315	7.61
290.529	7.61
290.742	7.75
290.955	7.84
291.169	8.33
291.382	8.78
291.595	8.4
291.808	8.71
292.022	8.96
292.235	9.46
292.448	9.84
292.661	10.11
292.875	10.13
293.088	9.97
293.301	10.21
293.514	9.87
293.727	9.87
293.94	9.74
294.153	9.49
294.367	9.56
294.58	9.44
294.793	9.6
295.006	9.39
295.219	9.32
295.432	9.4
295.645	9.36
295.858	9.47
296.071	9.43
296.284	9.44
296.497	9.63
296.71	9.89
296.923	9.83
297.136	9.96
297.349	10.23
297.562	10.61
297.775	10.84
297.988	10.7
298.201	10.88
298.414	10.88
298.626	11.04
298.839	11.24
299.052	10.93
299.265	11.12
299.478	10.82
299.691	10.66
299.903	10.21
300.116	10.4
300.329	10.25
300.542	10.24
300.755	10.64
300.967	10.56
301.18	10.07
301.393	9.93
301.605	10.11
301.818	10.27
302.031	10.2
302.243	10.84
302.456	10.25
302.669	10.93
302.881	10.55
303.094	10.5
303.307	10.6
303.519	11.02
303.732	11.73
303.944	11.61
304.157	11.67
304.37	11.67
304.582	11.26
304.795	11.3
305.007	10.94
305.22	11.53
305.432	11.57
305.645	11.63
305.857	11.3
306.069	10.86
306.282	11.06
306.494	10.84
306.707	10.68
306.919	10.85
307.132	10.88
307.344	10.53
307.556	10.17
307.769	10.03
307.981	10.53
308.193	10.49
308.406	10.5
308.618	10.44
308.83	10.77
309.043	11.14
309.255	11.37
309.467	11.6
309.679	12.13
309.892	12.34
310.104	12.37
310.316	11.95
310.528	12.13
310.74	12.37
310.953	12.18
311.165	12.28
311.377	11.95
311.589	11.69
311.801	11.59
312.013	11.56
312.225	11.52
312.437	11.47
312.649	11.41
312.862	11.31
313.074	11.21
313.286	11.57
313.498	11.4
313.71	11.65
313.922	11.83
314.134	11.66
314.346	11.63
314.558	11.59
314.77	11.69
314.982	11.66
315.193	12.12
315.405	12.12
315.617	11.73
315.829	11.3
316.041	11.4
316.253	10.97
316.465	11.11
316.677	10.62
316.888	10.92
317.1	10.97
317.312	11.75
317.524	11.4
317.736	11.03
317.947	11.47
318.159	11.96
318.371	11.97
318.583	12.24
318.794	12.27
319.006	12.63
319.218	12.17
319.43	12.08
319.641	11.51
319.853	11.39
320.064	11.65
320.276	11.24
320.488	10.99
320.699	10.58
320.911	10.37
321.123	10.8
321.334	11.19
321.546	11.51
321.757	11.51
321.969	11.52
322.18	11.36
322.392	11.66
322.603	11.98
322.815	11.52
323.026	11.85
323.238	12.05
323.449	12.13
323.661	11.33
323.872	11.27
324.083	11.26
324.295	11.56
324.506	12.37
324.718	12.34
324.929	11.92
325.14	12.42
325.352	12.24
325.563	11.93
325.774	11.88
325.986	12.22
326.197	12.49
326.408	12.43
326.62	12.12
326.831	11.16
327.042	10.87
327.253	10.98
327.464	10.54
327.676	10.74
327.887	10.83
328.098	10.61
328.309	10.83
328.52	10.74
328.732	10.46
328.943	10.72
329.154	10.71
329.365	10.47
329.576	10.5
329.787	10.96
329.998	10.67
330.209	10.97
330.42	11.09
330.631	10.49
330.842	10.05
331.053	10.71
331.264	10.32
331.475	10.66
331.686	10.78
331.897	10.56
332.108	10.47
332.319	10.67
332.53	10.9
332.741	10.64
332.952	10.74
333.163	10.73
333.374	10.26
333.585	10.16
333.795	10.07
334.006	10.27
334.217	10.47
334.428	10.63
334.639	10.61
334.849	10.22
335.06	10.38
335.271	10.04
335.482	9.81
335.692	9.85
335.903	10.01
336.114	10.38
336.325	10.18
336.535	10.48
336.746	9.86
336.957	9.85
337.167	10.34
337.378	10.46
337.589	10.82
337.799	11.44
338.01	11.58
338.22	11.25
338.431	10.76
338.642	10.83
338.852	10.62
339.063	10.96
339.273	10.82
339.484	10.18
339.694	9.71
339.905	9.7
340.115	9.63
340.326	9.32
340.536	9.59
340.746	9.58
340.957	9.13
341.167	8.8
341.378	8.87
341.588	8.99
341.799	8.84
342.009	9.21
342.219	9.2
342.43	8.8
342.64	9.02
342.85	9.03
343.061	9.41
343.271	9.86
343.481	10.24
343.691	9.83
343.902	9.78
344.112	10.1
344.322	9.95
344.532	10.06
344.743	10.11
344.953	10
345.163	10.69
345.373	10.34
345.583	10.16
345.793	9.86
346.004	10.39
346.214	9.97
346.424	9.75
346.634	9.93
346.844	9.59
347.054	9.53
347.264	9.86
347.474	9.06
347.684	9.39
347.894	9.63
348.104	9.84
348.314	9.24
348.524	9.75
348.734	9.78
348.944	9.6
349.154	10.02
349.364	9.86
349.574	9.76
349.784	9.64
349.994	9.62
350.204	9.42
350.413	9.27
350.623	9.72
350.833	9.33
351.043	9.29
351.253	9.2
351.463	8.87
351.672	9.07
351.882	8.8
352.092	8.96
352.302	8.78
352.511	8.94
352.721	8.94
352.931	8.99
353.141	9.17
353.35	9.05
353.56	9.26
353.77	9.42
353.979	9.3
354.189	9.54
354.399	9.17
354.608	9.15
354.818	9.02
355.027	9.31
355.237	9.09
355.447	9.03
355.656	9.17
355.866	9.07
356.075	8.98
356.285	9.28
356.494	9.28
356.704	9.25
356.913	9.36
357.123	9.42
357.332	9.25
357.542	9.31
357.751	9.18
357.96	9.4
358.17	9.1
358.379	9.26
358.589	9.06
358.798	8.6
359.007	8.89
359.217	8.68
359.426	8.41
359.635	8.19
359.845	8
360.054	8
360.263	7.87
360.472	7.91
360.682	7.79
360.891	7.77
361.1	8.1
361.309	7.88
361.519	7.97
361.728	8.11
361.937	8.28
362.146	8.07
362.355	8.28
362.564	8.18
362.774	8.28
362.983	8.35
363.192	8.35
363.401	8.26
363.61	8.47
363.819	8.17
364.028	7.97
364.237	7.83
364.446	8.31
364.655	8.26
364.864	8.15
365.073	7.78
365.282	7.48
365.491	7.65
365.7	7.61
365.909	7.35
366.118	7.41
366.327	7.51
366.536	7.61
366.745	7.35
366.954	7.11
367.162	7.07
367.371	7.31
367.58	7.41
367.789	7.04
367.998	7.01
368.207	7.14
368.415	7.14
368.624	7.27
368.833	7.24
369.042	7.42
369.25	7.45
369.459	7.5
369.668	7.57
369.877	7.69
370.085	7.61
370.294	7.71
370.503	7.82
370.711	7.83
370.92	7.85
371.129	7.88
371.337	7.65
371.546	7.75
371.754	7.57
371.963	7.65
372.171	7.4
372.38	7.47
372.589	7.4
372.797	7.21
373.006	7.24
373.214	6.97
373.423	6.62
373.631	6.63
373.84	6.89
374.048	6.91
374.256	6.85
374.465	6.97
374.673	7.09
374.882	6.93
375.09	7.07
375.298	6.82
375.507	6.97
375.715	7.13
375.923	7.45
376.132	7.26
376.34	7.23
376.548	6.97
376.757	6.88
376.965	6.62
377.173	6.58
377.381	6.33
377.59	6.58
377.798	6.48
378.006	6.38
378.214	6.25
378.423	6.53
378.631	6.6
378.839	6.74
379.047	6.67
379.255	6.79
379.463	6.86
379.671	7
379.879	6.81
380.088	6.88
380.296	6.92
380.504	6.73
380.712	6.43
380.92	6.29
381.128	6.25
381.336	6.41
381.544	6.38
381.752	6.3
381.96	6.11
382.168	6.29
382.376	6.16
382.584	6
382.791	6.09
382.999	5.77
383.207	6.08
383.415	5.88
383.623	5.79
383.831	5.92
384.039	5.81
384.247	5.99
384.454	6
384.662	5.88
384.87	5.97
385.078	5.83
385.285	5.94
385.493	5.56
385.701	5.72
385.909	5.73
386.116	5.5
386.324	5.55
386.532	5.49
386.739	5.45
386.947	5.63
387.155	5.46
387.362	5.59
387.57	5.7
387.778	5.84
387.985	6.05
388.193	6.11
388.4	6.24
388.608	6.26
388.816	6.22
389.023	6.28
389.231	6.36
389.438	6.55
389.646	6.48
389.853	6.35
390.061	6.37
390.268	6.14
390.475	6.18
390.683	6
390.89	6.08
391.098	6.1
391.305	6.15
391.512	6.1
391.72	5.91
391.927	6.03
392.135	6.03
392.342	5.99
392.549	6.17
392.756	6.16
392.964	6.37
393.171	6.22
393.378	6.29
393.586	5.96
393.793	5.93
394	5.99
394.207	5.93
394.414	5.92
394.622	5.82
394.829	5.55
395.036	5.23
395.243	5.13
395.45	5.34
395.657	5.18
395.864	5.37
396.072	5.36
396.279	5.51
396.486	5.34
396.693	5.51
396.9	5.44
397.107	5.46
397.314	5.43
397.521	5.32
397.728	5.15
397.935	5.07
398.142	5.08
398.349	5.1
398.556	4.81
398.763	4.93
398.97	4.79
399.177	5.12
399.383	5.19
399.59	5.4
399.797	5.36
400.004	5.19
400.211	5.2
400.418	5.15
400.625	5.15
400.831	5.21
401.038	5
401.245	4.94
401.452	4.71
401.658	4.62
401.865	4.44
402.072	4.57
402.279	4.63
402.485	4.6
402.692	4.55
402.899	4.36
403.105	4.4
403.312	4.36
403.519	4.44
403.725	4.33
403.932	4.58
404.138	4.64
404.345	4.56
404.552	4.74
404.758	4.78
404.965	4.67
405.171	4.7
405.378	4.9
405.584	4.97
405.791	4.91
405.997	5.01
406.204	4.63
406.41	4.7
406.617	4.61
406.823	4.55
407.029	4.54
407.236	4.53
407.442	4.52
407.649	4.43
407.855	4.65
408.061	4.62
408.268	4.54
408.474	4.72
408.68	4.73
408.887	4.74
409.093	4.61
409.299	4.54
409.505	4.73
409.712	4.81
409.918	4.64
410.124	4.53
410.33	4.52
410.537	4.54
410.743	4.51
410.949	4.5
411.155	4.66
411.361	4.73
411.567	4.79
411.773	4.73
411.98	4.63
412.186	4.63
412.392	4.55
412.598	4.66
412.804	4.76
413.01	4.93
413.216	4.95
413.422	5.05
413.628	5.08
413.834	5.09
414.04	5.05
414.246	5.16
414.452	5.23
414.658	5.23
414.864	5.14
415.07	5.11
415.275	5.04
415.481	4.87
415.687	4.68
415.893	4.68
416.099	4.71
416.305	4.65
416.511	4.56
416.716	4.49
416.922	4.54
417.128	4.44
417.334	4.47
417.539	4.44
417.745	4.44
417.951	4.49
418.157	4.42
418.362	4.31
418.568	4.27
418.774	4.24
418.979	4.27
419.185	4.26
419.391	4.34
419.596	4.28
419.802	4.24
420.008	4.24
420.213	4.55
420.419	4.56
420.624	4.57
420.83	4.64
421.035	4.78
421.241	4.78
421.446	4.71
421.652	4.61
421.857	4.52
422.063	4.53
422.268	4.48
422.474	4.14
422.679	4.17
422.885	4.12
423.09	4.13
423.295	4.02
423.501	3.93
423.706	3.89
423.911	3.96
424.117	4.09
424.322	4.09
424.527	4.16
424.733	4.13
424.938	4.09
425.143	4.2
425.349	4.18
425.554	4.21
425.759	4.23
425.964	4.34
426.169	4.38
426.375	4.37
426.58	4.36
426.785	4.44
426.99	4.46
427.195	4.53
427.4	4.54
427.605	4.48
427.811	4.47
428.016	4.64
428.221	4.49
428.426	4.43
428.631	4.34
428.836	4.45
429.041	4.41
429.246	4.44
429.451	4.31
429.656	4.32
429.861	4.33
430.066	4.37
430.271	4.31
430.476	4.39
430.681	4.27
430.886	4.34
431.09	4.25
431.295	4.12
431.5	4.1
431.705	4.11
431.91	4.11
432.115	4.15
432.32	4.12
432.524	3.96
432.729	4.11
432.934	4.26
433.139	4.21
433.343	4.22
433.548	4.26
433.753	4.21
433.958	4.22
434.162	4.13
434.367	4.02
434.572	3.9
434.776	4.04
434.981	3.79
435.186	3.77
435.39	3.72
435.595	3.6
435.799	3.55
436.004	3.67
436.209	3.69
436.413	3.73
436.618	3.8
436.822	3.94
437.027	3.9
437.231	3.92
437.436	3.89
437.64	3.92
437.845	3.99
438.049	4.09
438.253	4.01
438.458	4
438.662	3.91
438.867	3.93
439.071	3.88
439.275	3.87
439.48	3.95
439.684	3.97
439.888	4.01
440.093	4
440.297	3.95
440.501	3.93
440.706	3.98
440.91	4.01
441.114	3.95
441.318	3.93
441.523	3.91
441.727	3.92
441.931	3.94
442.135	3.98
442.339	3.92
442.543	3.91
442.748	3.96
442.952	3.98
443.156	4.09
443.36	4.14
443.564	4.14
443.768	4.19
443.972	4.06
444.176	3.97
444.38	3.88
444.584	3.96
444.788	3.96
444.992	3.86
445.196	3.86
445.4	3.76
445.604	3.77
445.808	3.81
446.012	3.77
446.216	3.77
446.42	3.76
446.624	3.83
446.828	3.81
447.032	3.85
447.235	3.94
447.439	3.85
447.643	3.89
447.847	3.88
448.051	3.83
448.254	3.9
448.458	3.99
448.662	3.88
448.866	3.77
449.069	3.78
449.273	3.77
449.477	3.86
449.681	3.81
449.884	3.82
450.088	3.78
450.292	3.75
450.495	3.67
450.699	3.63
450.902	3.79
451.106	3.85
451.31	3.7
451.513	3.65
451.717	3.51
451.92	3.48
452.124	3.42
452.327	3.46
452.531	3.39
452.734	3.38
452.938	3.4
453.141	3.4
453.345	3.28
453.548	3.44
453.752	3.45
453.955	3.5
454.158	3.6
454.362	3.64
454.565	3.72
454.769	3.83
454.972	3.88
455.175	3.88
455.379	3.89
455.582	3.92
455.785	3.88
455.988	3.87
456.192	3.94
456.395	3.86
456.598	3.84
456.801	3.74
457.005	3.66
457.208	3.61
457.411	3.61
457.614	3.59
457.817	3.66
458.021	3.66
458.224	3.69
458.427	3.62
458.63	3.57
458.833	3.63
459.036	3.63
459.239	3.65
459.442	3.63
459.645	3.65
459.848	3.64
460.051	3.55
460.254	3.51
460.457	3.48
460.66	3.44
460.863	3.57
461.066	3.49
461.269	3.53
461.472	3.57
461.675	3.57
461.878	3.51
462.081	3.46
462.284	3.52
462.486	3.53
462.689	3.53
462.892	3.52
463.095	3.51
463.298	3.48
463.5	3.45
463.703	3.48
463.906	3.59
464.109	3.64
464.311	3.58
464.514	3.48
464.717	3.52
464.92	3.52
465.122	3.58
465.325	3.46
465.528	3.52
465.73	3.6
465.933	3.53
466.135	3.51
466.338	3.44
466.541	3.54
466.743	3.65
466.946	3.63
467.148	3.64
467.351	3.6
467.553	3.69
467.756	3.69
467.958	3.58
468.161	3.6
