Data from 2938526_Reflection_2.txt Node
Date: Tue Jun 16 22:03:48 EDT 2015
User: robert
Spectrometer: USB4E03002
Autoset integration time: false
Trigger mode: 4
Integration Time (sec): 1.000000E-1
Scans to average: 10
Electric dark correction enabled: true
Nonlinearity correction enabled: false
Boxcar width: 5
Stray light correction enabled: false
XAxis mode: Wavelengths
Stop averaging: false
Number of Pixels in Spectrum: 3648
>>>>>Begin Spectral Data<<<<<
177.575	-116.93
177.794	-83.59
178.014	9.52
178.233	23.06
178.452	45.21
178.672	55.49
178.891	101.75
179.11	1284.3
179.33	2909.04
179.549	547.91
179.768	273.55
179.987	369.47
180.207	440.31
180.426	104.54
180.645	66.45
180.864	42.75
181.084	38.38
181.303	32.21
181.522	44.25
181.741	39.19
181.96	45.69
182.179	33.16
182.398	41.7
182.618	14.95
182.837	8.59
183.056	4.92
183.275	10.18
183.494	15.59
183.713	18.97
183.932	1.73
184.151	3.34
184.37	0.01
184.589	0.55
184.808	-9.11
185.027	18.6
185.246	30.89
185.465	38.82
185.684	47.35
185.903	50.77
186.122	55.75
186.341	63.71
186.56	89.69
186.779	141.43
186.998	144.05
187.216	176.88
187.435	227.16
187.654	253.12
187.873	351.84
188.092	413.23
188.311	-294.01
188.53	-150.94
188.748	-290.88
188.967	-5932.29
189.186	264.73
189.405	124.48
189.623	65.03
189.842	62.47
190.061	50.59
190.28	44.69
190.498	47.21
190.717	56.71
190.936	54.22
191.154	46.16
191.373	47.25
191.592	41.37
191.81	41.03
192.029	42.48
192.248	58.46
192.466	65.01
192.685	67.33
192.904	46.8
193.122	48.54
193.341	67.56
193.559	59.67
193.778	50.84
193.996	66.01
194.215	71.63
194.433	81.26
194.652	62.86
194.87	71.49
195.089	84.14
195.307	102.6
195.526	110.31
195.744	94.46
195.963	122.87
196.181	115.69
196.399	114.82
196.618	119.87
196.836	99.02
197.055	94.88
197.273	94.87
197.491	84.68
197.71	73.79
197.928	62.13
198.146	75.2
198.365	69.2
198.583	76.09
198.801	81.68
199.019	76.16
199.238	101.58
199.456	97.08
199.674	73.38
199.892	66.19
200.111	57.88
200.329	60.67
200.547	21.7
200.765	-3.32
200.983	4.35
201.202	-3.04
201.42	-1.35
201.638	-2.72
201.856	0.89
202.074	4.48
202.292	-30.91
202.51	-14.37
202.728	-18.08
202.946	4.77
203.165	6.04
203.383	-3.63
203.601	10.25
203.819	-13.5
204.037	-10.76
204.255	-6.21
204.473	27.21
204.691	44.17
204.909	46.41
205.127	51.3
205.345	59.34
205.562	53.17
205.78	37.86
205.998	33.67
206.216	44.43
206.434	47.03
206.652	45.31
206.87	35.84
207.088	45.15
207.306	52.66
207.523	57.59
207.741	52.28
207.959	71.73
208.177	70.15
208.395	68.84
208.612	68.8
208.83	69.54
209.048	67.43
209.266	57.07
209.483	38.39
209.701	23.79
209.919	24.36
210.136	32.55
210.354	10.08
210.572	16.09
210.79	21.97
211.007	19.82
211.225	19.54
211.442	24.31
211.66	27.64
211.878	45.26
212.095	67.21
212.313	59.38
212.53	65.02
212.748	69.08
212.966	65.56
213.183	67.45
213.401	75.08
213.618	67.82
213.836	67.12
214.053	69.78
214.271	71.75
214.488	61.26
214.705	62.34
214.923	49.68
215.14	44.34
215.358	39.4
215.575	28.11
215.793	25.46
216.01	27.89
216.227	43.11
216.445	47.04
216.662	41.61
216.879	47.18
217.097	48.06
217.314	49.84
217.531	52.81
217.749	56.53
217.966	56.43
218.183	56.02
218.4	48.38
218.618	42.9
218.835	41.96
219.052	39.9
219.269	40.12
219.487	36.5
219.704	38.91
219.921	30.21
220.138	29.73
220.355	23.79
220.572	29.68
220.79	30.49
221.007	30.76
221.224	26.3
221.441	22.51
221.658	15.29
221.875	14
222.092	9.71
222.309	16.98
222.526	11.1
222.743	16.44
222.96	13.91
223.177	21.92
223.394	20.38
223.611	22.96
223.828	27.4
224.045	24.77
224.262	30.18
224.479	28.28
224.696	27.33
224.913	28.47
225.13	25.83
225.347	25.42
225.564	19.6
225.781	16.37
225.997	15.21
226.214	13.42
226.431	14.17
226.648	11.6
226.865	12.63
227.082	11.2
227.298	10.89
227.515	11.15
227.732	11.05
227.949	11.43
228.165	11.75
228.382	11.33
228.599	12.42
228.816	11.91
229.032	12.48
229.249	9.66
229.466	9.87
229.682	10.18
229.899	10.4
230.116	8.97
230.332	9.85
230.549	9.27
230.765	8.86
230.982	8.89
231.199	10.38
231.415	10.84
231.632	12.33
231.848	12.39
232.065	11.28
232.281	11.81
232.498	13.11
232.714	11.58
232.931	11.92
233.147	12.26
233.364	9.29
233.58	8.6
233.797	9
234.013	11.07
234.23	12.19
234.446	12.44
234.662	13.14
234.879	11.82
235.095	12.6
235.312	13.84
235.528	15.93
235.744	16.77
235.961	16.68
236.177	14.89
236.393	14.33
236.61	13.82
236.826	13.45
237.042	13.96
237.258	16.08
237.475	16.62
237.691	16.12
237.907	14.36
238.123	16.13
238.339	15.69
238.556	14.72
238.772	14.86
238.988	15.15
239.204	14.56
239.42	13.37
239.636	11.95
239.853	11.29
240.069	10.64
240.285	10.26
240.501	9.18
240.717	9.27
240.933	9.2
241.149	8.94
241.365	8.86
241.581	9.51
241.797	9.44
242.013	9.81
242.229	9.97
242.445	10.78
242.661	10.09
242.877	10.64
243.093	10.52
243.309	11.44
243.525	11.05
243.741	10.54
243.957	10.62
244.173	10.37
244.388	10.61
244.604	10.5
244.82	10.04
245.036	10.71
245.252	10.68
245.468	10.59
245.683	10.27
245.899	10.36
246.115	10.77
246.331	10.49
246.547	10.51
246.762	10.82
246.978	11.36
247.194	11.54
247.409	11.84
247.625	12.18
247.841	12.36
248.057	12.48
248.272	12.87
248.488	12.5
248.703	12.35
248.919	12.24
249.135	11.17
249.35	9.94
249.566	9.61
249.782	9.63
249.997	8.59
250.213	8.56
250.428	8.58
250.644	8.18
250.859	8.64
251.075	8.9
251.29	8.44
251.506	8.29
251.721	8.38
251.937	9.06
252.152	8.31
252.368	8.3
252.583	8.08
252.798	9.16
253.014	9.78
253.229	8.78
253.445	8.99
253.66	9.62
253.875	9.87
254.091	10.15
254.306	8.82
254.521	9.45
254.737	8.9
254.952	8.56
255.167	8.03
255.383	8.06
255.598	7.46
255.813	6.63
256.028	6.87
256.244	6.95
256.459	6.68
256.674	6.69
256.889	6.3
257.104	6.89
257.32	7.52
257.535	6.92
257.75	6.89
257.965	7.1
258.18	7.56
258.395	7.56
258.61	7.39
258.826	7.8
259.041	7.88
259.256	8.29
259.471	8.17
259.686	8.13
259.901	7.98
260.116	7.8
260.331	7.82
260.546	7.74
260.761	7.8
260.976	8.33
261.191	8.06
261.406	8.56
261.621	8.01
261.836	8.1
262.05	7.8
262.265	8.76
262.48	9.74
262.695	10.21
262.91	9.68
263.125	9.8
263.34	9.37
263.555	9.05
263.769	9.09
263.984	9.41
264.199	9.19
264.414	9.02
264.629	9.54
264.843	9.14
265.058	9
265.273	9.11
265.488	9.1
265.702	9.19
265.917	9.74
266.132	9.3
266.346	9.31
266.561	9.64
266.776	9.25
266.99	8.12
267.205	8.07
267.42	8.29
267.634	8.02
267.849	7.92
268.063	7.72
268.278	6.76
268.492	6.75
268.707	6.73
268.922	6.7
269.136	6.79
269.351	7.27
269.565	6.55
269.78	6.24
269.994	6.14
270.209	5.98
270.423	6.1
270.637	6.42
270.852	6.1
271.066	6.11
271.281	6.16
271.495	6.43
271.709	6.73
271.924	6.69
272.138	6.94
272.353	7.72
272.567	7.84
272.781	7.72
272.996	7.74
273.21	7.99
273.424	7.8
273.638	7.46
273.853	7.48
274.067	7.09
274.281	7.62
274.495	7.46
274.71	6.89
274.924	6.88
275.138	6.82
275.352	6.39
275.566	6.74
275.781	7.2
275.995	7.36
276.209	7.82
276.423	7.62
276.637	8.05
276.851	7.73
277.065	7.72
277.279	7.57
277.493	8.33
277.707	8.77
277.921	8.35
278.135	7.36
278.349	7.52
278.563	6.59
278.777	6.88
278.991	6.5
279.205	6.39
279.419	6.1
279.633	6.15
279.847	5.72
280.061	5.64
280.275	5.89
280.489	6.45
280.703	6.19
280.917	6.54
281.131	6.27
281.344	6.57
281.558	6.73
281.772	7.25
281.986	7.4
282.2	7.32
282.414	7.07
282.627	6.94
282.841	7.12
283.055	7.33
283.269	7.3
283.482	7.05
283.696	6.68
283.91	6.92
284.123	6.4
284.337	6.48
284.551	6.52
284.764	6.84
284.978	6.9
285.192	6.61
285.405	6.67
285.619	6.79
285.833	7.54
286.046	7.49
286.26	7.18
286.473	7.37
286.687	7.65
286.9	7.45
287.114	7.19
287.327	7.65
287.541	7.6
287.754	7.55
287.968	7.47
288.181	7.02
288.395	7.29
288.608	7.81
288.822	8.01
289.035	7.43
289.248	7.37
289.462	7.76
289.675	7.4
289.889	7.71
290.102	7.63
290.315	7.75
290.529	7.9
290.742	7.48
290.955	7.22
291.169	7.04
291.382	7.83
291.595	8.33
291.808	8.23
292.022	8.77
292.235	8.62
292.448	8.95
292.661	8.83
292.875	9
293.088	9.32
293.301	9.36
293.514	9.56
293.727	9.14
293.94	9.18
294.153	8.86
294.367	8.36
294.58	8.23
294.793	8.15
295.006	8.31
295.219	8.6
295.432	8.77
295.645	8.61
295.858	8.5
296.071	8.49
296.284	8.4
296.497	8.68
296.71	8.74
296.923	8.88
297.136	8.78
297.349	8.78
297.562	8.54
297.775	8.6
297.988	8.41
298.201	8.84
298.414	9.02
298.626	8.93
298.839	8.77
299.052	8.68
299.265	9
299.478	9.2
299.691	9.25
299.903	9.12
300.116	9.02
300.329	9.83
300.542	9.79
300.755	9.96
300.967	9.79
301.18	10.06
301.393	10.47
301.605	9.89
301.818	9.96
302.031	10.22
302.243	10.22
302.456	10.12
302.669	9.74
302.881	9.87
303.094	9.78
303.307	9.76
303.519	9.78
303.732	9.71
303.944	9.75
304.157	10.1
304.37	9.68
304.582	9.99
304.795	9.94
305.007	9.9
305.22	9.34
305.432	9.79
305.645	10.11
305.857	10.37
306.069	10.71
306.282	10.81
306.494	10.25
306.707	10.39
306.919	10.21
307.132	10.47
307.344	10.78
307.556	10.99
307.769	10.91
307.981	10.77
308.193	10.82
308.406	10.28
308.618	10.53
308.83	10.48
309.043	10.38
309.255	10.34
309.467	10.37
309.679	10.31
309.892	10.43
310.104	10.14
310.316	10.87
310.528	10.66
310.74	10.95
310.953	10.76
311.165	10.89
311.377	10.8
311.589	10.56
311.801	10.37
312.013	10.24
312.225	10.11
312.437	10.36
312.649	10.03
312.862	9.98
313.074	9.96
313.286	10.2
313.498	10.1
313.71	10.39
313.922	11.02
314.134	11.1
314.346	11.16
314.558	11.42
314.77	11.35
314.982	11.19
315.193	10.95
315.405	11.14
315.617	11.21
315.829	11.37
316.041	11.32
316.253	11.2
316.465	12.01
316.677	12.12
316.888	11.91
317.1	11.74
317.312	12.09
317.524	12.81
317.736	12.67
317.947	13.31
318.159	13.19
318.371	13.02
318.583	13.36
318.794	12.76
319.006	12.85
319.218	12.56
319.43	12.06
319.641	11.53
319.853	10.9
320.064	10.86
320.276	10.42
320.488	10.68
320.699	11.13
320.911	10.68
321.123	10.43
321.334	10.49
321.546	10.87
321.757	11.13
321.969	11.55
322.18	12.07
322.392	12.39
322.603	12.15
322.815	12.33
323.026	11.97
323.238	11.97
323.449	12.08
323.661	11.89
323.872	12.32
324.083	12.55
324.295	11.95
324.506	11.34
324.718	11
324.929	10.9
325.14	10.87
325.352	11.12
325.563	11.02
325.774	10.88
325.986	10.99
326.197	10.68
326.408	10.6
326.62	11.15
326.831	11.64
327.042	11.65
327.253	11.78
327.464	11.61
327.676	11.3
327.887	11.33
328.098	11.54
328.309	11.69
328.52	11.78
328.732	12.11
328.943	11.66
329.154	11.41
329.365	11.74
329.576	11.61
329.787	11.61
329.998	11.64
330.209	11.89
330.42	11.89
330.631	11.5
330.842	11.57
331.053	11.05
331.264	11.34
331.475	11.33
331.686	11.23
331.897	11.09
332.108	11.06
332.319	11.16
332.53	10.57
332.741	10.52
332.952	10.55
333.163	10.05
333.374	10.27
333.585	10.11
333.795	9.92
334.006	10.04
334.217	9.93
334.428	9.74
334.639	10.11
334.849	10.46
335.06	10.31
335.271	10.53
335.482	10.67
335.692	10.54
335.903	10.25
336.114	10.59
336.325	10.01
336.535	10.73
336.746	11.06
336.957	10.73
337.167	10.99
337.378	10.89
337.589	10.63
337.799	10.54
338.01	10.84
338.22	11.07
338.431	11.26
338.642	11.51
338.852	11.21
339.063	10.95
339.273	10.78
339.484	10.45
339.694	10.45
339.905	10.45
340.115	10.3
340.326	10.01
340.536	9.96
340.746	9.55
340.957	9.66
341.167	9.31
341.378	9.28
341.588	9.28
341.799	9.2
342.009	9.29
342.219	9.32
342.43	9.55
342.64	9.72
342.85	9.83
343.061	9.6
343.271	9.64
343.481	9.33
343.691	9.34
343.902	9.56
344.112	9.7
344.322	9.61
344.532	9.73
344.743	9.76
344.953	9.38
345.163	9.16
345.373	9.35
345.583	9.07
345.793	9.26
346.004	9.34
346.214	8.94
346.424	8.99
346.634	8.99
346.844	8.75
347.054	8.59
347.264	8.82
347.474	8.87
347.684	8.82
347.894	8.72
348.104	9.08
348.314	9.04
348.524	9.28
348.734	8.87
348.944	9.02
349.154	9.14
349.364	8.95
349.574	8.84
349.784	8.58
349.994	8.57
350.204	8.23
350.413	8.06
350.623	8.22
350.833	8.34
351.043	8.49
351.253	8.22
351.463	7.94
351.672	8.26
351.882	8.12
352.092	8.23
352.302	7.97
352.511	8.58
352.721	8.67
352.931	8.73
353.141	8.41
353.35	8.67
353.56	8.69
353.77	8.76
353.979	8.72
354.189	8.81
354.399	9.11
354.608	9.35
354.818	9.24
355.027	9.29
355.237	9.02
355.447	8.97
355.656	8.64
355.866	8.75
356.075	8.78
356.285	8.54
356.494	8.53
356.704	8.41
356.913	8.57
357.123	8.37
357.332	8.19
357.542	8.22
357.751	8.43
357.96	8.49
358.17	8.55
358.379	8.53
358.589	8.85
358.798	8.85
359.007	8.52
359.217	8.26
359.426	8.32
359.635	8.55
359.845	8.43
360.054	8.29
360.263	8.3
360.472	8.14
360.682	8.1
360.891	7.79
361.1	7.75
361.309	7.9
361.519	7.98
361.728	7.9
361.937	7.74
362.146	7.87
362.355	7.89
362.564	7.85
362.774	7.66
362.983	7.72
363.192	7.68
363.401	7.86
363.61	7.92
363.819	7.88
364.028	7.99
364.237	7.47
364.446	7.12
364.655	7.1
364.864	7.15
365.073	7.37
365.282	7.36
365.491	7.51
365.7	7.5
365.909	7.36
366.118	7.12
366.327	7.1
366.536	7.42
366.745	7.67
366.954	7.46
367.162	7.54
367.371	7.6
367.58	7.69
367.789	7.38
367.998	7.34
368.207	7.28
368.415	7.38
368.624	7.12
368.833	7.08
369.042	6.97
369.25	7.32
369.459	7.13
369.668	7
369.877	6.79
370.085	7.06
370.294	7.04
370.503	6.94
370.711	6.94
370.92	6.94
371.129	7.01
371.337	6.94
371.546	6.61
371.754	6.76
371.963	6.63
372.171	6.55
372.38	6.26
372.589	6.24
372.797	6.28
373.006	6.3
373.214	6.52
373.423	6.45
373.631	6.68
373.84	6.9
374.048	6.69
374.256	6.69
374.465	6.91
374.673	7.15
374.882	6.93
375.09	7.03
375.298	7.09
375.507	7.03
375.715	7.31
375.923	7.43
376.132	7.38
376.34	7.4
376.548	7.54
376.757	7.41
376.965	7.41
377.173	7.39
377.381	7.49
377.59	7.49
377.798	7.42
378.006	7.35
378.214	7.08
378.423	6.85
378.631	6.91
378.839	6.97
379.047	7.04
379.255	6.98
379.463	7.14
379.671	6.7
379.879	6.75
380.088	6.71
380.296	6.42
380.504	6.58
380.712	6.69
380.92	6.58
381.128	6.55
381.336	6.52
381.544	6.42
381.752	6.2
381.96	6.34
382.168	6.18
382.376	6.21
382.584	6.36
382.791	6.15
382.999	6.17
383.207	6.18
383.415	5.99
383.623	5.96
383.831	6.07
384.039	6.14
384.247	6.2
384.454	6.29
384.662	6.22
384.87	6.07
385.078	6.23
385.285	6.23
385.493	6.12
385.701	6.07
385.909	5.89
386.116	5.7
386.324	5.74
386.532	5.96
386.739	5.96
386.947	6
387.155	6.07
387.362	5.92
387.57	5.83
387.778	5.89
387.985	5.81
388.193	5.89
388.4	5.76
388.608	5.74
388.816	5.43
389.023	5.47
389.231	5.49
389.438	5.5
389.646	5.54
389.853	5.69
390.061	5.44
390.268	5.63
390.475	5.78
390.683	5.86
390.89	5.78
391.098	5.93
391.305	6.09
391.512	6.11
391.72	5.99
391.927	5.78
392.135	5.58
392.342	5.69
392.549	5.73
392.756	5.36
392.964	5.33
393.171	5.48
393.378	5.44
393.586	5.18
393.793	5.06
394	5.13
394.207	5.41
394.414	5.4
394.622	5.48
394.829	5.35
395.036	5.57
395.243	5.74
395.45	5.55
395.657	5.48
395.864	5.55
396.072	5.57
396.279	5.63
396.486	5.41
396.693	5.5
396.9	5.65
397.107	5.59
397.314	5.51
397.521	5.6
397.728	5.61
397.935	5.81
398.142	5.84
398.349	5.79
398.556	5.66
398.763	5.82
398.97	5.72
399.177	5.55
399.383	5.56
399.59	5.41
399.797	5.33
400.004	5.27
400.211	5.05
400.418	4.96
400.625	5.08
400.831	5.11
401.038	4.9
401.245	5.04
401.452	5.07
401.658	5.07
401.865	5.14
402.072	5.05
402.279	5.11
402.485	5.05
402.692	5.13
402.899	4.99
403.105	4.96
403.312	5.08
403.519	5
403.725	5.01
403.932	5
404.138	5.13
404.345	5.14
404.552	5.17
404.758	5.23
404.965	5.04
405.171	5.08
405.378	5.21
405.584	5.21
405.791	5.16
405.997	5.24
406.204	5.4
406.41	5.52
406.617	5.43
406.823	5.37
407.029	5.43
407.236	5.6
407.442	5.75
407.649	5.72
407.855	5.68
408.061	5.92
408.268	5.7
408.474	5.63
408.68	5.58
408.887	5.66
409.093	5.78
409.299	5.68
409.505	5.58
409.712	5.51
409.918	5.57
410.124	5.65
410.33	5.57
410.537	5.57
410.743	5.51
410.949	5.36
411.155	5.33
411.361	5.17
411.567	5.25
411.773	5.16
411.98	5.24
412.186	5.02
412.392	5.01
412.598	4.88
412.804	4.99
413.01	4.88
413.216	4.9
413.422	4.91
413.628	5.01
413.834	4.83
414.04	4.92
414.246	4.82
414.452	4.83
414.658	4.88
414.864	4.84
415.07	4.83
415.275	5.03
415.481	4.97
415.687	5.04
415.893	5.08
416.099	5.14
416.305	5.18
416.511	5.13
416.716	5.15
416.922	5.09
417.128	5.2
417.334	5.19
417.539	5.01
417.745	5.06
417.951	5.01
418.157	4.94
418.362	4.99
418.568	4.87
418.774	4.9
418.979	4.93
419.185	4.86
419.391	4.77
419.596	4.75
419.802	4.75
420.008	4.67
420.213	4.63
420.419	4.66
420.624	4.56
420.83	4.56
421.035	4.56
421.241	4.53
421.446	4.55
421.652	4.65
421.857	4.64
422.063	4.76
422.268	4.82
422.474	4.8
422.679	4.81
422.885	4.81
423.09	4.8
423.295	4.78
423.501	4.76
423.706	4.78
423.911	4.62
424.117	4.61
424.322	4.56
424.527	4.56
424.733	4.55
424.938	4.47
425.143	4.54
425.349	4.62
425.554	4.65
425.759	4.65
425.964	4.55
426.169	4.66
426.375	4.56
426.58	4.54
426.785	4.52
426.99	4.59
427.195	4.64
427.4	4.73
427.605	4.76
427.811	4.65
428.016	4.72
428.221	4.77
428.426	4.75
428.631	4.91
428.836	4.88
429.041	4.89
429.246	4.82
429.451	4.69
429.656	4.55
429.861	4.45
430.066	4.56
430.271	4.49
430.476	4.58
430.681	4.63
430.886	4.59
431.09	4.65
431.295	4.54
431.5	4.55
431.705	4.62
431.91	4.66
432.115	4.7
432.32	4.66
432.524	4.63
432.729	4.55
432.934	4.5
433.139	4.51
433.343	4.49
433.548	4.56
433.753	4.59
433.958	4.57
434.162	4.58
434.367	4.58
434.572	4.55
434.776	4.5
434.981	4.56
435.186	4.48
435.39	4.38
435.595	4.37
435.799	4.34
436.004	4.38
436.209	4.32
436.413	4.17
436.618	4.22
436.822	4.23
437.027	4.28
437.231	4.16
437.436	4.17
437.64	4.21
437.845	4.23
438.049	4.24
438.253	4.19
438.458	4.31
438.662	4.39
438.867	4.43
439.071	4.41
439.275	4.39
439.48	4.5
439.684	4.51
439.888	4.59
440.093	4.59
440.297	4.5
440.501	4.54
440.706	4.46
440.91	4.5
441.114	4.38
441.318	4.4
441.523	4.43
441.727	4.39
441.931	4.48
442.135	4.32
442.339	4.19
442.543	4.36
442.748	4.21
442.952	4.22
443.156	4.2
443.36	4.2
443.564	4.18
443.768	4.18
443.972	4.11
444.176	4.11
444.38	4.23
444.584	4.23
444.788	4.23
444.992	4.32
445.196	4.32
445.4	4.28
445.604	4.31
445.808	4.32
446.012	4.26
446.216	4.25
446.42	4.26
446.624	4.18
446.828	4.32
447.032	4.27
447.235	4.26
447.439	4.26
447.643	4.27
447.847	4.23
448.051	4.27
448.254	4.35
448.458	4.36
448.662	4.34
448.866	4.36
449.069	4.28
449.273	4.31
449.477	4.29
449.681	4.31
449.884	4.39
450.088	4.36
450.292	4.34
450.495	4.39
450.699	4.52
450.902	4.44
451.106	4.44
451.31	4.38
451.513	4.42
451.717	4.43
451.92	4.44
452.124	4.39
452.327	4.45
452.531	4.51
452.734	4.57
452.938	4.56
453.141	4.62
453.345	4.6
453.548	4.58
453.752	4.47
453.955	4.48
454.158	4.42
454.362	4.39
454.565	4.44
454.769	4.33
454.972	4.18
455.175	4.17
455.379	4.2
455.582	4.23
455.785	4.35
455.988	4.37
456.192	4.37
456.395	4.32
456.598	4.34
456.801	4.26
457.005	4.29
457.208	4.3
457.411	4.25
457.614	4.07
457.817	4.11
458.021	4.11
458.224	4.08
458.427	3.98
458.63	4.03
458.833	4.03
459.036	3.99
459.239	3.99
459.442	4
459.645	3.97
459.848	4
460.051	4.02
460.254	3.97
460.457	4.05
460.66	4.15
460.863	4.12
461.066	4.19
461.269	4.24
461.472	4.25
461.675	4.25
461.878	4.32
462.081	4.34
462.284	4.27
462.486	4.24
462.689	4.19
462.892	4.16
463.095	4.21
463.298	4.07
463.5	4.22
463.703	4.25
463.906	4.36
464.109	4.39
464.311	4.47
464.514	4.49
464.717	4.49
464.92	4.5
465.122	4.51
465.325	4.4
465.528	4.49
465.73	4.3
465.933	4.19
466.135	4.15
466.338	4.06
466.541	4.06
466.743	4.04
466.946	4.08
467.148	4.07
467.351	4.07
467.553	4.15
467.756	4.2
467.958	4.2
468.161	4.29
468.363	4.13
468.566	4.11
468.768	4.17
