Data from 2938496_Reflection_3.txt Node
Date: Wed Jun 17 00:29:27 EDT 2015
User: robert
Spectrometer: USB4E03002
Autoset integration time: false
Trigger mode: 4
Integration Time (sec): 1.000000E-1
Scans to average: 10
Electric dark correction enabled: true
Nonlinearity correction enabled: false
Boxcar width: 5
Stray light correction enabled: false
XAxis mode: Wavelengths
Stop averaging: false
Number of Pixels in Spectrum: 3648
>>>>>Begin Spectral Data<<<<<
177.575	130.36
177.794	2633.33
178.014	67.57
178.233	84.96
178.452	83.63
178.672	199.51
178.891	53.84
179.11	12.46
179.33	126.26
179.549	338.57
179.768	485.67
179.987	163.85
180.207	167.27
180.426	-32.08
180.645	315.32
180.864	1175.63
181.084	-335.74
181.303	-42
181.522	-306.47
181.741	296.83
181.96	-9.11
182.179	-118.26
182.398	208.26
182.618	154.49
182.837	-167.6
183.056	-667.41
183.275	-84.27
183.494	-1066.25
183.713	144.38
183.932	-14.61
184.151	448.24
184.37	498.12
184.589	1048.43
184.808	304.61
185.027	366.45
185.246	216.95
185.465	259.04
185.684	304.84
185.903	305.71
186.122	388.83
186.341	284.6
186.56	2522.76
186.779	-373.15
186.998	-318.2
187.216	-114.6
187.435	-68.53
187.654	-45.83
187.873	-78.83
188.092	-94.45
188.311	-83.86
188.53	-44.37
188.748	-107.01
188.967	57.91
189.186	496.2
189.405	211.25
189.623	333.26
189.842	-1471.36
190.061	1550
190.28	-8.5
190.498	35.94
190.717	557.89
190.936	-1090.27
191.154	-103.48
191.373	3142.03
191.592	5979.07
191.81	416.48
192.029	151.16
192.248	172
192.466	14.76
192.685	287.49
192.904	209.16
193.122	179.05
193.341	306.5
193.559	-425.9
193.778	-5.93
193.996	30.13
194.215	40.81
194.433	345.83
194.652	984.78
194.87	3757.85
195.089	376.54
195.307	301.22
195.526	304.47
195.744	196.49
195.963	115.91
196.181	339.11
196.399	203.26
196.618	-120.58
196.836	1688.13
197.055	-991.62
197.273	-65.39
197.491	0.94
197.71	-69.45
197.928	-25.96
198.146	-14.51
198.365	-82.12
198.583	-77.61
198.801	-91.92
199.019	-142.5
199.238	-98.93
199.456	-64.17
199.674	-189.66
199.892	-129.65
200.111	-247
200.329	-434.86
200.547	-16027.08
200.765	-196.64
200.983	-73
201.202	-14.62
201.42	1.11
201.638	37.49
201.856	14.32
202.074	38.96
202.292	-19.85
202.51	27.34
202.728	55.55
202.946	27.62
203.165	27.61
203.383	-3.5
203.601	-5.73
203.819	-7.21
204.037	-138.85
204.255	-283.96
204.473	-204.97
204.691	-88.67
204.909	-52.97
205.127	-182.16
205.345	-33225
205.562	57.93
205.78	77.95
205.998	184.83
206.216	4031.82
206.434	83.58
206.652	81.83
206.87	125.24
207.088	63.88
207.306	46.59
207.523	13.51
207.741	23.6
207.959	49.49
208.177	25.35
208.395	48.33
208.612	5.67
208.83	52.73
209.048	27.29
209.266	19.41
209.483	16.97
209.701	-8.03
209.919	65.28
210.136	-17.23
210.354	-69.99
210.572	-3.26
210.79	-21.42
211.007	25.12
211.225	-9.92
211.442	-29.25
211.66	-47.05
211.878	-6.3
212.095	28.85
212.313	1
212.53	-14.82
212.748	11.92
212.966	-13.29
213.183	-26.79
213.401	-21.51
213.618	-55.39
213.836	-51.8
214.053	-11.61
214.271	-43.79
214.488	-328.73
214.705	-694.48
214.923	-155.57
215.14	-222.06
215.358	-735.54
215.575	298.48
215.793	2398.1
216.01	447.38
216.227	366.84
216.445	498.67
216.662	300.75
216.879	390.41
217.097	461.88
217.314	322.28
217.531	424.1
217.749	433.42
217.966	-149
218.183	443.35
218.4	-42
218.618	7.39
218.835	3.25
219.052	7.24
219.269	52.18
219.487	35.23
219.704	47.84
219.921	36.49
220.138	35.15
220.355	33.73
220.572	27.25
220.79	31.51
221.007	26.32
221.224	13.92
221.441	5.98
221.658	-35.09
221.875	-17.03
222.092	-13.49
222.309	5.8
222.526	0.69
222.743	-6.06
222.96	2.25
223.177	-12.62
223.394	-3.73
223.611	-1.26
223.828	10.9
224.045	11.13
224.262	13.59
224.479	9.95
224.696	8.12
224.913	12.19
225.13	8.78
225.347	8.53
225.564	11.9
225.781	7.96
225.997	7.23
226.214	5.88
226.431	7.33
226.648	7.48
226.865	6.25
227.082	4.91
227.298	3.87
227.515	6.13
227.732	5.18
227.949	2.73
228.165	3.27
228.382	5.5
228.599	5.35
228.816	4.98
229.032	2.66
229.249	4.53
229.466	4.73
229.682	5.13
229.899	5.41
230.116	7.13
230.332	7.44
230.549	7.68
230.765	8.52
230.982	8.13
231.199	8.11
231.415	11.58
231.632	9.03
231.848	7
232.065	6.64
232.281	6.98
232.498	5.23
232.714	8.88
232.931	6.89
233.147	3.92
233.364	2.63
233.58	2.22
233.797	0.52
234.013	4.27
234.23	3.44
234.446	1.05
234.662	-5.21
234.879	-4.11
235.095	-5.45
235.312	-3.65
235.528	-2.04
235.744	2.65
235.961	8
236.177	7.9
236.393	6.47
236.61	7.7
236.826	11.11
237.042	13.19
237.258	14.14
237.475	16.63
237.691	15.97
237.907	13.68
238.123	9.72
238.339	4.27
238.556	5.67
238.772	2.09
238.988	2.05
239.204	2.47
239.42	1.74
239.636	-0.07
239.853	1.28
240.069	2.43
240.285	5.1
240.501	6.69
240.717	7.65
240.933	7.31
241.149	9.21
241.365	10.1
241.581	9.45
241.797	11.16
242.013	12.77
242.229	11.46
242.445	11.07
242.661	10.94
242.877	11.1
243.093	11.27
243.309	10.59
243.525	9.94
243.741	10.77
243.957	9.93
244.173	10.47
244.388	9.26
244.604	10.17
244.82	10.74
245.036	10.97
245.252	10.21
245.468	10.06
245.683	10.12
245.899	10.4
246.115	10.26
246.331	11.65
246.547	11.19
246.762	11.58
246.978	11.53
247.194	11.36
247.409	10.37
247.625	10.65
247.841	11.53
248.057	12.75
248.272	12.21
248.488	11.99
248.703	10.66
248.919	10.69
249.135	10.08
249.35	9.42
249.566	9.25
249.782	9.77
249.997	9.4
250.213	8.86
250.428	8.38
250.644	9.12
250.859	8.82
251.075	9.88
251.29	9.64
251.506	10.68
251.721	9.95
251.937	9.72
252.152	8.68
252.368	8.29
252.583	6.3
252.798	6.15
253.014	8.33
253.229	8.56
253.445	6.08
253.66	6.16
253.875	4.54
254.091	6.34
254.306	5.69
254.521	5.45
254.737	6.46
254.952	5.97
255.167	4.73
255.383	2.92
255.598	2.1
255.813	2.18
256.028	1.66
256.244	2.55
256.459	3.41
256.674	4.07
256.889	5.13
257.104	5.34
257.32	6.62
257.535	7.16
257.75	7.24
257.965	7.92
258.18	8.43
258.395	8.53
258.61	8.28
258.826	7.6
259.041	7.98
259.256	7.78
259.471	7.59
259.686	7.19
259.901	7.28
260.116	7.08
260.331	7
260.546	6.93
260.761	6.49
260.976	6.21
261.191	6.68
261.406	6.22
261.621	6.46
261.836	6.44
262.05	7.09
262.265	7.12
262.48	6.54
262.695	5.94
262.91	4.99
263.125	5.93
263.34	5.35
263.555	5.04
263.769	4.65
263.984	5.51
264.199	5.49
264.414	4.92
264.629	4.17
264.843	5.18
265.058	5.91
265.273	7.06
265.488	6.31
265.702	6.47
265.917	7.34
266.132	7.46
266.346	7.85
266.561	7.52
266.776	7.7
266.99	8.71
267.205	8.65
267.42	7.57
267.634	6.83
267.849	7.01
268.063	7.61
268.278	6.24
268.492	6.31
268.707	5.96
268.922	6.74
269.136	6.96
269.351	6.47
269.565	5.89
269.78	6.04
269.994	6.31
270.209	6.58
270.423	6.46
270.637	7.23
270.852	7.12
271.066	7.16
271.281	6.16
271.495	5.29
271.709	5.59
271.924	5.59
272.138	6.37
272.353	6.03
272.567	6.02
272.781	6.17
272.996	5.27
273.21	5.36
273.424	4.44
273.638	5.15
273.853	6.48
274.067	6.1
274.281	5.55
274.495	5.5
274.71	5.68
274.924	4.85
275.138	5.1
275.352	6.59
275.566	6.61
275.781	7.57
275.995	7.89
276.209	7.36
276.423	6.74
276.637	7.46
276.851	6.67
277.065	6.83
277.279	7.06
277.493	6.03
277.707	5.26
277.921	5.57
278.135	4.68
278.349	4.31
278.563	4
278.777	4.65
278.991	4.07
279.205	4.84
279.419	5.49
279.633	5.96
279.847	7.08
280.061	7.38
280.275	6.72
280.489	6.71
280.703	7.34
280.917	8.05
281.131	7.73
281.344	8.16
281.558	7.76
281.772	7.26
281.986	7.15
282.2	6.88
282.414	6.23
282.627	6.06
282.841	5.68
283.055	5.16
283.269	5.1
283.482	6.01
283.696	5.45
283.91	4.94
284.123	4.99
284.337	4.71
284.551	4.52
284.764	4.63
284.978	4.86
285.192	5.27
285.405	5.1
285.619	4.34
285.833	3.57
286.046	4.35
286.26	4.65
286.473	4.78
286.687	5.86
286.9	5.52
287.114	6.4
287.327	6.79
287.541	6.92
287.754	7.24
287.968	7.69
288.181	7.41
288.395	7.3
288.608	7.53
288.822	6.69
289.035	6.52
289.248	6.87
289.462	5.71
289.675	5.31
289.889	4.92
290.102	4.99
290.315	5.66
290.529	5.87
290.742	5.23
290.955	5.34
291.169	6.3
291.382	6.26
291.595	6.19
291.808	6.14
292.022	7.54
292.235	7.87
292.448	7.35
292.661	6.77
292.875	6.95
293.088	7.64
293.301	7.21
293.514	6.9
293.727	6.06
293.94	6.59
294.153	7.66
294.367	7.22
294.58	7.43
294.793	7.86
295.006	7.98
295.219	8.44
295.432	8.36
295.645	8.84
295.858	8.86
296.071	9.13
296.284	8.65
296.497	7.85
296.71	7.87
296.923	7.85
297.136	7.61
297.349	7.74
297.562	7.1
297.775	6.96
297.988	6.92
298.201	6.76
298.414	6.71
298.626	6.53
298.839	7.27
299.052	6.05
299.265	4.95
299.478	5.39
299.691	5.77
299.903	5.31
300.116	5.21
300.329	5.29
300.542	5.64
300.755	5.37
300.967	5.38
301.18	5.28
301.393	5.94
301.605	6.38
301.818	5.65
302.031	5.12
302.243	5.58
302.456	6.39
302.669	6.61
302.881	5.89
303.094	6.64
303.307	7.04
303.519	7.16
303.732	7.82
303.944	8.48
304.157	8.88
304.37	8.88
304.582	8.9
304.795	8.19
305.007	7.09
305.22	7.23
305.432	7.43
305.645	6.94
305.857	6.69
306.069	6.68
306.282	6.56
306.494	5.84
306.707	5.48
306.919	5.27
307.132	5.25
307.344	6.01
307.556	6.54
307.769	6.2
307.981	6.5
308.193	6.02
308.406	6.01
308.618	6.24
308.83	6.78
309.043	7.08
309.255	7.41
309.467	7.23
309.679	6.81
309.892	6.92
310.104	6.72
310.316	6.76
310.528	7.67
310.74	7.02
310.953	7.07
311.165	6.96
311.377	6.52
311.589	6.1
311.801	6.54
312.013	6.67
312.225	5.93
312.437	5.83
312.649	6.01
312.862	5.4
313.074	6.21
313.286	5.87
313.498	5.83
313.71	6.06
313.922	6.46
314.134	5.49
314.346	6.01
314.558	6.19
314.77	7.09
314.982	6.93
315.193	6.76
315.405	5.59
315.617	5.61
315.829	5.57
316.041	5.26
316.253	5.16
316.465	5.94
316.677	5.21
316.888	5.65
317.1	4.81
317.312	4.58
317.524	4.61
317.736	5.67
317.947	5.76
318.159	6.31
318.371	6.82
318.583	6.47
318.794	6.68
319.006	6.81
319.218	6.31
319.43	6.9
319.641	7.3
319.853	7.73
320.064	6.77
320.276	6.6
320.488	6.1
320.699	6.11
320.911	6.65
321.123	6.62
321.334	6.62
321.546	6.42
321.757	6.25
321.969	6.08
322.18	6.1
322.392	6.86
322.603	6.54
322.815	6.59
323.026	6.29
323.238	6.32
323.449	6.1
323.661	6.46
323.872	6.89
324.083	6.75
324.295	6.7
324.506	6.75
324.718	6.55
324.929	7.26
325.14	7.47
325.352	7.26
325.563	7.07
325.774	7.18
325.986	6.63
326.197	6.6
326.408	6.51
326.62	6.11
326.831	5.29
327.042	5.3
327.253	5.33
327.464	4.92
327.676	5.54
327.887	6.05
328.098	6.23
328.309	6.73
328.52	6.81
328.732	7.31
328.943	8.19
329.154	8.94
329.365	9.08
329.576	8.7
329.787	9.27
329.998	9.83
330.209	9.5
330.42	8.99
330.631	9.15
330.842	8.6
331.053	7.97
331.264	7.71
331.475	7.66
331.686	7.69
331.897	8.23
332.108	8.1
332.319	7.26
332.53	6.86
332.741	6.63
332.952	6.16
333.163	6.55
333.374	6.39
333.585	6.21
333.795	6.69
334.006	6.31
334.217	5.87
334.428	5.72
334.639	6.23
334.849	6.59
335.06	6.72
335.271	7.03
335.482	7.24
335.692	7.77
335.903	8.12
336.114	7.58
336.325	7.83
336.535	7.77
336.746	7.78
336.957	7.35
337.167	7.38
337.378	7.98
337.589	7.82
337.799	7.69
338.01	7.52
338.22	7.45
338.431	7.46
338.642	7.14
338.852	7.18
339.063	7.13
339.273	7.14
339.484	7.36
339.694	7.59
339.905	7.94
340.115	8.43
340.326	8.13
340.536	7.83
340.746	7.67
340.957	7.76
341.167	7.66
341.378	7.57
341.588	7.53
341.799	7.08
342.009	6.65
342.219	6.28
342.43	5.76
342.64	6.15
342.85	6.01
343.061	6.01
343.271	6.03
343.481	5.9
343.691	6.16
343.902	6.52
344.112	6.52
344.322	6.31
344.532	6.24
344.743	6.12
344.953	6.01
345.163	6.44
345.373	6.51
345.583	6.56
345.793	7.18
346.004	7.43
346.214	6.91
346.424	6.71
346.634	6.83
346.844	7.22
347.054	7.32
347.264	7.55
347.474	7.19
347.684	7.11
347.894	7.21
348.104	6.63
348.314	6.41
348.524	6.53
348.734	6.78
348.944	6.46
349.154	6.31
349.364	6.55
349.574	6.43
349.784	6.47
349.994	6.71
350.204	6.92
350.413	7.01
350.623	6.85
350.833	6.96
351.043	6.94
351.253	7.25
351.463	7.38
351.672	7.4
351.882	7.63
352.092	7.97
352.302	7.74
352.511	7.64
352.721	7.46
352.931	7.53
353.141	7.88
353.35	8.17
353.56	8.26
353.77	7.64
353.979	7.8
354.189	7.45
354.399	7.11
354.608	7.38
354.818	7.43
355.027	7.65
355.237	7.66
355.447	7.13
355.656	6.77
355.866	6.77
356.075	6.78
356.285	6.4
356.494	6.37
356.704	6.34
356.913	5.92
357.123	5.81
357.332	5.63
357.542	5.71
357.751	6.09
357.96	6.04
358.17	6.03
358.379	6.17
358.589	6.49
358.798	6.41
359.007	6.49
359.217	6.81
359.426	6.76
359.635	6.67
359.845	6.38
360.054	6.44
360.263	6.44
360.472	6.45
360.682	6.72
360.891	6.68
361.1	7.13
361.309	7.14
361.519	7.13
361.728	7.04
361.937	7.13
362.146	7.24
362.355	6.92
362.564	7.1
362.774	7.01
362.983	7.04
363.192	6.82
363.401	6.48
363.61	6.43
363.819	6.04
364.028	5.9
364.237	5.89
364.446	6.09
364.655	6.18
364.864	6.18
365.073	6.26
365.282	6.13
365.491	5.96
365.7	5.89
365.909	5.58
366.118	5.86
366.327	6.08
366.536	6.21
366.745	5.93
366.954	5.85
367.162	5.49
367.371	5.48
367.58	5.46
367.789	5.82
367.998	5.83
368.207	5.95
368.415	6.01
368.624	6.01
368.833	5.77
369.042	5.93
369.25	5.99
369.459	6.32
369.668	6.34
369.877	6.14
370.085	5.98
370.294	6.04
370.503	6.46
370.711	6.43
370.92	6.62
371.129	6.68
371.337	6.61
371.546	6.8
371.754	6.64
371.963	6.49
372.171	6.83
372.38	7.09
372.589	6.98
372.797	6.87
373.006	6.93
373.214	6.74
373.423	6.9
373.631	7.14
373.84	7.12
374.048	7.05
374.256	7.1
374.465	6.82
374.673	6.59
374.882	6.51
375.09	6.49
375.298	6.41
375.507	6.46
375.715	6.27
375.923	6.24
376.132	6.23
376.34	6.57
376.548	6.61
376.757	6.49
376.965	6.29
377.173	6.42
377.381	6.4
377.59	6.33
377.798	6.22
378.006	6.27
378.214	5.95
378.423	5.56
378.631	5.25
378.839	5.15
379.047	5.28
379.255	5.36
379.463	5.09
379.671	4.86
379.879	5.07
380.088	5.16
380.296	5.19
380.504	5.09
380.712	5.47
380.92	5.35
381.128	5.36
381.336	5.47
381.544	5.67
381.752	5.81
381.96	5.9
382.168	5.81
382.376	5.67
382.584	5.7
382.791	5.86
382.999	5.89
383.207	6
383.415	6.28
383.623	6.32
383.831	6.22
384.039	6.22
384.247	6.34
384.454	6.18
384.662	6.26
384.87	6.15
385.078	6.29
385.285	6.07
385.493	6.14
385.701	5.92
385.909	5.84
386.116	5.89
386.324	5.94
386.532	5.9
386.739	5.88
386.947	5.56
387.155	5.53
387.362	5.39
387.57	5.47
387.778	5.58
387.985	5.51
388.193	5.43
388.4	5.46
388.608	5.33
388.816	5.26
389.023	5.38
389.231	5.8
389.438	5.95
389.646	5.96
389.853	5.97
390.061	5.74
390.268	5.7
390.475	5.63
390.683	5.54
390.89	5.52
391.098	5.4
391.305	5.44
391.512	5.44
391.72	5.31
391.927	5.19
392.135	5.1
392.342	5.14
392.549	5.29
392.756	5.28
392.964	5.13
393.171	5.23
393.378	5.49
393.586	5.49
393.793	5.51
394	5.61
394.207	5.82
394.414	5.85
394.622	5.83
394.829	5.81
395.036	6.02
395.243	6.38
395.45	6.4
395.657	6.39
395.864	6.36
396.072	6.11
396.279	6.05
396.486	5.95
396.693	5.74
396.9	5.78
397.107	5.74
397.314	5.66
397.521	5.52
397.728	5.43
397.935	5.22
398.142	5.13
398.349	5.19
398.556	5.11
398.763	5.11
398.97	5.28
399.177	5.28
399.383	5.35
399.59	5.42
399.797	5.13
400.004	5.04
400.211	5.22
400.418	5.26
400.625	5.19
400.831	5.21
401.038	5.18
401.245	5.03
401.452	5.11
401.658	5.12
401.865	4.98
402.072	5.12
402.279	5.14
402.485	4.87
402.692	4.72
402.899	4.61
403.105	4.56
403.312	4.55
403.519	4.64
403.725	4.48
403.932	4.28
404.138	4.42
404.345	4.52
404.552	4.47
404.758	4.52
404.965	4.44
405.171	4.59
405.378	4.65
405.584	4.64
405.791	4.5
405.997	4.63
406.204	4.72
406.41	4.77
406.617	4.57
406.823	4.64
407.029	4.73
407.236	4.93
407.442	4.96
407.649	5.06
407.855	4.97
408.061	5.22
408.268	5.11
408.474	5.08
408.68	4.84
408.887	4.95
409.093	5
409.299	5.13
409.505	5.14
409.712	5.05
409.918	4.87
410.124	5
410.33	4.89
410.537	4.82
410.743	4.96
410.949	5.01
411.155	4.92
411.361	4.92
411.567	4.75
411.773	4.72
411.98	4.71
412.186	4.76
412.392	4.54
412.598	4.51
412.804	4.63
413.01	4.64
413.216	4.75
413.422	4.96
413.628	4.78
413.834	4.85
414.04	4.96
414.246	5.04
414.452	5.08
414.658	5.18
414.864	5.2
415.07	5.1
415.275	5.07
415.481	4.92
415.687	4.7
415.893	4.9
416.099	4.75
416.305	4.72
416.511	4.7
416.716	4.71
416.922	4.74
417.128	4.75
417.334	4.76
417.539	4.73
417.745	4.74
417.951	4.88
418.157	4.84
418.362	4.9
418.568	4.85
418.774	4.81
418.979	4.83
419.185	4.81
419.391	4.8
419.596	4.85
419.802	4.83
420.008	4.8
420.213	5.31
420.419	5.28
420.624	5.34
420.83	5.3
421.035	5.33
421.241	5.37
421.446	5.34
421.652	5.37
421.857	5.34
422.063	5.35
422.268	5.33
422.474	4.77
422.679	4.79
422.885	4.69
423.09	4.69
423.295	4.69
423.501	4.62
423.706	4.66
423.911	4.6
424.117	4.59
424.322	4.55
424.527	4.53
424.733	4.5
424.938	4.49
425.143	4.49
425.349	4.56
425.554	4.54
425.759	4.62
425.964	4.63
426.169	4.63
426.375	4.62
426.58	4.63
426.785	4.72
426.99	4.79
427.195	4.8
427.4	4.91
427.605	4.81
427.811	4.72
428.016	4.49
428.221	4.48
428.426	4.54
428.631	4.62
428.836	4.62
429.041	4.57
429.246	4.43
429.451	4.44
429.656	4.47
429.861	4.44
430.066	4.53
430.271	4.71
430.476	4.57
430.681	4.63
430.886	4.6
431.09	4.64
431.295	4.67
431.5	4.76
431.705	4.67
431.91	4.72
432.115	4.78
432.32	4.71
432.524	4.7
432.729	4.76
432.934	4.78
433.139	4.77
433.343	4.64
433.548	4.67
433.753	4.65
433.958	4.81
434.162	4.73
434.367	4.74
434.572	4.72
434.776	4.61
434.981	4.68
435.186	4.73
435.39	4.71
435.595	4.88
435.799	4.86
436.004	4.95
436.209	4.8
436.413	4.74
436.618	4.88
436.822	4.94
437.027	4.93
437.231	4.88
437.436	4.79
437.64	4.8
437.845	4.77
438.049	4.77
438.253	4.63
438.458	4.6
438.662	4.53
438.867	4.39
439.071	4.25
439.275	4.36
439.48	4.39
439.684	4.28
439.888	4.28
440.093	4.29
440.297	4.24
440.501	4.27
440.706	4.25
440.91	4.4
441.114	4.41
441.318	4.53
441.523	4.54
441.727	4.53
441.931	4.57
442.135	4.55
442.339	4.5
442.543	4.54
442.748	4.47
442.952	4.52
443.156	4.47
443.36	4.48
443.564	4.51
443.768	4.47
443.972	4.52
444.176	4.56
444.38	4.54
444.584	4.58
444.788	4.59
444.992	4.68
445.196	4.72
445.4	4.72
445.604	4.68
445.808	4.63
446.012	4.6
446.216	4.57
446.42	4.56
446.624	4.54
446.828	4.49
447.032	4.38
447.235	4.31
447.439	4.25
447.643	4.23
447.847	4.27
448.051	4.3
448.254	4.23
448.458	4.21
448.662	4.17
448.866	4.29
449.069	4.36
449.273	4.47
449.477	4.58
449.681	4.59
449.884	4.53
450.088	4.5
450.292	4.5
450.495	4.57
450.699	4.45
450.902	4.55
451.106	4.47
451.31	4.42
451.513	4.49
451.717	4.31
451.92	4.33
452.124	4.35
452.327	4.45
452.531	4.39
452.734	4.31
452.938	4.4
453.141	4.33
453.345	4.21
453.548	4.19
453.752	4.15
453.955	4.26
454.158	4.15
454.362	4.11
454.565	4.05
454.769	4.03
454.972	4.16
455.175	4.13
455.379	4.1
455.582	4.18
455.785	4.13
455.988	4.06
456.192	4.02
456.395	4.19
456.598	4.23
456.801	4.17
457.005	4.3
457.208	4.31
457.411	4.23
457.614	4.18
457.817	4.2
458.021	4.16
458.224	4.21
458.427	4.27
458.63	4.25
458.833	4.28
459.036	4.27
459.239	4.19
459.442	4.11
459.645	4.23
459.848	4.32
460.051	4.33
460.254	4.41
460.457	4.35
460.66	4.37
460.863	4.3
461.066	4.25
461.269	4.23
461.472	4.15
461.675	4.26
461.878	4.22
462.081	4.15
462.284	4.22
462.486	4.29
462.689	4.33
462.892	4.44
463.095	4.55
463.298	4.59
463.5	4.74
463.703	4.92
463.906	4.75
464.109	4.77
464.311	4.89
464.514	4.79
464.717	4.74
464.92	4.64
465.122	4.45
465.325	4.33
465.528	4.47
465.73	4.43
465.933	4.43
466.135	4.5
466.338	4.48
466.541	4.42
466.743	4.51
466.946	4.55
467.148	4.58
467.351	4.57
467.553	4.61
467.756	4.49
467.958	4.47
468.161	4.3
468.363	4.31
468.566	4.36
468.768	4.46
468.971	4.46
469.173	4.45
469.375	4.46
469.578	4.52
469.78	4.6
