Data from 2938467_Reflection_2.txt Node
Date: Wed Jun 17 13:45:28 EDT 2015
User: robert
Spectrometer: USB4E03002
Autoset integration time: false
Trigger mode: 4
Integration Time (sec): 1.000000E-1
Scans to average: 10
Electric dark correction enabled: true
Nonlinearity correction enabled: false
Boxcar width: 5
Stray light correction enabled: false
XAxis mode: Wavelengths
Stop averaging: false
Number of Pixels in Spectrum: 3648
>>>>>Begin Spectral Data<<<<<
177.575	2.35
177.794	-7.89
178.014	-34
178.233	-81.63
178.452	278.19
178.672	300.96
178.891	28.98
179.11	-35.45
179.33	1082.81
179.549	-1844.44
179.768	-114.39
179.987	-13.05
180.207	-478.39
180.426	-190.99
180.645	179.88
180.864	186.65
181.084	178.59
181.303	154.44
181.522	144.23
181.741	214.28
181.96	214.8
182.179	251.79
182.398	195.5
182.618	124.7
182.837	141.17
183.056	343.23
183.275	229.4
183.494	268.01
183.713	215.86
183.932	1633.43
184.151	525.54
184.37	190.75
184.589	73.52
184.808	34.67
185.027	151.45
185.246	116.51
185.465	152.85
185.684	154.09
185.903	173.69
186.122	186.8
186.341	123.27
186.56	134.65
186.779	258.75
186.998	304.28
187.216	206.49
187.435	149.61
187.654	138.32
187.873	124.7
188.092	139.49
188.311	129.22
188.53	133.13
188.748	154.07
188.967	176.77
189.186	167.55
189.405	242.29
189.623	195.17
189.842	323.78
190.061	-2953.2
190.28	-184.32
190.498	-185.49
190.717	-1170.68
190.936	-513.55
191.154	-325.5
191.373	-214.58
191.592	-896.18
191.81	147.9
192.029	-255.21
192.248	407.89
192.466	108.34
192.685	48.37
192.904	34.86
193.122	17.81
193.341	17.02
193.559	11.3
193.778	37.91
193.996	58.37
194.215	71.97
194.433	88.42
194.652	125.49
194.87	118.34
195.089	169.29
195.307	173.14
195.526	340.78
195.744	233.38
195.963	190.86
196.181	178.5
196.399	120.72
196.618	112.83
196.836	120.36
197.055	97.42
197.273	116.42
197.491	105.51
197.71	103.56
197.928	100.15
198.146	115.42
198.365	136.73
198.583	127.89
198.801	118.96
199.019	122.62
199.238	113.76
199.456	122.01
199.674	101.55
199.892	86.14
200.111	62.15
200.329	66.78
200.547	78.97
200.765	34.19
200.983	50.73
201.202	56.2
201.42	102.01
201.638	89.86
201.856	97.86
202.074	103.41
202.292	107.98
202.51	123.42
202.728	100.86
202.946	90.09
203.165	123.3
203.383	104.91
203.601	107.63
203.819	85.58
204.037	105.73
204.255	92.14
204.473	112.39
204.691	126.95
204.909	156.31
205.127	135.53
205.345	132.14
205.562	128.95
205.78	153.28
205.998	174.32
206.216	169.94
206.434	113.5
206.652	122.9
206.87	115.03
207.088	99.68
207.306	75.65
207.523	90.31
207.741	86.38
207.959	89.73
208.177	73.31
208.395	69.37
208.612	67.07
208.83	83.08
209.048	74.11
209.266	57.15
209.483	75.07
209.701	84.5
209.919	81.1
210.136	92.27
210.354	69.91
210.572	79.59
210.79	64.67
211.007	63.43
211.225	63.6
211.442	68.93
211.66	74.88
211.878	61.63
212.095	43.96
212.313	40.63
212.53	21.16
212.748	22.18
212.966	-7.17
213.183	3.32
213.401	20.39
213.618	29.11
213.836	34.52
214.053	34.15
214.271	22.57
214.488	25.78
214.705	18.89
214.923	19.89
215.14	34.76
215.358	50.86
215.575	50.59
215.793	57.29
216.01	52.2
216.227	44.2
216.445	48.29
216.662	75.7
216.879	71.53
217.097	68.66
217.314	72.87
217.531	62.69
217.749	64.6
217.966	61.61
218.183	34.38
218.4	32.7
218.618	19.3
218.835	-6.32
219.052	-3.96
219.269	-15.43
219.487	5.63
219.704	22.37
219.921	31.8
220.138	15.2
220.355	18.94
220.572	24.1
220.79	21.99
221.007	30.57
221.224	36.74
221.441	31.33
221.658	31.81
221.875	33.68
222.092	32.48
222.309	33.61
222.526	36.21
222.743	29.86
222.96	31.14
223.177	33.19
223.394	31.74
223.611	28.61
223.828	33.68
224.045	31.53
224.262	25.99
224.479	19.3
224.696	21.11
224.913	21.87
225.13	23
225.347	21.15
225.564	19.38
225.781	18.81
225.997	19.55
226.214	16.39
226.431	15.96
226.648	17.44
226.865	17.7
227.082	17.38
227.298	17.16
227.515	16.17
227.732	16.7
227.949	16.79
228.165	17.25
228.382	16.56
228.599	16.54
228.816	16.1
229.032	15.21
229.249	14.61
229.466	13.85
229.682	14.23
229.899	16.51
230.116	17.07
230.332	16.33
230.549	14.14
230.765	13.91
230.982	14.66
231.199	17.08
231.415	16.64
231.632	20.08
231.848	21.42
232.065	20.78
232.281	19.04
232.498	16.9
232.714	17.54
232.931	18.93
233.147	20.59
233.364	19.86
233.58	20.34
233.797	20.9
234.013	18.99
234.23	17.87
234.446	17.64
234.662	16.84
234.879	16.91
235.095	15.79
235.312	16.61
235.528	16.41
235.744	15.24
235.961	13.69
236.177	14.13
236.393	13.87
236.61	11.31
236.826	9.54
237.042	10.55
237.258	13.92
237.475	14.61
237.691	12.8
237.907	9.84
238.123	10.82
238.339	10.35
238.556	10.45
238.772	11.08
238.988	13.46
239.204	14.21
239.42	14.66
239.636	13.42
239.853	13.77
240.069	14.8
240.285	15.32
240.501	15.76
240.717	15.84
240.933	15.86
241.149	15.59
241.365	15.76
241.581	15.88
241.797	16.02
242.013	15.75
242.229	15.75
242.445	16.03
242.661	16.37
242.877	16.79
243.093	16.63
243.309	15.89
243.525	15.83
243.741	14.57
243.957	14.37
244.173	13.98
244.388	14.1
244.604	13.72
244.82	12.85
245.036	12.51
245.252	11.8
245.468	11.41
245.683	11.82
245.899	11.75
246.115	11.71
246.331	11.73
246.547	11.72
246.762	11.54
246.978	11.52
247.194	11.84
247.409	12.23
247.625	12.24
247.841	12.71
248.057	11.97
248.272	11.85
248.488	12.23
248.703	11.91
248.919	11.76
249.135	12
249.35	11.89
249.566	11.5
249.782	10.47
249.997	10.95
250.213	11.28
250.428	11.67
250.644	11.55
250.859	11.64
251.075	12.25
251.29	12.53
251.506	12.09
251.721	12.28
251.937	12.32
252.152	12.51
252.368	13.04
252.583	13.27
252.798	13.26
253.014	13.78
253.229	14.36
253.445	13.74
253.66	13.74
253.875	14.39
254.091	15.07
254.306	14.54
254.521	14.81
254.737	13.18
254.952	11.67
255.167	11.41
255.383	11.01
255.598	10.75
255.813	10.73
256.028	10.84
256.244	10.15
256.459	9.24
256.674	9.37
256.889	9.73
257.104	9.51
257.32	9.8
257.535	9.76
257.75	9.88
257.965	9.55
258.18	9.28
258.395	9.14
258.61	9.34
258.826	9.56
259.041	9.56
259.256	9.39
259.471	9.76
259.686	9.72
259.901	9.77
260.116	9.64
260.331	9.99
260.546	9.92
260.761	9.57
260.976	9.57
261.191	9.72
261.406	9.73
261.621	9.77
261.836	9.69
262.05	10.05
262.265	10.12
262.48	9.85
262.695	8.79
262.91	9.23
263.125	9.18
263.34	8.94
263.555	8.68
263.769	9.13
263.984	8.86
264.199	8.86
264.414	8.41
264.629	8.49
264.843	8.26
265.058	8.09
265.273	8.34
265.488	8.81
265.702	9.11
265.917	8.75
266.132	8.89
266.346	8.8
266.561	9.04
266.776	9.12
266.99	9.11
267.205	9.02
267.42	9.22
267.634	9.15
267.849	9.18
268.063	9.21
268.278	10.01
268.492	9.41
268.707	9.37
268.922	8.71
269.136	8.73
269.351	8.98
269.565	9.74
269.78	9.45
269.994	9.35
270.209	8.9
270.423	8.56
270.637	7.94
270.852	8.1
271.066	8.76
271.281	9.03
271.495	8.5
271.709	8.53
271.924	7.89
272.138	8.15
272.353	8.34
272.567	8.47
272.781	8.68
272.996	8.53
273.21	8.12
273.424	7.23
273.638	7
273.853	7.87
274.067	7.42
274.281	7.97
274.495	8.39
274.71	8.16
274.924	8.05
275.138	7.78
275.352	7.88
275.566	8.22
275.781	8.9
275.995	9.04
276.209	8.92
276.423	9.38
276.637	8.84
276.851	8.7
277.065	8.81
277.279	9.17
277.493	9.28
277.707	9.6
277.921	8.99
278.135	8.41
278.349	8.57
278.563	8.48
278.777	8.24
278.991	8.23
279.205	8.02
279.419	7.89
279.633	7.59
279.847	7.64
280.061	7.28
280.275	7.79
280.489	8.11
280.703	8.32
280.917	8.2
281.131	8.37
281.344	8.47
281.558	8.7
281.772	8.6
281.986	8.81
282.2	8.9
282.414	8.86
282.627	8.68
282.841	8.73
283.055	8.66
283.269	8.86
283.482	8.93
283.696	8.96
283.91	8.9
284.123	8.84
284.337	8.73
284.551	8.68
284.764	9.16
284.978	9.17
285.192	9.22
285.405	9.1
285.619	8.99
285.833	8.75
286.046	8.46
286.26	8.65
286.473	8.96
286.687	8.99
286.9	9.08
287.114	8.62
287.327	8.45
287.541	8.05
287.754	8.1
287.968	7.86
288.181	7.53
288.395	8.33
288.608	7.84
288.822	7.35
289.035	7
289.248	7
289.462	7.02
289.675	7.25
289.889	7.31
290.102	7.3
290.315	7.24
290.529	7.52
290.742	7.08
290.955	7.23
291.169	7.53
291.382	8.48
291.595	8.39
291.808	8.79
292.022	8.69
292.235	8.89
292.448	9.02
292.661	9.13
292.875	8.96
293.088	8.72
293.301	8.85
293.514	8.45
293.727	8.03
293.94	8.22
294.153	8.25
294.367	8.36
294.58	8.1
294.793	7.85
295.006	8.21
295.219	8.57
295.432	8.67
295.645	8.61
295.858	9.06
296.071	9.19
296.284	8.63
296.497	8.31
296.71	8.56
296.923	8.86
297.136	8.54
297.349	8.65
297.562	8.57
297.775	8.6
297.988	8.44
298.201	8.35
298.414	8.36
298.626	8.98
298.839	9.14
299.052	8.5
299.265	8.12
299.478	8.78
299.691	9.03
299.903	8.85
300.116	8.81
300.329	8.61
300.542	8.53
300.755	8.34
300.967	8.46
301.18	8.69
301.393	8.9
301.605	9.13
301.818	9.23
302.031	8.8
302.243	8.8
302.456	9.21
302.669	9.66
302.881	9.62
303.094	9.28
303.307	9.26
303.519	9.3
303.732	9.66
303.944	9.82
304.157	9.82
304.37	9.81
304.582	10.35
304.795	10.12
305.007	10
305.22	9.96
305.432	10.23
305.645	9.6
305.857	9.45
306.069	9.79
306.282	9.56
306.494	9.46
306.707	9.55
306.919	9.22
307.132	9.02
307.344	9.14
307.556	9.49
307.769	9.63
307.981	10.06
308.193	10.03
308.406	9.25
308.618	9.43
308.83	9.16
309.043	8.75
309.255	8.57
309.467	8.53
309.679	8.52
309.892	8.15
310.104	7.77
310.316	7.72
310.528	7.71
310.74	8.21
310.953	8.06
311.165	7.97
311.377	7.97
311.589	8
311.801	8.28
312.013	8.41
312.225	8.66
312.437	9.27
312.649	9.55
312.862	9.32
313.074	9.57
313.286	9.27
313.498	9.81
313.71	10.14
313.922	10.41
314.134	10.36
314.346	9.91
314.558	10.13
314.77	9.78
314.982	9.21
315.193	9.74
315.405	9.31
315.617	9.87
315.829	9.89
316.041	9.77
316.253	9.64
316.465	10.16
316.677	10.65
316.888	10.7
317.1	11.32
317.312	11.94
317.524	11.82
317.736	12.17
317.947	11.99
318.159	11.97
318.371	12.39
318.583	12.66
318.794	12.11
319.006	12.05
319.218	11.61
319.43	11.18
319.641	11.15
319.853	11.04
320.064	10.67
320.276	10.95
320.488	10.29
320.699	10.09
320.911	9.57
321.123	9.52
321.334	9.67
321.546	10.04
321.757	10.1
321.969	10.12
322.18	10.03
322.392	9.91
322.603	9.65
322.815	10.22
323.026	10.38
323.238	10.59
323.449	10.48
323.661	10.1
323.872	9.92
324.083	9.72
324.295	9.57
324.506	9.63
324.718	9.98
324.929	10.29
325.14	10.23
325.352	10.14
325.563	10.54
325.774	10.78
325.986	11.47
326.197	11.31
326.408	11.53
326.62	11.39
326.831	11.64
327.042	11.21
327.253	11.12
327.464	11.09
327.676	11.16
327.887	10.75
328.098	10.65
328.309	10.46
328.52	10.57
328.732	10.68
328.943	10.6
329.154	10.06
329.365	10.44
329.576	9.95
329.787	10.29
329.998	10.26
330.209	10.37
330.42	9.93
330.631	9.92
330.842	10.08
331.053	10.02
331.264	10.26
331.475	10.18
331.686	10.35
331.897	10.42
332.108	9.79
332.319	9.53
332.53	9.4
332.741	9.73
332.952	9.54
333.163	9.51
333.374	9.11
333.585	9.28
333.795	9.31
334.006	9.33
334.217	9.42
334.428	9.54
334.639	9.49
334.849	9.62
335.06	9.65
335.271	9.43
335.482	8.89
335.692	9.07
335.903	8.53
336.114	8.46
336.325	8.42
336.535	8.18
336.746	8.36
336.957	8.26
337.167	8.34
337.378	8.43
337.589	8.59
337.799	9.01
338.01	9.18
338.22	9.74
338.431	10.19
338.642	9.86
338.852	10.41
339.063	10.76
339.273	10.81
339.484	10.7
339.694	10.44
339.905	10.34
340.115	10.77
340.326	10.91
340.536	10.48
340.746	10.34
340.957	10.52
341.167	10.41
341.378	9.62
341.588	9.73
341.799	10.01
342.009	10.28
342.219	10.42
342.43	10.33
342.64	9.88
342.85	10.12
343.061	9.94
343.271	9.82
343.481	9.55
343.691	9.66
343.902	9.41
344.112	8.8
344.322	8.68
344.532	8.64
344.743	8.49
344.953	8.86
345.163	8.72
345.373	8.92
345.583	8.91
345.793	9.08
346.004	9.52
346.214	9.46
346.424	9.72
346.634	9.59
346.844	9.33
347.054	9.06
347.264	9.03
347.474	9.28
347.684	9.03
347.894	9.17
348.104	9.35
348.314	9.55
348.524	9.71
348.734	9.69
348.944	9.67
349.154	9.92
349.364	9.67
349.574	9.33
349.784	9.19
349.994	9.91
350.204	10.16
350.413	10.05
350.623	9.56
350.833	9.81
351.043	9.6
351.253	9.48
351.463	9.3
351.672	9.7
351.882	9.82
352.092	9.87
352.302	9.34
352.511	8.71
352.721	8.47
352.931	8.25
353.141	7.96
353.35	8.22
353.56	8.35
353.77	8.27
353.979	8.03
354.189	7.87
354.399	7.41
354.608	7.26
354.818	7.37
355.027	7.39
355.237	7.4
355.447	7.5
355.656	7.46
355.866	7.41
356.075	7.53
356.285	7.49
356.494	7.46
356.704	7.68
356.913	7.35
357.123	7.38
357.332	7.31
357.542	7.27
357.751	7.26
357.96	7.05
358.17	7.17
358.379	7.06
358.589	7.22
358.798	7.12
359.007	6.86
359.217	7.15
359.426	7
359.635	6.99
359.845	7.01
360.054	6.95
360.263	6.99
360.472	6.85
360.682	6.71
360.891	6.78
361.1	6.98
361.309	7.03
361.519	7.02
361.728	7.07
361.937	7.13
362.146	7.23
362.355	7.32
362.564	7.37
362.774	7.47
362.983	7.55
363.192	7.34
363.401	7.11
363.61	7.31
363.819	7.28
364.028	7.2
364.237	7.06
364.446	7.07
364.655	6.85
364.864	6.9
365.073	6.78
365.282	6.85
365.491	6.98
365.7	7.2
365.909	7
366.118	7.17
366.327	7.22
366.536	7.4
366.745	7.4
366.954	7.4
367.162	7.24
367.371	7.35
367.58	7.34
367.789	7.25
367.998	6.91
368.207	7.06
368.415	6.78
368.624	6.96
368.833	6.73
369.042	6.72
369.25	6.89
369.459	6.89
369.668	6.65
369.877	6.61
370.085	6.67
370.294	6.81
370.503	6.64
370.711	6.99
370.92	6.69
371.129	6.85
371.337	6.61
371.546	6.41
371.754	6.62
371.963	6.84
372.171	6.8
372.38	6.67
372.589	6.89
372.797	7.1
373.006	6.52
373.214	6.9
373.423	6.95
373.631	7.1
373.84	7.1
374.048	6.87
374.256	6.84
374.465	7.12
374.673	7.04
374.882	6.77
375.09	6.6
375.298	6.66
375.507	6.47
375.715	6.27
375.923	6.29
376.132	6.45
376.34	6.51
376.548	6.38
376.757	6.06
376.965	6.17
377.173	6.29
377.381	6.26
377.59	6.39
377.798	6.5
378.006	6.48
378.214	6.52
378.423	6.54
378.631	6.36
378.839	6.42
379.047	6.57
379.255	6.43
379.463	6.41
379.671	6.52
379.879	6.47
380.088	6.53
380.296	6.43
380.504	6.34
380.712	6.31
380.92	6.38
381.128	6.34
381.336	6.18
381.544	6.06
381.752	5.81
381.96	5.66
382.168	5.53
382.376	5.29
382.584	5.33
382.791	5.29
382.999	5.29
383.207	5.27
383.415	5.23
383.623	5.45
383.831	5.45
384.039	5.48
384.247	5.52
384.454	5.49
384.662	5.55
384.87	5.59
385.078	5.62
385.285	5.52
385.493	5.46
385.701	5.36
385.909	5.37
386.116	5.53
386.324	5.6
386.532	5.5
386.739	5.66
386.947	5.79
387.155	5.89
387.362	5.82
387.57	5.62
387.778	5.69
387.985	5.67
388.193	5.38
388.4	5.09
388.608	5.3
388.816	5.21
389.023	5.22
389.231	4.99
389.438	4.92
389.646	4.98
389.853	5.16
390.061	5.09
390.268	5.17
390.475	5.19
390.683	5.32
390.89	5.16
391.098	5.37
391.305	5.34
391.512	5.19
391.72	5.3
391.927	5.22
392.135	5.01
392.342	5.03
392.549	5.08
392.756	5.27
392.964	5.38
393.171	5.34
393.378	5.12
393.586	5.2
393.793	5.4
394	5.24
394.207	5.36
394.414	5.44
394.622	5.38
394.829	5.33
395.036	5.1
395.243	4.81
395.45	4.94
395.657	5.04
395.864	4.82
396.072	4.75
396.279	4.73
396.486	4.43
396.693	4.64
396.9	4.74
397.107	4.86
397.314	5.16
397.521	5.32
397.728	5.4
397.935	5.56
398.142	5.61
398.349	5.62
398.556	5.9
398.763	5.96
398.97	5.91
399.177	5.98
399.383	5.9
399.59	5.75
399.797	5.65
400.004	5.33
400.211	5.19
400.418	5.21
400.625	5.24
400.831	4.72
401.038	4.88
401.245	4.82
401.452	4.76
401.658	4.73
401.865	4.6
402.072	4.76
402.279	4.82
402.485	4.85
402.692	4.89
402.899	5.03
403.105	5.35
403.312	5.24
403.519	5.2
403.725	5.07
403.932	5.07
404.138	4.97
404.345	5
404.552	5
404.758	4.99
404.965	4.78
405.171	4.64
405.378	4.53
405.584	4.68
405.791	4.71
405.997	4.72
406.204	4.74
406.41	4.87
406.617	4.72
406.823	4.9
407.029	4.9
407.236	5.1
407.442	5.17
407.649	5.15
407.855	4.96
408.061	4.9
408.268	4.95
408.474	4.88
408.68	4.96
408.887	5.03
409.093	4.95
409.299	4.86
409.505	4.91
409.712	4.95
409.918	4.92
410.124	4.93
410.33	4.76
410.537	4.71
410.743	4.63
410.949	4.56
411.155	4.42
411.361	4.31
411.567	4.3
411.773	4.16
411.98	4.14
412.186	4.08
412.392	4.17
412.598	4.35
412.804	4.28
413.01	4.43
413.216	4.32
413.422	4.66
413.628	4.74
413.834	4.78
414.04	4.79
414.246	4.5
414.452	4.49
414.658	4.47
414.864	4.41
415.07	4.45
415.275	4.44
415.481	4.42
415.687	4.08
415.893	4.1
416.099	4.02
416.305	4.03
416.511	4.18
416.716	4.24
416.922	4.3
417.128	4.35
417.334	4.41
417.539	4.33
417.745	4.39
417.951	4.52
418.157	4.47
418.362	4.51
418.568	4.43
418.774	4.28
418.979	4.34
419.185	4.28
419.391	4.23
419.596	4.14
419.802	4.15
420.008	4.12
420.213	4.65
420.419	4.66
420.624	4.6
420.83	4.6
421.035	4.68
421.241	4.54
421.446	4.59
421.652	4.6
421.857	4.59
422.063	4.62
422.268	4.6
422.474	4.07
422.679	4.05
422.885	4.06
423.09	4.02
423.295	4.01
423.501	4.03
423.706	3.95
423.911	3.93
424.117	4.02
424.322	3.96
424.527	3.98
424.733	3.95
424.938	3.95
425.143	4
425.349	4.1
425.554	4.13
425.759	4.17
425.964	4.17
426.169	4.25
426.375	4.24
426.58	4.31
426.785	4.31
426.99	4.36
427.195	4.42
427.4	4.28
427.605	4.28
427.811	4.2
428.016	4.1
428.221	4.11
428.426	3.98
428.631	3.87
428.836	3.86
429.041	3.78
429.246	3.78
429.451	3.72
429.656	3.84
429.861	3.9
430.066	4.08
430.271	4.07
430.476	4.11
430.681	4.2
430.886	4.16
431.09	4.24
431.295	4.24
431.5	4.09
431.705	4.08
431.91	4.16
432.115	4.11
432.32	3.93
432.524	4
432.729	3.98
432.934	3.93
433.139	4.05
433.343	4.04
433.548	4.15
433.753	4.25
433.958	4.18
434.162	4.06
434.367	3.95
434.572	4.04
434.776	3.95
434.981	3.91
435.186	3.89
435.39	3.82
435.595	3.69
435.799	3.63
436.004	3.64
436.209	3.58
436.413	3.56
436.618	3.51
436.822	3.54
437.027	3.67
437.231	3.63
437.436	3.66
437.64	3.78
437.845	3.73
438.049	3.75
438.253	3.78
438.458	3.81
438.662	3.82
438.867	3.92
439.071	3.89
439.275	3.91
439.48	3.93
439.684	3.94
439.888	3.84
440.093	3.95
440.297	3.88
440.501	3.77
440.706	3.83
440.91	3.96
441.114	3.99
441.318	4.02
441.523	3.93
441.727	3.98
441.931	4.07
442.135	3.98
442.339	3.94
442.543	3.93
442.748	4.07
442.952	4.12
443.156	4.01
443.36	3.97
443.564	3.93
443.768	3.9
443.972	3.85
444.176	3.68
444.38	3.73
444.584	3.64
444.788	3.69
444.992	3.56
445.196	3.55
445.4	3.51
445.604	3.47
445.808	3.5
446.012	3.53
446.216	3.5
446.42	3.6
446.624	3.65
446.828	3.68
447.032	3.67
447.235	3.76
447.439	3.65
447.643	3.79
447.847	3.89
448.051	3.95
448.254	4.05
448.458	4.11
448.662	4.1
448.866	4.04
449.069	4.07
449.273	4.05
449.477	4.05
449.681	4.1
449.884	3.93
450.088	3.79
450.292	3.76
450.495	3.58
450.699	3.53
450.902	3.49
451.106	3.44
451.31	3.39
451.513	3.46
451.717	3.43
451.92	3.45
452.124	3.48
452.327	3.58
452.531	3.57
452.734	3.66
452.938	3.68
453.141	3.76
453.345	3.84
453.548	3.85
453.752	3.94
453.955	4
454.158	3.85
454.362	3.8
454.565	3.84
454.769	3.79
454.972	3.86
455.175	3.99
455.379	3.89
455.582	3.89
455.785	3.95
455.988	3.81
456.192	3.72
456.395	3.83
456.598	4
456.801	3.94
457.005	3.83
457.208	3.7
457.411	3.57
457.614	3.54
457.817	3.49
458.021	3.43
458.224	3.51
458.427	3.48
458.63	3.54
458.833	3.5
459.036	3.56
459.239	3.61
459.442	3.63
459.645	3.65
459.848	3.68
460.051	3.72
460.254	3.92
460.457	3.84
460.66	3.96
460.863	3.88
461.066	3.87
461.269	3.74
461.472	3.87
461.675	3.82
461.878	3.74
462.081	3.84
462.284	3.86
462.486	3.68
462.689	3.76
462.892	3.72
463.095	3.81
463.298	3.79
463.5	3.84
463.703	3.68
463.906	3.82
464.109	3.81
464.311	3.76
464.514	3.73
464.717	3.75
464.92	3.68
465.122	3.65
465.325	3.63
465.528	3.57
465.73	3.62
465.933	3.58
466.135	3.56
466.338	3.67
466.541	3.67
466.743	3.69
466.946	3.65
467.148	3.66
467.351	3.69
467.553	3.64
467.756	3.65
467.958	3.61
468.161	3.71
