Data from 2938465_Reflection_3.txt Node
Date: Wed Jun 17 13:52:11 EDT 2015
User: robert
Spectrometer: USB4E03002
Autoset integration time: false
Trigger mode: 4
Integration Time (sec): 1.000000E-1
Scans to average: 10
Electric dark correction enabled: true
Nonlinearity correction enabled: false
Boxcar width: 5
Stray light correction enabled: false
XAxis mode: Wavelengths
Stop averaging: false
Number of Pixels in Spectrum: 3648
>>>>>Begin Spectral Data<<<<<
177.575	31.19
177.794	110.77
178.014	116.9
178.233	225.85
178.452	-73.25
178.672	-350.1
178.891	-26.9
179.11	59.79
179.33	418.75
179.549	-1506.17
179.768	18.66
179.987	29.49
180.207	19.85
180.426	203.79
180.645	-103.49
180.864	-53.59
181.084	-46.44
181.303	-2.15
181.522	-16.12
181.741	-164.35
181.96	-70.45
182.179	-4.43
182.398	14.42
182.618	33.01
182.837	89.3
183.056	313.54
183.275	304.31
183.494	252.7
183.713	267.03
183.932	2137.61
184.151	997.39
184.37	450.23
184.589	306.23
184.808	253.14
185.027	650.39
185.246	340.11
185.465	231.6
185.684	252.95
185.903	314.49
186.122	238.44
186.341	148.67
186.56	159.75
186.779	241.53
186.998	257.1
187.216	193.46
187.435	152.74
187.654	151.12
187.873	152.87
188.092	151.63
188.311	130.23
188.53	143.71
188.748	173.77
188.967	158.88
189.186	130.99
189.405	159.5
189.623	64.68
189.842	223.6
190.061	-1637.2
190.28	-105.79
190.498	-99.83
190.717	-850.81
190.936	-156.9
191.154	-13.3
191.373	-13.48
191.592	-571.76
191.81	105.11
192.029	-272.22
192.248	422.08
192.466	78.38
192.685	16.51
192.904	-6.35
193.122	-46.14
193.341	19.59
193.559	41.84
193.778	50.35
193.996	70.94
194.215	70.84
194.433	89.74
194.652	76.35
194.87	107.96
195.089	131.75
195.307	185.26
195.526	369.79
195.744	263.13
195.963	219.99
196.181	193.58
196.399	133.99
196.618	122.04
196.836	138.06
197.055	139.91
197.273	119.39
197.491	125.37
197.71	110.2
197.928	125.08
198.146	100.87
198.365	110.81
198.583	122.27
198.801	113.56
199.019	129.06
199.238	108.19
199.456	99.08
199.674	105.91
199.892	103.99
200.111	79.96
200.329	83.94
200.547	125.39
200.765	125.41
200.983	131.71
201.202	153.38
201.42	137.97
201.638	138.56
201.856	116.16
202.074	79.24
202.292	78.21
202.51	72.46
202.728	51.68
202.946	46.63
203.165	10.64
203.383	15.32
203.601	23.08
203.819	26.2
204.037	2.63
204.255	30.96
204.473	50.71
204.691	62.31
204.909	87.94
205.127	72.9
205.345	61.71
205.562	81.78
205.78	102.53
205.998	84.69
206.216	82.37
206.434	88.93
206.652	82.11
206.87	81.61
207.088	82.16
207.306	66.36
207.523	66.79
207.741	69.14
207.959	68.66
208.177	58.56
208.395	55.07
208.612	60.75
208.83	64.34
209.048	54.89
209.266	58.66
209.483	55.75
209.701	73.42
209.919	83.95
210.136	98.7
210.354	78.43
210.572	78.74
210.79	79.87
211.007	82.7
211.225	76.62
211.442	89.28
211.66	89.64
211.878	89.93
212.095	152.28
212.313	139.98
212.53	121.46
212.748	158.02
212.966	166.65
213.183	158.69
213.401	146.26
213.618	127.71
213.836	121.9
214.053	110.68
214.271	100.61
214.488	39.89
214.705	51.62
214.923	58.83
215.14	49.62
215.358	57.84
215.575	69.57
215.793	62.18
216.01	66.4
216.227	70.47
216.445	68.17
216.662	74.26
216.879	81.07
217.097	68.66
217.314	62.31
217.531	66.41
217.749	66.48
217.966	57.21
218.183	51.09
218.4	35
218.618	25.73
218.835	-4.71
219.052	2.56
219.269	-26.36
219.487	-18.28
219.704	16.77
219.921	19.47
220.138	-1.21
220.355	10.6
220.572	22.9
220.79	30.11
221.007	41.42
221.224	57.02
221.441	51.98
221.658	49.14
221.875	55.26
222.092	45.34
222.309	41.36
222.526	42.96
222.743	38.15
222.96	39.45
223.177	39.93
223.394	36.28
223.611	28.54
223.828	31.21
224.045	28.99
224.262	21.98
224.479	19.41
224.696	22.35
224.913	22.72
225.13	23.51
225.347	21.84
225.564	19.87
225.781	17.78
225.997	17.51
226.214	18.42
226.431	16.67
226.648	16.24
226.865	16.85
227.082	17.03
227.298	16.81
227.515	16.6
227.732	14.83
227.949	15.75
228.165	15.93
228.382	16.64
228.599	15.03
228.816	15.76
229.032	15.75
229.249	15.31
229.466	15.66
229.682	17.66
229.899	19.66
230.116	21.35
230.332	19.64
230.549	19.32
230.765	20
230.982	20.8
231.199	22.69
231.415	26.45
231.632	28.32
231.848	28.53
232.065	26.53
232.281	22.7
232.498	22.16
232.714	24.7
232.931	24.63
233.147	24.39
233.364	22.64
233.58	21.83
233.797	20.53
234.013	19.23
234.23	15.1
234.446	15.01
234.662	15.35
234.879	13.64
235.095	11.14
235.312	10.56
235.528	10.07
235.744	11.23
235.961	10.88
236.177	8.84
236.393	10.35
236.61	11.14
236.826	9.33
237.042	11.14
237.258	15.52
237.475	16.12
237.691	17.67
237.907	15.07
238.123	14.53
238.339	14.92
238.556	16.57
238.772	15.2
238.988	15.86
239.204	15.47
239.42	15.06
239.636	14.57
239.853	14.4
240.069	13.81
240.285	13.68
240.501	13.99
240.717	13.31
240.933	12.51
241.149	12.61
241.365	13.17
241.581	14.39
241.797	14.17
242.013	13.95
242.229	14.17
242.445	13.99
242.661	14.38
242.877	15.29
243.093	15.83
243.309	16.14
243.525	16.12
243.741	15.19
243.957	14.38
244.173	14.27
244.388	13.65
244.604	13.23
244.82	13.18
245.036	13.39
245.252	12.69
245.468	12.16
245.683	12.42
245.899	12.45
246.115	12.35
246.331	12.27
246.547	12.06
246.762	12.17
246.978	12.02
247.194	12.57
247.409	12.6
247.625	12.41
247.841	12.88
248.057	12.74
248.272	13.02
248.488	13.17
248.703	12.78
248.919	12.72
249.135	12.39
249.35	13.11
249.566	12.61
249.782	12.4
249.997	12.5
250.213	11.84
250.428	11.77
250.644	10.95
250.859	10.56
251.075	10.88
251.29	11.3
251.506	11.78
251.721	11.85
251.937	11.98
252.152	11.74
252.368	12.36
252.583	13.22
252.798	13.12
253.014	14.01
253.229	15.89
253.445	15.63
253.66	16.16
253.875	15.85
254.091	15.8
254.306	14.9
254.521	15.26
254.737	14.4
254.952	13.88
255.167	13.41
255.383	12.67
255.598	11.76
255.813	11.64
256.028	11
256.244	10.1
256.459	9.31
256.674	9.41
256.889	9.47
257.104	9.33
257.32	9.67
257.535	9.33
257.75	9.67
257.965	9.56
258.18	9.54
258.395	9.5
258.61	9.88
258.826	10.15
259.041	10.11
259.256	9.86
259.471	10.19
259.686	10.2
259.901	10.74
260.116	10.38
260.331	10.4
260.546	10.12
260.761	9.86
260.976	9.92
261.191	9.62
261.406	9.83
261.621	9.66
261.836	9.39
262.05	8.82
262.265	8
262.48	7.83
262.695	7.45
262.91	8.26
263.125	8.79
263.34	8.43
263.555	8.64
263.769	9.1
263.984	9.03
264.199	9.34
264.414	9.06
264.629	9.67
264.843	9.9
265.058	9.83
265.273	9.86
265.488	9.68
265.702	9.76
265.917	9.66
266.132	9.43
266.346	10.04
266.561	9.84
266.776	10.95
266.99	11.03
267.205	10.89
267.42	10.74
267.634	10.81
267.849	11.61
268.063	11.6
268.278	11.83
268.492	11.39
268.707	10.86
268.922	10.86
269.136	10.14
269.351	9.98
269.565	10.26
269.78	10.39
269.994	10.54
270.209	9.74
270.423	9.58
270.637	8.85
270.852	8.94
271.066	9.27
271.281	8.95
271.495	8.62
271.709	8.5
271.924	8.32
272.138	8.38
272.353	7.97
272.567	7.87
272.781	7.73
272.996	8.3
273.21	8.25
273.424	8
273.638	8.2
273.853	8.71
274.067	8.52
274.281	8.73
274.495	8.93
274.71	9.17
274.924	8.8
275.138	8.93
275.352	8.65
275.566	8.56
275.781	8.7
275.995	9.33
276.209	9.19
276.423	9.25
276.637	8.86
276.851	8.62
277.065	8.48
277.279	9.61
277.493	9.33
277.707	9.55
277.921	9.58
278.135	8.68
278.349	8.59
278.563	8.52
278.777	8.27
278.991	8.25
279.205	8.8
279.419	9.03
279.633	8.7
279.847	8.8
280.061	8.75
280.275	9
280.489	9.89
280.703	9.68
280.917	9.75
281.131	10.29
281.344	10.51
281.558	10.13
281.772	9.73
281.986	9.74
282.2	9.95
282.414	10.15
282.627	10.28
282.841	10.02
283.055	9.58
283.269	9.88
283.482	9.69
283.696	9.4
283.91	9.56
284.123	9.48
284.337	9.39
284.551	9.2
284.764	9.27
284.978	9.36
285.192	9.4
285.405	9.76
285.619	9.48
285.833	9.65
286.046	9.63
286.26	9.58
286.473	10
286.687	10.14
286.9	10.68
287.114	9.95
287.327	9.53
287.541	9.5
287.754	9.32
287.968	9.21
288.181	8.75
288.395	9.14
288.608	9.22
288.822	8.87
289.035	8.35
289.248	8.29
289.462	8.83
289.675	8.8
289.889	8.63
290.102	8.69
290.315	8.31
290.529	8.79
290.742	8.96
290.955	8.69
291.169	8.85
291.382	9.69
291.595	9.62
291.808	9.45
292.022	9.66
292.235	9.71
292.448	10.05
292.661	10.7
292.875	10.73
293.088	10.74
293.301	11.16
293.514	11.16
293.727	10.94
293.94	11.03
294.153	11.63
294.367	11.41
294.58	11.44
294.793	11.33
295.006	11.36
295.219	11.44
295.432	11.45
295.645	11.46
295.858	11.44
296.071	11.36
296.284	11.27
296.497	10.85
296.71	11.27
296.923	11.75
297.136	11.61
297.349	11.56
297.562	11.67
297.775	11.65
297.988	11.82
298.201	12.18
298.414	12.49
298.626	12.47
298.839	12.54
299.052	12.23
299.265	11.86
299.478	12.18
299.691	12.99
299.903	12.9
300.116	13.17
300.329	12.77
300.542	12.6
300.755	12.71
300.967	13.34
301.18	13.93
301.393	14.15
301.605	14.39
301.818	14.07
302.031	13.46
302.243	13.3
302.456	13.21
302.669	12.93
302.881	13.23
303.094	12.74
303.307	12.68
303.519	13.07
303.732	13.42
303.944	13.54
304.157	14.07
304.37	14.12
304.582	14.63
304.795	14.95
305.007	15.58
305.22	15.26
305.432	15.83
305.645	15.38
305.857	14.58
306.069	14.45
306.282	14.13
306.494	13.99
306.707	14.26
306.919	13.87
307.132	13.68
307.344	13.71
307.556	14.3
307.769	14.23
307.981	14.48
308.193	14.64
308.406	14.64
308.618	15.14
308.83	15.07
309.043	14.91
309.255	15.15
309.467	14.71
309.679	14.54
309.892	14.52
310.104	14.48
310.316	14.47
310.528	14.61
310.74	14.67
310.953	14.45
311.165	14.15
311.377	13.87
311.589	13.68
311.801	14.4
312.013	14.48
312.225	14.21
312.437	14.39
312.649	14.44
312.862	14.07
313.074	14.33
313.286	14.42
313.498	15.23
313.71	15.83
313.922	16.17
314.134	15.8
314.346	15.79
314.558	15.96
314.77	16.23
314.982	16.47
315.193	17.12
315.405	16.78
315.617	17.04
315.829	16.74
316.041	16.68
316.253	16.4
316.465	16.62
316.677	16.83
316.888	16.82
317.1	16.56
317.312	16.62
317.524	16.3
317.736	16.54
317.947	15.76
318.159	16.22
318.371	16.6
318.583	16.62
318.794	16.47
319.006	16.7
319.218	16.71
319.43	17.06
319.641	17.1
319.853	17.31
320.064	17.29
320.276	18.21
320.488	17.9
320.699	17.91
320.911	18.34
321.123	18.48
321.334	18.64
321.546	18.82
321.757	18.57
321.969	18.81
322.18	18.61
322.392	18.66
322.603	18.69
322.815	19.19
323.026	19.17
323.238	19.64
323.449	19.85
323.661	19.7
323.872	19.68
324.083	19.87
324.295	20.24
324.506	20.64
324.718	20.94
324.929	21.68
325.14	21.78
325.352	22.05
325.563	22.02
325.774	22.69
325.986	23.66
326.197	24.49
326.408	24.81
326.62	24.75
326.831	25.4
327.042	25.75
327.253	25.47
327.464	25.47
327.676	25.73
327.887	25.7
328.098	25.85
328.309	25.64
328.52	25.91
328.732	26.62
328.943	27.27
329.154	26.65
329.365	27.06
329.576	27.16
329.787	28.02
329.998	28.76
330.209	29.81
330.42	29.92
330.631	30.34
330.842	30.36
331.053	30.12
331.264	30.72
331.475	31.47
331.686	31.91
331.897	32.25
332.108	32.39
332.319	32.36
332.53	31.84
332.741	32.47
332.952	32.52
333.163	32.81
333.374	32.88
333.585	32.53
333.795	32.82
334.006	32.84
334.217	33.23
334.428	33.59
334.639	33.43
334.849	33.97
335.06	33.73
335.271	33.6
335.482	33.51
335.692	33.93
335.903	34.04
336.114	34.07
336.325	34.11
336.535	34.17
336.746	34.25
336.957	34.83
337.167	35.07
337.378	35.13
337.589	35.8
337.799	35.92
338.01	36.38
338.22	36.59
338.431	36.77
338.642	37.06
338.852	37.04
339.063	36.99
339.273	36.43
339.484	36.15
339.694	36.51
339.905	36.42
340.115	36.64
340.326	36.44
340.536	36.53
340.746	36.46
340.957	36.54
341.167	36.72
341.378	36.48
341.588	37.12
341.799	37.46
342.009	37.13
342.219	37.14
342.43	37.38
342.64	37.12
342.85	37.35
343.061	37.07
343.271	37.03
343.481	36.95
343.691	37.04
343.902	36.4
344.112	36.22
344.322	36.3
344.532	36.18
344.743	35.66
344.953	35.83
345.163	35.34
345.373	35.59
345.583	35.34
345.793	35.38
346.004	35.66
346.214	35.76
346.424	35.73
346.634	35.74
346.844	35.73
347.054	36.06
347.264	36.4
347.474	36.63
347.684	36.69
347.894	36.75
348.104	36.4
348.314	36.21
348.524	36.26
348.734	36.4
348.944	36.26
349.154	36.34
349.364	36.07
349.574	35.26
349.784	35.19
349.994	35.19
350.204	35.47
350.413	36.2
350.623	36.23
350.833	36.55
351.043	36.3
351.253	36.24
351.463	36.13
351.672	36.02
351.882	36.39
352.092	36.12
352.302	36.03
352.511	35.75
352.721	35.23
352.931	35.16
353.141	35.15
353.35	34.95
353.56	34.87
353.77	34.55
353.979	34.66
354.189	34.45
354.399	34.46
354.608	34.3
354.818	34.31
355.027	34.48
355.237	34.34
355.447	34.18
355.656	34.32
355.866	34.64
356.075	35.03
356.285	35.09
356.494	34.86
356.704	34.88
356.913	34.68
357.123	34.6
357.332	34.41
357.542	34.41
357.751	34.35
357.96	34.47
358.17	34.42
358.379	34.54
358.589	34.53
358.798	34.91
359.007	34.72
359.217	34.99
359.426	35.04
359.635	34.92
359.845	34.82
360.054	34.74
360.263	34.79
360.472	34.73
360.682	34.26
360.891	34.25
361.1	34.23
361.309	34.37
361.519	34.4
361.728	34.33
361.937	34.41
362.146	34.69
362.355	34.43
362.564	34.39
362.774	34.36
362.983	34.59
363.192	34.51
363.401	34.28
363.61	34.07
363.819	34.21
364.028	34.01
364.237	33.79
364.446	33.3
364.655	33.53
364.864	33.49
365.073	33.41
365.282	33.27
365.491	33.01
365.7	33.12
365.909	33.24
366.118	33.09
366.327	33.06
366.536	33.49
366.745	33.62
366.954	33.72
367.162	33.5
367.371	33.52
367.58	33.44
367.789	33.45
367.998	33.04
368.207	33
368.415	32.79
368.624	32.89
368.833	32.5
369.042	32.42
369.25	32.42
369.459	32.65
369.668	32.31
369.877	32.62
370.085	32.67
370.294	32.85
370.503	32.59
370.711	32.79
370.92	32.43
371.129	32.44
371.337	32.57
371.546	32.25
371.754	32.08
371.963	32.18
372.171	31.95
372.38	32.08
372.589	32.63
372.797	33.11
373.006	32.86
373.214	33.04
373.423	33
373.631	32.91
373.84	33.03
374.048	33.14
374.256	33.27
374.465	33.3
374.673	33.06
374.882	32.5
375.09	32.09
375.298	32.02
375.507	31.82
375.715	31.7
375.923	31.62
376.132	31.56
376.34	31.17
376.548	31.04
376.757	30.83
376.965	31
377.173	31.05
377.381	31.13
377.59	31.14
377.798	31.29
378.006	31.18
378.214	31.17
378.423	31.09
378.631	31.13
378.839	31.04
379.047	31.18
379.255	30.87
379.463	30.82
379.671	30.48
379.879	30.36
380.088	30.41
380.296	30.42
380.504	30.3
380.712	30.26
380.92	30.31
381.128	30.34
381.336	30.16
381.544	30.28
381.752	30.13
381.96	30.38
382.168	30.36
382.376	30.25
382.584	30.16
382.791	30.26
382.999	30.36
383.207	30.17
383.415	30.02
383.623	30.18
383.831	30.27
384.039	30.31
384.247	30.26
384.454	30.15
384.662	30.27
384.87	30.32
385.078	30.16
385.285	29.97
385.493	29.9
385.701	29.97
385.909	29.9
386.116	29.76
386.324	29.56
386.532	29.52
386.739	29.63
386.947	29.67
387.155	30.01
387.362	30.14
387.57	30.18
387.778	30.29
387.985	30.15
388.193	30.17
388.4	30.11
388.608	30.24
388.816	30.06
389.023	30.1
389.231	29.86
389.438	29.62
389.646	29.46
389.853	29.62
390.061	29.49
390.268	29.49
390.475	29.25
390.683	29.28
390.89	29.32
391.098	29.52
391.305	29.37
391.512	29.28
391.72	29.2
391.927	29.25
392.135	28.93
392.342	29.09
392.549	29.29
392.756	29.49
392.964	29.52
393.171	29.62
393.378	29.57
393.586	29.72
393.793	29.67
394	29.61
394.207	29.57
394.414	29.83
394.622	29.81
394.829	29.67
395.036	29.39
395.243	29.23
395.45	29.05
395.657	29.04
395.864	29.04
396.072	29.24
396.279	29.1
396.486	29.09
396.693	29
396.9	28.95
397.107	28.97
397.314	29.29
397.521	29.31
397.728	29.54
397.935	29.68
398.142	29.47
398.349	29.23
398.556	29.54
398.763	29.51
398.97	29.65
399.177	29.81
399.383	29.71
399.59	29.59
399.797	29.68
400.004	29.52
400.211	29.49
400.418	29.59
400.625	29.72
400.831	29.42
401.038	29.37
401.245	29.15
401.452	29.08
401.658	28.97
401.865	28.87
402.072	28.89
402.279	28.91
402.485	28.67
402.692	28.76
402.899	28.9
403.105	29.03
403.312	29.15
403.519	29.28
403.725	29.13
403.932	29.25
404.138	29.36
404.345	29.27
404.552	29.24
404.758	29.41
404.965	29.32
405.171	29.17
405.378	29.22
405.584	29.12
405.791	28.93
405.997	28.92
406.204	28.92
406.41	28.7
406.617	28.64
406.823	28.7
407.029	28.72
407.236	28.82
407.442	28.93
407.649	29.03
407.855	28.85
408.061	28.98
408.268	29.17
408.474	29.22
408.68	29.28
408.887	29.49
409.093	29.37
409.299	29.29
409.505	29.1
409.712	28.97
409.918	28.62
410.124	28.76
410.33	28.8
410.537	28.58
410.743	28.37
410.949	28.23
411.155	28.05
411.361	27.95
411.567	27.77
411.773	27.73
411.98	27.8
412.186	28.02
412.392	28.01
412.598	27.84
412.804	27.81
413.01	27.83
413.216	27.93
413.422	27.87
413.628	27.81
413.834	28.02
414.04	27.83
414.246	27.66
414.452	27.51
414.658	27.38
414.864	27.28
415.07	27.37
415.275	27.3
415.481	27.29
415.687	27.33
415.893	27.31
416.099	27.11
416.305	27.2
416.511	27.25
416.716	27.25
416.922	27.36
417.128	27.42
417.334	27.31
417.539	27.28
417.745	27.16
417.951	27.1
418.157	27.04
418.362	26.95
418.568	26.83
418.774	26.73
418.979	26.82
419.185	26.76
419.391	26.63
419.596	26.61
419.802	26.59
420.008	26.68
420.213	27.09
420.419	27.07
420.624	27.03
420.83	27.07
421.035	27.06
421.241	26.98
421.446	26.85
421.652	26.92
421.857	26.9
422.063	26.85
422.268	26.67
422.474	26.21
422.679	26.21
422.885	26.29
423.09	26.22
423.295	26.25
423.501	26.11
423.706	26.13
423.911	26.14
424.117	26.13
424.322	26.17
424.527	26.37
424.733	26.32
424.938	26.27
425.143	26.29
425.349	26.35
425.554	26.26
425.759	26.36
425.964	26.3
426.169	26.17
426.375	26.02
426.58	26.03
426.785	25.86
426.99	25.93
427.195	26.02
427.4	25.83
427.605	25.95
427.811	25.95
428.016	25.87
428.221	26.06
428.426	26.07
428.631	26.22
428.836	26.22
429.041	26.26
429.246	26.3
429.451	26.3
429.656	26.4
429.861	26.45
430.066	26.46
430.271	26.52
430.476	26.41
430.681	26.45
430.886	26.48
431.09	26.54
431.295	26.51
431.5	26.53
431.705	26.49
431.91	26.58
432.115	26.51
432.32	26.52
432.524	26.47
432.729	26.34
432.934	26.37
433.139	26.3
433.343	26.22
433.548	26.16
433.753	26.02
433.958	26.06
434.162	25.98
434.367	25.91
434.572	25.85
434.776	25.93
434.981	26.04
435.186	25.87
435.39	25.88
435.595	25.82
435.799	25.89
436.004	25.93
436.209	25.83
436.413	25.78
436.618	25.73
436.822	25.81
437.027	25.78
437.231	25.84
437.436	26.03
437.64	26.02
437.845	26.08
438.049	26.11
438.253	26.11
438.458	26.24
438.662	26.33
438.867	26.43
439.071	26.5
439.275	26.58
439.48	26.46
439.684	26.33
439.888	26.32
440.093	26.37
440.297	26.34
440.501	26.31
440.706	26.29
440.91	26.31
441.114	26.18
441.318	26.02
441.523	25.88
441.727	26.09
441.931	26.33
442.135	26.36
442.339	26.42
442.543	26.5
442.748	26.49
442.952	26.51
443.156	26.39
443.36	26.47
443.564	26.5
443.768	26.54
443.972	26.39
444.176	26.25
444.38	26.23
444.584	26.08
444.788	25.91
444.992	25.8
445.196	25.68
445.4	25.74
445.604	25.62
445.808	25.62
446.012	25.57
446.216	25.49
446.42	25.43
446.624	25.36
446.828	25.32
447.032	25.32
447.235	25.43
447.439	25.44
447.643	25.38
447.847	25.49
448.051	25.46
448.254	25.43
448.458	25.55
448.662	25.59
448.866	25.62
449.069	25.56
449.273	25.64
449.477	25.58
449.681	25.63
449.884	25.69
450.088	25.69
450.292	25.79
450.495	25.72
450.699	25.77
450.902	25.73
451.106	25.77
451.31	25.75
451.513	25.73
451.717	25.75
451.92	25.72
452.124	25.55
452.327	25.49
452.531	25.42
452.734	25.39
452.938	25.27
453.141	25.24
453.345	25.14
453.548	25.23
453.752	25.31
453.955	25.3
454.158	25.18
454.362	25.26
454.565	25.36
454.769	25.39
454.972	25.55
455.175	25.65
455.379	25.61
455.582	25.65
455.785	25.76
455.988	25.7
456.192	25.64
456.395	25.75
456.598	25.76
456.801	25.76
457.005	25.74
457.208	25.7
