Data from 2938488_Reflection_2.txt Node
Date: Wed Jun 17 00:52:37 EDT 2015
User: robert
Spectrometer: USB4E03002
Autoset integration time: false
Trigger mode: 4
Integration Time (sec): 1.000000E-1
Scans to average: 10
Electric dark correction enabled: true
Nonlinearity correction enabled: false
Boxcar width: 5
Stray light correction enabled: false
XAxis mode: Wavelengths
Stop averaging: false
Number of Pixels in Spectrum: 3648
>>>>>Begin Spectral Data<<<<<
177.575	-155.02
177.794	93.89
178.014	133.72
178.233	70.67
178.452	22.57
178.672	27.95
178.891	42.98
179.11	76.42
179.33	85.86
179.549	25.02
179.768	-15.29
179.987	16.07
180.207	-6.22
180.426	-83.53
180.645	-46.03
180.864	-132.4
181.084	-8.83
181.303	-25.78
181.522	-14.16
181.741	-35.27
181.96	-38.72
182.179	-365.4
182.398	856.67
182.618	106.92
182.837	105.21
183.056	105.48
183.275	97.21
183.494	277.68
183.713	464.26
183.932	487.65
184.151	-138.31
184.37	-1333.43
184.589	-7321.13
184.808	2090.72
185.027	693.96
185.246	-10660.71
185.465	1374.47
185.684	454.95
185.903	317.06
186.122	348.97
186.341	256.24
186.56	234.65
186.779	404.65
186.998	869.44
187.216	820.65
187.435	782.63
187.654	2067.59
187.873	-1931.24
188.092	-2087.42
188.311	15490.59
188.53	-1200.47
188.748	-377.25
188.967	-762.95
189.186	-1935.21
189.405	-3146.25
189.623	6147.45
189.842	-1269.68
190.061	-3775.74
190.28	564.11
190.498	-2441.65
190.717	-753.61
190.936	650.96
191.154	804.71
191.373	677.17
191.592	1418.38
191.81	1122.43
192.029	568.39
192.248	628.48
192.466	513.18
192.685	847.85
192.904	7400
193.122	1266.71
193.341	-158.23
193.559	-242.8
193.778	-621.47
193.996	-293.87
194.215	-237.9
194.433	-119.67
194.652	-128.17
194.87	-39.93
195.089	-7.99
195.307	-284.86
195.526	654.92
195.744	219.64
195.963	136.7
196.181	176.43
196.399	140.24
196.618	83.3
196.836	105.42
197.055	154.99
197.273	150.74
197.491	126.47
197.71	143.13
197.928	312.21
198.146	-1722.26
198.365	-463.73
198.583	-1150.11
198.801	612.04
199.019	789.71
199.238	-773.93
199.456	9620.83
199.674	2381.91
199.892	-237.5
200.111	-305.9
200.329	-130.13
200.547	-218.38
200.765	-121.94
200.983	-417.3
201.202	-154.82
201.42	-216.42
201.638	-14212.5
201.856	-378.05
202.074	-70.64
202.292	-105.09
202.51	-82.22
202.728	972.67
202.946	1730.73
203.165	-3544.05
203.383	-1008.38
203.601	-1394.37
203.819	-1282.45
204.037	-810.66
204.255	1134.07
204.473	202.87
204.691	245.73
204.909	192.34
205.127	589.24
205.345	-426.41
205.562	-1771.23
205.78	-178.64
205.998	-624.94
206.216	-1398.44
206.434	-280.12
206.652	-257.19
206.87	-169.33
207.088	-171.06
207.306	-462.06
207.523	-436.69
207.741	1251.24
207.959	-545.51
208.177	1651.56
208.395	2156.93
208.612	-3267.29
208.83	244.68
209.048	204.5
209.266	164.39
209.483	143.27
209.701	193.37
209.919	175.22
210.136	226.1
210.354	152.71
210.572	126.28
210.79	97.46
211.007	92.92
211.225	103.21
211.442	116.63
211.66	121.18
211.878	112.39
212.095	104.14
212.313	84.37
212.53	83.27
212.748	75.33
212.966	77.5
213.183	90.29
213.401	85.56
213.618	118.62
213.836	89.68
214.053	91.41
214.271	97.03
214.488	91.2
214.705	98.95
214.923	100.35
215.14	104.33
215.358	115.89
215.575	94.92
215.793	86.48
216.01	64.17
216.227	67.63
216.445	69.44
216.662	53.8
216.879	35.59
217.097	25.28
217.314	17.41
217.531	12.27
217.749	-9.7
217.966	12.48
218.183	48.68
218.4	65.15
218.618	69.9
218.835	61.29
219.052	71.03
219.269	82.72
219.487	91.84
219.704	92.48
219.921	70.41
220.138	74.03
220.355	62.09
220.572	53.5
220.79	45.65
221.007	28.91
221.224	24.01
221.441	23.87
221.658	30.34
221.875	24.24
222.092	39.34
222.309	47.26
222.526	49.23
222.743	51.87
222.96	46.92
223.177	46.39
223.394	43.94
223.611	46.35
223.828	42.78
224.045	31.83
224.262	31.56
224.479	20.39
224.696	13.68
224.913	15.75
225.13	11.94
225.347	9.53
225.564	9.67
225.781	11.61
225.997	10.97
226.214	12.13
226.431	12.89
226.648	13.1
226.865	13.13
227.082	12.93
227.298	11.69
227.515	11.68
227.732	12.79
227.949	13.5
228.165	13.15
228.382	13.27
228.599	13.36
228.816	13.95
229.032	14.06
229.249	15.13
229.466	15.61
229.682	15.15
229.899	17.1
230.116	16.57
230.332	16.53
230.549	17.49
230.765	18.65
230.982	19.23
231.199	20.9
231.415	18.96
231.632	19.7
231.848	22.55
232.065	24.86
232.281	24.01
232.498	23.52
232.714	22.46
232.931	23.38
233.147	22.18
233.364	21.28
233.58	19.28
233.797	20
234.013	19.31
234.23	18.51
234.446	17.89
234.662	19.02
234.879	22.1
235.095	22.75
235.312	21.95
235.528	23.48
235.744	22.86
235.961	23.1
236.177	22.05
236.393	22.45
236.61	22.83
236.826	22
237.042	20.34
237.258	16.91
237.475	18.79
237.691	18.37
237.907	16.34
238.123	16.91
238.339	16.86
238.556	19.4
238.772	18.64
238.988	17.94
239.204	17.46
239.42	17.41
239.636	18.38
239.853	16.82
240.069	17.28
240.285	17.05
240.501	16.47
240.717	16
240.933	14.81
241.149	14.92
241.365	14.21
241.581	14.01
241.797	13.64
242.013	13.11
242.229	13.05
242.445	12.58
242.661	13.19
242.877	13.21
243.093	13.56
243.309	13.6
243.525	13.74
243.741	14.43
243.957	13.91
244.173	13.69
244.388	14.06
244.604	13.85
244.82	13.31
245.036	12.78
245.252	13.22
245.468	13.39
245.683	13.22
245.899	12.87
246.115	13.2
246.331	13.39
246.547	13.58
246.762	13.33
246.978	13.53
247.194	13.42
247.409	13.95
247.625	13.8
247.841	13.72
248.057	14.68
248.272	15.42
248.488	14.95
248.703	15.59
248.919	15.38
249.135	14.75
249.35	14.62
249.566	15.6
249.782	14.07
249.997	14.33
250.213	13.28
250.428	11.84
250.644	11.39
250.859	10.75
251.075	10.33
251.29	10.88
251.506	10.34
251.721	10.55
251.937	10.14
252.152	11.84
252.368	11.63
252.583	13.31
252.798	14.99
253.014	14.41
253.229	15.89
253.445	16.65
253.66	15.65
253.875	17.08
254.091	17.16
254.306	17.47
254.521	16.58
254.737	16.55
254.952	14.95
255.167	14.32
255.383	13.91
255.598	13.12
255.813	12.65
256.028	13.33
256.244	13.26
256.459	12.24
256.674	11.71
256.889	11.22
257.104	10.46
257.32	10.59
257.535	10.07
257.75	10.15
257.965	9.8
258.18	9.52
258.395	9.45
258.61	9.14
258.826	9.24
259.041	8.94
259.256	8.88
259.471	9.09
259.686	8.7
259.901	8.62
260.116	8.99
260.331	9.07
260.546	9.46
260.761	8.9
260.976	8.8
261.191	8.59
261.406	9.51
261.621	9.66
261.836	8.68
262.05	8.86
262.265	9.53
262.48	9.69
262.695	9.76
262.91	9.91
263.125	10.25
263.34	10.97
263.555	10.96
263.769	10.44
263.984	10.2
264.199	10.8
264.414	10.85
264.629	10.75
264.843	9.94
265.058	10.56
265.273	9.95
265.488	10.47
265.702	10.81
265.917	10.99
266.132	11.42
266.346	11.67
266.561	11.81
266.776	12.19
266.99	12.01
267.205	12.08
267.42	11.68
267.634	11.78
267.849	11.58
268.063	10.96
268.278	11.47
268.492	10.66
268.707	10.5
268.922	10.28
269.136	10.06
269.351	10.29
269.565	10.6
269.78	9.88
269.994	9.91
270.209	9.87
270.423	10.29
270.637	9.83
270.852	9.98
271.066	10.05
271.281	10.79
271.495	10.31
271.709	9.91
271.924	9.56
272.138	9.51
272.353	9.39
272.567	8.98
272.781	8.74
272.996	8.46
273.21	9.31
273.424	9.17
273.638	8.59
273.853	9.46
274.067	9.18
274.281	9.56
274.495	10.33
274.71	10.66
274.924	11.26
275.138	11.31
275.352	11.59
275.566	10.27
275.781	10.27
275.995	10.3
276.209	9.7
276.423	10.01
276.637	9.43
276.851	9.35
277.065	9.37
277.279	9.04
277.493	8.85
277.707	8.96
277.921	9.08
278.135	8.37
278.349	8.48
278.563	9.01
278.777	9.06
278.991	9.7
279.205	9.22
279.419	8.98
279.633	9.19
279.847	8.93
280.061	8.83
280.275	9.18
280.489	10.35
280.703	9.94
280.917	9.54
281.131	9.61
281.344	9.21
281.558	9.68
281.772	9.74
281.986	9.73
282.2	9.77
282.414	10.09
282.627	10.07
282.841	9.45
283.055	9.71
283.269	9.75
283.482	9.6
283.696	9.57
283.91	9.83
284.123	9.73
284.337	9.63
284.551	9.6
284.764	9.57
284.978	9.26
285.192	9.12
285.405	8.74
285.619	8.77
285.833	9.25
286.046	9.31
286.26	8.9
286.473	8.85
286.687	8.79
286.9	9.16
287.114	8.94
287.327	9.04
287.541	9.1
287.754	9.35
287.968	9.27
288.181	8.54
288.395	8.61
288.608	8.53
288.822	8.79
289.035	8.99
289.248	8.6
289.462	8.42
289.675	8.78
289.889	9.1
290.102	9.27
290.315	9.32
290.529	9.79
290.742	9.5
290.955	9.68
291.169	9.61
291.382	9.34
291.595	9.44
291.808	9.75
292.022	9.75
292.235	9.48
292.448	9.13
292.661	9.18
292.875	9.05
293.088	9.21
293.301	9.14
293.514	9.11
293.727	9.13
293.94	8.94
294.153	9.02
294.367	8.91
294.58	9.08
294.793	8.8
295.006	8.95
295.219	8.93
295.432	8.85
295.645	8.71
295.858	8.55
296.071	8.59
296.284	9.22
296.497	9.07
296.71	8.92
296.923	8.89
297.136	9.25
297.349	9.2
297.562	9.05
297.775	9.19
297.988	9.76
298.201	9.92
298.414	10.07
298.626	9.87
298.839	9.59
299.052	9.72
299.265	9.92
299.478	9.93
299.691	9.96
299.903	10.24
300.116	10.59
300.329	10.38
300.542	10.13
300.755	9.97
300.967	9.4
301.18	9.58
301.393	9.83
301.605	9.82
301.818	9.68
302.031	9.63
302.243	9.25
302.456	9.26
302.669	9.04
302.881	9.28
303.094	9.09
303.307	9.06
303.519	9.28
303.732	8.83
303.944	8.38
304.157	8.47
304.37	8.56
304.582	9.16
304.795	8.94
305.007	9.12
305.22	9.63
305.432	10.01
305.645	10.41
305.857	10.28
306.069	10.69
306.282	10.56
306.494	10.39
306.707	10.16
306.919	10.19
307.132	10.27
307.344	10.32
307.556	9.9
307.769	9.85
307.981	9.98
308.193	9.93
308.406	10.1
308.618	10.34
308.83	10.21
309.043	10.23
309.255	10.16
309.467	10.01
309.679	10.19
309.892	10.21
310.104	10.29
310.316	10.12
310.528	10.3
310.74	10.26
310.953	10.5
311.165	10.88
311.377	10.97
311.589	11.4
311.801	11.56
312.013	11.73
312.225	12.3
312.437	12.3
312.649	12.18
312.862	12.62
313.074	12.43
313.286	11.86
313.498	11.75
313.71	11.97
313.922	11.39
314.134	11.67
314.346	11.15
314.558	10.87
314.77	10.69
314.982	11.14
315.193	10.82
315.405	11.25
315.617	11.85
315.829	12.54
316.041	12.71
316.253	12.5
316.465	12.83
316.677	12.92
316.888	13.03
317.1	13.6
317.312	13.31
317.524	12.8
317.736	12.09
317.947	11.77
318.159	11.07
318.371	10.94
318.583	11.65
318.794	11.16
319.006	11.27
319.218	10.82
319.43	10.5
319.641	10.72
319.853	11.66
320.064	11.34
320.276	11.48
320.488	11.51
320.699	11.48
320.911	10.73
321.123	11.22
321.334	10.96
321.546	10.99
321.757	10.29
321.969	10.21
322.18	9.85
322.392	10.46
322.603	11.2
322.815	11.62
323.026	11.49
323.238	11.69
323.449	11.27
323.661	11.2
323.872	11.3
324.083	12
324.295	12.29
324.506	12.26
324.718	12.61
324.929	11.65
325.14	11.58
325.352	11.45
325.563	11.62
325.774	11.15
325.986	11.78
326.197	11.83
326.408	11.88
326.62	12.22
326.831	12.43
327.042	12.52
327.253	13.28
327.464	13.62
327.676	14.13
327.887	14.3
328.098	15.12
328.309	14.88
328.52	14.89
328.732	14.87
328.943	14.52
329.154	14.1
329.365	13.92
329.576	13.73
329.787	13.2
329.998	13.11
330.209	13.11
330.42	13.37
330.631	13.28
330.842	13.92
331.053	13.71
331.264	13.8
331.475	14.29
331.686	14.26
331.897	14.58
332.108	15.06
332.319	14.9
332.53	15.29
332.741	15.01
332.952	15.25
333.163	15.4
333.374	15.48
333.585	15.39
333.795	15.27
334.006	15.03
334.217	14.72
334.428	14.66
334.639	14.91
334.849	14.93
335.06	15.02
335.271	15.18
335.482	14.79
335.692	14.94
335.903	15
336.114	14.93
336.325	15.35
336.535	15.38
336.746	15.19
336.957	14.72
337.167	14.29
337.378	13.89
337.589	13.92
337.799	13.88
338.01	14.11
338.22	14.12
338.431	14.51
338.642	14.45
338.852	14.93
339.063	14.95
339.273	15.46
339.484	15.66
339.694	15.98
339.905	15.9
340.115	15.69
340.326	15.1
340.536	14.88
340.746	14.62
340.957	14.35
341.167	13.85
341.378	13.7
341.588	13.91
341.799	13.71
342.009	13.53
342.219	13
342.43	13.12
342.64	13.48
342.85	13.83
343.061	13.81
343.271	14.16
343.481	13.8
343.691	14.2
343.902	13.94
344.112	14.28
344.322	14.5
344.532	14.73
344.743	14.81
344.953	14.7
345.163	14.28
345.373	13.99
345.583	13.85
345.793	14.32
346.004	13.98
346.214	13.93
346.424	13.94
346.634	13.99
346.844	14.1
347.054	13.75
347.264	13.45
347.474	13.74
347.684	13.88
347.894	13.66
348.104	13.27
348.314	13.07
348.524	12.9
348.734	12.52
348.944	12.4
349.154	12.37
349.364	12.41
349.574	12.82
349.784	12.6
349.994	12.77
350.204	13
350.413	13.49
350.623	13.7
350.833	13.65
351.043	13.48
351.253	13.22
351.463	13.53
351.672	13.79
351.882	13.52
352.092	13.77
352.302	13.81
352.511	13.49
352.721	13.43
352.931	13.19
353.141	13.12
353.35	13.6
353.56	13.59
353.77	13.17
353.979	12.88
354.189	13.06
354.399	12.65
354.608	12.21
354.818	12.55
355.027	12.29
355.237	12.51
355.447	12.64
355.656	12.39
355.866	12.38
356.075	12.18
356.285	12.16
356.494	12.21
356.704	12.22
356.913	12.41
357.123	12.35
357.332	12.33
357.542	12.02
357.751	12.04
357.96	12.12
358.17	12.13
358.379	12.33
358.589	12.74
358.798	12.6
359.007	12.76
359.217	12.71
359.426	12.43
359.635	12.45
359.845	12.6
360.054	12.67
360.263	12.57
360.472	12.63
360.682	12.71
360.891	12.36
361.1	12.2
361.309	12.1
361.519	12.08
361.728	12.08
361.937	12.11
362.146	12.11
362.355	12
362.564	11.8
362.774	11.72
362.983	11.52
363.192	11.55
363.401	11.59
363.61	11.59
363.819	11.45
364.028	11.56
364.237	11.57
364.446	11.49
364.655	11.65
364.864	11.76
365.073	11.86
365.282	11.84
365.491	11.94
365.7	11.92
365.909	12.17
366.118	12.24
366.327	12.63
366.536	12.5
366.745	12.64
366.954	12.6
367.162	12.5
367.371	12.27
367.58	12.21
367.789	12.25
367.998	12.29
368.207	12.18
368.415	12.09
368.624	11.84
368.833	11.79
369.042	11.66
369.25	11.6
369.459	11.61
369.668	11.98
369.877	12.19
370.085	11.88
370.294	11.89
370.503	11.89
370.711	12.18
370.92	11.93
371.129	11.93
371.337	11.97
371.546	11.91
371.754	12.1
371.963	11.74
372.171	11.74
372.38	11.82
372.589	11.9
372.797	11.76
373.006	11.69
373.214	11.83
373.423	11.98
373.631	11.91
373.84	11.72
374.048	11.4
374.256	11.39
374.465	11.28
374.673	11.09
374.882	10.92
375.09	10.68
375.298	10.56
375.507	10.17
375.715	10.07
375.923	9.8
376.132	9.68
376.34	9.75
376.548	10.02
376.757	9.86
376.965	10.03
377.173	10.05
377.381	10.26
377.59	10.4
377.798	10.58
378.006	10.36
378.214	10.7
378.423	10.7
378.631	10.91
378.839	10.74
379.047	10.99
379.255	10.94
379.463	10.98
379.671	11.19
379.879	11.25
380.088	11.22
380.296	11.38
380.504	11.35
380.712	11.64
380.92	11.55
381.128	11.3
381.336	10.96
381.544	10.95
381.752	10.95
381.96	10.53
382.168	10.43
382.376	10.54
382.584	10.48
382.791	10.42
382.999	10.23
383.207	9.96
383.415	10.18
383.623	10.21
383.831	10.02
384.039	9.8
384.247	9.94
384.454	9.71
384.662	9.49
384.87	9.42
385.078	9.24
385.285	9.08
385.493	9.29
385.701	8.83
385.909	8.91
386.116	9.18
386.324	9.34
386.532	9.31
386.739	9.63
386.947	9.69
387.155	9.95
387.362	10.05
387.57	10.34
387.778	10.05
387.985	10.38
388.193	10.54
388.4	10.45
388.608	10.35
388.816	10.35
389.023	10
389.231	10.06
389.438	9.97
389.646	10.01
389.853	9.81
390.061	10.04
390.268	9.82
390.475	9.7
390.683	9.63
390.89	9.77
391.098	9.88
391.305	10
391.512	9.94
391.72	9.95
391.927	9.88
392.135	9.81
392.342	9.68
392.549	9.88
392.756	9.72
392.964	9.68
393.171	9.46
393.378	9.23
393.586	9.01
393.793	9.08
394	8.99
394.207	8.99
394.414	9.07
394.622	9.03
394.829	8.92
395.036	9.19
395.243	9.28
395.45	9.1
395.657	9.09
395.864	9.16
396.072	9.03
396.279	8.81
396.486	8.86
396.693	8.74
396.9	8.95
397.107	8.91
397.314	8.8
397.521	8.55
397.728	8.76
397.935	8.8
398.142	8.88
398.349	8.94
398.556	8.95
398.763	8.71
398.97	8.81
399.177	8.64
399.383	8.63
399.59	8.73
399.797	8.9
400.004	8.91
400.211	8.84
400.418	8.65
400.625	8.39
400.831	8.42
401.038	8.49
401.245	8.33
401.452	8.15
401.658	8.1
401.865	7.8
402.072	7.77
402.279	7.88
402.485	7.86
402.692	7.99
402.899	8.2
403.105	8.15
403.312	8.26
403.519	8.33
403.725	8.49
403.932	8.5
404.138	8.5
404.345	8.59
404.552	8.52
404.758	8.65
404.965	8.5
405.171	8.52
405.378	8.66
405.584	8.63
405.791	8.57
405.997	8.59
406.204	8.77
406.41	9.01
406.617	8.95
406.823	8.84
407.029	8.84
407.236	8.97
407.442	9.03
407.649	9.04
407.855	8.87
408.061	8.87
408.268	8.74
408.474	8.64
408.68	8.49
408.887	8.51
409.093	8.49
409.299	8.49
409.505	8.6
409.712	8.56
409.918	8.71
410.124	8.81
410.33	9.02
410.537	9.17
410.743	9.1
410.949	8.91
411.155	8.91
411.361	9.03
411.567	8.94
411.773	8.81
411.98	8.63
412.186	8.27
412.392	8.18
412.598	8.03
412.804	7.84
413.01	7.91
413.216	8.14
413.422	8.12
413.628	8.08
413.834	8.07
414.04	7.94
414.246	7.92
414.452	8.06
414.658	8.11
414.864	8.14
415.07	8.23
415.275	8.26
415.481	8.21
415.687	8.11
415.893	8.07
416.099	8.04
416.305	8.06
416.511	8.14
416.716	8.15
416.922	8.28
417.128	8.19
417.334	8.13
417.539	8.07
417.745	8.09
417.951	8.1
418.157	8.06
418.362	8.04
418.568	8.08
418.774	8.03
418.979	8.03
419.185	7.93
419.391	7.97
419.596	7.95
419.802	7.87
420.008	7.85
420.213	8.54
420.419	8.58
420.624	8.59
420.83	8.55
421.035	8.56
421.241	8.5
421.446	8.43
421.652	8.46
421.857	8.39
422.063	8.44
422.268	8.45
422.474	7.74
422.679	7.71
422.885	7.73
423.09	7.77
423.295	7.8
423.501	7.77
423.706	7.75
423.911	7.69
424.117	7.84
424.322	7.86
424.527	7.83
424.733	7.8
424.938	7.74
425.143	7.75
425.349	7.73
425.554	7.76
425.759	7.91
425.964	7.97
426.169	7.97
426.375	7.86
426.58	7.89
426.785	7.86
426.99	8.03
427.195	8.04
427.4	7.9
427.605	7.85
427.811	7.83
428.016	7.7
428.221	7.65
428.426	7.6
428.631	7.64
428.836	7.62
429.041	7.7
429.246	7.6
429.451	7.63
429.656	7.72
429.861	7.68
430.066	7.73
430.271	7.72
430.476	7.73
430.681	7.7
430.886	7.66
431.09	7.65
431.295	7.58
431.5	7.64
431.705	7.58
431.91	7.61
432.115	7.54
432.32	7.44
432.524	7.49
432.729	7.41
432.934	7.49
433.139	7.51
433.343	7.51
433.548	7.43
433.753	7.4
433.958	7.51
434.162	7.48
434.367	7.55
434.572	7.49
434.776	7.46
434.981	7.58
435.186	7.52
435.39	7.53
435.595	7.5
435.799	7.6
436.004	7.56
436.209	7.44
436.413	7.29
436.618	7.3
436.822	7.33
437.027	7.34
437.231	7.34
437.436	7.28
437.64	7.2
437.845	7.16
438.049	7.07
438.253	7.09
438.458	7.16
438.662	7.22
438.867	7.24
439.071	7.14
439.275	7.1
439.48	7.04
439.684	7.15
439.888	7.17
440.093	7.15
440.297	7.27
440.501	7.16
440.706	7.19
440.91	7.12
441.114	7.13
441.318	7.21
441.523	7.2
441.727	7.18
441.931	7.2
442.135	7.29
442.339	7.3
442.543	7.19
442.748	7.25
442.952	7.19
443.156	7.35
443.36	7.29
443.564	7.26
443.768	7.2
443.972	7.2
444.176	7.21
444.38	7.17
444.584	7.14
444.788	7.2
444.992	7.2
445.196	7.12
445.4	7.04
445.604	7.06
445.808	7.13
446.012	7.24
446.216	7.32
446.42	7.19
446.624	7.11
446.828	7.08
447.032	7.02
447.235	7.04
447.439	7.08
447.643	7.15
447.847	7.14
448.051	7.09
448.254	7.01
448.458	6.83
448.662	6.91
448.866	6.94
449.069	6.95
449.273	6.99
449.477	6.92
449.681	6.93
449.884	6.78
450.088	6.81
450.292	6.83
450.495	6.85
450.699	6.94
450.902	6.78
451.106	6.92
451.31	6.91
451.513	6.86
451.717	6.82
451.92	6.91
452.124	6.83
452.327	6.83
452.531	6.62
452.734	6.52
452.938	6.63
453.141	6.81
453.345	6.75
453.548	6.83
453.752	6.95
453.955	6.98
454.158	6.82
454.362	6.83
454.565	6.78
454.769	6.86
454.972	6.95
455.175	6.87
455.379	6.84
455.582	6.82
455.785	6.72
455.988	6.7
456.192	6.68
456.395	6.75
456.598	6.94
456.801	6.86
457.005	6.93
457.208	6.9
457.411	6.81
457.614	6.79
457.817	6.72
458.021	6.72
458.224	6.67
458.427	6.65
458.63	6.64
458.833	6.57
459.036	6.62
459.239	6.63
459.442	6.58
459.645	6.57
459.848	6.58
460.051	6.62
460.254	6.64
460.457	6.65
460.66	6.75
460.863	6.77
461.066	6.81
461.269	6.83
