Data from 2938536_Reflection_1.txt Node
Date: Mon Jun 15 23:48:15 EDT 2015
User: robert
Spectrometer: USB4E03002
Autoset integration time: false
Trigger mode: 4
Integration Time (sec): 1.000000E-1
Scans to average: 10
Electric dark correction enabled: true
Nonlinearity correction enabled: false
Boxcar width: 6
Stray light correction enabled: false
XAxis mode: Wavelengths
Stop averaging: false
Number of Pixels in Spectrum: 3648
>>>>>Begin Spectral Data<<<<<
177.575	-37.24
177.794	-34.88
178.014	-122.18
178.233	-141.22
178.452	-1150
178.672	-361.85
178.891	160
179.11	-212.9
179.33	-239.78
179.549	-327.31
179.768	-294.18
179.987	-565.85
180.207	-193.92
180.426	-215.44
180.645	-222.81
180.864	-178.76
181.084	-213.26
181.303	-227.34
181.522	-200.72
181.741	-193.19
181.96	-165.27
182.179	-114.01
182.398	-92.8
182.618	-168.88
182.837	-108.18
183.056	-124.71
183.275	-72.16
183.494	-66.92
183.713	-126.63
183.932	-120.14
184.151	-248.06
184.37	-283.14
184.589	-185.95
184.808	-419.25
185.027	-710
185.246	-334.47
185.465	-207.98
185.684	-310.2
185.903	-410.37
186.122	-2727.66
186.341	7645
186.56	1798.77
186.779	3287.18
186.998	-721.83
187.216	4180.77
187.435	455.13
187.654	1141.75
187.873	5966.67
188.092	1056.25
188.311	912.7
188.53	5550
188.748	-6095
188.967	-915.45
189.186	-2595.12
189.405	-1442.86
189.623	2455.77
189.842	887.58
190.061	11809.09
190.28	-1074.77
190.498	-1985.96
190.717	-1321.62
190.936	-6678.57
191.154	-2751.35
191.373	10633.33
191.592	3992.59
191.81	2702.7
192.029	1425.81
192.248	1568.25
192.466	-3566.67
192.685	-556.85
192.904	-692.56
193.122	1906.12
193.341	3896.3
193.559	495.62
193.778	848.7
193.996	437.64
194.215	477.93
194.433	412.05
194.652	507.62
194.87	784.66
195.089	455.94
195.307	464.53
195.526	300.9
195.744	356.76
195.963	887.98
196.181	887.86
196.399	5121.21
196.618	1277.1
196.836	-718.18
197.055	-591.2
197.273	-1170
197.491	-411.53
197.71	-726.94
197.928	-245.79
198.146	-232.81
198.365	-275
198.583	-455.47
198.801	32425
199.019	1357.89
199.238	2008.62
199.456	3431.25
199.674	682.74
199.892	865.38
200.111	4553.57
200.329	415.34
200.547	552.85
200.765	518.06
200.983	638.03
201.202	600
201.42	978.62
201.638	748.9
201.856	2298.33
202.074	987.83
202.292	761.45
202.51	628.13
202.728	547.45
202.946	349.23
203.165	309.5
203.383	301.1
203.601	285.43
203.819	207.49
204.037	258.11
204.255	208.65
204.473	312.7
204.691	269.75
204.909	220
205.127	257.6
205.345	248.15
205.562	273.48
205.78	574.84
205.998	339.55
206.216	308.62
206.434	264
206.652	289.41
206.87	259.5
207.088	255.89
207.306	281.93
207.523	247.12
207.741	344.44
207.959	263.07
208.177	306.08
208.395	283.83
208.612	256.85
208.83	331.83
209.048	351.81
209.266	350.65
209.483	312.93
209.701	470.24
209.919	1081.54
210.136	441.89
210.354	458.87
210.572	405.6
210.79	440.12
211.007	318.38
211.225	286.42
211.442	258.99
211.66	218.06
211.878	108.77
212.095	123.61
212.313	129.04
212.53	95.26
212.748	82.23
212.966	69.01
213.183	83.3
213.401	91.09
213.618	99.83
213.836	84.25
214.053	100.15
214.271	81.51
214.488	147.73
214.705	276.41
214.923	209.41
215.14	234.75
215.358	154.77
215.575	165.42
215.793	145.97
216.01	137.67
216.227	124.69
216.445	107.62
216.662	121.44
216.879	125.78
217.097	115.08
217.314	122.73
217.531	131.24
217.749	152.67
217.966	118.49
218.183	131.61
218.4	111.2
218.618	109.35
218.835	93.6
219.052	101.14
219.269	105
219.487	105.53
219.704	93.41
219.921	89.46
220.138	80.28
220.355	75.25
220.572	69.06
220.79	78.46
221.007	71.68
221.224	84.63
221.441	88.46
221.658	95.59
221.875	92.8
222.092	86.52
222.309	80.01
222.526	79.35
222.743	72.49
222.96	64.76
223.177	59.23
223.394	60.34
223.611	50.59
223.828	50.9
224.045	44.79
224.262	40.09
224.479	34.06
224.696	32.54
224.913	30.18
225.13	28.38
225.347	27.88
225.564	26.72
225.781	24.06
225.997	22.59
226.214	20.2
226.431	19.43
226.648	18.44
226.865	18.54
227.082	19.09
227.298	18.76
227.515	17.71
227.732	18.53
227.949	17.75
228.165	17.31
228.382	17.75
228.599	18.18
228.816	18.83
229.032	20.16
229.249	21.08
229.466	21.52
229.682	21.46
229.899	20.92
230.116	20.26
230.332	19.83
230.549	19.19
230.765	20.92
230.982	20.77
231.199	21.35
231.415	19.9
231.632	17.91
231.848	16.11
232.065	15.49
232.281	15.49
232.498	16.2
232.714	15.41
232.931	17.4
233.147	17.85
233.364	16.82
233.58	16.29
233.797	17.57
234.013	15.87
234.23	16.93
234.446	17.78
234.662	19.04
234.879	17.98
235.095	18.19
235.312	18.64
235.528	18.27
235.744	18.84
235.961	18.41
236.177	21.16
236.393	20.59
236.61	18.62
236.826	19.9
237.042	20.44
237.258	20.5
237.475	18.32
237.691	19.22
237.907	18.84
238.123	18.56
238.339	20.4
238.556	19.97
238.772	19.35
238.988	17.39
239.204	17.76
239.42	18.09
239.636	17.44
239.853	17.33
240.069	16.91
240.285	17.3
240.501	16.74
240.717	16.11
240.933	16.47
241.149	15.57
241.365	15.92
241.581	15.88
241.797	15.1
242.013	14.57
242.229	14.09
242.445	13.86
242.661	13.24
242.877	12.99
243.093	13.29
243.309	12.78
243.525	12.68
243.741	11.28
243.957	10.97
244.173	9.75
244.388	9.88
244.604	10.37
244.82	9.92
245.036	9.71
245.252	9.63
245.468	9.42
245.683	9.42
245.899	9.14
246.115	9.37
246.331	9.08
246.547	9.25
246.762	9.22
246.978	9.25
247.194	9.29
247.409	9.57
247.625	9.76
247.841	10.37
248.057	10.28
248.272	10.51
248.488	10.36
248.703	10.49
248.919	10.43
249.135	10.45
249.35	10.23
249.566	10.3
249.782	10.81
249.997	10.74
250.213	10.53
250.428	10.77
250.644	10.79
250.859	11.27
251.075	11.89
251.29	12.53
251.506	12.58
251.721	12.31
251.937	13.4
252.152	14.2
252.368	15.22
252.583	15.66
252.798	15.34
253.014	15.4
253.229	15.52
253.445	14.9
253.66	14.66
253.875	13.94
254.091	13.71
254.306	12.69
254.521	12.92
254.737	11.17
254.952	10.03
255.167	8.69
255.383	7.63
255.598	8.4
255.813	7.85
256.028	7.4
256.244	7.42
256.459	7.19
256.674	7.09
256.889	6.52
257.104	6.73
257.32	6.77
257.535	7.11
257.75	6.96
257.965	7
258.18	7.32
258.395	7.09
258.61	7.27
258.826	7.49
259.041	7.33
259.256	7.52
259.471	7.56
259.686	7.72
259.901	7.83
260.116	7.77
260.331	8.09
260.546	8.66
260.761	9.18
260.976	9.17
261.191	9.63
261.406	9.46
261.621	9.74
261.836	10.29
262.05	10.4
262.265	10.73
262.48	11.12
262.695	11.7
262.91	11.96
263.125	11.76
263.34	11.39
263.555	11.04
263.769	10.59
263.984	10.8
264.199	10.72
264.414	10.37
264.629	9.97
264.843	10.31
265.058	10.44
265.273	10.06
265.488	9.34
265.702	9.06
265.917	8.6
266.132	8.62
266.346	8.51
266.561	8.83
266.776	8.56
266.99	8.96
267.205	8.77
267.42	8.12
267.634	7.95
267.849	7.66
268.063	7.85
268.278	7.71
268.492	7.7
268.707	7.77
268.922	7.38
269.136	7.66
269.351	7.38
269.565	7.27
269.78	7.22
269.994	7.49
270.209	7.79
270.423	7.78
270.637	7.71
270.852	7.79
271.066	8.44
271.281	8.86
271.495	8.91
271.709	9.13
271.924	8.92
272.138	8.9
272.353	9.1
272.567	9.09
272.781	8.87
272.996	9.4
273.21	9.39
273.424	9.85
273.638	10.17
273.853	9.92
274.067	9.75
274.281	9.67
274.495	9.5
274.71	9.35
274.924	9.25
275.138	9.38
275.352	9.59
275.566	9.59
275.781	9.15
275.995	9.46
276.209	9.14
276.423	8.29
276.637	7.64
276.851	7.53
277.065	7.62
277.279	8.27
277.493	8.64
277.707	9.12
277.921	8.78
278.135	8.24
278.349	8.26
278.563	8.37
278.777	7.6
278.991	7.42
279.205	7.78
279.419	8.37
279.633	8.38
279.847	8.56
280.061	8.26
280.275	8.13
280.489	8
280.703	8.29
280.917	8.57
281.131	8.85
281.344	9
281.558	9.19
281.772	9.16
281.986	9.21
282.2	8.86
282.414	8.68
282.627	8.37
282.841	8.27
283.055	8.12
283.269	8.18
283.482	7.68
283.696	7.64
283.91	7.18
284.123	7.03
284.337	6.8
284.551	6.66
284.764	6.42
284.978	6.56
285.192	6.52
285.405	6.89
285.619	6.84
285.833	6.88
286.046	6.71
286.26	6.79
286.473	6.7
286.687	7
286.9	7.39
287.114	7.61
287.327	7.37
287.541	7.53
287.754	7.82
287.968	7.71
288.181	7.38
288.395	7.69
288.608	7.61
288.822	7.73
289.035	7.83
289.248	7.83
289.462	7.63
289.675	7.39
289.889	7.26
290.102	7.73
290.315	7.45
290.529	6.95
290.742	7.18
290.955	7.58
291.169	7.19
291.382	7.13
291.595	6.96
291.808	6.95
292.022	6.84
292.235	7.22
292.448	7.07
292.661	7.31
292.875	7.38
293.088	7.78
293.301	7.82
293.514	7.65
293.727	7.25
293.94	7.48
294.153	7.26
294.367	7.27
294.58	7.1
294.793	7.38
295.006	7.24
295.219	7.35
295.432	7.05
295.645	6.82
295.858	6.44
296.071	6.54
296.284	6.81
296.497	6.97
296.71	6.87
296.923	7.15
297.136	7.27
297.349	7.46
297.562	7.16
297.775	7.19
297.988	7.32
298.201	7.59
298.414	7.5
298.626	7.59
298.839	7.31
299.052	6.93
299.265	6.78
299.478	6.66
299.691	6.5
299.903	6.73
300.116	6.89
300.329	6.77
300.542	6.61
300.755	6.7
300.967	6.67
301.18	6.65
301.393	7.15
301.605	7.46
301.818	7.57
302.031	7.62
302.243	8.06
302.456	8.23
302.669	8.38
302.881	8.29
303.094	8.59
303.307	8.66
303.519	8.54
303.732	8.75
303.944	8.95
304.157	8.83
304.37	8.97
304.582	9.27
304.795	9.5
305.007	9.17
305.22	9.04
305.432	8.35
305.645	8.35
305.857	8.59
306.069	8.51
306.282	8.33
306.494	8.21
306.707	8.19
306.919	7.73
307.132	7.81
307.344	7.51
307.556	7.28
307.769	6.84
307.981	6.96
308.193	7.16
308.406	7.04
308.618	6.74
308.83	6.71
309.043	6.53
309.255	6.71
309.467	7.16
309.679	7.49
309.892	7.3
310.104	7.57
310.316	7.56
310.528	8.13
310.74	8.23
310.953	8.35
311.165	8.51
311.377	8.58
311.589	8.78
311.801	8.81
312.013	9.11
312.225	8.98
312.437	9.19
312.649	9
312.862	9.01
313.074	9.2
313.286	9.03
313.498	9.05
313.71	9.2
313.922	8.97
314.134	8.96
314.346	8.99
314.558	9.53
314.77	8.92
314.982	8.86
315.193	8.58
315.405	8.59
315.617	8.6
315.829	8.32
316.041	8.13
316.253	8.29
316.465	7.42
316.677	7.9
316.888	7.82
317.1	7.98
317.312	7.63
317.524	7.8
317.736	7.84
317.947	8.17
318.159	7.83
318.371	7.71
318.583	7.93
318.794	8.31
319.006	8.32
319.218	9.2
319.43	8.99
319.641	9.14
319.853	9.06
320.064	9.22
320.276	8.93
320.488	8.97
320.699	9.03
320.911	9.94
321.123	10.36
321.334	10.41
321.546	10.16
321.757	9.72
321.969	9.85
322.18	9.65
322.392	9.96
322.603	9.8
322.815	9.75
323.026	9.84
323.238	9.81
323.449	9.83
323.661	9.76
323.872	9.62
324.083	9.64
324.295	9.35
324.506	9.49
324.718	9.25
324.929	9.2
325.14	9.01
325.352	9.25
325.563	9.16
325.774	9.51
325.986	9.68
326.197	9.59
326.408	9.61
326.62	9.54
326.831	9.85
327.042	10.38
327.253	10.68
327.464	10.4
327.676	10.94
327.887	10.83
328.098	11.08
328.309	11.19
328.52	11.56
328.732	11.5
328.943	11.16
329.154	11.34
329.365	11.22
329.576	10.92
329.787	10.93
329.998	10.83
330.209	11.25
330.42	10.95
330.631	11.31
330.842	11.15
331.053	11.19
331.264	10.87
331.475	10.77
331.686	11.56
331.897	11.45
332.108	11.81
332.319	12.13
332.53	12.03
332.741	12.03
332.952	11.83
333.163	12.07
333.374	11.81
333.585	11.65
333.795	11.65
334.006	11.45
334.217	11.45
334.428	11.41
334.639	11.17
334.849	10.6
335.06	10.02
335.271	10.06
335.482	9.61
335.692	9.77
335.903	9.57
336.114	9.69
336.325	9.88
336.535	10.27
336.746	10.36
336.957	10.9
337.167	10.76
337.378	11.39
337.589	11.35
337.799	11.93
338.01	11.81
338.22	11.96
338.431	11.85
338.642	12.14
338.852	12.23
339.063	12.01
339.273	11.47
339.484	11.31
339.694	10.99
339.905	10.76
340.115	10.26
340.326	10.58
340.536	10.04
340.746	10.18
340.957	10.28
341.167	10.21
341.378	10.21
341.588	9.94
341.799	9.69
342.009	9.83
342.219	9.98
342.43	9.48
342.64	9.41
342.85	9.29
343.061	9.36
343.271	9.59
343.481	9.36
343.691	9.08
343.902	9.25
344.112	9.01
344.322	8.99
344.532	9.2
344.743	9.01
344.953	8.8
345.163	8.99
345.373	9.05
345.583	9.25
345.793	9.49
346.004	9.59
346.214	10.01
346.424	10.1
346.634	10.11
346.844	10.17
347.054	10.49
347.264	10.81
347.474	10.82
347.684	10.74
347.894	10.94
348.104	10.66
348.314	10.77
348.524	10.05
348.734	10.13
348.944	10.17
349.154	10.44
349.364	10.14
349.574	10.21
349.784	9.8
349.994	9.31
350.204	9.42
350.413	9.25
350.623	9.07
350.833	9.1
351.043	8.88
351.253	9.15
351.463	8.79
351.672	8.53
351.882	8.28
352.092	8.24
352.302	8.01
352.511	8.04
352.721	8.29
352.931	8.36
353.141	8.55
353.35	8.47
353.56	8.76
353.77	8.77
353.979	8.59
354.189	8.69
354.399	8.47
354.608	8.76
354.818	9
355.027	8.91
355.237	9
355.447	8.92
355.656	8.57
355.866	8.62
356.075	8.73
356.285	8.65
356.494	8.6
356.704	8.65
356.913	8.63
357.123	8.87
357.332	8.48
357.542	8.39
357.751	8.6
357.96	8.57
358.17	8.43
358.379	8.59
358.589	8.54
358.798	8.34
359.007	7.96
359.217	7.73
359.426	7.93
359.635	7.95
359.845	7.93
360.054	7.97
360.263	7.98
360.472	7.96
360.682	7.98
360.891	7.89
361.1	8.07
361.309	8.01
361.519	8
361.728	8.34
361.937	8.47
362.146	8.52
362.355	8.41
362.564	8.07
362.774	8.04
362.983	7.9
363.192	7.62
363.401	7.48
363.61	7.93
363.819	7.66
364.028	7.55
364.237	7.69
364.446	7.45
364.655	7.64
364.864	7.62
365.073	7.67
365.282	7.85
365.491	8.12
365.7	8.34
365.909	8.48
366.118	8.58
366.327	8.48
366.536	8.6
366.745	8.74
366.954	8.75
367.162	8.74
367.371	8.62
367.58	8.32
367.789	8.11
367.998	8.11
368.207	8.05
368.415	8.05
368.624	8.07
368.833	8.17
369.042	8.01
369.25	7.95
369.459	7.98
369.668	7.6
369.877	7.64
370.085	7.22
370.294	7.29
370.503	7.49
370.711	7.48
370.92	7.51
371.129	7.41
371.337	7.22
371.546	7.27
371.754	7.21
371.963	7.02
372.171	6.96
372.38	7.24
372.589	7.31
372.797	7.6
373.006	7.62
373.214	7.71
373.423	8.05
373.631	7.8
373.84	7.92
374.048	7.85
374.256	7.73
374.465	7.78
374.673	7.84
374.882	7.79
375.09	7.72
375.298	7.61
375.507	7.52
375.715	7.21
375.923	6.98
376.132	6.7
376.34	6.82
376.548	6.7
376.757	6.88
376.965	6.76
377.173	6.68
377.381	6.74
377.59	6.57
377.798	6.4
378.006	6.41
378.214	6.54
378.423	6.71
378.631	6.78
378.839	6.68
379.047	6.77
379.255	6.59
379.463	6.66
379.671	6.66
379.879	6.58
380.088	6.48
380.296	6.63
380.504	7.03
380.712	7.08
380.92	6.96
381.128	6.99
381.336	6.85
381.544	6.79
381.752	6.85
381.96	6.88
382.168	6.9
382.376	6.94
382.584	7
382.791	7.27
382.999	7.16
383.207	6.89
383.415	6.96
383.623	6.93
383.831	7.01
384.039	7.09
384.247	7.04
384.454	6.63
384.662	6.64
384.87	6.43
385.078	6.37
385.285	6.29
385.493	5.91
385.701	5.96
385.909	6
386.116	5.62
386.324	5.71
386.532	5.71
386.739	5.7
386.947	5.79
387.155	5.86
387.362	5.8
387.57	5.94
387.778	5.89
387.985	5.75
388.193	5.78
388.4	5.98
388.608	6.04
388.816	6.18
389.023	6.16
389.231	6.05
389.438	6.05
389.646	5.92
389.853	5.85
390.061	5.85
390.268	5.76
390.475	5.84
390.683	5.85
390.89	5.86
391.098	5.64
391.305	5.46
391.512	5.44
391.72	5.29
391.927	5.21
392.135	5.07
392.342	5.22
392.549	5.29
392.756	5.18
392.964	5.17
393.171	4.95
393.378	4.94
393.586	4.85
393.793	4.74
394	4.79
394.207	4.81
394.414	4.8
394.622	4.78
394.829	4.88
395.036	4.91
395.243	5.01
395.45	5.08
395.657	4.95
395.864	5
396.072	5.09
396.279	5.15
396.486	5.35
396.693	5.28
396.9	5.38
397.107	5.58
397.314	5.58
397.521	5.44
397.728	5.32
397.935	5.18
398.142	5.19
398.349	5.18
398.556	5.24
398.763	5.23
398.97	5.23
399.177	5.21
399.383	5.25
399.59	5.19
399.797	5.14
400.004	5.34
400.211	5.32
400.418	5.32
400.625	5.37
400.831	5.38
401.038	5.39
401.245	5.3
401.452	5.11
401.658	5.28
401.865	5.22
402.072	5.17
402.279	5.14
402.485	5.02
402.692	4.78
402.899	4.91
403.105	4.78
403.312	4.78
403.519	4.72
403.725	4.79
403.932	4.81
404.138	4.96
404.345	4.75
404.552	4.82
404.758	4.86
404.965	4.7
405.171	4.73
405.378	4.77
405.584	4.74
405.791	4.78
405.997	4.79
406.204	4.83
406.41	4.84
406.617	4.83
406.823	4.73
407.029	4.79
407.236	4.69
407.442	4.7
407.649	4.66
407.855	4.64
408.061	4.61
408.268	4.53
408.474	4.52
408.68	4.57
408.887	4.63
409.093	4.56
409.299	4.51
409.505	4.52
409.712	4.49
409.918	4.37
410.124	4.29
410.33	4.27
410.537	4.35
410.743	4.36
410.949	4.37
411.155	4.42
411.361	4.25
411.567	4.13
411.773	3.9
411.98	4.02
412.186	4.06
412.392	4.07
412.598	4.12
412.804	4.2
413.01	4.32
413.216	4.31
413.422	4.36
413.628	4.37
413.834	4.27
414.04	4.2
414.246	4.27
414.452	4.34
414.658	4.25
414.864	4.21
415.07	4.24
415.275	4.22
415.481	4.07
415.687	4
415.893	3.9
416.099	3.92
416.305	3.86
416.511	3.86
416.716	3.88
416.922	3.84
417.128	3.84
417.334	3.84
417.539	3.88
417.745	3.83
417.951	3.87
418.157	3.91
418.362	3.93
418.568	3.89
418.774	3.79
418.979	3.72
419.185	3.67
419.391	3.68
419.596	3.62
419.802	3.67
420.008	3.24
420.213	3.23
420.419	3.21
420.624	3.12
420.83	3.11
421.035	3.11
421.241	3.13
421.446	3.15
421.652	3.19
421.857	3.18
422.063	3.17
422.268	3.12
422.474	3.09
422.679	3.54
422.885	3.44
423.09	3.35
423.295	3.39
423.501	3.4
423.706	3.36
423.911	3.37
424.117	3.27
424.322	3.28
424.527	3.36
424.733	3.24
424.938	3.3
425.143	3.29
425.349	3.28
425.554	3.38
425.759	3.47
425.964	3.48
426.169	3.45
426.375	3.54
426.58	3.47
426.785	3.69
426.99	3.7
427.195	3.6
427.4	3.79
427.605	3.83
427.811	3.85
428.016	3.73
428.221	3.59
428.426	3.61
428.631	3.58
428.836	3.6
429.041	3.43
429.246	3.47
429.451	3.36
429.656	3.29
429.861	3.42
430.066	3.29
430.271	3.15
430.476	3.14
430.681	3.21
430.886	3.32
431.09	3.32
431.295	3.34
431.5	3.2
431.705	3.28
431.91	3.24
432.115	3.27
432.32	3.25
432.524	3.21
432.729	3.26
432.934	3.34
433.139	3.33
433.343	3.27
433.548	3.21
433.753	3.22
433.958	3.2
434.162	3.26
434.367	3.33
434.572	3.36
434.776	3.41
434.981	3.39
435.186	3.41
435.39	3.43
435.595	3.41
435.799	3.46
436.004	3.41
436.209	3.35
436.413	3.28
436.618	3.24
436.822	3.28
437.027	3.26
437.231	3.19
437.436	3.13
437.64	3.26
437.845	3.24
438.049	3.23
438.253	3.26
438.458	3.19
438.662	3.2
438.867	3.28
439.071	3.25
439.275	3.3
439.48	3.25
439.684	3.19
439.888	3.28
440.093	3.26
440.297	3.19
440.501	3.14
440.706	3.17
440.91	3.17
441.114	3.25
441.318	3.29
441.523	3.23
441.727	3.25
441.931	3.25
442.135	3.23
442.339	3.29
442.543	3.29
442.748	3.26
442.952	3.2
443.156	3.22
443.36	3.13
443.564	3.06
443.768	2.93
443.972	3
444.176	3.04
444.38	3.04
444.584	2.99
444.788	3
444.992	2.98
445.196	2.94
445.4	2.88
445.604	2.94
445.808	2.96
446.012	2.89
446.216	2.93
446.42	3.02
446.624	2.91
446.828	2.89
447.032	2.93
447.235	2.9
447.439	2.9
447.643	2.89
447.847	2.92
448.051	2.98
448.254	2.94
448.458	2.91
448.662	3.02
448.866	2.97
449.069	2.9
449.273	2.82
449.477	2.76
449.681	2.72
449.884	2.73
450.088	2.76
450.292	2.81
450.495	2.81
450.699	2.76
450.902	2.74
451.106	2.76
451.31	2.69
451.513	2.71
451.717	2.79
451.92	2.85
452.124	2.85
452.327	2.83
452.531	2.96
452.734	2.9
452.938	2.85
453.141	2.74
453.345	2.77
453.548	2.78
453.752	2.77
453.955	2.77
454.158	2.78
454.362	2.76
454.565	2.79
454.769	2.9
454.972	2.99
455.175	2.91
455.379	2.94
455.582	2.88
455.785	3.01
455.988	3.05
456.192	2.97
456.395	2.94
456.598	2.94
456.801	3
457.005	3
457.208	2.97
457.411	2.9
457.614	2.79
457.817	2.76
458.021	2.74
458.224	2.76
458.427	2.75
458.63	2.76
458.833	2.77
459.036	2.84
459.239	2.82
459.442	2.79
459.645	2.72
459.848	2.79
460.051	2.83
460.254	2.81
460.457	2.84
460.66	2.91
460.863	2.89
461.066	2.83
461.269	2.88
461.472	2.87
461.675	2.74
461.878	2.77
462.081	2.71
462.284	2.76
462.486	2.71
462.689	2.63
462.892	2.74
463.095	2.83
463.298	2.75
463.5	2.75
463.703	2.7
463.906	2.64
464.109	2.64
464.311	2.77
464.514	2.88
464.717	2.95
464.92	3.02
465.122	3.09
465.325	3.21
465.528	3.2
465.73	3.03
465.933	3.02
466.135	2.98
466.338	3.04
