Data from 2938493_Reflection_1.txt Node
Date: Wed Jun 17 00:41:37 EDT 2015
User: robert
Spectrometer: USB4E03002
Autoset integration time: false
Trigger mode: 4
Integration Time (sec): 1.000000E-1
Scans to average: 10
Electric dark correction enabled: true
Nonlinearity correction enabled: false
Boxcar width: 5
Stray light correction enabled: false
XAxis mode: Wavelengths
Stop averaging: false
Number of Pixels in Spectrum: 3648
>>>>>Begin Spectral Data<<<<<
177.575	248.17
177.794	632.87
178.014	-192.66
178.233	-69.63
178.452	-56.5
178.672	795.93
178.891	70.91
179.11	500
179.33	120.19
179.549	-9078.95
179.768	97.92
179.987	107.39
180.207	168.77
180.426	165.84
180.645	139.78
180.864	158.41
181.084	109.12
181.303	249.64
181.522	117.28
181.741	145.94
181.96	157.43
182.179	500.83
182.398	804.29
182.618	232.37
182.837	178.47
183.056	163.78
183.275	142.56
183.494	189.86
183.713	29.02
183.932	1800
184.151	299.58
184.37	-111.64
184.589	-30.4
184.808	59.24
185.027	115.44
185.246	159.92
185.465	-180.78
185.684	-149.68
185.903	-222.49
186.122	-247.65
186.341	552.59
186.56	280.32
186.779	206.95
186.998	158.54
187.216	80.28
187.435	4.63
187.654	15.89
187.873	32.36
188.092	38.34
188.311	63.23
188.53	89.04
188.748	95.22
188.967	113.25
189.186	110.51
189.405	110.98
189.623	119.64
189.842	104.64
190.061	110.12
190.28	191.88
190.498	62.53
190.717	13.06
190.936	-4.62
191.154	38.1
191.373	58.57
191.592	491.33
191.81	383.5
192.029	1549.48
192.248	-808.64
192.466	2582.45
192.685	338.85
192.904	770.12
193.122	548.44
193.341	576.37
193.559	799.38
193.778	346.52
193.996	186.32
194.215	134.71
194.433	121.45
194.652	91.11
194.87	99.72
195.089	82.24
195.307	40.99
195.526	33.97
195.744	7.43
195.963	47.61
196.181	63.14
196.399	47.99
196.618	38.65
196.836	-74.52
197.055	-52.66
197.273	-10.47
197.491	-2.3
197.71	-26.03
197.928	-86.09
198.146	-24.44
198.365	-13.84
198.583	-46.83
198.801	-94.96
199.019	-13.39
199.238	28.09
199.456	64.15
199.674	282.22
199.892	211.83
200.111	3720.72
200.329	2270.87
200.547	1037.72
200.765	724.3
200.983	1441.71
201.202	629.42
201.42	-564.39
201.638	16297.83
201.856	-2198.03
202.074	279.27
202.292	336.55
202.51	226.38
202.728	360.8
202.946	-554.96
203.165	-652.74
203.383	540.66
203.601	286.89
203.819	115.79
204.037	56.22
204.255	56.72
204.473	34.99
204.691	19.23
204.909	25.53
205.127	41.7
205.345	40.22
205.562	33.6
205.78	29.99
205.998	-15.65
206.216	49.19
206.434	350.78
206.652	-76.51
206.87	99.23
207.088	31.72
207.306	-8.8
207.523	-163.47
207.741	1398.66
207.959	107.17
208.177	225.93
208.395	348.13
208.612	-238.51
208.83	17.31
209.048	22.95
209.266	177.58
209.483	-633.92
209.701	-150.5
209.919	212.9
210.136	274.63
210.354	211.18
210.572	277.19
210.79	320.9
211.007	497.55
211.225	338.43
211.442	8950
211.66	-163.83
211.878	-2514.89
212.095	-208.13
212.313	657.12
212.53	366.26
212.748	-74.58
212.966	11.37
213.183	988.5
213.401	253.72
213.618	186.81
213.836	242.61
214.053	1262.77
214.271	1630.8
214.488	-12.38
214.705	8.42
214.923	18.06
215.14	125.86
215.358	146.5
215.575	146.33
215.793	283.08
216.01	542.55
216.227	186.31
216.445	222.67
216.662	154.91
216.879	204.93
217.097	122.79
217.314	128.07
217.531	137.01
217.749	146.51
217.966	139.07
218.183	90.03
218.4	54.53
218.618	72.26
218.835	60.28
219.052	40.31
219.269	27.14
219.487	34.12
219.704	37.5
219.921	27.01
220.138	-1.86
220.355	3.74
220.572	7.79
220.79	9.41
221.007	11.18
221.224	23.26
221.441	30.88
221.658	31.04
221.875	9.31
222.092	2.75
222.309	3.17
222.526	27.94
222.743	24.51
222.96	22.45
223.177	22.84
223.394	12.11
223.611	3.52
223.828	8.74
224.045	9.97
224.262	10.46
224.479	13.31
224.696	18.14
224.913	11.68
225.13	15.36
225.347	12.34
225.564	13.43
225.781	10.57
225.997	12.56
226.214	13.11
226.431	13.97
226.648	15.64
226.865	13.74
227.082	12.72
227.298	11.86
227.515	10.5
227.732	12.34
227.949	10.5
228.165	11.77
228.382	10.15
228.599	9.39
228.816	7.35
229.032	4.99
229.249	6.38
229.466	4.55
229.682	6.21
229.899	5.73
230.116	3.92
230.332	5.21
230.549	5.22
230.765	6.8
230.982	5.27
231.199	6.02
231.415	9.19
231.632	11.41
231.848	12.34
232.065	10.59
232.281	11.67
232.498	11.48
232.714	11.3
232.931	9.7
233.147	8.74
233.364	11.15
233.58	10.53
233.797	11.38
234.013	7.92
234.23	5.43
234.446	6.59
234.662	8.49
234.879	11.61
235.095	13.28
235.312	13.35
235.528	13.78
235.744	11.29
235.961	12.1
236.177	9.66
236.393	10.54
236.61	13.42
236.826	11.09
237.042	9.89
237.258	6.47
237.475	3.54
237.691	6.58
237.907	5.95
238.123	7.06
238.339	10.08
238.556	10.32
238.772	12.96
238.988	12.63
239.204	14.35
239.42	14.46
239.636	14.75
239.853	15.23
240.069	14.75
240.285	14.37
240.501	14.08
240.717	12.58
240.933	12.7
241.149	11.59
241.365	12.04
241.581	11.71
241.797	11.57
242.013	11.97
242.229	12.16
242.445	11.06
242.661	10.67
242.877	11.12
243.093	11.66
243.309	12.23
243.525	11.33
243.741	11.69
243.957	11.46
244.173	12.14
244.388	11.8
244.604	11.45
244.82	11.69
245.036	11.95
245.252	11.55
245.468	11.35
245.683	11.19
245.899	11
246.115	10.62
246.331	10.79
246.547	10.11
246.762	10.02
246.978	9.8
247.194	9.82
247.409	10
247.625	9.91
247.841	10.11
248.057	9.54
248.272	10.38
248.488	9.78
248.703	10.47
248.919	10.8
249.135	10.3
249.35	11.11
249.566	10.36
249.782	10.34
249.997	12.04
250.213	12.33
250.428	12.07
250.644	11.88
250.859	12.69
251.075	11.34
251.29	11.32
251.506	11.01
251.721	10.57
251.937	11.44
252.152	11
252.368	9.34
252.583	8.64
252.798	8.44
253.014	7.83
253.229	7.14
253.445	6.45
253.66	6.69
253.875	6.92
254.091	7.22
254.306	6.89
254.521	6.6
254.737	6.21
254.952	6.47
255.167	7.19
255.383	7.71
255.598	6.85
255.813	7.67
256.028	7.74
256.244	8.71
256.459	7.76
256.674	7.49
256.889	8.21
257.104	7.72
257.32	7.6
257.535	7.54
257.75	7.47
257.965	7.98
258.18	8.04
258.395	7.92
258.61	8
258.826	8.01
259.041	8.27
259.256	7.81
259.471	8.13
259.686	8.42
259.901	8.38
260.116	8.05
260.331	8.16
260.546	8.25
260.761	7.94
260.976	6.94
261.191	7.17
261.406	7.67
261.621	8.01
261.836	8.38
262.05	8.3
262.265	8.46
262.48	9.39
262.695	9.09
262.91	9.53
263.125	10.33
263.34	10
263.555	9.89
263.769	8.16
263.984	8.37
264.199	8.22
264.414	7.85
264.629	6.73
264.843	5.9
265.058	6.71
265.273	5.91
265.488	5.58
265.702	6.29
265.917	6.13
266.132	6.59
266.346	6.29
266.561	6.28
266.776	5.72
266.99	6.98
267.205	7.14
267.42	6.54
267.634	6.74
267.849	6.81
268.063	7.01
268.278	6.92
268.492	7.31
268.707	7.49
268.922	7.12
269.136	7.7
269.351	7.39
269.565	7.31
269.78	7.39
269.994	7.63
270.209	7.64
270.423	7.48
270.637	7.46
270.852	7.32
271.066	7.24
271.281	7.53
271.495	7.85
271.709	7.4
271.924	7.37
272.138	6.93
272.353	6.61
272.567	6.66
272.781	6.29
272.996	6.12
273.21	6.1
273.424	5.98
273.638	5.52
273.853	4.97
274.067	5.53
274.281	6.11
274.495	6.09
274.71	6.19
274.924	5.52
275.138	5.92
275.352	6.72
275.566	6.84
275.781	7.1
275.995	7.83
276.209	8.14
276.423	8.18
276.637	7.72
276.851	8.01
277.065	8.24
277.279	8.89
277.493	8.5
277.707	8.36
277.921	8.44
278.135	8.35
278.349	7.69
278.563	7.7
278.777	7.36
278.991	7.68
279.205	7.61
279.419	7.27
279.633	7.13
279.847	7.36
280.061	7.38
280.275	7.31
280.489	7.49
280.703	7.89
280.917	7.86
281.131	8.35
281.344	7.98
281.558	7.58
281.772	7.82
281.986	7.81
282.2	8.05
282.414	8.17
282.627	7.91
282.841	8.06
283.055	7.88
283.269	7.6
283.482	7.01
283.696	7.2
283.91	7.77
284.123	7.79
284.337	7.88
284.551	7.94
284.764	7.78
284.978	8.07
285.192	7.76
285.405	7.9
285.619	8.04
285.833	8.2
286.046	8.45
286.26	8.58
286.473	7.99
286.687	7.98
286.9	7.97
287.114	7.7
287.327	7.3
287.541	7.16
287.754	6.95
287.968	6.5
288.181	6.68
288.395	6.7
288.608	6.38
288.822	6.55
289.035	6.45
289.248	6.12
289.462	6.24
289.675	6.37
289.889	6.74
290.102	6.89
290.315	6.82
290.529	6.7
290.742	6.18
290.955	6.23
291.169	6.31
291.382	6.15
291.595	6.23
291.808	6.6
292.022	6.2
292.235	5.69
292.448	5.34
292.661	6.27
292.875	6.17
293.088	6.35
293.301	6.64
293.514	6.76
293.727	7.35
293.94	7.69
294.153	7.29
294.367	7.82
294.58	7.86
294.793	8.14
295.006	7.49
295.219	7.72
295.432	7.65
295.645	7.24
295.858	7.57
296.071	7.23
296.284	6.96
296.497	6.76
296.71	6.46
296.923	6.91
297.136	6.47
297.349	7
297.562	6.92
297.775	6.93
297.988	6.93
298.201	6.63
298.414	6.26
298.626	6.17
298.839	6.69
299.052	7.14
299.265	6.9
299.478	7.32
299.691	7.17
299.903	6.9
300.116	6.72
300.329	7.16
300.542	6.73
300.755	7.3
300.967	7.3
301.18	7.4
301.393	7.12
301.605	7.07
301.818	7.19
302.031	7.26
302.243	7.94
302.456	7.7
302.669	7.42
302.881	7.61
303.094	7.89
303.307	8.13
303.519	7.51
303.732	7.44
303.944	7.41
304.157	7.07
304.37	7.13
304.582	6.59
304.795	6.82
305.007	7.08
305.22	7
305.432	7.02
305.645	6.78
305.857	6.88
306.069	6.61
306.282	6.25
306.494	6.63
306.707	6.8
306.919	6.87
307.132	6.86
307.344	6.59
307.556	6.99
307.769	6.66
307.981	7.16
308.193	7.84
308.406	7.92
308.618	8.18
308.83	8.27
309.043	8.03
309.255	7.93
309.467	8.37
309.679	8.8
309.892	8.69
310.104	8.78
310.316	8.6
310.528	8.33
310.74	8.54
310.953	8.38
311.165	8.37
311.377	8.28
311.589	8.22
311.801	7.89
312.013	7.47
312.225	7.39
312.437	7.17
312.649	7.2
312.862	7.31
313.074	7.32
313.286	7.24
313.498	6.97
313.71	6.97
313.922	7.49
314.134	7.46
314.346	7.19
314.558	6.74
314.77	6.71
314.982	6.61
315.193	6.24
315.405	5.71
315.617	6.2
315.829	5.97
316.041	5.92
316.253	5.3
316.465	5.79
316.677	5.68
316.888	6.16
317.1	6.54
317.312	6.61
317.524	6.76
317.736	7.51
317.947	7.57
318.159	7.74
318.371	7.68
318.583	7.85
318.794	7.37
319.006	7.9
319.218	8.49
319.43	8.36
319.641	8.15
319.853	8.15
320.064	7.77
320.276	7.56
320.488	7.55
320.699	7.95
320.911	8.24
321.123	7.97
321.334	7.67
321.546	7.31
321.757	7.03
321.969	7.18
322.18	6.71
322.392	6.59
322.603	6.41
322.815	6.52
323.026	6.61
323.238	6.2
323.449	6.41
323.661	6.33
323.872	6.59
324.083	6.58
324.295	5.82
324.506	6.12
324.718	6.5
324.929	6.33
325.14	6.34
325.352	5.92
325.563	6.64
325.774	6.54
325.986	6.84
326.197	6.77
326.408	6.35
326.62	7.04
326.831	7.18
327.042	7.25
327.253	7.19
327.464	7.65
327.676	7.4
327.887	6.77
328.098	7.11
328.309	7.14
328.52	6.9
328.732	7.6
328.943	7.42
329.154	7
329.365	6.14
329.576	6.1
329.787	5.7
329.998	6.21
330.209	6.13
330.42	6.56
330.631	6.5
330.842	6.51
331.053	6.54
331.264	6.9
331.475	7.12
331.686	8.19
331.897	8.67
332.108	8.75
332.319	8.73
332.53	9.03
332.741	8.46
332.952	8.16
333.163	8.55
333.374	8.16
333.585	7.91
333.795	8.16
334.006	7.79
334.217	7.13
334.428	6.91
334.639	6.99
334.849	7.27
335.06	7.22
335.271	7.27
335.482	6.69
335.692	6.68
335.903	6.36
336.114	6.07
336.325	5.73
336.535	6.55
336.746	6.83
336.957	6.88
337.167	6.66
337.378	6.73
337.589	6.88
337.799	6.9
338.01	7.36
338.22	7.58
338.431	7.35
338.642	7.47
338.852	7.45
339.063	7.3
339.273	6.81
339.484	6.58
339.694	6.82
339.905	6.94
340.115	7.21
340.326	6.84
340.536	7.05
340.746	7.31
340.957	7.2
341.167	6.85
341.378	6.5
341.588	6.67
341.799	6.92
342.009	6.76
342.219	6.43
342.43	6.19
342.64	6.22
342.85	6.73
343.061	7.09
343.271	7.34
343.481	7.48
343.691	7.78
343.902	7.82
344.112	7.55
344.322	7.4
344.532	7.49
344.743	7.6
344.953	7.61
345.163	6.81
345.373	6.79
345.583	6.74
345.793	6.36
346.004	6.14
346.214	6.19
346.424	6.61
346.634	7.3
346.844	7.34
347.054	7.68
347.264	7.53
347.474	7.69
347.684	7.5
347.894	7.48
348.104	7.95
348.314	7.84
348.524	7.63
348.734	7.56
348.944	6.74
349.154	7.02
349.364	6.72
349.574	6.79
349.784	6.67
349.994	6.46
350.204	6.33
350.413	6.08
350.623	6.05
350.833	6.37
351.043	6.14
351.253	6.32
351.463	6.2
351.672	5.86
351.882	6.52
352.092	6.47
352.302	6.61
352.511	6.67
352.721	6.88
352.931	7
353.141	6.78
353.35	6.78
353.56	6.73
353.77	6.81
353.979	7.2
354.189	6.44
354.399	6.48
354.608	6.54
354.818	6.25
355.027	6.12
355.237	6.13
355.447	6.31
355.656	6.08
355.866	5.94
356.075	5.85
356.285	5.72
356.494	5.72
356.704	5.67
356.913	5.65
357.123	5.61
357.332	5.68
357.542	5.49
357.751	5.48
357.96	5.72
358.17	5.95
358.379	5.89
358.589	5.9
358.798	6.29
359.007	6.28
359.217	6.43
359.426	6.66
359.635	6.39
359.845	6.48
360.054	6.3
360.263	6.42
360.472	6.33
360.682	6.23
360.891	6.1
361.1	6.1
361.309	6.16
361.519	6.01
361.728	5.94
361.937	5.95
362.146	6.06
362.355	6.2
362.564	6.09
362.774	6.08
362.983	6.04
363.192	6.06
363.401	5.91
363.61	5.94
363.819	5.87
364.028	5.78
364.237	5.8
364.446	5.78
364.655	5.55
364.864	5.32
365.073	5.47
365.282	5.72
365.491	5.86
365.7	5.84
365.909	5.73
366.118	5.49
366.327	5.5
366.536	5.7
366.745	5.66
366.954	5.6
367.162	5.42
367.371	5.23
367.58	4.95
367.789	4.97
367.998	5.1
368.207	5.01
368.415	4.93
368.624	5.23
368.833	5.03
369.042	5.07
369.25	5.22
369.459	5.22
369.668	5.1
369.877	5.14
370.085	5.15
370.294	4.92
370.503	5.07
370.711	5.05
370.92	4.81
371.129	4.95
371.337	4.87
371.546	4.8
371.754	5.02
371.963	5.02
372.171	4.91
372.38	4.96
372.589	4.99
372.797	4.79
373.006	5.07
373.214	5.1
373.423	4.82
373.631	4.66
373.84	4.66
374.048	4.78
374.256	5
374.465	5.44
374.673	5.18
374.882	5.13
375.09	5.13
375.298	5.06
375.507	4.98
375.715	5.3
375.923	5.42
376.132	5.46
376.34	5.56
376.548	5.55
376.757	5.19
376.965	5.14
377.173	5.25
377.381	5.31
377.59	5.26
377.798	5.18
378.006	5.01
378.214	4.99
378.423	5.07
378.631	4.79
378.839	4.62
379.047	4.79
379.255	4.91
379.463	4.87
379.671	4.84
379.879	4.77
380.088	4.85
380.296	4.55
380.504	4.64
380.712	4.28
380.92	4.36
381.128	4.4
381.336	4.37
381.544	4.16
381.752	4.08
381.96	4.06
382.168	4.21
382.376	4.36
382.584	4.54
382.791	4.55
382.999	4.58
383.207	4.55
383.415	4.64
383.623	4.51
383.831	4.41
384.039	4.52
384.247	4.49
384.454	4.5
384.662	4.61
384.87	4.52
385.078	4.39
385.285	4.41
385.493	4.59
385.701	4.47
385.909	4.57
386.116	4.76
386.324	4.77
386.532	4.71
386.739	4.65
386.947	4.38
387.155	4.43
387.362	4.48
387.57	4.54
387.778	4.24
387.985	4.2
388.193	4.05
388.4	3.83
388.608	3.55
388.816	3.61
389.023	3.6
389.231	3.73
389.438	3.8
389.646	3.89
389.853	4
390.061	4.01
390.268	3.96
390.475	3.89
390.683	4.22
390.89	4.31
391.098	4.21
391.305	4.13
391.512	3.97
391.72	3.95
391.927	3.77
392.135	3.76
392.342	3.65
392.549	3.67
392.756	3.89
392.964	3.91
393.171	3.93
393.378	4.03
393.586	3.94
393.793	3.91
394	3.9
394.207	3.87
394.414	3.79
394.622	3.88
394.829	3.9
395.036	3.72
395.243	3.5
395.45	3.42
395.657	3.36
395.864	3.59
396.072	3.41
396.279	3.29
396.486	3.44
396.693	3.56
396.9	3.62
397.107	3.59
397.314	3.47
397.521	3.62
397.728	3.51
397.935	3.72
398.142	3.76
398.349	4.14
398.556	4.12
398.763	4.05
398.97	4.02
399.177	4.18
399.383	4.28
399.59	4.33
399.797	4.19
400.004	4.24
400.211	4.07
400.418	4.03
400.625	4.08
400.831	3.93
401.038	3.94
401.245	3.94
401.452	4.03
401.658	3.86
401.865	4
402.072	3.87
402.279	3.9
402.485	4.05
402.692	4.03
402.899	3.77
403.105	3.92
403.312	3.82
403.519	3.84
403.725	3.58
403.932	3.75
404.138	3.64
404.345	3.83
404.552	3.96
404.758	3.76
404.965	3.71
405.171	3.72
405.378	3.64
405.584	3.63
405.791	3.51
405.997	3.55
406.204	3.46
406.41	3.62
406.617	3.39
406.823	3.3
407.029	3.43
407.236	3.4
407.442	3.54
407.649	3.56
407.855	3.71
408.061	3.58
408.268	3.55
408.474	3.58
408.68	3.4
408.887	3.51
409.093	3.43
409.299	3.41
409.505	3.46
409.712	3.43
409.918	3.45
410.124	3.53
410.33	3.56
410.537	3.64
410.743	3.58
410.949	3.69
411.155	3.71
411.361	3.71
411.567	3.73
411.773	3.7
411.98	3.74
412.186	3.74
412.392	3.51
412.598	3.67
412.804	3.55
413.01	3.6
413.216	3.67
413.422	3.77
413.628	3.72
413.834	3.64
414.04	3.57
414.246	3.44
414.452	3.56
414.658	3.59
414.864	3.46
415.07	3.32
415.275	3.33
415.481	3.2
415.687	3.15
415.893	3.18
416.099	3.08
416.305	3.07
416.511	3.14
416.716	3.02
416.922	2.98
417.128	2.98
417.334	3.12
417.539	3.11
417.745	3.09
417.951	3.07
418.157	3.11
418.362	3.14
418.568	3.21
418.774	3.12
418.979	3.11
419.185	3.08
419.391	3.11
419.596	3.06
419.802	3.03
420.008	3.05
420.213	3.03
420.419	3.05
420.624	3.05
420.83	3.03
421.035	3.13
421.241	3.11
421.446	3.15
421.652	3.12
421.857	3.19
422.063	3.27
422.268	3.28
422.474	3.33
422.679	3.21
422.885	3.21
423.09	3.22
423.295	3.13
423.501	3.21
423.706	3.15
423.911	3.25
424.117	3.18
424.322	3.12
424.527	3.08
424.733	2.98
424.938	3.01
425.143	3.02
425.349	2.93
425.554	2.98
425.759	3.04
425.964	3.15
426.169	3.01
426.375	3.03
426.58	2.98
426.785	3.02
426.99	3.04
427.195	3.03
427.4	3.02
427.605	3.06
427.811	2.98
428.016	2.93
428.221	2.94
428.426	2.92
428.631	2.8
428.836	2.86
429.041	2.8
429.246	2.95
429.451	3.01
429.656	2.89
429.861	2.81
430.066	2.9
430.271	2.87
430.476	2.86
430.681	2.87
430.886	3
431.09	2.8
431.295	2.83
431.5	2.77
431.705	2.75
431.91	2.89
432.115	2.91
432.32	2.82
432.524	2.82
432.729	2.79
432.934	2.79
433.139	2.78
433.343	3
433.548	2.95
433.753	2.94
433.958	3.03
434.162	2.86
434.367	2.84
434.572	2.82
434.776	2.67
434.981	2.7
435.186	2.67
435.39	2.63
435.595	2.62
435.799	2.69
436.004	2.64
436.209	2.63
436.413	2.62
436.618	2.67
436.822	2.75
437.027	2.77
437.231	2.71
437.436	2.76
437.64	2.79
437.845	2.69
438.049	2.72
438.253	2.75
438.458	2.74
438.662	2.88
438.867	2.9
439.071	2.89
439.275	2.97
439.48	2.98
439.684	3.02
439.888	3.04
440.093	3.08
440.297	3.13
440.501	3.18
440.706	3.1
440.91	3.12
441.114	3.1
441.318	3.17
441.523	3.11
441.727	3.19
441.931	3.16
442.135	3.14
442.339	3.17
442.543	3.07
442.748	2.96
442.952	3
443.156	2.99
443.36	2.99
443.564	3
443.768	3.03
443.972	3.01
444.176	3.05
444.38	3.09
444.584	3.08
444.788	3.15
444.992	3.17
445.196	3.19
445.4	3.2
445.604	3.23
445.808	3.22
446.012	3.13
446.216	3.21
446.42	3.08
446.624	3.09
446.828	3.12
447.032	3.05
447.235	3.01
447.439	3
447.643	3.02
447.847	3
448.051	2.92
448.254	3.09
448.458	2.89
448.662	2.91
448.866	2.82
449.069	2.81
449.273	2.75
449.477	2.8
449.681	2.77
449.884	2.78
450.088	2.59
450.292	2.59
450.495	2.55
450.699	2.64
450.902	2.73
451.106	2.8
451.31	2.76
451.513	2.81
451.717	2.8
451.92	2.84
452.124	2.67
452.327	2.77
452.531	2.73
452.734	2.74
452.938	2.72
453.141	2.7
453.345	2.54
453.548	2.5
453.752	2.54
453.955	2.51
454.158	2.58
454.362	2.7
454.565	2.75
454.769	2.9
454.972	2.99
455.175	2.93
455.379	2.91
455.582	3
455.785	2.94
455.988	2.82
456.192	2.88
456.395	2.75
456.598	2.82
456.801	2.8
457.005	2.72
457.208	2.54
457.411	2.63
457.614	2.63
457.817	2.63
458.021	2.76
458.224	2.77
458.427	2.81
458.63	2.83
458.833	2.73
459.036	2.7
459.239	2.72
459.442	2.76
459.645	2.72
459.848	2.76
460.051	2.78
460.254	2.66
460.457	2.68
460.66	2.55
460.863	2.54
461.066	2.59
461.269	2.64
461.472	2.66
461.675	2.61
461.878	2.59
462.081	2.44
462.284	2.41
462.486	2.4
462.689	2.45
462.892	2.55
463.095	2.44
463.298	2.44
463.5	2.41
463.703	2.44
463.906	2.57
464.109	2.59
464.311	2.61
464.514	2.57
464.717	2.57
464.92	2.55
465.122	2.54
465.325	2.7
465.528	2.72
465.73	2.68
465.933	2.55
466.135	2.47
466.338	2.46
466.541	2.47
466.743	2.56
466.946	2.65
467.148	2.63
467.351	2.61
467.553	2.58
467.756	2.63
467.958	2.79
468.161	2.86
468.363	2.86
468.566	2.85
468.768	2.84
468.971	2.87
469.173	2.81
469.375	2.79
469.578	2.82
469.78	2.83
469.983	2.67
