Data from 2938502_Reflection_3.txt Node
Date: Tue Jun 16 23:14:16 EDT 2015
User: robert
Spectrometer: USB4E03002
Autoset integration time: false
Trigger mode: 4
Integration Time (sec): 1.000000E-1
Scans to average: 10
Electric dark correction enabled: true
Nonlinearity correction enabled: false
Boxcar width: 5
Stray light correction enabled: false
XAxis mode: Wavelengths
Stop averaging: false
Number of Pixels in Spectrum: 3648
>>>>>Begin Spectral Data<<<<<
177.575	2898
177.794	-55
178.014	47.26
178.233	60.72
178.452	35.36
178.672	34.92
178.891	76.13
179.11	8150
179.33	-347.4
179.549	-1948.78
179.768	-33.61
179.987	1053.13
180.207	-48.63
180.426	3.87
180.645	1.28
180.864	0.12
181.084	15.75
181.303	10.98
181.522	11.88
181.741	3.31
181.96	33.3
182.179	26.77
182.398	43.04
182.618	47.55
182.837	56.43
183.056	49.93
183.275	53.74
183.494	45.35
183.713	36.67
183.932	40.28
184.151	40.91
184.37	35.88
184.589	26.03
184.808	35.89
185.027	25.71
185.246	37.49
185.465	45.58
185.684	25.51
185.903	17.3
186.122	23.19
186.341	14.2
186.56	-31.64
186.779	-118.93
186.998	-49.42
187.216	-71.7
187.435	-7.65
187.654	-74.99
187.873	-34.98
188.092	23.96
188.311	22.67
188.53	4.04
188.748	-6.42
188.967	-1.85
189.186	-14.82
189.405	-10.37
189.623	-10.17
189.842	-38.11
190.061	-45.44
190.28	-41.32
190.498	-37.86
190.717	-63.74
190.936	-20.92
191.154	4.54
191.373	15.78
191.592	29.78
191.81	37.9
192.029	43.91
192.248	47.04
192.466	59.03
192.685	59.48
192.904	56.65
193.122	67.51
193.341	54.22
193.559	30.24
193.778	29.77
193.996	21.35
194.215	8.33
194.433	3.93
194.652	23.33
194.87	36.1
195.089	39.42
195.307	35.62
195.526	33.63
195.744	17.55
195.963	31.95
196.181	23.02
196.399	30.74
196.618	57.91
196.836	69.11
197.055	52.13
197.273	25.25
197.491	23.01
197.71	42.22
197.928	51.6
198.146	69.37
198.365	71.69
198.583	71.46
198.801	71.45
199.019	67.46
199.238	55.98
199.456	35.12
199.674	47.23
199.892	60.61
200.111	53.73
200.329	36.41
200.547	40.66
200.765	31.47
200.983	31.39
201.202	15.24
201.42	36.01
201.638	63.96
201.856	99.29
202.074	69.52
202.292	54.34
202.51	47.96
202.728	64.27
202.946	40.96
203.165	51.53
203.383	45.27
203.601	44.86
203.819	2.01
204.037	-14.09
204.255	-10.54
204.473	-7.81
204.691	-33.57
204.909	-60.09
205.127	-37.47
205.345	-35.34
205.562	-43.07
205.78	-19.73
205.998	-29.51
206.216	-0.52
206.434	-3.11
206.652	9.58
206.87	23.76
207.088	42.88
207.306	39.8
207.523	50.36
207.741	57.59
207.959	64.57
208.177	68.65
208.395	73.35
208.612	71.17
208.83	58.2
209.048	70.34
209.266	54.22
209.483	51.37
209.701	50.45
209.919	49.19
210.136	51.95
210.354	37.37
210.572	41.13
210.79	39.98
211.007	37.65
211.225	41.68
211.442	37.41
211.66	35.26
211.878	32.79
212.095	25.18
212.313	24.65
212.53	35.98
212.748	28.84
212.966	25.43
213.183	20.85
213.401	16.63
213.618	9.23
213.836	5.96
214.053	21.45
214.271	17.88
214.488	17.94
214.705	0.09
214.923	-15.32
215.14	-28.34
215.358	-39.77
215.575	-43.65
215.793	-18.99
216.01	0.42
216.227	-8.54
216.445	-20.45
216.662	-7.25
216.879	6.3
217.097	6.38
217.314	10.83
217.531	6.42
217.749	4.54
217.966	18.14
218.183	5.46
218.4	-0.91
218.618	11.59
218.835	18.61
219.052	13.03
219.269	-12.84
219.487	-4.44
219.704	-15.58
219.921	-7.68
220.138	2.68
220.355	-17.92
220.572	-3.68
220.79	3.14
221.007	-6.94
221.224	1.37
221.441	-2.47
221.658	10.91
221.875	14.11
222.092	22.1
222.309	21.93
222.526	23.35
222.743	25.16
222.96	27.42
223.177	23.65
223.394	21.91
223.611	20.26
223.828	20.58
224.045	17.91
224.262	17.08
224.479	15.05
224.696	15.99
224.913	13.26
225.13	13.73
225.347	10.86
225.564	12.53
225.781	14.67
225.997	14.24
226.214	14.76
226.431	12.49
226.648	11.78
226.865	10.55
227.082	10.24
227.298	11.82
227.515	11.25
227.732	11.46
227.949	11.02
228.165	10.24
228.382	9.41
228.599	9.06
228.816	10.61
229.032	10.89
229.249	11.8
229.466	11.41
229.682	9.53
229.899	9.67
230.116	7.97
230.332	9.39
230.549	11.49
230.765	11.83
230.982	11.49
231.199	10.12
231.415	9.83
231.632	8.56
231.848	7.86
232.065	9.05
232.281	9.1
232.498	11.74
232.714	10.76
232.931	9.32
233.147	10.98
233.364	10.83
233.58	12.3
233.797	10.86
234.013	12
234.23	13.54
234.446	14.24
234.662	13.25
234.879	10.58
235.095	8
235.312	5.05
235.528	3.9
235.744	5.3
235.961	4.82
236.177	4.82
236.393	3.29
236.61	3.62
236.826	1.11
237.042	1.71
237.258	4.35
237.475	5.52
237.691	7.77
237.907	8.44
238.123	7.94
238.339	7.7
238.556	8.76
238.772	9.54
238.988	9.3
239.204	10.1
239.42	9.69
239.636	8.87
239.853	9.98
240.069	11.56
240.285	11.37
240.501	11.81
240.717	11.82
240.933	11.56
241.149	11.99
241.365	12.32
241.581	11.82
241.797	12.47
242.013	13
242.229	12.66
242.445	11.35
242.661	11.18
242.877	10.77
243.093	10.9
243.309	11.26
243.525	10.91
243.741	10.46
243.957	10.65
244.173	10.4
244.388	10.16
244.604	9.99
244.82	10.24
245.036	10.38
245.252	10.32
245.468	10.47
245.683	10.25
245.899	10.38
246.115	10.33
246.331	10.44
246.547	10.76
246.762	11.1
246.978	11
247.194	10.92
247.409	10.96
247.625	10.9
247.841	10.54
248.057	10.77
248.272	9.47
248.488	9.54
248.703	9.77
248.919	8.33
249.135	7.62
249.35	7.63
249.566	8.29
249.782	7.86
249.997	7.99
250.213	7.8
250.428	7.33
250.644	8.11
250.859	8.12
251.075	8.12
251.29	9.12
251.506	8.22
251.721	8.21
251.937	6.99
252.152	7.13
252.368	6.69
252.583	7.02
252.798	7.28
253.014	7.51
253.229	7.05
253.445	7.48
253.66	6.97
253.875	8.62
254.091	9.27
254.306	10.77
254.521	11.34
254.737	11.78
254.952	11.78
255.167	11.29
255.383	10.79
255.598	10.3
255.813	9.04
256.028	9.12
256.244	8.86
256.459	8.16
256.674	7.45
256.889	6.68
257.104	6.34
257.32	6.53
257.535	6.23
257.75	6.36
257.965	6.55
258.18	6.91
258.395	6.97
258.61	7.05
258.826	7.28
259.041	7.26
259.256	7.5
259.471	7.82
259.686	7.38
259.901	7.81
260.116	7.86
260.331	8.34
260.546	8.04
260.761	7.79
260.976	7.64
261.191	7.47
261.406	7.41
261.621	7.18
261.836	7.24
262.05	7.86
262.265	7.78
262.48	8.2
262.695	7.65
262.91	8.28
263.125	7.68
263.34	7.87
263.555	7.5
263.769	8.02
263.984	8.85
264.199	8.3
264.414	7.73
264.629	7.18
264.843	6.81
265.058	6.49
265.273	6.22
265.488	7.14
265.702	7.45
265.917	7.68
266.132	7.33
266.346	6.97
266.561	7.03
266.776	7.4
266.99	7.71
267.205	7.54
267.42	7.82
267.634	7.71
267.849	7.14
268.063	6.56
268.278	6.05
268.492	6.25
268.707	6.24
268.922	6.43
269.136	6.22
269.351	6.58
269.565	6.54
269.78	6.64
269.994	6.24
270.209	6.35
270.423	6.38
270.637	6.86
270.852	6.98
271.066	7.02
271.281	6.47
271.495	6.49
271.709	6.01
271.924	6.47
272.138	6.56
272.353	6.95
272.567	6.76
272.781	7.12
272.996	7.23
273.21	6.65
273.424	6.26
273.638	6.89
273.853	6.92
274.067	7.25
274.281	6.77
274.495	6.91
274.71	6.62
274.924	6.99
275.138	6.53
275.352	6.23
275.566	6.53
275.781	6.52
275.995	6.62
276.209	6.79
276.423	6.86
276.637	7.63
276.851	6.77
277.065	7
277.279	7.35
277.493	8.02
277.707	8.42
277.921	8.41
278.135	8.4
278.349	8.29
278.563	8.47
278.777	8.28
278.991	7.75
279.205	8.17
279.419	7.74
279.633	7.6
279.847	7.11
280.061	6.75
280.275	6.36
280.489	6.84
280.703	6.92
280.917	6.82
281.131	6.72
281.344	6.59
281.558	6.7
281.772	6.97
281.986	6.45
282.2	6.46
282.414	6.26
282.627	6.62
282.841	6.05
283.055	5.66
283.269	5.67
283.482	6.06
283.696	6.21
283.91	5.91
284.123	6.36
284.337	6.66
284.551	6.91
284.764	7.48
284.978	7.67
285.192	7.58
285.405	7.87
285.619	7.98
285.833	7.75
286.046	7.72
286.26	8.03
286.473	7.64
286.687	7.54
286.9	7.42
287.114	7.01
287.327	6.81
287.541	7
287.754	6.73
287.968	6.58
288.181	6.76
288.395	6.86
288.608	6.89
288.822	7.03
289.035	6.94
289.248	6.77
289.462	6.67
289.675	6.69
289.889	6.94
290.102	6.96
290.315	6.93
290.529	6.62
290.742	6.35
290.955	6.36
291.169	6.36
291.382	6.63
291.595	6.57
291.808	6.78
292.022	7.44
292.235	7.54
292.448	7.63
292.661	8.12
292.875	8.55
293.088	8.66
293.301	8.13
293.514	8.15
293.727	8.11
293.94	8.26
294.153	8.19
294.367	7.69
294.58	7.73
294.793	7.87
295.006	7.57
295.219	7.59
295.432	7.59
295.645	7.93
295.858	8.04
296.071	8.12
296.284	8.41
296.497	8.59
296.71	8.84
296.923	8.66
297.136	8.6
297.349	8.54
297.562	8.31
297.775	8.04
297.988	7.92
298.201	7.94
298.414	7.83
298.626	7.51
298.839	7.45
299.052	7.82
299.265	7.82
299.478	8.2
299.691	8.43
299.903	8.64
300.116	9.5
300.329	9.48
300.542	9.46
300.755	9.93
300.967	9.77
301.18	10.17
301.393	9.81
301.605	9.91
301.818	10.21
302.031	9.89
302.243	9.64
302.456	9.48
302.669	9.85
302.881	9.43
303.094	9.31
303.307	9.54
303.519	9.13
303.732	9.06
303.944	9.31
304.157	8.96
304.37	9.42
304.582	9.68
304.795	9.64
305.007	9.65
305.22	9.84
305.432	9.57
305.645	9.53
305.857	9.62
306.069	9.72
306.282	9.52
306.494	9.25
306.707	9.08
306.919	9
307.132	8.89
307.344	9.01
307.556	9.14
307.769	9.48
307.981	9.7
308.193	9.89
308.406	9.78
308.618	9.87
308.83	10.14
309.043	10.3
309.255	10.45
309.467	10.97
309.679	10.6
309.892	10.63
310.104	10.68
310.316	10.44
310.528	10.06
310.74	10.17
310.953	10.21
311.165	10
311.377	10.09
311.589	10.27
311.801	9.5
312.013	9.58
312.225	9.37
312.437	9.35
312.649	9.58
312.862	10
313.074	10.44
313.286	10.27
313.498	10.63
313.71	10.54
313.922	10.3
314.134	10.72
314.346	10.38
314.558	10.82
314.77	10.62
314.982	10.34
315.193	10.14
315.405	9.81
315.617	10.13
315.829	9.74
316.041	9.65
316.253	9.99
316.465	10.22
316.677	10.36
316.888	9.88
317.1	10.31
317.312	10.98
317.524	10.4
317.736	10.17
317.947	10.48
318.159	10.74
318.371	11.03
318.583	10.89
318.794	10.45
319.006	10.82
319.218	11.5
319.43	11.08
319.641	10.89
319.853	11.6
320.064	11.64
320.276	11.3
320.488	10.95
320.699	10.96
320.911	10.73
321.123	10.91
321.334	11.13
321.546	11.46
321.757	11.56
321.969	11.69
322.18	11.6
322.392	12.09
322.603	12.48
322.815	13.18
323.026	13
323.238	12.96
323.449	13.02
323.661	13.4
323.872	13.24
324.083	12.94
324.295	12.86
324.506	13.22
324.718	13.29
324.929	13.24
325.14	12.72
325.352	12.88
325.563	13.26
325.774	13.57
325.986	13.54
326.197	13.7
326.408	14.18
326.62	14.32
326.831	14.38
327.042	13.76
327.253	13.9
327.464	14.41
327.676	14.5
327.887	14.47
328.098	14.28
328.309	13.99
328.52	14.19
328.732	14.32
328.943	14.12
329.154	14.15
329.365	14.7
329.576	14.37
329.787	14.34
329.998	14.53
330.209	14.67
330.42	14.68
330.631	15.11
330.842	14.46
331.053	13.94
331.264	14.08
331.475	14.32
331.686	14.44
331.897	14.63
332.108	14.7
332.319	14.97
332.53	14.92
332.741	15.24
332.952	14.44
333.163	14.99
333.374	15.42
333.585	15.64
333.795	15.23
334.006	15.16
334.217	15.37
334.428	15.32
334.639	15.08
334.849	15.04
335.06	15.31
335.271	16
335.482	15.58
335.692	15.67
335.903	15.7
336.114	15.85
336.325	16.02
336.535	15.8
336.746	15.8
336.957	15.87
337.167	16.23
337.378	15.8
337.589	15.83
337.799	16.31
338.01	16.14
338.22	16.09
338.431	15.86
338.642	15.74
338.852	15.52
339.063	15.63
339.273	15.54
339.484	15.71
339.694	15.91
339.905	16.14
340.115	15.6
340.326	15.98
340.536	16.07
340.746	16.21
340.957	16.09
341.167	16.47
341.378	16.38
341.588	16.35
341.799	16.14
342.009	15.57
342.219	15.16
342.43	15.41
342.64	14.75
342.85	14.69
343.061	14.83
343.271	14.8
343.481	14.9
343.691	15.13
343.902	15.21
344.112	14.97
344.322	15.28
344.532	15.54
344.743	15.41
344.953	15.88
345.163	16.02
345.373	16.11
345.583	16.11
345.793	15.76
346.004	15.61
346.214	15.43
346.424	15.63
346.634	15.73
346.844	15.55
347.054	15.86
347.264	15.76
347.474	15.42
347.684	15.34
347.894	15.34
348.104	15.59
348.314	15.78
348.524	15.8
348.734	15.85
348.944	15.69
349.154	15.77
349.364	15.58
349.574	15.83
349.784	15.93
349.994	15.7
350.204	15.93
350.413	15.8
350.623	15.66
350.833	15.73
351.043	15.14
351.253	15.13
351.463	15.05
351.672	15.08
351.882	14.74
352.092	14.7
352.302	15.02
352.511	14.91
352.721	14.99
352.931	14.46
353.141	14.51
353.35	14.59
353.56	14.76
353.77	14.65
353.979	14.73
354.189	15.12
354.399	15.44
354.608	15.45
354.818	15.24
355.027	15.13
355.237	15.6
355.447	15.49
355.656	15.64
355.866	15.66
356.075	15.75
356.285	15.74
356.494	15.59
356.704	15.43
356.913	15.27
357.123	15.31
357.332	15.16
357.542	15.14
357.751	15.33
357.96	15.69
358.17	15.48
358.379	15.43
358.589	15.28
358.798	15.01
359.007	14.84
359.217	14.86
359.426	14.94
359.635	14.87
359.845	14.88
360.054	14.72
360.263	14.42
360.472	14.4
360.682	14.48
360.891	14.45
361.1	14.57
361.309	14.53
361.519	14.65
361.728	14.73
361.937	15.18
362.146	15.11
362.355	15.19
362.564	15.14
362.774	15.13
362.983	14.96
363.192	14.9
363.401	14.92
363.61	15.11
363.819	15.02
364.028	14.9
364.237	14.73
364.446	14.53
364.655	14.41
364.864	14.58
365.073	14.6
365.282	14.92
365.491	15.02
365.7	14.91
365.909	14.73
366.118	14.6
366.327	14.44
366.536	14.28
366.745	14.5
366.954	14.73
367.162	14.67
367.371	14.76
367.58	14.58
367.789	14.78
367.998	14.61
368.207	14.56
368.415	14.46
368.624	14.65
368.833	14.79
369.042	14.67
369.25	14.33
369.459	14.36
369.668	14.14
369.877	14.03
370.085	13.74
370.294	13.82
370.503	14.07
370.711	14.12
370.92	13.93
371.129	13.59
371.337	13.47
371.546	13.35
371.754	13.39
371.963	13.42
372.171	13.56
372.38	13.43
372.589	13.34
372.797	12.99
373.006	12.74
373.214	12.98
373.423	13.19
373.631	13.25
373.84	13.53
374.048	13.38
374.256	13.5
374.465	13.27
374.673	13.54
374.882	13.72
375.09	13.8
375.298	14.07
375.507	13.64
375.715	13.53
375.923	13.48
376.132	13.34
376.34	13.12
376.548	13.23
376.757	13.3
376.965	13.16
377.173	13.08
377.381	13.01
377.59	12.78
377.798	13.02
378.006	13.03
378.214	13.11
378.423	13.18
378.631	13.22
378.839	13.18
379.047	13.37
379.255	13.4
379.463	13.3
379.671	13.24
379.879	13.35
380.088	13.33
380.296	13.32
380.504	13.05
380.712	13
380.92	13.12
381.128	13.15
381.336	13.04
381.544	13.09
381.752	13.37
381.96	13.21
382.168	13.16
382.376	13.11
382.584	13.06
382.791	13.1
382.999	12.97
383.207	13
383.415	13.01
383.623	12.95
383.831	12.9
384.039	12.64
384.247	12.84
384.454	12.74
384.662	12.71
384.87	12.72
385.078	12.65
385.285	12.64
385.493	12.67
385.701	12.34
385.909	12.26
386.116	12.04
386.324	11.89
386.532	11.87
386.739	11.91
386.947	12.07
387.155	12.07
387.362	12.16
387.57	12.36
387.778	12.15
387.985	12.12
388.193	12.11
388.4	12.16
388.608	12.32
388.816	12.28
389.023	12.26
389.231	12.29
389.438	12.16
389.646	12.16
389.853	12.03
390.061	12.11
390.268	12.08
390.475	12.07
390.683	12.01
390.89	11.9
391.098	11.73
391.305	11.57
391.512	11.48
391.72	11.31
391.927	11.31
392.135	11.3
392.342	11.25
392.549	11.32
392.756	11.2
392.964	11.21
393.171	11.29
393.378	11.24
393.586	11.3
393.793	11.28
394	11.55
394.207	11.66
394.414	11.56
394.622	11.44
394.829	11.69
395.036	11.73
395.243	11.71
395.45	11.63
395.657	11.73
395.864	11.89
396.072	11.94
396.279	11.86
396.486	11.64
396.693	11.62
396.9	11.61
397.107	11.45
397.314	11.46
397.521	11.63
397.728	11.54
397.935	11.68
398.142	11.43
398.349	11.1
398.556	11.03
398.763	10.72
398.97	10.72
399.177	10.73
399.383	10.57
399.59	10.67
399.797	10.65
400.004	10.68
400.211	10.52
400.418	10.55
400.625	10.71
400.831	10.86
401.038	11.12
401.245	10.94
401.452	10.9
401.658	10.77
401.865	10.49
402.072	10.23
402.279	10.16
402.485	10.27
402.692	10.16
402.899	10.14
403.105	9.97
403.312	10.08
403.519	10.25
403.725	10.24
403.932	10.27
404.138	10.27
404.345	10.31
404.552	10.37
404.758	10.38
404.965	10.58
405.171	10.44
405.378	10.56
405.584	10.44
405.791	10.2
405.997	10.12
406.204	10.1
406.41	10.32
406.617	10.37
406.823	10.26
407.029	10.08
407.236	9.9
407.442	9.91
407.649	9.77
407.855	9.85
408.061	9.94
408.268	10.05
408.474	10.07
408.68	9.72
408.887	9.71
409.093	9.88
409.299	9.86
409.505	10.03
409.712	10.06
409.918	10.12
410.124	9.99
410.33	9.95
410.537	9.84
410.743	9.87
410.949	10
411.155	10.06
411.361	9.79
411.567	9.87
411.773	9.74
411.98	9.8
412.186	9.59
412.392	9.61
412.598	9.61
412.804	9.67
413.01	9.72
413.216	9.65
413.422	9.5
413.628	9.53
413.834	9.45
414.04	9.42
414.246	9.29
414.452	9.37
414.658	9.45
414.864	9.49
415.07	9.46
415.275	9.32
415.481	9.35
415.687	9.28
415.893	9.32
416.099	9.27
416.305	9.1
416.511	9.18
416.716	9.05
416.922	8.9
417.128	8.85
417.334	8.83
417.539	8.82
417.745	8.87
417.951	8.94
418.157	8.8
418.362	8.79
418.568	8.83
418.774	8.75
418.979	8.72
419.185	8.75
419.391	8.79
419.596	8.77
419.802	8.72
420.008	8.6
420.213	9.31
420.419	9.3
420.624	9.28
420.83	9.26
421.035	9.22
421.241	9.25
421.446	9.11
421.652	9.01
421.857	8.93
422.063	8.99
422.268	8.94
422.474	8.19
422.679	8.14
422.885	8.16
423.09	8.17
423.295	8.18
423.501	8.16
423.706	8.24
423.911	8.35
424.117	8.35
424.322	8.24
424.527	8.29
424.733	8.29
424.938	8.35
425.143	8.3
425.349	8.32
425.554	8.31
425.759	8.37
425.964	8.29
426.169	8.14
426.375	8.2
426.58	8.31
426.785	8.26
426.99	8.11
427.195	8.21
427.4	8.2
427.605	8.08
427.811	8.04
428.016	7.95
428.221	7.97
428.426	7.97
428.631	7.88
428.836	7.81
429.041	7.78
429.246	7.83
429.451	7.72
429.656	7.72
429.861	7.7
430.066	7.72
430.271	7.67
430.476	7.65
430.681	7.61
430.886	7.63
431.09	7.68
431.295	7.77
431.5	7.71
431.705	7.64
431.91	7.66
432.115	7.79
432.32	7.77
432.524	7.72
432.729	7.68
432.934	7.61
433.139	7.55
433.343	7.47
433.548	7.46
433.753	7.45
433.958	7.5
434.162	7.47
434.367	7.36
434.572	7.41
434.776	7.59
434.981	7.68
435.186	7.73
435.39	7.81
435.595	7.87
435.799	7.79
436.004	7.91
436.209	7.92
436.413	7.88
436.618	7.84
436.822	7.77
437.027	7.77
437.231	7.69
437.436	7.76
437.64	7.73
437.845	7.68
438.049	7.68
438.253	7.67
438.458	7.62
438.662	7.64
438.867	7.68
439.071	7.75
439.275	7.69
439.48	7.75
439.684	7.76
439.888	7.65
440.093	7.63
440.297	7.56
440.501	7.55
440.706	7.63
440.91	7.68
441.114	7.72
441.318	7.67
441.523	7.68
441.727	7.68
441.931	7.69
442.135	7.81
442.339	7.79
442.543	7.85
442.748	7.88
442.952	7.86
443.156	7.81
443.36	7.8
443.564	7.73
443.768	7.62
443.972	7.58
444.176	7.5
444.38	7.42
444.584	7.46
444.788	7.5
444.992	7.44
445.196	7.42
445.4	7.38
445.604	7.29
445.808	7.34
446.012	7.43
446.216	7.4
446.42	7.48
446.624	7.45
446.828	7.4
447.032	7.35
447.235	7.3
447.439	7.32
447.643	7.28
447.847	7.35
448.051	7.33
448.254	7.32
448.458	7.28
448.662	7.17
448.866	7.3
449.069	7.4
449.273	7.39
449.477	7.56
449.681	7.56
449.884	7.54
450.088	7.54
450.292	7.55
450.495	7.56
450.699	7.53
450.902	7.57
451.106	7.43
451.31	7.37
451.513	7.28
451.717	7.1
451.92	7.01
452.124	6.98
452.327	6.89
452.531	6.81
452.734	6.74
452.938	6.79
453.141	6.76
453.345	6.83
453.548	6.9
453.752	7.02
453.955	7.04
454.158	7.09
454.362	7.03
454.565	7.05
454.769	7.01
454.972	6.98
455.175	7.01
455.379	6.98
455.582	6.93
455.785	6.86
455.988	6.74
456.192	6.69
456.395	6.7
456.598	6.87
456.801	6.82
457.005	6.8
457.208	6.79
457.411	6.8
457.614	6.81
457.817	6.92
458.021	6.93
458.224	6.96
458.427	7.02
458.63	6.99
458.833	7.01
459.036	7.06
459.239	7.12
459.442	7.12
459.645	7.13
459.848	7.18
460.051	7.08
460.254	7.08
460.457	7.11
460.66	7.06
460.863	7.07
461.066	7.04
461.269	7.1
461.472	7.14
461.675	7.2
461.878	7.27
462.081	7.2
462.284	7.38
462.486	7.41
462.689	7.35
462.892	7.38
463.095	7.43
463.298	7.4
463.5	7.35
463.703	7.36
463.906	7.4
464.109	7.36
464.311	7.44
464.514	7.41
464.717	7.46
464.92	7.68
