Data from 2938444_Reflection_2.txt Node
Date: Fri Jun 19 18:14:01 EDT 2015
User: robert
Spectrometer: USB4E03002
Autoset integration time: false
Trigger mode: 4
Integration Time (sec): 1.000000E-1
Scans to average: 10
Electric dark correction enabled: true
Nonlinearity correction enabled: false
Boxcar width: 5
Stray light correction enabled: false
XAxis mode: Wavelengths
Stop averaging: false
Number of Pixels in Spectrum: 3648
>>>>>Begin Spectral Data<<<<<
177.575	17.03
177.794	116.19
178.014	-76.09
178.233	396.46
178.452	559.63
178.672	100.57
178.891	-6.32
179.11	2.02
179.33	-172.41
179.549	75.74
179.768	-177.89
179.987	-116.47
180.207	2108.19
180.426	-2186.67
180.645	-395.98
180.864	-168.29
181.084	-112.06
181.303	-133.83
181.522	-130.22
181.741	-104.81
181.96	-172.44
182.179	-117.22
182.398	-176.16
182.618	-28.34
182.837	-57.98
183.056	-177.76
183.275	11628
183.494	341.41
183.713	-1406.28
183.932	1621.2
184.151	341.95
184.37	768.04
184.589	238.59
184.808	165.56
185.027	165.39
185.246	151.07
185.465	83.89
185.684	-123.83
185.903	144.47
186.122	158.79
186.341	96.34
186.56	57.2
186.779	76.86
186.998	98.96
187.216	-146.08
187.435	19.35
187.654	-6.16
187.873	-560.92
188.092	2067.65
188.311	515.7
188.53	-148.4
188.748	-0.18
188.967	12.65
189.186	-68
189.405	-41.21
189.623	-121.93
189.842	106.66
190.061	77.4
190.28	130.87
190.498	114.71
190.717	15493.33
190.936	353.38
191.154	316.18
191.373	513.72
191.592	108.58
191.81	75.03
192.029	70.08
192.248	99.92
192.466	126.42
192.685	105.02
192.904	58.38
193.122	57.97
193.341	57.25
193.559	80.76
193.778	47.32
193.996	14.79
194.215	48.27
194.433	54.03
194.652	6.28
194.87	26.45
195.089	29.67
195.307	48.33
195.526	26.02
195.744	11.68
195.963	-25.54
196.181	-13.48
196.399	-27.43
196.618	-233.12
196.836	649.49
197.055	623.31
197.273	760.43
197.491	160.11
197.71	192.3
197.928	92.28
198.146	60.45
198.365	-83.86
198.583	30.48
198.801	27.16
199.019	92.44
199.238	-337.78
199.456	-1175.56
199.674	-353.7
199.892	139.96
200.111	-12.6
200.329	379.23
200.547	-69.98
200.765	-473.86
200.983	346.99
201.202	237.51
201.42	210.57
201.638	92.17
201.856	84.98
202.074	67.99
202.292	70.04
202.51	47.4
202.728	71.66
202.946	60.91
203.165	-26.16
203.383	-102.95
203.601	-123.8
203.819	-178.26
204.037	10.63
204.255	-95.96
204.473	478.86
204.691	323.14
204.909	-578.48
205.127	-53.5
205.345	-32.87
205.562	45.14
205.78	19.81
205.998	53.77
206.216	108.82
206.434	327.46
206.652	275.21
206.87	112.03
207.088	108.57
207.306	133
207.523	195.14
207.741	188.9
207.959	596.48
208.177	347.87
208.395	778.15
208.612	238.23
208.83	62.23
209.048	102.46
209.266	166.11
209.483	119.11
209.701	77.17
209.919	32.18
210.136	37.38
210.354	43.98
210.572	65.63
210.79	85.7
211.007	99.4
211.225	107.34
211.442	74.83
211.66	87.14
211.878	58.67
212.095	67.31
212.313	81.91
212.53	36.85
212.748	35.34
212.966	16.73
213.183	-1.72
213.401	21.86
213.618	2.89
213.836	8.53
214.053	27.75
214.271	43.31
214.488	35.29
214.705	28.31
214.923	36.43
215.14	24.43
215.358	35.97
215.575	36.26
215.793	30.1
216.01	50.31
216.227	46.1
216.445	30.26
216.662	10.11
216.879	-9.38
217.097	4.05
217.314	-5.27
217.531	5.74
217.749	-208.38
217.966	-209.5
218.183	-412.28
218.4	-232.89
218.618	-232.2
218.835	-281.97
219.052	-297.61
219.269	-70.96
219.487	-40.46
219.704	-39.78
219.921	-18.6
220.138	40.93
220.355	52.34
220.572	59.06
220.79	70.85
221.007	53.97
221.224	45.39
221.441	27.96
221.658	17.1
221.875	2.59
222.092	4
222.309	5.41
222.526	-18.05
222.743	-10.11
222.96	-11.46
223.177	-23.4
223.394	0.97
223.611	7.84
223.828	21.68
224.045	22.55
224.262	28.82
224.479	33.37
224.696	22.41
224.913	25.21
225.13	19.31
225.347	21.79
225.564	22.3
225.781	19.21
225.997	19.21
226.214	14.95
226.431	15.99
226.648	14.25
226.865	14.6
227.082	16.39
227.298	16.57
227.515	15.94
227.732	16.61
227.949	17.16
228.165	15.31
228.382	14.36
228.599	15.55
228.816	14.28
229.032	13.07
229.249	12.9
229.466	13.93
229.682	14.68
229.899	16.31
230.116	14.84
230.332	14.33
230.549	18.03
230.765	16.32
230.982	16
231.199	18.35
231.415	25.67
231.632	26.91
231.848	27.38
232.065	25.68
232.281	26.39
232.498	24.41
232.714	23.87
232.931	22.5
233.147	25.77
233.364	25.67
233.58	23.77
233.797	20.9
234.013	18.81
234.23	14.34
234.446	17.67
234.662	17.8
234.879	19.02
235.095	17.41
235.312	17.46
235.528	17.28
235.744	17.84
235.961	18.84
236.177	16.77
236.393	17.8
236.61	21.14
236.826	19.03
237.042	15.02
237.258	14.86
237.475	14.31
237.691	13.14
237.907	11.64
238.123	10.85
238.339	9.26
238.556	13.44
238.772	13.37
238.988	11.7
239.204	11.34
239.42	13.71
239.636	13.49
239.853	13.27
240.069	13.94
240.285	14.62
240.501	15.66
240.717	15.04
240.933	12.72
241.149	12.28
241.365	11.9
241.581	12.22
241.797	10.76
242.013	11.03
242.229	11.29
242.445	10.95
242.661	10.53
242.877	9.91
243.093	10.62
243.309	10.81
243.525	10.24
243.741	11.55
243.957	11.25
244.173	12.64
244.388	12.39
244.604	12.84
244.82	13.14
245.036	13.26
245.252	12.95
245.468	13.1
245.683	13.03
245.899	13.36
246.115	12.93
246.331	13.03
246.547	12.4
246.762	12.16
246.978	11.97
247.194	11.68
247.409	11.15
247.625	11.88
247.841	11.7
248.057	11.7
248.272	11.14
248.488	12.21
248.703	12.45
248.919	13.1
249.135	13.4
249.35	14.37
249.566	14.39
249.782	13.1
249.997	11.95
250.213	12.05
250.428	12.79
250.644	13.53
250.859	12.72
251.075	11.63
251.29	11.49
251.506	11.85
251.721	10.48
251.937	9.87
252.152	11.99
252.368	12.47
252.583	12.2
252.798	12.37
253.014	12.47
253.229	11.59
253.445	12
253.66	12.3
253.875	11.91
254.091	11.54
254.306	11.48
254.521	9.98
254.737	9.45
254.952	9.95
255.167	11.07
255.383	10.57
255.598	11.25
255.813	11.56
256.028	11.54
256.244	10.85
256.459	10.86
256.674	11.65
256.889	11.98
257.104	12.09
257.32	11.4
257.535	10.65
257.75	10.38
257.965	10.35
258.18	9.91
258.395	9.16
258.61	9.04
258.826	9.07
259.041	8.51
259.256	8.19
259.471	7.5
259.686	7.34
259.901	7.43
260.116	7.53
260.331	7.61
260.546	8.67
260.761	9.04
260.976	9.16
261.191	9.13
261.406	9.67
261.621	10.85
261.836	11.85
262.05	12.44
262.265	11.46
262.48	11.44
262.695	11.01
262.91	10.34
263.125	12.21
263.34	12.52
263.555	11.83
263.769	11.45
263.984	10.97
264.199	10.93
264.414	10.18
264.629	10.49
264.843	10.2
265.058	10.47
265.273	9.6
265.488	8.27
265.702	7.71
265.917	8.97
266.132	9.42
266.346	8.23
266.561	8.17
266.776	9.08
266.99	8.89
267.205	8.52
267.42	8.26
267.634	8.65
267.849	9.13
268.063	10.01
268.278	10.01
268.492	9.49
268.707	10.26
268.922	10
269.136	9.43
269.351	9.2
269.565	9.57
269.78	9.1
269.994	9.19
270.209	9.76
270.423	9.45
270.637	9.11
270.852	9.43
271.066	9.05
271.281	8.68
271.495	9.4
271.709	9.49
271.924	9.22
272.138	9.66
272.353	9.87
272.567	8.74
272.781	8.74
272.996	8.67
273.21	8.81
273.424	9.54
273.638	9.65
273.853	8.89
274.067	8.74
274.281	8.45
274.495	8.8
274.71	8.98
274.924	9.18
275.138	9.04
275.352	8.87
275.566	8.99
275.781	8.98
275.995	9.5
276.209	10.66
276.423	11.21
276.637	12.66
276.851	12.46
277.065	11.49
277.279	12.21
277.493	12.66
277.707	13.33
277.921	12.78
278.135	13.04
278.349	12.9
278.563	11.94
278.777	11.96
278.991	11.79
279.205	11.12
279.419	11.04
279.633	10.51
279.847	10.24
280.061	10.24
280.275	10.23
280.489	9.42
280.703	9.47
280.917	9.34
281.131	9.48
281.344	8.62
281.558	9.1
281.772	8.64
281.986	8.71
282.2	9.04
282.414	9.05
282.627	9.42
282.841	9.89
283.055	9.71
283.269	9.78
283.482	9.92
283.696	10.45
283.91	10.35
284.123	11.18
284.337	11.01
284.551	10.68
284.764	10.31
284.978	9.89
285.192	9.48
285.405	9.62
285.619	9.2
285.833	9.1
286.046	8.74
286.26	8.54
286.473	8.9
286.687	9.18
286.9	9.48
287.114	9.74
287.327	9.96
287.541	10.37
287.754	10.52
287.968	10.64
288.181	10.69
288.395	10.47
288.608	10.78
288.822	10.05
289.035	9.92
289.248	9.93
289.462	10.24
289.675	10.87
289.889	10.73
290.102	10.51
290.315	11.45
290.529	11.31
290.742	12.38
290.955	12.22
291.169	12.88
291.382	13.58
291.595	13.6
291.808	13.28
292.022	12.27
292.235	12
292.448	12.72
292.661	12.21
292.875	12.48
293.088	12.16
293.301	12.21
293.514	12.21
293.727	12.36
293.94	12.06
294.153	11.93
294.367	12.71
294.58	13
294.793	12.67
295.006	12.21
295.219	12.23
295.432	11.88
295.645	12.05
295.858	12.02
296.071	11.21
296.284	11.78
296.497	12.38
296.71	12.46
296.923	12.22
297.136	12.21
297.349	13.03
297.562	12.56
297.775	13.23
297.988	13.45
298.201	13.43
298.414	14.41
298.626	13.88
298.839	13.42
299.052	12.95
299.265	13.81
299.478	14.14
299.691	14.01
299.903	14.8
300.116	14.27
300.329	14.42
300.542	14.52
300.755	13.85
300.967	14.83
301.18	15.09
301.393	14.64
301.605	14.12
301.818	14.14
302.031	13.3
302.243	13.26
302.456	13.17
302.669	13.69
302.881	13.57
303.094	14.4
303.307	14.02
303.519	13.43
303.732	14.33
303.944	14.37
304.157	14.34
304.37	14.2
304.582	14.46
304.795	15.43
305.007	15.54
305.22	15.84
305.432	15.55
305.645	15.38
305.857	15.09
306.069	14.61
306.282	14.36
306.494	14.68
306.707	15.36
306.919	15.05
307.132	13.59
307.344	12.9
307.556	12.86
307.769	12.74
307.981	12.4
308.193	13.65
308.406	13.44
308.618	13.91
308.83	13.57
309.043	12.81
309.255	12.78
309.467	13.48
309.679	13.47
309.892	13.39
310.104	13.26
310.316	13.16
310.528	12.01
310.74	12.52
310.953	12
311.165	12.44
311.377	12.88
311.589	12.74
311.801	12.65
312.013	13.28
312.225	12.9
312.437	12.69
312.649	13.43
312.862	12.73
313.074	11.93
313.286	11.89
313.498	10.81
313.71	11.53
313.922	10.86
314.134	11.5
314.346	10.31
314.558	10.58
314.77	10.52
314.982	10.03
315.193	11.81
315.405	11.95
315.617	12.75
315.829	12.86
316.041	12.5
316.253	14.26
316.465	13.01
316.677	13.96
316.888	13.5
317.1	14.51
317.312	14.91
317.524	14.03
317.736	15.39
317.947	15.05
318.159	14.92
318.371	15.37
318.583	14.28
318.794	14.6
319.006	13.71
319.218	13.48
319.43	12.39
319.641	12.24
319.853	12.51
320.064	11.82
320.276	11.59
320.488	12
320.699	11.06
320.911	11.32
321.123	12.08
321.334	13
321.546	13.64
321.757	14.54
321.969	14
322.18	13.52
322.392	13.14
322.603	13.44
322.815	13.42
323.026	13.2
323.238	13.32
323.449	12.86
323.661	11.45
323.872	12.04
324.083	11.89
324.295	12.28
324.506	12.67
324.718	13.61
324.929	14.05
325.14	14.66
325.352	15.41
325.563	15.24
325.774	14.94
325.986	16.22
326.197	15.41
326.408	15.12
326.62	14.96
326.831	15.3
327.042	13.97
327.253	13.55
327.464	13.45
327.676	13.49
327.887	13.76
328.098	13.91
328.309	13.49
328.52	14.44
328.732	14.83
328.943	15.31
329.154	15.31
329.365	16.22
329.576	16.72
329.787	15.95
329.998	16.08
330.209	15.53
330.42	16.32
330.631	16.63
330.842	16.46
331.053	15.63
331.264	15.38
331.475	15.54
331.686	15.44
331.897	14.98
332.108	15.09
332.319	14.27
332.53	14.67
332.741	14.22
332.952	13.91
333.163	13.56
333.374	14.61
333.585	13.76
333.795	13.88
334.006	14.12
334.217	14.98
334.428	14.99
334.639	15.66
334.849	15.13
335.06	14.43
335.271	15.13
335.482	14.68
335.692	14.26
335.903	15.26
336.114	14.46
336.325	14.52
336.535	14.15
336.746	14.9
336.957	14.14
337.167	14.33
337.378	16.1
337.589	16.12
337.799	16.65
338.01	16.1
338.22	16.51
338.431	16.08
338.642	15.19
338.852	14.24
339.063	13.75
339.273	13.29
339.484	13.6
339.694	11.72
339.905	10.77
340.115	10.91
340.326	11.16
340.536	11.01
340.746	11.98
340.957	12.74
341.167	12.89
341.378	12.34
341.588	13.01
341.799	13.12
342.009	14.04
342.219	14.4
342.43	14.13
342.64	14.27
342.85	14.18
343.061	14
343.271	14.51
343.481	14.41
343.691	14.28
343.902	14.29
344.112	14.28
344.322	13.89
344.532	13.68
344.743	14.04
344.953	13.96
345.163	13.91
345.373	13.83
345.583	13.1
345.793	13.35
346.004	13.76
346.214	13.32
346.424	13.45
346.634	14.06
346.844	14.25
347.054	12.93
347.264	13.21
347.474	12.66
347.684	12.62
347.894	12.19
348.104	12.27
348.314	12.41
348.524	12.51
348.734	11.89
348.944	11.56
349.154	11.12
349.364	12.67
349.574	12.55
349.784	12.69
349.994	13.54
350.204	13.46
350.413	13.16
350.623	13.1
350.833	13.43
351.043	13.57
351.253	13.27
351.463	13.5
351.672	12.6
351.882	12.43
352.092	12.92
352.302	12.13
352.511	12.65
352.721	13.02
352.931	12.56
353.141	12.95
353.35	13.09
353.56	13.74
353.77	13.39
353.979	13.64
354.189	13.35
354.399	12.98
354.608	13.07
354.818	12.82
355.027	12.99
355.237	13.05
355.447	12.87
355.656	12.83
355.866	12.38
356.075	12.61
356.285	12.51
356.494	12.93
356.704	12.92
356.913	13.43
357.123	13.35
357.332	12.75
357.542	13.55
357.751	13.54
357.96	13.71
358.17	13.1
358.379	13.16
358.589	13.12
358.798	12.78
359.007	12.7
359.217	12.36
359.426	12.83
359.635	13.39
359.845	13.01
360.054	12.85
360.263	12.45
360.472	13.12
360.682	13.01
360.891	12.9
361.1	13.07
361.309	13.03
361.519	12.54
361.728	12.68
361.937	12.46
362.146	12.39
362.355	12.6
362.564	12.89
362.774	12.64
362.983	12.64
363.192	12.65
363.401	12.56
363.61	12.41
363.819	12.94
364.028	12.45
364.237	12.04
364.446	11.97
364.655	11.42
364.864	11.55
365.073	11.68
365.282	11.26
365.491	11
365.7	11.18
365.909	11.15
366.118	10.62
366.327	10.5
366.536	10.9
366.745	11.3
366.954	11.75
367.162	11.56
367.371	11.01
367.58	11.15
367.789	11.07
367.998	11.19
368.207	11.12
368.415	11.37
368.624	11.04
368.833	11.09
369.042	10.24
369.25	10.23
369.459	10.22
369.668	10.21
369.877	10.5
370.085	11.29
370.294	10.68
370.503	10.78
370.711	11.09
370.92	11.55
371.129	11.36
371.337	11.41
371.546	11.37
371.754	11.43
371.963	11.84
372.171	11.81
372.38	11.52
372.589	11.83
372.797	11.68
373.006	11.17
373.214	10.92
373.423	10.8
373.631	10.59
373.84	9.97
374.048	9.86
374.256	9.53
374.465	9.61
374.673	8.96
374.882	9.1
375.09	9.21
375.298	9.07
375.507	9.08
375.715	8.91
375.923	8.88
376.132	9.29
376.34	9.02
376.548	9.3
376.757	8.98
376.965	8.98
377.173	8.69
377.381	8.3
377.59	8.18
377.798	8.27
378.006	8.21
378.214	8.27
378.423	7.99
378.631	7.87
378.839	7.34
379.047	7.52
379.255	7.78
379.463	7.63
379.671	8.08
379.879	8.27
380.088	8
380.296	8.25
380.504	8.33
380.712	8.38
380.92	8.35
381.128	8.43
381.336	8.06
381.544	8.05
381.752	7.9
381.96	7.72
382.168	7.77
382.376	7.81
382.584	7.58
382.791	7.74
382.999	7.77
383.207	7.53
383.415	7.3
383.623	7.26
383.831	7.36
384.039	7.5
384.247	7.54
384.454	7.12
384.662	6.66
384.87	6.75
385.078	6.41
385.285	6.36
385.493	6.73
385.701	6.78
385.909	6.7
386.116	6.34
386.324	6.09
386.532	5.8
386.739	6.25
386.947	6.43
387.155	6.1
387.362	6.01
387.57	5.79
387.778	5.41
387.985	5.27
388.193	5.56
388.4	5.68
388.608	5.84
388.816	5.77
389.023	5.71
389.231	5.66
389.438	5.94
389.646	6.05
389.853	6.15
390.061	6.21
390.268	6.24
390.475	5.96
390.683	5.84
390.89	5.72
391.098	5.76
391.305	5.48
391.512	5.46
391.72	5.09
391.927	4.91
392.135	4.73
392.342	4.84
392.549	4.82
392.756	4.79
392.964	4.76
393.171	4.78
393.378	4.83
393.586	4.99
393.793	5.02
394	5.01
394.207	5
394.414	5.04
394.622	4.76
394.829	4.73
395.036	4.88
395.243	4.75
395.45	4.61
395.657	4.59
395.864	4.65
396.072	4.74
396.279	4.85
396.486	5.04
396.693	5.09
396.9	5.41
397.107	5.28
397.314	5.25
397.521	5.14
397.728	5.21
397.935	5.13
398.142	4.88
398.349	4.41
398.556	4.26
398.763	3.86
398.97	3.73
399.177	3.48
399.383	3.39
399.59	3.18
399.797	3.39
400.004	3.21
400.211	3.25
400.418	3.42
400.625	3.86
400.831	3.9
401.038	4.1
401.245	4.17
401.452	4.19
401.658	4.53
401.865	4.6
402.072	4.58
402.279	4.8
402.485	4.75
402.692	4.64
402.899	4.59
403.105	4.54
403.312	4.47
403.519	4.52
403.725	4.59
403.932	4.54
404.138	4.48
404.345	4.41
404.552	4.42
404.758	4.34
404.965	4.3
405.171	4.17
405.378	4.27
405.584	4.37
405.791	4.25
405.997	4.24
406.204	4.09
406.41	4.1
406.617	4.12
406.823	4.09
407.029	4.13
407.236	4.06
407.442	4.05
407.649	4.04
407.855	4.01
408.061	4.03
408.268	4
408.474	4.05
408.68	4
408.887	3.97
409.093	3.85
409.299	3.72
409.505	3.64
409.712	3.58
409.918	3.68
410.124	3.7
410.33	3.72
410.537	3.62
410.743	3.66
410.949	3.67
411.155	3.67
411.361	3.67
411.567	3.71
411.773	3.84
411.98	3.84
412.186	3.55
412.392	3.42
412.598	3.31
412.804	3.32
413.01	3.13
413.216	3.13
413.422	3.13
413.628	3.09
413.834	3.21
414.04	3.31
414.246	3.4
414.452	3.71
414.658	3.79
414.864	3.75
415.07	3.63
415.275	3.75
415.481	3.66
415.687	3.75
415.893	3.81
416.099	3.85
416.305	3.79
416.511	3.78
416.716	3.54
416.922	3.61
417.128	3.67
417.334	3.75
417.539	3.73
417.745	3.81
417.951	3.8
418.157	3.81
418.362	3.77
418.568	3.7
418.774	3.7
418.979	3.83
419.185	3.81
419.391	3.7
419.596	3.68
419.802	3.67
420.008	3.63
420.213	3.58
420.419	3.57
420.624	3.59
420.83	3.61
421.035	3.56
421.241	3.48
421.446	3.48
421.652	3.52
421.857	3.58
422.063	3.64
422.268	3.62
422.474	3.6
422.679	3.53
422.885	3.46
423.09	3.5
423.295	3.5
423.501	3.56
423.706	3.51
423.911	3.51
424.117	3.42
424.322	3.3
424.527	3.34
424.733	3.38
424.938	3.48
425.143	3.43
425.349	3.37
425.554	3.42
425.759	3.42
425.964	3.39
426.169	3.33
426.375	3.31
426.58	3.48
426.785	3.48
426.99	3.47
427.195	3.36
427.4	3.41
427.605	3.4
427.811	3.41
428.016	3.3
428.221	3.27
428.426	3.34
428.631	3.43
428.836	3.34
429.041	3.28
429.246	3.31
429.451	3.42
429.656	3.39
429.861	3.34
430.066	3.38
430.271	3.43
430.476	3.46
430.681	3.36
430.886	3.34
431.09	3.34
431.295	3.43
431.5	3.35
431.705	3.25
431.91	3.33
432.115	3.34
432.32	3.3
432.524	3.17
432.729	3.25
432.934	3.46
433.139	3.39
433.343	3.41
433.548	3.29
433.753	3.29
433.958	3.39
434.162	3.35
434.367	3.46
434.572	3.44
434.776	3.52
434.981	3.44
435.186	3.36
435.39	3.4
435.595	3.32
435.799	3.34
436.004	3.36
436.209	3.23
436.413	3.28
436.618	3.24
436.822	3.2
437.027	3.22
437.231	3.16
437.436	3.19
437.64	3.14
437.845	3.19
438.049	3.17
438.253	3.18
438.458	3.19
438.662	3.18
438.867	3.13
439.071	3.15
439.275	3.1
439.48	3.17
439.684	3.17
439.888	3.14
440.093	3.12
440.297	3.13
440.501	3.16
440.706	3.19
440.91	3.15
441.114	3.13
441.318	3.12
441.523	3.19
441.727	3.21
441.931	3.16
442.135	3.32
442.339	3.38
442.543	3.42
442.748	3.38
442.952	3.39
443.156	3.36
443.36	3.42
443.564	3.4
443.768	3.33
443.972	3.24
444.176	3.14
444.38	3.02
444.584	2.98
444.788	2.98
444.992	3.04
445.196	2.92
445.4	2.94
445.604	2.87
445.808	2.86
446.012	2.89
446.216	2.89
446.42	2.96
446.624	2.96
446.828	2.97
447.032	2.99
447.235	2.83
447.439	2.94
447.643	2.96
447.847	2.98
448.051	2.96
448.254	2.95
448.458	3.01
448.662	3.04
448.866	3.14
449.069	3.14
449.273	3.11
449.477	3.2
449.681	3.21
449.884	3.18
450.088	3.22
450.292	3.14
450.495	3.14
450.699	3.18
450.902	3.13
451.106	3.07
451.31	3.05
451.513	3.1
451.717	3.01
451.92	3.02
452.124	3.11
452.327	3.05
452.531	3.22
452.734	3.2
452.938	3.1
453.141	3.02
453.345	3.1
453.548	3.06
453.752	3.03
453.955	3.16
454.158	3.12
454.362	3
454.565	3.14
454.769	3
454.972	3.12
455.175	3.16
455.379	3.26
455.582	3.17
455.785	3.15
455.988	3.15
456.192	3.13
456.395	3.1
456.598	3.13
456.801	3.05
457.005	3
457.208	2.89
457.411	2.95
457.614	2.97
457.817	2.99
458.021	3.08
458.224	3.03
458.427	3.03
458.63	3.03
458.833	2.99
459.036	2.99
459.239	2.98
459.442	3
459.645	2.98
459.848	2.98
460.051	2.99
460.254	3.02
460.457	3.13
460.66	3.07
460.863	3.1
461.066	3.12
461.269	3.11
461.472	3.32
461.675	3.35
461.878	3.31
462.081	3.31
462.284	3.36
462.486	3.21
462.689	3.11
