Data from 2938448_Reflection_3.txt Node
Date: Fri Jun 19 18:04:57 EDT 2015
User: robert
Spectrometer: USB4E03002
Autoset integration time: false
Trigger mode: 4
Integration Time (sec): 1.000000E-1
Scans to average: 10
Electric dark correction enabled: true
Nonlinearity correction enabled: false
Boxcar width: 5
Stray light correction enabled: false
XAxis mode: Wavelengths
Stop averaging: false
Number of Pixels in Spectrum: 3648
>>>>>Begin Spectral Data<<<<<
177.575	-535.67
177.794	-163.77
178.014	-320.41
178.233	-139.84
178.452	-59.69
178.672	-146.4
178.891	149.88
179.11	-588.8
179.33	-877.01
179.549	-400.74
179.768	-275.12
179.987	-282.72
180.207	-305.23
180.426	-743.71
180.645	-626.14
180.864	-1163.1
181.084	1766.97
181.303	824.91
181.522	468.77
181.741	495.33
181.96	312.84
182.179	264.71
182.398	211.57
182.618	234.62
182.837	269.45
183.056	240.07
183.275	231.08
183.494	209.36
183.713	239.38
183.932	281.45
184.151	301.79
184.37	478.53
184.589	836.05
184.808	787.84
185.027	847.55
185.246	688.38
185.465	1503.55
185.684	961750
185.903	-488.62
186.122	-455.47
186.341	-453.07
186.56	-395.22
186.779	-374.09
186.998	-339.64
187.216	-202.08
187.435	-128.84
187.654	-126.75
187.873	-180.76
188.092	-246.76
188.311	-206.95
188.53	-184.86
188.748	-225.97
188.967	-83.17
189.186	-174.75
189.405	-481.17
189.623	-10206.35
189.842	-1446.75
190.061	-293.12
190.28	-548.63
190.498	-499
190.717	746.25
190.936	649.1
191.154	608.27
191.373	383.75
191.592	395.06
191.81	1058.81
192.029	1965.58
192.248	533.74
192.466	475.96
192.685	582.16
192.904	396.89
193.122	764.48
193.341	-2321.27
193.559	6737.5
193.778	-14536.17
193.996	-3381.4
194.215	1975.1
194.433	874.38
194.652	-1809.47
194.87	-354.78
195.089	-771.89
195.307	-476.5
195.526	-1828.86
195.744	783.14
195.963	617250
196.181	2024.55
196.399	669.55
196.618	489.12
196.836	522.82
197.055	402.8
197.273	367.24
197.491	365.75
197.71	295.89
197.928	374.25
198.146	344.67
198.365	233.32
198.583	232.64
198.801	329.61
199.019	661.7
199.238	540.99
199.456	614.37
199.674	720.62
199.892	-4643.8
200.111	-499.14
200.329	-417.63
200.547	-279.9
200.765	-172.49
200.983	-214.44
201.202	-226.19
201.42	-282.41
201.638	-371.04
201.856	-325.04
202.074	-356.47
202.292	-417.99
202.51	-396.77
202.728	-397.03
202.946	-1949.26
203.165	-19134.21
203.383	1986.94
203.601	550.58
203.819	1457.97
204.037	-1219.87
204.255	-742.49
204.473	-512.99
204.691	-821.08
204.909	-486.31
205.127	-284
205.345	-244.96
205.562	-233.99
205.78	-204.9
205.998	-266
206.216	-640.15
206.434	-2619.6
206.652	1066.03
206.87	491.97
207.088	3528.23
207.306	716.5
207.523	263.73
207.741	213.87
207.959	202.86
208.177	196.62
208.395	180.67
208.612	199.26
208.83	202.58
209.048	219.33
209.266	220.13
209.483	185.95
209.701	168.37
209.919	212.38
210.136	282.6
210.354	382.72
210.572	319.58
210.79	392.49
211.007	349.47
211.225	380.44
211.442	401.17
211.66	262.38
211.878	186
212.095	136.35
212.313	117.47
212.53	84.91
212.748	75.06
212.966	70.3
213.183	51.39
213.401	73.65
213.618	75.69
213.836	72.48
214.053	89.42
214.271	147.42
214.488	277.69
214.705	256.66
214.923	203.53
215.14	222.06
215.358	245.29
215.575	499.89
215.793	337.01
216.01	216.84
216.227	195.86
216.445	258.19
216.662	198.19
216.879	192.62
217.097	204.65
217.314	189.99
217.531	206.88
217.749	183.92
217.966	186.12
218.183	191.38
218.4	177.34
218.618	169.33
218.835	133.72
219.052	160.46
219.269	149.21
219.487	144.34
219.704	137.31
219.921	119.93
220.138	128.99
220.355	129.54
220.572	110.48
220.79	108.18
221.007	110.58
221.224	114.54
221.441	86.13
221.658	86.76
221.875	81.62
222.092	66.94
222.309	70.29
222.526	61.79
222.743	66.37
222.96	66.74
223.177	61.37
223.394	48.11
223.611	47.5
223.828	47.62
224.045	46.94
224.262	47.74
224.479	53.18
224.696	46.73
224.913	48.52
225.13	43.74
225.347	44.88
225.564	41.56
225.781	37.87
225.997	33.52
226.214	32.09
226.431	29.13
226.648	24.8
226.865	22.71
227.082	20.9
227.298	20.51
227.515	20.07
227.732	19.45
227.949	19.1
228.165	20.2
228.382	20.61
228.599	19.79
228.816	19.91
229.032	20.4
229.249	21.56
229.466	22.98
229.682	22.16
229.899	21.71
230.116	20.43
230.332	21.93
230.549	23.1
230.765	25.43
230.982	26.52
231.199	26.75
231.415	29.63
231.632	28
231.848	29.05
232.065	28.89
232.281	30.83
232.498	30.68
232.714	29.04
232.931	30.68
233.147	30.39
233.364	31.64
233.58	30.59
233.797	31.46
234.013	32.96
234.23	30.12
234.446	32.13
234.662	29.89
234.879	30.2
235.095	27.73
235.312	25.08
235.528	24.53
235.744	23.76
235.961	24.67
236.177	23.83
236.393	24.84
236.61	26.37
236.826	25.57
237.042	25.88
237.258	26.01
237.475	27.28
237.691	27.11
237.907	27.13
238.123	25.35
238.339	24.04
238.556	22.92
238.772	21.69
238.988	20.97
239.204	19.73
239.42	19.31
239.636	18.9
239.853	18.77
240.069	17.92
240.285	16.56
240.501	16.24
240.717	16.62
240.933	15.92
241.149	15.26
241.365	15.17
241.581	15.22
241.797	15.46
242.013	15.16
242.229	14.51
242.445	14.83
242.661	14.88
242.877	15.19
243.093	14.59
243.309	14.71
243.525	14.84
243.741	14.7
243.957	14.76
244.173	12.96
244.388	12.7
244.604	12.65
244.82	12.91
245.036	12.24
245.252	11.41
245.468	10.6
245.683	10.37
245.899	10.24
246.115	10.24
246.331	9.74
246.547	10.39
246.762	10.24
246.978	10.31
247.194	9.97
247.409	10.24
247.625	11.29
247.841	12.19
248.057	12.6
248.272	12.39
248.488	11.88
248.703	11.17
248.919	12.09
249.135	12.19
249.35	11.9
249.566	11.32
249.782	12.41
249.997	11.52
250.213	11.74
250.428	10.92
250.644	11.49
250.859	12.45
251.075	13.85
251.29	13.19
251.506	12.99
251.721	13.99
251.937	14.87
252.152	14.24
252.368	13.88
252.583	14.34
252.798	15.19
253.014	15.95
253.229	16.16
253.445	15.46
253.66	14.13
253.875	13.63
254.091	12.45
254.306	12.18
254.521	11.68
254.737	12.73
254.952	11.18
255.167	10.97
255.383	10.9
255.598	10.34
255.813	9.84
256.028	10.24
256.244	11.47
256.459	11.58
256.674	10.89
256.889	10.33
257.104	9.85
257.32	9.76
257.535	9.89
257.75	9.13
257.965	8.72
258.18	8.77
258.395	8.82
258.61	8.34
258.826	8.04
259.041	7.81
259.256	8.28
259.471	8.47
259.686	8.74
259.901	8.59
260.116	9.08
260.331	9.53
260.546	9.96
260.761	9.84
260.976	10.21
261.191	10.6
261.406	11.92
261.621	12.31
261.836	11.59
262.05	11.34
262.265	11.78
262.48	11.85
262.695	11.78
262.91	11.97
263.125	12.14
263.34	11.92
263.555	11.22
263.769	10.53
263.984	10.43
264.199	11.04
264.414	11.35
264.629	10.7
264.843	10.16
265.058	9.93
265.273	9.74
265.488	9.88
265.702	9.62
265.917	10.91
266.132	10.5
266.346	10.25
266.561	10.69
266.776	10.63
266.99	10.37
267.205	10.99
267.42	11.17
267.634	10.65
267.849	9.77
268.063	9.89
268.278	9.02
268.492	8.96
268.707	8.67
268.922	8.41
269.136	7.94
269.351	8.17
269.565	7.94
269.78	7.58
269.994	7.52
270.209	8.44
270.423	8.7
270.637	8.92
270.852	9.34
271.066	9.59
271.281	9.71
271.495	9.79
271.709	9.82
271.924	9.83
272.138	10.34
272.353	10.91
272.567	10.63
272.781	10.86
272.996	10.45
273.21	10.3
273.424	9.63
273.638	9.15
273.853	9.55
274.067	9.41
274.281	9.57
274.495	8.8
274.71	8.53
274.924	8.07
275.138	7.73
275.352	8.54
275.566	8.89
275.781	8.98
275.995	9.7
276.209	10.23
276.423	10.56
276.637	10.32
276.851	10.74
277.065	10.86
277.279	11.48
277.493	11.36
277.707	10.54
277.921	10.14
278.135	10.4
278.349	9.53
278.563	8.38
278.777	8.44
278.991	8.27
279.205	8.36
279.419	8.1
279.633	8.84
279.847	9.09
280.061	8.64
280.275	8.63
280.489	8.42
280.703	8.76
280.917	8.91
281.131	8.4
281.344	8.28
281.558	7.88
281.772	8.34
281.986	7.84
282.2	7.96
282.414	7.88
282.627	7.63
282.841	7.65
283.055	7.87
283.269	8.17
283.482	8.69
283.696	8.66
283.91	9.13
284.123	8.74
284.337	8.82
284.551	8.42
284.764	9.01
284.978	9.29
285.192	9.38
285.405	9.42
285.619	9.37
285.833	9.13
286.046	9.64
286.26	9.6
286.473	10.08
286.687	9.91
286.9	10.23
287.114	10.17
287.327	10.35
287.541	9.88
287.754	9.58
287.968	9.51
288.181	9.73
288.395	9.61
288.608	9.89
288.822	10.03
289.035	10.41
289.248	10.31
289.462	10.43
289.675	10.32
289.889	11.01
290.102	10.91
290.315	11.2
290.529	11.42
290.742	11.35
290.955	11.35
291.169	11.25
291.382	11.26
291.595	11.7
291.808	12.05
292.022	11.69
292.235	11.61
292.448	11.29
292.661	10.75
292.875	10.27
293.088	10.47
293.301	10.68
293.514	10.35
293.727	9.81
293.94	9.74
294.153	9.4
294.367	9.65
294.58	9.3
294.793	9.3
295.006	10.08
295.219	10.58
295.432	10.74
295.645	10.52
295.858	10.68
296.071	10.57
296.284	10.64
296.497	10.87
296.71	11.03
296.923	11.41
297.136	11.82
297.349	11.35
297.562	11.12
297.775	10.77
297.988	10.92
298.201	10.8
298.414	10.78
298.626	11.16
298.839	11.28
299.052	11.04
299.265	11.15
299.478	10.85
299.691	11.18
299.903	11.23
300.116	11.33
300.329	11.11
300.542	11.46
300.755	11.93
300.967	11.44
301.18	11.18
301.393	11.45
301.605	11.27
301.818	11.81
302.031	11.35
302.243	11.5
302.456	11.25
302.669	11.1
302.881	11.48
303.094	11.53
303.307	11.42
303.519	10.99
303.732	11.22
303.944	11.65
304.157	12.12
304.37	12.27
304.582	12.11
304.795	12.92
305.007	13.55
305.22	13.07
305.432	13.34
305.645	13.27
305.857	13.71
306.069	13.83
306.282	13.9
306.494	13.77
306.707	14.05
306.919	14.5
307.132	13.75
307.344	13.3
307.556	13.3
307.769	13.71
307.981	14.05
308.193	13.61
308.406	12.71
308.618	12.19
308.83	11.76
309.043	11.75
309.255	11.48
309.467	12.14
309.679	12.37
309.892	11.82
310.104	11.23
310.316	11.49
310.528	11.91
310.74	12.58
310.953	12.81
311.165	13.1
311.377	13.01
311.589	13.3
311.801	13.06
312.013	13.35
312.225	14.25
312.437	15.04
312.649	14.78
312.862	14.73
313.074	14.66
313.286	15.38
313.498	15.37
313.71	15.67
313.922	15.44
314.134	15.39
314.346	14.53
314.558	14.99
314.77	14.52
314.982	14.35
315.193	14.89
315.405	14.59
315.617	13.88
315.829	14.06
316.041	14.38
316.253	14.61
316.465	14.96
316.677	15.64
316.888	15.55
317.1	14.98
317.312	15.05
317.524	14.62
317.736	15.47
317.947	16.19
318.159	16.05
318.371	15.24
318.583	14.92
318.794	14.56
319.006	14.66
319.218	14.8
319.43	15.12
319.641	15.65
319.853	15.64
320.064	15.98
320.276	15.78
320.488	15.8
320.699	15.68
320.911	15.83
321.123	16
321.334	16.11
321.546	15.68
321.757	16.04
321.969	16.21
322.18	16.51
322.392	16.02
322.603	15.48
322.815	15.73
323.026	15.98
323.238	16.05
323.449	16.01
323.661	15.79
323.872	15.51
324.083	15.53
324.295	14.87
324.506	15
324.718	15.22
324.929	15.81
325.14	15.62
325.352	15.84
325.563	16.59
325.774	17.42
325.986	17.9
326.197	18.36
326.408	18.71
326.62	19.3
326.831	19.46
327.042	19.01
327.253	19.19
327.464	19.74
327.676	19.99
327.887	19.44
328.098	18.73
328.309	18.63
328.52	19.17
328.732	19.01
328.943	19.3
329.154	19.14
329.365	20.02
329.576	20.26
329.787	20.2
329.998	20.66
330.209	21.04
330.42	21.92
330.631	21.66
330.842	21.76
331.053	21.71
331.264	21.79
331.475	22.07
331.686	21.48
331.897	21.58
332.108	21.38
332.319	21.65
332.53	21.7
332.741	21.1
332.952	21.86
333.163	22.44
333.374	23.15
333.585	22.89
333.795	23.38
334.006	24.21
334.217	24.3
334.428	24.71
334.639	24.4
334.849	24.63
335.06	24.92
335.271	24.71
335.482	23.52
335.692	22.99
335.903	23.29
336.114	22.69
336.325	22.36
336.535	22.29
336.746	22.15
336.957	22.53
337.167	22.19
337.378	22.5
337.589	22.69
337.799	22.53
338.01	23.17
338.22	23.29
338.431	23.36
338.642	24.14
338.852	23.76
339.063	23.82
339.273	23.1
339.484	23.36
339.694	23.21
339.905	23.54
340.115	24.33
340.326	23.78
340.536	23.67
340.746	23.9
340.957	23.21
341.167	24.02
341.378	24.01
341.588	24.52
341.799	24.33
342.009	23.51
342.219	22.6
342.43	22.32
342.64	22.38
342.85	22.11
343.061	21.7
343.271	21.65
343.481	21.17
343.691	20.97
343.902	21.01
344.112	21.31
344.322	22.15
344.532	22.56
344.743	22.71
344.953	22.68
345.163	22.41
345.373	22.92
345.583	23.08
345.793	22.79
346.004	23.4
346.214	23.29
346.424	23.25
346.634	22.98
346.844	22.63
347.054	21.97
347.264	22.6
347.474	23.01
347.684	22.81
347.894	22.43
348.104	22.8
348.314	22.51
348.524	22.11
348.734	22.09
348.944	21.8
349.154	21.76
349.364	22.33
349.574	21.43
349.784	21.48
349.994	21.56
350.204	21.83
350.413	21.38
350.623	20.92
350.833	21.13
351.043	20.67
351.253	20.52
351.463	21.16
351.672	21.2
351.882	21.51
352.092	21.4
352.302	21.53
352.511	21.48
352.721	21.63
352.931	22.54
353.141	22.28
353.35	22.33
353.56	22.68
353.77	22.82
353.979	22.73
354.189	22.5
354.399	22.62
354.608	22.24
354.818	22.37
355.027	22.4
355.237	21.55
355.447	21.77
355.656	21.84
355.866	21.38
356.075	21
356.285	20.84
356.494	21.09
356.704	20.94
356.913	21.11
357.123	20.65
357.332	20.36
357.542	20.83
357.751	20.84
357.96	21.24
358.17	21.62
358.379	21.59
358.589	21.67
358.798	21.43
359.007	21.17
359.217	20.93
359.426	20.93
359.635	21.06
359.845	20.84
360.054	20.76
360.263	20.17
360.472	20.01
360.682	19.92
360.891	19.65
361.1	19.48
361.309	19.62
361.519	19.54
361.728	19.55
361.937	19.61
362.146	19.5
362.355	19.53
362.564	19.65
362.774	19.96
362.983	19.88
363.192	19.67
363.401	20
363.61	19.93
363.819	20.3
364.028	20.09
364.237	19.5
364.446	19.53
364.655	19.02
364.864	18.94
365.073	19.08
365.282	18.91
365.491	19.42
365.7	19.46
365.909	19.19
366.118	18.83
366.327	19.04
366.536	19.57
366.745	19.46
366.954	19.55
367.162	19.66
367.371	18.87
367.58	18.92
367.789	18.61
367.998	17.75
368.207	17.84
368.415	17.94
368.624	17.86
368.833	17.6
369.042	17.54
369.25	18.02
369.459	17.85
369.668	17.74
369.877	18.12
370.085	18.09
370.294	18.39
370.503	18.04
370.711	17.46
370.92	17.47
371.129	17.57
371.337	16.93
371.546	16.47
371.754	16.39
371.963	16.22
372.171	15.4
372.38	15.41
372.589	15.53
372.797	15.58
373.006	16.05
373.214	15.66
373.423	15.42
373.631	15.93
373.84	15.9
374.048	15.76
374.256	15.77
374.465	16.16
374.673	15.97
374.882	15.62
375.09	15.7
375.298	15.24
375.507	15.48
375.715	15.58
375.923	15.28
376.132	15.03
376.34	14.91
376.548	14.76
376.757	14.63
376.965	14.57
377.173	14.72
377.381	14.69
377.59	14.98
377.798	14.96
378.006	14.57
378.214	15
378.423	15.2
378.631	15.34
378.839	15.64
379.047	15.48
379.255	15.35
379.463	15.17
379.671	15.04
379.879	14.95
380.088	14.63
380.296	14.8
380.504	14.34
380.712	14.54
380.92	14.5
381.128	14.29
381.336	13.97
381.544	13.68
381.752	13.33
381.96	13.24
382.168	13.32
382.376	13.44
382.584	13.1
382.791	13.33
382.999	12.91
383.207	12.57
383.415	12.33
383.623	12.35
383.831	12.53
384.039	12.83
384.247	12.64
384.454	12.17
384.662	11.77
384.87	11.84
385.078	11.3
385.285	11.1
385.493	11.2
385.701	11.23
385.909	11.23
386.116	11.21
386.324	10.97
386.532	11.13
386.739	11.23
386.947	11.12
387.155	11.34
387.362	11.54
387.57	11.83
387.778	11.71
387.985	11.49
388.193	11.32
388.4	10.97
388.608	10.96
388.816	10.66
389.023	10.3
389.231	10.24
389.438	9.74
389.646	9.68
389.853	9.22
390.061	9.09
390.268	9.07
390.475	9.07
390.683	9.33
390.89	9.31
391.098	9.39
391.305	9.64
391.512	9.73
391.72	9.84
391.927	9.57
392.135	9.61
392.342	9.74
392.549	9.74
392.756	9.97
392.964	9.66
393.171	9.73
393.378	9.66
393.586	9.58
393.793	9.44
394	9.32
394.207	9.4
394.414	9.48
394.622	9.34
394.829	9.37
395.036	9.05
395.243	9.07
395.45	8.81
395.657	8.66
395.864	8.73
396.072	8.91
396.279	8.98
396.486	8.82
396.693	8.85
396.9	8.72
397.107	8.51
397.314	8.5
397.521	8.54
397.728	8.39
397.935	8.46
398.142	8.14
398.349	8.1
398.556	7.96
398.763	8.01
398.97	7.79
399.177	7.94
399.383	8.06
399.59	7.98
399.797	7.86
400.004	8
400.211	7.9
400.418	8
400.625	7.63
400.831	7.55
401.038	7.45
401.245	7.49
401.452	7.15
401.658	7.14
401.865	7.18
402.072	7.17
402.279	7.17
402.485	7.13
402.692	6.99
402.899	7.09
403.105	7.13
403.312	7.1
403.519	7.15
403.725	7.2
403.932	7.16
404.138	7.02
404.345	7.01
404.552	6.85
404.758	6.99
404.965	7.16
405.171	7.01
405.378	6.98
405.584	6.96
405.791	6.96
405.997	6.89
406.204	6.89
406.41	7.06
406.617	7.01
406.823	6.96
407.029	6.85
407.236	6.87
407.442	7.18
407.649	7.27
407.855	7.37
408.061	7.36
408.268	7.41
408.474	7.39
408.68	7.15
408.887	7.19
409.093	7.23
409.299	7.23
409.505	7.12
409.712	6.81
409.918	6.77
410.124	6.65
410.33	6.53
410.537	6.47
410.743	6.44
410.949	6.62
411.155	6.55
411.361	6.5
411.567	6.6
411.773	6.4
411.98	6.42
412.186	6.4
412.392	6.18
412.598	6.17
412.804	6.21
413.01	6.09
413.216	6.12
413.422	6.05
413.628	6.16
413.834	5.99
414.04	6.07
414.246	6.07
414.452	6.06
414.658	6.25
414.864	6.2
415.07	6.07
415.275	6.24
415.481	6.14
415.687	6.03
415.893	5.79
416.099	5.73
416.305	5.76
416.511	5.69
416.716	5.63
416.922	5.57
417.128	5.54
417.334	5.58
417.539	5.39
417.745	5.24
417.951	5.33
418.157	5.33
418.362	5.37
418.568	5.28
418.774	5.3
418.979	5.19
419.185	5.23
419.391	5.21
419.596	5.25
419.802	5.24
420.008	5.28
420.213	4.82
420.419	4.94
420.624	4.94
420.83	4.91
421.035	4.99
421.241	4.99
421.446	4.95
421.652	4.91
421.857	4.83
422.063	4.84
422.268	4.86
422.474	5.23
422.679	5.15
422.885	5.1
423.09	5.1
423.295	5.07
423.501	5.11
423.706	5.05
423.911	5.05
424.117	5.06
424.322	5.06
424.527	5.04
424.733	5.06
424.938	5.04
425.143	5.08
425.349	5.18
425.554	5.1
425.759	5.16
425.964	5.2
426.169	5.24
426.375	5.32
426.58	5.33
426.785	5.42
426.99	5.51
427.195	5.51
427.4	5.46
427.605	5.4
427.811	5.49
428.016	5.23
428.221	5.29
428.426	5.27
428.631	5.22
428.836	5.17
429.041	5.04
429.246	4.88
429.451	4.91
429.656	4.94
429.861	4.99
430.066	4.92
430.271	5.08
430.476	5.03
430.681	5.03
430.886	4.91
431.09	4.94
431.295	5.04
431.5	5.15
431.705	5.07
431.91	5.08
432.115	4.93
432.32	5
432.524	5.02
432.729	5.07
432.934	5.1
433.139	5.18
433.343	5.16
433.548	5.12
433.753	5.1
433.958	5.16
434.162	5.15
434.367	5.22
434.572	5.07
434.776	5.06
434.981	4.98
435.186	4.94
435.39	5.01
435.595	5.08
435.799	5.02
436.004	5.07
436.209	5.07
436.413	5.1
436.618	5.04
436.822	5.11
437.027	4.98
437.231	5
437.436	4.98
437.64	4.81
437.845	4.77
438.049	4.8
438.253	4.78
438.458	4.82
438.662	4.73
438.867	4.74
439.071	4.76
439.275	4.78
439.48	4.76
439.684	4.72
439.888	4.72
440.093	4.66
440.297	4.62
440.501	4.56
440.706	4.49
440.91	4.55
441.114	4.52
441.318	4.52
441.523	4.5
441.727	4.46
441.931	4.46
442.135	4.64
442.339	4.7
442.543	4.79
442.748	4.71
442.952	4.67
443.156	4.54
443.36	4.55
443.564	4.49
443.768	4.54
443.972	4.57
444.176	4.64
444.38	4.52
444.584	4.44
444.788	4.37
444.992	4.33
445.196	4.36
445.4	4.35
445.604	4.32
445.808	4.43
446.012	4.43
446.216	4.4
446.42	4.32
446.624	4.4
446.828	4.54
447.032	4.61
447.235	4.64
447.439	4.62
447.643	4.62
447.847	4.73
448.051	4.56
448.254	4.6
448.458	4.67
448.662	4.62
448.866	4.52
449.069	4.31
449.273	4.17
449.477	4.21
449.681	4.31
449.884	4.36
450.088	4.29
450.292	4.33
450.495	4.26
450.699	4.18
450.902	4.24
451.106	4.26
451.31	4.37
451.513	4.35
451.717	4.39
451.92	4.36
452.124	4.35
452.327	4.36
452.531	4.42
452.734	4.36
452.938	4.28
453.141	4.3
453.345	4.34
453.548	4.33
453.752	4.51
453.955	4.59
454.158	4.59
454.362	4.54
454.565	4.53
454.769	4.42
454.972	4.56
455.175	4.69
455.379	4.75
455.582	4.66
455.785	4.61
455.988	4.48
456.192	4.36
456.395	4.29
456.598	4.3
456.801	4.28
457.005	4.41
457.208	4.42
457.411	4.38
457.614	4.31
457.817	4.29
458.021	4.26
458.224	4.23
458.427	4.31
458.63	4.27
458.833	4.33
459.036	4.28
459.239	4.17
