Data from 2938465_Reflection_2.txt Node
Date: Wed Jun 17 13:51:53 EDT 2015
User: robert
Spectrometer: USB4E03002
Autoset integration time: false
Trigger mode: 4
Integration Time (sec): 1.000000E-1
Scans to average: 10
Electric dark correction enabled: true
Nonlinearity correction enabled: false
Boxcar width: 5
Stray light correction enabled: false
XAxis mode: Wavelengths
Stop averaging: false
Number of Pixels in Spectrum: 3648
>>>>>Begin Spectral Data<<<<<
177.575	3.32
177.794	-11.87
178.014	25.86
178.233	-24.63
178.452	35.54
178.672	13.58
178.891	64.78
179.11	99.12
179.33	57.81
179.549	-24.69
179.768	41.19
179.987	-23.45
180.207	-409.17
180.426	-48.28
180.645	44.17
180.864	80.91
181.084	92.96
181.303	113.45
181.522	124.02
181.741	169.47
181.96	91.77
182.179	155.51
182.398	98.7
182.618	70.4
182.837	83.67
183.056	317.63
183.275	133.63
183.494	179.85
183.713	165.86
183.932	778.21
184.151	208.48
184.37	174.52
184.589	91.53
184.808	88.58
185.027	136.2
185.246	145.71
185.465	141.36
185.684	150.71
185.903	150.67
186.122	133.72
186.341	111.58
186.56	103.96
186.779	118.65
186.998	132.83
187.216	111.5
187.435	115.11
187.654	99.96
187.873	80.29
188.092	80.14
188.311	77.08
188.53	72.25
188.748	59.43
188.967	90.67
189.186	135.38
189.405	153.74
189.623	135.26
189.842	200
190.061	-1786.4
190.28	-102.5
190.498	-88.1
190.717	-653.26
190.936	-289.22
191.154	-246.25
191.373	-190.54
191.592	-428.5
191.81	123.5
192.029	-246.83
192.248	175.39
192.466	194.02
192.685	77.29
192.904	98.86
193.122	99.23
193.341	77.96
193.559	100.4
193.778	90.03
193.996	132.69
194.215	177.21
194.433	129.2
194.652	139.34
194.87	109.12
195.089	143.26
195.307	150.7
195.526	242.54
195.744	225.28
195.963	176.18
196.181	177.5
196.399	130.49
196.618	103.55
196.836	114.85
197.055	78.5
197.273	71.64
197.491	57.82
197.71	50.45
197.928	42.39
198.146	44.98
198.365	24.75
198.583	25.79
198.801	10.34
199.019	27.35
199.238	25.1
199.456	31.77
199.674	25.59
199.892	43.38
200.111	45.21
200.329	89.96
200.547	92.05
200.765	111.14
200.983	124.6
201.202	141.4
201.42	125.62
201.638	129.4
201.856	133.63
202.074	131.49
202.292	113.37
202.51	121.21
202.728	109.8
202.946	109.06
203.165	96.81
203.383	78.66
203.601	89.82
203.819	86.69
204.037	89.52
204.255	73.85
204.473	72.06
204.691	86.74
204.909	83.97
205.127	60.39
205.345	59.38
205.562	64.24
205.78	81.29
205.998	89.09
206.216	98.3
206.434	85.97
206.652	99.86
206.87	89.25
207.088	100.65
207.306	95.45
207.523	109.18
207.741	103.8
207.959	95.31
208.177	86.24
208.395	67.36
208.612	45.2
208.83	59.25
209.048	41.34
209.266	46.33
209.483	36.86
209.701	38.53
209.919	40.46
210.136	43.68
210.354	35.08
210.572	36.03
210.79	41.01
211.007	56.85
211.225	43.42
211.442	57.54
211.66	63.68
211.878	63.83
212.095	52.23
212.313	54.17
212.53	54.11
212.748	78.23
212.966	63.77
213.183	41.15
213.401	31.26
213.618	42.09
213.836	46.51
214.053	38.39
214.271	40.85
214.488	40.88
214.705	34.96
214.923	23.66
215.14	9.29
215.358	29.94
215.575	45.54
215.793	61.46
216.01	55.77
216.227	59.04
216.445	62.81
216.662	64.51
216.879	73.51
217.097	72.37
217.314	82.14
217.531	82.34
217.749	84.6
217.966	71.74
218.183	42.69
218.4	27.9
218.618	6.63
218.835	-21.57
219.052	-18.71
219.269	-43.27
219.487	-29.9
219.704	-16.96
219.921	-1.86
220.138	-14.42
220.355	-15.42
220.572	4.19
220.79	21.05
221.007	34.14
221.224	27.74
221.441	21.79
221.658	22.6
221.875	29.02
222.092	20.74
222.309	24.52
222.526	29.57
222.743	27.38
222.96	22.14
223.177	19.75
223.394	13.01
223.611	16.89
223.828	18.49
224.045	17.24
224.262	9
224.479	7.04
224.696	10.54
224.913	11.63
225.13	13.37
225.347	13.25
225.564	11.93
225.781	11
225.997	10.98
226.214	11.67
226.431	11.02
226.648	11.1
226.865	11.8
227.082	11.46
227.298	11.89
227.515	11.58
227.732	11.46
227.949	11.71
228.165	12.71
228.382	12.05
228.599	11
228.816	10.76
229.032	11.25
229.249	11.76
229.466	11.83
229.682	11.28
229.899	12.64
230.116	14.05
230.332	14.1
230.549	15.3
230.765	17.68
230.982	18.54
231.199	20.99
231.415	19.93
231.632	21.97
231.848	20.82
232.065	18.54
232.281	17.76
232.498	16.15
232.714	15.15
232.931	13.76
233.147	13.44
233.364	10.95
233.58	12.39
233.797	14.37
234.013	12.59
234.23	13.12
234.446	14.76
234.662	14.58
234.879	13.63
235.095	14.63
235.312	15.31
235.528	14.6
235.744	15.82
235.961	11.9
236.177	11.08
236.393	10.59
236.61	10.84
236.826	11.08
237.042	10.98
237.258	13.5
237.475	12.94
237.691	12.02
237.907	9.62
238.123	10.97
238.339	11.34
238.556	12.24
238.772	12.79
238.988	11.99
239.204	10.9
239.42	11.13
239.636	10.56
239.853	11.04
240.069	11.49
240.285	11.93
240.501	11.27
240.717	10.98
240.933	10.41
241.149	10.2
241.365	10.74
241.581	11.47
241.797	11.23
242.013	11.05
242.229	11.29
242.445	11.14
242.661	11.59
242.877	12.33
243.093	12.39
243.309	12.2
243.525	11.38
243.741	10.37
243.957	9.76
244.173	9.53
244.388	9.78
244.604	9.5
244.82	9.24
245.036	9.5
245.252	8.77
245.468	8.16
245.683	8.5
245.899	9.03
246.115	9.14
246.331	8.78
246.547	8.96
246.762	8.36
246.978	7.94
247.194	8.21
247.409	8.03
247.625	8.33
247.841	9.17
248.057	8.68
248.272	8.29
248.488	8.26
248.703	8.6
248.919	7.94
249.135	7.83
249.35	8.86
249.566	8.38
249.782	8.15
249.997	8.93
250.213	8.74
250.428	8.44
250.644	8.4
250.859	8.39
251.075	8.66
251.29	8.85
251.506	9.63
251.721	9.2
251.937	9.11
252.152	9.64
252.368	9.66
252.583	10.51
252.798	10.74
253.014	10.6
253.229	10.86
253.445	10.46
253.66	11.45
253.875	10.65
254.091	10.71
254.306	9.54
254.521	8.41
254.737	6.84
254.952	6.18
255.167	6.3
255.383	6.26
255.598	5.81
255.813	6.39
256.028	5.81
256.244	5.61
256.459	5.05
256.674	5.46
256.889	5.82
257.104	5.24
257.32	5.76
257.535	5.98
257.75	6.21
257.965	6.17
258.18	5.98
258.395	6
258.61	6.31
258.826	6.76
259.041	6.6
259.256	6.6
259.471	7.15
259.686	7.03
259.901	7.33
260.116	7.55
260.331	7.93
260.546	7.69
260.761	7.56
260.976	7.64
261.191	7.26
261.406	7.84
261.621	7.01
261.836	7.1
262.05	6.67
262.265	6.3
262.48	5.36
262.695	4.73
262.91	5.66
263.125	5.54
263.34	5.28
263.555	5.64
263.769	5.73
263.984	6.69
264.199	7.25
264.414	7.44
264.629	7.39
264.843	7.38
265.058	6.7
265.273	6.56
265.488	7
265.702	6.97
265.917	6.46
266.132	6.44
266.346	6.34
266.561	6.25
266.776	6.52
266.99	6.4
267.205	6.27
267.42	6.52
267.634	6.8
267.849	6.68
268.063	7.07
268.278	8.04
268.492	7.98
268.707	7.7
268.922	7.42
269.136	6.71
269.351	7.11
269.565	7.77
269.78	7.6
269.994	7.19
270.209	7.23
270.423	6.86
270.637	6.09
270.852	6.17
271.066	6.61
271.281	6.65
271.495	6.78
271.709	6.55
271.924	5.96
272.138	6
272.353	6.01
272.567	6.05
272.781	6.01
272.996	5.9
273.21	5.89
273.424	5.44
273.638	5.24
273.853	5.48
274.067	5.1
274.281	5.77
274.495	6.09
274.71	6.18
274.924	5.92
275.138	5.74
275.352	5.87
275.566	5.45
275.781	5.94
275.995	6.87
276.209	6.95
276.423	6.75
276.637	6.27
276.851	5.69
277.065	5.55
277.279	6.12
277.493	6.14
277.707	6.18
277.921	6.37
278.135	5.67
278.349	4.69
278.563	4.53
278.777	4.5
278.991	4.68
279.205	5.38
279.419	5.38
279.633	4.94
279.847	5.33
280.061	5.02
280.275	5.36
280.489	5.58
280.703	5.56
280.917	5.3
281.131	5.95
281.344	5.52
281.558	5.42
281.772	5.74
281.986	5.7
282.2	5.98
282.414	6.03
282.627	5.46
282.841	5.41
283.055	5.76
283.269	5.79
283.482	5.49
283.696	5.68
283.91	5.94
284.123	5.53
284.337	5.33
284.551	5
284.764	5.4
284.978	5.5
285.192	5.97
285.405	5.94
285.619	6.22
285.833	6.16
286.046	5.97
286.26	6.19
286.473	6.49
286.687	6.78
286.9	7.03
287.114	6.65
287.327	6.77
287.541	6.15
287.754	6.02
287.968	5.77
288.181	5.49
288.395	6.23
288.608	5.73
288.822	5.21
289.035	5.01
289.248	4.76
289.462	5.11
289.675	5.07
289.889	5.01
290.102	4.91
290.315	4.82
290.529	5.05
290.742	4.43
290.955	5.2
291.169	5.54
291.382	6.18
291.595	6.23
291.808	6.31
292.022	6.37
292.235	6.04
292.448	6.45
292.661	6.77
292.875	6.85
293.088	6.87
293.301	6.3
293.514	6.61
293.727	6.4
293.94	6.49
294.153	6.41
294.367	6.27
294.58	6.53
294.793	6.24
295.006	6.28
295.219	6.54
295.432	6.62
295.645	6.79
295.858	6.63
296.071	6.32
296.284	6.24
296.497	6.15
296.71	6.33
296.923	6.7
297.136	6.4
297.349	6.36
297.562	6
297.775	5.84
297.988	5.6
298.201	5.45
298.414	5.61
298.626	5.71
298.839	5.75
299.052	5.42
299.265	4.92
299.478	5.24
299.691	5.66
299.903	5.9
300.116	6.19
300.329	5.7
300.542	5.64
300.755	5.57
300.967	5.7
301.18	5.61
301.393	5.9
301.605	5.92
301.818	5.62
302.031	5.24
302.243	5
302.456	5
302.669	5.2
302.881	5.17
303.094	5.23
303.307	5.22
303.519	5.55
303.732	5.83
303.944	5.87
304.157	6.16
304.37	5.96
304.582	6.25
304.795	6.45
305.007	7.03
305.22	7.32
305.432	7.39
305.645	6.81
305.857	6.69
306.069	6.38
306.282	6.85
306.494	6.92
306.707	7.15
306.919	6.65
307.132	6.3
307.344	6
307.556	6.27
307.769	6.51
307.981	6.65
308.193	6.6
308.406	6.46
308.618	6.26
308.83	6.13
309.043	5.82
309.255	6.33
309.467	6.24
309.679	6.31
309.892	6.28
310.104	5.89
310.316	5.93
310.528	5.68
310.74	5.41
310.953	5.42
311.165	5.32
311.377	5.42
311.589	5.09
311.801	5.52
312.013	5.16
312.225	4.67
312.437	5.17
312.649	5.54
312.862	5.44
313.074	6
313.286	5.97
313.498	6.45
313.71	7.26
313.922	7.23
314.134	7.09
314.346	7.3
314.558	7.93
314.77	7.54
314.982	6.97
315.193	7.47
315.405	7.3
315.617	7.16
315.829	7.23
316.041	6.47
316.253	6.59
316.465	6.87
316.677	6.81
316.888	6.57
317.1	6.9
317.312	7.53
317.524	7.65
317.736	7.94
317.947	7.91
318.159	7.98
318.371	8.14
318.583	8.64
318.794	7.83
319.006	8.27
319.218	8.06
319.43	7.92
319.641	7.7
319.853	7.36
320.064	7.31
320.276	7.63
320.488	7.13
320.699	7.43
320.911	6.96
321.123	7.47
321.334	7.56
321.546	8.14
321.757	7.96
321.969	8.22
322.18	8.19
322.392	8.15
322.603	8.02
322.815	8.58
323.026	8.52
323.238	8.75
323.449	8.45
323.661	7.91
323.872	7.61
324.083	8
324.295	8.02
324.506	7.89
324.718	7.96
324.929	8.33
325.14	8.12
325.352	8.2
325.563	7.98
325.774	7.93
325.986	8.71
326.197	8.27
326.408	8.17
326.62	7.87
326.831	8.27
327.042	8.09
327.253	7.63
327.464	7.28
327.676	7.3
327.887	7.09
328.098	7.36
328.309	6.82
328.52	6.93
328.732	6.96
328.943	7.11
329.154	6.72
329.365	6.84
329.576	6.73
329.787	7.32
329.998	7.31
330.209	7.73
330.42	7.46
330.631	7.39
330.842	8.08
331.053	7.91
331.264	7.76
331.475	7.75
331.686	8.13
331.897	7.91
332.108	7.52
332.319	7.68
332.53	7.46
332.741	7.88
332.952	7.94
333.163	7.86
333.374	7.75
333.585	7.94
333.795	8.16
334.006	8.12
334.217	8.48
334.428	8.59
334.639	8.13
334.849	8.17
335.06	7.84
335.271	7.58
335.482	7.21
335.692	7.5
335.903	7.17
336.114	7.14
336.325	7.18
336.535	6.94
336.746	7.28
336.957	7.36
337.167	7.78
337.378	7.98
337.589	8.38
337.799	8.39
338.01	8.44
338.22	8.93
338.431	8.92
338.642	8.73
338.852	9.18
339.063	8.93
339.273	9.24
339.484	8.52
339.694	7.98
339.905	7.9
340.115	8.3
340.326	8.35
340.536	8.38
340.746	8.17
340.957	8.15
341.167	8.04
341.378	7.88
341.588	7.72
341.799	8.33
342.009	8.59
342.219	8.44
342.43	8.23
342.64	7.86
342.85	7.47
343.061	7.61
343.271	7.44
343.481	7.48
343.691	7.25
343.902	6.83
344.112	6.24
344.322	6.23
344.532	6.03
344.743	5.71
344.953	5.89
345.163	6.18
345.373	6.17
345.583	6.2
345.793	6.15
346.004	6.43
346.214	6.7
346.424	7.25
346.634	7.27
346.844	7.79
347.054	7.97
347.264	8.05
347.474	7.9
347.684	7.79
347.894	8.03
348.104	8.12
348.314	7.68
348.524	7.61
348.734	7.47
348.944	7.59
349.154	7.49
349.364	7.09
349.574	6.51
349.784	6.26
349.994	6.31
350.204	6.06
350.413	6.3
350.623	6.57
350.833	7.04
351.043	6.88
351.253	6.86
351.463	6.36
351.672	6.51
351.882	6.68
352.092	6.71
352.302	6.8
352.511	6.86
352.721	6.55
352.931	6.42
353.141	5.95
353.35	6.14
353.56	6.16
353.77	6.08
353.979	6.28
354.189	6.14
354.399	6.25
354.608	5.97
354.818	5.72
355.027	5.65
355.237	5.66
355.447	5.65
355.656	5.53
355.866	5.4
356.075	5.87
356.285	5.67
356.494	5.85
356.704	5.88
356.913	5.7
357.123	5.96
357.332	5.92
357.542	5.98
357.751	5.96
357.96	5.79
358.17	6.02
358.379	5.76
358.589	5.94
358.798	5.93
359.007	5.45
359.217	5.73
359.426	5.42
359.635	5.3
359.845	5.42
360.054	5.4
360.263	5.32
360.472	5.14
360.682	5.24
360.891	5.32
361.1	5.57
361.309	5.89
361.519	5.89
361.728	6.06
361.937	6.31
362.146	6.35
362.355	6.37
362.564	6.45
362.774	6.53
362.983	6.4
363.192	6.2
363.401	5.99
363.61	5.81
363.819	5.97
364.028	5.94
364.237	5.66
364.446	5.48
364.655	5.24
364.864	5.48
365.073	5.43
365.282	5.41
365.491	5.33
365.7	5.43
365.909	5.49
366.118	5.56
366.327	5.6
366.536	5.66
366.745	5.8
366.954	5.99
367.162	5.66
367.371	5.77
367.58	5.88
367.789	5.91
367.998	5.45
368.207	5.6
368.415	5.38
368.624	5.49
368.833	5.53
369.042	5.38
369.25	5.54
369.459	5.77
369.668	5.47
369.877	5.5
370.085	5.53
370.294	5.56
370.503	5.36
370.711	5.49
370.92	5.25
371.129	5.32
371.337	5.35
371.546	5.21
371.754	5.16
371.963	5.2
372.171	5
372.38	5.19
372.589	5.42
372.797	5.52
373.006	5.08
373.214	5.24
373.423	5.25
373.631	5.12
373.84	5.08
374.048	5.08
374.256	5.27
374.465	5.47
374.673	5.25
374.882	4.96
375.09	4.81
375.298	4.95
375.507	5
375.715	4.94
375.923	4.99
376.132	4.94
376.34	4.88
376.548	4.8
376.757	4.62
376.965	4.86
377.173	5.05
377.381	5.26
377.59	5.32
377.798	5.24
378.006	5.24
378.214	5.28
378.423	5.34
378.631	5.26
378.839	5.08
379.047	5.1
379.255	5.02
379.463	5.04
379.671	4.92
379.879	4.79
380.088	4.69
380.296	4.44
380.504	4.53
380.712	4.75
380.92	4.65
381.128	4.81
381.336	4.77
381.544	4.45
381.752	4.39
381.96	4.15
382.168	4.22
382.376	4.34
382.584	4.58
382.791	4.46
382.999	4.47
383.207	4.48
383.415	4.58
383.623	4.73
383.831	5.02
384.039	4.97
384.247	5.27
384.454	5.17
384.662	5.1
384.87	5.19
385.078	5.21
385.285	4.83
385.493	5
385.701	4.66
385.909	4.73
386.116	4.63
386.324	4.49
386.532	4.21
386.739	4.28
386.947	4.31
387.155	4.11
387.362	4.13
387.57	4.22
387.778	4.19
387.985	4.34
388.193	4.05
388.4	3.99
388.608	4.25
388.816	4.27
389.023	4.32
389.231	4.21
389.438	4.2
389.646	4.17
389.853	4.17
390.061	4.07
390.268	4.05
390.475	4.06
390.683	4.17
390.89	4.16
391.098	4.25
391.305	4.33
391.512	4.37
391.72	4.49
391.927	4.4
392.135	4.38
392.342	4.38
392.549	4.43
392.756	4.61
392.964	4.56
393.171	4.44
393.378	4.28
393.586	4.3
393.793	4.45
394	4.25
394.207	4.32
394.414	4.39
394.622	4.37
394.829	4.49
395.036	4.49
395.243	4.23
395.45	4.31
395.657	4.4
395.864	4.18
396.072	4.07
396.279	4.1
396.486	3.92
396.693	3.94
396.9	3.93
397.107	3.77
397.314	3.97
397.521	4.21
397.728	4.33
397.935	4.76
398.142	4.76
398.349	4.57
398.556	4.77
398.763	4.93
398.97	5
399.177	5.22
399.383	5.23
399.59	4.92
399.797	4.8
400.004	4.64
400.211	4.21
400.418	4.14
400.625	4.29
400.831	4
401.038	3.79
401.245	3.75
401.452	3.59
401.658	3.35
401.865	3.47
402.072	3.49
402.279	3.54
402.485	3.58
402.692	3.62
402.899	3.56
403.105	3.61
403.312	3.59
403.519	3.54
403.725	3.45
403.932	3.71
404.138	3.61
404.345	3.62
404.552	3.53
404.758	3.64
404.965	3.63
405.171	3.79
405.378	3.95
405.584	4.1
405.791	4.09
405.997	4.44
406.204	4.57
406.41	4.56
406.617	4.55
406.823	4.69
407.029	4.71
407.236	4.83
407.442	4.71
407.649	4.73
407.855	4.6
408.061	4.54
408.268	4.31
408.474	4.03
408.68	4.09
408.887	4.19
409.093	4
409.299	4
409.505	4.05
409.712	4.02
409.918	3.93
410.124	4.04
410.33	4.06
410.537	3.96
410.743	3.94
410.949	3.95
411.155	3.97
411.361	3.99
411.567	4.01
411.773	3.85
411.98	3.92
412.186	3.75
412.392	3.72
412.598	3.79
412.804	3.58
413.01	3.6
413.216	3.53
413.422	3.62
413.628	3.49
413.834	3.35
414.04	3.34
414.246	3.15
414.452	3.26
414.658	3.19
414.864	3.1
415.07	3.3
415.275	3.36
415.481	3.31
415.687	3.2
415.893	3.39
416.099	3.29
416.305	3.2
416.511	3.41
416.716	3.4
416.922	3.48
417.128	3.58
417.334	3.61
417.539	3.58
417.745	3.53
417.951	3.44
418.157	3.38
418.362	3.39
418.568	3.43
418.774	3.32
418.979	3.37
419.185	3.36
419.391	3.33
419.596	3.3
419.802	3.27
420.008	3.32
420.213	3.96
420.419	3.99
420.624	4
420.83	3.92
421.035	3.9
421.241	3.91
421.446	3.88
421.652	3.79
421.857	3.73
422.063	3.7
422.268	3.65
422.474	3.09
422.679	3.12
422.885	3.13
423.09	3.15
423.295	3.13
423.501	3.01
423.706	3.03
423.911	3.12
424.117	3.24
424.322	3.25
424.527	3.36
424.733	3.33
424.938	3.3
425.143	3.32
425.349	3.41
425.554	3.45
425.759	3.46
425.964	3.35
426.169	3.28
426.375	3.14
426.58	3.24
426.785	3.19
426.99	3.24
427.195	3.25
427.4	3.17
427.605	3.13
427.811	3.06
428.016	3.1
428.221	3.14
428.426	3.09
428.631	3.12
428.836	3.22
429.041	3.1
429.246	3.01
429.451	3
429.656	3.11
429.861	3.14
430.066	3.31
430.271	3.34
430.476	3.36
430.681	3.42
430.886	3.41
431.09	3.32
431.295	3.34
431.5	3.32
431.705	3.27
431.91	3.32
432.115	3.28
432.32	3.1
432.524	3.03
432.729	3.05
432.934	3.07
433.139	3.09
433.343	3.12
433.548	3.26
433.753	3.19
433.958	3.14
434.162	2.93
434.367	2.93
434.572	3.02
434.776	3.07
434.981	3.01
435.186	2.91
435.39	2.91
435.595	2.88
435.799	2.76
436.004	2.88
436.209	2.84
436.413	2.94
436.618	2.89
436.822	2.9
437.027	2.85
437.231	2.98
437.436	2.98
437.64	3.06
437.845	2.97
438.049	3.04
438.253	3.05
438.458	3.05
438.662	3.06
438.867	3.18
439.071	3.17
439.275	3.27
439.48	3.17
439.684	3.17
439.888	3.06
440.093	3.18
440.297	3.04
440.501	2.98
440.706	3.03
440.91	3.06
441.114	3.01
441.318	2.99
441.523	2.89
441.727	3.08
441.931	3.22
442.135	3.28
442.339	3.22
442.543	3.33
442.748	3.38
442.952	3.4
443.156	3.35
443.36	3.3
443.564	3.36
443.768	3.46
443.972	3.28
444.176	3.15
444.38	3.11
444.584	3
444.788	2.97
444.992	2.95
445.196	2.97
445.4	2.99
445.604	2.93
445.808	2.91
446.012	2.86
446.216	2.86
446.42	2.9
446.624	2.94
446.828	3.02
447.032	3
447.235	3
447.439	3.03
447.643	3.02
447.847	3.09
448.051	3.06
448.254	3.04
448.458	3.1
448.662	3.16
448.866	3.08
449.069	3.01
449.273	3.01
449.477	3.02
449.681	2.93
449.884	2.89
450.088	2.96
450.292	3.04
450.495	2.92
450.699	2.94
450.902	2.86
451.106	2.83
451.31	2.85
451.513	2.94
451.717	2.92
451.92	2.87
452.124	2.85
452.327	2.85
452.531	2.8
452.734	2.88
452.938	2.82
453.141	2.87
453.345	2.95
453.548	2.91
453.752	2.91
453.955	2.94
454.158	2.94
454.362	3.01
454.565	3.07
454.769	3.11
454.972	3.23
455.175	3.32
455.379	3.24
455.582	3.35
455.785	3.43
455.988	3.37
456.192	3.23
456.395	3.31
456.598	3.32
456.801	3.21
457.005	3.12
457.208	3
457.411	2.93
457.614	2.9
457.817	2.88
458.021	2.85
458.224	2.91
458.427	2.88
458.63	2.9
458.833	2.83
459.036	2.84
459.239	2.84
459.442	2.87
459.645	2.88
459.848	2.86
460.051	2.81
460.254	2.86
460.457	2.76
460.66	2.86
460.863	2.85
461.066	2.9
461.269	2.89
461.472	2.93
461.675	2.91
461.878	2.88
462.081	3.01
462.284	3.05
462.486	2.95
462.689	3
462.892	2.99
463.095	2.95
463.298	2.94
463.5	2.99
463.703	2.97
463.906	3.02
464.109	3.04
464.311	3.02
464.514	3.02
464.717	3.16
464.92	3.12
465.122	3.2
465.325	3.23
465.528	3.28
465.73	3.3
465.933	3.32
466.135	3.33
466.338	3.28
466.541	3.23
466.743	3.18
466.946	3.13
467.148	3.12
467.351	3.02
467.553	3
467.756	2.96
467.958	2.92
468.161	2.97
468.363	2.91
468.566	2.94
468.768	2.99
468.971	2.97
469.173	2.95
469.375	2.91
469.578	2.85
469.78	2.91
469.983	2.99
470.185	2.97
470.387	2.92
470.59	2.96
470.792	2.91
470.994	2.87
471.196	2.91
471.399	2.86
