Data from 2938522_Reflection_2.txt Node
Date: Tue Jun 16 22:14:07 EDT 2015
User: robert
Spectrometer: USB4E03002
Autoset integration time: false
Trigger mode: 4
Integration Time (sec): 1.000000E-1
Scans to average: 10
Electric dark correction enabled: true
Nonlinearity correction enabled: false
Boxcar width: 5
Stray light correction enabled: false
XAxis mode: Wavelengths
Stop averaging: false
Number of Pixels in Spectrum: 3648
>>>>>Begin Spectral Data<<<<<
177.575	23.8
177.794	-4.69
178.014	1.68
178.233	-3.22
178.452	-40.77
178.672	2.16
178.891	38.58
179.11	479.34
179.33	978.53
179.549	188.82
179.768	71.55
179.987	-75.27
180.207	-2.3
180.426	-11.05
180.645	23.08
180.864	24.61
181.084	-18.38
181.303	-11.74
181.522	4.96
181.741	7.31
181.96	2.34
182.179	8.43
182.398	20.92
182.618	14.96
182.837	18.13
183.056	11.18
183.275	19.31
183.494	34.33
183.713	44.12
183.932	48.77
184.151	38.53
184.37	49.99
184.589	47.17
184.808	40.45
185.027	59.5
185.246	59.24
185.465	66.03
185.684	68.43
185.903	77.86
186.122	54.45
186.341	33.24
186.56	57.63
186.779	48.79
186.998	49.66
187.216	92.11
187.435	77.93
187.654	119.33
187.873	102.91
188.092	141.89
188.311	46.13
188.53	57.84
188.748	-96.11
188.967	-1831.25
189.186	109.77
189.405	43.96
189.623	37.47
189.842	55.91
190.061	31.54
190.28	44.44
190.498	39.89
190.717	40.9
190.936	40.12
191.154	30.08
191.373	29.83
191.592	23.67
191.81	26.56
192.029	31.75
192.248	31.65
192.466	63.94
192.685	58.51
192.904	62.54
193.122	66.81
193.341	85.96
193.559	72.28
193.778	85.28
193.996	122.43
194.215	134.37
194.433	116.08
194.652	113.73
194.87	102.13
195.089	96.32
195.307	89.53
195.526	96.54
195.744	73.33
195.963	93.97
196.181	73.69
196.399	72.61
196.618	57.02
196.836	50.05
197.055	47.27
197.273	56.14
197.491	54.24
197.71	67.9
197.928	58.86
198.146	66.5
198.365	51.09
198.583	61.04
198.801	49.57
199.019	65.18
199.238	90.08
199.456	83.89
199.674	72.57
199.892	69.31
200.111	64.76
200.329	56.34
200.547	28.91
200.765	33.67
200.983	39.04
201.202	42.66
201.42	35.88
201.638	27.15
201.856	46.6
202.074	49.95
202.292	26.28
202.51	31.65
202.728	60.18
202.946	95.66
203.165	95.89
203.383	100.1
203.601	112.02
203.819	87.62
204.037	62.61
204.255	38.05
204.473	20.07
204.691	43.48
204.909	33.34
205.127	7.73
205.345	7.65
205.562	15.01
205.78	17.64
205.998	23.12
206.216	29.92
206.434	47.71
206.652	59.66
206.87	67.91
207.088	79.27
207.306	88.51
207.523	88.21
207.741	91.31
207.959	97.77
208.177	94.93
208.395	95.45
208.612	109.16
208.83	97.34
209.048	84.85
209.266	75.17
209.483	60.84
209.701	48.09
209.919	56.07
210.136	57.5
210.354	45.4
210.572	52.38
210.79	58.83
211.007	51.32
211.225	62.99
211.442	63.21
211.66	76.11
211.878	82.86
212.095	154.55
212.313	145.63
212.53	160.83
212.748	151.31
212.966	133.09
213.183	128.96
213.401	125.97
213.618	118.66
213.836	116.95
214.053	94.02
214.271	97.13
214.488	17.07
214.705	33.58
214.923	26.03
215.14	28.45
215.358	24.1
215.575	4.92
215.793	7.53
216.01	-3.32
216.227	16.25
216.445	25.43
216.662	25.84
216.879	28.58
217.097	27.32
217.314	30.37
217.531	32.65
217.749	32
217.966	41.71
218.183	46.55
218.4	44.68
218.618	40.41
218.835	37.02
219.052	41.76
219.269	39.58
219.487	35.35
219.704	44.77
219.921	40.73
220.138	48.4
220.355	47.05
220.572	46.61
220.79	44.71
221.007	47.2
221.224	43.76
221.441	34.1
221.658	35.88
221.875	35.39
222.092	20.59
222.309	24.15
222.526	16.54
222.743	14.05
222.96	13.88
223.177	18.44
223.394	16.33
223.611	17.57
223.828	21.99
224.045	22.94
224.262	30.4
224.479	31.01
224.696	28.04
224.913	27.92
225.13	26.61
225.347	25.94
225.564	21.69
225.781	19.85
225.997	19.19
226.214	19.39
226.431	17.22
226.648	12.56
226.865	12.16
227.082	11.18
227.298	9.77
227.515	9.16
227.732	9.43
227.949	9.79
228.165	9.56
228.382	8.97
228.599	8.4
228.816	8.52
229.032	8.61
229.249	8.22
229.466	8.68
229.682	10.7
229.899	12.14
230.116	10.6
230.332	10.95
230.549	10.96
230.765	10.74
230.982	9.89
231.199	9.9
231.415	11.36
231.632	12.75
231.848	12.42
232.065	9.79
232.281	9.41
232.498	9.21
232.714	9.53
232.931	10.39
233.147	12.19
233.364	13.26
233.58	12.07
233.797	11.34
234.013	10.48
234.23	11.11
234.446	11.51
234.662	10.72
234.879	12.46
235.095	12.22
235.312	13.1
235.528	13.73
235.744	12.25
235.961	11.77
236.177	12.22
236.393	12.13
236.61	11.24
236.826	13.52
237.042	14.26
237.258	15.42
237.475	16.26
237.691	15.33
237.907	14.24
238.123	15.16
238.339	17.02
238.556	16.62
238.772	16.97
238.988	16.87
239.204	15.22
239.42	14.1
239.636	13.4
239.853	12.7
240.069	11.74
240.285	11.27
240.501	9.9
240.717	8.89
240.933	8.18
241.149	7.4
241.365	7.37
241.581	7.44
241.797	7.72
242.013	7.02
242.229	6.94
242.445	7.43
242.661	7.4
242.877	8.47
243.093	8.66
243.309	8.83
243.525	8.82
243.741	8.5
243.957	8.7
244.173	8.28
244.388	8.7
244.604	8.18
244.82	7.75
245.036	7.27
245.252	7.18
245.468	7.07
245.683	7.39
245.899	7.56
246.115	7.8
246.331	7.42
246.547	7.31
246.762	7.48
246.978	7.95
247.194	8.06
247.409	8.6
247.625	8.98
247.841	9.08
248.057	8.8
248.272	8.6
248.488	8.77
248.703	8.66
248.919	8.42
249.135	6.94
249.35	6.32
249.566	5.71
249.782	5.66
249.997	5.61
250.213	5.66
250.428	5.61
250.644	5.82
250.859	5.27
251.075	5.79
251.29	6.19
251.506	6.48
251.721	6.17
251.937	6.71
252.152	6.3
252.368	6.11
252.583	6.38
252.798	6.97
253.014	7.24
253.229	6.5
253.445	7.18
253.66	7.95
253.875	7.76
254.091	7.97
254.306	7.37
254.521	7.57
254.737	6.87
254.952	5.87
255.167	5.32
255.383	5.6
255.598	5.92
255.813	5.39
256.028	5.47
256.244	5.85
256.459	5.79
256.674	5.61
256.889	5.7
257.104	5.87
257.32	6.29
257.535	6.23
257.75	5.85
257.965	5.84
258.18	6.13
258.395	6.23
258.61	6.02
258.826	6.16
259.041	6.62
259.256	6.83
259.471	6.78
259.686	7.15
259.901	7.18
260.116	7.44
260.331	7.34
260.546	7.01
260.761	6.59
260.976	6.69
261.191	6.71
261.406	6.64
261.621	5.78
261.836	5.28
262.05	4.94
262.265	4.82
262.48	5.24
262.695	5.34
262.91	5.38
263.125	5.32
263.34	5.77
263.555	5.6
263.769	5.29
263.984	5.93
264.199	6.2
264.414	5.4
264.629	6.09
264.843	6.04
265.058	6.1
265.273	5.84
265.488	5.8
265.702	5.54
265.917	6.08
266.132	6.2
266.346	6.12
266.561	6.5
266.776	6.71
266.99	6.32
267.205	5.87
267.42	6.3
267.634	6.59
267.849	7.22
268.063	7.72
268.278	7.52
268.492	7.31
268.707	7.85
268.922	7.58
269.136	7.49
269.351	7.24
269.565	6.7
269.78	6.28
269.994	5.98
270.209	5.66
270.423	5.35
270.637	5.03
270.852	4.8
271.066	4.53
271.281	4.7
271.495	4.83
271.709	5.42
271.924	5.36
272.138	5.69
272.353	5.83
272.567	5.72
272.781	5.29
272.996	5.71
273.21	5.97
273.424	5.86
273.638	5.51
273.853	5.75
274.067	5.55
274.281	6.4
274.495	6.66
274.71	6.73
274.924	6.34
275.138	6.88
275.352	6.06
275.566	5.94
275.781	5.74
275.995	5.87
276.209	5.33
276.423	4.99
276.637	4.87
276.851	3.97
277.065	3.95
277.279	4.41
277.493	4.81
277.707	5.34
277.921	5.11
278.135	4.88
278.349	5.03
278.563	5.31
278.777	5.44
278.991	5.52
279.205	5.81
279.419	5.94
279.633	6.21
279.847	6.05
280.061	5.96
280.275	6.27
280.489	6.34
280.703	6.2
280.917	6.14
281.131	6
281.344	6.27
281.558	6.38
281.772	6.39
281.986	5.82
282.2	5.67
282.414	5.37
282.627	5.47
282.841	5.92
283.055	5.97
283.269	6.01
283.482	5.9
283.696	5.41
283.91	5.59
284.123	5.28
284.337	5.49
284.551	5.43
284.764	5.94
284.978	5.88
285.192	5.45
285.405	5.7
285.619	5.5
285.833	5.84
286.046	5.98
286.26	5.7
286.473	6.07
286.687	6.33
286.9	6.4
287.114	5.98
287.327	6.13
287.541	6.04
287.754	5.78
287.968	6.1
288.181	5.72
288.395	5.54
288.608	5.8
288.822	5.73
289.035	5.46
289.248	5.01
289.462	5.43
289.675	5.27
289.889	5.6
290.102	5.5
290.315	5.36
290.529	5.39
290.742	5.32
290.955	5.31
291.169	5.52
291.382	5.87
291.595	6.44
291.808	6.43
292.022	6.59
292.235	6.14
292.448	6.55
292.661	6.58
292.875	6.8
293.088	7.1
293.301	6.82
293.514	6.36
293.727	6.07
293.94	6.11
294.153	5.63
294.367	5.54
294.58	5.44
294.793	5.18
295.006	5.2
295.219	5.11
295.432	4.88
295.645	4.74
295.858	4.85
296.071	4.8
296.284	4.7
296.497	4.96
296.71	4.92
296.923	5.26
297.136	4.87
297.349	4.74
297.562	4.92
297.775	5.16
297.988	5.65
298.201	5.88
298.414	6.04
298.626	6.03
298.839	5.76
299.052	5.38
299.265	5.57
299.478	6
299.691	6.1
299.903	5.91
300.116	5.83
300.329	5.64
300.542	5.55
300.755	5.49
300.967	5.18
301.18	5.57
301.393	5.89
301.605	5.84
301.818	5.96
302.031	5.94
302.243	5.61
302.456	5.87
302.669	5.29
302.881	5.41
303.094	5.66
303.307	6.02
303.519	5.82
303.732	5.9
303.944	5.54
304.157	5.55
304.37	5.3
304.582	5.87
304.795	5.7
305.007	6.08
305.22	5.42
305.432	5.35
305.645	5.21
305.857	5.35
306.069	5.6
306.282	5.76
306.494	5.58
306.707	6.15
306.919	5.96
307.132	5.85
307.344	5.98
307.556	6.54
307.769	6.54
307.981	6.71
308.193	6.63
308.406	6.22
308.618	6.24
308.83	6.26
309.043	5.94
309.255	5.83
309.467	5.74
309.679	5.77
309.892	5.7
310.104	5.5
310.316	5.73
310.528	5.67
310.74	5.88
310.953	5.91
311.165	5.95
311.377	6.09
311.589	6.42
311.801	6.37
312.013	6.56
312.225	6.61
312.437	6.65
312.649	6.69
312.862	6.53
313.074	6.26
313.286	6.33
313.498	6.3
313.71	6.26
313.922	6.3
314.134	6.26
314.346	6.04
314.558	6.02
314.77	6.66
314.982	6.24
315.193	6.19
315.405	6.34
315.617	5.72
315.829	5.57
316.041	5.27
316.253	5.13
316.465	5.61
316.677	5.18
316.888	4.81
317.1	4.21
317.312	4.2
317.524	4.49
317.736	4.81
317.947	6.18
318.159	6.27
318.371	6.26
318.583	6.41
318.794	5.97
319.006	6.58
319.218	6.53
319.43	6.47
319.641	6.07
319.853	6.39
320.064	6.05
320.276	5.72
320.488	5.9
320.699	6.56
320.911	6.43
321.123	6.54
321.334	6.87
321.546	7.42
321.757	7.22
321.969	7.81
322.18	7.36
322.392	7.32
322.603	7.13
322.815	6.81
323.026	6.43
323.238	6.39
323.449	6.59
323.661	6.1
323.872	5.94
324.083	5.95
324.295	5.57
324.506	5.39
324.718	5.65
324.929	5.48
325.14	6.07
325.352	6.36
325.563	6.43
325.774	6.37
325.986	6.64
326.197	7.17
326.408	7.04
326.62	7.07
326.831	7.72
327.042	7.58
327.253	7.62
327.464	7.48
327.676	7.16
327.887	6.82
328.098	6.59
328.309	6.55
328.52	6.21
328.732	6.78
328.943	6.96
329.154	6.64
329.365	6.71
329.576	6.38
329.787	6.38
329.998	6.38
330.209	6.81
330.42	7.74
330.631	7.5
330.842	7.32
331.053	7.08
331.264	7.39
331.475	7.22
331.686	7.45
331.897	7.7
332.108	7.47
332.319	7.64
332.53	7.14
332.741	6.79
332.952	7.09
333.163	7.05
333.374	7.28
333.585	6.94
333.795	6.8
334.006	6.73
334.217	6.55
334.428	6.54
334.639	6.55
334.849	6.67
335.06	6.16
335.271	6.09
335.482	6.14
335.692	6.07
335.903	5.95
336.114	6.26
336.325	6.49
336.535	7.06
336.746	7.14
336.957	7.14
337.167	7.65
337.378	8.02
337.589	7.95
337.799	7.59
338.01	7.91
338.22	8.08
338.431	8.29
338.642	7.76
338.852	7.44
339.063	7.22
339.273	6.96
339.484	6.62
339.694	6.33
339.905	6.21
340.115	6.58
340.326	6.32
340.536	6.36
340.746	5.86
340.957	5.88
341.167	6
341.378	5.97
341.588	5.78
341.799	5.88
342.009	6.05
342.219	6.15
342.43	6.11
342.64	6.06
342.85	6.05
343.061	6.18
343.271	6.25
343.481	5.59
343.691	5.86
343.902	6.33
344.112	6.1
344.322	6.02
344.532	5.8
344.743	5.59
344.953	5.41
345.163	5.28
345.373	5.39
345.583	5.48
345.793	5.64
346.004	5.52
346.214	4.95
346.424	5.22
346.634	5.55
346.844	6.23
347.054	6.52
347.264	6.74
347.474	6.78
347.684	6.97
347.894	6.68
348.104	7.09
348.314	7.11
348.524	7.14
348.734	6.68
348.944	6.79
349.154	6.29
349.364	5.94
349.574	5.74
349.784	5.56
349.994	5.49
350.204	5.51
350.413	5.46
350.623	5.26
350.833	5.64
351.043	5.89
351.253	5.41
351.463	5.07
351.672	5.36
351.882	5.57
352.092	5.72
352.302	5.48
352.511	5.69
352.721	5.58
352.931	5.94
353.141	6.01
353.35	6.27
353.56	6.19
353.77	6.45
353.979	6.81
354.189	6.52
354.399	6.77
354.608	6.99
354.818	7.07
355.027	7.05
355.237	6.75
355.447	6.54
355.656	6.4
355.866	6.22
356.075	6.06
356.285	5.63
356.494	5.83
356.704	5.71
356.913	5.67
357.123	5.44
357.332	5.43
357.542	5.62
357.751	5.73
357.96	5.56
358.17	5.83
358.379	5.92
358.589	5.96
358.798	5.53
359.007	5.29
359.217	5.22
359.426	5.25
359.635	5.5
359.845	5.37
360.054	5.16
360.263	5.2
360.472	5.19
360.682	5.3
360.891	5.23
361.1	5.51
361.309	5.75
361.519	5.76
361.728	5.86
361.937	5.76
362.146	5.85
362.355	5.99
362.564	6.02
362.774	6.11
362.983	5.93
363.192	6.02
363.401	6.05
363.61	5.86
363.819	5.69
364.028	5.56
364.237	5.26
364.446	5.07
364.655	4.75
364.864	4.76
365.073	4.72
365.282	4.66
365.491	4.45
365.7	4.36
365.909	4.03
366.118	4.06
366.327	3.88
366.536	3.9
366.745	4.23
366.954	4.33
367.162	4.61
367.371	4.53
367.58	4.49
367.789	4.64
367.998	4.66
368.207	4.87
368.415	5.13
368.624	5.15
368.833	5.43
369.042	5.12
369.25	5.34
369.459	5.07
369.668	5.16
369.877	5
370.085	5.05
370.294	5.08
370.503	5.11
370.711	5
370.92	4.94
371.129	4.89
371.337	4.86
371.546	4.48
371.754	4.51
371.963	4.28
372.171	4.54
372.38	4.56
372.589	4.44
372.797	4.35
373.006	4.25
373.214	4.6
373.423	4.34
373.631	4.51
373.84	4.89
374.048	4.59
374.256	4.69
374.465	4.78
374.673	4.63
374.882	4.79
375.09	4.76
375.298	4.82
375.507	4.49
375.715	4.73
375.923	4.76
376.132	4.5
376.34	4.75
376.548	4.5
376.757	4.44
376.965	4.51
377.173	4.42
377.381	4.53
377.59	4.58
377.798	4.77
378.006	4.72
378.214	4.76
378.423	4.79
378.631	4.69
378.839	4.95
379.047	4.87
379.255	4.81
379.463	4.8
379.671	4.6
379.879	4.46
380.088	4.41
380.296	4.06
380.504	3.92
380.712	4.25
380.92	4.14
381.128	4.2
381.336	4.04
381.544	3.83
381.752	3.74
381.96	3.75
382.168	3.77
382.376	3.92
382.584	4.38
382.791	4.31
382.999	4.11
383.207	4.28
383.415	4.02
383.623	4.32
383.831	4.44
384.039	4.51
384.247	4.55
384.454	4.58
384.662	4.31
384.87	3.86
385.078	3.89
385.285	3.93
385.493	3.72
385.701	3.95
385.909	3.65
386.116	3.67
386.324	3.69
386.532	3.79
386.739	3.57
386.947	3.59
387.155	3.64
387.362	3.59
387.57	3.48
387.778	3.4
387.985	3.07
388.193	3.03
388.4	2.85
388.608	2.91
388.816	2.71
389.023	2.96
389.231	2.83
389.438	2.86
389.646	3.05
389.853	3.18
390.061	3.31
390.268	3.5
390.475	3.68
390.683	3.82
390.89	3.62
391.098	3.79
391.305	3.87
391.512	4.15
391.72	4.29
391.927	3.98
392.135	3.76
392.342	3.71
392.549	3.71
392.756	3.5
392.964	3.4
393.171	3.55
393.378	3.56
393.586	3.23
393.793	3.03
394	3
394.207	3.2
394.414	3.4
394.622	3.47
394.829	3.5
395.036	3.63
395.243	3.77
395.45	3.6
395.657	3.43
395.864	3.57
396.072	3.81
396.279	3.76
396.486	3.77
396.693	3.65
396.9	3.67
397.107	3.36
397.314	3.45
397.521	3.31
397.728	3.48
397.935	3.72
398.142	3.75
398.349	3.46
398.556	3.37
398.763	3.35
398.97	3.37
399.177	3.17
399.383	3.21
399.59	2.96
399.797	3.03
400.004	2.82
400.211	2.56
400.418	2.43
400.625	2.48
400.831	2.61
401.038	2.5
401.245	2.52
401.452	2.6
401.658	2.8
401.865	3.02
402.072	3
402.279	3.19
402.485	3.13
402.692	3.21
402.899	3.18
403.105	2.95
403.312	2.97
403.519	2.86
403.725	2.73
403.932	2.72
404.138	2.68
404.345	2.62
404.552	2.62
404.758	2.74
404.965	2.74
405.171	2.77
405.378	2.9
405.584	2.95
405.791	2.92
405.997	3.23
406.204	3.31
406.41	3.39
406.617	3.4
406.823	3.23
407.029	3.17
407.236	3.19
407.442	3.26
407.649	3.38
407.855	3.24
408.061	3.51
408.268	3.28
408.474	3.1
408.68	2.97
408.887	3.09
409.093	3.17
409.299	3.17
409.505	3.24
409.712	3.05
409.918	3.03
410.124	3.01
410.33	2.82
410.537	2.85
410.743	2.91
410.949	2.75
411.155	2.67
411.361	2.44
411.567	2.43
411.773	2.13
411.98	2.35
412.186	2.24
412.392	2.3
412.598	2.3
412.804	2.24
413.01	2.2
413.216	2.31
413.422	2.42
413.628	2.52
413.834	2.48
414.04	2.65
414.246	2.49
414.452	2.48
414.658	2.5
414.864	2.45
415.07	2.51
415.275	2.57
415.481	2.48
415.687	2.45
415.893	2.48
416.099	2.55
416.305	2.6
416.511	2.54
416.716	2.47
416.922	2.49
417.128	2.53
417.334	2.49
417.539	2.35
417.745	2.36
417.951	2.44
418.157	2.44
418.362	2.41
418.568	2.31
418.774	2.36
418.979	2.4
419.185	2.29
419.391	2.19
419.596	2.13
419.802	2.11
420.008	2.06
420.213	1.95
420.419	1.92
420.624	1.87
420.83	1.85
421.035	1.86
421.241	1.86
421.446	1.92
421.652	2.01
421.857	2.03
422.063	2.14
422.268	2.19
422.474	2.18
422.679	2.21
422.885	2.22
423.09	2.12
423.295	2.05
423.501	1.97
423.706	1.97
423.911	1.93
424.117	1.99
424.322	1.92
424.527	1.88
424.733	1.94
424.938	1.91
425.143	1.9
425.349	2.07
425.554	2.04
425.759	2.16
425.964	2.07
426.169	2.13
426.375	2.03
426.58	2.07
426.785	2.04
426.99	1.93
427.195	1.91
427.4	1.95
427.605	1.96
427.811	2
428.016	1.89
428.221	1.99
428.426	1.95
428.631	1.99
428.836	1.97
429.041	2.18
429.246	2.19
429.451	2.15
429.656	2.07
429.861	2.08
430.066	2.24
430.271	2.28
430.476	2.22
430.681	2.2
430.886	2.18
431.09	2.22
431.295	2.04
431.5	2.04
431.705	2.07
431.91	2.11
432.115	2.08
432.32	2.01
432.524	2
432.729	2.1
432.934	2.14
433.139	2.08
433.343	2.12
433.548	2.21
433.753	2.2
433.958	2.06
434.162	2.08
434.367	2.18
434.572	2.15
434.776	2.06
434.981	2.08
435.186	2.04
435.39	2.12
435.595	2.15
435.799	2.03
436.004	2.1
436.209	2.17
436.413	2.05
436.618	1.99
436.822	2.05
437.027	2.11
437.231	1.93
437.436	1.85
437.64	1.79
437.845	1.75
438.049	1.71
438.253	1.62
438.458	1.61
438.662	1.69
438.867	1.68
439.071	1.6
439.275	1.61
439.48	1.7
439.684	1.72
439.888	1.83
440.093	1.77
440.297	1.83
440.501	1.88
440.706	1.96
440.91	1.96
441.114	1.9
441.318	1.88
441.523	1.9
441.727	1.88
441.931	1.97
442.135	1.92
442.339	1.89
442.543	1.89
442.748	1.84
442.952	1.82
443.156	1.81
443.36	1.8
443.564	1.79
443.768	1.79
443.972	1.76
444.176	1.77
444.38	1.79
444.584	1.75
444.788	1.8
444.992	1.82
445.196	1.83
445.4	1.87
445.604	1.89
445.808	1.97
446.012	1.91
446.216	1.88
446.42	1.85
446.624	1.8
446.828	1.91
447.032	1.87
447.235	1.9
447.439	1.91
447.643	1.83
447.847	1.86
448.051	1.8
448.254	1.9
448.458	1.97
448.662	2
448.866	2.05
449.069	2.05
449.273	2.17
449.477	2.15
449.681	2.08
449.884	2.13
450.088	2.04
450.292	2.02
450.495	2.05
450.699	2.01
450.902	1.91
451.106	1.75
451.31	1.7
451.513	1.45
451.717	1.47
451.92	1.48
452.124	1.61
452.327	1.65
452.531	1.67
452.734	1.56
452.938	1.66
453.141	1.76
453.345	1.85
453.548	1.82
453.752	1.86
453.955	1.84
454.158	1.85
454.362	1.63
454.565	1.73
454.769	1.79
454.972	1.87
455.175	1.74
455.379	1.72
455.582	1.8
455.785	1.86
455.988	2.01
456.192	1.98
456.395	1.92
456.598	2.02
456.801	1.89
457.005	1.93
457.208	1.93
457.411	1.96
457.614	1.96
457.817	1.91
458.021	1.9
458.224	1.86
458.427	1.81
458.63	1.89
458.833	1.94
459.036	1.92
459.239	1.83
459.442	1.82
459.645	1.85
459.848	1.81
460.051	1.74
460.254	1.79
460.457	1.76
460.66	1.87
460.863	1.82
461.066	1.79
461.269	1.89
461.472	1.98
461.675	1.91
461.878	1.94
462.081	1.97
462.284	2.04
462.486	1.92
462.689	1.99
462.892	1.94
463.095	1.89
463.298	1.77
463.5	1.88
463.703	1.79
463.906	1.92
464.109	1.89
464.311	1.93
464.514	2.07
464.717	2.19
464.92	2.11
465.122	2.19
465.325	2.2
465.528	2.26
465.73	2.12
465.933	2.09
466.135	2.03
466.338	1.96
466.541	1.89
466.743	1.82
466.946	1.77
467.148	1.82
467.351	1.71
467.553	1.74
467.756	1.78
467.958	1.82
468.161	1.9
468.363	1.91
468.566	1.95
468.768	2.04
468.971	1.92
469.173	1.98
469.375	1.91
469.578	1.87
469.78	1.86
469.983	1.81
470.185	1.79
470.387	1.75
470.59	1.71
470.792	1.71
470.994	1.76
471.196	1.74
471.399	1.78
471.601	1.78
471.803	1.74
472.005	1.8
472.208	1.81
