Data from 2938548_Reflection_1.txt Node
Date: Mon Jun 15 00:12:27 EDT 2015
User: robert
Spectrometer: USB4E03002
Autoset integration time: false
Trigger mode: 4
Integration Time (sec): 1.000000E-1
Scans to average: 10
Electric dark correction enabled: true
Nonlinearity correction enabled: false
Boxcar width: 5
Stray light correction enabled: false
XAxis mode: Wavelengths
Stop averaging: false
Number of Pixels in Spectrum: 3648
>>>>>Begin Spectral Data<<<<<
177.575	26.05
177.794	5.71
178.014	12
178.233	22.76
178.452	22.39
178.672	17.68
178.891	-4.86
179.11	70.67
179.33	44.55
179.549	39.71
179.768	-4.62
179.987	-19.07
180.207	-60.76
180.426	-177.69
180.645	-75.56
180.864	-88.69
181.084	-75.25
181.303	-396.11
181.522	444.35
181.741	-262.65
181.96	2163.02
182.179	160.1
182.398	249.6
182.618	79.44
182.837	-930.14
183.056	31.44
183.275	-36.18
183.494	208.41
183.713	-78.24
183.932	146.22
184.151	147
184.37	134.71
184.589	98.63
184.808	146.45
185.027	174.72
185.246	148.55
185.465	199.98
185.684	239.54
185.903	272.02
186.122	234.17
186.341	599.81
186.56	518.21
186.779	-92.19
186.998	-50.99
187.216	33.26
187.435	66.89
187.654	94.44
187.873	85.48
188.092	104.56
188.311	90.85
188.53	77.41
188.748	103.92
188.967	71.19
189.186	89.35
189.405	54.72
189.623	45.58
189.842	16.57
190.061	2.66
190.28	16.51
190.498	32
190.717	16.85
190.936	95.72
191.154	-2.89
191.373	1414.17
191.592	282.26
191.81	-39.52
192.029	-3.85
192.248	2.05
192.466	20.85
192.685	62.53
192.904	73.84
193.122	103.84
193.341	128.81
193.559	122.21
193.778	82.51
193.996	85.53
194.215	119.06
194.433	72.72
194.652	19.1
194.87	-28.59
195.089	890.68
195.307	115.73
195.526	523.57
195.744	4022.56
195.963	-387.59
196.181	-1240
196.399	-519.25
196.618	-559.43
196.836	-1332.96
197.055	-164.27
197.273	-266.31
197.491	-88.93
197.71	16.67
197.928	-33.11
198.146	40.67
198.365	-68.95
198.583	-426.55
198.801	1352.35
199.019	-1100.18
199.238	18941.38
199.456	222.3
199.674	748.7
199.892	920.04
200.111	351.91
200.329	209.44
200.547	507.67
200.765	1310.06
200.983	231.38
201.202	80.53
201.42	196.09
201.638	246.57
201.856	-188.65
202.074	-427.23
202.292	308.1
202.51	196.39
202.728	240.94
202.946	-294.76
203.165	-41.97
203.383	72.03
203.601	52.76
203.819	267.48
204.037	151.26
204.255	207.33
204.473	193.98
204.691	190.73
204.909	106.44
205.127	63.81
205.345	-18.69
205.562	-31.47
205.78	-64.94
205.998	-210.25
206.216	-369.99
206.434	-4202.36
206.652	409.79
206.87	315.87
207.088	509.94
207.306	85.69
207.523	32.39
207.741	-2.61
207.959	-21.56
208.177	-639.92
208.395	-215.49
208.612	-316.47
208.83	689.57
209.048	192.21
209.266	106.89
209.483	107.86
209.701	110.04
209.919	78.17
210.136	87.99
210.354	30.49
210.572	60.47
210.79	38.66
211.007	39.47
211.225	80.13
211.442	62.13
211.66	82.44
211.878	140.61
212.095	396.55
212.313	278.79
212.53	279.87
212.748	270.75
212.966	275.35
213.183	225
213.401	189.32
213.618	165.47
213.836	122.27
214.053	146.09
214.271	151.01
214.488	-19.03
214.705	-61.42
214.923	-34.17
215.14	-23.48
215.358	-25.34
215.575	-17.24
215.793	4.24
216.01	-3.09
216.227	50.21
216.445	18.72
216.662	10.55
216.879	13.31
217.097	23.42
217.314	6.22
217.531	2.31
217.749	10.64
217.966	20.52
218.183	14.24
218.4	15.46
218.618	2
218.835	5.91
219.052	-0.28
219.269	1.14
219.487	6.13
219.704	-1.86
219.921	4.41
220.138	-0.05
220.355	-6.72
220.572	-10.75
220.79	4.5
221.007	10.17
221.224	0.24
221.441	12.22
221.658	21.13
221.875	11.63
222.092	23.15
222.309	14.66
222.526	14.5
222.743	3.51
222.96	-1.4
223.177	-5.02
223.394	-4.57
223.611	-1.07
223.828	-7.2
224.045	-11.95
224.262	-13.23
224.479	-18.26
224.696	-11.81
224.913	-10.78
225.13	-7.75
225.347	-3.36
225.564	0.03
225.781	1.17
225.997	2.47
226.214	2.38
226.431	2.51
226.648	3.89
226.865	6.33
227.082	5.93
227.298	6.87
227.515	8.1
227.732	7.99
227.949	8.34
228.165	8.8
228.382	9.64
228.599	9.5
228.816	9.99
229.032	10.22
229.249	9.98
229.466	9.58
229.682	10.05
229.899	9.6
230.116	9.38
230.332	7.63
230.549	3.6
230.765	1.88
230.982	2.6
231.199	2.91
231.415	3.98
231.632	3.47
231.848	5.41
232.065	4.11
232.281	3.88
232.498	4.43
232.714	4.07
232.931	6.09
233.147	6.55
233.364	7.47
233.58	6.05
233.797	7.13
234.013	7.44
234.23	8.1
234.446	7.46
234.662	9.05
234.879	10.35
235.095	11.53
235.312	13.86
235.528	14.73
235.744	14.81
235.961	15.94
236.177	15.29
236.393	14.64
236.61	16.42
236.826	17.45
237.042	13.86
237.258	11.2
237.475	9.24
237.691	9.39
237.907	6.83
238.123	7.04
238.339	6.21
238.556	5.12
238.772	5.24
238.988	4.56
239.204	3.19
239.42	5.24
239.636	6.48
239.853	8.11
240.069	7.75
240.285	8.14
240.501	8.64
240.717	8.47
240.933	9.4
241.149	9.27
241.365	8.51
241.581	8.7
241.797	8.34
242.013	8.27
242.229	8.04
242.445	7.84
242.661	8.61
242.877	8.17
243.093	8.41
243.309	8.74
243.525	8.89
243.741	9.36
243.957	9.88
244.173	9.24
244.388	9.16
244.604	8.72
244.82	9
245.036	8.73
245.252	8.49
245.468	8.35
245.683	8.2
245.899	7.81
246.115	7.76
246.331	7.63
246.547	7.62
246.762	7.39
246.978	7.26
247.194	7.08
247.409	6.74
247.625	6.62
247.841	7
248.057	6.43
248.272	6.64
248.488	5.87
248.703	5.38
248.919	5.85
249.135	5.82
249.35	5.81
249.566	5.66
249.782	6.09
249.997	6.36
250.213	5.65
250.428	5.87
250.644	6.42
250.859	6.54
251.075	6.91
251.29	6.71
251.506	6.44
251.721	6.58
251.937	6.2
252.152	5.86
252.368	5.43
252.583	5.15
252.798	5.01
253.014	4.26
253.229	4.34
253.445	3.68
253.66	3.32
253.875	4.09
254.091	4.41
254.306	4.62
254.521	4.08
254.737	4.1
254.952	4.39
255.167	3.53
255.383	3.57
255.598	3.77
255.813	3.69
256.028	3.86
256.244	3.51
256.459	3.23
256.674	3.38
256.889	3.79
257.104	4.02
257.32	4.67
257.535	5.13
257.75	5.1
257.965	5.01
258.18	5.28
258.395	5.3
258.61	5.34
258.826	5.41
259.041	5.66
259.256	5.72
259.471	5.9
259.686	5.41
259.901	5.49
260.116	5.42
260.331	5.89
260.546	6.16
260.761	6.64
260.976	6.96
261.191	7.02
261.406	6.57
261.621	6.23
261.836	5.95
262.05	7.51
262.265	7.16
262.48	7.72
262.695	7.1
262.91	6.08
263.125	5.2
263.34	5.41
263.555	5.47
263.769	5.9
263.984	6
264.199	5.5
264.414	4.85
264.629	4.91
264.843	4.06
265.058	4.69
265.273	5.3
265.488	5.61
265.702	5.31
265.917	5.43
266.132	5.1
266.346	5.37
266.561	5.34
266.776	4.85
266.99	4.78
267.205	5.76
267.42	5.26
267.634	5.55
267.849	6.09
268.063	5.99
268.278	5.91
268.492	5.85
268.707	5.52
268.922	6.12
269.136	6.14
269.351	6.14
269.565	5.44
269.78	5.86
269.994	5.45
270.209	4.69
270.423	4.86
270.637	4.58
270.852	4.46
271.066	4.64
271.281	4.49
271.495	4.7
271.709	4.68
271.924	5.18
272.138	4.61
272.353	4.71
272.567	5.04
272.781	5.1
272.996	5.19
273.21	5.53
273.424	5.51
273.638	5.96
273.853	6.11
274.067	5.9
274.281	4.88
274.495	5.16
274.71	5.56
274.924	5.52
275.138	5.66
275.352	5.4
275.566	5.42
275.781	5.07
275.995	4.46
276.209	4.05
276.423	4.71
276.637	5.57
276.851	5.59
277.065	5.13
277.279	5.09
277.493	4.67
277.707	4.95
277.921	5.07
278.135	5.45
278.349	5.53
278.563	5.33
278.777	5.05
278.991	4.81
279.205	4.76
279.419	4.8
279.633	4.75
279.847	4.99
280.061	5.37
280.275	5.64
280.489	5.49
280.703	5.63
280.917	5.85
281.131	5.89
281.344	6.02
281.558	5.95
281.772	5.82
281.986	6.21
282.2	6.28
282.414	6.18
282.627	5.79
282.841	6.12
283.055	5.76
283.269	5.61
283.482	5.29
283.696	5.45
283.91	5.45
284.123	5.63
284.337	5.29
284.551	5.32
284.764	5.32
284.978	5.42
285.192	4.89
285.405	4.8
285.619	4.85
285.833	4.73
286.046	4.37
286.26	4.54
286.473	4.09
286.687	4.27
286.9	4.03
287.114	4.07
287.327	3.94
287.541	4.17
287.754	4.55
287.968	4.54
288.181	5.01
288.395	4.95
288.608	4.81
288.822	4.79
289.035	4.16
289.248	3.99
289.462	3.59
289.675	3.72
289.889	4.03
290.102	3.76
290.315	3.65
290.529	3.64
290.742	3.87
290.955	3.68
291.169	3.43
291.382	4.08
291.595	4.03
291.808	4.39
292.022	4.6
292.235	4.51
292.448	4.83
292.661	5.38
292.875	5.12
293.088	5.13
293.301	5.2
293.514	5.81
293.727	5.68
293.94	5.77
294.153	5.7
294.367	5.09
294.58	4.69
294.793	4.35
295.006	4.05
295.219	3.73
295.432	3.85
295.645	4.04
295.858	4.02
296.071	4
296.284	3.97
296.497	4.05
296.71	4.05
296.923	4.58
297.136	4.61
297.349	4.5
297.562	4.8
297.775	4.63
297.988	4.56
298.201	4.31
298.414	4.28
298.626	4.11
298.839	3.84
299.052	4
299.265	3.9
299.478	4.04
299.691	3.8
299.903	3.97
300.116	4.18
300.329	4.29
300.542	4.4
300.755	4.43
300.967	4.78
301.18	4.78
301.393	4.97
301.605	4.5
301.818	4.52
302.031	4.87
302.243	4.86
302.456	4.58
302.669	4.46
302.881	4.65
303.094	4.62
303.307	4.43
303.519	4.9
303.732	5
303.944	5.34
304.157	5.57
304.37	5.59
304.582	5.37
304.795	5.79
305.007	5.9
305.22	5.65
305.432	5.82
305.645	6.13
305.857	5.84
306.069	5.76
306.282	6.06
306.494	5.89
306.707	5.64
306.919	5.84
307.132	5.14
307.344	5.04
307.556	5.51
307.769	5.04
307.981	4.9
308.193	4.71
308.406	4.76
308.618	4.3
308.83	4.22
309.043	4.32
309.255	4.23
309.467	4.44
309.679	4.68
309.892	4.16
310.104	4.61
310.316	4.79
310.528	4.92
310.74	5.09
310.953	5.51
311.165	5.61
311.377	5.8
311.589	5.99
311.801	6.14
312.013	5.99
312.225	5.92
312.437	5.63
312.649	5.12
312.862	5.16
313.074	5.23
313.286	5.17
313.498	5.3
313.71	5.38
313.922	5.5
314.134	5.32
314.346	5
314.558	5.08
314.77	5.55
314.982	5.86
315.193	5.72
315.405	5.21
315.617	4.94
315.829	4.77
316.041	4.47
316.253	4.38
316.465	4.21
316.677	4.27
316.888	4.34
317.1	3.9
317.312	3.65
317.524	3.73
317.736	3.75
317.947	3.72
318.159	3.6
318.371	3.77
318.583	3.11
318.794	3.34
319.006	3.09
319.218	3.64
319.43	3.38
319.641	3.71
319.853	3.95
320.064	4.26
320.276	4.44
320.488	4.62
320.699	4.95
320.911	5.13
321.123	5.71
321.334	5.62
321.546	5.57
321.757	5.87
321.969	5.79
322.18	5.34
322.392	4.94
322.603	5.15
322.815	4.78
323.026	4.47
323.238	4.28
323.449	4.11
323.661	4.47
323.872	4.29
324.083	4.59
324.295	4.59
324.506	4.93
324.718	5.2
324.929	4.91
325.14	5.23
325.352	5.74
325.563	6.25
325.774	6.16
325.986	6.07
326.197	6.13
326.408	6.17
326.62	6.07
326.831	5.83
327.042	5.87
327.253	5.89
327.464	5.95
327.676	5.76
327.887	5.45
328.098	5.78
328.309	5.57
328.52	5.06
328.732	5.31
328.943	5.36
329.154	5.56
329.365	5.71
329.576	5.61
329.787	5.71
329.998	5.53
330.209	5.96
330.42	5.98
330.631	6.22
330.842	6.51
331.053	6.2
331.264	6.3
331.475	6.19
331.686	6.07
331.897	5.9
332.108	5.45
332.319	5.22
332.53	5.18
332.741	4.95
332.952	5.13
333.163	5.33
333.374	4.83
333.585	4.55
333.795	4.74
334.006	4.61
334.217	5.03
334.428	5.8
334.639	5.97
334.849	5.73
335.06	5.37
335.271	5.4
335.482	5.17
335.692	5.49
335.903	5.3
336.114	5.24
336.325	5.7
336.535	5.91
336.746	5.53
336.957	5.57
337.167	6.31
337.378	6.77
337.589	6.53
337.799	6.7
338.01	7.21
338.22	7.9
338.431	8.03
338.642	7.46
338.852	7.26
339.063	7.23
339.273	7.12
339.484	6.56
339.694	6.5
339.905	6.62
340.115	6.72
340.326	6.64
340.536	6.25
340.746	6.04
340.957	6.27
341.167	6.07
341.378	6
341.588	6.21
341.799	6.22
342.009	6.04
342.219	6.37
342.43	6.32
342.64	5.96
342.85	6.16
343.061	6.24
343.271	6.27
343.481	6.2
343.691	6.17
343.902	6.02
344.112	5.92
344.322	5.99
344.532	5.61
344.743	5.55
344.953	5.75
345.163	5.62
345.373	5.73
345.583	5.27
345.793	5.1
346.004	5.1
346.214	5.03
346.424	5.23
346.634	5.33
346.844	5.64
347.054	5.57
347.264	5.08
347.474	5.44
347.684	5.52
347.894	6.09
348.104	6.16
348.314	6.09
348.524	6.15
348.734	5.93
348.944	5.56
349.154	5.78
349.364	5.79
349.574	6.19
349.784	5.91
349.994	5.62
350.204	5.53
350.413	5.86
350.623	5.67
350.833	5.49
351.043	5.27
351.253	5.46
351.463	5.02
351.672	4.87
351.882	4.83
352.092	4.86
352.302	4.77
352.511	4.41
352.721	4.3
352.931	4.66
353.141	4.57
353.35	4.71
353.56	4.89
353.77	4.77
353.979	4.87
354.189	4.94
354.399	5.02
354.608	5.19
354.818	5.31
355.027	5.33
355.237	5.29
355.447	5.44
355.656	5.85
355.866	5.76
356.075	5.84
356.285	5.86
356.494	5.68
356.704	5.35
356.913	5.17
357.123	5.36
357.332	5.33
357.542	5.33
357.751	5.43
357.96	5.25
358.17	5.41
358.379	5.33
358.589	5.44
358.798	5.35
359.007	5.5
359.217	5.68
359.426	5.45
359.635	5.46
359.845	5.5
360.054	5.51
360.263	5.6
360.472	5.33
360.682	5.17
360.891	5.18
361.1	5.22
361.309	5.36
361.519	5.35
361.728	5.47
361.937	5.43
362.146	5.39
362.355	5.34
362.564	5.01
362.774	5.09
362.983	5.42
363.192	5.29
363.401	5.34
363.61	5.16
363.819	4.95
364.028	4.96
364.237	5.08
364.446	4.72
364.655	4.64
364.864	4.6
365.073	4.59
365.282	4.54
365.491	4.59
365.7	4.57
365.909	4.75
366.118	4.9
366.327	4.74
366.536	4.54
366.745	4.77
366.954	4.73
367.162	4.78
367.371	5.05
367.58	4.85
367.789	4.83
367.998	4.84
368.207	4.52
368.415	4.14
368.624	4.1
368.833	3.98
369.042	4.2
369.25	4.3
369.459	4.17
369.668	3.99
369.877	3.95
370.085	3.71
370.294	3.79
370.503	3.72
370.711	4.06
370.92	4.25
371.129	4.42
371.337	4.11
371.546	3.93
371.754	4.09
371.963	3.93
372.171	3.77
372.38	3.79
372.589	3.54
372.797	3.39
373.006	3.5
373.214	3.59
373.423	3.8
373.631	3.79
373.84	3.78
374.048	3.75
374.256	3.82
374.465	4.03
374.673	4.15
374.882	4.35
375.09	4.48
375.298	4.28
375.507	4
375.715	3.94
375.923	4.02
376.132	4.12
376.34	4.14
376.548	4.16
376.757	4.11
376.965	4.07
377.173	3.97
377.381	3.99
377.59	3.86
377.798	3.82
378.006	3.59
378.214	3.71
378.423	3.76
378.631	3.66
378.839	3.29
379.047	3.43
379.255	3.48
379.463	3.41
379.671	3.46
379.879	3.58
380.088	3.71
380.296	3.74
380.504	3.53
380.712	3.8
380.92	3.94
381.128	4.02
381.336	3.98
381.544	3.78
381.752	3.77
381.96	3.72
382.168	3.73
382.376	3.85
382.584	3.96
382.791	4.07
382.999	3.73
383.207	3.61
383.415	3.9
383.623	3.66
383.831	3.76
384.039	3.69
384.247	3.81
384.454	3.85
384.662	3.66
384.87	3.74
385.078	3.66
385.285	3.73
385.493	3.89
385.701	3.64
385.909	3.89
386.116	3.7
386.324	3.85
386.532	3.71
386.739	3.65
386.947	3.63
387.155	3.55
387.362	3.53
387.57	3.2
387.778	2.96
387.985	3.05
388.193	2.97
388.4	3.02
388.608	2.89
388.816	3
389.023	3.18
389.231	3.08
389.438	2.94
389.646	2.78
389.853	2.81
390.061	3.06
390.268	3.15
390.475	3.11
390.683	3.14
390.89	3.11
391.098	2.99
391.305	2.78
391.512	2.83
391.72	2.92
391.927	2.95
392.135	3.15
392.342	3.02
392.549	3.04
392.756	3.1
392.964	3.14
393.171	3.04
393.378	3.03
393.586	2.95
393.793	2.96
394	3.05
394.207	3.19
394.414	3
394.622	2.83
394.829	2.84
395.036	2.57
395.243	2.55
395.45	2.67
395.657	2.51
395.864	2.65
396.072	2.84
396.279	2.62
396.486	2.61
396.693	2.67
396.9	2.77
397.107	2.69
397.314	2.77
397.521	2.88
397.728	2.87
397.935	3.18
398.142	3.22
398.349	3.24
398.556	3.45
398.763	3.3
398.97	3.48
399.177	3.31
399.383	3.23
399.59	3.34
399.797	3.18
400.004	3.09
400.211	2.98
400.418	2.85
400.625	2.67
400.831	2.48
401.038	2.57
401.245	2.18
401.452	2.35
401.658	2.31
401.865	2.42
402.072	2.53
402.279	2.66
402.485	2.53
402.692	2.51
402.899	2.41
403.105	2.38
403.312	2.24
403.519	2.54
403.725	2.32
403.932	2.51
404.138	2.24
404.345	2.2
404.552	2.19
404.758	2.25
404.965	2.22
405.171	2.41
405.378	2.23
405.584	2.5
405.791	2.28
405.997	2.42
406.204	2.36
406.41	2.56
406.617	2.58
406.823	2.48
407.029	2.47
407.236	2.51
407.442	2.47
407.649	2.47
407.855	2.38
408.061	2.5
408.268	2.61
408.474	2.49
408.68	2.58
408.887	2.58
409.093	2.56
409.299	2.59
409.505	2.58
409.712	2.66
409.918	2.9
410.124	2.91
410.33	2.84
410.537	2.76
410.743	2.77
410.949	2.42
411.155	2.22
411.361	2.14
411.567	2.02
411.773	2.01
411.98	1.86
412.186	1.91
412.392	1.76
412.598	1.79
412.804	1.88
413.01	1.87
413.216	2.14
413.422	2.16
413.628	2.17
413.834	2.35
414.04	2.41
414.246	2.48
414.452	2.29
414.658	2.46
414.864	2.56
415.07	2.63
415.275	2.62
415.481	2.56
415.687	2.5
415.893	2.44
416.099	2.35
416.305	2.35
416.511	2.35
416.716	2.36
416.922	2.3
417.128	2.22
417.334	2.14
417.539	2.03
417.745	2.09
417.951	2.24
418.157	2.31
418.362	2.41
418.568	2.29
418.774	2.16
418.979	2.17
419.185	2.1
419.391	2.21
419.596	2.13
419.802	2.19
420.008	2.18
420.213	2.17
420.419	2.15
420.624	2.17
420.83	2.23
421.035	2.3
421.241	2.3
421.446	2.34
421.652	2.26
421.857	2.27
422.063	2.38
422.268	2.37
422.474	2.28
422.679	2.33
422.885	2.25
423.09	2.29
423.295	2.35
423.501	2.32
423.706	2.25
423.911	2.29
424.117	2.27
424.322	2.11
424.527	2.08
424.733	2.16
424.938	2.19
425.143	2.14
425.349	2.08
425.554	1.98
425.759	2.08
425.964	2.21
426.169	2.19
426.375	2.21
426.58	2.34
426.785	2.32
426.99	2.19
427.195	2.18
427.4	2.16
427.605	2.15
427.811	2.19
428.016	2.08
428.221	2.02
428.426	2
428.631	2.02
428.836	1.89
429.041	1.99
429.246	2.07
429.451	1.94
429.656	1.88
429.861	1.91
430.066	1.82
430.271	1.84
430.476	1.81
430.681	1.78
430.886	1.75
431.09	1.87
431.295	1.82
431.5	1.89
431.705	1.93
431.91	2.07
432.115	1.96
432.32	2.01
432.524	1.93
432.729	1.95
432.934	1.85
433.139	1.87
433.343	1.85
433.548	1.87
433.753	1.77
433.958	1.69
434.162	1.55
434.367	1.54
434.572	1.52
434.776	1.6
434.981	1.68
435.186	1.74
435.39	1.82
435.595	1.72
435.799	1.66
436.004	1.7
436.209	1.86
436.413	1.88
436.618	1.95
436.822	1.94
437.027	1.86
437.231	1.85
437.436	1.81
437.64	1.77
437.845	1.83
438.049	1.86
438.253	1.81
438.458	1.7
438.662	1.73
438.867	1.81
439.071	1.88
439.275	1.95
439.48	1.88
439.684	1.92
439.888	1.89
440.093	1.84
440.297	1.87
440.501	1.93
440.706	2
440.91	1.99
441.114	1.92
441.318	1.9
441.523	1.89
441.727	1.96
441.931	2.02
442.135	2.14
442.339	2.21
442.543	2.15
442.748	2.17
442.952	2.17
443.156	2.08
443.36	2.03
443.564	1.97
443.768	1.96
443.972	1.97
444.176	1.9
444.38	1.83
444.584	1.81
444.788	1.75
444.992	1.67
445.196	1.63
445.4	1.65
445.604	1.72
445.808	1.7
446.012	1.71
446.216	1.68
446.42	1.69
446.624	1.65
446.828	1.7
447.032	1.75
447.235	1.83
447.439	1.83
447.643	1.93
447.847	1.9
448.051	1.89
448.254	1.89
448.458	1.89
448.662	1.94
448.866	1.99
449.069	2.03
449.273	1.96
449.477	1.88
449.681	1.86
449.884	1.77
450.088	1.72
450.292	1.65
450.495	1.72
450.699	1.71
450.902	1.57
451.106	1.48
451.31	1.43
451.513	1.46
451.717	1.42
451.92	1.48
452.124	1.52
452.327	1.65
452.531	1.8
452.734	1.74
452.938	1.77
453.141	1.87
453.345	2.02
453.548	2.03
453.752	1.98
453.955	2.08
454.158	2.12
454.362	2.09
454.565	1.97
454.769	1.96
454.972	1.96
455.175	1.93
455.379	1.89
455.582	1.8
455.785	1.84
455.988	1.92
456.192	1.91
456.395	1.83
456.598	1.85
456.801	1.99
457.005	2.01
457.208	1.95
457.411	1.97
457.614	1.94
457.817	1.92
458.021	1.82
458.224	1.84
458.427	1.81
458.63	1.86
458.833	1.78
459.036	1.73
459.239	1.75
459.442	1.8
459.645	1.78
459.848	1.86
460.051	1.85
460.254	1.92
460.457	1.81
460.66	1.83
460.863	1.81
461.066	1.92
461.269	1.93
461.472	1.74
461.675	1.71
461.878	1.7
462.081	1.6
462.284	1.53
462.486	1.44
462.689	1.41
462.892	1.49
463.095	1.42
463.298	1.44
463.5	1.43
463.703	1.47
463.906	1.46
464.109	1.35
464.311	1.32
464.514	1.36
464.717	1.31
464.92	1.4
465.122	1.38
465.325	1.44
465.528	1.47
465.73	1.5
465.933	1.5
466.135	1.55
466.338	1.74
466.541	1.79
466.743	1.83
466.946	1.99
467.148	2.04
467.351	2
467.553	1.9
467.756	1.78
467.958	1.67
468.161	1.65
468.363	1.54
468.566	1.37
468.768	1.34
468.971	1.31
469.173	1.26
469.375	1.08
469.578	1.2
469.78	1.3
469.983	1.31
470.185	1.38
470.387	1.39
470.59	1.55
470.792	1.56
470.994	1.53
