Data from 2938533_Reflection_3.txt Node
Date: Tue Jun 16 00:03:08 EDT 2015
User: robert
Spectrometer: USB4E03002
Autoset integration time: false
Trigger mode: 4
Integration Time (sec): 1.000000E-1
Scans to average: 10
Electric dark correction enabled: true
Nonlinearity correction enabled: false
Boxcar width: 6
Stray light correction enabled: false
XAxis mode: Wavelengths
Stop averaging: false
Number of Pixels in Spectrum: 3648
>>>>>Begin Spectral Data<<<<<
177.575	-151.33
177.794	-55.36
178.014	13.52
178.233	-23.46
178.452	-61.72
178.672	0.85
178.891	-142.86
179.11	26.85
179.33	-44.94
179.549	-32.71
179.768	-33.28
179.987	-39.68
180.207	-78.2
180.426	-97.38
180.645	-25.27
180.864	-1.39
181.084	-30.16
181.303	-121.87
181.522	-114.67
181.741	-142.24
181.96	-82.58
182.179	-11.61
182.398	65.63
182.618	127.34
182.837	351.85
183.056	-3628.57
183.275	95.19
183.494	321.25
183.713	128.24
183.932	45.37
184.151	115.57
184.37	-4.57
184.589	58.14
184.808	114.52
185.027	110.13
185.246	96.91
185.465	100.31
185.684	123.7
185.903	135.36
186.122	124.16
186.341	109.91
186.56	138.78
186.779	161.98
186.998	208.06
187.216	215.97
187.435	234.02
187.654	205.1
187.873	154.68
188.092	284.7
188.311	182.78
188.53	185.54
188.748	188.89
188.967	183.54
189.186	325.45
189.405	195.51
189.623	255
189.842	159.2
190.061	185.1
190.28	113.78
190.498	137.27
190.717	155.09
190.936	126.09
191.154	129.63
191.373	134.49
191.592	206.18
191.81	289.9
192.029	237.61
192.248	289.39
192.466	-1685
192.685	-687.18
192.904	229.17
193.122	576.36
193.341	269.92
193.559	476.74
193.778	325.64
193.996	872.58
194.215	203.76
194.433	130.42
194.652	204.6
194.87	168.82
195.089	239.59
195.307	155.95
195.526	219.23
195.744	481.76
195.963	294.27
196.181	295.06
196.399	231.33
196.618	316.67
196.836	330.47
197.055	449.09
197.273	1051.32
197.491	586.89
197.71	692.86
197.928	612.9
198.146	1016
198.365	-692.39
198.583	-456.9
198.801	-273.5
199.019	-152.5
199.238	-150.55
199.456	-261.61
199.674	-490.7
199.892	-368.02
200.111	-2025.81
200.329	1035.42
200.547	400
200.765	441.9
200.983	304.35
201.202	247.26
201.42	175.73
201.638	189.21
201.856	121.05
202.074	114.72
202.292	155.07
202.51	188.15
202.728	297.69
202.946	599.09
203.165	359.02
203.383	598.39
203.601	384.1
203.819	3683.33
204.037	442.24
204.255	723.47
204.473	284.29
204.691	-1445
204.909	-637.93
205.127	-126.32
205.345	-512.36
205.562	-468.25
205.78	-54.82
205.998	-43.77
206.216	-53.07
206.434	0.56
206.652	-40.9
206.87	-27.06
207.088	15.66
207.306	29.1
207.523	38.79
207.741	64.29
207.959	116.08
208.177	82.42
208.395	61.16
208.612	52.4
208.83	39.39
209.048	28.65
209.266	41.15
209.483	40.93
209.701	51.7
209.919	52.49
210.136	52.69
210.354	58.24
210.572	59.2
210.79	29.38
211.007	39.56
211.225	59.74
211.442	102.08
211.66	85.05
211.878	-78.85
212.095	-40.95
212.313	-27.09
212.53	-50.73
212.748	-54.46
212.966	-54.89
213.183	-93.35
213.401	-83.11
213.618	-49.4
213.836	-53.4
214.053	-50.43
214.271	-76.1
214.488	-93.61
214.705	52.44
214.923	21.45
215.14	19.83
215.358	41.62
215.575	48.8
215.793	64.71
216.01	65.42
216.227	55.66
216.445	39.24
216.662	37.67
216.879	29.22
217.097	27.91
217.314	31.03
217.531	40.84
217.749	50.14
217.966	30.38
218.183	18.99
218.4	9.55
218.618	2.76
218.835	-7.41
219.052	13.52
219.269	13.65
219.487	8.54
219.704	6.77
219.921	-5.17
220.138	-16.27
220.355	-20.57
220.572	-12.29
220.79	-17.05
221.007	-9.27
221.224	-11.73
221.441	-14.76
221.658	-5.82
221.875	-6.36
222.092	2.89
222.309	4.61
222.526	13.82
222.743	28.18
222.96	38.12
223.177	36.37
223.394	37.4
223.611	38.77
223.828	29.55
224.045	31.82
224.262	29.62
224.479	25.18
224.696	23.74
224.913	19.99
225.13	20.82
225.347	15.93
225.564	13.37
225.781	11.91
225.997	12.13
226.214	9.49
226.431	11.92
226.648	12.14
226.865	10.51
227.082	11.22
227.298	11.29
227.515	10.88
227.732	11.36
227.949	10.57
228.165	11.75
228.382	11.01
228.599	11.33
228.816	11.05
229.032	12.55
229.249	11.07
229.466	10.58
229.682	13.16
229.899	12.13
230.116	12.31
230.332	11.24
230.549	11.31
230.765	12.23
230.982	12.77
231.199	12.91
231.415	13.24
231.632	11.12
231.848	10.74
232.065	12.85
232.281	13.77
232.498	11.09
232.714	12.04
232.931	12.98
233.147	13.46
233.364	11.62
233.58	11.28
233.797	10.36
234.013	9.57
234.23	7.73
234.446	10.11
234.662	10.07
234.879	9.16
235.095	8.68
235.312	8.92
235.528	8.88
235.744	6.53
235.961	6.21
236.177	8.08
236.393	10.52
236.61	10.58
236.826	13.95
237.042	11.16
237.258	10.79
237.475	10.87
237.691	10.95
237.907	12.14
238.123	12.91
238.339	12.29
238.556	13.78
238.772	15.07
238.988	13.8
239.204	12.21
239.42	12.09
239.636	10.81
239.853	12.54
240.069	13.01
240.285	13.12
240.501	12.36
240.717	11.4
240.933	10.95
241.149	11.66
241.365	11.62
241.581	10.94
241.797	11.06
242.013	10.9
242.229	10.87
242.445	10.68
242.661	10.26
242.877	9.38
243.093	9
243.309	9.43
243.525	10.09
243.741	10.2
243.957	9.08
244.173	8.62
244.388	8.91
244.604	8.84
244.82	8.6
245.036	8.2
245.252	8.43
245.468	8.46
245.683	8.57
245.899	8.11
246.115	7.95
246.331	8.01
246.547	7.64
246.762	8.11
246.978	8.21
247.194	8.12
247.409	8.14
247.625	7.82
247.841	8.19
248.057	8.47
248.272	8.65
248.488	8.47
248.703	8.68
248.919	8.44
249.135	8.54
249.35	8
249.566	7.71
249.782	8.2
249.997	7.6
250.213	7.14
250.428	7.87
250.644	8.08
250.859	7.56
251.075	7.62
251.29	7.41
251.506	7.82
251.721	8.15
251.937	7.24
252.152	7.79
252.368	8.03
252.583	7.31
252.798	7.24
253.014	8.53
253.229	8
253.445	6.79
253.66	6.73
253.875	7.32
254.091	7.7
254.306	8.26
254.521	8.08
254.737	8.29
254.952	8.99
255.167	8.2
255.383	7.73
255.598	7.51
255.813	7.5
256.028	6.95
256.244	7.07
256.459	6.95
256.674	6.84
256.889	6.94
257.104	7.01
257.32	6.95
257.535	6.64
257.75	6.21
257.965	6.34
258.18	6.58
258.395	6.67
258.61	6.3
258.826	6.79
259.041	6.94
259.256	6.79
259.471	6.95
259.686	7.01
259.901	6.9
260.116	6.98
260.331	7.52
260.546	7.35
260.761	7.5
260.976	7.52
261.191	7.59
261.406	7.72
261.621	7.59
261.836	7.12
262.05	7.29
262.265	6.61
262.48	5.71
262.695	5.39
262.91	5.54
263.125	5.45
263.34	6.27
263.555	6
263.769	5.81
263.984	6.92
264.199	7.04
264.414	7.2
264.629	7.8
264.843	8.01
265.058	8.07
265.273	8.77
265.488	8.45
265.702	8.56
265.917	8.76
266.132	8.76
266.346	8.49
266.561	8.39
266.776	7.76
266.99	7.56
267.205	7.55
267.42	7.5
267.634	7.45
267.849	7.44
268.063	7.68
268.278	8.07
268.492	7.99
268.707	7.81
268.922	7.41
269.136	7.65
269.351	7.63
269.565	7.01
269.78	7.11
269.994	7.39
270.209	7.13
270.423	6.91
270.637	6.55
270.852	6.05
271.066	6
271.281	6.07
271.495	6.11
271.709	6.12
271.924	6.47
272.138	6.75
272.353	7.39
272.567	7.22
272.781	6.55
272.996	6.67
273.21	6.78
273.424	7.54
273.638	7.6
273.853	7.96
274.067	7.67
274.281	7.24
274.495	7.99
274.71	7.48
274.924	7.14
275.138	7.13
275.352	7.26
275.566	7.28
275.781	7.61
275.995	8.11
276.209	7.38
276.423	7.3
276.637	6.83
276.851	6.52
277.065	6.54
277.279	6.35
277.493	6.21
277.707	5.99
277.921	5.7
278.135	5.93
278.349	6.19
278.563	6.03
278.777	6.07
278.991	5.97
279.205	6.38
279.419	6.34
279.633	6.77
279.847	7.73
280.061	7.39
280.275	8.04
280.489	7.9
280.703	7.93
280.917	8.01
281.131	7.84
281.344	7.46
281.558	7.21
281.772	7.35
281.986	6.82
282.2	6.7
282.414	6.78
282.627	6.3
282.841	6.28
283.055	6.05
283.269	6.56
283.482	6.62
283.696	6.33
283.91	6.39
284.123	6.7
284.337	6.97
284.551	7.19
284.764	7.75
284.978	8.04
285.192	8.05
285.405	7.82
285.619	7.72
285.833	7.34
286.046	7.04
286.26	7.27
286.473	7.4
286.687	7.57
286.9	7.48
287.114	6.8
287.327	6.58
287.541	6.45
287.754	6.55
287.968	6.17
288.181	6.66
288.395	6.87
288.608	6.63
288.822	6.63
289.035	6.82
289.248	6.86
289.462	6.95
289.675	7.44
289.889	7.63
290.102	7.8
290.315	7.65
290.529	7.36
290.742	7.59
290.955	7.5
291.169	8.05
291.382	8.37
291.595	8.97
291.808	8.49
292.022	8.83
292.235	8.93
292.448	8.35
292.661	8.61
292.875	8.84
293.088	9.21
293.301	9.29
293.514	9.2
293.727	8.89
293.94	8.63
294.153	9.2
294.367	8.69
294.58	8.74
294.793	8.45
295.006	8.3
295.219	8.48
295.432	8.47
295.645	8.3
295.858	8.04
296.071	8.04
296.284	8.25
296.497	8.15
296.71	8.18
296.923	7.98
297.136	8.07
297.349	8.08
297.562	8.31
297.775	8.36
297.988	8.21
298.201	8.14
298.414	8.28
298.626	8.59
298.839	8.62
299.052	8.47
299.265	8.76
299.478	8.8
299.691	8.74
299.903	8.95
300.116	9.7
300.329	9.97
300.542	9.92
300.755	10.01
300.967	10.15
301.18	10.34
301.393	10.41
301.605	10.62
301.818	10.78
302.031	10.53
302.243	10.13
302.456	10
302.669	10.4
302.881	10.23
303.094	10.07
303.307	10.46
303.519	10.87
303.732	10.7
303.944	10.69
304.157	10.58
304.37	10.61
304.582	10.73
304.795	10.81
305.007	11.03
305.22	11.31
305.432	11.12
305.645	10.68
305.857	10.87
306.069	10.69
306.282	10.55
306.494	11.07
306.707	10.57
306.919	10.58
307.132	10.07
307.344	10.13
307.556	10.63
307.769	10.63
307.981	10.57
308.193	10.46
308.406	10.6
308.618	10.25
308.83	10.3
309.043	10.45
309.255	10.09
309.467	10.51
309.679	10.8
309.892	11.04
310.104	10.79
310.316	10.56
310.528	10.8
310.74	10.58
310.953	10.68
311.165	10.65
311.377	10.83
311.589	10.88
311.801	11.05
312.013	11.42
312.225	11.16
312.437	10.96
312.649	10.75
312.862	10.85
313.074	11.4
313.286	11.04
313.498	11.29
313.71	11.06
313.922	11.37
314.134	11.39
314.346	11.53
314.558	11.17
314.77	10.78
314.982	11.34
315.193	11.66
315.405	12.13
315.617	12.65
315.829	12
316.041	12.66
316.253	13.06
316.465	13.34
316.677	13.48
316.888	13.64
317.1	13.23
317.312	13.53
317.524	13.72
317.736	13.89
317.947	13.45
318.159	13.13
318.371	12.86
318.583	12.94
318.794	12.88
319.006	12.57
319.218	12.66
319.43	12.06
319.641	11.97
319.853	12.55
320.064	12.01
320.276	11.97
320.488	11.77
320.699	11.97
320.911	12.46
321.123	12.47
321.334	13.06
321.546	12.99
321.757	13.34
321.969	13.56
322.18	13.51
322.392	13.96
322.603	13.6
322.815	13.81
323.026	14.12
323.238	13.89
323.449	14.14
323.661	14.54
323.872	14.22
324.083	13.64
324.295	13.34
324.506	13.35
324.718	13.39
324.929	14.13
325.14	13.86
325.352	14.06
325.563	14.53
325.774	14.39
325.986	14.57
326.197	14.75
326.408	14.42
326.62	14.8
326.831	14.93
327.042	15.26
327.253	15.15
327.464	15.02
327.676	14.93
327.887	14.97
328.098	15.16
328.309	15.28
328.52	15.85
328.732	16.05
328.943	15.81
329.154	16.1
329.365	16.32
329.576	16.77
329.787	17.48
329.998	17.94
330.209	17.87
330.42	17.6
330.631	17.4
330.842	17.7
331.053	17.65
331.264	17.43
331.475	17.65
331.686	17.95
331.897	18.2
332.108	18.38
332.319	18.66
332.53	18.49
332.741	18.2
332.952	18.56
333.163	19.03
333.374	19.47
333.585	19.1
333.795	19.15
334.006	19.25
334.217	19.17
334.428	18.8
334.639	18.78
334.849	18.93
335.06	18.85
335.271	18.81
335.482	19.01
335.692	19.14
335.903	18.83
336.114	18.94
336.325	18.81
336.535	18.86
336.746	19.02
336.957	19.04
337.167	18.82
337.378	18.57
337.589	18.65
337.799	18.35
338.01	18.31
338.22	18.37
338.431	18.33
338.642	18.15
338.852	17.93
339.063	18.31
339.273	18.3
339.484	18.37
339.694	18.26
339.905	18.39
340.115	18.57
340.326	18.33
340.536	18.56
340.746	18.53
340.957	18.2
341.167	17.92
341.378	18.16
341.588	18.62
341.799	18.49
342.009	17.95
342.219	17.6
342.43	17.36
342.64	17.44
342.85	17.43
343.061	17.57
343.271	17.53
343.481	17.38
343.691	17.68
343.902	17.68
344.112	17.84
344.322	17.43
344.532	17.45
344.743	17.79
344.953	17.61
345.163	17.96
345.373	18.29
345.583	18.46
345.793	18.2
346.004	18.33
346.214	18.26
346.424	17.93
346.634	18.01
346.844	17.9
347.054	18.05
347.264	17.93
347.474	17.76
347.684	18.03
347.894	17.99
348.104	17.93
348.314	17.73
348.524	17.51
348.734	17.28
348.944	17.54
349.154	17.63
349.364	17.78
349.574	17.54
349.784	17.42
349.994	17.55
350.204	17.51
350.413	17.37
350.623	17.27
350.833	17.04
351.043	16.72
351.253	17.18
351.463	17.3
351.672	17.31
351.882	17.44
352.092	17.19
352.302	17.34
352.511	17.22
352.721	16.94
352.931	17.05
353.141	17.31
353.35	17.13
353.56	17.04
353.77	17.32
353.979	17.21
354.189	17.18
354.399	17.19
354.608	17.25
354.818	17.32
355.027	16.99
355.237	17.09
355.447	17.23
355.656	17.35
355.866	17.21
356.075	17.37
356.285	17.47
356.494	17.14
356.704	17.09
356.913	16.84
357.123	16.72
357.332	16.62
357.542	16.67
357.751	16.64
357.96	16.6
358.17	16.55
358.379	16.5
358.589	16.23
358.798	15.91
359.007	16.02
359.217	16.01
359.426	15.8
359.635	15.88
359.845	15.79
360.054	15.79
360.263	15.64
360.472	15.97
360.682	15.74
360.891	15.52
361.1	15.51
361.309	15.54
361.519	15.35
361.728	15.26
361.937	15.25
362.146	15.31
362.355	15.43
362.564	15.42
362.774	15.1
362.983	15.23
363.192	14.99
363.401	15.14
363.61	15.32
363.819	15.06
364.028	15.18
364.237	15.6
364.446	15.53
364.655	15.64
364.864	15.54
365.073	15.46
365.282	15.2
365.491	15.37
365.7	15.17
365.909	15.13
366.118	14.95
366.327	14.81
366.536	14.68
366.745	14.85
366.954	14.75
367.162	14.47
367.371	14.48
367.58	14.65
367.789	14.41
367.998	14.7
368.207	14.66
368.415	14.44
368.624	14.38
368.833	14.67
369.042	14.81
369.25	15.07
369.459	14.79
369.668	14.66
369.877	14.86
370.085	14.78
370.294	14.75
370.503	14.69
370.711	14.49
370.92	14.33
371.129	14.48
371.337	14.28
371.546	13.99
371.754	13.84
371.963	13.75
372.171	13.76
372.38	13.95
372.589	13.73
372.797	13.81
373.006	13.68
373.214	13.58
373.423	13.41
373.631	13.35
373.84	13.21
374.048	13.27
374.256	13.34
374.465	13.18
374.673	13.14
374.882	13.15
375.09	12.97
375.298	13.16
375.507	12.96
375.715	12.68
375.923	12.74
376.132	12.73
376.34	12.86
376.548	12.9
376.757	13.01
376.965	12.85
377.173	12.87
377.381	12.72
377.59	12.6
377.798	12.49
378.006	12.25
378.214	12.03
378.423	12.28
378.631	12.17
378.839	12.23
379.047	11.99
379.255	11.87
379.463	11.64
379.671	11.53
379.879	11.71
380.088	11.54
380.296	11.49
380.504	11.4
380.712	11.27
380.92	11.47
381.128	11.15
381.336	11.12
381.544	11.01
381.752	10.91
381.96	10.87
382.168	10.92
382.376	11.05
382.584	10.9
382.791	10.78
382.999	10.84
383.207	10.96
383.415	10.96
383.623	10.74
383.831	10.78
384.039	10.76
384.247	10.92
384.454	11.08
384.662	11.05
384.87	10.94
385.078	10.76
385.285	10.8
385.493	11.04
385.701	10.83
385.909	10.58
386.116	10.62
386.324	10.75
386.532	10.76
386.739	10.72
386.947	10.46
387.155	10.41
387.362	10.4
387.57	10.45
387.778	10.63
387.985	10.43
388.193	10.43
388.4	10.53
388.608	10.53
388.816	10.65
389.023	10.59
389.231	10.55
389.438	10.6
389.646	10.56
389.853	10.46
390.061	10.41
390.268	10.4
390.475	10.4
390.683	10.25
390.89	10.09
391.098	10.21
391.305	10.23
391.512	10.05
391.72	10
391.927	9.97
392.135	9.76
392.342	9.72
392.549	9.75
392.756	9.76
392.964	9.56
393.171	9.32
393.378	9.52
393.586	9.54
393.793	9.26
394	9.15
394.207	9.13
394.414	9.1
394.622	8.97
394.829	9
395.036	8.91
395.243	8.83
395.45	8.91
395.657	9.04
395.864	8.95
396.072	8.83
396.279	8.84
396.486	8.83
396.693	8.81
396.9	8.79
397.107	8.69
397.314	8.83
397.521	8.96
397.728	8.91
397.935	8.89
398.142	8.61
398.349	8.58
398.556	8.73
398.763	8.88
398.97	8.88
399.177	8.86
399.383	8.88
399.59	8.91
399.797	8.79
400.004	8.63
400.211	8.54
400.418	8.6
400.625	8.54
400.831	8.54
401.038	8.46
401.245	8.25
401.452	8.13
401.658	8.14
401.865	8.02
402.072	7.89
402.279	7.92
402.485	7.9
402.692	8
402.899	8
403.105	8.14
403.312	8.22
403.519	8.21
403.725	8.23
403.932	8.26
404.138	8.26
404.345	8.11
404.552	8.31
404.758	8.38
404.965	8.08
405.171	8.18
405.378	8.08
405.584	7.97
405.791	7.9
405.997	7.87
406.204	7.87
406.41	7.63
406.617	7.7
406.823	7.68
407.029	7.66
407.236	7.32
407.442	7.26
407.649	7.38
407.855	7.28
408.061	7.16
408.268	7.17
408.474	7.05
408.68	7.11
408.887	7.11
409.093	7.3
409.299	7.23
409.505	7.12
409.712	7.11
409.918	7.38
410.124	7.49
410.33	7.49
410.537	7.56
410.743	7.57
410.949	7.63
411.155	7.68
411.361	7.53
411.567	7.61
411.773	7.62
411.98	7.68
412.186	7.74
412.392	7.82
412.598	7.57
412.804	7.43
413.01	7.53
413.216	7.43
413.422	7.55
413.628	7.45
413.834	7.38
414.04	7.4
414.246	7.4
414.452	7.25
414.658	7.16
414.864	7.2
415.07	7.12
415.275	7.05
415.481	7.14
415.687	7.07
415.893	7.2
416.099	7.16
416.305	7.2
416.511	7.19
416.716	7.13
416.922	7.02
417.128	7.05
417.334	7.03
417.539	6.91
417.745	6.9
417.951	7
418.157	6.9
418.362	6.82
418.568	6.67
418.774	6.57
418.979	6.58
419.185	6.49
419.391	6.49
419.596	6.54
419.802	6.6
420.008	6.6
420.213	6.6
420.419	6.55
420.624	6.52
420.83	6.54
421.035	6.5
421.241	6.47
421.446	6.51
421.652	6.43
421.857	6.44
422.063	6.44
422.268	6.37
422.474	6.25
422.679	6.2
422.885	6.21
423.09	6.18
423.295	6.18
423.501	6.19
423.706	6.26
423.911	6.35
424.117	6.36
424.322	6.35
424.527	6.33
424.733	6.27
424.938	6.26
425.143	6.3
425.349	6.3
425.554	6.23
425.759	6.28
425.964	6.29
426.169	6.26
426.375	6.2
426.58	6.14
426.785	6.08
426.99	6.08
427.195	6.07
427.4	6.07
427.605	5.98
427.811	6.02
428.016	6.04
428.221	6.04
428.426	6.04
428.631	6.08
428.836	6.06
429.041	6.1
429.246	6.05
429.451	6.06
429.656	6.12
429.861	6.23
430.066	6.2
430.271	6.26
430.476	6.31
430.681	6.4
430.886	6.46
431.09	6.45
431.295	6.37
431.5	6.32
431.705	6.35
431.91	6.43
432.115	6.44
432.32	6.49
432.524	6.44
432.729	6.51
432.934	6.5
433.139	6.34
433.343	6.27
433.548	6.15
433.753	6.14
433.958	6.09
434.162	6.18
434.367	6.11
434.572	6.04
434.776	5.97
434.981	5.89
435.186	5.83
435.39	5.73
435.595	5.72
435.799	5.81
436.004	5.78
436.209	5.76
436.413	5.75
436.618	5.8
436.822	5.76
437.027	5.81
437.231	5.77
437.436	5.79
437.64	5.78
437.845	5.74
438.049	5.8
438.253	5.73
438.458	5.68
438.662	5.71
438.867	5.73
439.071	5.67
439.275	5.61
439.48	5.65
439.684	5.61
439.888	5.72
440.093	5.8
440.297	5.82
440.501	5.83
440.706	5.81
440.91	5.9
441.114	5.91
441.318	5.93
441.523	5.94
441.727	5.97
441.931	6.02
442.135	5.89
442.339	5.92
442.543	5.81
442.748	5.72
442.952	5.71
443.156	5.81
443.36	5.89
443.564	5.81
443.768	5.83
443.972	5.8
444.176	5.83
444.38	5.83
444.584	5.79
444.788	5.88
444.992	5.82
445.196	5.84
445.4	5.8
445.604	5.75
445.808	5.72
446.012	5.62
446.216	5.63
446.42	5.65
446.624	5.67
446.828	5.62
447.032	5.65
447.235	5.67
447.439	5.59
447.643	5.64
447.847	5.62
448.051	5.7
448.254	5.74
448.458	5.84
448.662	5.87
448.866	5.95
449.069	5.9
449.273	5.93
449.477	6.05
449.681	6.05
449.884	5.99
450.088	6.09
450.292	6.01
450.495	6.05
450.699	5.97
450.902	5.84
451.106	5.7
451.31	5.72
451.513	5.68
451.717	5.73
451.92	5.7
452.124	5.71
452.327	5.68
452.531	5.75
452.734	5.71
452.938	5.66
453.141	5.66
453.345	5.66
453.548	5.72
453.752	5.75
453.955	5.75
454.158	5.73
454.362	5.69
454.565	5.73
454.769	5.59
454.972	5.52
455.175	5.51
455.379	5.52
455.582	5.59
455.785	5.52
455.988	5.52
456.192	5.55
456.395	5.48
456.598	5.4
456.801	5.43
457.005	5.43
457.208	5.38
457.411	5.37
457.614	5.36
457.817	5.32
458.021	5.29
458.224	5.29
458.427	5.33
458.63	5.33
458.833	5.4
459.036	5.44
459.239	5.43
459.442	5.46
459.645	5.45
459.848	5.45
460.051	5.46
460.254	5.52
460.457	5.58
460.66	5.62
460.863	5.63
461.066	5.62
461.269	5.63
461.472	5.49
461.675	5.56
461.878	5.61
462.081	5.54
462.284	5.52
462.486	5.46
462.689	5.46
462.892	5.54
463.095	5.48
463.298	5.37
463.5	5.41
463.703	5.43
