Data from 2938454_Reflection_1.txt Node
Date: Fri Jun 19 17:51:12 EDT 2015
User: robert
Spectrometer: USB4E03002
Autoset integration time: false
Trigger mode: 4
Integration Time (sec): 1.000000E-1
Scans to average: 10
Electric dark correction enabled: true
Nonlinearity correction enabled: false
Boxcar width: 5
Stray light correction enabled: false
XAxis mode: Wavelengths
Stop averaging: false
Number of Pixels in Spectrum: 3648
>>>>>Begin Spectral Data<<<<<
177.575	-275.07
177.794	-41.05
178.014	-128.74
178.233	-28.79
178.452	20.24
178.672	-213.58
178.891	88.6
179.11	-466.41
179.33	-359.16
179.549	-185.71
179.768	-79.24
179.987	-101.38
180.207	-92.8
180.426	-288.04
180.645	-154.99
180.864	-380.39
181.084	853.33
181.303	335.74
181.522	193.75
181.741	235.95
181.96	131.97
182.179	140.57
182.398	108.08
182.618	125.82
182.837	135.78
183.056	131.91
183.275	96.86
183.494	92.1
183.713	106.06
183.932	116.6
184.151	126.96
184.37	234.18
184.589	299.12
184.808	243.03
185.027	209.08
185.246	176.06
185.465	413.13
185.684	300850
185.903	-117.11
186.122	-109.6
186.341	-76.29
186.56	-92.72
186.779	-3.52
186.998	-33.41
187.216	27.24
187.435	34.26
187.654	47.49
187.873	52.61
188.092	42.74
188.311	50.07
188.53	66.23
188.748	10.83
188.967	97.83
189.186	-48.75
189.405	-172.84
189.623	-9220.63
189.842	-979.12
190.061	-181.16
190.28	-347.24
190.498	-273
190.717	384.63
190.936	266.24
191.154	245.16
191.373	173.44
191.592	129.52
191.81	243.25
192.029	335.78
192.248	75.08
192.466	109.23
192.685	61.69
192.904	66.45
193.122	82.24
193.341	-163.06
193.559	879.51
193.778	-2792.2
193.996	-537.89
194.215	441.24
194.433	236.78
194.652	-539.78
194.87	-33.59
195.089	-241.64
195.307	-133.71
195.526	-549.38
195.744	284.63
195.963	149400
196.181	536.4
196.399	221.71
196.618	129.11
196.836	150.05
197.055	128.75
197.273	124.08
197.491	106.32
197.71	82.88
197.928	118.92
198.146	134.13
198.365	93.23
198.583	94.44
198.801	171.22
199.019	569.48
199.238	408.59
199.456	544.83
199.674	560.51
199.892	-4136.05
200.111	-425.13
200.329	-314.67
200.547	-194.6
200.765	-128.3
200.983	-148.87
201.202	-137.57
201.42	-123.48
201.638	-109.47
201.856	-43.96
202.074	-72.38
202.292	29.69
202.51	6.71
202.728	22.89
202.946	-32.49
203.165	1405.26
203.383	-164.74
203.601	-66.23
203.819	-245.97
204.037	225.91
204.255	145.72
204.473	78.75
204.691	67.47
204.909	166.89
205.127	51.13
205.345	60.01
205.562	24.8
205.78	30.18
205.998	6.39
206.216	-94.85
206.434	-519.6
206.652	278.37
206.87	174.59
207.088	1381.79
207.306	233.75
207.523	85.24
207.741	76.96
207.959	85.36
208.177	97.4
208.395	83.28
208.612	70.97
208.83	75.6
209.048	73.2
209.266	56.49
209.483	42.5
209.701	39.29
209.919	56.7
210.136	84.11
210.354	80.51
210.572	71.43
210.79	73.74
211.007	73.67
211.225	58.65
211.442	65.91
211.66	81.66
211.878	65.35
212.095	88.16
212.313	76.41
212.53	49.25
212.748	50.53
212.966	44.67
213.183	52.37
213.401	73.79
213.618	78.59
213.836	77.28
214.053	80.66
214.271	135.02
214.488	98.91
214.705	107.61
214.923	111.94
215.14	99.24
215.358	79.45
215.575	135.2
215.793	89.52
216.01	74.2
216.227	74.64
216.445	46.68
216.662	55.71
216.879	40.61
217.097	45.79
217.314	48.26
217.531	46.74
217.749	52.06
217.966	52.25
218.183	40.84
218.4	39.84
218.618	30.8
218.835	41.66
219.052	49.58
219.269	54.35
219.487	56
219.704	53.89
219.921	57
220.138	53.21
220.355	64.07
220.572	48.93
220.79	41.32
221.007	39.18
221.224	28.39
221.441	26.77
221.658	26.13
221.875	3.34
222.092	-0.01
222.309	5.17
222.526	2.7
222.743	-9.87
222.96	2.99
223.177	1.74
223.394	1.32
223.611	8.2
223.828	11.11
224.045	10.09
224.262	20.55
224.479	23.33
224.696	22.96
224.913	25.79
225.13	29.19
225.347	25.95
225.564	25.45
225.781	22.62
225.997	20.44
226.214	19.21
226.431	18.59
226.648	16.79
226.865	14.58
227.082	13.48
227.298	11.57
227.515	11.17
227.732	10.65
227.949	10.91
228.165	11.61
228.382	11.78
228.599	10.6
228.816	10.19
229.032	8.16
229.249	9.19
229.466	8.24
229.682	9.81
229.899	8.43
230.116	8.79
230.332	7.94
230.549	9.86
230.765	8.29
230.982	9.46
231.199	10.89
231.415	14.36
231.632	14.22
231.848	16.49
232.065	15.74
232.281	18.03
232.498	18.29
232.714	17.58
232.931	16.36
233.147	19.82
233.364	21.91
233.58	21.69
233.797	23.31
234.013	23.46
234.23	20.85
234.446	22.62
234.662	21.44
234.879	21.17
235.095	19.49
235.312	21.1
235.528	20.16
235.744	16.25
235.961	16.83
236.177	13.63
236.393	12.88
236.61	14.08
236.826	14.97
237.042	13.32
237.258	12.57
237.475	14.85
237.691	14.72
237.907	14.28
238.123	13.84
238.339	11.81
238.556	12.9
238.772	12.36
238.988	13.04
239.204	12.11
239.42	13.79
239.636	14.8
239.853	13.95
240.069	13.08
240.285	12.55
240.501	12.59
240.717	13.33
240.933	12.6
241.149	12.62
241.365	12.63
241.581	12.42
241.797	12.05
242.013	11.76
242.229	11.85
242.445	12.62
242.661	13.17
242.877	13.06
243.093	12.73
243.309	12.82
243.525	13.11
243.741	12.17
243.957	12.51
244.173	11.51
244.388	9.95
244.604	10.26
244.82	9.36
245.036	8.88
245.252	9.01
245.468	8.57
245.683	8.55
245.899	8.09
246.115	8.11
246.331	7.65
246.547	7.58
246.762	8.08
246.978	8.13
247.194	8.38
247.409	8.22
247.625	8.97
247.841	9.51
248.057	9.76
248.272	10.02
248.488	10.37
248.703	10.24
248.919	10.93
249.135	11.1
249.35	10.44
249.566	10.16
249.782	11.15
249.997	9.65
250.213	9.91
250.428	9.68
250.644	10.35
250.859	9.75
251.075	10.36
251.29	10.83
251.506	10.8
251.721	11.42
251.937	12.26
252.152	12.35
252.368	12.15
252.583	12.02
252.798	12.01
253.014	11.6
253.229	13.2
253.445	11.94
253.66	9.76
253.875	9.72
254.091	8.16
254.306	6.9
254.521	6.22
254.737	7.29
254.952	6.9
255.167	7.96
255.383	8.31
255.598	8
255.813	8.07
256.028	8.64
256.244	8.76
256.459	9.37
256.674	9.2
256.889	7.86
257.104	7.38
257.32	6.97
257.535	6.26
257.75	5.67
257.965	5.69
258.18	5.62
258.395	5.78
258.61	5.92
258.826	5.67
259.041	5.2
259.256	5.77
259.471	5.95
259.686	6.32
259.901	6.52
260.116	6.4
260.331	6.17
260.546	6.66
260.761	6.65
260.976	6.28
261.191	6.49
261.406	7.78
261.621	7.13
261.836	6.9
262.05	6.5
262.265	6.97
262.48	8.23
262.695	8.85
262.91	8.67
263.125	7.23
263.34	7.12
263.555	6.67
263.769	5.35
263.984	6.77
264.199	6.51
264.414	7.23
264.629	6.55
264.843	6.21
265.058	5.99
265.273	5.46
265.488	6.23
265.702	5.8
265.917	6.27
266.132	6.82
266.346	5.77
266.561	5.52
266.776	4.88
266.99	5
267.205	5.54
267.42	5.3
267.634	5.09
267.849	5.44
268.063	6.16
268.278	6.18
268.492	5.82
268.707	6.16
268.922	6.76
269.136	6.88
269.351	6.89
269.565	6.51
269.78	6.75
269.994	6.89
270.209	6.81
270.423	6.66
270.637	6.82
270.852	7.29
271.066	7.49
271.281	7.59
271.495	7.91
271.709	7.68
271.924	7.32
272.138	7.26
272.353	7.99
272.567	8.08
272.781	8.59
272.996	8.45
273.21	8.57
273.424	8.63
273.638	8.33
273.853	7.94
274.067	7.85
274.281	8.75
274.495	8
274.71	7.66
274.924	7.82
275.138	7.7
275.352	7.7
275.566	7.73
275.781	7.72
275.995	7.88
276.209	8.13
276.423	8.48
276.637	7.61
276.851	7.77
277.065	8.12
277.279	8.11
277.493	7.89
277.707	7.61
277.921	7.12
278.135	6.78
278.349	6.34
278.563	6.32
278.777	6.6
278.991	6.26
279.205	6.37
279.419	6.01
279.633	6.05
279.847	5.92
280.061	5.7
280.275	5.9
280.489	5.64
280.703	6.22
280.917	5.7
281.131	5.22
281.344	5.86
281.558	5.86
281.772	5.7
281.986	5.6
282.2	5.62
282.414	5.53
282.627	5.43
282.841	5.45
283.055	5.77
283.269	6.2
283.482	6.82
283.696	6.71
283.91	7.42
284.123	7.37
284.337	7.19
284.551	7.16
284.764	7.43
284.978	7.08
285.192	7.59
285.405	7.22
285.619	7.17
285.833	7.17
286.046	7.22
286.26	7.11
286.473	7.61
286.687	7.6
286.9	7.94
287.114	8.13
287.327	8.5
287.541	7.91
287.754	8.17
287.968	8.12
288.181	7.31
288.395	7.24
288.608	6.71
288.822	6.65
289.035	6.66
289.248	5.58
289.462	5.51
289.675	5.55
289.889	5.98
290.102	5.66
290.315	5.18
290.529	5.71
290.742	5.52
290.955	6.1
291.169	5.85
291.382	6.19
291.595	7.31
291.808	7.55
292.022	7.79
292.235	7.81
292.448	7.28
292.661	7.71
292.875	7.87
293.088	8.81
293.301	8.71
293.514	8.68
293.727	8.42
293.94	8.42
294.153	8.22
294.367	7.97
294.58	8.28
294.793	8.42
295.006	8.52
295.219	8.45
295.432	8.27
295.645	7.91
295.858	8.05
296.071	8.04
296.284	7.87
296.497	8.01
296.71	8.32
296.923	7.98
297.136	8.42
297.349	7.96
297.562	7.88
297.775	7.34
297.988	7.71
298.201	7.79
298.414	7.94
298.626	8.51
298.839	8.03
299.052	7.46
299.265	7.4
299.478	6.9
299.691	7.46
299.903	7.47
300.116	7.9
300.329	7.76
300.542	7.29
300.755	7.33
300.967	6.58
301.18	7.16
301.393	7.85
301.605	8
301.818	8.19
302.031	8.13
302.243	7.97
302.456	7.32
302.669	7.16
302.881	7.39
303.094	7.42
303.307	7.16
303.519	6.71
303.732	6.39
303.944	6.5
304.157	6.57
304.37	6.86
304.582	7.11
304.795	7.81
305.007	8.14
305.22	7.73
305.432	7.26
305.645	7.44
305.857	8.15
306.069	8.5
306.282	8.21
306.494	8.38
306.707	8.05
306.919	7.75
307.132	7.34
307.344	7.16
307.556	7.4
307.769	7.66
307.981	7.98
308.193	7.68
308.406	7.21
308.618	7.03
308.83	6.84
309.043	7.39
309.255	7.57
309.467	8.01
309.679	8.15
309.892	8.37
310.104	8.62
310.316	8.59
310.528	8.77
310.74	9.23
310.953	9.22
311.165	9.59
311.377	9.71
311.589	10.02
311.801	10.25
312.013	10.48
312.225	10.02
312.437	10.1
312.649	10.53
312.862	10.47
313.074	10.03
313.286	10.7
313.498	10.54
313.71	10.22
313.922	10.1
314.134	10.01
314.346	9.33
314.558	9.76
314.77	9.92
314.982	9.59
315.193	9.66
315.405	9.89
315.617	9.9
315.829	10.38
316.041	10.24
316.253	10.44
316.465	9.94
316.677	10.67
316.888	11.15
317.1	10.74
317.312	10.83
317.524	10.25
317.736	10.68
317.947	10.63
318.159	9.76
318.371	9.92
318.583	9.33
318.794	9.49
319.006	8.68
319.218	8.42
319.43	8.36
319.641	8.48
319.853	9.2
320.064	9.25
320.276	9.17
320.488	9.14
320.699	8.71
320.911	9.13
321.123	9.05
321.334	9.57
321.546	9.38
321.757	8.84
321.969	8.62
322.18	8.26
322.392	7.98
322.603	7.56
322.815	7.72
323.026	8.02
323.238	7.82
323.449	7.65
323.661	7.55
323.872	7.53
324.083	8.06
324.295	7.97
324.506	7.94
324.718	8.16
324.929	8.4
325.14	8.96
325.352	9.29
325.563	9.56
325.774	10.03
325.986	10.24
326.197	10.58
326.408	10.88
326.62	11.52
326.831	11.99
327.042	11.33
327.253	11.25
327.464	11.48
327.676	10.72
327.887	10.29
328.098	9.9
328.309	10.2
328.52	10.32
328.732	10.42
328.943	10.35
329.154	9.85
329.365	10.26
329.576	10.76
329.787	10.56
329.998	11.56
330.209	12.56
330.42	13.07
330.631	12.44
330.842	12.85
331.053	12.69
331.264	12.69
331.475	13.03
331.686	12.9
331.897	12.84
332.108	12.57
332.319	12.37
332.53	12.14
332.741	12.35
332.952	13
333.163	12.83
333.374	13.01
333.585	12.81
333.795	13.03
334.006	13.28
334.217	13.08
334.428	12.98
334.639	13.17
334.849	13.31
335.06	13.64
335.271	13.48
335.482	12.92
335.692	12.78
335.903	12.94
336.114	12.73
336.325	13.06
336.535	13.51
336.746	13.71
336.957	13.38
337.167	12.97
337.378	12.52
337.589	12.74
337.799	12.7
338.01	12.99
338.22	13.33
338.431	13.88
338.642	13.83
338.852	13.76
339.063	13.88
339.273	14
339.484	14.09
339.694	13.95
339.905	13.82
340.115	14.15
340.326	13.82
340.536	13.42
340.746	13.01
340.957	13
341.167	12.98
341.378	12.68
341.588	12.73
341.799	12.47
342.009	12.07
342.219	11.8
342.43	11.59
342.64	11.93
342.85	11.4
343.061	11.25
343.271	10.68
343.481	10.72
343.691	10.92
343.902	10.77
344.112	10.7
344.322	11.15
344.532	11.17
344.743	11.29
344.953	11.2
345.163	11.7
345.373	11.59
345.583	12.04
345.793	11.79
346.004	11.9
346.214	12.22
346.424	12.58
346.634	12.32
346.844	11.9
347.054	11.52
347.264	11.76
347.474	12.09
347.684	12.23
347.894	12.29
348.104	12.35
348.314	12.13
348.524	11.58
348.734	11.56
348.944	11.77
349.154	12.28
349.364	12.82
349.574	11.9
349.784	11.52
349.994	11.5
350.204	11.13
350.413	11.15
350.623	11.1
350.833	11.11
351.043	11.36
351.253	10.83
351.463	10.98
351.672	10.92
351.882	11.63
352.092	11.29
352.302	11.62
352.511	11.85
352.721	11.94
352.931	11.89
353.141	12.06
353.35	11.36
353.56	11.83
353.77	11.7
353.979	11.2
354.189	11.28
354.399	11.5
354.608	11.25
354.818	10.96
355.027	10.97
355.237	10.8
355.447	10.67
355.656	10.75
355.866	10.39
356.075	10.53
356.285	10.51
356.494	10.44
356.704	10.45
356.913	10.55
357.123	10.32
357.332	10.04
357.542	10.63
357.751	10.46
357.96	11.06
358.17	11.2
358.379	10.79
358.589	11.38
358.798	11.1
359.007	11.14
359.217	11.05
359.426	11.23
359.635	11.38
359.845	10.89
360.054	10.87
360.263	10.55
360.472	10.54
360.682	10.82
360.891	10.42
361.1	10.27
361.309	10.3
361.519	10.17
361.728	10.31
361.937	10.11
362.146	10.11
362.355	10.2
362.564	10.06
362.774	10.26
362.983	9.98
363.192	10.03
363.401	10.38
363.61	10.34
363.819	10.6
364.028	10.52
364.237	10.13
364.446	9.77
364.655	9.9
364.864	9.9
365.073	9.92
365.282	9.44
365.491	9.4
365.7	9.3
365.909	9.13
366.118	8.91
366.327	8.77
366.536	9.29
366.745	9.6
366.954	9.44
367.162	9.35
367.371	9.07
367.58	9.52
367.789	9.57
367.998	9.29
368.207	9.3
368.415	8.93
368.624	9.04
368.833	8.71
369.042	8.92
369.25	9.18
369.459	9.28
369.668	9.16
369.877	9.09
370.085	9.21
370.294	9.32
370.503	8.95
370.711	9
370.92	8.7
371.129	8.93
371.337	8.53
371.546	8.43
371.754	8.28
371.963	8.12
372.171	7.9
372.38	7.53
372.589	7.62
372.797	8.01
373.006	8.48
373.214	8.52
373.423	8.51
373.631	8.6
373.84	8.18
374.048	8.37
374.256	8.76
374.465	9.14
374.673	9.32
374.882	9.16
375.09	8.84
375.298	8.45
375.507	8.5
375.715	8.31
375.923	8.23
376.132	8.32
376.34	7.88
376.548	7.47
376.757	7.23
376.965	7.07
377.173	6.94
377.381	7.19
377.59	7.25
377.798	7.36
378.006	7.46
378.214	7.92
378.423	8.08
378.631	8.45
378.839	8.6
379.047	8.74
379.255	8.71
379.463	8.54
379.671	8.24
379.879	7.98
380.088	7.82
380.296	7.63
380.504	7.25
380.712	7.18
380.92	7.1
381.128	6.95
381.336	6.49
381.544	6.49
381.752	6.52
381.96	6.61
382.168	6.91
382.376	6.79
382.584	6.56
382.791	6.68
382.999	6.76
383.207	6.69
383.415	6.8
383.623	6.94
383.831	7.11
384.039	7.32
384.247	7.29
384.454	7.1
384.662	7.01
384.87	7.05
385.078	6.84
385.285	6.66
385.493	6.56
385.701	6.46
385.909	6.56
386.116	6.4
386.324	6.14
386.532	6.21
386.739	6.26
386.947	6.31
387.155	6.53
387.362	6.65
387.57	6.78
387.778	6.9
387.985	6.7
388.193	6.46
388.4	6.15
388.608	6.27
388.816	6.17
389.023	5.97
389.231	5.95
389.438	5.84
389.646	5.8
389.853	5.76
390.061	5.58
390.268	5.83
390.475	5.94
390.683	6.25
390.89	6.23
391.098	6.14
391.305	6.34
391.512	6.3
391.72	6.33
391.927	6.24
392.135	6.09
392.342	6.22
392.549	6.04
392.756	6.24
392.964	6.1
393.171	6.16
393.378	6.28
393.586	6.09
393.793	6.14
394	6.06
394.207	6.08
394.414	6.32
394.622	6.35
394.829	6.31
395.036	6.07
395.243	5.92
395.45	5.7
395.657	5.54
395.864	5.6
396.072	5.62
396.279	5.53
396.486	5.46
396.693	5.21
396.9	5
397.107	5.18
397.314	5.08
397.521	5.09
397.728	5.15
397.935	5.24
398.142	5.25
398.349	5.31
398.556	5.33
398.763	5.24
398.97	5.21
399.177	5.31
399.383	5.1
399.59	5.11
399.797	5.12
400.004	5.01
400.211	4.97
400.418	4.96
400.625	4.67
400.831	4.75
401.038	4.83
401.245	4.8
401.452	4.62
401.658	4.76
401.865	4.79
402.072	4.82
402.279	4.85
402.485	4.76
402.692	4.68
402.899	4.86
403.105	4.85
403.312	4.9
403.519	4.91
403.725	4.97
403.932	4.91
404.138	4.93
404.345	4.8
404.552	4.83
404.758	5.03
404.965	5.06
405.171	4.95
405.378	4.92
405.584	4.85
405.791	4.81
405.997	4.82
406.204	4.75
406.41	4.76
406.617	4.99
406.823	5.03
407.029	4.87
407.236	5.04
407.442	5.04
407.649	5.05
407.855	5.09
408.061	5.17
408.268	5.24
408.474	5.33
408.68	5.35
408.887	5.31
409.093	5.35
409.299	5.42
409.505	5.33
409.712	5.28
409.918	5.25
410.124	5.16
410.33	5.15
410.537	4.98
410.743	4.81
410.949	4.76
411.155	4.74
411.361	4.65
411.567	4.59
411.773	4.46
411.98	4.56
412.186	4.67
412.392	4.59
412.598	4.42
412.804	4.62
413.01	4.76
413.216	4.69
413.422	4.53
413.628	4.58
413.834	4.66
414.04	4.69
414.246	4.67
414.452	4.62
414.658	4.73
414.864	4.8
415.07	4.78
415.275	4.87
415.481	4.95
415.687	4.95
415.893	4.89
416.099	4.77
416.305	4.81
416.511	4.84
416.716	4.85
416.922	4.81
417.128	4.86
417.334	4.78
417.539	4.71
417.745	4.68
417.951	4.75
418.157	4.77
418.362	4.89
418.568	4.84
418.774	4.76
418.979	4.66
419.185	4.72
419.391	4.8
419.596	4.82
419.802	4.74
420.008	4.8
420.213	4.7
420.419	4.77
420.624	4.69
420.83	4.67
421.035	4.72
421.241	4.74
421.446	4.73
421.652	4.61
421.857	4.57
422.063	4.62
422.268	4.64
422.474	4.71
422.679	4.59
422.885	4.59
423.09	4.63
423.295	4.66
423.501	4.66
423.706	4.62
423.911	4.61
424.117	4.65
424.322	4.67
424.527	4.59
424.733	4.63
424.938	4.6
425.143	4.55
425.349	4.64
425.554	4.54
425.759	4.7
425.964	4.69
426.169	4.78
426.375	4.77
426.58	4.78
426.785	4.86
426.99	4.86
427.195	5.03
427.4	5.08
427.605	4.91
427.811	5.06
428.016	4.92
428.221	4.98
428.426	4.98
428.631	4.98
428.836	4.93
429.041	4.87
429.246	4.85
429.451	4.77
429.656	4.79
429.861	4.81
430.066	4.7
430.271	4.69
430.476	4.74
430.681	4.76
430.886	4.77
431.09	4.8
431.295	4.83
431.5	4.84
431.705	4.92
431.91	4.93
432.115	4.92
432.32	4.92
432.524	5
432.729	5.01
432.934	5.01
433.139	4.99
433.343	5.04
433.548	4.99
433.753	4.99
433.958	4.94
434.162	4.9
434.367	4.94
434.572	4.9
434.776	4.83
434.981	4.72
435.186	4.58
435.39	4.62
435.595	4.64
435.799	4.64
436.004	4.68
436.209	4.62
436.413	4.58
436.618	4.5
436.822	4.54
437.027	4.49
437.231	4.57
437.436	4.68
437.64	4.61
437.845	4.55
438.049	4.54
438.253	4.57
438.458	4.63
438.662	4.68
438.867	4.71
439.071	4.65
439.275	4.68
439.48	4.61
439.684	4.63
439.888	4.61
440.093	4.68
440.297	4.64
440.501	4.64
440.706	4.63
440.91	4.59
441.114	4.54
441.318	4.6
441.523	4.62
441.727	4.62
441.931	4.53
442.135	4.65
442.339	4.63
442.543	4.84
442.748	4.72
442.952	4.67
443.156	4.69
443.36	4.72
443.564	4.75
443.768	4.77
443.972	4.8
444.176	4.82
444.38	4.81
444.584	4.68
444.788	4.53
444.992	4.56
445.196	4.59
445.4	4.58
445.604	4.6
445.808	4.62
446.012	4.6
446.216	4.61
446.42	4.6
446.624	4.62
446.828	4.72
447.032	4.76
447.235	4.8
447.439	4.79
447.643	4.74
447.847	4.71
448.051	4.68
448.254	4.75
448.458	4.75
448.662	4.76
448.866	4.72
449.069	4.69
449.273	4.73
449.477	4.64
449.681	4.65
449.884	4.74
450.088	4.73
450.292	4.64
450.495	4.53
450.699	4.47
450.902	4.5
451.106	4.47
451.31	4.47
451.513	4.36
451.717	4.37
451.92	4.42
452.124	4.37
452.327	4.41
452.531	4.41
452.734	4.38
452.938	4.38
453.141	4.22
453.345	4.25
453.548	4.34
453.752	4.44
453.955	4.49
454.158	4.45
454.362	4.54
454.565	4.58
454.769	4.57
454.972	4.6
455.175	4.64
455.379	4.81
455.582	4.76
455.785	4.66
455.988	4.62
456.192	4.51
456.395	4.39
456.598	4.4
456.801	4.36
457.005	4.42
457.208	4.51
457.411	4.49
457.614	4.47
457.817	4.47
458.021	4.47
458.224	4.42
458.427	4.53
458.63	4.56
458.833	4.49
459.036	4.44
459.239	4.44
459.442	4.38
459.645	4.42
459.848	4.39
460.051	4.36
460.254	4.35
460.457	4.48
460.66	4.42
460.863	4.48
461.066	4.52
461.269	4.6
461.472	4.5
461.675	4.56
461.878	4.49
462.081	4.48
462.284	4.51
462.486	4.47
462.689	4.4
462.892	4.44
463.095	4.37
463.298	4.39
463.5	4.37
463.703	4.42
463.906	4.36
464.109	4.3
464.311	4.32
464.514	4.4
464.717	4.52
464.92	4.43
465.122	4.25
465.325	4.3
465.528	4.22
465.73	4.19
465.933	4.27
466.135	4.24
466.338	4.3
466.541	4.42
466.743	4.42
466.946	4.36
