Data from 2938469_Reflection_3.txt Node
Date: Wed Jun 17 13:39:33 EDT 2015
User: robert
Spectrometer: USB4E03002
Autoset integration time: false
Trigger mode: 4
Integration Time (sec): 1.000000E-1
Scans to average: 10
Electric dark correction enabled: true
Nonlinearity correction enabled: false
Boxcar width: 5
Stray light correction enabled: false
XAxis mode: Wavelengths
Stop averaging: false
Number of Pixels in Spectrum: 3648
>>>>>Begin Spectral Data<<<<<
177.575	0.28
177.794	30.8
178.014	23.58
178.233	20.58
178.452	41.39
178.672	45.35
178.891	171.68
179.11	7.45
179.33	-1.12
179.549	-16.85
179.768	-59.41
179.987	-39.75
180.207	-26.76
180.426	-42.96
180.645	-54.21
180.864	-81.24
181.084	-70.49
181.303	-435.77
181.522	504.71
181.741	199.75
181.96	166.08
182.179	103.91
182.398	87.22
182.618	114.41
182.837	127.4
183.056	86.76
183.275	66.76
183.494	82.55
183.713	66.41
183.932	102.34
184.151	81.39
184.37	96.37
184.589	126.63
184.808	143.16
185.027	135.18
185.246	169.84
185.465	168.69
185.684	180.77
185.903	254.66
186.122	404.42
186.341	2040.94
186.56	2816.88
186.779	453.45
186.998	2447.58
187.216	-229.19
187.435	-895.57
187.654	11887.21
187.873	-2304.12
188.092	487.79
188.311	870.36
188.53	1003.45
188.748	770.48
188.967	2620.85
189.186	-320.61
189.405	-23500
189.623	806.45
189.842	407.3
190.061	269.38
190.28	330.2
190.498	-155.96
190.717	-1684.56
190.936	2550.7
191.154	1452.58
191.373	559.5
191.592	449.24
191.81	645.67
192.029	802.21
192.248	1048.66
192.466	-960.11
192.685	-1530.99
192.904	269.92
193.122	368.59
193.341	295.75
193.559	315.37
193.778	354.65
193.996	459.97
194.215	2160.36
194.433	474.76
194.652	329.15
194.87	154.38
195.089	205.11
195.307	1210.63
195.526	593.33
195.744	798.07
195.963	361.27
196.181	269.78
196.399	213.03
196.618	207.15
196.836	301.59
197.055	392.82
197.273	701.47
197.491	416.24
197.71	382.12
197.928	534.7
198.146	602.08
198.365	816.68
198.583	10175.2
198.801	-429.36
199.019	-631.58
199.238	-691.93
199.456	-265.61
199.674	-550.22
199.892	-1617.9
200.111	-1443.66
200.329	1223.74
200.547	15232.88
200.765	-789.7
200.983	-919.81
201.202	964.62
201.42	891.23
201.638	676.69
201.856	339.56
202.074	279.88
202.292	570.23
202.51	402.94
202.728	482.6
202.946	405.99
203.165	403.05
203.383	342.09
203.601	221.39
203.819	218.65
204.037	282.34
204.255	411.3
204.473	5288.41
204.691	501.61
204.909	794.06
205.127	412.47
205.345	489.48
205.562	96.94
205.78	151.8
205.998	-389.28
206.216	-902.08
206.434	-977.68
206.652	494.89
206.87	303
207.088	404.78
207.306	211.45
207.523	156.91
207.741	138.74
207.959	206.61
208.177	144.54
208.395	152.55
208.612	158.09
208.83	171.7
209.048	170.2
209.266	197.09
209.483	178.76
209.701	214.78
209.919	304.27
210.136	218.56
210.354	199.3
210.572	197.89
210.79	169.93
211.007	170.55
211.225	142.46
211.442	134.19
211.66	109.04
211.878	110.04
212.095	137.01
212.313	122.22
212.53	124.31
212.748	115.97
212.966	115.99
213.183	106.93
213.401	59.08
213.618	73.68
213.836	78.34
214.053	104.37
214.271	129.89
214.488	59.02
214.705	41.76
214.923	60.25
215.14	113.98
215.358	117.04
215.575	144.82
215.793	425.02
216.01	129.61
216.227	139.02
216.445	127.38
216.662	90.93
216.879	99.68
217.097	110.96
217.314	109.73
217.531	115.62
217.749	97.5
217.966	88.82
218.183	85.47
218.4	86.69
218.618	74.66
218.835	65.33
219.052	74.15
219.269	69.9
219.487	57.59
219.704	64.19
219.921	38.39
220.138	47.47
220.355	57.9
220.572	57.87
220.79	68.39
221.007	54.44
221.224	53.1
221.441	55.64
221.658	59.62
221.875	64.93
222.092	49.2
222.309	43.68
222.526	44.65
222.743	35.18
222.96	34.9
223.177	26.79
223.394	28.86
223.611	24.85
223.828	29.76
224.045	31.54
224.262	30.06
224.479	33.15
224.696	34.13
224.913	29.73
225.13	28.14
225.347	25.53
225.564	23.39
225.781	22.95
225.997	19.78
226.214	17.08
226.431	15.95
226.648	15.34
226.865	14.92
227.082	15.69
227.298	17.04
227.515	17.12
227.732	17.4
227.949	16.51
228.165	15.97
228.382	18.03
228.599	18.42
228.816	18.56
229.032	17.68
229.249	16.73
229.466	16.75
229.682	15.65
229.899	16.6
230.116	16.37
230.332	18.71
230.549	20.66
230.765	20.71
230.982	18.26
231.199	17.64
231.415	21.53
231.632	22.52
231.848	21.26
232.065	21.51
232.281	20.55
232.498	20.58
232.714	20.52
232.931	19.2
233.147	19.57
233.364	20.65
233.58	18.53
233.797	18.05
234.013	19.64
234.23	21.31
234.446	22.08
234.662	22.63
234.879	24.28
235.095	24.63
235.312	23.77
235.528	23.32
235.744	24.63
235.961	28.16
236.177	27.84
236.393	26.51
236.61	25.09
236.826	22.73
237.042	21.5
237.258	19.74
237.475	19.13
237.691	20
237.907	19.44
238.123	20.58
238.339	20.48
238.556	19.37
238.772	18.31
238.988	16.85
239.204	15.4
239.42	14.94
239.636	14.85
239.853	14.32
240.069	14.5
240.285	13.92
240.501	12.63
240.717	12.53
240.933	12.73
241.149	13.24
241.365	13.48
241.581	15.08
241.797	14.78
242.013	14.41
242.229	14.6
242.445	14.71
242.661	14.89
242.877	15.53
243.093	14.96
243.309	14.16
243.525	14.14
243.741	14.39
243.957	13.93
244.173	13.54
244.388	13.31
244.604	12.96
244.82	12.64
245.036	12.75
245.252	12.61
245.468	12.53
245.683	12.95
245.899	12.5
246.115	12.62
246.331	12.38
246.547	12.52
246.762	12.3
246.978	12.39
247.194	12.3
247.409	11.67
247.625	11.64
247.841	11.94
248.057	11.44
248.272	11.65
248.488	11.13
248.703	10.88
248.919	11.66
249.135	11.61
249.35	11.63
249.566	12.24
249.782	12.92
249.997	13.23
250.213	12.11
250.428	12.28
250.644	11.76
250.859	11.92
251.075	12.53
251.29	11.86
251.506	12.48
251.721	12.92
251.937	12.27
252.152	12.16
252.368	11.48
252.583	11.73
252.798	12.53
253.014	13.91
253.229	14.21
253.445	13.41
253.66	14.41
253.875	14.35
254.091	13.08
254.306	13.33
254.521	14.48
254.737	14.62
254.952	14.71
255.167	12.84
255.383	12.63
255.598	12.74
255.813	13.54
256.028	12.6
256.244	12.32
256.459	12.07
256.674	11.65
256.889	10.52
257.104	10.43
257.32	10.83
257.535	10.74
257.75	10.33
257.965	9.96
258.18	9.47
258.395	9.51
258.61	9.77
258.826	9.64
259.041	9.53
259.256	9.58
259.471	9.76
259.686	9.28
259.901	9.88
260.116	9.82
260.331	10.27
260.546	10.37
260.761	10.17
260.976	9.7
261.191	9.68
261.406	10.31
261.621	10.86
261.836	10.79
262.05	11.4
262.265	10.92
262.48	11.43
262.695	10.65
262.91	11.15
263.125	11.81
263.34	12.24
263.555	13.28
263.769	12.56
263.984	12.43
264.199	12.51
264.414	11.97
264.629	12.16
264.843	11.98
265.058	11.68
265.273	11.54
265.488	11.23
265.702	10.81
265.917	9.91
266.132	9.74
266.346	9.45
266.561	8.82
266.776	9.38
266.99	9.02
267.205	9.02
267.42	9.46
267.634	9.24
267.849	8.85
268.063	8.73
268.278	9.11
268.492	9.73
268.707	9.82
268.922	9.76
269.136	8.82
269.351	8.36
269.565	8.07
269.78	7.42
269.994	7.57
270.209	7.91
270.423	8.04
270.637	8.25
270.852	7.92
271.066	7.85
271.281	7.92
271.495	8.41
271.709	9.16
271.924	8.86
272.138	8.98
272.353	9.13
272.567	8.73
272.781	8.85
272.996	8.62
273.21	9.27
273.424	8.89
273.638	9.48
273.853	9.57
274.067	8.96
274.281	10.11
274.495	10.46
274.71	10.39
274.924	10.79
275.138	10.59
275.352	10.61
275.566	10.09
275.781	10.77
275.995	9.67
276.209	9.79
276.423	9.29
276.637	8.46
276.851	8.06
277.065	6.85
277.279	7.26
277.493	7.63
277.707	7.29
277.921	7.1
278.135	7.05
278.349	7.78
278.563	7.37
278.777	8.03
278.991	7.78
279.205	8.51
279.419	9.14
279.633	8.84
279.847	8.61
280.061	9
280.275	8.93
280.489	8.54
280.703	8.94
280.917	9.01
281.131	8.96
281.344	9.08
281.558	8.6
281.772	8.69
281.986	8.76
282.2	8.9
282.414	8.35
282.627	8.4
282.841	8.47
283.055	8.3
283.269	8.27
283.482	8.24
283.696	8.32
283.91	8.59
284.123	8.66
284.337	8.45
284.551	8.47
284.764	8.74
284.978	8.7
285.192	8.57
285.405	8.56
285.619	8.54
285.833	8.82
286.046	9.17
286.26	9.03
286.473	9.08
286.687	9.17
286.9	9.5
287.114	9.67
287.327	9.72
287.541	10.23
287.754	10.36
287.968	10.45
288.181	10.03
288.395	9.86
288.608	10.05
288.822	10.12
289.035	10.58
289.248	10.33
289.462	10.47
289.675	10.49
289.889	10.35
290.102	10.2
290.315	10.43
290.529	10.64
290.742	10.74
290.955	10.81
291.169	10.98
291.382	10.44
291.595	10.64
291.808	10.61
292.022	10.99
292.235	11.05
292.448	10.72
292.661	10.73
292.875	10.58
293.088	10.69
293.301	10.79
293.514	10.47
293.727	10.48
293.94	10.33
294.153	10.74
294.367	10.94
294.58	11.01
294.793	11.52
295.006	11.97
295.219	12.14
295.432	12.3
295.645	12.24
295.858	12.47
296.071	12.97
296.284	13.31
296.497	13.24
296.71	13.2
296.923	13.16
297.136	13.25
297.349	13.05
297.562	13.22
297.775	13.38
297.988	13.75
298.201	14.08
298.414	13.86
298.626	14
298.839	13.95
299.052	14.01
299.265	14.24
299.478	14.45
299.691	14.98
299.903	14.98
300.116	15.19
300.329	15.3
300.542	15.14
300.755	15.62
300.967	15.36
301.18	15.95
301.393	16.12
301.605	16.51
301.818	16.13
302.031	15.97
302.243	16.13
302.456	15.91
302.669	15.87
302.881	16.19
303.094	15.9
303.307	15.96
303.519	15.62
303.732	15.53
303.944	15.23
304.157	15.92
304.37	16.24
304.582	16.23
304.795	16.07
305.007	16.09
305.22	15.99
305.432	15.82
305.645	15.69
305.857	15.66
306.069	16.06
306.282	15.99
306.494	15.37
306.707	15.01
306.919	15.83
307.132	15.8
307.344	15.93
307.556	15.95
307.769	16.26
307.981	16.61
308.193	16.45
308.406	16.14
308.618	16.55
308.83	16.72
309.043	16.69
309.255	16.31
309.467	16.34
309.679	16.32
309.892	16.08
310.104	16.11
310.316	16.21
310.528	16.97
310.74	16.9
310.953	16.96
311.165	17.16
311.377	17.38
311.589	17.32
311.801	17.79
312.013	17.99
312.225	18.35
312.437	18.62
312.649	18.68
312.862	18.18
313.074	18.68
313.286	18.35
313.498	17.82
313.71	17.74
313.922	17.65
314.134	17.49
314.346	17.36
314.558	17.8
314.77	17.58
314.982	17.46
315.193	17.62
315.405	17.3
315.617	17.81
315.829	18.41
316.041	18.52
316.253	19.02
316.465	19.14
316.677	19.21
316.888	19.22
317.1	19.1
317.312	19.56
317.524	19.61
317.736	19.95
317.947	19.86
318.159	20.32
318.371	19.8
318.583	19.25
318.794	18.87
319.006	19.11
319.218	18.69
319.43	19.46
319.641	19.55
319.853	19.24
320.064	19.52
320.276	19.37
320.488	19.39
320.699	19.96
320.911	20.77
321.123	21.07
321.334	21.09
321.546	21.16
321.757	20.78
321.969	20.38
322.18	20.68
322.392	19.86
322.603	20.43
322.815	20.08
323.026	20.32
323.238	20.37
323.449	20.83
323.661	20.85
323.872	21.45
324.083	21.88
324.295	22.42
324.506	22.4
324.718	23.36
324.929	23.7
325.14	24.2
325.352	24.57
325.563	24.68
325.774	25.02
325.986	25.28
326.197	25.46
326.408	25.35
326.62	25.5
326.831	25.99
327.042	25.97
327.253	25.94
327.464	25.91
327.676	26.39
327.887	26.49
328.098	26.62
328.309	26.95
328.52	27.14
328.732	27.39
328.943	28.16
329.154	28.57
329.365	29.22
329.576	29.72
329.787	30.21
329.998	30
330.209	30.3
330.42	30.38
330.631	30.49
330.842	30.44
331.053	30.82
331.264	30.21
331.475	30.35
331.686	30.32
331.897	30.39
332.108	30.47
332.319	30.73
332.53	30.8
332.741	31.04
332.952	30.95
333.163	31.16
333.374	31.22
333.585	31.65
333.795	32.02
334.006	32.21
334.217	32.17
334.428	32.52
334.639	32.57
334.849	33.28
335.06	33.45
335.271	33.77
335.482	34.08
335.692	34.64
335.903	34.53
336.114	34.44
336.325	34.5
336.535	34.9
336.746	34.73
336.957	34.97
337.167	34.77
337.378	34.5
337.589	34.71
337.799	34.61
338.01	34.5
338.22	34.79
338.431	34.62
338.642	34.59
338.852	34.25
339.063	34.17
339.273	33.95
339.484	33.92
339.694	34.3
339.905	34.27
340.115	34.21
340.326	33.82
340.536	33.78
340.746	33.55
340.957	33.46
341.167	33.35
341.378	33.43
341.588	33.37
341.799	33.12
342.009	32.9
342.219	32.69
342.43	32.87
342.64	32.99
342.85	32.83
343.061	33.5
343.271	33.7
343.481	33.87
343.691	33.95
343.902	34.13
344.112	34.52
344.322	34.5
344.532	34.52
344.743	34.63
344.953	34.62
345.163	34.76
345.373	34.46
345.583	34.08
345.793	34.04
346.004	34.08
346.214	33.84
346.424	33.57
346.634	33.55
346.844	33.9
347.054	33.8
347.264	33.94
347.474	34.03
347.684	33.78
347.894	33.99
348.104	33.95
348.314	33.99
348.524	34.01
348.734	34.19
348.944	34.14
349.154	33.72
349.364	33.56
349.574	33.49
349.784	33.31
349.994	33.38
350.204	33.74
350.413	33.79
350.623	33.69
350.833	33.73
351.043	33.61
351.253	33.83
351.463	33.72
351.672	33.91
351.882	33.84
352.092	33.36
352.302	33.49
352.511	33.35
352.721	33.34
352.931	33
353.141	33.26
353.35	33.07
353.56	33.11
353.77	33.07
353.979	33.02
354.189	33.23
354.399	33.54
354.608	33.27
354.818	33.25
355.027	33.36
355.237	33.29
355.447	32.84
355.656	32.9
355.866	32.58
356.075	32.63
356.285	32.43
356.494	32.13
356.704	32.16
356.913	32.14
357.123	32.01
357.332	31.81
357.542	31.89
357.751	32.22
357.96	32.49
358.17	32.64
358.379	32.67
358.589	32.73
358.798	32.77
359.007	32.68
359.217	32.81
359.426	32.67
359.635	32.79
359.845	32.82
360.054	32.79
360.263	32.41
360.472	32.22
360.682	32.37
360.891	32.22
361.1	32.16
361.309	31.91
361.519	31.68
361.728	31.7
361.937	31.43
362.146	31.47
362.355	31.29
362.564	31.55
362.774	31.55
362.983	31.09
363.192	31.06
363.401	31.06
363.61	31.09
363.819	31.42
364.028	31.35
364.237	31.22
364.446	31.2
364.655	30.96
364.864	30.78
365.073	30.84
365.282	30.92
365.491	31.08
365.7	30.94
365.909	30.95
366.118	30.73
366.327	30.62
366.536	31.07
366.745	30.88
366.954	31.06
367.162	30.9
367.371	30.9
367.58	31.24
367.789	31.03
367.998	31
368.207	31.02
368.415	31.03
368.624	30.93
368.833	30.81
369.042	31.03
369.25	30.82
369.459	30.99
369.668	30.84
369.877	30.51
370.085	30.45
370.294	30.47
370.503	30.31
370.711	30.26
370.92	30.29
371.129	30.05
371.337	29.82
371.546	29.59
371.754	29.28
371.963	29.16
372.171	28.9
372.38	28.62
372.589	28.75
372.797	28.77
373.006	28.63
373.214	28.7
373.423	28.48
373.631	28.43
373.84	28.81
374.048	29.2
374.256	29.3
374.465	29.4
374.673	29.72
374.882	29.66
375.09	29.71
375.298	29.88
375.507	29.79
375.715	29.77
375.923	29.81
376.132	29.8
376.34	29.61
376.548	29.54
376.757	29.7
376.965	29.33
377.173	29.09
377.381	28.96
377.59	28.85
377.798	28.82
378.006	28.7
378.214	28.56
378.423	28.39
378.631	28.06
378.839	28.18
379.047	27.97
379.255	28.37
379.463	28.37
379.671	28.5
379.879	28.23
380.088	28.12
380.296	28.24
380.504	28.2
380.712	28.12
380.92	28.04
381.128	27.75
381.336	27.56
381.544	27.37
381.752	27.44
381.96	27.21
382.168	27.16
382.376	26.89
382.584	26.61
382.791	26.46
382.999	26.39
383.207	26.31
383.415	26.49
383.623	26.75
383.831	26.62
384.039	26.37
384.247	26.54
384.454	26.66
384.662	26.94
384.87	26.97
385.078	26.91
385.285	26.78
385.493	26.97
385.701	26.72
385.909	26.43
386.116	26.44
386.324	26.5
386.532	26.04
386.739	25.98
386.947	25.8
387.155	26.03
387.362	26.11
387.57	26.22
387.778	26.2
387.985	26.06
388.193	26.15
388.4	25.92
388.608	25.91
388.816	26.08
389.023	26.13
389.231	25.94
389.438	25.82
389.646	25.63
389.853	25.5
390.061	25.24
390.268	25.37
390.475	25.43
390.683	25.53
390.89	25.36
391.098	25.3
391.305	25.35
391.512	25.34
391.72	25.05
391.927	24.99
392.135	24.93
392.342	24.77
392.549	24.54
392.756	24.11
392.964	23.97
393.171	23.92
393.378	23.98
393.586	23.75
393.793	23.83
394	23.98
394.207	24.07
394.414	24.05
394.622	24.11
394.829	24.15
395.036	24.18
395.243	24.19
395.45	24.19
395.657	24.13
395.864	23.95
396.072	23.89
396.279	23.75
396.486	23.62
396.693	23.59
396.9	23.58
397.107	23.52
397.314	23.68
397.521	23.59
397.728	23.69
397.935	23.44
398.142	23.57
398.349	23.58
398.556	23.72
398.763	23.66
398.97	23.52
399.177	23.39
399.383	23.37
399.59	23.33
399.797	23.4
400.004	23.45
400.211	23.48
400.418	23.28
400.625	23.23
400.831	23.2
401.038	23.15
401.245	23.2
401.452	23.35
401.658	23.38
401.865	23.43
402.072	23.35
402.279	23.15
402.485	22.96
402.692	23.14
402.899	23.12
403.105	22.96
403.312	23.11
403.519	23.03
403.725	22.81
403.932	22.77
404.138	22.58
404.345	22.51
404.552	22.4
404.758	22.53
404.965	22.44
405.171	22.4
405.378	22.29
405.584	22.27
405.791	22.34
405.997	22.41
406.204	22.34
406.41	22.43
406.617	22.45
406.823	22.4
407.029	22.2
407.236	22
407.442	21.98
407.649	22.23
407.855	21.98
408.061	21.94
408.268	21.88
408.474	21.82
408.68	21.71
408.887	21.95
409.093	21.96
409.299	22.24
409.505	22.21
409.712	22.14
409.918	21.99
410.124	22.02
410.33	21.91
410.537	22.07
410.743	22.22
410.949	22.15
411.155	21.77
411.361	21.72
411.567	21.46
411.773	21.56
411.98	21.43
412.186	21.46
412.392	21.62
412.598	21.55
412.804	21.33
413.01	21.14
413.216	21.21
413.422	21.25
413.628	21.43
413.834	21.49
414.04	21.41
414.246	21.43
414.452	21.41
414.658	21.32
414.864	21.38
415.07	21.45
415.275	21.41
415.481	21.3
415.687	21.16
415.893	21.02
416.099	20.96
416.305	21.04
416.511	21.01
416.716	20.95
416.922	20.9
417.128	20.86
417.334	20.91
417.539	20.89
417.745	20.87
417.951	20.96
418.157	20.97
418.362	20.89
418.568	20.75
418.774	20.78
418.979	20.74
419.185	20.75
419.391	20.71
419.596	20.53
419.802	20.49
420.008	20.45
420.213	20.42
420.419	20.39
420.624	20.45
420.83	20.45
421.035	20.37
421.241	20.35
421.446	20.24
421.652	20.21
421.857	20.28
422.063	20.21
422.268	20.24
422.474	20.12
422.679	20.14
422.885	20.07
423.09	20.07
423.295	20.02
423.501	20.02
423.706	20.04
423.911	19.94
424.117	19.81
424.322	19.82
424.527	19.82
424.733	19.89
424.938	19.71
425.143	19.75
425.349	19.73
425.554	19.78
425.759	19.69
425.964	19.66
426.169	19.66
426.375	19.73
426.58	19.65
426.785	19.5
426.99	19.4
427.195	19.41
427.4	19.29
427.605	19.26
427.811	19.13
428.016	19.08
428.221	19.12
428.426	19.29
428.631	19.38
428.836	19.48
429.041	19.65
429.246	19.72
429.451	19.76
429.656	19.82
429.861	19.87
430.066	19.95
430.271	20.03
430.476	20.06
430.681	20
430.886	19.94
431.09	19.93
431.295	19.84
431.5	19.73
431.705	19.77
431.91	19.76
432.115	19.73
432.32	19.69
432.524	19.56
432.729	19.51
432.934	19.35
433.139	19.37
433.343	19.37
433.548	19.43
433.753	19.56
433.958	19.65
434.162	19.61
434.367	19.6
434.572	19.53
434.776	19.54
434.981	19.56
435.186	19.75
435.39	19.67
435.595	19.73
435.799	19.57
436.004	19.54
436.209	19.51
436.413	19.52
436.618	19.47
436.822	19.58
437.027	19.73
437.231	19.67
437.436	19.67
437.64	19.69
437.845	19.6
438.049	19.71
438.253	19.75
438.458	19.78
438.662	19.79
438.867	19.79
439.071	19.84
439.275	19.72
439.48	19.75
439.684	19.69
439.888	19.68
440.093	19.69
440.297	19.67
440.501	19.58
440.706	19.5
440.91	19.5
441.114	19.4
441.318	19.29
441.523	19.33
441.727	19.32
441.931	19.33
442.135	19.22
442.339	19.31
442.543	19.14
442.748	19.12
442.952	19.12
443.156	19.02
443.36	19.16
443.564	19.22
443.768	19.22
443.972	19.22
444.176	19.28
444.38	19.38
444.584	19.3
444.788	19.38
444.992	19.4
445.196	19.37
445.4	19.47
445.604	19.41
445.808	19.33
446.012	19.31
446.216	19.25
446.42	19.17
446.624	19.1
446.828	19.1
447.032	19.06
447.235	19.09
447.439	19.1
447.643	19.01
447.847	19.06
448.051	19.03
448.254	19.08
448.458	19.12
448.662	19.2
448.866	19.22
449.069	19.08
449.273	19.21
449.477	19.22
449.681	19.29
449.884	19.35
450.088	19.3
450.292	19.41
450.495	19.26
450.699	19.31
450.902	19.11
451.106	19.07
451.31	19.14
451.513	19.09
451.717	18.95
451.92	18.85
452.124	18.77
452.327	18.69
452.531	18.6
452.734	18.73
452.938	18.62
453.141	18.79
453.345	18.76
453.548	18.71
453.752	18.75
453.955	18.71
454.158	18.7
454.362	18.66
454.565	18.69
454.769	18.76
454.972	18.62
455.175	18.62
455.379	18.51
455.582	18.59
