Data from 2938442_Reflection_3.txt Node
Date: Fri Jun 19 18:18:04 EDT 2015
User: robert
Spectrometer: USB4E03002
Autoset integration time: false
Trigger mode: 4
Integration Time (sec): 1.000000E-1
Scans to average: 10
Electric dark correction enabled: true
Nonlinearity correction enabled: false
Boxcar width: 5
Stray light correction enabled: false
XAxis mode: Wavelengths
Stop averaging: false
Number of Pixels in Spectrum: 3648
>>>>>Begin Spectral Data<<<<<
177.575	38.8
177.794	187.94
178.014	186.59
178.233	294.69
178.452	861.47
178.672	283.45
178.891	94.21
179.11	-37.5
179.33	-160.15
179.549	84.59
179.768	-470.48
179.987	-77.53
180.207	1565.09
180.426	-1289.52
180.645	-132.27
180.864	57.71
181.084	42.19
181.303	-33.31
181.522	-57.02
181.741	-34.21
181.96	-67.25
182.179	-13.31
182.398	-87.87
182.618	-5.13
182.837	-45.6
183.056	-80.18
183.275	7756
183.494	278.89
183.713	-858.74
183.932	831.81
184.151	176.51
184.37	510.31
184.589	136.78
184.808	128.21
185.027	98.15
185.246	82.23
185.465	96.44
185.684	458.72
185.903	432.36
186.122	64.37
186.341	46.85
186.56	62.34
186.779	1.98
186.998	-16.49
187.216	314.91
187.435	94.93
187.654	57.84
187.873	-214.94
188.092	526.47
188.311	641.55
188.53	-1002.47
188.748	-171.57
188.967	-109.11
189.186	-306.81
189.405	-380.63
189.623	-2752.49
189.842	817.52
190.061	2114.24
190.28	-198.89
190.498	-430.8
190.717	-34260
190.936	-858.8
191.154	-904.26
191.373	-1050.66
191.592	-13.8
191.81	-14.72
192.029	-34.94
192.248	-48.92
192.466	-45.45
192.685	-70.43
192.904	-59.54
193.122	-23.84
193.341	-24.22
193.559	-71.2
193.778	-47.23
193.996	-145.14
194.215	-24.25
194.433	0.45
194.652	-4.95
194.87	20.08
195.089	17
195.307	47.02
195.526	35.24
195.744	53.52
195.963	42.62
196.181	51.31
196.399	65.14
196.618	132.48
196.836	125.47
197.055	-262.7
197.273	-206.4
197.491	39.43
197.71	83.01
197.928	44.58
198.146	21.33
198.365	-97.37
198.583	23.22
198.801	-8.08
199.019	-388.1
199.238	-669.02
199.456	-1897.22
199.674	-529.61
199.892	343.83
200.111	-145.81
200.329	364.75
200.547	24.07
200.765	-213.68
200.983	83.22
201.202	33.49
201.42	-38.18
201.638	-113.38
201.856	-52
202.074	-123.95
202.292	-299.16
202.51	-61.25
202.728	47.62
202.946	74.43
203.165	111.75
203.383	21.79
203.601	-93.23
203.819	-244.5
204.037	-94.94
204.255	-345.13
204.473	1070.93
204.691	565.78
204.909	-3009.87
205.127	-499.65
205.345	-354.1
205.562	-213.94
205.78	-457.57
205.998	-195.39
206.216	-67.1
206.434	-218.45
206.652	-69.17
206.87	-5.36
207.088	5.56
207.306	41.81
207.523	94.83
207.741	68.32
207.959	163.02
208.177	103.49
208.395	-147.3
208.612	-104.61
208.83	-91.01
209.048	-50.54
209.266	22.37
209.483	59.81
209.701	-63.22
209.919	10.12
210.136	49.01
210.354	46.22
210.572	102.61
210.79	89.29
211.007	109.79
211.225	115.97
211.442	87.63
211.66	33.76
211.878	-72.68
212.095	-132.4
212.313	-179.33
212.53	-214.48
212.748	-127.54
212.966	-123.07
213.183	-129.2
213.401	-73.99
213.618	-84.23
213.836	-88.34
214.053	-52.11
214.271	-29.59
214.488	19.89
214.705	29.62
214.923	38.53
215.14	23.8
215.358	26.21
215.575	26.78
215.793	6.14
216.01	1.67
216.227	5.71
216.445	-23.28
216.662	-36.47
216.879	-47.28
217.097	-31
217.314	-46.94
217.531	-35.25
217.749	-258.38
217.966	-225.82
218.183	-336.84
218.4	-125.44
218.618	-105.13
218.835	-201.79
219.052	-225.97
219.269	-88.63
219.487	-79.83
219.704	-77.18
219.921	-52.8
220.138	5.41
220.355	-14.4
220.572	-1.58
220.79	-3.82
221.007	-6.09
221.224	-1.23
221.441	-0.43
221.658	-9.03
221.875	-21.94
222.092	-16.39
222.309	-14.78
222.526	-34.02
222.743	-15.72
222.96	-17.38
223.177	-22.76
223.394	-12.38
223.611	-3.88
223.828	-1.29
224.045	1.73
224.262	10.1
224.479	7.88
224.696	8.96
224.913	5.38
225.13	5.81
225.347	11.61
225.564	15.41
225.781	14.62
225.997	16.34
226.214	14.24
226.431	14.03
226.648	12.99
226.865	12.13
227.082	10.58
227.298	14.06
227.515	12.47
227.732	12.98
227.949	12.6
228.165	11.35
228.382	8.57
228.599	9.48
228.816	8.29
229.032	7.6
229.249	7.79
229.466	10.88
229.682	9.56
229.899	10.59
230.116	6.12
230.332	4.3
230.549	5.88
230.765	9.63
230.982	10.26
231.199	12.24
231.415	14.62
231.632	17.8
231.848	13.66
232.065	13.16
232.281	12.58
232.498	11.37
232.714	11.78
232.931	10.36
233.147	10.77
233.364	9.25
233.58	9.92
233.797	7.97
234.013	5.44
234.23	4.74
234.446	7.78
234.662	8.89
234.879	13.66
235.095	12.6
235.312	17.06
235.528	17.7
235.744	17.75
235.961	16.52
236.177	13.36
236.393	12.4
236.61	13.53
236.826	9.63
237.042	8.52
237.258	9.39
237.475	8.08
237.691	5.34
237.907	4.97
238.123	4.52
238.339	4.66
238.556	8.99
238.772	9.77
238.988	9.77
239.204	9.35
239.42	10.38
239.636	9.77
239.853	10.37
240.069	10.17
240.285	10.07
240.501	10.56
240.717	11.07
240.933	8.74
241.149	9.42
241.365	8.1
241.581	9.01
241.797	8.62
242.013	8.44
242.229	8.96
242.445	8.54
242.661	8.07
242.877	7.41
243.093	7.37
243.309	8.05
243.525	7.72
243.741	8.48
243.957	8.27
244.173	9.44
244.388	9
244.604	8.79
244.82	9.19
245.036	9.26
245.252	9.7
245.468	10.05
245.683	10.35
245.899	10.3
246.115	10.61
246.331	10.78
246.547	9.93
246.762	9.85
246.978	9.81
247.194	9.72
247.409	9.21
247.625	8.3
247.841	7.34
248.057	6.99
248.272	6.69
248.488	6.59
248.703	7.43
248.919	8.38
249.135	8.5
249.35	9.06
249.566	9.65
249.782	10.05
249.997	12.06
250.213	12.27
250.428	12.32
250.644	12.54
250.859	11.44
251.075	9.59
251.29	8.64
251.506	8.95
251.721	8.04
251.937	8.58
252.152	8.7
252.368	7.22
252.583	8.83
252.798	9.84
253.014	8.41
253.229	8.32
253.445	9.01
253.66	9.86
253.875	7.59
254.091	6.53
254.306	5.38
254.521	5.67
254.737	6.03
254.952	4.48
255.167	4.74
255.383	6.17
255.598	8.62
255.813	7.67
256.028	6.88
256.244	7.09
256.459	7.89
256.674	7.9
256.889	8.33
257.104	8.36
257.32	8
257.535	7.66
257.75	7.32
257.965	7.18
258.18	7.9
258.395	7.99
258.61	8.65
258.826	8.62
259.041	8.38
259.256	7.98
259.471	7.26
259.686	7.4
259.901	7.47
260.116	7.68
260.331	7.08
260.546	6.99
260.761	6.37
260.976	5.54
261.191	5.54
261.406	4.99
261.621	4.98
261.836	5.87
262.05	5.24
262.265	3.85
262.48	2.27
262.695	1.61
262.91	1.28
263.125	2.97
263.34	3.9
263.555	4.36
263.769	4.61
263.984	5.19
264.199	5.75
264.414	6.42
264.629	7.17
264.843	9
265.058	9.98
265.273	9.2
265.488	7.78
265.702	6.79
265.917	7.19
266.132	7.9
266.346	6.72
266.561	6.46
266.776	6.68
266.99	6.72
267.205	5.83
267.42	5.12
267.634	5.44
267.849	6.32
268.063	6.82
268.278	5.89
268.492	5.06
268.707	6.25
268.922	6.94
269.136	7.01
269.351	7.01
269.565	6.55
269.78	6.18
269.994	6.12
270.209	6.43
270.423	6.28
270.637	6.13
270.852	6.31
271.066	6.5
271.281	5.33
271.495	5.04
271.709	4.95
271.924	5.51
272.138	6.43
272.353	6.57
272.567	5.88
272.781	5.8
272.996	5.53
273.21	6.06
273.424	5.77
273.638	6.99
273.853	6.72
274.067	7.27
274.281	6.29
274.495	6.25
274.71	6.7
274.924	6.7
275.138	6.41
275.352	5.71
275.566	5.27
275.781	4.69
275.995	4.38
276.209	5.27
276.423	4.96
276.637	5.76
276.851	5.42
277.065	4.65
277.279	4.76
277.493	5.01
277.707	6.27
277.921	6.85
278.135	7.56
278.349	7.33
278.563	6.25
278.777	5.16
278.991	5.19
279.205	4.45
279.419	3.76
279.633	3.85
279.847	4.04
280.061	5.01
280.275	4.92
280.489	5.04
280.703	5.34
280.917	6
281.131	7.36
281.344	6.94
281.558	7.63
281.772	8.43
281.986	8.63
282.2	9
282.414	7.78
282.627	7.32
282.841	7.56
283.055	7.52
283.269	7.33
283.482	7.58
283.696	8.51
283.91	8.36
284.123	8.64
284.337	9.12
284.551	8.55
284.764	9.09
284.978	8.55
285.192	8.06
285.405	7.92
285.619	7.87
285.833	7.42
286.046	6.67
286.26	7.19
286.473	7.37
286.687	6.25
286.9	6.66
287.114	6.27
287.327	7.08
287.541	7.13
287.754	7.84
287.968	7.73
288.181	7.39
288.395	7.78
288.608	7.58
288.822	7.15
289.035	7.48
289.248	7.67
289.462	8.16
289.675	8.76
289.889	9.12
290.102	8.08
290.315	8.76
290.529	9.29
290.742	9.94
290.955	9.56
291.169	10.21
291.382	10.21
291.595	10.1
291.808	10.84
292.022	9.53
292.235	8.8
292.448	9.75
292.661	9.29
292.875	9.15
293.088	8.47
293.301	8.24
293.514	7.32
293.727	8.19
293.94	7.57
294.153	7.11
294.367	7.3
294.58	7.75
294.793	7.48
295.006	7.56
295.219	7.86
295.432	7.92
295.645	8.49
295.858	7.99
296.071	7.39
296.284	8.03
296.497	7.93
296.71	8.6
296.923	9.02
297.136	9.36
297.349	9.59
297.562	9.61
297.775	9.98
297.988	9.63
298.201	10.84
298.414	11.2
298.626	11.24
298.839	11.61
299.052	10.98
299.265	10.44
299.478	9.73
299.691	9.67
299.903	9.75
300.116	8.81
300.329	9.71
300.542	9.24
300.755	9.07
300.967	9.23
301.18	9.19
301.393	9.33
301.605	9.4
301.818	9.96
302.031	9.9
302.243	9.97
302.456	10.52
302.669	11.21
302.881	11.15
303.094	11.5
303.307	11.36
303.519	10.68
303.732	11.43
303.944	11.56
304.157	11.71
304.37	11.6
304.582	11.16
304.795	11.5
305.007	10.2
305.22	10.81
305.432	11.19
305.645	10.67
305.857	10.75
306.069	10.36
306.282	10
306.494	9.72
306.707	10.35
306.919	11.04
307.132	10.92
307.344	10.26
307.556	9.84
307.769	10.1
307.981	10.74
308.193	11.04
308.406	10.4
308.618	10.81
308.83	10.72
309.043	9.55
309.255	8.71
309.467	8.87
309.679	8.86
309.892	9.12
310.104	8.08
310.316	7.82
310.528	7.75
310.74	8.58
310.953	8.43
311.165	8.8
311.377	9.01
311.589	9.8
311.801	9.85
312.013	10.73
312.225	11.21
312.437	12.46
312.649	12.85
312.862	11.87
313.074	11.83
313.286	11.96
313.498	11.04
313.71	11.77
313.922	10.58
314.134	11.32
314.346	10.28
314.558	9.37
314.77	8.96
314.982	8.39
315.193	9.06
315.405	8.55
315.617	8.82
315.829	9.08
316.041	9.2
316.253	9.94
316.465	9.21
316.677	10.58
316.888	10.55
317.1	11.04
317.312	11.91
317.524	12.18
317.736	12.58
317.947	12.61
318.159	13.34
318.371	13.31
318.583	13.39
318.794	12.66
319.006	12.29
319.218	13.08
319.43	11.48
319.641	10.78
319.853	10.76
320.064	11.1
320.276	10.9
320.488	10.36
320.699	10.04
320.911	10.4
321.123	11.31
321.334	12.14
321.546	12.21
321.757	13.48
321.969	13.81
322.18	13.84
322.392	13.16
322.603	13.52
322.815	13.98
323.026	13.53
323.238	12.98
323.449	13.83
323.661	13.23
323.872	13.8
324.083	13.71
324.295	14.27
324.506	14.57
324.718	15.17
324.929	15.04
325.14	15.37
325.352	16.52
325.563	17.1
325.774	16.37
325.986	16.84
326.197	16.21
326.408	16.47
326.62	16.34
326.831	16.45
327.042	15.77
327.253	16.45
327.464	17.23
327.676	17.62
327.887	18.02
328.098	18.03
328.309	17.95
328.52	18.69
328.732	19.78
328.943	20.32
329.154	21.13
329.365	23.04
329.576	22.7
329.787	21.54
329.998	21.44
330.209	21.42
330.42	21.98
330.631	22.16
330.842	22.24
331.053	20.88
331.264	20.65
331.475	20.34
331.686	20.07
331.897	20.42
332.108	21.04
332.319	20.34
332.53	20.73
332.741	20.8
332.952	20.62
333.163	20.39
333.374	20.98
333.585	20.57
333.795	20.29
334.006	20.37
334.217	20.83
334.428	20.95
334.639	22.08
334.849	22.02
335.06	21.55
335.271	22.13
335.482	21.87
335.692	21.61
335.903	22.08
336.114	22.45
336.325	22.19
336.535	21.81
336.746	21.42
336.957	20.88
337.167	20.49
337.378	21.37
337.589	21.93
337.799	22.03
338.01	22.01
338.22	22.25
338.431	21.84
338.642	21.5
338.852	20.76
339.063	21.06
339.273	20.4
339.484	20.89
339.694	20.03
339.905	18.28
340.115	18.45
340.326	18.76
340.536	19.18
340.746	19.5
340.957	20.16
341.167	20.8
341.378	20.5
341.588	21.51
341.799	21.85
342.009	22.09
342.219	23.27
342.43	24.04
342.64	24.24
342.85	23.71
343.061	22.97
343.271	23.12
343.481	23.01
343.691	23.04
343.902	22.74
344.112	22.29
344.322	22.4
344.532	22
344.743	21.54
344.953	21.05
345.163	20.72
345.373	21.04
345.583	20.93
345.793	20.71
346.004	20.73
346.214	20.21
346.424	21.04
346.634	20.73
346.844	21.32
347.054	20.06
347.264	20.18
347.474	20.13
347.684	20.95
347.894	20.45
348.104	20.24
348.314	20.61
348.524	20.53
348.734	19.71
348.944	20.4
349.154	19.6
349.364	21.16
349.574	21.33
349.784	21.81
349.994	21.98
350.204	21.84
350.413	22.2
350.623	22.3
350.833	22.75
351.043	22.81
351.253	22.6
351.463	22.9
351.672	22.15
351.882	22.7
352.092	22.48
352.302	22.21
352.511	22.77
352.721	22.68
352.931	22.61
353.141	22.84
353.35	22.53
353.56	22.57
353.77	23.26
353.979	23.82
354.189	22.72
354.399	22.82
354.608	22.58
354.818	21.81
355.027	21.72
355.237	21.28
355.447	21.44
355.656	22.42
355.866	21.97
356.075	21.32
356.285	20.83
356.494	21.03
356.704	20.92
356.913	21.17
357.123	21.77
357.332	21.89
357.542	22.4
357.751	22.17
357.96	21.47
358.17	21.18
358.379	21.41
358.589	21.56
358.798	21.78
359.007	21.33
359.217	21.21
359.426	20.97
359.635	21.09
359.845	21.04
360.054	20.81
360.263	20.62
360.472	20.83
360.682	20.46
360.891	20.17
361.1	20.47
361.309	20.47
361.519	19.88
361.728	19.86
361.937	19.89
362.146	19.62
362.355	19.51
362.564	19.58
362.774	19.73
362.983	19.5
363.192	19.47
363.401	18.75
363.61	18.77
363.819	19.15
364.028	18.7
364.237	18.48
364.446	18.08
364.655	18.15
364.864	17.99
365.073	18.25
365.282	18.16
365.491	17.86
365.7	18.15
365.909	18.09
366.118	17.87
366.327	18.16
366.536	18.27
366.745	18.74
366.954	18.76
367.162	18.63
367.371	18.23
367.58	18.34
367.789	18.68
367.998	18.84
368.207	18.92
368.415	18.71
368.624	18.19
368.833	18.06
369.042	17.48
369.25	17.36
369.459	17.51
369.668	17.26
369.877	17.31
370.085	17.29
370.294	16.83
370.503	16.65
370.711	16.9
370.92	17.32
371.129	16.94
371.337	16.76
371.546	16.65
371.754	16.6
371.963	16.72
372.171	16.92
372.38	16.94
372.589	16.85
372.797	17.03
373.006	16.77
373.214	16.53
373.423	16.7
373.631	16.59
373.84	16.02
374.048	16.01
374.256	15.8
374.465	15.59
374.673	14.96
374.882	15.1
375.09	14.77
375.298	14.57
375.507	14.49
375.715	14.45
375.923	14.4
376.132	14.67
376.34	14.22
376.548	14.31
376.757	14.18
376.965	14.16
377.173	14.11
377.381	14.28
377.59	14.17
377.798	14.24
378.006	13.97
378.214	14.17
378.423	14.02
378.631	13.94
378.839	13.7
379.047	13.6
379.255	14.07
379.463	14.01
379.671	13.76
379.879	14.08
380.088	13.94
380.296	13.96
380.504	14
380.712	14.27
380.92	14.15
381.128	14.12
381.336	13.98
381.544	13.39
381.752	13.02
381.96	12.97
382.168	12.81
382.376	12.68
382.584	12.43
382.791	12.35
382.999	12.12
383.207	11.95
383.415	11.64
383.623	11.31
383.831	11.75
384.039	11.8
384.247	11.7
384.454	11.32
384.662	10.96
384.87	11.05
385.078	10.71
385.285	10.71
385.493	11.19
385.701	11.35
385.909	11.28
386.116	10.73
386.324	10.41
386.532	10.46
386.739	10.75
386.947	10.79
387.155	10.25
387.362	9.95
387.57	9.68
387.778	9.31
387.985	8.93
388.193	9.13
388.4	9.12
388.608	9.27
388.816	8.95
389.023	8.81
389.231	8.8
389.438	9.14
389.646	9.53
389.853	9.31
390.061	9.26
390.268	9.25
390.475	8.95
390.683	8.96
390.89	8.78
391.098	8.81
391.305	8.52
391.512	8.33
391.72	8.11
391.927	7.75
392.135	7.81
392.342	7.61
392.549	7.51
392.756	7.62
392.964	7.51
393.171	7.69
393.378	7.78
393.586	7.81
393.793	7.89
394	7.87
394.207	7.89
394.414	7.96
394.622	7.93
394.829	7.88
395.036	7.63
395.243	7.49
395.45	7.24
395.657	7.08
395.864	7.23
396.072	7.21
396.279	7.23
396.486	7.24
396.693	7.07
396.9	7.21
397.107	7.13
397.314	7.39
397.521	7.43
397.728	7.4
397.935	7.39
398.142	7.2
398.349	6.91
398.556	6.77
398.763	6.62
398.97	6.6
399.177	6.51
399.383	6.57
399.59	6.4
399.797	6.37
400.004	6.44
400.211	6.51
400.418	6.68
400.625	6.87
400.831	6.97
401.038	7.16
401.245	7.36
401.452	7.2
401.658	7.37
401.865	7.4
402.072	7.35
402.279	7.16
402.485	7.05
402.692	6.9
402.899	6.85
403.105	6.71
403.312	6.54
403.519	6.38
403.725	6.36
403.932	6.27
404.138	6.24
404.345	6.23
404.552	6.36
404.758	6.25
404.965	6.1
405.171	6.13
405.378	6.03
405.584	6.15
405.791	6.14
405.997	6.22
406.204	6.09
406.41	6.02
406.617	6.21
406.823	6.19
407.029	6.29
407.236	6.29
407.442	6.32
407.649	6.45
407.855	6.43
408.061	6.41
408.268	6.37
408.474	6.41
408.68	6.36
408.887	6.35
409.093	6.25
409.299	6.23
409.505	6.18
409.712	5.98
409.918	6.08
410.124	5.99
410.33	5.88
410.537	5.87
410.743	5.91
410.949	6
411.155	5.89
411.361	5.79
411.567	5.81
411.773	6.06
411.98	6.15
412.186	6.07
412.392	5.95
412.598	6.05
412.804	5.88
413.01	5.92
413.216	5.81
413.422	5.78
413.628	5.86
413.834	5.88
414.04	5.73
414.246	5.8
414.452	5.94
414.658	6.07
414.864	5.91
415.07	5.96
415.275	5.95
415.481	5.86
415.687	5.76
415.893	5.72
416.099	5.6
416.305	5.66
416.511	5.55
416.716	5.33
416.922	5.3
417.128	5.43
417.334	5.41
417.539	5.28
417.745	5.29
417.951	5.35
418.157	5.35
418.362	5.38
418.568	5.28
418.774	5.26
418.979	5.35
419.185	5.28
419.391	5.18
419.596	5.1
419.802	5.15
420.008	5.17
420.213	5.79
420.419	5.79
420.624	5.78
420.83	5.81
421.035	5.86
421.241	5.75
421.446	5.8
421.652	5.81
421.857	5.95
422.063	5.89
422.268	5.92
422.474	5.22
422.679	5.16
422.885	5.17
423.09	5.14
423.295	5.06
423.501	5.09
423.706	5.09
423.911	5.12
424.117	5.03
424.322	5.01
424.527	4.93
424.733	4.98
424.938	5.04
425.143	4.93
425.349	4.89
425.554	4.84
425.759	4.88
425.964	4.8
426.169	4.7
426.375	4.73
426.58	4.86
426.785	4.9
426.99	4.91
427.195	4.91
427.4	4.94
427.605	4.89
427.811	5.03
428.016	4.84
428.221	4.88
428.426	4.83
428.631	4.79
428.836	4.71
429.041	4.76
429.246	4.72
429.451	4.68
429.656	4.73
429.861	4.81
430.066	4.8
430.271	4.88
430.476	4.79
430.681	4.82
430.886	4.83
431.09	4.74
431.295	4.64
431.5	4.55
431.705	4.55
431.91	4.48
432.115	4.49
432.32	4.43
432.524	4.41
432.729	4.35
432.934	4.5
433.139	4.51
433.343	4.62
433.548	4.65
433.753	4.7
433.958	4.71
434.162	4.76
434.367	4.84
434.572	4.93
434.776	4.98
434.981	5.16
435.186	5.08
435.39	4.99
435.595	4.89
435.799	4.88
436.004	4.94
436.209	4.87
436.413	4.93
436.618	4.82
436.822	4.81
437.027	4.79
437.231	4.72
437.436	4.7
437.64	4.65
437.845	4.71
438.049	4.71
438.253	4.73
438.458	4.82
438.662	4.76
438.867	4.74
439.071	4.74
439.275	4.76
439.48	4.77
439.684	4.8
439.888	4.83
440.093	4.83
440.297	4.81
440.501	4.74
440.706	4.63
440.91	4.7
441.114	4.74
441.318	4.81
441.523	4.73
441.727	4.82
441.931	4.77
442.135	4.96
442.339	4.89
442.543	4.9
442.748	4.93
442.952	4.96
443.156	4.86
443.36	4.82
443.564	4.64
443.768	4.65
443.972	4.51
444.176	4.49
444.38	4.34
444.584	4.38
444.788	4.43
444.992	4.44
445.196	4.43
445.4	4.41
445.604	4.35
445.808	4.38
446.012	4.36
446.216	4.35
446.42	4.3
446.624	4.31
446.828	4.32
447.032	4.28
447.235	4.2
447.439	4.2
447.643	4.22
447.847	4.29
448.051	4.25
448.254	4.3
448.458	4.35
448.662	4.44
448.866	4.46
449.069	4.42
449.273	4.34
449.477	4.34
449.681	4.33
449.884	4.27
450.088	4.26
450.292	4.35
450.495	4.26
450.699	4.33
450.902	4.28
451.106	4.19
451.31	4.18
451.513	4.23
451.717	4.25
451.92	4.28
452.124	4.32
452.327	4.35
452.531	4.31
452.734	4.41
452.938	4.35
453.141	4.27
453.345	4.32
453.548	4.39
453.752	4.45
453.955	4.53
454.158	4.43
454.362	4.49
454.565	4.51
454.769	4.54
454.972	4.58
455.175	4.61
455.379	4.71
455.582	4.74
455.785	4.61
455.988	4.48
456.192	4.51
456.395	4.59
456.598	4.52
456.801	4.44
457.005	4.32
457.208	4.32
457.411	4.31
457.614	4.29
457.817	4.26
458.021	4.3
458.224	4.37
458.427	4.31
458.63	4.32
458.833	4.37
459.036	4.37
459.239	4.41
459.442	4.35
459.645	4.4
459.848	4.46
460.051	4.59
460.254	4.65
460.457	4.7
460.66	4.7
460.863	4.75
461.066	4.73
461.269	4.71
461.472	4.88
461.675	4.91
461.878	4.86
462.081	4.81
462.284	4.74
462.486	4.65
462.689	4.63
462.892	4.69
463.095	4.63
463.298	4.68
463.5	4.66
463.703	4.56
463.906	4.54
