Data from 2938474_Reflection_3.txt Node
Date: Wed Jun 17 13:23:52 EDT 2015
User: robert
Spectrometer: USB4E03002
Autoset integration time: false
Trigger mode: 4
Integration Time (sec): 1.000000E-1
Scans to average: 10
Electric dark correction enabled: true
Nonlinearity correction enabled: false
Boxcar width: 5
Stray light correction enabled: false
XAxis mode: Wavelengths
Stop averaging: false
Number of Pixels in Spectrum: 3648
>>>>>Begin Spectral Data<<<<<
177.575	305.69
177.794	119.44
178.014	81.81
178.233	112.93
178.452	62.16
178.672	106.24
178.891	37.65
179.11	-181.13
179.33	-193.89
179.549	-430.67
179.768	-613.75
179.987	-398.76
180.207	-199.16
180.426	-497.93
180.645	-548.66
180.864	-84.76
181.084	-59.51
181.303	-56.85
181.522	-33.81
181.741	-53.58
181.96	-26.26
182.179	-83.81
182.398	-156.13
182.618	434.82
182.837	408.49
183.056	177.19
183.275	126.18
183.494	119.39
183.713	134.34
183.932	149.93
184.151	193.13
184.37	198.32
184.589	163.2
184.808	162.57
185.027	174.36
185.246	184.61
185.465	295.06
185.684	357.17
185.903	2632.79
186.122	368.08
186.341	263.22
186.56	206.18
186.779	284.35
186.998	522.49
187.216	893.69
187.435	296.02
187.654	279.86
187.873	392.8
188.092	2262.5
188.311	1057.28
188.53	-573.95
188.748	-235.93
188.967	-268.41
189.186	-426.93
189.405	-320.84
189.623	-242.33
189.842	-98
190.061	-125.44
190.28	-175.07
190.498	-204.26
190.717	-389.63
190.936	-813.06
191.154	758.75
191.373	-4348
191.592	-2021.28
191.81	680.36
192.029	555.38
192.248	290.44
192.466	308.03
192.685	294.53
192.904	679.04
193.122	1664.89
193.341	2542.65
193.559	-339.76
193.778	-431.54
193.996	-213
194.215	-56.41
194.433	-101.68
194.652	-82.59
194.87	-106.21
195.089	-136.15
195.307	347.72
195.526	366.28
195.744	208.4
195.963	167.28
196.181	151.21
196.399	147.86
196.618	136.37
196.836	104.86
197.055	129.06
197.273	144.41
197.491	189.9
197.71	227.37
197.928	172.84
198.146	146.07
198.365	141.55
198.583	119.91
198.801	129.26
199.019	160.22
199.238	201.05
199.456	186.63
199.674	151.27
199.892	142.24
200.111	128.62
200.329	167.41
200.547	202.33
200.765	171.39
200.983	152.35
201.202	177.49
201.42	132.26
201.638	208.93
201.856	228.26
202.074	236.95
202.292	250.31
202.51	237.36
202.728	192.32
202.946	122.82
203.165	104.97
203.383	129.68
203.601	96.88
203.819	101.78
204.037	67.03
204.255	61.07
204.473	74.94
204.691	98.08
204.909	101.38
205.127	106.1
205.345	193.87
205.562	318.2
205.78	383.85
205.998	577.87
206.216	471.48
206.434	1254.83
206.652	217.04
206.87	302.68
207.088	202.28
207.306	156.65
207.523	139.02
207.741	153.51
207.959	174.61
208.177	102.69
208.395	98.35
208.612	100.93
208.83	113.77
209.048	156.61
209.266	165.85
209.483	250.86
209.701	284.06
209.919	187.59
210.136	231.34
210.354	158.35
210.572	379.67
210.79	257.57
211.007	167.45
211.225	603.41
211.442	166.64
211.66	131.4
211.878	99.87
212.095	104.46
212.313	109.79
212.53	68.88
212.748	65.92
212.966	68.87
213.183	84.82
213.401	85.35
213.618	60.44
213.836	53.19
214.053	61.66
214.271	67.11
214.488	51.43
214.705	65.83
214.923	61.25
215.14	59.07
215.358	59.25
215.575	52.42
215.793	51.21
216.01	43.68
216.227	40.14
216.445	45.81
216.662	44.72
216.879	55.18
217.097	49.95
217.314	57.68
217.531	68.73
217.749	66.13
217.966	62.25
218.183	61.27
218.4	61.16
218.618	60.96
218.835	53.51
219.052	45.62
219.269	45.53
219.487	48.87
219.704	46.86
219.921	40.24
220.138	44.13
220.355	45.86
220.572	47.09
220.79	52.07
221.007	49.14
221.224	41.49
221.441	62.29
221.658	63.41
221.875	63.18
222.092	58.6
222.309	52.58
222.526	45.92
222.743	43.43
222.96	50.24
223.177	38.14
223.394	46.28
223.611	47.9
223.828	41.83
224.045	39.06
224.262	35.98
224.479	34.44
224.696	31.93
224.913	29.51
225.13	29.12
225.347	24.86
225.564	26.56
225.781	21.21
225.997	20.34
226.214	19.62
226.431	16
226.648	16.82
226.865	17.72
227.082	18.03
227.298	18.12
227.515	16.57
227.732	14.83
227.949	14.76
228.165	13.84
228.382	14.22
228.599	14.16
228.816	14.92
229.032	13.77
229.249	14.82
229.466	15.09
229.682	15.9
229.899	15.83
230.116	18.17
230.332	20.12
230.549	21.26
230.765	19.73
230.982	19.93
231.199	20.28
231.415	22.06
231.632	20.11
231.848	21.04
232.065	21.75
232.281	20.81
232.498	20.11
232.714	17.92
232.931	18.91
233.147	19.78
233.364	19.1
233.58	19.52
233.797	18.78
234.013	19.6
234.23	17.59
234.446	14.73
234.662	16.28
234.879	18.06
235.095	17.94
235.312	17.17
235.528	15.74
235.744	17.24
235.961	16.53
236.177	16.18
236.393	16.02
236.61	16.89
236.826	17.1
237.042	17.8
237.258	19.11
237.475	18
237.691	20.46
237.907	20.59
238.123	20.49
238.339	22.74
238.556	22.29
238.772	20.86
238.988	19.37
239.204	18.43
239.42	17.48
239.636	16.53
239.853	16.3
240.069	14.28
240.285	14.58
240.501	13.31
240.717	12.55
240.933	12.38
241.149	12.96
241.365	13.4
241.581	13.74
241.797	14.02
242.013	13.06
242.229	12.56
242.445	13.46
242.661	12.21
242.877	12.73
243.093	12.23
243.309	12.47
243.525	12.19
243.741	12.21
243.957	11.8
244.173	11.14
244.388	11.85
244.604	12.6
244.82	12.32
245.036	12.61
245.252	11.85
245.468	12.17
245.683	11.89
245.899	11.51
246.115	11.34
246.331	11.36
246.547	11.2
246.762	11.24
246.978	10.68
247.194	10.35
247.409	10.5
247.625	11.1
247.841	10.59
248.057	10.68
248.272	10.95
248.488	10.7
248.703	10.95
248.919	11.52
249.135	10.44
249.35	11.92
249.566	11.9
249.782	11.03
249.997	10.88
250.213	10.36
250.428	10.33
250.644	10.37
250.859	10.53
251.075	10.31
251.29	10.92
251.506	11.35
251.721	11.13
251.937	11.31
252.152	12.68
252.368	12.73
252.583	13.68
252.798	14.37
253.014	13.93
253.229	14.16
253.445	14.49
253.66	13.48
253.875	12.85
254.091	12.35
254.306	12.59
254.521	12.18
254.737	11.46
254.952	11.01
255.167	9.46
255.383	9.61
255.598	10.3
255.813	11.25
256.028	10.78
256.244	11.29
256.459	10.68
256.674	10.19
256.889	10.04
257.104	10.11
257.32	10.01
257.535	9.91
257.75	9.64
257.965	9.27
258.18	9.08
258.395	9.06
258.61	9.11
258.826	9.01
259.041	9.18
259.256	9.06
259.471	9.09
259.686	9.08
259.901	8.97
260.116	9.5
260.331	9.34
260.546	8.98
260.761	8.99
260.976	8.42
261.191	8.44
261.406	8.7
261.621	8.84
261.836	9.17
262.05	9.3
262.265	9.54
262.48	9.35
262.695	9.78
262.91	10.93
263.125	11
263.34	11.67
263.555	11.89
263.769	11.39
263.984	10.74
264.199	9.93
264.414	9.33
264.629	9.43
264.843	9.05
265.058	8.7
265.273	7.46
265.488	7.03
265.702	6.63
265.917	6.2
266.132	5.96
266.346	5.92
266.561	6.29
266.776	6.57
266.99	6.74
267.205	6.83
267.42	6.93
267.634	7.79
267.849	8.13
268.063	8.38
268.278	8.75
268.492	9.19
268.707	9.2
268.922	9.17
269.136	9.07
269.351	9.13
269.565	8.89
269.78	8.89
269.994	8.31
270.209	8.57
270.423	8.24
270.637	8.39
270.852	8.28
271.066	8.32
271.281	8.31
271.495	8.36
271.709	8.49
271.924	8.7
272.138	8.87
272.353	8.71
272.567	8.25
272.781	8.36
272.996	8.15
273.21	8.2
273.424	8.77
273.638	8.62
273.853	7.95
274.067	7.84
274.281	8.03
274.495	7.74
274.71	8.14
274.924	8.22
275.138	8.47
275.352	8.23
275.566	7.83
275.781	7.12
275.995	7.78
276.209	8.69
276.423	8.3
276.637	7.83
276.851	8.47
277.065	8.77
277.279	8.61
277.493	8.58
277.707	8.52
277.921	9.33
278.135	9.64
278.349	9.1
278.563	9.22
278.777	9.36
278.991	9.83
279.205	9.14
279.419	8.99
279.633	8.86
279.847	8.63
280.061	8.83
280.275	8.16
280.489	7.88
280.703	7.65
280.917	7.34
281.131	6.97
281.344	7.02
281.558	6.96
281.772	6.6
281.986	6.72
282.2	6.88
282.414	6.9
282.627	6.86
282.841	7.06
283.055	7.72
283.269	8.21
283.482	8.43
283.696	8.02
283.91	8.28
284.123	8.75
284.337	8.76
284.551	8.78
284.764	8.95
284.978	9.23
285.192	9.3
285.405	9.08
285.619	8.78
285.833	9.18
286.046	9.26
286.26	9.47
286.473	9.04
286.687	9.43
286.9	8.87
287.114	8.82
287.327	8.64
287.541	8.77
287.754	8.86
287.968	9.08
288.181	8.91
288.395	9.24
288.608	9.02
288.822	9.05
289.035	9.26
289.248	9.92
289.462	9.86
289.675	9.78
289.889	9.79
290.102	9.69
290.315	9.27
290.529	9.15
290.742	8.8
290.955	8.77
291.169	9.17
291.382	9.23
291.595	9.54
291.808	9.65
292.022	9.65
292.235	10.02
292.448	10.43
292.661	11.25
292.875	11.61
293.088	11.81
293.301	11.97
293.514	11.39
293.727	11.44
293.94	11.25
294.153	11.26
294.367	11.39
294.58	11.27
294.793	11.41
295.006	11.12
295.219	11.05
295.432	10.95
295.645	11.15
295.858	11.57
296.071	11.37
296.284	11.52
296.497	11.32
296.71	11.42
296.923	11.37
297.136	11.17
297.349	10.83
297.562	10.91
297.775	11.48
297.988	11.42
298.201	11.31
298.414	11.45
298.626	11.63
298.839	12.35
299.052	12.56
299.265	12.64
299.478	12.58
299.691	13.34
299.903	13.7
300.116	13.23
300.329	13.38
300.542	13.5
300.755	13.59
300.967	13.17
301.18	12.99
301.393	13.02
301.605	12.73
301.818	12.46
302.031	12.2
302.243	12.06
302.456	12.38
302.669	12.52
302.881	13.02
303.094	12.91
303.307	12.99
303.519	13.32
303.732	13.27
303.944	13.79
304.157	14.45
304.37	14.6
304.582	14.32
304.795	14.22
305.007	14.19
305.22	13.88
305.432	14.5
305.645	14.9
305.857	14.46
306.069	14.63
306.282	14.73
306.494	14.45
306.707	14.36
306.919	14.05
307.132	13.44
307.344	13.68
307.556	13.53
307.769	13
307.981	13.28
308.193	13.7
308.406	13.68
308.618	13.37
308.83	13.35
309.043	13.23
309.255	13.93
309.467	14.56
309.679	14.01
309.892	14.3
310.104	14.29
310.316	14.01
310.528	13.58
310.74	13.67
310.953	14.1
311.165	14.21
311.377	14.27
311.589	14.59
311.801	14.73
312.013	15.38
312.225	15.48
312.437	15.96
312.649	15.8
312.862	16.2
313.074	16.61
313.286	16.73
313.498	16.59
313.71	16.58
313.922	16.26
314.134	16.12
314.346	15.98
314.558	15.87
314.77	16.09
314.982	16.61
315.193	16.73
315.405	16.64
315.617	16.31
315.829	16.51
316.041	17.05
316.253	17.02
316.465	16.89
316.677	16.55
316.888	16.41
317.1	15.56
317.312	15.04
317.524	15.55
317.736	15.19
317.947	15.67
318.159	16.08
318.371	15.72
318.583	15.13
318.794	15
319.006	15.43
319.218	15.3
319.43	16.26
319.641	16.29
319.853	15.87
320.064	16.08
320.276	15.95
320.488	15.52
320.699	16.2
320.911	16.47
321.123	17.33
321.334	17.16
321.546	17.56
321.757	16.92
321.969	17.24
322.18	16.89
322.392	16.91
322.603	16.98
322.815	16.87
323.026	16.79
323.238	16.9
323.449	16.33
323.661	16.44
323.872	16.47
324.083	17.2
324.295	17.49
324.506	17.59
324.718	17.59
324.929	17.2
325.14	17.4
325.352	17.14
325.563	17.35
325.774	17.72
325.986	17.37
326.197	17.43
326.408	17.28
326.62	16.87
326.831	17.14
327.042	17.71
327.253	17.81
327.464	18.16
327.676	18.65
327.887	18.49
328.098	18.46
328.309	19.06
328.52	19.29
328.732	19.11
328.943	19.03
329.154	19.77
329.365	19.55
329.576	19.85
329.787	20.15
329.998	20
330.209	20.48
330.42	20.44
330.631	20.45
330.842	20.77
331.053	20.77
331.264	20.96
331.475	20.39
331.686	20.53
331.897	21.26
332.108	20.72
332.319	20.28
332.53	20.07
332.741	20.26
332.952	20.06
333.163	19.85
333.374	19.66
333.585	19.7
333.795	19.72
334.006	19.54
334.217	18.78
334.428	18.79
334.639	19.23
334.849	19.1
335.06	18.6
335.271	19.09
335.482	18.71
335.692	19.13
335.903	19.57
336.114	19.62
336.325	19.83
336.535	19.53
336.746	19.76
336.957	19.77
337.167	20.07
337.378	20.6
337.589	20.4
337.799	20.54
338.01	20.2
338.22	19.88
338.431	20.08
338.642	19.85
338.852	20.09
339.063	19.69
339.273	19.83
339.484	19.34
339.694	19.11
339.905	19.42
340.115	19.62
340.326	19.83
340.536	19.91
340.746	19.62
340.957	19.65
341.167	19.52
341.378	19.7
341.588	19.64
341.799	19.36
342.009	19.29
342.219	18.85
342.43	18.76
342.64	18.58
342.85	18.39
343.061	18.29
343.271	18.38
343.481	18.6
343.691	18.66
343.902	18.33
344.112	18.95
344.322	19
344.532	18.86
344.743	18.74
344.953	18.63
345.163	18.58
345.373	18.41
345.583	17.72
345.793	17.56
346.004	17.75
346.214	17.88
346.424	17.33
346.634	17.35
346.844	17.85
347.054	17.87
347.264	18.2
347.474	18.67
347.684	18.82
347.894	18.78
348.104	18.69
348.314	18.34
348.524	18.26
348.734	18.51
348.944	18.65
349.154	18.28
349.364	18.64
349.574	18.59
349.784	18.27
349.994	18.47
350.204	18.96
350.413	19.23
350.623	19.2
350.833	18.95
351.043	19.11
351.253	18.69
351.463	18.92
351.672	18.22
351.882	18.38
352.092	18.45
352.302	18.51
352.511	18.64
352.721	18.63
352.931	18.59
353.141	18.6
353.35	18.42
353.56	18.33
353.77	18.22
353.979	18.68
354.189	18.32
354.399	18.65
354.608	18.45
354.818	17.95
355.027	18.01
355.237	17.94
355.447	18.03
355.656	17.97
355.866	18.16
356.075	18.15
356.285	17.96
356.494	17.97
356.704	17.68
356.913	18
357.123	18.14
357.332	17.66
357.542	17.9
357.751	17.98
357.96	17.92
358.17	17.65
358.379	17.6
358.589	17.47
358.798	17.5
359.007	17.3
359.217	16.81
359.426	16.61
359.635	16.78
359.845	16.61
360.054	16.43
360.263	16.12
360.472	16.29
360.682	16.19
360.891	16.46
361.1	16.4
361.309	16.38
361.519	16.45
361.728	16.71
361.937	16.77
362.146	16.93
362.355	16.95
362.564	17.2
362.774	17.22
362.983	17.23
363.192	16.95
363.401	17.03
363.61	16.88
363.819	17.06
364.028	16.92
364.237	16.64
364.446	16.38
364.655	16.27
364.864	16.35
365.073	16.31
365.282	16.27
365.491	16.1
365.7	15.97
365.909	16.26
366.118	16.17
366.327	16.24
366.536	16.3
366.745	16.57
366.954	16.64
367.162	16.77
367.371	16.45
367.58	16.13
367.789	16.01
367.998	15.91
368.207	15.47
368.415	15.2
368.624	15.08
368.833	14.9
369.042	14.45
369.25	14.35
369.459	13.86
369.668	14.04
369.877	14.04
370.085	14.06
370.294	14.01
370.503	13.9
370.711	13.91
370.92	13.8
371.129	13.67
371.337	13.67
371.546	13.48
371.754	13.53
371.963	13.69
372.171	13.63
372.38	13.53
372.589	13.4
372.797	13.48
373.006	13.13
373.214	13.04
373.423	13.15
373.631	13.13
373.84	13.09
374.048	13.25
374.256	12.88
374.465	12.99
374.673	13.1
374.882	13.17
375.09	13.1
375.298	13.31
375.507	13.23
375.715	13.32
375.923	13.19
376.132	13.21
376.34	13.13
376.548	13.09
376.757	13.08
376.965	12.76
377.173	12.71
377.381	12.81
377.59	12.97
377.798	13.11
378.006	13.08
378.214	13.13
378.423	13.11
378.631	12.94
378.839	13.1
379.047	13
379.255	13.27
379.463	13.47
379.671	13.22
379.879	12.9
380.088	12.91
380.296	12.84
380.504	12.72
380.712	12.53
380.92	12.47
381.128	12.41
381.336	12.12
381.544	11.77
381.752	11.2
381.96	11.28
382.168	11.19
382.376	10.72
382.584	10.62
382.791	10.52
382.999	10.55
383.207	10.65
383.415	10.32
383.623	10.69
383.831	10.66
384.039	10.85
384.247	10.74
384.454	10.62
384.662	10.52
384.87	10.45
385.078	10.34
385.285	10.46
385.493	10.43
385.701	10.52
385.909	10.26
386.116	10.44
386.324	10.3
386.532	10
386.739	10.09
386.947	10.32
387.155	10.37
387.362	10.33
387.57	10.13
387.778	9.95
387.985	9.77
388.193	9.85
388.4	9.82
388.608	9.96
388.816	10.09
389.023	9.97
389.231	9.97
389.438	9.81
389.646	9.89
389.853	9.73
390.061	9.54
390.268	9.58
390.475	9.61
390.683	9.49
390.89	9.38
391.098	9.23
391.305	9.34
391.512	9.14
391.72	9.12
391.927	9.05
392.135	9.19
392.342	9.36
392.549	9.45
392.756	9.22
392.964	9.04
393.171	8.84
393.378	8.96
393.586	8.81
393.793	8.87
394	8.85
394.207	8.69
394.414	8.66
394.622	8.57
394.829	8.37
395.036	8.19
395.243	8.17
395.45	8.24
395.657	8.25
395.864	8.08
396.072	8.03
396.279	8.01
396.486	7.9
396.693	7.66
396.9	7.61
397.107	7.63
397.314	7.91
397.521	7.98
397.728	7.88
397.935	7.89
398.142	7.92
398.349	7.95
398.556	7.61
398.763	7.78
398.97	7.76
399.177	7.72
399.383	7.64
399.59	7.4
399.797	7.63
400.004	7.76
400.211	7.64
400.418	7.56
400.625	7.35
400.831	7.5
401.038	7.5
401.245	7.51
401.452	7.49
401.658	7.66
401.865	7.63
402.072	7.21
402.279	7.07
402.485	7.06
402.692	7.16
402.899	7.27
403.105	7.35
403.312	7.45
403.519	7.52
403.725	7.44
403.932	7.32
404.138	7.5
404.345	7.53
404.552	7.58
404.758	7.54
404.965	7.5
405.171	7.45
405.378	7.32
405.584	7.14
405.791	7.01
405.997	7
406.204	7.13
406.41	6.98
406.617	6.98
406.823	6.89
407.029	6.93
407.236	6.89
407.442	7
407.649	7.03
407.855	6.98
408.061	7.14
408.268	7.26
408.474	6.98
408.68	7.07
408.887	7.23
409.093	7.43
409.299	7.4
409.505	7.4
409.712	7.24
409.918	7.19
410.124	7.22
410.33	7.21
410.537	7.08
410.743	7.19
410.949	7.03
411.155	7.05
411.361	6.87
411.567	6.83
411.773	6.8
411.98	6.8
412.186	6.9
412.392	6.98
412.598	6.85
412.804	6.98
413.01	6.82
413.216	6.89
413.422	6.81
413.628	6.75
413.834	6.84
414.04	6.89
414.246	6.89
414.452	6.75
414.658	6.8
414.864	6.9
415.07	6.79
415.275	6.81
415.481	6.73
415.687	6.64
415.893	6.65
416.099	6.45
416.305	6.39
416.511	6.37
416.716	6.43
416.922	6.34
417.128	6.36
417.334	6.34
417.539	6.42
417.745	6.36
417.951	6.35
418.157	6.39
418.362	6.45
418.568	6.5
418.774	6.46
418.979	6.51
419.185	6.48
419.391	6.47
419.596	6.45
419.802	6.39
420.008	6.43
420.213	5.95
420.419	5.9
420.624	5.91
420.83	5.8
421.035	5.75
421.241	5.6
421.446	5.55
421.652	5.51
421.857	5.49
422.063	5.48
422.268	5.5
422.474	5.92
422.679	5.88
422.885	5.82
423.09	5.86
423.295	5.89
423.501	6.02
423.706	6.06
423.911	6.02
424.117	6.09
424.322	6.11
424.527	6.11
424.733	6.12
424.938	6.26
425.143	6.24
425.349	6.18
425.554	6.25
425.759	6.2
425.964	6.15
426.169	6.05
426.375	5.98
426.58	5.99
426.785	5.91
426.99	5.97
427.195	5.79
427.4	5.86
427.605	5.84
427.811	5.75
428.016	5.66
428.221	5.71
428.426	5.72
428.631	5.61
428.836	5.54
429.041	5.55
429.246	5.52
429.451	5.53
429.656	5.56
429.861	5.7
430.066	5.7
430.271	5.85
430.476	5.78
430.681	5.91
430.886	5.98
431.09	5.94
431.295	5.87
431.5	5.88
431.705	5.91
431.91	5.86
432.115	5.88
432.32	5.9
432.524	5.82
432.729	5.87
432.934	5.87
433.139	5.82
433.343	5.86
433.548	5.94
433.753	5.95
433.958	5.92
434.162	5.93
434.367	5.86
434.572	5.84
434.776	5.76
434.981	5.8
435.186	5.84
435.39	5.91
435.595	5.96
435.799	5.93
436.004	5.85
436.209	5.88
436.413	5.84
436.618	5.74
436.822	5.72
437.027	5.83
437.231	5.78
437.436	5.69
437.64	5.68
437.845	5.66
438.049	5.58
438.253	5.65
438.458	5.62
438.662	5.59
438.867	5.66
439.071	5.68
439.275	5.63
439.48	5.61
439.684	5.55
439.888	5.56
440.093	5.48
440.297	5.5
440.501	5.52
440.706	5.48
440.91	5.54
441.114	5.55
441.318	5.52
441.523	5.53
441.727	5.63
441.931	5.76
442.135	5.75
442.339	5.78
442.543	5.86
442.748	5.8
442.952	5.86
443.156	5.93
443.36	5.9
443.564	5.9
443.768	5.84
443.972	5.7
444.176	5.65
444.38	5.62
444.584	5.6
444.788	5.53
444.992	5.53
445.196	5.44
445.4	5.38
445.604	5.41
445.808	5.42
446.012	5.38
446.216	5.41
446.42	5.39
446.624	5.39
446.828	5.44
447.032	5.47
447.235	5.5
447.439	5.53
447.643	5.45
447.847	5.39
448.051	5.35
448.254	5.43
448.458	5.4
448.662	5.36
448.866	5.46
449.069	5.46
449.273	5.41
449.477	5.42
449.681	5.44
449.884	5.48
450.088	5.46
450.292	5.47
450.495	5.49
450.699	5.5
450.902	5.45
451.106	5.37
451.31	5.25
451.513	5.33
451.717	5.17
451.92	5.19
452.124	5.18
452.327	5.19
452.531	5.17
452.734	5.1
452.938	5.09
453.141	5.14
453.345	5.07
453.548	5.05
453.752	4.99
453.955	5.11
454.158	5.09
454.362	5.15
454.565	5.17
454.769	5.24
454.972	5.25
455.175	5.34
455.379	5.32
455.582	5.32
455.785	5.42
455.988	5.35
456.192	5.29
456.395	5.32
456.598	5.26
456.801	5.25
457.005	5.17
457.208	5.23
457.411	5.11
457.614	5.04
457.817	5
458.021	4.95
458.224	5
458.427	4.99
458.63	5.01
458.833	5.03
459.036	5.09
459.239	5.07
459.442	4.97
459.645	5.05
459.848	5.12
460.051	5.19
460.254	5.28
460.457	5.29
460.66	5.27
460.863	5.23
461.066	5.25
461.269	5.12
461.472	5.16
461.675	5.17
