Data from 2938480_Reflection_2.txt Node
Date: Wed Jun 17 01:14:38 EDT 2015
User: robert
Spectrometer: USB4E03002
Autoset integration time: false
Trigger mode: 4
Integration Time (sec): 1.000000E-1
Scans to average: 10
Electric dark correction enabled: true
Nonlinearity correction enabled: false
Boxcar width: 5
Stray light correction enabled: false
XAxis mode: Wavelengths
Stop averaging: false
Number of Pixels in Spectrum: 3648
>>>>>Begin Spectral Data<<<<<
177.575	-54.06
177.794	-143.99
178.014	-83.66
178.233	-96.7
178.452	-41.64
178.672	35.06
178.891	108.31
179.11	-83.72
179.33	-150.04
179.549	-74.77
179.768	-53.23
179.987	-65.57
180.207	-101.77
180.426	-13.58
180.645	25.67
180.864	27.44
181.084	59.19
181.303	95.51
181.522	89.79
181.741	107.5
181.96	108.07
182.179	119.66
182.398	160.09
182.618	195.28
182.837	3015.79
183.056	-43533.33
183.275	-137.53
183.494	-39.39
183.713	-9.19
183.932	-5.71
184.151	1.32
184.37	-25.92
184.589	-38.42
184.808	-32.71
185.027	2.89
185.246	-34.56
185.465	-27.46
185.684	-124.3
185.903	1781.45
186.122	-324.48
186.341	-312.44
186.56	686.79
186.779	11637.88
186.998	709.9
187.216	865.03
187.435	880.56
187.654	376.09
187.873	786.58
188.092	694.97
188.311	3484.26
188.53	362.35
188.748	1455.45
188.967	1773.21
189.186	-714.91
189.405	-504.69
189.623	-133.98
189.842	-306.61
190.061	-60.24
190.28	-124.83
190.498	-191.15
190.717	991.84
190.936	-298.22
191.154	-263.53
191.373	-462.94
191.592	3940.13
191.81	6314.13
192.029	670.41
192.248	-2277.99
192.466	-982.13
192.685	-177.95
192.904	-141.46
193.122	-28.13
193.341	6.2
193.559	19.21
193.778	-7.14
193.996	0.59
194.215	-0.32
194.433	1.82
194.652	6.46
194.87	20.29
195.089	30.02
195.307	40.76
195.526	23.84
195.744	-7.63
195.963	0.79
196.181	1.93
196.399	-2.84
196.618	-20.01
196.836	-22.45
197.055	-67.55
197.273	-471.5
197.491	-566.31
197.71	-271.45
197.928	-791.71
198.146	-587.98
198.365	-27397.37
198.583	-3185.76
198.801	5426.23
199.019	-1515.24
199.238	-832.4
199.456	-304.02
199.674	-254.25
199.892	-186.01
200.111	-228.11
200.329	-333.41
200.547	-227.05
200.765	-127.96
200.983	-35.16
201.202	-164.65
201.42	-395.06
201.638	-480.92
201.856	-65.96
202.074	-92.15
202.292	-90.46
202.51	-5.3
202.728	3.55
202.946	-14.18
203.165	-12.15
203.383	-80.5
203.601	-130.96
203.819	-83.51
204.037	-101.37
204.255	-341.69
204.473	-3336.08
204.691	800.24
204.909	253.48
205.127	233.33
205.345	220.2
205.562	254.97
205.78	237.21
205.998	458.94
206.216	595.93
206.434	439.34
206.652	239.06
206.87	301.54
207.088	211.57
207.306	322.52
207.523	260.69
207.741	290.67
207.959	447.68
208.177	592.48
208.395	697.11
208.612	735.04
208.83	13315.09
209.048	-636.02
209.266	-340.64
209.483	-149.98
209.701	-164.98
209.919	-221.89
210.136	-197.06
210.354	3522.4
210.572	-768.64
210.79	472.53
211.007	362.55
211.225	600.42
211.442	592.45
211.66	611.93
211.878	800.3
212.095	2358.78
212.313	-767.32
212.53	-968.05
212.748	-474.6
212.966	-927.64
213.183	-1386.28
213.401	-3628.08
213.618	-1590.5
213.836	-776.07
214.053	-1013.17
214.271	-2309.33
214.488	-591.53
214.705	-468.05
214.923	-308.77
215.14	-372.61
215.358	-309.01
215.575	-213.4
215.793	-101.15
216.01	-134.87
216.227	-338.61
216.445	-289.31
216.662	-96.3
216.879	-96
217.097	-159.47
217.314	-108.13
217.531	-100.37
217.749	-94.32
217.966	-123.52
218.183	-264.04
218.4	-166.2
218.618	-93.6
218.835	-75.47
219.052	-88.18
219.269	-65.9
219.487	-31.15
219.704	-40.45
219.921	-24.24
220.138	-17.56
220.355	-1.21
220.572	-1.78
220.79	-11.98
221.007	0.47
221.224	-0.63
221.441	-1.12
221.658	-4.88
221.875	-22.06
222.092	-15.46
222.309	-21.07
222.526	-6.14
222.743	5.41
222.96	9.79
223.177	15.96
223.394	12.53
223.611	12.84
223.828	11.95
224.045	13.09
224.262	13.28
224.479	5.91
224.696	3.2
224.913	-3.29
225.13	-7.36
225.347	-6.26
225.564	-9.01
225.781	-7.54
225.997	-6
226.214	-5.16
226.431	-1.88
226.648	-1.01
226.865	0.65
227.082	2.15
227.298	1.95
227.515	1.89
227.732	2.32
227.949	2.78
228.165	1.8
228.382	1.6
228.599	0.09
228.816	-1.14
229.032	-0.29
229.249	0.65
229.466	1.02
229.682	2.59
229.899	3.65
230.116	4.38
230.332	6.4
230.549	8.43
230.765	9.68
230.982	14.16
231.199	14.44
231.415	14.4
231.632	12.94
231.848	14.27
232.065	12.64
232.281	9.45
232.498	5.27
232.714	4.13
232.931	1.94
233.147	0.31
233.364	-1.69
233.58	-4.13
233.797	-4.25
234.013	-5.2
234.23	-8.03
234.446	-5.84
234.662	-5.83
234.879	-2.92
235.095	-4.93
235.312	-3.63
235.528	-2.72
235.744	-1.88
235.961	0.03
236.177	-0.71
236.393	2.46
236.61	3.74
236.826	4.67
237.042	7.23
237.258	5.39
237.475	7.55
237.691	7.36
237.907	7.29
238.123	6.43
238.339	7.49
238.556	6.28
238.772	6.37
238.988	4.72
239.204	5.4
239.42	5.43
239.636	6.23
239.853	6.15
240.069	6.6
240.285	6.5
240.501	6.53
240.717	6.8
240.933	7.1
241.149	6.87
241.365	7.44
241.581	6.55
241.797	7.15
242.013	7.49
242.229	8.2
242.445	7.4
242.661	7.4
242.877	7.78
243.093	6.95
243.309	6.96
243.525	6.73
243.741	7.46
243.957	7.78
244.173	7.53
244.388	6.58
244.604	5.86
244.82	6.52
245.036	7.01
245.252	7.18
245.468	7.47
245.683	7.4
245.899	7.53
246.115	6.98
246.331	6.86
246.547	6.99
246.762	7.59
246.978	7.98
247.194	8
247.409	7.37
247.625	6.88
247.841	6.65
248.057	6.44
248.272	5.55
248.488	4.77
248.703	4.69
248.919	4.22
249.135	4.34
249.35	3.12
249.566	2.56
249.782	3.24
249.997	2.95
250.213	3.04
250.428	3.62
250.644	3.15
250.859	3.77
251.075	3.7
251.29	3.69
251.506	3.16
251.721	3.99
251.937	3.97
252.152	3.41
252.368	3.46
252.583	3.38
252.798	3.25
253.014	5.49
253.229	5.69
253.445	5.25
253.66	3.73
253.875	4.59
254.091	3.81
254.306	3.4
254.521	3.95
254.737	3.7
254.952	3.68
255.167	3.7
255.383	3.95
255.598	4.66
255.813	4.36
256.028	5.01
256.244	3.42
256.459	3.72
256.674	4.37
256.889	4.13
257.104	3.94
257.32	4.17
257.535	4.47
257.75	4.37
257.965	4.19
258.18	4.78
258.395	4.8
258.61	5.33
258.826	5.14
259.041	5.33
259.256	5.48
259.471	5.97
259.686	5.88
259.901	5.62
260.116	5.14
260.331	5.36
260.546	5.11
260.761	5.01
260.976	4.78
261.191	4.66
261.406	4.16
261.621	4.29
261.836	3.8
262.05	3.25
262.265	3.46
262.48	3.73
262.695	3.1
262.91	2.73
263.125	2.32
263.34	2.77
263.555	3.5
263.769	3.19
263.984	3.02
264.199	3.63
264.414	3.82
264.629	4.34
264.843	4.92
265.058	5.36
265.273	4.94
265.488	5.72
265.702	5.11
265.917	4.39
266.132	4.54
266.346	4.98
266.561	4.61
266.776	4.92
266.99	4.46
267.205	4.27
267.42	3.91
267.634	4.42
267.849	4.22
268.063	4.48
268.278	4.63
268.492	4.57
268.707	4.11
268.922	4.07
269.136	3.99
269.351	4.19
269.565	4.42
269.78	4.46
269.994	4.42
270.209	4.53
270.423	4.38
270.637	4.6
270.852	4.64
271.066	4.79
271.281	4.98
271.495	5.29
271.709	5.04
271.924	4.66
272.138	4.75
272.353	4.71
272.567	4.6
272.781	4.74
272.996	4.79
273.21	4.53
273.424	3.99
273.638	4.25
273.853	3.55
274.067	3.83
274.281	3.88
274.495	4.07
274.71	4.07
274.924	3.65
275.138	3.65
275.352	3.51
275.566	3.8
275.781	3.52
275.995	2.87
276.209	3.15
276.423	2.85
276.637	3.11
276.851	3.52
277.065	3.51
277.279	3.88
277.493	4.16
277.707	4.58
277.921	3.89
278.135	4.15
278.349	4.23
278.563	4.24
278.777	4.2
278.991	4.29
279.205	3.05
279.419	2.69
279.633	2.96
279.847	2.72
280.061	2.55
280.275	3.35
280.489	3.36
280.703	3.69
280.917	4.01
281.131	3.91
281.344	3.54
281.558	4.21
281.772	4.68
281.986	4.53
282.2	4.4
282.414	4.26
282.627	4.37
282.841	4.87
283.055	4.72
283.269	4.63
283.482	5.07
283.696	4.97
283.91	4.9
284.123	4.98
284.337	4.77
284.551	4.76
284.764	4.66
284.978	4.29
285.192	3.85
285.405	3.53
285.619	2.96
285.833	2.81
286.046	3.26
286.26	3.5
286.473	3.55
286.687	3.82
286.9	3.86
287.114	4.23
287.327	4.17
287.541	4.74
287.754	5.06
287.968	5.14
288.181	5
288.395	4.97
288.608	4.67
288.822	4.78
289.035	4.56
289.248	4.73
289.462	4.41
289.675	4.79
289.889	4.54
290.102	4.82
290.315	5.24
290.529	4.88
290.742	4.45
290.955	4.73
291.169	4.43
291.382	4.47
291.595	4.46
291.808	4.56
292.022	4.37
292.235	4.36
292.448	4.4
292.661	3.95
292.875	4.54
293.088	4.86
293.301	4.6
293.514	4.43
293.727	4.67
293.94	4.78
294.153	4.99
294.367	5.11
294.58	5.31
294.793	5.24
295.006	5.46
295.219	5.29
295.432	5.41
295.645	5.6
295.858	5.55
296.071	5.42
296.284	5.08
296.497	5.01
296.71	4.72
296.923	4.72
297.136	4.36
297.349	4.31
297.562	4.16
297.775	3.62
297.988	3.74
298.201	3.62
298.414	3.65
298.626	3.87
298.839	3.68
299.052	3.47
299.265	3.06
299.478	3.77
299.691	4.18
299.903	4.54
300.116	4.52
300.329	4.01
300.542	4.68
300.755	4.75
300.967	4.85
301.18	5.19
301.393	5.97
301.605	6.15
301.818	5.57
302.031	5.55
302.243	5.34
302.456	5.74
302.669	5.74
302.881	5.06
303.094	5.5
303.307	5.33
303.519	4.94
303.732	4.64
303.944	4.29
304.157	4.36
304.37	3.93
304.582	3.92
304.795	4.12
305.007	4.22
305.22	4.58
305.432	3.89
305.645	4.15
305.857	4.44
306.069	4.47
306.282	4.96
306.494	5.14
306.707	5.2
306.919	5.48
307.132	5.22
307.344	4.71
307.556	4.67
307.769	4.72
307.981	4.6
308.193	4.42
308.406	4.39
308.618	4.1
308.83	4.06
309.043	4.07
309.255	3.99
309.467	3.97
309.679	4.3
309.892	4.33
310.104	4.11
310.316	4.13
310.528	4.2
310.74	4.46
310.953	4.42
311.165	4.45
311.377	4.39
311.589	4.13
311.801	4.14
312.013	4.14
312.225	4.06
312.437	4.32
312.649	4.24
312.862	4.38
313.074	4.2
313.286	4.6
313.498	4.48
313.71	4.24
313.922	4.83
314.134	5.05
314.346	5.48
314.558	5.47
314.77	5.86
314.982	5.69
315.193	5.64
315.405	5.36
315.617	5.39
315.829	5.51
316.041	5.64
316.253	5.2
316.465	5.14
316.677	4.88
316.888	4.84
317.1	4.04
317.312	4.32
317.524	4.53
317.736	4.63
317.947	4.95
318.159	5.13
318.371	5.25
318.583	5.47
318.794	5.22
319.006	5.38
319.218	5.09
319.43	5.29
319.641	5.27
319.853	5.03
320.064	5.04
320.276	4.5
320.488	4.28
320.699	4.73
320.911	4.68
321.123	4.71
321.334	4.57
321.546	4.57
321.757	4.59
321.969	4.27
322.18	4.32
322.392	4.34
322.603	4.11
322.815	4.26
323.026	4.37
323.238	4.61
323.449	5.32
323.661	5.27
323.872	5.51
324.083	5.87
324.295	6.47
324.506	6.45
324.718	6.34
324.929	6.71
325.14	6.38
325.352	6.2
325.563	6.05
325.774	5.63
325.986	5.88
326.197	6.33
326.408	6.03
326.62	5.78
326.831	5.87
327.042	6.2
327.253	6.26
327.464	6.63
327.676	7
327.887	7.01
328.098	6.84
328.309	6.68
328.52	6.95
328.732	7.12
328.943	7.16
329.154	6.95
329.365	6.95
329.576	7.01
329.787	6.95
329.998	6.85
330.209	6.54
330.42	6.75
330.631	6.52
330.842	5.86
331.053	6.01
331.264	5.52
331.475	5.41
331.686	5.45
331.897	4.64
332.108	4.85
332.319	4.98
332.53	5.45
332.741	5.39
332.952	5.38
333.163	5.33
333.374	5.14
333.585	5.65
333.795	6.02
334.006	5.84
334.217	6.33
334.428	6.33
334.639	6.01
334.849	5.65
335.06	5.87
335.271	6.37
335.482	6.44
335.692	6.43
335.903	6.36
336.114	6.6
336.325	6.65
336.535	7.05
336.746	6.92
336.957	6.87
337.167	7.07
337.378	6.88
337.589	6.99
337.799	7.22
338.01	7.41
338.22	7.32
338.431	7.12
338.642	6.9
338.852	6.56
339.063	6.93
339.273	7.2
339.484	7.19
339.694	7.17
339.905	6.52
340.115	6.46
340.326	6.55
340.536	6.62
340.746	6.5
340.957	6.45
341.167	6.54
341.378	6.2
341.588	5.84
341.799	5.5
342.009	5.29
342.219	5.47
342.43	5.56
342.64	5.51
342.85	5.36
343.061	5.09
343.271	5.36
343.481	5.14
343.691	5.23
343.902	5.66
344.112	5.89
344.322	5.92
344.532	5.77
344.743	5.87
344.953	5.7
345.163	5.67
345.373	5.93
345.583	5.81
345.793	5.81
346.004	6.01
346.214	5.64
346.424	5.56
346.634	5.79
346.844	6.27
347.054	6.09
347.264	5.82
347.474	5.56
347.684	5.7
347.894	6.15
348.104	6.48
348.314	6.1
348.524	5.76
348.734	6.06
348.944	5.98
349.154	5.64
349.364	5.76
349.574	6.34
349.784	6.92
349.994	6.73
350.204	6.4
350.413	6.14
350.623	6.54
350.833	6.78
351.043	6.35
351.253	6.24
351.463	6.35
351.672	6.13
351.882	5.92
352.092	5.8
352.302	6.18
352.511	5.98
352.721	6.18
352.931	5.94
353.141	6.01
353.35	5.99
353.56	5.98
353.77	6.06
353.979	6.19
354.189	6.18
354.399	6.45
354.608	5.69
354.818	5.89
355.027	5.81
355.237	5.65
355.447	5.55
355.656	5.8
355.866	5.62
356.075	5.52
356.285	5.34
356.494	5.35
356.704	4.99
356.913	5.61
357.123	5.53
357.332	5.51
357.542	5.59
357.751	5.44
357.96	5.35
358.17	5.73
358.379	5.81
358.589	5.88
358.798	5.88
359.007	5.77
359.217	5.29
359.426	5.17
359.635	5.26
359.845	5.07
360.054	5.41
360.263	5.35
360.472	5.18
360.682	5.11
360.891	4.91
361.1	4.98
361.309	5.07
361.519	5.59
361.728	5.74
361.937	5.63
362.146	5.89
362.355	5.67
362.564	5.87
362.774	5.99
362.983	6.11
363.192	6.25
363.401	6.15
363.61	6.05
363.819	5.55
364.028	5.38
364.237	5.29
364.446	5.05
364.655	5.05
364.864	5.01
365.073	4.94
365.282	4.91
365.491	5.02
365.7	4.81
365.909	5.1
366.118	5.43
366.327	5.58
366.536	5.55
366.745	5.52
366.954	5.65
367.162	5.47
367.371	5.43
367.58	5.26
367.789	5.29
367.998	5.53
368.207	5.43
368.415	5.26
368.624	5.1
368.833	5.46
369.042	5.59
369.25	5.45
369.459	5.85
369.668	5.7
369.877	5.76
370.085	5.48
370.294	5.38
370.503	5.16
370.711	5.03
370.92	5.16
371.129	5.17
371.337	5.17
371.546	5.31
371.754	5.1
371.963	5.44
372.171	5.45
372.38	5.41
372.589	5.48
372.797	5.57
373.006	5.76
373.214	5.57
373.423	5.24
373.631	5.23
373.84	4.98
374.048	4.89
374.256	4.62
374.465	4.63
374.673	4.93
374.882	4.9
375.09	4.82
375.298	4.75
375.507	4.91
375.715	4.89
375.923	4.9
376.132	4.85
376.34	4.71
376.548	4.94
376.757	4.78
376.965	4.76
377.173	4.66
377.381	4.65
377.59	4.63
377.798	4.48
378.006	4.53
378.214	4.72
378.423	4.9
378.631	5.11
378.839	4.92
379.047	5.13
379.255	4.72
379.463	4.64
379.671	4.96
379.879	5.08
380.088	5.08
380.296	5.15
380.504	4.81
380.712	4.73
380.92	4.61
381.128	4.3
381.336	4.14
381.544	4.3
381.752	4.45
381.96	4
382.168	4.14
382.376	4.33
382.584	4.38
382.791	4.59
382.999	4.69
383.207	4.72
383.415	5.03
383.623	4.96
383.831	5.11
384.039	5.02
384.247	5.37
384.454	5.12
384.662	5.01
384.87	4.71
385.078	4.73
385.285	4.63
385.493	4.62
385.701	4.7
385.909	4.76
386.116	4.66
386.324	4.86
386.532	4.59
386.739	4.57
386.947	4.67
387.155	4.86
387.362	4.74
387.57	4.69
387.778	4.54
387.985	4.37
388.193	4.33
388.4	4.28
388.608	4.11
388.816	4.12
389.023	4.17
389.231	4.14
389.438	3.98
389.646	3.93
389.853	4.28
390.061	4.21
390.268	4.26
390.475	4.35
390.683	4.38
390.89	4.28
391.098	4.3
391.305	4.33
391.512	4.24
391.72	4.61
391.927	4.76
392.135	4.53
392.342	4.57
392.549	4.57
392.756	4.42
392.964	4.55
393.171	4.63
393.378	4.65
393.586	4.58
393.793	4.54
394	4.16
394.207	4.11
394.414	4.17
394.622	4.38
394.829	4.24
395.036	4.34
395.243	4.24
395.45	4.36
395.657	4.44
395.864	4.32
396.072	4.46
396.279	4.71
396.486	4.62
396.693	4.63
396.9	4.52
397.107	4.71
397.314	4.63
397.521	4.75
397.728	4.76
397.935	4.64
398.142	4.79
398.349	4.65
398.556	4.45
398.763	4.42
398.97	4.3
399.177	4.26
399.383	4.2
399.59	4.2
399.797	4.19
400.004	4.01
400.211	4.12
400.418	4.19
400.625	4.33
400.831	4.39
401.038	4.62
401.245	4.73
401.452	4.54
401.658	4.54
401.865	4.74
402.072	4.59
402.279	4.66
402.485	4.71
402.692	4.58
402.899	4.58
403.105	4.68
403.312	4.46
403.519	4.41
403.725	4.56
403.932	4.67
404.138	4.6
404.345	4.63
404.552	4.61
404.758	4.56
404.965	4.6
405.171	4.52
405.378	4.44
405.584	4.42
405.791	4.46
405.997	4.51
406.204	4.47
406.41	4.27
406.617	4.28
406.823	4.15
407.029	4.23
407.236	4.28
407.442	4.2
407.649	4.28
407.855	4.27
408.061	4.31
408.268	4.25
408.474	4.36
408.68	4.45
408.887	4.52
409.093	4.69
409.299	4.51
409.505	4.38
409.712	4.48
409.918	4.49
410.124	4.53
410.33	4.38
410.537	4.49
410.743	4.36
410.949	4.52
411.155	4.56
411.361	4.57
411.567	4.37
411.773	4.57
411.98	4.6
412.186	4.4
412.392	4.46
412.598	4.32
412.804	4.26
413.01	4.16
413.216	4.08
413.422	4.1
413.628	4.14
413.834	4.36
414.04	4.33
414.246	4.33
414.452	4.45
414.658	4.5
414.864	4.59
415.07	4.63
415.275	4.65
415.481	4.58
415.687	4.5
415.893	4.47
416.099	4.48
416.305	4.4
416.511	4.47
416.716	4.45
416.922	4.4
417.128	4.4
417.334	4.35
417.539	4.31
417.745	4.32
417.951	4.29
418.157	4.23
418.362	4.23
418.568	4.31
418.774	4.31
418.979	4.28
419.185	4.36
419.391	4.38
419.596	4.39
419.802	4.46
420.008	4.55
420.213	4.62
420.419	4.68
420.624	4.69
420.83	4.61
421.035	4.59
421.241	4.66
421.446	4.55
421.652	4.62
421.857	4.58
422.063	4.57
422.268	4.52
422.474	4.51
422.679	4.4
422.885	4.42
423.09	4.42
423.295	4.35
423.501	4.28
423.706	4.34
423.911	4.21
424.117	4.25
424.322	4.25
424.527	4.21
424.733	4.11
424.938	4.21
425.143	4.22
425.349	4.11
425.554	4.03
425.759	4.05
425.964	3.91
426.169	4.01
426.375	3.95
426.58	3.81
426.785	3.73
426.99	3.89
427.195	3.72
427.4	3.63
427.605	3.78
427.811	3.92
428.016	3.84
428.221	3.98
428.426	3.92
428.631	4.07
428.836	4.27
429.041	4.26
429.246	4.16
429.451	4.3
429.656	4.22
429.861	4.28
430.066	4.27
430.271	4.39
430.476	4.39
430.681	4.38
430.886	4.28
431.09	4.16
431.295	4.22
431.5	4.19
431.705	4.19
431.91	4.29
432.115	4.2
432.32	4.26
432.524	4.29
432.729	4.14
432.934	4.11
433.139	4.07
433.343	4.14
433.548	4.16
433.753	4.2
433.958	4.24
434.162	4.31
434.367	4.38
434.572	4.39
434.776	4.23
434.981	4.39
435.186	4.36
435.39	4.3
435.595	4.25
435.799	4.38
436.004	4.36
436.209	4.32
436.413	4.2
436.618	4.2
436.822	4.27
437.027	4.26
437.231	4.18
437.436	4.25
437.64	4.32
437.845	4.22
438.049	4.16
438.253	4.13
438.458	4.16
438.662	4.13
438.867	4.12
439.071	4.07
439.275	4.15
439.48	4.16
439.684	4.16
439.888	4.1
440.093	4.16
440.297	4.13
440.501	4.18
440.706	4.16
440.91	4.23
441.114	4.24
441.318	4.21
441.523	4.15
441.727	4.21
441.931	4.24
442.135	4.26
442.339	4.24
442.543	4.23
442.748	4.21
442.952	4.24
443.156	4.27
443.36	4.16
443.564	4.15
443.768	4.22
443.972	4.22
444.176	4.2
444.38	4.28
444.584	4.33
444.788	4.23
444.992	4.23
445.196	4.24
445.4	4.19
445.604	4.21
445.808	4.23
446.012	4.26
446.216	4.22
446.42	4.24
446.624	4.19
446.828	4.2
447.032	4.26
447.235	4.25
447.439	4.12
447.643	4.08
447.847	4.14
448.051	4.04
448.254	3.9
448.458	3.84
448.662	3.8
448.866	3.83
449.069	3.82
449.273	3.79
449.477	3.82
449.681	3.97
449.884	3.93
450.088	3.82
450.292	3.85
450.495	3.91
450.699	4
450.902	3.92
451.106	3.86
451.31	3.77
451.513	3.76
451.717	3.77
451.92	3.64
452.124	3.69
452.327	3.79
452.531	3.8
452.734	3.83
452.938	3.9
453.141	4.01
453.345	4
453.548	4.08
453.752	4.24
453.955	4.2
454.158	4.21
454.362	4.19
454.565	4.13
454.769	4.07
454.972	3.99
455.175	3.89
455.379	3.85
455.582	3.81
455.785	3.79
455.988	3.61
456.192	3.62
456.395	3.71
456.598	3.73
456.801	3.79
457.005	3.87
457.208	3.91
457.411	3.95
457.614	3.95
457.817	3.99
458.021	4.05
458.224	4.13
458.427	4.14
458.63	4.15
458.833	4.18
459.036	4.12
459.239	4.16
459.442	4.16
459.645	4.19
459.848	4.25
460.051	4.24
460.254	4.2
460.457	4.17
460.66	4.2
460.863	4.16
461.066	4.16
461.269	4.18
461.472	4.11
461.675	4.2
461.878	4.13
462.081	4.05
462.284	4.06
462.486	4
462.689	3.98
462.892	3.96
463.095	3.83
463.298	3.92
463.5	4.01
463.703	3.98
463.906	3.86
464.109	3.85
464.311	3.8
464.514	3.85
464.717	3.8
464.92	3.88
465.122	3.89
465.325	4.01
465.528	3.92
465.73	3.84
465.933	3.86
466.135	3.93
466.338	3.89
466.541	4
466.743	4
466.946	4.06
467.148	3.97
467.351	3.92
467.553	3.86
467.756	3.93
467.958	4.01
468.161	4.09
468.363	3.95
468.566	4.05
468.768	4.03
