Data from 2938495_Reflection_1.txt Node
Date: Wed Jun 17 00:33:26 EDT 2015
User: robert
Spectrometer: USB4E03002
Autoset integration time: false
Trigger mode: 4
Integration Time (sec): 1.000000E-1
Scans to average: 10
Electric dark correction enabled: true
Nonlinearity correction enabled: false
Boxcar width: 5
Stray light correction enabled: false
XAxis mode: Wavelengths
Stop averaging: false
Number of Pixels in Spectrum: 3648
>>>>>Begin Spectral Data<<<<<
177.575	180.37
177.794	145.4
178.014	65.11
178.233	10.21
178.452	46.75
178.672	-21.23
178.891	22.76
179.11	-60
179.33	-16.4
179.549	-85.94
179.768	-275.46
179.987	973.81
180.207	259.66
180.426	-2409.15
180.645	304.72
180.864	-205.65
181.084	1.9
181.303	-63.65
181.522	-51.84
181.741	-76.94
181.96	-53.39
182.179	13.18
182.398	6.66
182.618	-22.39
182.837	-1.11
183.056	56.95
183.275	20.25
183.494	3.74
183.713	-6.89
183.932	33.13
184.151	7.63
184.37	-21.15
184.589	-79.43
184.808	-112.61
185.027	-155.47
185.246	-737.28
185.465	-667.7
185.684	-2579.74
185.903	2228.13
186.122	-1402.74
186.341	-759.52
186.56	-1153.65
186.779	-1069.53
186.998	-743.92
187.216	-2227.71
187.435	-455.6
187.654	-133.65
187.873	-196.55
188.092	-434.92
188.311	-532.41
188.53	-3030.47
188.748	-1003.93
188.967	329.11
189.186	539.93
189.405	185.6
189.623	280.84
189.842	150.78
190.061	150.61
190.28	128.38
190.498	163.83
190.717	123.84
190.936	132.02
191.154	138.09
191.373	199.04
191.592	187.61
191.81	260.26
192.029	233.01
192.248	1423.03
192.466	-205.15
192.685	-353.14
192.904	-99.09
193.122	-127.74
193.341	-72.19
193.559	-92.27
193.778	-208.95
193.996	-245.41
194.215	-223.37
194.433	-459.02
194.652	-429.61
194.87	-1279.9
195.089	-420.52
195.307	-1204.16
195.526	-730.92
195.744	4199.24
195.963	-239.23
196.181	-27.32
196.399	-26.95
196.618	-186.6
196.836	-134.82
197.055	-57.4
197.273	-209.29
197.491	-445.68
197.71	-539.7
197.928	-294.95
198.146	-468.76
198.365	908.41
198.583	310.59
198.801	329.72
199.019	346.09
199.238	841.57
199.456	342.66
199.674	952.54
199.892	-2093.82
200.111	-186.74
200.329	-135.18
200.547	-112.39
200.765	-67.54
200.983	-15.71
201.202	-8.08
201.42	-0.4
201.638	-5.09
201.856	-12.8
202.074	1.48
202.292	-26.78
202.51	-74.37
202.728	-137.25
202.946	-206.08
203.165	-490.76
203.383	23567.5
203.601	1822.8
203.819	3341.67
204.037	2386.23
204.255	1133.25
204.473	635.36
204.691	257.98
204.909	242.38
205.127	154.65
205.345	192.17
205.562	164.1
205.78	236.28
205.998	234.84
206.216	167.13
206.434	1375.34
206.652	304.29
206.87	685.44
207.088	-430.3
207.306	-245.86
207.523	-130.54
207.741	-77.38
207.959	-16.94
208.177	-37.41
208.395	-30.2
208.612	-10.85
208.83	-10.95
209.048	-7.65
209.266	-9.26
209.483	0.47
209.701	10.8
209.919	18.75
210.136	-8.37
210.354	-50.71
210.572	4.72
210.79	-51.06
211.007	-18.04
211.225	-37.78
211.442	0.56
211.66	17.41
211.878	-5.67
212.095	-6.17
212.313	8.32
212.53	22.08
212.748	17.13
212.966	9.73
213.183	13.04
213.401	-16.71
213.618	-37.23
213.836	-59.84
214.053	-60.89
214.271	-23.75
214.488	-46.76
214.705	-103.88
214.923	-110.27
215.14	-35.36
215.358	-14.9
215.575	-12.08
215.793	3.24
216.01	22.8
216.227	23.63
216.445	29.78
216.662	15.75
216.879	22.15
217.097	7.08
217.314	-4.17
217.531	-15.1
217.749	-30.5
217.966	-19.07
218.183	-15.72
218.4	-19.08
218.618	-25.88
218.835	-47.51
219.052	-22.2
219.269	-14.06
219.487	5.5
219.704	-1.23
219.921	-10.47
220.138	-19.7
220.355	-15.12
220.572	-27.3
220.79	-15.42
221.007	-21.88
221.224	-9.73
221.441	-16.95
221.658	-16.68
221.875	-17.34
222.092	-15.43
222.309	-5.78
222.526	3.13
222.743	2.4
222.96	7.57
223.177	5.25
223.394	15.29
223.611	15.29
223.828	14.47
224.045	15.46
224.262	17.77
224.479	17.85
224.696	17.61
224.913	13.46
225.13	12.05
225.347	14.27
225.564	15.27
225.781	11.02
225.997	10.5
226.214	12.45
226.431	8.97
226.648	9.15
226.865	9.28
227.082	7.86
227.298	8.16
227.515	10.14
227.732	9.88
227.949	8.52
228.165	8.95
228.382	9.64
228.599	9.41
228.816	12.04
229.032	11.35
229.249	11.76
229.466	12.05
229.682	11.75
229.899	9.7
230.116	12.05
230.332	14.1
230.549	11.69
230.765	9.51
230.982	7.79
231.199	7.08
231.415	7.6
231.632	6.32
231.848	6.09
232.065	6.38
232.281	4.49
232.498	0.38
232.714	2.14
232.931	5.82
233.147	8.12
233.364	7.65
233.58	7.05
233.797	4.68
234.013	5.38
234.23	4.07
234.446	6.7
234.662	7.48
234.879	9.5
235.095	8.81
235.312	7.77
235.528	5.92
235.744	7.05
235.961	8.16
236.177	9.91
236.393	9.61
236.61	11.38
236.826	12.31
237.042	13.35
237.258	11.41
237.475	9.76
237.691	10.34
237.907	11.24
238.123	11.79
238.339	11.5
238.556	13.13
238.772	12.31
238.988	12.68
239.204	12.92
239.42	12.42
239.636	12.61
239.853	12.81
240.069	13.09
240.285	13.57
240.501	12.59
240.717	12.62
240.933	11.81
241.149	12.14
241.365	11.71
241.581	10.29
241.797	10.36
242.013	9.77
242.229	9.03
242.445	8.47
242.661	7.7
242.877	7.76
243.093	6.66
243.309	6.72
243.525	7.71
243.741	8.02
243.957	8.23
244.173	8.61
244.388	8.85
244.604	9.18
244.82	9.27
245.036	8.74
245.252	9.12
245.468	9.3
245.683	9.17
245.899	8.87
246.115	8.48
246.331	8.79
246.547	8.67
246.762	8.89
246.978	9
247.194	8.49
247.409	9.09
247.625	8.82
247.841	8.01
248.057	8.38
248.272	7.89
248.488	8.44
248.703	8.39
248.919	7.45
249.135	6.58
249.35	5.6
249.566	5.84
249.782	4.69
249.997	4.14
250.213	4.75
250.428	4.07
250.644	4.48
250.859	4.32
251.075	3.69
251.29	4.34
251.506	4.51
251.721	5.14
251.937	6.4
252.152	6.31
252.368	7.23
252.583	8.42
252.798	7.91
253.014	7.08
253.229	7.49
253.445	7.6
253.66	8.36
253.875	8.66
254.091	8.07
254.306	6.57
254.521	6.71
254.737	6.31
254.952	4.71
255.167	4.89
255.383	6.06
255.598	5.08
255.813	5.02
256.028	3.97
256.244	4.3
256.459	4.88
256.674	5.13
256.889	5.31
257.104	5
257.32	5.76
257.535	6.04
257.75	5.91
257.965	6.07
258.18	6.21
258.395	6.56
258.61	6.32
258.826	5.95
259.041	5.67
259.256	5.84
259.471	5.96
259.686	5.64
259.901	5.66
260.116	5.42
260.331	5.13
260.546	4.57
260.761	4.32
260.976	4.13
261.191	3.8
261.406	3.71
261.621	3.34
261.836	3.77
262.05	3.81
262.265	3.73
262.48	3.73
262.695	3.96
262.91	4
263.125	3.56
263.34	3.48
263.555	4.14
263.769	4.22
263.984	4.27
264.199	3.2
264.414	4.13
264.629	3.75
264.843	3.73
265.058	4.38
265.273	5.03
265.488	5.14
265.702	5.92
265.917	6.27
266.132	6.48
266.346	6.83
266.561	6.73
266.776	5.93
266.99	6.49
267.205	6.72
267.42	6.26
267.634	5.62
267.849	5.66
268.063	5.4
268.278	5.04
268.492	4.82
268.707	4.65
268.922	5.54
269.136	5.53
269.351	4.84
269.565	5.12
269.78	5.24
269.994	5.43
270.209	5.53
270.423	5.69
270.637	5.71
270.852	5.91
271.066	5.81
271.281	5.71
271.495	5.74
271.709	6.15
271.924	5.98
272.138	6.1
272.353	6.52
272.567	6.09
272.781	5.77
272.996	5.92
273.21	5.43
273.424	5.15
273.638	4.9
273.853	4.68
274.067	3.89
274.281	4.06
274.495	3.85
274.71	3.52
274.924	3.7
275.138	3.35
275.352	3.09
275.566	3.58
275.781	4.24
275.995	3.16
276.209	3.92
276.423	4.22
276.637	3.9
276.851	3.86
277.065	4.64
277.279	4.16
277.493	4.46
277.707	4.64
277.921	4.67
278.135	3.89
278.349	4.99
278.563	4.72
278.777	5.06
278.991	4.87
279.205	4.52
279.419	4.1
279.633	4.96
279.847	4.88
280.061	4.88
280.275	5.19
280.489	5.63
280.703	6.05
280.917	6.25
281.131	5.95
281.344	6.23
281.558	6.61
281.772	6.93
281.986	6.65
282.2	6.61
282.414	6.7
282.627	6.49
282.841	6.51
283.055	6.27
283.269	5.83
283.482	6.08
283.696	5.79
283.91	6.06
284.123	5.34
284.337	5.92
284.551	5.71
284.764	5.6
284.978	5.61
285.192	5.37
285.405	5.45
285.619	5.61
285.833	5.97
286.046	6.04
286.26	5.66
286.473	6.29
286.687	5.89
286.9	6.19
287.114	6.24
287.327	6.07
287.541	5.98
287.754	6.07
287.968	6.08
288.181	5.97
288.395	5.97
288.608	6.31
288.822	5.78
289.035	5.7
289.248	5.97
289.462	6.2
289.675	6.66
289.889	6.65
290.102	6.73
290.315	6.53
290.529	6.18
290.742	5.99
290.955	5.53
291.169	5.89
291.382	5.91
291.595	5.52
291.808	5.69
292.022	5.07
292.235	5.72
292.448	5.34
292.661	5.95
292.875	5.99
293.088	6.45
293.301	6.64
293.514	6.85
293.727	6.8
293.94	7.4
294.153	7.2
294.367	7.44
294.58	7.49
294.793	7.2
295.006	6.98
295.219	6.83
295.432	6.81
295.645	7.26
295.858	7.13
296.071	7.14
296.284	6.77
296.497	6.63
296.71	6.64
296.923	6.54
297.136	7.04
297.349	6.96
297.562	7.27
297.775	7.38
297.988	7.01
298.201	7.16
298.414	7.15
298.626	6.9
298.839	7.06
299.052	7.15
299.265	6.88
299.478	6.4
299.691	6.16
299.903	6.13
300.116	5.8
300.329	5.8
300.542	5.69
300.755	5.85
300.967	6.04
301.18	6.04
301.393	6.13
301.605	6.29
301.818	6.7
302.031	6.7
302.243	6.82
302.456	7.14
302.669	7.05
302.881	6.64
303.094	6.39
303.307	6.38
303.519	6.08
303.732	5.92
303.944	5.91
304.157	5.43
304.37	5.52
304.582	5.21
304.795	4.87
305.007	4.99
305.22	5.49
305.432	5.48
305.645	5.66
305.857	5.64
306.069	6.02
306.282	5.87
306.494	6.63
306.707	6.8
306.919	6.93
307.132	6.92
307.344	6.74
307.556	6.53
307.769	6.96
307.981	6.89
308.193	7.08
308.406	7.1
308.618	7.61
308.83	7.48
309.043	7.85
309.255	7.98
309.467	8.06
309.679	8.27
309.892	8.35
310.104	8.14
310.316	8.37
310.528	8.58
310.74	8.14
310.953	7.99
311.165	8.05
311.377	7.85
311.589	7.25
311.801	7.05
312.013	7.47
312.225	7.81
312.437	7.83
312.649	8.23
312.862	8.1
313.074	8.38
313.286	8.02
313.498	7.95
313.71	8.06
313.922	8.75
314.134	9.64
314.346	8.69
314.558	8.85
314.77	8.81
314.982	8.3
315.193	7.89
315.405	7.91
315.617	8.22
315.829	8.38
316.041	7.89
316.253	8.04
316.465	7.69
316.677	7.87
316.888	7.63
317.1	7.67
317.312	7.46
317.524	8.31
317.736	8.47
317.947	8.13
318.159	7.85
318.371	8.21
318.583	7.83
318.794	7.41
319.006	7.44
319.218	7.36
319.43	7.11
319.641	7.02
319.853	7
320.064	6.73
320.276	6.9
320.488	6.9
320.699	7.15
320.911	7.1
321.123	7.59
321.334	7.67
321.546	7.5
321.757	7.34
321.969	7.5
322.18	7.27
322.392	7.6
322.603	7.38
322.815	7.14
323.026	7.04
323.238	7.26
323.449	6.76
323.661	6.89
323.872	7.04
324.083	7.49
324.295	7.6
324.506	7.7
324.718	7.63
324.929	7.45
325.14	7.4
325.352	7.25
325.563	7.14
325.774	7.58
325.986	7.21
326.197	7.34
326.408	7.17
326.62	7.18
326.831	6.93
327.042	7.03
327.253	7.35
327.464	7.4
327.676	7.46
327.887	7.39
328.098	7
328.309	7.39
328.52	6.73
328.732	6.89
328.943	6.59
329.154	6.64
329.365	6.35
329.576	6.49
329.787	6.94
329.998	7.25
330.209	7.61
330.42	7.66
330.631	7.77
330.842	7.79
331.053	8.19
331.264	8.15
331.475	8.12
331.686	7.79
331.897	7.71
332.108	7.14
332.319	6.86
332.53	6.65
332.741	6.65
332.952	6.75
333.163	7.17
333.374	6.73
333.585	6.63
333.795	6.76
334.006	6.66
334.217	6.59
334.428	6.59
334.639	6.69
334.849	6.76
335.06	6.93
335.271	6.62
335.482	6.64
335.692	6.58
335.903	7.26
336.114	6.95
336.325	7.2
336.535	7.14
336.746	7.54
336.957	7.51
337.167	7.4
337.378	7.23
337.589	7.34
337.799	7.27
338.01	7.24
338.22	6.86
338.431	7.01
338.642	6.89
338.852	7.02
339.063	7.27
339.273	7.1
339.484	7.09
339.694	7.26
339.905	7.4
340.115	7.2
340.326	7.37
340.536	7.7
340.746	7.31
340.957	7.72
341.167	7.53
341.378	7.04
341.588	7.16
341.799	6.93
342.009	6.83
342.219	6.55
342.43	6.5
342.64	6.77
342.85	6.57
343.061	6.8
343.271	6.38
343.481	6.44
343.691	6.31
343.902	5.83
344.112	5.61
344.322	5.27
344.532	5.45
344.743	5.55
344.953	5.19
345.163	5.03
345.373	5.16
345.583	4.86
345.793	4.9
346.004	5.36
346.214	5.9
346.424	6.28
346.634	6.68
346.844	6.21
347.054	6.1
347.264	6.23
347.474	5.97
347.684	5.89
347.894	6.42
348.104	6.35
348.314	5.82
348.524	5.62
348.734	5.73
348.944	5.58
349.154	5.88
349.364	6.04
349.574	6.15
349.784	6.6
349.994	6.95
350.204	6.66
350.413	6.68
350.623	7.1
350.833	7.2
351.043	6.88
351.253	6.99
351.463	6.97
351.672	7.02
351.882	6.92
352.092	6.57
352.302	6.23
352.511	6.52
352.721	6.37
352.931	6.13
353.141	6.09
353.35	6.45
353.56	6.36
353.77	6.35
353.979	6.26
354.189	5.88
354.399	5.98
354.608	5.94
354.818	5.97
355.027	6.1
355.237	6.25
355.447	6.15
355.656	6.05
355.866	5.82
356.075	5.88
356.285	6.16
356.494	6.22
356.704	6.34
356.913	6.11
357.123	6.07
357.332	5.9
357.542	5.74
357.751	5.66
357.96	5.56
358.17	5.69
358.379	5.79
358.589	5.52
358.798	5.42
359.007	5.17
359.217	5.37
359.426	5.15
359.635	5.29
359.845	5.18
360.054	5.32
360.263	5.23
360.472	5.35
360.682	5.16
360.891	5.22
361.1	5.35
361.309	5.44
361.519	5.46
361.728	5.63
361.937	5.68
362.146	5.85
362.355	5.86
362.564	5.98
362.774	5.72
362.983	6.01
363.192	5.99
363.401	6.1
363.61	6.12
363.819	6.11
364.028	6.05
364.237	6
364.446	5.82
364.655	5.76
364.864	5.77
365.073	5.97
365.282	5.82
365.491	6.15
365.7	6.08
365.909	6.13
366.118	5.91
366.327	5.87
366.536	5.92
366.745	6.06
366.954	5.97
367.162	5.97
367.371	5.85
367.58	5.53
367.789	5.15
367.998	4.92
368.207	4.65
368.415	4.58
368.624	4.72
368.833	4.51
369.042	4.49
369.25	4.45
369.459	4.63
369.668	4.65
369.877	4.75
370.085	4.72
370.294	4.93
370.503	5.04
370.711	5.22
370.92	5.13
371.129	5.08
371.337	5.21
371.546	5.34
371.754	5.43
371.963	5.42
372.171	5.3
372.38	5.26
372.589	5.28
372.797	5.04
373.006	5.06
373.214	5.05
373.423	5.14
373.631	4.6
373.84	4.71
374.048	4.44
374.256	4.2
374.465	4.63
374.673	4.65
374.882	4.67
375.09	5.12
375.298	5.02
375.507	5.07
375.715	5.41
375.923	5.46
376.132	5.37
376.34	5.31
376.548	5.52
376.757	5.2
376.965	5.23
377.173	5.19
377.381	4.9
377.59	4.74
377.798	4.66
378.006	4.3
378.214	4.52
378.423	4.5
378.631	4.3
378.839	4.08
379.047	4.24
379.255	4.06
379.463	4.03
379.671	4.18
379.879	4.42
380.088	4.66
380.296	4.56
380.504	4.33
380.712	4.2
380.92	4.37
381.128	4.62
381.336	4.56
381.544	4.59
381.752	4.61
381.96	4.41
382.168	4.44
382.376	4.39
382.584	4.44
382.791	4.64
382.999	4.74
383.207	4.75
383.415	4.79
383.623	4.7
383.831	4.75
384.039	4.72
384.247	4.57
384.454	4.54
384.662	4.45
384.87	4.41
385.078	4.51
385.285	4.15
385.493	4.09
385.701	3.98
385.909	4.06
386.116	4.03
386.324	4.19
386.532	4.32
386.739	4.34
386.947	4.1
387.155	4.29
387.362	3.96
387.57	4.37
387.778	4.35
387.985	4.48
388.193	4.5
388.4	4.65
388.608	4.46
388.816	4.46
389.023	4.41
389.231	4.57
389.438	4.38
389.646	4.64
389.853	4.6
390.061	4.62
390.268	4.4
390.475	4.41
390.683	4.49
390.89	4.35
391.098	4.44
391.305	4.63
391.512	4.51
391.72	4.6
391.927	4.54
392.135	4.46
392.342	4.57
392.549	4.78
392.756	4.68
392.964	4.53
393.171	4.71
393.378	4.61
393.586	4.4
393.793	4.59
394	4.71
394.207	4.88
394.414	4.83
394.622	4.7
394.829	4.8
395.036	4.72
395.243	4.57
395.45	4.38
395.657	4.35
395.864	4.35
396.072	4.23
396.279	3.94
396.486	3.82
396.693	3.79
396.9	3.83
397.107	3.69
397.314	3.91
397.521	4.1
397.728	4.21
397.935	4.46
398.142	4.3
398.349	4.29
398.556	4.59
398.763	4.47
398.97	4.6
399.177	4.43
399.383	4.35
399.59	4.28
399.797	4.23
400.004	4.16
400.211	4
400.418	4.33
400.625	4.49
400.831	4.34
401.038	4.4
401.245	4.25
401.452	4.4
401.658	4.53
401.865	4.46
402.072	4.42
402.279	4.39
402.485	4.43
402.692	4.19
402.899	4.01
403.105	4.03
403.312	3.99
403.519	4.19
403.725	4.31
403.932	4.27
404.138	4.31
404.345	4.23
404.552	4.41
404.758	4.33
404.965	4.4
405.171	4.4
405.378	4.34
405.584	4.49
405.791	4.32
405.997	4.21
406.204	4.12
406.41	4.05
406.617	4.05
406.823	3.91
407.029	3.9
407.236	3.94
407.442	3.87
407.649	3.81
407.855	3.7
408.061	3.78
408.268	3.82
408.474	3.83
408.68	3.88
408.887	3.92
409.093	3.89
409.299	3.81
409.505	3.75
409.712	3.88
409.918	3.89
410.124	3.91
410.33	3.78
410.537	3.66
410.743	3.67
410.949	3.5
411.155	3.34
411.361	3.28
411.567	3.54
411.773	3.53
411.98	3.59
412.186	3.62
412.392	3.41
412.598	3.56
412.804	3.59
413.01	3.71
413.216	3.89
413.422	3.99
413.628	4.03
413.834	3.98
414.04	3.92
414.246	3.9
414.452	3.73
414.658	3.83
414.864	3.74
415.07	3.71
415.275	3.57
415.481	3.57
415.687	3.55
415.893	3.57
416.099	3.48
416.305	3.48
416.511	3.44
416.716	3.64
416.922	3.72
417.128	3.72
417.334	3.78
417.539	3.8
417.745	3.85
417.951	3.9
418.157	3.93
418.362	3.97
418.568	4.07
418.774	4.12
418.979	4.1
419.185	4.09
419.391	4.14
419.596	4.16
419.802	4.15
420.008	4.18
420.213	3.54
420.419	3.51
420.624	3.49
420.83	3.4
421.035	3.33
421.241	3.3
421.446	3.35
421.652	3.29
421.857	3.34
422.063	3.36
422.268	3.26
422.474	3.98
422.679	3.99
422.885	4.02
423.09	4.11
423.295	4.2
423.501	4.18
423.706	4.09
423.911	4.15
424.117	4.07
424.322	4.08
424.527	4.11
424.733	4.02
424.938	4.02
425.143	3.9
425.349	3.87
425.554	3.8
425.759	3.75
425.964	3.8
426.169	3.79
426.375	3.75
426.58	3.77
426.785	3.76
426.99	3.83
427.195	3.86
427.4	3.97
427.605	3.94
427.811	3.93
428.016	4.06
428.221	4.04
428.426	4.01
428.631	4.18
428.836	4.1
429.041	3.96
429.246	3.93
429.451	3.82
429.656	3.7
429.861	3.59
430.066	3.6
430.271	3.67
430.476	3.61
430.681	3.61
430.886	3.44
431.09	3.48
431.295	3.58
431.5	3.54
431.705	3.64
431.91	3.63
432.115	3.63
432.32	3.65
432.524	3.47
432.729	3.51
432.934	3.36
433.139	3.41
433.343	3.34
433.548	3.35
433.753	3.3
433.958	3.29
434.162	3.39
434.367	3.49
434.572	3.41
434.776	3.41
434.981	3.39
435.186	3.5
435.39	3.54
435.595	3.51
435.799	3.46
436.004	3.53
436.209	3.44
436.413	3.38
436.618	3.37
436.822	3.38
437.027	3.32
437.231	3.28
437.436	3.37
437.64	3.29
437.845	3.31
438.049	3.33
438.253	3.36
438.458	3.43
438.662	3.47
438.867	3.51
439.071	3.46
439.275	3.54
439.48	3.53
439.684	3.47
439.888	3.44
440.093	3.47
440.297	3.48
440.501	3.45
440.706	3.43
440.91	3.44
441.114	3.38
441.318	3.35
441.523	3.4
441.727	3.43
441.931	3.42
442.135	3.48
442.339	3.52
442.543	3.53
442.748	3.46
442.952	3.53
443.156	3.58
443.36	3.55
443.564	3.67
443.768	3.62
443.972	3.59
444.176	3.5
444.38	3.54
444.584	3.55
444.788	3.55
444.992	3.53
445.196	3.51
445.4	3.45
445.604	3.47
445.808	3.47
446.012	3.52
446.216	3.51
446.42	3.58
446.624	3.56
446.828	3.52
447.032	3.49
447.235	3.53
447.439	3.44
447.643	3.42
447.847	3.44
448.051	3.35
448.254	3.3
448.458	3.41
448.662	3.41
448.866	3.37
449.069	3.42
449.273	3.43
449.477	3.47
449.681	3.55
449.884	3.65
450.088	3.67
450.292	3.58
450.495	3.55
450.699	3.39
450.902	3.41
451.106	3.41
451.31	3.45
451.513	3.42
451.717	3.44
451.92	3.43
452.124	3.42
452.327	3.34
452.531	3.48
452.734	3.43
452.938	3.59
453.141	3.54
453.345	3.61
453.548	3.66
453.752	3.71
453.955	3.62
454.158	3.5
454.362	3.35
454.565	3.37
454.769	3.48
454.972	3.47
455.175	3.41
455.379	3.52
455.582	3.49
455.785	3.35
455.988	3.24
456.192	3.22
456.395	3.32
456.598	3.42
456.801	3.44
457.005	3.26
457.208	3.34
457.411	3.34
457.614	3.36
457.817	3.38
458.021	3.37
458.224	3.42
458.427	3.46
458.63	3.41
458.833	3.37
459.036	3.35
459.239	3.41
459.442	3.41
459.645	3.38
459.848	3.3
460.051	3.3
460.254	3.21
460.457	3.26
460.66	3.27
460.863	3.22
461.066	3.26
461.269	3.26
461.472	3.33
461.675	3.34
461.878	3.32
462.081	3.38
462.284	3.32
462.486	3.41
462.689	3.37
462.892	3.32
463.095	3.33
463.298	3.29
463.5	3.38
463.703	3.23
463.906	3.22
464.109	3.18
464.311	3.24
464.514	3.27
464.717	3.35
464.92	3.35
465.122	3.33
465.325	3.42
465.528	3.53
465.73	3.41
465.933	3.39
466.135	3.34
466.338	3.33
466.541	3.25
466.743	3.21
466.946	3.22
467.148	3.17
467.351	3.2
467.553	3.07
467.756	2.99
467.958	3.06
468.161	3.14
468.363	3.18
468.566	3.2
468.768	3.09
468.971	3.22
469.173	3.15
469.375	3.18
469.578	3.11
