Data from 2938535_Reflection_3.txt Node
Date: Mon Jun 15 23:52:52 EDT 2015
User: robert
Spectrometer: USB4E03002
Autoset integration time: false
Trigger mode: 4
Integration Time (sec): 1.000000E-1
Scans to average: 10
Electric dark correction enabled: true
Nonlinearity correction enabled: false
Boxcar width: 6
Stray light correction enabled: false
XAxis mode: Wavelengths
Stop averaging: false
Number of Pixels in Spectrum: 3648
>>>>>Begin Spectral Data<<<<<
177.575	-93.8
177.794	-155.83
178.014	-260.93
178.233	-259.57
178.452	-1059.02
178.672	-452.86
178.891	140
179.11	-284.68
179.33	-308.6
179.549	-312.33
179.768	-286.18
179.987	-513.17
180.207	-185.81
180.426	-197
180.645	-213.53
180.864	-186.77
181.084	-200.39
181.303	-200.39
181.522	-210.14
181.741	-208.06
181.96	-179.89
182.179	-143.26
182.398	-186.16
182.618	-272.07
182.837	-157.86
183.056	-213.41
183.275	-115.64
183.494	-129.06
183.713	-176.76
183.932	-161.39
184.151	-266.28
184.37	-258.82
184.589	-132.43
184.808	-341.71
185.027	-623.85
185.246	-306.44
185.465	-212.64
185.684	-414.8
185.903	-427.41
186.122	-3025.53
186.341	7405
186.56	1749.38
186.779	3617.95
186.998	-718.31
187.216	3957.69
187.435	450.19
187.654	1025.24
187.873	5542.86
188.092	921.09
188.311	860.32
188.53	4162.5
188.748	-5560
188.967	-821.82
189.186	-2565.85
189.405	-1632.47
189.623	2586.54
189.842	898.76
190.061	11881.82
190.28	-1114.41
190.498	-2373.68
190.717	-1671.62
190.936	-8157.14
191.154	-2913.51
191.373	11100
191.592	3429.63
191.81	2821.62
192.029	1495.16
192.248	1420.63
192.466	-2979.17
192.685	-469.18
192.904	-644.63
193.122	1951.02
193.341	3018.52
193.559	385.26
193.778	632.47
193.996	381.61
194.215	468.9
194.433	448.49
194.652	503.64
194.87	819.32
195.089	456.23
195.307	455.52
195.526	355.88
195.744	378.28
195.963	916.39
196.181	997.69
196.399	4948.48
196.618	1209.92
196.836	-643.32
197.055	-542.13
197.273	-1044.17
197.491	-338.63
197.71	-640.93
197.928	-252.1
198.146	-257.98
198.365	-232.11
198.583	-475.71
198.801	31650
199.019	1254.74
199.238	1818.97
199.456	3612.5
199.674	669.54
199.892	767.95
200.111	3782.14
200.329	346.65
200.547	451.22
200.765	387.85
200.983	450
201.202	427.34
201.42	583.45
201.638	404.4
201.856	1471.67
202.074	804.35
202.292	535.2
202.51	425.45
202.728	440
202.946	272.96
203.165	251.81
203.383	259.56
203.601	245.65
203.819	188.44
204.037	248.42
204.255	227.57
204.473	370.79
204.691	275.75
204.909	192.76
205.127	242.63
205.345	236.24
205.562	266.46
205.78	652.9
205.998	342.12
206.216	254.89
206.434	245.25
206.652	231.27
206.87	215.66
207.088	207.01
207.306	247.26
207.523	262.03
207.741	387.92
207.959	290.94
208.177	369.18
208.395	303.83
208.612	252.81
208.83	392.26
209.048	432.35
209.266	404.78
209.483	387.26
209.701	572.92
209.919	1380
210.136	541.89
210.354	545.97
210.572	457.18
210.79	538.35
211.007	355.98
211.225	390.4
211.442	351.75
211.66	257.64
211.878	264.42
212.095	280.67
212.313	263.16
212.53	221.24
212.748	183.96
212.966	158.02
213.183	137.43
213.401	151.65
213.618	154.65
213.836	154.39
214.053	149.77
214.271	197.85
214.488	318.18
214.705	199.51
214.923	186.91
215.14	184.86
215.358	128.48
215.575	148.41
215.793	151.94
216.01	131.64
216.227	112.1
216.445	92.69
216.662	101.8
216.879	91.51
217.097	72.65
217.314	86.11
217.531	88.11
217.749	96.18
217.966	84.69
218.183	82.81
218.4	79.63
218.618	65.89
218.835	56.93
219.052	66.43
219.269	79.71
219.487	86.77
219.704	89.72
219.921	81.91
220.138	64.15
220.355	61.49
220.572	57.81
220.79	67.69
221.007	64.6
221.224	60.87
221.441	72.04
221.658	87.23
221.875	78.29
222.092	65.83
222.309	62.17
222.526	54.48
222.743	55.42
222.96	53.61
223.177	53.79
223.394	53.7
223.611	50.18
223.828	56.38
224.045	52.07
224.262	45.59
224.479	37.29
224.696	36.16
224.913	33.07
225.13	32.28
225.347	30.65
225.564	27.33
225.781	26.32
225.997	23.91
226.214	20.57
226.431	18.21
226.648	17.19
226.865	17.57
227.082	18.64
227.298	18.04
227.515	17.75
227.732	17.72
227.949	15.93
228.165	17.25
228.382	17.6
228.599	17.22
228.816	17.07
229.032	18.39
229.249	19.1
229.466	18.67
229.682	18.31
229.899	16.85
230.116	17.39
230.332	16.87
230.549	16.04
230.765	16.79
230.982	14.1
231.199	15.41
231.415	14.6
231.632	14.7
231.848	13.93
232.065	13.32
232.281	14.32
232.498	16.17
232.714	16.39
232.931	16.96
233.147	16.61
233.364	17.15
233.58	18.22
233.797	17.68
234.013	16.2
234.23	16.31
234.446	17.63
234.662	18.81
234.879	17.38
235.095	16.35
235.312	15.93
235.528	14.68
235.744	14.57
235.961	15.47
236.177	17.87
236.393	17.58
236.61	16.59
236.826	17.28
237.042	18.14
237.258	16.11
237.475	15.54
237.691	15.43
237.907	16.69
238.123	15.28
238.339	16.09
238.556	16.77
238.772	16
238.988	14.83
239.204	15.11
239.42	15.89
239.636	15.55
239.853	15.27
240.069	15.7
240.285	14.75
240.501	15.27
240.717	14.89
240.933	15.5
241.149	15.18
241.365	15.26
241.581	15.84
241.797	15.16
242.013	14.76
242.229	14.83
242.445	15.09
242.661	14.12
242.877	13.31
243.093	13.54
243.309	12.77
243.525	12.08
243.741	11.03
243.957	10.77
244.173	9.88
244.388	9.38
244.604	9.97
244.82	9.69
245.036	9.35
245.252	9.21
245.468	9.63
245.683	9.57
245.899	9.74
246.115	9.8
246.331	9.71
246.547	9.82
246.762	9.81
246.978	9.72
247.194	9.99
247.409	10.32
247.625	10.52
247.841	11.13
248.057	10.49
248.272	10.33
248.488	10.14
248.703	10.49
248.919	10.52
249.135	10.61
249.35	10.76
249.566	10.74
249.782	11.83
249.997	11.26
250.213	9.91
250.428	9.49
250.644	9.53
250.859	10.1
251.075	10.3
251.29	11.03
251.506	10.48
251.721	10.63
251.937	11.4
252.152	12.04
252.368	13.12
252.583	11.72
252.798	12.16
253.014	13.38
253.229	14
253.445	13.88
253.66	14.5
253.875	14.68
254.091	15.36
254.306	14.82
254.521	15.19
254.737	13.26
254.952	12.4
255.167	11.84
255.383	11.91
255.598	11.83
255.813	11.23
256.028	10.88
256.244	9.96
256.459	9.03
256.674	9.02
256.889	7.83
257.104	8.1
257.32	7.83
257.535	8.07
257.75	7.81
257.965	7.4
258.18	7.48
258.395	7.37
258.61	7.37
258.826	7.48
259.041	7.5
259.256	7.7
259.471	7.59
259.686	8.06
259.901	7.76
260.116	7.47
260.331	7.58
260.546	7.79
260.761	8.22
260.976	8.25
261.191	8.53
261.406	8.45
261.621	8.54
261.836	8.31
262.05	8.51
262.265	8.5
262.48	8.28
262.695	8.78
262.91	9.31
263.125	8.66
263.34	8.58
263.555	7.9
263.769	7.63
263.984	7.71
264.199	7.83
264.414	7.98
264.629	8.65
264.843	9.07
265.058	9.05
265.273	8.59
265.488	8.41
265.702	8.14
265.917	9.05
266.132	9.23
266.346	9.91
266.561	10.32
266.776	9.93
266.99	10.22
267.205	10.15
267.42	9.92
267.634	9.18
267.849	9.7
268.063	10.17
268.278	9.96
268.492	10
268.707	9.61
268.922	9.05
269.136	8.97
269.351	8.86
269.565	8.62
269.78	8.6
269.994	8.38
270.209	8.16
270.423	8.22
270.637	7.76
270.852	7.87
271.066	8.48
271.281	8.58
271.495	8.63
271.709	9.24
271.924	8.94
272.138	8.97
272.353	9.16
272.567	9.25
272.781	9.28
272.996	9.85
273.21	10
273.424	10.21
273.638	10.03
273.853	9.79
274.067	10.04
274.281	9.5
274.495	9.07
274.71	9.03
274.924	8.39
275.138	8.45
275.352	8.36
275.566	8.6
275.781	8.49
275.995	8.82
276.209	8.92
276.423	8.53
276.637	7.92
276.851	7.69
277.065	8.33
277.279	8.51
277.493	8.54
277.707	9.59
277.921	9.43
278.135	8.9
278.349	8.9
278.563	8.69
278.777	8.4
278.991	7.77
279.205	8.05
279.419	8.26
279.633	8.4
279.847	8.29
280.061	8.45
280.275	8.62
280.489	8.26
280.703	8.35
280.917	8.56
281.131	8.43
281.344	8.57
281.558	8.5
281.772	8.57
281.986	8.3
282.2	8.43
282.414	8.4
282.627	8.38
282.841	8.16
283.055	7.83
283.269	7.74
283.482	7.66
283.696	7.65
283.91	7.26
284.123	6.82
284.337	6.68
284.551	7.03
284.764	7.23
284.978	6.96
285.192	6.85
285.405	7.07
285.619	7.22
285.833	7.45
286.046	7.46
286.26	7.4
286.473	7.44
286.687	7.78
286.9	8.3
287.114	8.44
287.327	8.16
287.541	8.07
287.754	8.47
287.968	8.38
288.181	7.83
288.395	7.49
288.608	7.34
288.822	7.31
289.035	7.7
289.248	7.61
289.462	7.42
289.675	7.27
289.889	6.9
290.102	6.93
290.315	7.06
290.529	6.86
290.742	6.81
290.955	7.36
291.169	7.79
291.382	7.92
291.595	8.01
291.808	7.85
292.022	7.78
292.235	8.02
292.448	8.06
292.661	8.74
292.875	8.77
293.088	8.83
293.301	8.6
293.514	8.74
293.727	8.36
293.94	8.21
294.153	8.21
294.367	7.69
294.58	7.42
294.793	7.66
295.006	7.75
295.219	7.68
295.432	7.67
295.645	7.54
295.858	7.21
296.071	7.39
296.284	7.55
296.497	7.56
296.71	7.54
296.923	7.51
297.136	8.02
297.349	8.1
297.562	8
297.775	8.07
297.988	8.35
298.201	8.15
298.414	8.21
298.626	8.32
298.839	8.19
299.052	8.21
299.265	8.2
299.478	8.19
299.691	8.16
299.903	8.06
300.116	8.55
300.329	8.38
300.542	8.07
300.755	7.99
300.967	8.13
301.18	7.98
301.393	8.16
301.605	8.4
301.818	8.39
302.031	8.26
302.243	8.31
302.456	8.22
302.669	8.66
302.881	8.5
303.094	8.58
303.307	8.53
303.519	8.26
303.732	8.29
303.944	8.7
304.157	8.83
304.37	8.83
304.582	8.91
304.795	9.59
305.007	9.26
305.22	9.34
305.432	8.97
305.645	8.83
305.857	9.18
306.069	9.23
306.282	9.14
306.494	9.22
306.707	9.25
306.919	9.06
307.132	9.03
307.344	9.12
307.556	8.9
307.769	8.95
307.981	9.19
308.193	9.06
308.406	9.05
308.618	8.89
308.83	8.72
309.043	8.78
309.255	8.7
309.467	8.77
309.679	8.91
309.892	9.02
310.104	9.06
310.316	8.81
310.528	9.01
310.74	8.94
310.953	9.24
311.165	9.35
311.377	9.47
311.589	9.81
311.801	9.88
312.013	10.06
312.225	9.98
312.437	10.61
312.649	10.43
312.862	10.39
313.074	10.65
313.286	10.54
313.498	10.56
313.71	10.69
313.922	10.56
314.134	10.69
314.346	11.05
314.558	11.5
314.77	11.12
314.982	11.03
315.193	10.73
315.405	10.95
315.617	10.69
315.829	10.58
316.041	10.8
316.253	10.73
316.465	9.87
316.677	10.09
316.888	9.79
317.1	9.57
317.312	9.19
317.524	9.76
317.736	10.36
317.947	10.19
318.159	10.53
318.371	10.91
318.583	10.96
318.794	11.12
319.006	11.1
319.218	11.8
319.43	12.07
319.641	12.35
319.853	12.55
320.064	12.89
320.276	12.68
320.488	12.35
320.699	12.55
320.911	12.57
321.123	12.88
321.334	13.14
321.546	12.7
321.757	12.98
321.969	12.98
322.18	12.91
322.392	13.06
322.603	13.22
322.815	13.35
323.026	12.99
323.238	13.1
323.449	13.02
323.661	13.28
323.872	13.23
324.083	13.15
324.295	13.42
324.506	13.5
324.718	13.55
324.929	13.13
325.14	13.24
325.352	12.92
325.563	12.76
325.774	13.25
325.986	13.09
326.197	13.01
326.408	12.73
326.62	12.47
326.831	12.98
327.042	13.38
327.253	13.76
327.464	13.94
327.676	15.02
327.887	15.04
328.098	15.26
328.309	15.33
328.52	15.39
328.732	15.64
328.943	16.07
329.154	16.44
329.365	16.63
329.576	16.7
329.787	16.56
329.998	16.64
330.209	16.88
330.42	16.47
330.631	16.71
330.842	16.9
331.053	17.04
331.264	17.29
331.475	17.75
331.686	17.75
331.897	17.69
332.108	17.91
332.319	18.1
332.53	17.96
332.741	17.96
332.952	17.69
333.163	17.76
333.374	17.49
333.585	17.74
333.795	17.65
334.006	17.77
334.217	17.52
334.428	17.71
334.639	17.75
334.849	17.67
335.06	17.42
335.271	17.6
335.482	17.2
335.692	17.84
335.903	17.74
336.114	18.12
336.325	18.13
336.535	18.41
336.746	18.39
336.957	18.8
337.167	18.82
337.378	19.29
337.589	19.34
337.799	19.61
338.01	19.7
338.22	19.88
338.431	19.54
338.642	19.71
338.852	19.85
339.063	19.63
339.273	19.56
339.484	19.67
339.694	19.77
339.905	19.6
340.115	19.22
340.326	19.5
340.536	19.09
340.746	19.24
340.957	19.39
341.167	19.33
341.378	19.53
341.588	19.32
341.799	19.34
342.009	19.14
342.219	18.87
342.43	18.48
342.64	18.26
342.85	18.18
343.061	18.16
343.271	18.18
343.481	17.74
343.691	17.47
343.902	17.89
344.112	17.98
344.322	17.88
344.532	17.88
344.743	17.68
344.953	17.57
345.163	17.4
345.373	17.41
345.583	17.42
345.793	17.52
346.004	17.69
346.214	18.28
346.424	18.32
346.634	18.12
346.844	17.78
347.054	17.99
347.264	18.51
347.474	18.69
347.684	18.88
347.894	19.11
348.104	19.27
348.314	19.26
348.524	18.88
348.734	18.78
348.944	18.79
349.154	18.93
349.364	18.71
349.574	18.75
349.784	18.76
349.994	18.08
350.204	18.22
350.413	18.05
350.623	17.93
350.833	17.87
351.043	17.9
351.253	17.59
351.463	17.57
351.672	17.42
351.882	17.51
352.092	17.34
352.302	17.47
352.511	17.12
352.721	17.46
352.931	17.61
353.141	17.78
353.35	17.72
353.56	17.92
353.77	17.69
353.979	17.8
354.189	17.68
354.399	17.45
354.608	17.37
354.818	17.69
355.027	17.42
355.237	17.51
355.447	17.33
355.656	17.07
355.866	17.17
356.075	17.24
356.285	17.2
356.494	17.23
356.704	17.25
356.913	17.4
357.123	17.44
357.332	17.38
357.542	17.23
357.751	17.39
357.96	17.41
358.17	17.3
358.379	17.34
358.589	17.09
358.798	16.99
359.007	16.57
359.217	16.54
359.426	16.77
359.635	16.46
359.845	16.55
360.054	16.48
360.263	16.47
360.472	16.31
360.682	16.14
360.891	16
361.1	16.08
361.309	16.11
361.519	16.07
361.728	16.42
361.937	16.49
362.146	16.31
362.355	16.6
362.564	16.24
362.774	16.02
362.983	15.65
363.192	15.8
363.401	15.88
363.61	16.5
363.819	16.25
364.028	16.18
364.237	16.14
364.446	15.83
364.655	15.71
364.864	15.8
365.073	15.69
365.282	15.86
365.491	16.14
365.7	16.37
365.909	16.07
366.118	16.09
366.327	15.75
366.536	15.94
366.745	15.96
366.954	16.19
367.162	16.24
367.371	16.42
367.58	16.19
367.789	16.05
367.998	16.25
368.207	16.34
368.415	16.42
368.624	16.58
368.833	16.65
369.042	16.53
369.25	16.53
369.459	16.53
369.668	16.17
369.877	16.17
370.085	15.96
370.294	15.96
370.503	16.08
370.711	15.78
370.92	15.77
371.129	15.6
371.337	15.52
371.546	15.39
371.754	15.26
371.963	15.04
372.171	14.98
372.38	15.14
372.589	15.12
372.797	14.99
373.006	14.87
373.214	14.84
373.423	15.05
373.631	14.78
373.84	15.02
374.048	14.93
374.256	14.98
374.465	15.1
374.673	15
374.882	14.94
375.09	14.87
375.298	14.84
375.507	14.99
375.715	14.64
375.923	14.58
376.132	14.47
376.34	14.44
376.548	14.33
376.757	14.29
376.965	14.04
377.173	14
377.381	14.14
377.59	14.17
377.798	14.02
378.006	13.92
378.214	13.84
378.423	14.08
378.631	13.81
378.839	13.72
379.047	13.89
379.255	13.56
379.463	13.36
379.671	13.34
379.879	13.35
380.088	13.33
380.296	13.24
380.504	13.42
380.712	13.3
380.92	13.4
381.128	13.55
381.336	13.64
381.544	13.45
381.752	13.34
381.96	13.46
382.168	13.61
382.376	13.86
382.584	13.68
382.791	13.67
382.999	13.64
383.207	13.61
383.415	13.84
383.623	13.65
383.831	13.66
384.039	13.86
384.247	14.04
384.454	13.83
384.662	13.75
384.87	13.68
385.078	13.3
385.285	13.29
385.493	13.14
385.701	13.15
385.909	12.97
386.116	12.63
386.324	12.62
386.532	12.57
386.739	12.41
386.947	12.53
387.155	12.71
387.362	12.57
387.57	12.76
387.778	12.75
387.985	12.74
388.193	12.8
388.4	13.03
388.608	12.98
388.816	13.09
389.023	13.07
389.231	12.95
389.438	12.83
389.646	12.48
389.853	12.41
390.061	12.44
390.268	12.26
390.475	12.34
390.683	12.27
390.89	12.25
391.098	12.06
391.305	11.97
391.512	11.93
391.72	11.81
391.927	11.69
392.135	11.56
392.342	11.74
392.549	11.59
392.756	11.45
392.964	11.39
393.171	11.24
393.378	11.2
393.586	11.04
393.793	10.91
394	10.93
394.207	10.86
394.414	10.75
394.622	10.78
394.829	10.87
395.036	10.88
395.243	11.02
395.45	11.08
395.657	11
395.864	11.13
396.072	11.1
396.279	11.14
396.486	11.26
396.693	11.1
396.9	11.22
397.107	11.54
397.314	11.51
397.521	11.27
397.728	10.98
397.935	10.95
398.142	11.05
398.349	10.98
398.556	11.02
398.763	10.92
398.97	10.82
399.177	10.62
399.383	10.82
399.59	10.8
399.797	10.62
400.004	10.71
400.211	10.94
400.418	10.97
400.625	10.88
400.831	10.75
401.038	10.85
401.245	10.66
401.452	10.59
401.658	10.69
401.865	10.69
402.072	10.62
402.279	10.5
402.485	10.31
402.692	10.19
402.899	10.17
403.105	10.07
403.312	10.01
403.519	10.03
403.725	10.02
403.932	10.09
404.138	10.09
404.345	10.01
404.552	10.11
404.758	10.01
404.965	9.89
405.171	10.1
405.378	10.17
405.584	10.19
405.791	10.25
405.997	10.4
406.204	10.39
406.41	10.43
406.617	10.33
406.823	10.28
407.029	10.24
407.236	10.05
407.442	10.21
407.649	10.1
407.855	9.92
408.061	9.79
408.268	9.75
408.474	9.71
408.68	9.77
408.887	9.8
409.093	9.68
409.299	9.63
409.505	9.67
409.712	9.59
409.918	9.5
410.124	9.38
410.33	9.53
410.537	9.63
410.743	9.66
410.949	9.57
411.155	9.54
411.361	9.12
411.567	8.92
411.773	8.77
411.98	8.93
412.186	8.95
412.392	8.91
412.598	8.96
412.804	8.92
413.01	8.89
413.216	8.92
413.422	8.89
413.628	8.91
413.834	8.88
414.04	8.89
414.246	8.94
414.452	8.98
414.658	8.83
414.864	8.99
415.07	9.16
415.275	9.17
415.481	9.22
415.687	9.21
415.893	9.08
416.099	9.04
416.305	9.04
416.511	9.04
416.716	9.09
416.922	9.1
417.128	9.16
417.334	9.15
417.539	8.93
417.745	8.88
417.951	8.88
418.157	8.82
418.362	8.81
418.568	8.75
418.774	8.7
418.979	8.57
419.185	8.5
419.391	8.54
419.596	8.49
419.802	8.46
420.008	8.07
420.213	8.09
420.419	7.99
420.624	7.9
420.83	7.9
421.035	7.88
421.241	7.88
421.446	7.89
421.652	7.93
421.857	7.86
422.063	7.75
422.268	7.68
422.474	7.6
422.679	8.03
422.885	7.97
423.09	7.94
423.295	7.95
423.501	7.89
423.706	7.76
423.911	7.76
424.117	7.65
424.322	7.63
424.527	7.7
424.733	7.65
424.938	7.68
425.143	7.69
425.349	7.61
425.554	7.74
425.759	7.74
425.964	7.73
426.169	7.8
426.375	7.91
426.58	7.93
426.785	8.08
426.99	8.12
427.195	8.05
427.4	8.18
427.605	8.28
427.811	8.28
428.016	8.3
428.221	8.08
428.426	8.11
428.631	8.14
428.836	8.13
429.041	8.05
429.246	8.03
429.451	7.96
429.656	7.89
429.861	8.01
430.066	7.91
430.271	7.88
430.476	7.83
430.681	7.76
430.886	7.87
431.09	7.87
431.295	7.8
431.5	7.72
431.705	7.78
431.91	7.74
432.115	7.83
432.32	7.84
432.524	7.82
432.729	7.86
432.934	7.81
433.139	7.81
433.343	7.71
433.548	7.61
433.753	7.74
433.958	7.77
434.162	7.81
434.367	7.87
434.572	7.83
434.776	7.84
434.981	7.75
435.186	7.76
435.39	7.73
435.595	7.69
435.799	7.79
436.004	7.86
436.209	7.91
436.413	7.73
436.618	7.69
436.822	7.62
437.027	7.54
437.231	7.5
437.436	7.36
437.64	7.55
437.845	7.55
438.049	7.6
438.253	7.64
438.458	7.54
438.662	7.6
438.867	7.62
439.071	7.54
439.275	7.65
439.48	7.67
439.684	7.66
439.888	7.78
440.093	7.77
440.297	7.71
440.501	7.71
440.706	7.75
440.91	7.73
441.114	7.77
441.318	7.71
441.523	7.7
441.727	7.87
441.931	7.79
442.135	7.77
442.339	7.84
442.543	7.84
442.748	7.87
442.952	7.84
443.156	7.8
443.36	7.74
443.564	7.72
443.768	7.67
443.972	7.79
444.176	7.79
444.38	7.71
444.584	7.63
444.788	7.63
444.992	7.58
445.196	7.56
445.4	7.48
445.604	7.43
445.808	7.35
446.012	7.22
446.216	7.13
446.42	7.15
446.624	6.98
446.828	6.95
447.032	6.93
447.235	6.97
447.439	6.91
447.643	6.9
447.847	6.83
448.051	6.93
448.254	6.96
448.458	6.91
448.662	7.04
448.866	7.11
449.069	7.05
449.273	7.09
449.477	7.04
449.681	7.12
449.884	7.08
450.088	7.13
450.292	7.1
450.495	7.18
450.699	7.17
450.902	7.14
451.106	7.26
451.31	7.28
451.513	7.34
451.717	7.46
451.92	7.45
452.124	7.45
452.327	7.38
452.531	7.48
452.734	7.49
452.938	7.53
453.141	7.34
453.345	7.3
453.548	7.27
453.752	7.29
453.955	7.18
454.158	7.17
454.362	7.08
454.565	7.14
454.769	7.23
454.972	7.21
455.175	7.12
455.379	7.05
455.582	7.02
455.785	7.16
455.988	7.16
456.192	7.13
456.395	7.05
456.598	7.1
456.801	7.12
457.005	7.12
457.208	7.03
457.411	6.95
457.614	6.94
457.817	6.9
458.021	6.94
458.224	6.88
458.427	6.88
458.63	6.92
458.833	6.92
459.036	6.97
459.239	6.94
459.442	6.95
459.645	6.95
459.848	7.03
460.051	7.11
460.254	7.13
460.457	7.25
460.66	7.34
