Data from 2938547_Reflection_1.txt Node
Date: Mon Jun 15 00:16:46 EDT 2015
User: robert
Spectrometer: USB4E03002
Autoset integration time: false
Trigger mode: 4
Integration Time (sec): 1.000000E-1
Scans to average: 10
Electric dark correction enabled: true
Nonlinearity correction enabled: false
Boxcar width: 5
Stray light correction enabled: false
XAxis mode: Wavelengths
Stop averaging: false
Number of Pixels in Spectrum: 3648
>>>>>Begin Spectral Data<<<<<
177.575	35.62
177.794	32.71
178.014	23.72
178.233	35.92
178.452	39.28
178.672	28.18
178.891	10.72
179.11	8.05
179.33	-130.69
179.549	-0.7
179.768	-21.29
179.987	-46.01
180.207	-62.23
180.426	-240.25
180.645	-129.73
180.864	-229.2
181.084	-271.93
181.303	-1119.46
181.522	1147.17
181.741	-846.99
181.96	4210.42
182.179	267.73
182.398	422.07
182.618	408.02
182.837	-4869.18
183.056	-706.44
183.275	-346.51
183.494	1546.9
183.713	-465.85
183.932	338.19
184.151	246.42
184.37	232.73
184.589	287.88
184.808	313.53
185.027	212.98
185.246	157.34
185.465	144.39
185.684	146.58
185.903	186.88
186.122	183.19
186.341	566.86
186.56	647.12
186.779	-163.33
186.998	-143.02
187.216	-53.99
187.435	-26.76
187.654	-23.6
187.873	-21.98
188.092	-26.9
188.311	11.29
188.53	15.67
188.748	21.87
188.967	15.66
189.186	5.06
189.405	-12.83
189.623	-32.71
189.842	3.02
190.061	-14.04
190.28	-55.57
190.498	-64.55
190.717	-74.16
190.936	-167.98
191.154	-293.14
191.373	-4342.5
191.592	-571.1
191.81	153.8
192.029	161.07
192.248	252.79
192.466	185.35
192.685	178.95
192.904	132.85
193.122	157.57
193.341	240.13
193.559	224.27
193.778	147.19
193.996	93.57
194.215	215.07
194.433	62.43
194.652	33.21
194.87	-33.73
195.089	1307.91
195.307	146.9
195.526	412.44
195.744	1682.71
195.963	60.63
196.181	100.49
196.399	183.63
196.618	133.85
196.836	1008.38
197.055	51.45
197.273	646.68
197.491	211.11
197.71	129.59
197.928	120.1
198.146	148.55
198.365	142.99
198.583	233.92
198.801	-300.39
199.019	381.2
199.238	-5775.86
199.456	31.57
199.674	297.11
199.892	431.33
200.111	187.41
200.329	215.68
200.547	384.65
200.765	809.15
200.983	409.03
201.202	1054.21
201.42	630
201.638	345.98
201.856	-54.98
202.074	-280
202.292	0.14
202.51	17.73
202.728	53.36
202.946	292.71
203.165	149.58
203.383	357.78
203.601	302.73
203.819	323.93
204.037	182.99
204.255	174.57
204.473	195.43
204.691	106.72
204.909	93.72
205.127	97.09
205.345	31.89
205.562	23.86
205.78	-30.32
205.998	-117.66
206.216	-115.47
206.434	-922.83
206.652	67.35
206.87	-151.15
207.088	-290.9
207.306	-24.48
207.523	-38.06
207.741	-144.93
207.959	-179.93
208.177	-3419.77
208.395	-618.46
208.612	-511.35
208.83	1417.75
209.048	450.21
209.266	308.32
209.483	187.99
209.701	152.12
209.919	135.25
210.136	113.89
210.354	122.51
210.572	142.6
210.79	65.26
211.007	82.63
211.225	99.6
211.442	134.34
211.66	151.67
211.878	164.03
212.095	200.92
212.313	126.21
212.53	169.96
212.748	147.8
212.966	113.8
213.183	136.8
213.401	116.1
213.618	91.29
213.836	74.22
214.053	102.77
214.271	144.67
214.488	74.44
214.705	86.49
214.923	97.27
215.14	80.62
215.358	82.2
215.575	98.46
215.793	94.95
216.01	99.27
216.227	121.24
216.445	76.76
216.662	70.64
216.879	93.66
217.097	82.23
217.314	68.16
217.531	87.04
217.749	83.91
217.966	71.92
218.183	55.13
218.4	44.51
218.618	35.58
218.835	40.22
219.052	33.95
219.269	22.57
219.487	12.11
219.704	9.4
219.921	-1.13
220.138	-3.79
220.355	-4.03
220.572	2.26
220.79	26.17
221.007	27.48
221.224	20.82
221.441	25.99
221.658	33.21
221.875	47.08
222.092	45.52
222.309	34.54
222.526	31.19
222.743	23.71
222.96	17
223.177	14.01
223.394	13.62
223.611	12.17
223.828	12.74
224.045	10.41
224.262	5.71
224.479	2.8
224.696	10.08
224.913	12.7
225.13	15.02
225.347	18.73
225.564	17.38
225.781	15.01
225.997	15.34
226.214	14.2
226.431	12.73
226.648	10.72
226.865	10.69
227.082	8.91
227.298	8.85
227.515	9.11
227.732	8.13
227.949	8.49
228.165	9.78
228.382	10.28
228.599	9.05
228.816	9.93
229.032	9.71
229.249	10.15
229.466	10.14
229.682	9.58
229.899	10.04
230.116	10.88
230.332	9.84
230.549	6.45
230.765	5.63
230.982	9.08
231.199	7.35
231.415	11.06
231.632	11.68
231.848	14.95
232.065	15.27
232.281	13.84
232.498	13.61
232.714	13.24
232.931	13.35
233.147	13.46
233.364	11.91
233.58	12.61
233.797	13.43
234.013	14.15
234.23	12.88
234.446	13.92
234.662	15.37
234.879	15.69
235.095	15.14
235.312	17.06
235.528	17.31
235.744	15.95
235.961	15.7
236.177	14.43
236.393	14.02
236.61	14.68
236.826	13.89
237.042	11.8
237.258	12.33
237.475	11.35
237.691	12.08
237.907	9.91
238.123	11.75
238.339	11.36
238.556	10.14
238.772	9.17
238.988	9.63
239.204	8.92
239.42	9.59
239.636	8.75
239.853	9.82
240.069	9.68
240.285	10.35
240.501	10.04
240.717	9.77
240.933	10.56
241.149	10.33
241.365	9.89
241.581	10.12
241.797	9.93
242.013	10.44
242.229	9.97
242.445	9.64
242.661	9.84
242.877	9.68
243.093	10.09
243.309	10.49
243.525	10.49
243.741	9.7
243.957	9.55
244.173	9.16
244.388	9.04
244.604	9.11
244.82	9.47
245.036	8.94
245.252	8.44
245.468	8.34
245.683	7.98
245.899	7.78
246.115	7.71
246.331	7.68
246.547	7.45
246.762	7.23
246.978	6.97
247.194	6.98
247.409	6.95
247.625	7.18
247.841	6.98
248.057	6.76
248.272	7.41
248.488	7.05
248.703	7.41
248.919	8.63
249.135	8.31
249.35	9.41
249.566	8.78
249.782	9.8
249.997	9.09
250.213	8.73
250.428	8.74
250.644	8.56
250.859	9.09
251.075	8.47
251.29	8.28
251.506	7.86
251.721	6.89
251.937	6.39
252.152	5.86
252.368	6.63
252.583	6.76
252.798	6.24
253.014	6.58
253.229	6.65
253.445	6.84
253.66	6.02
253.875	7.65
254.091	8.44
254.306	8.82
254.521	7.67
254.737	8.16
254.952	8.22
255.167	8.61
255.383	7.87
255.598	7.63
255.813	6.93
256.028	7.41
256.244	6.65
256.459	5.87
256.674	5.43
256.889	6.01
257.104	5.79
257.32	6.02
257.535	5.87
257.75	6.06
257.965	5.94
258.18	6.12
258.395	5.9
258.61	5.88
258.826	6.06
259.041	6.41
259.256	6.47
259.471	6.41
259.686	6.42
259.901	6.67
260.116	6.45
260.331	6.88
260.546	7.01
260.761	7.36
260.976	7.64
261.191	7.92
261.406	7.8
261.621	7.3
261.836	7.17
262.05	7.57
262.265	6.94
262.48	7.19
262.695	6.71
262.91	6.64
263.125	6.17
263.34	6.71
263.555	6.41
263.769	6.46
263.984	5.54
264.199	5.44
264.414	5.13
264.629	5.38
264.843	4.55
265.058	4.47
265.273	4.11
265.488	4.22
265.702	3.89
265.917	4.35
266.132	4.04
266.346	4.65
266.561	4.25
266.776	4.21
266.99	4.42
267.205	5.2
267.42	5.16
267.634	5.53
267.849	5.72
268.063	5.7
268.278	5.26
268.492	5.58
268.707	5.57
268.922	6.69
269.136	6.83
269.351	6.73
269.565	6.56
269.78	7
269.994	6.71
270.209	6.55
270.423	6.39
270.637	6.05
270.852	5.85
271.066	5.81
271.281	5.42
271.495	5.34
271.709	5.44
271.924	5.5
272.138	5.14
272.353	5.48
272.567	5.38
272.781	5.64
272.996	5.76
273.21	5.86
273.424	6.13
273.638	5.95
273.853	5.98
274.067	5.57
274.281	5.19
274.495	5.23
274.71	5.37
274.924	5.38
275.138	5.31
275.352	5.61
275.566	5.78
275.781	5.39
275.995	5.78
276.209	5.78
276.423	6.41
276.637	6.88
276.851	7.06
277.065	6.9
277.279	7.14
277.493	7.06
277.707	7.05
277.921	7.25
278.135	8.08
278.349	7.87
278.563	7.17
278.777	7.06
278.991	6.78
279.205	6.47
279.419	6.41
279.633	6.36
279.847	6.22
280.061	6.33
280.275	6.21
280.489	5.8
280.703	5.96
280.917	6.61
281.131	6.34
281.344	6.28
281.558	6.15
281.772	6.03
281.986	5.75
282.2	5.9
282.414	6.24
282.627	6.27
282.841	6.49
283.055	6.34
283.269	5.83
283.482	6.29
283.696	6.02
283.91	6.45
284.123	6.62
284.337	6.79
284.551	6.82
284.764	6.54
284.978	6.23
285.192	5.76
285.405	5.37
285.619	5.6
285.833	4.72
286.046	5.02
286.26	4.66
286.473	4.19
286.687	4.35
286.9	4.22
287.114	4.27
287.327	4.5
287.541	4.99
287.754	5.2
287.968	5.05
288.181	5.83
288.395	5.51
288.608	5.3
288.822	5.62
289.035	5
289.248	4.97
289.462	4.79
289.675	4.77
289.889	4.65
290.102	4.7
290.315	4.69
290.529	4.33
290.742	4.7
290.955	5.12
291.169	4.53
291.382	4.98
291.595	5.13
291.808	5.24
292.022	5.41
292.235	5.08
292.448	5.07
292.661	5.65
292.875	5.94
293.088	5.76
293.301	5.49
293.514	6.19
293.727	6.27
293.94	6.19
294.153	6.04
294.367	5.55
294.58	5.79
294.793	5.37
295.006	5.23
295.219	4.8
295.432	5.05
295.645	5.37
295.858	5.06
296.071	4.97
296.284	4.8
296.497	4.99
296.71	5.12
296.923	5.26
297.136	5.79
297.349	5.6
297.562	5.81
297.775	5.47
297.988	5.56
298.201	5.61
298.414	5.77
298.626	5.71
298.839	5.51
299.052	5.79
299.265	5.73
299.478	5.61
299.691	5.53
299.903	5.62
300.116	6.03
300.329	5.88
300.542	6.14
300.755	6.27
300.967	6.64
301.18	6.42
301.393	6.17
301.605	5.86
301.818	6
302.031	6.57
302.243	6.62
302.456	6.77
302.669	6.53
302.881	6.89
303.094	6.72
303.307	6.42
303.519	6.97
303.732	7.05
303.944	7.49
304.157	7.44
304.37	7.29
304.582	6.81
304.795	6.7
305.007	6.86
305.22	6.16
305.432	6.3
305.645	6.21
305.857	6.32
306.069	6.4
306.282	6.39
306.494	6.42
306.707	6.24
306.919	6.84
307.132	6.3
307.344	6.35
307.556	7.01
307.769	6.81
307.981	6.83
308.193	6.57
308.406	6.59
308.618	6.24
308.83	6.1
309.043	5.86
309.255	5.73
309.467	5.81
309.679	6.14
309.892	5.52
310.104	5.55
310.316	5.87
310.528	5.5
310.74	5.49
310.953	5.67
311.165	5.67
311.377	5.92
311.589	5.96
311.801	6.33
312.013	5.69
312.225	5.74
312.437	5.43
312.649	5.36
312.862	5.86
313.074	6.27
313.286	6.33
313.498	6.43
313.71	5.95
313.922	6.04
314.134	5.75
314.346	5.73
314.558	5.96
314.77	6.52
314.982	6.61
315.193	6.6
315.405	5.94
315.617	5.94
315.829	5.76
316.041	6.27
316.253	5.86
316.465	6.42
316.677	6.42
316.888	6.25
317.1	5.63
317.312	5.42
317.524	5.33
317.736	5.72
317.947	5.66
318.159	5.43
318.371	5.29
318.583	5.49
318.794	5.14
319.006	5.24
319.218	5.47
319.43	6.05
319.641	6.53
319.853	6.73
320.064	6.91
320.276	6.92
320.488	7.53
320.699	7.6
320.911	7.52
321.123	7.74
321.334	7.49
321.546	8.11
321.757	8
321.969	8.03
322.18	7.56
322.392	7.18
322.603	7.25
322.815	7.19
323.026	7.22
323.238	7.25
323.449	7.22
323.661	7.25
323.872	6.63
324.083	6.67
324.295	6.22
324.506	6.59
324.718	6.57
324.929	6.56
325.14	6.31
325.352	6.82
325.563	7.02
325.774	7.01
325.986	6.99
326.197	7.07
326.408	7.21
326.62	7.33
326.831	7.08
327.042	6.85
327.253	6.68
327.464	6.66
327.676	6.17
327.887	5.75
328.098	5.39
328.309	5.35
328.52	5.06
328.732	5.19
328.943	4.92
329.154	5.09
329.365	6.03
329.576	6.13
329.787	6.46
329.998	6.32
330.209	6.59
330.42	7.04
330.631	6.98
330.842	7.25
331.053	7.15
331.264	7.27
331.475	7.32
331.686	7.36
331.897	7.21
332.108	6.78
332.319	6.95
332.53	6.8
332.741	6.68
332.952	6.83
333.163	6.89
333.374	6.68
333.585	6.41
333.795	6.35
334.006	5.91
334.217	6.25
334.428	6.93
334.639	7.01
334.849	6.81
335.06	6.51
335.271	6.77
335.482	6.74
335.692	6.81
335.903	6.6
336.114	6.33
336.325	6.45
336.535	6.62
336.746	6.33
336.957	6.16
337.167	6.65
337.378	6.81
337.589	6.62
337.799	6.32
338.01	6.48
338.22	7.21
338.431	7.33
338.642	6.7
338.852	6.2
339.063	5.99
339.273	5.89
339.484	5.6
339.694	5.61
339.905	5.85
340.115	6.34
340.326	6.08
340.536	5.98
340.746	5.86
340.957	6.4
341.167	6.42
341.378	6.52
341.588	6.64
341.799	6.68
342.009	6.71
342.219	6.79
342.43	6.6
342.64	6.59
342.85	6.47
343.061	6.4
343.271	6.38
343.481	6.18
343.691	6.08
343.902	5.95
344.112	5.94
344.322	5.81
344.532	5.51
344.743	5.58
344.953	5.9
345.163	6.02
345.373	6.13
345.583	5.83
345.793	6.04
346.004	6.07
346.214	6.4
346.424	6.66
346.634	6.83
346.844	6.81
347.054	6.72
347.264	6.33
347.474	6.12
347.684	6.47
347.894	6.97
348.104	6.75
348.314	6.89
348.524	6.77
348.734	6.36
348.944	6.1
349.154	6.4
349.364	6.36
349.574	6.43
349.784	6.49
349.994	6.33
350.204	6.08
350.413	6.26
350.623	5.92
350.833	5.76
351.043	5.79
351.253	6.12
351.463	5.92
351.672	6.01
351.882	6.07
352.092	6.33
352.302	6.18
352.511	5.77
352.721	5.95
352.931	6.11
353.141	6.18
353.35	6.15
353.56	5.91
353.77	5.79
353.979	5.54
354.189	5.42
354.399	5.36
354.608	5.36
354.818	5.75
355.027	5.92
355.237	5.9
355.447	5.86
355.656	5.78
355.866	5.88
356.075	5.68
356.285	5.93
356.494	6.09
356.704	5.76
356.913	5.69
357.123	5.54
357.332	5.21
357.542	5.45
357.751	5.42
357.96	5.76
358.17	5.86
358.379	5.92
358.589	5.84
358.798	5.49
359.007	5.45
359.217	5.51
359.426	5.33
359.635	5.46
359.845	5.41
360.054	5.49
360.263	5.48
360.472	5.4
360.682	5.65
360.891	5.71
361.1	5.78
361.309	5.87
361.519	5.77
361.728	6
361.937	5.93
362.146	5.91
362.355	5.74
362.564	5.46
362.774	5.47
362.983	5.36
363.192	5.18
363.401	5.36
363.61	5.4
363.819	5.55
364.028	5.82
364.237	5.89
364.446	5.67
364.655	5.83
364.864	5.99
365.073	5.98
365.282	5.81
365.491	5.85
365.7	5.7
365.909	5.7
366.118	5.63
366.327	5.43
366.536	5.29
366.745	5.42
366.954	5.43
367.162	5.35
367.371	5.49
367.58	5.48
367.789	5.42
367.998	5.44
368.207	5.45
368.415	5.33
368.624	5.36
368.833	5.16
369.042	5.16
369.25	5.16
369.459	5.19
369.668	5.02
369.877	5.22
370.085	5.2
370.294	5.32
370.503	4.94
370.711	5.01
370.92	4.83
371.129	5.13
371.337	5.01
371.546	4.76
371.754	4.8
371.963	4.55
372.171	4.18
372.38	4.01
372.589	3.79
372.797	4.1
373.006	4.23
373.214	4.44
373.423	4.36
373.631	4.21
373.84	4.45
374.048	4.32
374.256	4.6
374.465	4.6
374.673	4.59
374.882	4.86
375.09	4.76
375.298	4.61
375.507	4.48
375.715	4.49
375.923	4.82
376.132	4.91
376.34	4.92
376.548	4.81
376.757	5.03
376.965	5.27
377.173	5.09
377.381	5.24
377.59	5.3
377.798	5.06
378.006	4.92
378.214	4.78
378.423	4.7
378.631	4.74
378.839	4.57
379.047	4.73
379.255	4.66
379.463	4.45
379.671	4.52
379.879	4.45
380.088	4.45
380.296	4.43
380.504	4.49
380.712	4.61
380.92	4.7
381.128	4.81
381.336	4.56
381.544	4.43
381.752	4.6
381.96	4.52
382.168	4.53
382.376	4.78
382.584	5.09
382.791	4.94
382.999	4.77
383.207	4.73
383.415	4.86
383.623	4.77
383.831	4.76
384.039	4.61
384.247	4.65
384.454	4.71
384.662	4.55
384.87	4.33
385.078	4.4
385.285	4.48
385.493	4.5
385.701	4.48
385.909	4.79
386.116	4.65
386.324	4.78
386.532	4.57
386.739	4.61
386.947	4.66
387.155	4.85
387.362	4.81
387.57	4.46
387.778	4.25
387.985	3.98
388.193	3.8
388.4	3.93
388.608	3.89
388.816	3.92
389.023	3.99
389.231	3.86
389.438	3.61
389.646	3.43
389.853	3.35
390.061	3.48
390.268	3.55
390.475	3.54
390.683	3.59
390.89	3.54
391.098	3.62
391.305	3.52
391.512	3.58
391.72	3.62
391.927	3.71
392.135	4.03
392.342	4.02
392.549	4.14
392.756	4.19
392.964	4.24
393.171	4.15
393.378	4.19
393.586	4.21
393.793	4.17
394	4.22
394.207	4.22
394.414	4.12
394.622	4.02
394.829	4
395.036	3.78
395.243	3.69
395.45	3.75
395.657	3.69
395.864	3.56
396.072	3.58
396.279	3.63
396.486	3.64
396.693	3.45
396.9	3.31
397.107	3.1
397.314	3.16
397.521	3.16
397.728	3.22
397.935	3.2
398.142	3.31
398.349	3.43
398.556	3.38
398.763	3.46
398.97	3.76
399.177	3.79
399.383	3.88
399.59	3.88
399.797	3.78
400.004	3.76
400.211	3.82
400.418	3.71
400.625	3.46
400.831	3.49
401.038	3.5
401.245	3.21
401.452	3.25
401.658	3.25
401.865	3.31
402.072	3.34
402.279	3.39
402.485	3.2
402.692	3.18
402.899	3.17
403.105	2.98
403.312	2.74
403.519	3.02
403.725	3.06
403.932	3.17
404.138	2.93
404.345	2.98
404.552	2.97
404.758	3.03
404.965	3.01
405.171	3.06
405.378	3.07
405.584	3.26
405.791	3.08
405.997	3.05
406.204	2.97
406.41	3.31
406.617	3.3
406.823	3.25
407.029	3.17
407.236	3.07
407.442	3.24
407.649	3.25
407.855	3.18
408.061	3.03
408.268	3.27
408.474	3.23
408.68	3.17
408.887	3.14
409.093	3.04
409.299	3.08
409.505	3.2
409.712	3.1
409.918	3.25
410.124	3.22
410.33	3.33
410.537	3.14
410.743	3.28
410.949	3.14
411.155	3.08
411.361	3.13
411.567	2.97
411.773	3.02
411.98	2.89
412.186	2.86
412.392	2.8
412.598	2.73
412.804	2.82
413.01	2.63
413.216	2.76
413.422	2.75
413.628	2.74
413.834	2.88
414.04	2.84
414.246	2.87
414.452	2.81
414.658	2.93
414.864	3.1
415.07	3.11
415.275	3.06
415.481	3
415.687	2.97
415.893	2.86
416.099	2.86
416.305	2.9
416.511	2.93
416.716	2.84
416.922	2.74
417.128	2.63
417.334	2.5
417.539	2.53
417.745	2.64
417.951	2.72
418.157	2.9
418.362	2.91
418.568	2.84
418.774	2.75
418.979	2.8
419.185	2.76
419.391	2.81
419.596	2.85
419.802	2.87
420.008	2.83
420.213	2.88
420.419	2.75
420.624	2.8
420.83	2.86
421.035	2.93
421.241	2.94
421.446	3.04
421.652	3.08
421.857	3.05
422.063	3.02
422.268	3.01
422.474	2.86
422.679	2.93
422.885	2.85
423.09	2.83
423.295	2.78
423.501	2.78
423.706	2.69
423.911	2.64
424.117	2.64
424.322	2.59
424.527	2.54
424.733	2.53
424.938	2.46
425.143	2.5
425.349	2.47
425.554	2.48
425.759	2.49
425.964	2.58
426.169	2.5
426.375	2.48
426.58	2.53
426.785	2.53
426.99	2.52
427.195	2.64
427.4	2.54
427.605	2.57
427.811	2.64
428.016	2.59
428.221	2.49
428.426	2.45
428.631	2.44
428.836	2.44
429.041	2.51
429.246	2.54
429.451	2.47
429.656	2.47
429.861	2.53
430.066	2.51
430.271	2.45
430.476	2.37
430.681	2.43
430.886	2.42
431.09	2.49
431.295	2.38
431.5	2.49
431.705	2.42
431.91	2.47
432.115	2.3
432.32	2.44
432.524	2.45
432.729	2.58
432.934	2.62
433.139	2.67
433.343	2.58
433.548	2.58
433.753	2.51
433.958	2.53
434.162	2.48
434.367	2.47
434.572	2.38
434.776	2.31
434.981	2.35
435.186	2.21
435.39	2.22
435.595	2.21
435.799	2.25
436.004	2.25
436.209	2.39
436.413	2.31
436.618	2.45
436.822	2.39
437.027	2.41
437.231	2.34
437.436	2.46
437.64	2.36
437.845	2.4
438.049	2.5
438.253	2.48
438.458	2.32
438.662	2.42
438.867	2.5
439.071	2.59
439.275	2.65
439.48	2.6
439.684	2.61
439.888	2.63
440.093	2.55
440.297	2.48
440.501	2.52
440.706	2.64
440.91	2.57
441.114	2.39
441.318	2.34
441.523	2.22
441.727	2.3
441.931	2.3
442.135	2.46
442.339	2.6
442.543	2.54
442.748	2.6
442.952	2.52
443.156	2.56
443.36	2.54
443.564	2.4
443.768	2.46
443.972	2.45
444.176	2.44
444.38	2.3
444.584	2.25
444.788	2.26
444.992	2.19
445.196	2.18
445.4	2.18
445.604	2.25
445.808	2.25
446.012	2.22
446.216	2.19
446.42	2.18
446.624	2.19
446.828	2.2
447.032	2.26
447.235	2.28
447.439	2.27
447.643	2.3
447.847	2.32
448.051	2.35
448.254	2.43
448.458	2.4
448.662	2.38
448.866	2.47
449.069	2.45
449.273	2.43
449.477	2.36
449.681	2.44
449.884	2.35
450.088	2.42
450.292	2.4
450.495	2.42
450.699	2.48
450.902	2.43
451.106	2.37
451.31	2.37
451.513	2.34
451.717	2.33
451.92	2.29
452.124	2.34
452.327	2.27
452.531	2.32
452.734	2.3
452.938	2.25
453.141	2.3
453.345	2.4
453.548	2.43
453.752	2.39
453.955	2.51
454.158	2.49
454.362	2.52
454.565	2.43
454.769	2.41
454.972	2.39
455.175	2.41
455.379	2.41
455.582	2.27
455.785	2.29
455.988	2.44
456.192	2.43
456.395	2.43
456.598	2.35
456.801	2.39
457.005	2.43
457.208	2.44
457.411	2.43
457.614	2.41
457.817	2.46
458.021	2.4
458.224	2.39
458.427	2.34
458.63	2.35
458.833	2.37
459.036	2.36
459.239	2.37
459.442	2.38
459.645	2.38
459.848	2.44
460.051	2.38
460.254	2.41
460.457	2.28
460.66	2.25
460.863	2.3
461.066	2.17
461.269	2.19
461.472	2.1
461.675	2.07
461.878	2.1
462.081	2.05
462.284	2.07
462.486	2.04
462.689	2.12
462.892	2.13
463.095	2.1
463.298	2.29
463.5	2.28
463.703	2.33
463.906	2.4
464.109	2.33
464.311	2.29
464.514	2.26
464.717	2.21
464.92	2.23
465.122	2.2
465.325	2.18
465.528	2.22
465.73	2.24
465.933	2.23
466.135	2.27
466.338	2.3
466.541	2.39
466.743	2.38
466.946	2.47
467.148	2.49
467.351	2.55
467.553	2.48
467.756	2.36
467.958	2.22
468.161	2.19
468.363	2.08
468.566	2.03
468.768	2.03
468.971	2.08
469.173	2
469.375	1.88
469.578	2.01
469.78	2.1
