Data from 2938482_Reflection_3.txt Node
Date: Wed Jun 17 01:08:33 EDT 2015
User: robert
Spectrometer: USB4E03002
Autoset integration time: false
Trigger mode: 4
Integration Time (sec): 1.000000E-1
Scans to average: 10
Electric dark correction enabled: true
Nonlinearity correction enabled: false
Boxcar width: 5
Stray light correction enabled: false
XAxis mode: Wavelengths
Stop averaging: false
Number of Pixels in Spectrum: 3648
>>>>>Begin Spectral Data<<<<<
177.575	-1434.07
177.794	325.14
178.014	-123.94
178.233	116.86
178.452	-912.2
178.672	-1060.34
178.891	286.38
179.11	123.67
179.33	134.27
179.549	202.7
179.768	147.85
179.987	439.8
180.207	57.63
180.426	9.19
180.645	-45.22
180.864	85.65
181.084	88.6
181.303	1804.23
181.522	307.36
181.741	435.96
181.96	338.65
182.179	215.3
182.398	425.01
182.618	-1375.47
182.837	-153.46
183.056	-195.06
183.275	-317.2
183.494	-258.58
183.713	1092.23
183.932	1399.35
184.151	-142.59
184.37	-37.85
184.589	-10.07
184.808	-15.18
185.027	-27.87
185.246	-76.46
185.465	-20.03
185.684	-5.61
185.903	6.77
186.122	35.86
186.341	31.23
186.56	33.37
186.779	43.87
186.998	21.12
187.216	-36.69
187.435	-6.13
187.654	-9.43
187.873	-117.53
188.092	-118.76
188.311	-55.57
188.53	-54.69
188.748	-15.51
188.967	-166.16
189.186	2165
189.405	47.94
189.623	87.94
189.842	136.99
190.061	755.17
190.28	291.97
190.498	201.79
190.717	166.51
190.936	126.1
191.154	96.1
191.373	84.48
191.592	53.08
191.81	60.81
192.029	60.18
192.248	62.61
192.466	58.15
192.685	99.13
192.904	99.14
193.122	87.86
193.341	310.73
193.559	294.09
193.778	261.8
193.996	331.94
194.215	464.65
194.433	-328.65
194.652	-1319.12
194.87	214.27
195.089	50.14
195.307	41.79
195.526	79.4
195.744	67.11
195.963	40.86
196.181	25.63
196.399	-1.3
196.618	-27.39
196.836	-15.39
197.055	-272.35
197.273	-414.45
197.491	731.42
197.71	134.67
197.928	228.72
198.146	194.2
198.365	220.99
198.583	106.42
198.801	118.61
199.019	190.12
199.238	228.09
199.456	-49.02
199.674	39.32
199.892	-118.87
200.111	-61.95
200.329	26.21
200.547	27.69
200.765	50.38
200.983	21.5
201.202	23.2
201.42	2.64
201.638	28.89
201.856	27.9
202.074	25.36
202.292	48.87
202.51	47.81
202.728	26.54
202.946	18.65
203.165	13.21
203.383	27.8
203.601	22.33
203.819	34.78
204.037	13.87
204.255	2.4
204.473	-7.61
204.691	-36.66
204.909	-38.79
205.127	-21.58
205.345	-16.17
205.562	-4.95
205.78	11.92
205.998	19.34
206.216	8.32
206.434	45.87
206.652	45.96
206.87	44.85
207.088	52.69
207.306	18.69
207.523	-8.93
207.741	13.03
207.959	27.71
208.177	-66.82
208.395	-93.93
208.612	96.05
208.83	-550.72
209.048	-3719.05
209.266	653.9
209.483	-19.61
209.701	141.13
209.919	509.01
210.136	-182.34
210.354	-16.72
210.572	68.35
210.79	58.18
211.007	56.74
211.225	60.94
211.442	48.87
211.66	37.74
211.878	20.13
212.095	13.77
212.313	5.07
212.53	12.84
212.748	10.57
212.966	4.12
213.183	-42.65
213.401	-43.2
213.618	-78.27
213.836	-97.53
214.053	-42.38
214.271	-11.32
214.488	3.41
214.705	21.23
214.923	28.14
215.14	8.22
215.358	2.83
215.575	15.95
215.793	6.54
216.01	3.73
216.227	14.18
216.445	10.46
216.662	-10.27
216.879	-5.35
217.097	-36.65
217.314	-24.78
217.531	4.11
217.749	1.18
217.966	10.63
218.183	7.65
218.4	7.26
218.618	7.67
218.835	3.23
219.052	14.33
219.269	5.62
219.487	18.82
219.704	13.81
219.921	-0.52
220.138	8.48
220.355	4.32
220.572	-2.22
220.79	-4.79
221.007	2.66
221.224	-10.22
221.441	-7.56
221.658	-0.23
221.875	-3.16
222.092	-2.51
222.309	5.71
222.526	4.19
222.743	2.59
222.96	11.77
223.177	19.17
223.394	12.85
223.611	19.59
223.828	11.92
224.045	14.22
224.262	16.95
224.479	12.82
224.696	9.19
224.913	3.75
225.13	3.82
225.347	0.97
225.564	-0.5
225.781	-2.28
225.997	0.31
226.214	3.22
226.431	3.48
226.648	0.96
226.865	2.54
227.082	3.26
227.298	5.33
227.515	4.53
227.732	5.06
227.949	4.93
228.165	6.87
228.382	5.89
228.599	5.69
228.816	5.77
229.032	6.41
229.249	6.33
229.466	7.62
229.682	6.21
229.899	6.37
230.116	7.3
230.332	8.88
230.549	7.32
230.765	6.82
230.982	7.69
231.199	5.82
231.415	7.32
231.632	7.43
231.848	6.15
232.065	6.59
232.281	8.63
232.498	8.27
232.714	8.59
232.931	10.57
233.147	9.64
233.364	8.82
233.58	10.22
233.797	11.76
234.013	11.66
234.23	9.68
234.446	11.91
234.662	12.99
234.879	12.77
235.095	11.22
235.312	9
235.528	11.19
235.744	10.79
235.961	8.44
236.177	6.75
236.393	6.48
236.61	8.15
236.826	5.62
237.042	3.2
237.258	2.85
237.475	4.76
237.691	4.8
237.907	4.24
238.123	3.84
238.339	4.87
238.556	5.45
238.772	4.66
238.988	5.5
239.204	6.3
239.42	6.4
239.636	6.96
239.853	5.75
240.069	6.92
240.285	7.75
240.501	8.05
240.717	8.61
240.933	7.83
241.149	8.23
241.365	8.05
241.581	8.21
241.797	8
242.013	7.79
242.229	8.51
242.445	8.58
242.661	7.16
242.877	6.19
243.093	5.64
243.309	7.41
243.525	7.06
243.741	6.83
243.957	6.81
244.173	7.25
244.388	7.61
244.604	6.83
244.82	7.07
245.036	7.74
245.252	8.18
245.468	8.29
245.683	7.68
245.899	7.72
246.115	7.78
246.331	7.55
246.547	7.11
246.762	6.76
246.978	7.32
247.194	6.89
247.409	6.37
247.625	6.31
247.841	6.4
248.057	6.07
248.272	6.24
248.488	6.19
248.703	6
248.919	6.13
249.135	6.38
249.35	5.38
249.566	4.95
249.782	5.14
249.997	4.58
250.213	3.67
250.428	3.6
250.644	3.18
250.859	2.85
251.075	3.61
251.29	3.37
251.506	3.92
251.721	5.23
251.937	5.55
252.152	5.59
252.368	7.28
252.583	7.53
252.798	8.6
253.014	8.52
253.229	9.28
253.445	9
253.66	8.77
253.875	7.57
254.091	5.6
254.306	4.72
254.521	4.77
254.737	2.76
254.952	2.11
255.167	1.24
255.383	1.8
255.598	1.24
255.813	1.08
256.028	1.58
256.244	2.27
256.459	3.52
256.674	3.94
256.889	4.4
257.104	5.36
257.32	5.94
257.535	5.94
257.75	5.84
257.965	5.78
258.18	5.87
258.395	5.77
258.61	5.47
258.826	5.14
259.041	5.24
259.256	5.09
259.471	4.78
259.686	4.58
259.901	4.63
260.116	4.66
260.331	4.84
260.546	4.87
260.761	5.48
260.976	5.79
261.191	5.9
261.406	5.66
261.621	5.62
261.836	5.6
262.05	5.78
262.265	5.99
262.48	6.09
262.695	6.59
262.91	6.51
263.125	5.51
263.34	5.13
263.555	5.03
263.769	5.41
263.984	5.47
264.199	5.08
264.414	4.81
264.629	4.52
264.843	4.29
265.058	3.54
265.273	3.57
265.488	4.12
265.702	4.16
265.917	3.88
266.132	4.1
266.346	4.01
266.561	4.34
266.776	4.31
266.99	4.48
267.205	4.74
267.42	5.42
267.634	5.5
267.849	5.92
268.063	6.5
268.278	6.57
268.492	6.14
268.707	6.41
268.922	6.46
269.136	6.77
269.351	6.35
269.565	6.57
269.78	5.75
269.994	5.58
270.209	5.31
270.423	5.13
270.637	5.04
270.852	4.67
271.066	4.51
271.281	4.37
271.495	4.37
271.709	4.58
271.924	4.08
272.138	4.32
272.353	4.49
272.567	4.43
272.781	4.49
272.996	4.69
273.21	5.27
273.424	4.64
273.638	4.3
273.853	4.12
274.067	4.07
274.281	4.1
274.495	3.8
274.71	4.06
274.924	3.83
275.138	3.75
275.352	3.42
275.566	3.59
275.781	3.99
275.995	4.54
276.209	4.46
276.423	4.51
276.637	4.79
276.851	4.99
277.065	4.65
277.279	4.95
277.493	4.48
277.707	4.5
277.921	3.9
278.135	4.27
278.349	3.84
278.563	4.08
278.777	3.89
278.991	3.98
279.205	3.79
279.419	3.66
279.633	2.96
279.847	3.22
280.061	3.69
280.275	3.82
280.489	3.9
280.703	4.03
280.917	3.78
281.131	4.38
281.344	4.33
281.558	4.5
281.772	4.14
281.986	4.46
282.2	4.2
282.414	4.37
282.627	4.37
282.841	4.24
283.055	4.5
283.269	4.58
283.482	4.1
283.696	3.72
283.91	4
284.123	4.35
284.337	4.91
284.551	5.21
284.764	4.77
284.978	5.12
285.192	4.89
285.405	4.69
285.619	4.6
285.833	4.55
286.046	5.02
286.26	4.77
286.473	4.75
286.687	3.99
286.9	3.73
287.114	3.91
287.327	3.59
287.541	3.62
287.754	3.57
287.968	3.51
288.181	3.64
288.395	3.16
288.608	3.04
288.822	3.25
289.035	3.84
289.248	4.09
289.462	4.26
289.675	4.35
289.889	4.72
290.102	4.74
290.315	5.11
290.529	5.19
290.742	5.35
290.955	5.39
291.169	5.37
291.382	5.02
291.595	5
291.808	5.01
292.022	4.99
292.235	4.8
292.448	4.92
292.661	4.54
292.875	4.15
293.088	3.88
293.301	3.99
293.514	3.93
293.727	4.29
293.94	4.25
294.153	4.25
294.367	4.41
294.58	4.52
294.793	4.61
295.006	4.57
295.219	5.04
295.432	5.58
295.645	5.64
295.858	5.79
296.071	5.73
296.284	5.66
296.497	5.6
296.71	5.37
296.923	5.13
297.136	5.16
297.349	5.36
297.562	4.98
297.775	4.69
297.988	4.65
298.201	4.4
298.414	3.79
298.626	3.75
298.839	3.72
299.052	3.57
299.265	3.78
299.478	3.51
299.691	3.42
299.903	4.09
300.116	3.69
300.329	3.38
300.542	2.98
300.755	3.41
300.967	3.71
301.18	3.23
301.393	3.07
301.605	2.91
301.818	2.9
302.031	2.71
302.243	2.28
302.456	2.76
302.669	2.7
302.881	3.23
303.094	3.04
303.307	3.07
303.519	3.38
303.732	3.74
303.944	3.35
304.157	3.47
304.37	3.05
304.582	3.24
304.795	2.72
305.007	3.01
305.22	2.73
305.432	2.75
305.645	2.24
305.857	2.12
306.069	2.52
306.282	2.87
306.494	3.1
306.707	3.89
306.919	3.4
307.132	3.81
307.344	3.99
307.556	3.85
307.769	4.14
307.981	4.1
308.193	4.17
308.406	4.29
308.618	4.27
308.83	4.11
309.043	3.92
309.255	4.33
309.467	4.14
309.679	3.99
309.892	4.05
310.104	3.91
310.316	4.03
310.528	4.07
310.74	4.07
310.953	4.21
311.165	4.43
311.377	4.36
311.589	3.75
311.801	3.76
312.013	3.82
312.225	4.04
312.437	4.42
312.649	4.71
312.862	4.97
313.074	4.45
313.286	4.32
313.498	4.01
313.71	4.2
313.922	4.93
314.134	5.24
314.346	5.21
314.558	4.75
314.77	4.24
314.982	3.87
315.193	3.44
315.405	3.7
315.617	3.54
315.829	3.63
316.041	3.6
316.253	3.41
316.465	3.15
316.677	3.36
316.888	3.65
317.1	3.99
317.312	4.54
317.524	4.63
317.736	3.86
317.947	4.15
318.159	4.07
318.371	4.44
318.583	4.54
318.794	4.76
319.006	4.96
319.218	4.78
319.43	5.05
319.641	4.65
319.853	4.7
320.064	5.28
320.276	4.97
320.488	5.21
320.699	4.86
320.911	4.75
321.123	4.59
321.334	4.17
321.546	4.19
321.757	3.91
321.969	3.84
322.18	4.07
322.392	3.96
322.603	4.64
322.815	4.86
323.026	5.15
323.238	5.24
323.449	5.5
323.661	5.28
323.872	4.95
324.083	4.74
324.295	4.87
324.506	5.24
324.718	5.52
324.929	5.38
325.14	4.87
325.352	4.64
325.563	4.46
325.774	4.11
325.986	3.99
326.197	4.56
326.408	4.75
326.62	5.05
326.831	4.82
327.042	4.45
327.253	4.11
327.464	4.45
327.676	5
327.887	5.1
328.098	5.2
328.309	5.46
328.52	5.67
328.732	5.94
328.943	5.91
329.154	5.81
329.365	5.97
329.576	6.17
329.787	6.07
329.998	5.4
330.209	5.26
330.42	5.53
330.631	5.41
330.842	5.12
331.053	4.89
331.264	4.68
331.475	4.51
331.686	4.47
331.897	4.57
332.108	4.42
332.319	4.74
332.53	4.63
332.741	4.6
332.952	4.78
333.163	4.79
333.374	4.51
333.585	4.45
333.795	3.95
334.006	3.8
334.217	3.98
334.428	3.96
334.639	3.89
334.849	3.76
335.06	3.82
335.271	4.09
335.482	4.52
335.692	4.72
335.903	4.53
336.114	5
336.325	5.22
336.535	4.92
336.746	5.18
336.957	5.29
337.167	5.57
337.378	5.41
337.589	5.3
337.799	4.93
338.01	5.35
338.22	5.28
338.431	5.41
338.642	5.31
338.852	5.22
339.063	5.24
339.273	5.19
339.484	5.41
339.694	5.18
339.905	4.95
340.115	5.13
340.326	4.45
340.536	4.62
340.746	4.47
340.957	4.08
341.167	4.13
341.378	4.08
341.588	3.62
341.799	3.55
342.009	4.15
342.219	4.36
342.43	3.78
342.64	4.11
342.85	3.7
343.061	3.96
343.271	4.25
343.481	4.11
343.691	4.02
343.902	4.11
344.112	4
344.322	3.51
344.532	3.45
344.743	3.69
344.953	3.37
345.163	3.55
345.373	3.27
345.583	3.12
345.793	3
346.004	2.81
346.214	2.81
346.424	2.91
346.634	2.7
346.844	2.77
347.054	2.7
347.264	2.77
347.474	2.62
347.684	2.51
347.894	3.08
348.104	3.32
348.314	3.26
348.524	3.32
348.734	3.34
348.944	3.65
349.154	3.18
349.364	3.31
349.574	3.44
349.784	3.61
349.994	3.92
350.204	3.8
350.413	3.77
350.623	3.72
350.833	3.57
351.043	3.49
351.253	3.06
351.463	3.39
351.672	3.61
351.882	3.31
352.092	3.9
352.302	4.09
352.511	3.52
352.721	3.34
352.931	3.47
353.141	3.49
353.35	3.57
353.56	4.21
353.77	4.33
353.979	4.25
354.189	4.39
354.399	4
354.608	3.7
354.818	3.96
355.027	3.82
355.237	3.93
355.447	4
355.656	3.84
355.866	3.66
356.075	3.6
356.285	3.59
356.494	3.51
356.704	3.66
356.913	3.78
357.123	3.58
357.332	3.84
357.542	3.83
357.751	3.79
357.96	3.71
358.17	3.78
358.379	3.95
358.589	3.82
358.798	3.86
359.007	3.8
359.217	3.76
359.426	4.17
359.635	4.3
359.845	4.26
360.054	4.33
360.263	4.38
360.472	4.21
360.682	3.88
360.891	3.73
361.1	3.87
361.309	3.8
361.519	3.71
361.728	3.65
361.937	3.52
362.146	3.41
362.355	3.37
362.564	3.49
362.774	3.23
362.983	3.36
363.192	3.42
363.401	3.27
363.61	3.04
363.819	2.82
364.028	2.62
364.237	2.44
364.446	2.57
364.655	2.39
364.864	2.29
365.073	2.6
365.282	2.78
365.491	2.7
365.7	2.56
365.909	2.93
366.118	3.02
366.327	2.98
366.536	2.99
366.745	3.01
366.954	2.89
367.162	2.63
367.371	2.19
367.58	1.73
367.789	1.74
367.998	2.01
368.207	1.76
368.415	1.99
368.624	2.03
368.833	1.95
369.042	1.79
369.25	2.26
369.459	2.6
369.668	2.76
369.877	3.11
370.085	3.2
370.294	3.17
370.503	2.93
370.711	2.95
370.92	3.2
371.129	3.5
371.337	3.74
371.546	3.55
371.754	3.3
371.963	3.45
372.171	3.29
372.38	3.25
372.589	3.19
372.797	3.61
373.006	3.71
373.214	3.31
373.423	3.21
373.631	3.16
373.84	3.28
374.048	3.1
374.256	3.02
374.465	3.02
374.673	3.2
374.882	3.02
375.09	3.07
375.298	2.97
375.507	3.21
375.715	3.29
375.923	3.25
376.132	3.14
376.34	3.38
376.548	3.61
376.757	3.66
376.965	3.41
377.173	3.4
377.381	3.11
377.59	2.83
377.798	2.7
378.006	2.5
378.214	2.44
378.423	2.35
378.631	2.43
378.839	2.31
379.047	2.33
379.255	2.58
379.463	2.4
379.671	2.27
379.879	2.36
380.088	2.56
380.296	2.77
380.504	2.74
380.712	2.75
380.92	2.52
381.128	2.28
381.336	2.3
381.544	2.08
381.752	2.27
381.96	2.44
382.168	2.46
382.376	2.37
382.584	2.23
382.791	2.11
382.999	1.94
383.207	2.21
383.415	2.39
383.623	2.26
383.831	2.33
384.039	2.27
384.247	2.36
384.454	2.37
384.662	2.32
384.87	2.56
385.078	2.77
385.285	2.97
385.493	2.69
385.701	2.67
385.909	2.56
386.116	2.63
386.324	2.71
386.532	2.66
386.739	2.81
386.947	2.71
387.155	2.31
387.362	2.22
387.57	2.25
387.778	2.26
387.985	2.32
388.193	2.66
388.4	2.81
388.608	2.84
388.816	2.81
389.023	2.86
389.231	2.87
389.438	2.97
389.646	2.97
389.853	2.99
390.061	3.08
390.268	3.19
390.475	3.12
390.683	2.94
390.89	2.89
391.098	3.02
391.305	2.79
391.512	2.96
391.72	2.82
391.927	2.7
392.135	2.5
392.342	2.46
392.549	2.31
392.756	2.14
392.964	2.06
393.171	1.96
393.378	2.04
393.586	1.94
393.793	1.77
394	1.9
394.207	1.87
394.414	2.01
394.622	1.97
394.829	1.92
395.036	2.01
395.243	2.05
395.45	2.14
395.657	1.85
395.864	1.77
396.072	1.62
396.279	1.63
396.486	1.72
396.693	1.8
396.9	1.91
397.107	2
397.314	1.96
397.521	2.08
397.728	2.18
397.935	2.37
398.142	2.53
398.349	2.84
398.556	2.99
398.763	3.05
398.97	3.08
399.177	2.93
399.383	3.07
399.59	3.01
399.797	2.89
400.004	2.83
400.211	2.71
400.418	2.75
400.625	2.71
400.831	2.69
401.038	2.68
401.245	2.39
401.452	2.54
401.658	2.4
401.865	2.42
402.072	2.39
402.279	2.54
402.485	2.54
402.692	2.45
402.899	2.4
403.105	2.34
403.312	2.26
403.519	2.47
403.725	2.51
403.932	2.35
404.138	2.47
404.345	2.5
404.552	2.34
404.758	2.25
404.965	2.34
405.171	2.28
405.378	2.29
405.584	2.28
405.791	2.25
405.997	2.01
406.204	2.15
406.41	2.07
406.617	2.31
406.823	2.3
407.029	2.3
407.236	2.31
407.442	2.3
407.649	2.26
407.855	2.38
408.061	2.3
408.268	2.36
408.474	2.22
408.68	2.1
408.887	1.91
409.093	1.9
409.299	2.12
409.505	2.11
409.712	2.11
409.918	2.01
410.124	1.95
410.33	1.99
410.537	1.97
410.743	2.1
410.949	2.09
411.155	2.04
411.361	2.07
411.567	1.88
411.773	1.74
411.98	1.55
412.186	1.66
412.392	1.6
412.598	1.48
412.804	1.55
413.01	1.55
413.216	1.67
413.422	1.62
413.628	1.47
413.834	1.49
414.04	1.48
414.246	1.67
414.452	1.79
414.658	1.83
414.864	1.89
415.07	1.93
415.275	2
415.481	2.06
415.687	2.05
415.893	2.25
416.099	2.26
416.305	2.4
416.511	2.34
416.716	2.2
416.922	2.21
417.128	2.18
417.334	2.17
417.539	2.02
417.745	1.92
417.951	2.04
418.157	2
418.362	2
418.568	1.92
418.774	1.88
418.979	1.89
419.185	1.81
419.391	1.91
419.596	1.84
419.802	1.96
420.008	1.97
420.213	2.52
420.419	2.42
420.624	2.33
420.83	2.4
421.035	2.45
421.241	2.46
421.446	2.54
421.652	2.43
421.857	2.45
422.063	2.38
422.268	2.33
422.474	1.68
422.679	1.71
422.885	1.71
423.09	1.62
423.295	1.65
423.501	1.7
423.706	1.72
423.911	1.8
424.117	1.78
424.322	1.82
424.527	1.9
424.733	2.01
424.938	1.94
425.143	1.97
425.349	2.04
425.554	2.03
425.759	1.88
425.964	1.83
426.169	1.74
426.375	1.88
426.58	1.78
426.785	1.77
426.99	1.74
427.195	1.82
427.4	1.93
427.605	1.96
427.811	2.12
428.016	2.29
428.221	2.27
428.426	2.35
428.631	2.29
428.836	2.38
429.041	2.27
429.246	2.22
429.451	2.28
429.656	2.25
429.861	2.21
430.066	2.13
430.271	2.02
430.476	2
430.681	2.09
430.886	2.06
431.09	2.09
431.295	2.2
431.5	2.27
431.705	2.26
431.91	2.2
432.115	2.23
432.32	2.17
432.524	2.08
432.729	2.14
432.934	1.99
433.139	1.91
433.343	1.83
433.548	1.8
433.753	1.76
433.958	1.75
434.162	1.86
434.367	1.76
434.572	1.68
434.776	1.79
434.981	1.66
435.186	1.64
435.39	1.65
435.595	1.71
435.799	1.78
436.004	1.72
436.209	1.8
436.413	1.74
436.618	1.88
436.822	1.9
437.027	2.01
437.231	2.08
437.436	2.14
437.64	2.14
437.845	2.07
438.049	2.04
438.253	2.15
438.458	2.03
438.662	2.02
438.867	1.99
439.071	2.01
439.275	1.96
439.48	2.02
439.684	1.95
439.888	1.99
440.093	2.06
440.297	1.96
440.501	1.91
440.706	1.98
440.91	2.01
441.114	1.99
441.318	1.98
441.523	1.97
441.727	1.86
441.931	1.94
442.135	1.93
442.339	1.9
442.543	1.91
442.748	1.83
442.952	1.82
443.156	1.83
443.36	1.79
443.564	1.82
443.768	1.79
443.972	1.78
444.176	1.72
444.38	1.74
444.584	1.69
444.788	1.79
444.992	1.74
445.196	1.72
445.4	1.73
445.604	1.73
445.808	1.75
446.012	1.77
446.216	1.82
446.42	1.79
446.624	1.71
446.828	1.75
447.032	1.74
447.235	1.82
447.439	1.84
447.643	1.76
447.847	1.64
448.051	1.56
448.254	1.53
448.458	1.45
448.662	1.57
448.866	1.61
449.069	1.66
449.273	1.69
449.477	1.69
449.681	1.59
449.884	1.63
450.088	1.75
450.292	1.87
450.495	1.88
450.699	1.89
450.902	1.87
451.106	1.92
451.31	1.87
451.513	1.78
451.717	1.79
451.92	1.82
452.124	1.9
452.327	1.97
452.531	1.8
452.734	1.75
452.938	1.79
453.141	1.71
453.345	1.71
453.548	1.71
453.752	1.69
453.955	1.62
454.158	1.65
454.362	1.61
454.565	1.52
454.769	1.63
454.972	1.67
455.175	1.67
455.379	1.76
455.582	1.84
455.785	1.81
455.988	1.81
456.192	1.82
456.395	1.82
456.598	1.76
456.801	1.75
457.005	1.75
457.208	1.79
457.411	1.8
457.614	1.78
457.817	1.77
458.021	1.77
458.224	1.82
458.427	1.77
458.63	1.79
458.833	1.8
459.036	1.89
459.239	1.84
459.442	1.77
459.645	1.75
459.848	1.72
460.051	1.6
460.254	1.62
460.457	1.58
460.66	1.64
460.863	1.6
461.066	1.69
461.269	1.67
461.472	1.68
461.675	1.73
461.878	1.65
462.081	1.69
462.284	1.78
462.486	1.71
462.689	1.61
462.892	1.56
463.095	1.55
463.298	1.46
463.5	1.35
463.703	1.38
463.906	1.33
464.109	1.41
464.311	1.45
464.514	1.47
464.717	1.43
464.92	1.5
465.122	1.45
465.325	1.6
465.528	1.66
465.73	1.61
465.933	1.56
466.135	1.6
466.338	1.61
466.541	1.48
466.743	1.36
466.946	1.42
467.148	1.45
467.351	1.57
467.553	1.49
467.756	1.33
467.958	1.42
468.161	1.55
468.363	1.57
468.566	1.45
468.768	1.58
468.971	1.57
469.173	1.61
469.375	1.71
469.578	1.79
469.78	1.83
469.983	1.96
470.185	1.96
470.387	1.99
470.59	1.96
470.792	1.98
470.994	1.93
471.196	2.08
471.399	2.11
471.601	2.03
471.803	1.93
