Data from 2938517_Reflection_1.txt Node
Date: Tue Jun 16 22:29:03 EDT 2015
User: robert
Spectrometer: USB4E03002
Autoset integration time: false
Trigger mode: 4
Integration Time (sec): 1.000000E-1
Scans to average: 10
Electric dark correction enabled: true
Nonlinearity correction enabled: false
Boxcar width: 5
Stray light correction enabled: false
XAxis mode: Wavelengths
Stop averaging: false
Number of Pixels in Spectrum: 3648
>>>>>Begin Spectral Data<<<<<
177.575	31.48
177.794	17.63
178.014	11.64
178.233	45.91
178.452	107.01
178.672	137.57
178.891	127.31
179.11	-39.55
179.33	203.87
179.549	9.2
179.768	-15.76
179.987	0.29
180.207	-32.04
180.426	-2.04
180.645	-277.44
180.864	-50.12
181.084	39.15
181.303	68.34
181.522	78.16
181.741	98.45
181.96	73.19
182.179	53.9
182.398	81.69
182.618	70.36
182.837	74.2
183.056	50.8
183.275	84.77
183.494	73.57
183.713	53.11
183.932	55.32
184.151	143.38
184.37	533.98
184.589	77.4
184.808	58.82
185.027	132.29
185.246	105.53
185.465	119.43
185.684	71.68
185.903	106.34
186.122	85.8
186.341	81.32
186.56	100.46
186.779	155.93
186.998	263.06
187.216	334.13
187.435	177.82
187.654	194.19
187.873	318.17
188.092	278.44
188.311	202.5
188.53	157.48
188.748	342.04
188.967	662.37
189.186	-27.18
189.405	-4.59
189.623	-36.12
189.842	-57.98
190.061	-82.64
190.28	-88.78
190.498	-47.67
190.717	-45.7
190.936	2.52
191.154	11.65
191.373	-0.5
191.592	-1.98
191.81	-11.9
192.029	20.47
192.248	-14.81
192.466	-37.66
192.685	10.65
192.904	-46.56
193.122	-60.36
193.341	338.91
193.559	228.09
193.778	240.57
193.996	233.32
194.215	622.57
194.433	240.87
194.652	543.36
194.87	-2055.02
195.089	-321.84
195.307	-70.49
195.526	-11.08
195.744	68.51
195.963	110.96
196.181	104.61
196.399	136.65
196.618	159.14
196.836	127.18
197.055	106.96
197.273	146.38
197.491	156.66
197.71	99.36
197.928	135.71
198.146	112.09
198.365	61.3
198.583	5.01
198.801	12.59
199.019	-14.07
199.238	-23.88
199.456	-95.11
199.674	-52.73
199.892	22.42
200.111	70.52
200.329	21.06
200.547	18.64
200.765	20.66
200.983	32.93
201.202	13.8
201.42	25.57
201.638	11.95
201.856	26.98
202.074	31.39
202.292	25.77
202.51	24.42
202.728	46.12
202.946	64.79
203.165	108.94
203.383	106.34
203.601	103.24
203.819	95.97
204.037	115.18
204.255	83.13
204.473	67.77
204.691	48.72
204.909	45.96
205.127	42.83
205.345	28.06
205.562	1.18
205.78	34.67
205.998	20.81
206.216	7.39
206.434	27.85
206.652	24.22
206.87	45.47
207.088	84.8
207.306	89.93
207.523	48.67
207.741	80.21
207.959	78.47
208.177	53.32
208.395	44.93
208.612	48.24
208.83	34.03
209.048	29.45
209.266	33.59
209.483	23.84
209.701	7.82
209.919	28.49
210.136	28.42
210.354	35.44
210.572	36.3
210.79	43.37
211.007	53.99
211.225	43.31
211.442	54.4
211.66	43.02
211.878	41.6
212.095	22.24
212.313	15.6
212.53	16.74
212.748	5.34
212.966	8.38
213.183	13.24
213.401	7.29
213.618	19.04
213.836	19.43
214.053	21.01
214.271	24.34
214.488	66.8
214.705	73
214.923	58.16
215.14	60.46
215.358	44.88
215.575	31.72
215.793	30.14
216.01	26.02
216.227	18.79
216.445	37.03
216.662	38.63
216.879	44.49
217.097	42.53
217.314	45.11
217.531	43.06
217.749	38.14
217.966	52.26
218.183	41.07
218.4	33.97
218.618	33.68
218.835	23.09
219.052	10.47
219.269	0.97
219.487	-2.48
219.704	2.01
219.921	7.7
220.138	14.77
220.355	7.04
220.572	4.69
220.79	15.65
221.007	12.07
221.224	10.26
221.441	18.61
221.658	18.19
221.875	25.25
222.092	19.99
222.309	14.85
222.526	5.5
222.743	5.1
222.96	6.51
223.177	4.74
223.394	11.43
223.611	12.24
223.828	11.54
224.045	12.88
224.262	11.24
224.479	10.89
224.696	12.57
224.913	16.96
225.13	17.58
225.347	19.6
225.564	17.55
225.781	15.2
225.997	16.25
226.214	16.45
226.431	15.56
226.648	15.02
226.865	14.63
227.082	13.23
227.298	12.47
227.515	12.22
227.732	11.95
227.949	12.39
228.165	11.85
228.382	10.49
228.599	10.07
228.816	10.33
229.032	10.64
229.249	10.79
229.466	11.97
229.682	11.65
229.899	11.22
230.116	10.2
230.332	9.8
230.549	8.76
230.765	9.29
230.982	8.31
231.199	8.51
231.415	6.62
231.632	6.86
231.848	6.99
232.065	7.31
232.281	7.73
232.498	8.85
232.714	9.37
232.931	12.31
233.147	13.62
233.364	13.22
233.58	11.87
233.797	12.56
234.013	12.07
234.23	10.88
234.446	13.6
234.662	12.59
234.879	14.37
235.095	15.92
235.312	16
235.528	15.3
235.744	15.82
235.961	15.71
236.177	17.44
236.393	19.34
236.61	20.26
236.826	18.04
237.042	19.04
237.258	17.07
237.475	14.48
237.691	14.38
237.907	13.54
238.123	13.15
238.339	13.32
238.556	12.11
238.772	10.49
238.988	10.71
239.204	11.24
239.42	11.33
239.636	11.55
239.853	11.49
240.069	11.4
240.285	11.41
240.501	11.23
240.717	11.11
240.933	11.01
241.149	11.41
241.365	10.28
241.581	9.5
241.797	8.69
242.013	8.63
242.229	8.69
242.445	8.74
242.661	9.14
242.877	9.64
243.093	9.83
243.309	9.88
243.525	9.88
243.741	10.75
243.957	11.03
244.173	11.82
244.388	11.46
244.604	11.56
244.82	10.62
245.036	10.13
245.252	10.17
245.468	9.88
245.683	9.62
245.899	9.43
246.115	9.15
246.331	8.92
246.547	8.51
246.762	8.28
246.978	8.52
247.194	8.58
247.409	9.01
247.625	8.85
247.841	9.04
248.057	8.92
248.272	9.15
248.488	9.7
248.703	9.52
248.919	10.21
249.135	10.1
249.35	9.24
249.566	9.49
249.782	8.48
249.997	8.38
250.213	8.61
250.428	8.81
250.644	8.55
250.859	8.2
251.075	9.54
251.29	9.01
251.506	9.91
251.721	9.49
251.937	10.41
252.152	10.17
252.368	10.04
252.583	10.12
252.798	10.68
253.014	11.15
253.229	11.68
253.445	10.6
253.66	10.31
253.875	8.66
254.091	9.73
254.306	8.45
254.521	9.39
254.737	9.45
254.952	8.94
255.167	8.19
255.383	7.96
255.598	7.6
255.813	7.5
256.028	6.88
256.244	7.73
256.459	7.46
256.674	7.28
256.889	7.47
257.104	7.38
257.32	7.2
257.535	7.15
257.75	7.06
257.965	7.25
258.18	7.37
258.395	7.74
258.61	7.74
258.826	7.5
259.041	7.77
259.256	7.38
259.471	7.18
259.686	7.37
259.901	7.4
260.116	7.23
260.331	7.08
260.546	6.78
260.761	6.42
260.976	5.97
261.191	5.75
261.406	4.94
261.621	5.22
261.836	5.05
262.05	4.97
262.265	4.88
262.48	4.49
262.695	4.56
262.91	4.06
263.125	4.64
263.34	5.13
263.555	5.69
263.769	6.42
263.984	6.66
264.199	7.7
264.414	7.49
264.629	7.99
264.843	8.41
265.058	8.78
265.273	8.78
265.488	8.99
265.702	9.06
265.917	9.04
266.132	8.7
266.346	8.71
266.561	7.87
266.776	8.16
266.99	7.82
267.205	8.51
267.42	7.84
267.634	8.28
267.849	7.66
268.063	7.56
268.278	7.15
268.492	7.17
268.707	7.27
268.922	7.13
269.136	7.32
269.351	7.73
269.565	7.26
269.78	7.5
269.994	7.2
270.209	6.82
270.423	6.48
270.637	7.12
270.852	6.97
271.066	6.54
271.281	6.7
271.495	6.56
271.709	6.4
271.924	6.42
272.138	6.41
272.353	6.77
272.567	7.19
272.781	7.46
272.996	6.55
273.21	6.58
273.424	6.97
273.638	7.15
273.853	6.36
274.067	6.32
274.281	6.11
274.495	6.03
274.71	5.52
274.924	5.67
275.138	5.52
275.352	5.87
275.566	6.22
275.781	5.56
275.995	5.9
276.209	6.37
276.423	6.45
276.637	6.42
276.851	6.34
277.065	6.37
277.279	6.38
277.493	6.14
277.707	5.96
277.921	6.11
278.135	7.05
278.349	6.65
278.563	6.64
278.777	6.32
278.991	6.75
279.205	6.83
279.419	6.89
279.633	6.83
279.847	7.33
280.061	7.14
280.275	6.82
280.489	6.41
280.703	6.21
280.917	6.36
281.131	6.66
281.344	6.2
281.558	6.31
281.772	6.33
281.986	5.84
282.2	5.98
282.414	6.31
282.627	6.49
282.841	6.45
283.055	6.43
283.269	6.23
283.482	6.35
283.696	6.41
283.91	6.04
284.123	6.07
284.337	6.45
284.551	6.25
284.764	6.06
284.978	6.03
285.192	6
285.405	6.3
285.619	6.36
285.833	6.28
286.046	6.39
286.26	6.51
286.473	6.87
286.687	7.51
286.9	7.38
287.114	7.77
287.327	7.76
287.541	8.04
287.754	8
287.968	8.17
288.181	8.08
288.395	8.4
288.608	8.3
288.822	8.23
289.035	7.7
289.248	8.11
289.462	8.14
289.675	7.83
289.889	7.64
290.102	7.59
290.315	7.7
290.529	7.68
290.742	7.51
290.955	8.3
291.169	8.67
291.382	8.69
291.595	8.23
291.808	8.66
292.022	9.2
292.235	9.28
292.448	9.43
292.661	9.38
292.875	9.15
293.088	8.81
293.301	8.66
293.514	8.44
293.727	8.72
293.94	8.99
294.153	8.79
294.367	8.95
294.58	8.85
294.793	9.03
295.006	9.23
295.219	9.57
295.432	9.6
295.645	9.37
295.858	9.48
296.071	9.21
296.284	9.25
296.497	9.26
296.71	9.4
296.923	9.76
297.136	10
297.349	10.15
297.562	10.09
297.775	10.48
297.988	10.8
298.201	11.04
298.414	11.43
298.626	11.52
298.839	11.82
299.052	11.38
299.265	11.23
299.478	10.68
299.691	10.6
299.903	10.74
300.116	10.9
300.329	10.53
300.542	10.53
300.755	10.84
300.967	10.82
301.18	10.6
301.393	10.89
301.605	11.25
301.818	11.82
302.031	11.67
302.243	11.99
302.456	11.6
302.669	12.38
302.881	12.17
303.094	11.93
303.307	12.16
303.519	12.54
303.732	12.87
303.944	12.86
304.157	12.87
304.37	12.71
304.582	12.44
304.795	12.49
305.007	12.09
305.22	12.56
305.432	12.81
305.645	12.52
305.857	12.44
306.069	12.03
306.282	11.94
306.494	11.36
306.707	11.43
306.919	11.45
307.132	11.57
307.344	11.34
307.556	11.06
307.769	10.7
307.981	10.8
308.193	10.61
308.406	10.54
308.618	10.59
308.83	11.18
309.043	11.34
309.255	11.33
309.467	11.34
309.679	11.68
309.892	11.62
310.104	11.58
310.316	11.47
310.528	11.46
310.74	11.63
310.953	11.91
311.165	11.65
311.377	11.73
311.589	12.05
311.801	12.13
312.013	12.15
312.225	12.25
312.437	12.39
312.649	12.63
312.862	12.56
313.074	12.82
313.286	12.1
313.498	12.23
313.71	12.44
313.922	12.44
314.134	11.84
314.346	11.91
314.558	12
314.77	11.84
314.982	12.12
315.193	12.23
315.405	12.4
315.617	13.18
315.829	12.93
316.041	12.45
316.253	12.23
316.465	12.82
316.677	12.64
316.888	12.58
317.1	13.02
317.312	12.81
317.524	12.93
317.736	12.42
317.947	12.33
318.159	12.42
318.371	12.53
318.583	12.36
318.794	12.44
319.006	12.15
319.218	11.94
319.43	12.02
319.641	11.57
319.853	11.82
320.064	12.19
320.276	11.91
320.488	11.42
320.699	11.36
320.911	11.76
321.123	11.65
321.334	12.34
321.546	12.65
321.757	12.04
321.969	12.63
322.18	11.94
322.392	11.74
322.603	11.94
322.815	12.18
323.026	12.02
323.238	11.43
323.449	11.77
323.661	11.26
323.872	11.57
324.083	12.07
324.295	12
324.506	12.85
324.718	13
324.929	12.47
325.14	12.75
325.352	12.8
325.563	12.91
325.774	12.8
325.986	12.88
326.197	12.51
326.408	12.33
326.62	12.2
326.831	11.65
327.042	11.35
327.253	11.81
327.464	11.58
327.676	11.88
327.887	11.98
328.098	11.77
328.309	11.9
328.52	11.72
328.732	11.67
328.943	11.64
329.154	11.77
329.365	11.44
329.576	11.5
329.787	11.94
329.998	11.43
330.209	12.02
330.42	12.3
330.631	12.19
330.842	12.24
331.053	12.51
331.264	12.05
331.475	12.24
331.686	12.58
331.897	12.82
332.108	12.59
332.319	13.2
332.53	12.92
332.741	13.1
332.952	13.1
333.163	13.12
333.374	12.91
333.585	13.22
333.795	12.9
334.006	13.17
334.217	12.59
334.428	12.88
334.639	12.64
334.849	12.75
335.06	12.53
335.271	12.28
335.482	12.45
335.692	12.35
335.903	12.51
336.114	12.71
336.325	12.51
336.535	12.7
336.746	12.37
336.957	12.72
337.167	12.52
337.378	13.04
337.589	12.96
337.799	12.99
338.01	13.34
338.22	13.27
338.431	13.01
338.642	13
338.852	13.19
339.063	13.47
339.273	13.38
339.484	13.44
339.694	12.58
339.905	13.06
340.115	13.11
340.326	12.8
340.536	12.63
340.746	12.81
340.957	12.42
341.167	12.08
341.378	11.64
341.588	11.15
341.799	10.91
342.009	11.3
342.219	10.95
342.43	10.49
342.64	10.47
342.85	10.5
343.061	10.68
343.271	11
343.481	11.01
343.691	11.19
343.902	11.43
344.112	11.7
344.322	11.48
344.532	11.33
344.743	11.73
344.953	11.5
345.163	11.86
345.373	11.08
345.583	11.06
345.793	11.01
346.004	10.94
346.214	10.65
346.424	10.33
346.634	10.49
346.844	10.51
347.054	10.4
347.264	10.83
347.474	10.55
347.684	11.21
347.894	10.99
348.104	10.78
348.314	10.46
348.524	10.81
348.734	10.76
348.944	10.71
349.154	10.75
349.364	10.49
349.574	10.6
349.784	10.4
349.994	10.49
350.204	10.8
350.413	10.88
350.623	10.95
350.833	10.55
351.043	10.57
351.253	10.69
351.463	10.66
351.672	10.61
351.882	10.36
352.092	10.75
352.302	10.61
352.511	10.78
352.721	11.05
352.931	11.22
353.141	11.27
353.35	11.4
353.56	11.25
353.77	11.49
353.979	11.52
354.189	11.55
354.399	11.18
354.608	11.07
354.818	10.99
355.027	11.04
355.237	10.86
355.447	10.8
355.656	10.62
355.866	10.62
356.075	10.67
356.285	10.83
356.494	10.85
356.704	10.53
356.913	10.54
357.123	10.11
357.332	9.89
357.542	10.07
357.751	10.04
357.96	10.32
358.17	9.78
358.379	9.75
358.589	9.52
358.798	9.32
359.007	9.43
359.217	9.33
359.426	9.32
359.635	9.3
359.845	9.22
360.054	9.49
360.263	9.22
360.472	9.53
360.682	9.43
360.891	9.51
361.1	9.66
361.309	9.72
361.519	9.53
361.728	9.76
361.937	9.87
362.146	9.57
362.355	9.37
362.564	9.51
362.774	9.5
362.983	9.73
363.192	9.65
363.401	9.45
363.61	9.52
363.819	9.84
364.028	9.65
364.237	9.52
364.446	9.88
364.655	10.03
364.864	9.76
365.073	9.7
365.282	9.21
365.491	9.2
365.7	9.42
365.909	9.36
366.118	9.3
366.327	9.55
366.536	9.59
366.745	9.49
366.954	9.22
367.162	9.3
367.371	9.42
367.58	9.66
367.789	9.69
367.998	9.5
368.207	9.4
368.415	9.28
368.624	9.2
368.833	9.19
369.042	9.42
369.25	9.34
369.459	9.5
369.668	9.29
369.877	9.23
370.085	9.19
370.294	9.2
370.503	9.33
370.711	9.36
370.92	9.3
371.129	9.06
371.337	8.8
371.546	8.83
371.754	8.64
371.963	8.89
372.171	8.96
372.38	8.88
372.589	9.02
372.797	8.65
373.006	8.59
373.214	8.33
373.423	8.28
373.631	8.4
373.84	8.6
374.048	8.65
374.256	8.48
374.465	8.5
374.673	8.52
374.882	8.31
375.09	8.58
375.298	8.57
375.507	8.76
375.715	8.97
375.923	8.96
376.132	8.84
376.34	8.67
376.548	8.47
376.757	8.3
376.965	8.19
377.173	8.33
377.381	8.23
377.59	8.06
377.798	8.03
378.006	7.9
378.214	7.93
378.423	8.08
378.631	8.09
378.839	8.2
379.047	8.04
379.255	8.03
379.463	7.88
379.671	8.06
379.879	8.04
380.088	8.09
380.296	8.05
380.504	7.9
380.712	7.8
380.92	8.08
381.128	8.13
381.336	8.3
381.544	8.35
381.752	8.47
381.96	8.16
382.168	8.21
382.376	8.09
382.584	8.02
382.791	8.07
382.999	8.01
383.207	8
383.415	7.7
383.623	7.54
383.831	7.63
384.039	7.47
384.247	7.64
384.454	7.81
384.662	7.76
384.87	7.71
385.078	7.66
385.285	7.66
385.493	7.22
385.701	7.49
385.909	7.48
386.116	7.43
386.324	7.6
386.532	7.57
386.739	7.52
386.947	7.75
387.155	7.88
387.362	7.78
387.57	7.82
387.778	8.12
387.985	8.23
388.193	8.44
388.4	8.35
388.608	8.35
388.816	8.44
389.023	8.55
389.231	8.28
389.438	8.34
389.646	8.42
389.853	8.14
390.061	8.08
390.268	8.09
390.475	8.07
390.683	8.05
390.89	7.96
391.098	8.06
391.305	8.17
391.512	8.24
391.72	8.11
391.927	8.14
392.135	8.31
392.342	8.29
392.549	8.22
392.756	8.22
392.964	8.38
393.171	8.33
393.378	8.3
393.586	8.08
393.793	8.1
394	8.25
394.207	8.3
394.414	8.26
394.622	8.09
394.829	8
395.036	7.78
395.243	7.72
395.45	7.69
395.657	7.42
395.864	7.28
396.072	7.35
396.279	7.29
396.486	7.12
396.693	7.3
396.9	7.57
397.107	7.59
397.314	7.59
397.521	7.62
397.728	7.71
397.935	7.82
398.142	7.93
398.349	8.03
398.556	8.04
398.763	8.22
398.97	8.01
399.177	7.99
399.383	7.97
399.59	8.11
399.797	7.96
400.004	7.76
400.211	7.73
400.418	7.74
400.625	7.56
400.831	7.57
401.038	7.33
401.245	7.32
401.452	7.36
401.658	7.4
401.865	7.44
402.072	7.45
402.279	7.49
402.485	7.56
402.692	7.57
402.899	7.6
403.105	7.52
403.312	7.59
403.519	7.69
403.725	7.45
403.932	7.53
404.138	7.48
404.345	7.43
404.552	7.6
404.758	7.52
404.965	7.39
405.171	7.28
405.378	7.42
405.584	7.43
405.791	7.26
405.997	7.47
406.204	7.35
406.41	7.47
406.617	7.5
406.823	7.61
407.029	7.79
407.236	7.95
407.442	7.86
407.649	7.86
407.855	7.91
408.061	7.87
408.268	7.88
408.474	7.85
408.68	7.79
408.887	7.75
409.093	7.59
409.299	7.54
409.505	7.44
409.712	7.48
409.918	7.22
410.124	7.25
410.33	7.34
410.537	7.1
410.743	7.1
410.949	7.02
411.155	7.15
411.361	7.05
411.567	7.02
411.773	7
411.98	7.08
412.186	7.15
412.392	7.13
412.598	7.22
412.804	7.35
413.01	7.44
413.216	7.41
413.422	7.35
413.628	7.38
413.834	7.42
414.04	7.4
414.246	7.48
414.452	7.49
414.658	7.33
414.864	7.37
415.07	7.35
415.275	7.27
415.481	7.35
415.687	7.34
415.893	7.39
416.099	7.47
416.305	7.6
416.511	7.54
416.716	7.51
416.922	7.64
417.128	7.61
417.334	7.64
417.539	7.72
417.745	7.68
417.951	7.58
418.157	7.52
418.362	7.35
418.568	7.24
418.774	7.2
418.979	7.2
419.185	7.24
419.391	7.21
419.596	7.11
419.802	7.11
420.008	7.11
420.213	7.52
420.419	7.49
420.624	7.54
420.83	7.6
421.035	7.59
421.241	7.61
421.446	7.44
421.652	7.43
421.857	7.45
422.063	7.35
422.268	7.33
422.474	6.94
422.679	6.95
422.885	6.98
423.09	7
423.295	6.99
423.501	7
423.706	7.11
423.911	7.08
424.117	7.18
424.322	7.23
424.527	7.27
424.733	7.26
424.938	7.3
425.143	7.29
425.349	7.25
425.554	7.26
425.759	7.24
425.964	7.25
426.169	7.32
426.375	7.2
426.58	7.15
426.785	7.18
426.99	7.23
427.195	7.19
427.4	7.24
427.605	7.21
427.811	7.3
428.016	7.44
428.221	7.37
428.426	7.36
428.631	7.35
428.836	7.47
429.041	7.38
429.246	7.47
429.451	7.44
429.656	7.29
429.861	7.24
430.066	7.14
430.271	7.01
430.476	7.05
430.681	6.99
430.886	7.07
431.09	7.06
431.295	7.07
431.5	7.04
431.705	7.03
431.91	7.09
432.115	7.14
432.32	7.2
432.524	7.18
432.729	7.27
432.934	7.3
433.139	7.28
433.343	7.31
433.548	7.28
433.753	7.19
433.958	7.31
434.162	7.26
434.367	7.2
434.572	7.13
434.776	7.15
434.981	6.97
435.186	7.03
435.39	7
435.595	6.87
435.799	6.82
436.004	6.9
436.209	6.87
436.413	6.97
436.618	7.05
436.822	7.1
437.027	7.11
437.231	7.18
437.436	7.13
437.64	7.22
437.845	7.29
438.049	7.51
438.253	7.45
438.458	7.41
438.662	7.31
438.867	7.26
439.071	7.29
439.275	7.36
439.48	7.41
439.684	7.46
439.888	7.37
440.093	7.31
440.297	7.21
440.501	7.19
440.706	7.2
440.91	7.27
441.114	7.32
441.318	7.3
441.523	7.27
441.727	7.2
441.931	7.17
442.135	7.18
442.339	7.21
442.543	7.12
442.748	7.23
442.952	7.25
443.156	7.24
443.36	7.25
443.564	7.23
443.768	7.19
443.972	7.18
444.176	7.17
444.38	7.14
444.584	7.07
444.788	7.04
444.992	6.9
445.196	6.88
445.4	6.8
445.604	6.78
445.808	6.83
446.012	6.84
446.216	6.8
446.42	6.75
446.624	6.79
446.828	6.85
447.032	6.94
447.235	6.96
447.439	7.01
447.643	7.11
447.847	7.08
448.051	7.04
448.254	6.97
448.458	6.98
448.662	6.94
448.866	6.95
449.069	6.93
449.273	6.86
449.477	6.98
449.681	6.82
449.884	6.81
450.088	6.78
450.292	6.83
450.495	6.84
450.699	6.82
450.902	6.85
451.106	6.77
451.31	6.67
451.513	6.72
451.717	6.58
451.92	6.62
452.124	6.63
452.327	6.61
452.531	6.53
452.734	6.46
452.938	6.49
453.141	6.63
453.345	6.68
453.548	6.79
453.752	6.77
453.955	6.88
454.158	6.89
454.362	6.84
454.565	6.87
454.769	6.9
454.972	6.88
455.175	6.92
455.379	6.8
455.582	6.83
455.785	6.82
455.988	6.83
456.192	6.76
456.395	6.79
456.598	6.83
456.801	6.83
457.005	6.71
457.208	6.75
457.411	6.66
457.614	6.61
457.817	6.58
458.021	6.55
458.224	6.55
458.427	6.53
458.63	6.47
458.833	6.46
459.036	6.41
459.239	6.52
459.442	6.56
459.645	6.61
459.848	6.54
460.051	6.54
460.254	6.55
460.457	6.47
460.66	6.44
460.863	6.52
461.066	6.41
461.269	6.46
461.472	6.34
461.675	6.28
461.878	6.26
462.081	6.37
462.284	6.35
462.486	6.27
462.689	6.34
462.892	6.42
463.095	6.38
463.298	6.5
463.5	6.46
463.703	6.64
463.906	6.7
464.109	6.73
464.311	6.79
464.514	6.73
464.717	6.84
464.92	6.96
465.122	6.96
465.325	7
465.528	6.98
465.73	7
465.933	6.96
466.135	6.95
466.338	6.88
466.541	6.86
466.743	6.96
466.946	7.01
467.148	6.93
467.351	6.91
467.553	6.95
