Data from 2938458_Reflection_1.txt Node
Date: Fri Jun 19 17:39:25 EDT 2015
User: robert
Spectrometer: USB4E03002
Autoset integration time: false
Trigger mode: 4
Integration Time (sec): 1.000000E-1
Scans to average: 10
Electric dark correction enabled: true
Nonlinearity correction enabled: false
Boxcar width: 5
Stray light correction enabled: false
XAxis mode: Wavelengths
Stop averaging: false
Number of Pixels in Spectrum: 3648
>>>>>Begin Spectral Data<<<<<
177.575	312.3
177.794	-823.96
178.014	255.17
178.233	89.84
178.452	213.53
178.672	153.75
178.891	63.21
179.11	40.89
179.33	-10.81
179.549	-163.93
179.768	-44.77
179.987	188.16
180.207	538.33
180.426	526.52
180.645	-18.2
180.864	325.97
181.084	-1691.94
181.303	-154.1
181.522	-86.72
181.741	-18.7
181.96	-26.26
182.179	-42.4
182.398	-43.78
182.618	-35.26
182.837	39.63
183.056	61.82
183.275	84.18
183.494	67.52
183.713	94.81
183.932	223.49
184.151	713.82
184.37	236.24
184.589	127.28
184.808	116.54
185.027	68.84
185.246	38.79
185.465	41.84
185.684	68.51
185.903	35.62
186.122	74.41
186.341	111.52
186.56	142.73
186.779	85.76
186.998	94.29
187.216	74.51
187.435	44.78
187.654	96.33
187.873	228.61
188.092	-2328.26
188.311	-318.53
188.53	99.81
188.748	7.14
188.967	20.07
189.186	33.81
189.405	137.5
189.623	433.11
189.842	28.01
190.061	50.58
190.28	-7.83
190.498	7.02
190.717	4.89
190.936	1.09
191.154	15.66
191.373	7.04
191.592	17.59
191.81	22.23
192.029	32.12
192.248	30.29
192.466	34.92
192.685	41
192.904	58.79
193.122	54.94
193.341	47.38
193.559	39.5
193.778	44.65
193.996	22.4
194.215	-1.26
194.433	-5.37
194.652	-4.1
194.87	-30.83
195.089	-15.47
195.307	-30.22
195.526	-25.56
195.744	-2.33
195.963	-6.03
196.181	-8.31
196.399	36.92
196.618	61.27
196.836	68
197.055	69.48
197.273	74.07
197.491	78.26
197.71	106.47
197.928	115.56
198.146	96.75
198.365	84.52
198.583	88.26
198.801	57.59
199.019	65.26
199.238	41.02
199.456	22.55
199.674	17.83
199.892	-0.44
200.111	-10.47
200.329	-12.17
200.547	-26.47
200.765	-30.8
200.983	-73.87
201.202	-60.11
201.42	-98.38
201.638	-212.29
201.856	-428.5
202.074	-397.75
202.292	-1200.19
202.51	-459.65
202.728	-830.94
202.946	-586.26
203.165	-355.53
203.383	-161.26
203.601	-147.03
203.819	-105.58
204.037	-113.95
204.255	-38.48
204.473	-11.73
204.691	-13.34
204.909	-3.37
205.127	5.87
205.345	18.88
205.562	-53.81
205.78	0.7
205.998	-34.36
206.216	-35
206.434	-26.38
206.652	-130.64
206.87	-43.34
207.088	-87.53
207.306	1465.36
207.523	-568.73
207.741	-24.08
207.959	-164.19
208.177	-2686.29
208.395	838.57
208.612	173.43
208.83	-83.22
209.048	-2.62
209.266	5.03
209.483	17.36
209.701	2.89
209.919	-14.54
210.136	-31.52
210.354	17.65
210.572	19.43
210.79	0.74
211.007	-1.23
211.225	-7.46
211.442	23.95
211.66	25.85
211.878	41.71
212.095	231.43
212.313	196.97
212.53	228.02
212.748	226.11
212.966	226
213.183	848.67
213.401	957.2
213.618	5367.15
213.836	-2375.58
214.053	-751.81
214.271	1612.89
214.488	-44.95
214.705	-71.13
214.923	-67.55
215.14	-30.18
215.358	12.24
215.575	33.54
215.793	32.22
216.01	46.08
216.227	41.43
216.445	62.22
216.662	32.92
216.879	68.6
217.097	78.11
217.314	51.88
217.531	35.76
217.749	13.55
217.966	43.14
218.183	25.94
218.4	-4.37
218.618	4.51
218.835	-10.09
219.052	1.59
219.269	-19.25
219.487	-19.62
219.704	-22.22
219.921	-31.41
220.138	-45.19
220.355	-62.54
220.572	-38.55
220.79	-25.05
221.007	-32.98
221.224	-23.94
221.441	-39.29
221.658	-39.86
221.875	-37.41
222.092	-10.61
222.309	-12.18
222.526	10.92
222.743	17.05
222.96	0.63
223.177	-2.6
223.394	10.71
223.611	13.55
223.828	20.94
224.045	17.53
224.262	25.12
224.479	24.5
224.696	28.44
224.913	19.92
225.13	20.24
225.347	25.07
225.564	26.13
225.781	22.86
225.997	23.68
226.214	21.67
226.431	21.23
226.648	17.87
226.865	15.48
227.082	16.23
227.298	15.11
227.515	14.05
227.732	11.64
227.949	9.27
228.165	9.89
228.382	7.33
228.599	8.43
228.816	9.06
229.032	9.45
229.249	11.13
229.466	8.68
229.682	7.85
229.899	9.35
230.116	8.61
230.332	10.15
230.549	8.56
230.765	14.13
230.982	12.17
231.199	13.51
231.415	14.48
231.632	12.25
231.848	13.6
232.065	16.05
232.281	13.67
232.498	18.94
232.714	17.89
232.931	18.14
233.147	11.83
233.364	11.89
233.58	10
233.797	9.83
234.013	7.78
234.23	7.35
234.446	10.78
234.662	10.09
234.879	8.88
235.095	10.96
235.312	10.28
235.528	11.01
235.744	13.54
235.961	15.07
236.177	15.01
236.393	15.01
236.61	13.82
236.826	12.24
237.042	13.46
237.258	12.33
237.475	12.64
237.691	10.72
237.907	9.8
238.123	6.48
238.339	8
238.556	8.58
238.772	10.62
238.988	11.82
239.204	11.2
239.42	11.24
239.636	11.25
239.853	10.64
240.069	11.76
240.285	13.78
240.501	14.84
240.717	12.94
240.933	13.29
241.149	12.91
241.365	14.41
241.581	15.02
241.797	14.56
242.013	14.77
242.229	14.97
242.445	14.89
242.661	13.98
242.877	13.81
243.093	14.52
243.309	12.95
243.525	13.06
243.741	12.32
243.957	12.68
244.173	12.76
244.388	12.72
244.604	12.81
244.82	13.21
245.036	13.27
245.252	13.42
245.468	13.68
245.683	14.41
245.899	14.07
246.115	13.71
246.331	12.99
246.547	12.87
246.762	13.02
246.978	13.06
247.194	12.84
247.409	12.95
247.625	13.26
247.841	12.7
248.057	11.61
248.272	11.63
248.488	10.36
248.703	10.25
248.919	9.38
249.135	7.94
249.35	7.99
249.566	8.4
249.782	8.91
249.997	8.81
250.213	9.12
250.428	9.8
250.644	9.81
250.859	10.83
251.075	10.34
251.29	11.47
251.506	12.63
251.721	12.24
251.937	11.27
252.152	10.96
252.368	10.57
252.583	9.71
252.798	9.3
253.014	7.94
253.229	8.4
253.445	8.93
253.66	8.53
253.875	6.38
254.091	6.02
254.306	5.09
254.521	2.67
254.737	1.29
254.952	1.99
255.167	2.02
255.383	3.95
255.598	3.69
255.813	4.01
256.028	3.79
256.244	5.25
256.459	5.04
256.674	5.56
256.889	7.49
257.104	7.62
257.32	8.54
257.535	8.5
257.75	8.86
257.965	8.85
258.18	8.94
258.395	9.27
258.61	9.44
258.826	9.83
259.041	9.89
259.256	9.36
259.471	9.72
259.686	9.57
259.901	9.62
260.116	9.15
260.331	8.48
260.546	8.99
260.761	8.14
260.976	8.1
261.191	7.41
261.406	7.88
261.621	8.74
261.836	8.62
262.05	7.26
262.265	5.91
262.48	6.15
262.695	7.46
262.91	5.93
263.125	6.84
263.34	5.48
263.555	6.08
263.769	6.92
263.984	6.09
264.199	6.31
264.414	7.96
264.629	9.29
264.843	9.46
265.058	9.15
265.273	9.69
265.488	10.12
265.702	10.49
265.917	10.32
266.132	9.8
266.346	10.65
266.561	10.47
266.776	10.21
266.99	10.19
267.205	9.35
267.42	9.42
267.634	9.46
267.849	8.11
268.063	8.74
268.278	7.99
268.492	7.43
268.707	6.85
268.922	6.59
269.136	6.49
269.351	5.87
269.565	6.54
269.78	6.06
269.994	5.24
270.209	6.07
270.423	6.1
270.637	6.62
270.852	6.54
271.066	6.82
271.281	7.28
271.495	6.88
271.709	7.84
271.924	7.89
272.138	8.09
272.353	8.24
272.567	8.04
272.781	8.21
272.996	8.81
273.21	9.18
273.424	9.15
273.638	9
273.853	9.44
274.067	9.3
274.281	9.68
274.495	9.53
274.71	10.22
274.924	10.25
275.138	9.3
275.352	8.74
275.566	8.73
275.781	7.75
275.995	7.34
276.209	7.09
276.423	6.8
276.637	6.65
276.851	6.57
277.065	6.73
277.279	7.08
277.493	7.69
277.707	7.74
277.921	7.47
278.135	8.45
278.349	8.85
278.563	9.42
278.777	9.81
278.991	8.62
279.205	9.21
279.419	8.89
279.633	9.16
279.847	8.69
280.061	9.21
280.275	9.18
280.489	8.36
280.703	8.21
280.917	7.93
281.131	7.16
281.344	8.32
281.558	8.31
281.772	8.02
281.986	8.13
282.2	8.48
282.414	9.01
282.627	8.73
282.841	9
283.055	8.65
283.269	8.54
283.482	8.67
283.696	8.37
283.91	8.59
284.123	8.74
284.337	8.32
284.551	8.06
284.764	6.97
284.978	7.31
285.192	7.37
285.405	8.04
285.619	7.89
285.833	8.49
286.046	8.33
286.26	8.26
286.473	8.76
286.687	9
286.9	9.51
287.114	10.16
287.327	10.08
287.541	10.27
287.754	9.83
287.968	10.23
288.181	9.67
288.395	9.87
288.608	10.3
288.822	9.96
289.035	10.47
289.248	10.07
289.462	10.57
289.675	11.07
289.889	10.81
290.102	11.31
290.315	11.96
290.529	12.15
290.742	12.67
290.955	12.05
291.169	12.14
291.382	12.1
291.595	12.56
291.808	12.08
292.022	12.93
292.235	13.53
292.448	13.67
292.661	13.14
292.875	13.56
293.088	12.96
293.301	13.87
293.514	14.73
293.727	14.14
293.94	14.15
294.153	14.53
294.367	13.79
294.58	13.46
294.793	13.43
295.006	14.24
295.219	14.7
295.432	14.73
295.645	14.59
295.858	14.79
296.071	15.37
296.284	15.51
296.497	15.86
296.71	16.27
296.923	16.65
297.136	16.84
297.349	16.45
297.562	16.34
297.775	16.95
297.988	16.78
298.201	17.05
298.414	17.26
298.626	17.52
298.839	17.08
299.052	15.97
299.265	17
299.478	17.33
299.691	17.61
299.903	17.52
300.116	17.69
300.329	18.21
300.542	17.95
300.755	17.06
300.967	16.89
301.18	17.22
301.393	18.26
301.605	18.03
301.818	17.83
302.031	18.01
302.243	17.4
302.456	17.43
302.669	17.84
302.881	17.85
303.094	18.99
303.307	18.66
303.519	17.96
303.732	18.16
303.944	17.89
304.157	17.31
304.37	16.77
304.582	17.59
304.795	17.4
305.007	16.24
305.22	15.44
305.432	14.21
305.645	15.02
305.857	16.24
306.069	16.91
306.282	16.92
306.494	17.38
306.707	17.68
306.919	17.69
307.132	17.84
307.344	18.4
307.556	18.39
307.769	18.72
307.981	18.26
308.193	18.37
308.406	17.59
308.618	17.87
308.83	17.7
309.043	17.72
309.255	17.65
309.467	17.76
309.679	17.76
309.892	18.12
310.104	18.86
310.316	19.14
310.528	18.69
310.74	19.06
310.953	19.23
311.165	19.75
311.377	19.4
311.589	19.83
311.801	20.42
312.013	20.64
312.225	20.6
312.437	20.42
312.649	20.12
312.862	20.42
313.074	20.63
313.286	19.96
313.498	19.01
313.71	18.99
313.922	18.82
314.134	18.04
314.346	17.69
314.558	17.61
314.77	17.43
314.982	18.23
315.193	18.56
315.405	17.94
315.617	18.65
315.829	20.13
316.041	21.34
316.253	21.14
316.465	21.44
316.677	21.74
316.888	22.17
317.1	21.65
317.312	21.59
317.524	20.74
317.736	21.39
317.947	20.28
318.159	19.6
318.371	18.74
318.583	19.32
318.794	18.59
319.006	18.97
319.218	18.41
319.43	18.59
319.641	18.04
319.853	18.39
320.064	18.75
320.276	19.47
320.488	19.84
320.699	20.71
320.911	20.09
321.123	20.36
321.334	19.12
321.546	19.11
321.757	19.42
321.969	19.82
322.18	19.82
322.392	19.08
322.603	19.17
322.815	18.67
323.026	18.48
323.238	18.09
323.449	17.93
323.661	18.6
323.872	19.6
324.083	19.86
324.295	19.5
324.506	19.95
324.718	19.72
324.929	19.85
325.14	20.22
325.352	19.62
325.563	19.81
325.774	19.74
325.986	20.07
326.197	19.05
326.408	18.72
326.62	19.12
326.831	17.85
327.042	18.28
327.253	17.69
327.464	17.95
327.676	18.46
327.887	18.73
328.098	19.7
328.309	18.72
328.52	19.03
328.732	19.2
328.943	18.58
329.154	19.06
329.365	19.29
329.576	19.48
329.787	19.05
329.998	19.06
330.209	19.58
330.42	18.93
330.631	19.56
330.842	19.93
331.053	19.61
331.264	19.63
331.475	20.5
331.686	20.37
331.897	21.23
332.108	21.78
332.319	21.51
332.53	21.55
332.741	21.78
332.952	22.09
333.163	21.53
333.374	21.33
333.585	22.21
333.795	21.53
334.006	21.43
334.217	20.78
334.428	20.4
334.639	20.5
334.849	20.67
335.06	20.53
335.271	20.04
335.482	20.05
335.692	20.46
335.903	20.32
336.114	20.53
336.325	20.68
336.535	20.56
336.746	20.22
336.957	20.79
337.167	20.4
337.378	20.8
337.589	21.16
337.799	21.52
338.01	21.06
338.22	21.07
338.431	20.92
338.642	20.58
338.852	20.53
339.063	20.55
339.273	19.97
339.484	19.52
339.694	19.59
339.905	19.8
340.115	19.34
340.326	19.25
340.536	18.88
340.746	18.69
340.957	18.81
341.167	19.12
341.378	19.32
341.588	19.52
341.799	20.22
342.009	19.34
342.219	18.98
342.43	18.89
342.64	19.42
342.85	19.43
343.061	19.81
343.271	19.64
343.481	19.37
343.691	19.66
343.902	19.21
344.112	18.81
344.322	18.71
344.532	18.82
344.743	19.34
344.953	18.54
345.163	18.8
345.373	18.49
345.583	18.36
345.793	18.23
346.004	18.32
346.214	18.66
346.424	19.02
346.634	19.36
346.844	19.22
347.054	18.83
347.264	19.63
347.474	19.31
347.684	19.37
347.894	20.46
348.104	20.7
348.314	20.19
348.524	19.59
348.734	19.53
348.944	19.92
349.154	19.97
349.364	19.94
349.574	19.74
349.784	20.02
349.994	20.2
350.204	18.87
350.413	18.63
350.623	19.06
350.833	19.57
351.043	19.47
351.253	19.28
351.463	19.4
351.672	19.41
351.882	19.66
352.092	18.95
352.302	18.98
352.511	19.63
352.721	19.81
352.931	19
353.141	18.56
353.35	18.25
353.56	17.97
353.77	18.07
353.979	18.2
354.189	18.03
354.399	18.39
354.608	18.1
354.818	17.75
355.027	17.6
355.237	17.16
355.447	17.13
355.656	16.73
355.866	17.4
356.075	17.78
356.285	17.79
356.494	17.99
356.704	17.81
356.913	17.75
357.123	18.07
357.332	18.06
357.542	18.26
357.751	18.46
357.96	18.61
358.17	17.97
358.379	16.98
358.589	16.83
358.798	16.63
359.007	16.61
359.217	16.62
359.426	16.11
359.635	15.9
359.845	16.34
360.054	16.23
360.263	16.5
360.472	16.7
360.682	17.09
360.891	16.99
361.1	16.88
361.309	17.03
361.519	17.2
361.728	17.09
361.937	16.89
362.146	16.57
362.355	16.55
362.564	16.68
362.774	16.39
362.983	16.08
363.192	16.45
363.401	16.37
363.61	16.43
363.819	15.91
364.028	15.89
364.237	16.18
364.446	16.4
364.655	16.3
364.864	16.1
365.073	16.08
365.282	16.05
365.491	15.75
365.7	15.87
365.909	15.63
366.118	15.39
366.327	15.76
366.536	15.72
366.745	16.04
366.954	15.68
367.162	15.09
367.371	15.31
367.58	15.35
367.789	15.72
367.998	15.5
368.207	15.21
368.415	15.37
368.624	15.15
368.833	15.37
369.042	14.57
369.25	15.09
369.459	15.69
369.668	15.37
369.877	15.33
370.085	14.61
370.294	14.41
370.503	14.25
370.711	14.26
370.92	14.06
371.129	13.94
371.337	13.91
371.546	13.6
371.754	12.92
371.963	12.87
372.171	12.9
372.38	13.43
372.589	13.28
372.797	13.87
373.006	13.86
373.214	14.21
373.423	13.96
373.631	14.12
373.84	13.91
374.048	14.15
374.256	14.22
374.465	14.13
374.673	13.93
374.882	13.81
375.09	13.59
375.298	13.62
375.507	13.69
375.715	13.9
375.923	13.86
376.132	14.04
376.34	13.64
376.548	13.3
376.757	13.22
376.965	13.18
377.173	13.25
377.381	12.74
377.59	12.53
377.798	12.33
378.006	12.19
378.214	12.23
378.423	12.03
378.631	12.32
378.839	12.17
379.047	11.99
379.255	11.66
379.463	11.44
379.671	11.73
379.879	11.67
380.088	11.2
380.296	11.08
380.504	10.92
380.712	10.89
380.92	10.61
381.128	10.73
381.336	10.72
381.544	10.63
381.752	10.77
381.96	10.43
382.168	10.38
382.376	10.62
382.584	10.34
382.791	10.15
382.999	10.18
383.207	9.86
383.415	9.6
383.623	9.46
383.831	9.4
384.039	9.45
384.247	9.53
384.454	9.69
384.662	9.61
384.87	9.36
385.078	9.52
385.285	9.31
385.493	9.75
385.701	9.56
385.909	9.55
386.116	9.46
386.324	9.11
386.532	9.09
386.739	8.9
386.947	9.01
387.155	9.12
387.362	9.01
387.57	8.88
387.778	8.52
387.985	8.69
388.193	8.54
388.4	8.47
388.608	8.86
388.816	8.79
389.023	8.75
389.231	8.57
389.438	8.59
389.646	8.56
389.853	8.69
390.061	8.7
390.268	8.65
390.475	8.61
390.683	8.73
390.89	8.26
391.098	8.21
391.305	8.18
391.512	8.17
391.72	8.11
391.927	7.83
392.135	7.75
392.342	7.79
392.549	7.67
392.756	7.56
392.964	7.51
393.171	7.7
393.378	7.61
393.586	7.21
393.793	6.91
394	6.86
394.207	6.92
394.414	6.81
394.622	6.59
394.829	6.85
395.036	6.96
395.243	6.65
395.45	6.45
395.657	6.55
395.864	6.87
396.072	6.99
396.279	6.97
396.486	7.19
396.693	7.11
396.9	7.21
397.107	7.03
397.314	6.97
397.521	7.1
397.728	7.04
397.935	6.93
398.142	7.02
398.349	6.72
398.556	6.62
398.763	6.41
398.97	6.34
399.177	6.41
399.383	6.25
399.59	6.23
399.797	6.21
400.004	6.25
400.211	6.47
400.418	6.35
400.625	6.55
400.831	6.51
401.038	6.53
401.245	6.81
401.452	6.48
401.658	6.54
401.865	6.5
402.072	6.64
402.279	6.64
402.485	6.33
402.692	6.21
402.899	6.26
403.105	6.31
403.312	6.17
403.519	5.87
403.725	6.09
403.932	6.12
404.138	6.11
404.345	5.96
404.552	5.96
404.758	5.97
404.965	6.07
405.171	5.99
405.378	6.11
405.584	6.14
405.791	6.35
405.997	6.45
406.204	6.47
406.41	6.59
406.617	6.64
406.823	6.52
407.029	6.43
407.236	6.28
407.442	6.43
407.649	6.29
407.855	6.39
408.061	6.46
408.268	6.37
408.474	6.33
408.68	6.27
408.887	6.31
409.093	6.49
409.299	6.61
409.505	6.76
409.712	6.72
409.918	6.73
410.124	6.72
410.33	6.6
410.537	6.32
410.743	6.3
410.949	6.14
411.155	6.13
411.361	6.07
411.567	5.83
411.773	5.7
411.98	5.51
412.186	5.64
412.392	5.69
412.598	5.68
412.804	5.9
413.01	5.72
413.216	5.76
413.422	5.69
413.628	5.67
413.834	5.85
414.04	5.98
414.246	6.1
414.452	5.97
414.658	5.88
414.864	5.84
415.07	5.72
415.275	5.91
415.481	5.93
415.687	5.86
415.893	5.9
416.099	5.87
416.305	5.77
416.511	5.7
416.716	5.72
416.922	5.71
417.128	5.56
417.334	5.65
417.539	5.65
417.745	5.63
417.951	5.64
418.157	5.57
418.362	5.62
418.568	5.64
418.774	5.6
418.979	5.59
419.185	5.58
419.391	5.71
419.596	5.67
419.802	5.55
420.008	5.54
420.213	5.07
420.419	4.97
420.624	4.93
420.83	4.89
421.035	4.87
421.241	4.84
421.446	4.76
421.652	4.74
421.857	4.72
422.063	4.81
422.268	4.84
422.474	5.35
422.679	5.43
422.885	5.4
423.09	5.43
423.295	5.51
423.501	5.55
423.706	5.62
423.911	5.57
424.117	5.59
424.322	5.6
424.527	5.53
424.733	5.47
424.938	5.43
425.143	5.51
425.349	5.46
425.554	5.51
425.759	5.42
425.964	5.33
426.169	5.2
426.375	5.15
426.58	5.08
426.785	5.22
426.99	5.24
427.195	5.36
427.4	5.28
427.605	5.23
427.811	5.09
428.016	5.18
428.221	5.18
428.426	5.29
428.631	5.33
428.836	5.35
429.041	5.33
429.246	5.35
429.451	5.19
429.656	5.15
429.861	5.22
430.066	5.17
430.271	5.17
430.476	5.29
430.681	5.24
430.886	5.16
431.09	5.1
431.295	5.18
431.5	5.1
431.705	5.21
431.91	5.23
432.115	5.2
432.32	5.29
432.524	5.23
432.729	5.16
432.934	5.19
433.139	5.12
433.343	5.1
433.548	4.96
433.753	5.09
433.958	5.11
434.162	5.12
434.367	5.07
434.572	5
434.776	4.98
434.981	4.97
435.186	5.02
435.39	5.21
435.595	5.28
435.799	5.3
436.004	5.36
436.209	5.35
436.413	5.41
436.618	5.55
436.822	5.57
437.027	5.56
437.231	5.61
437.436	5.66
437.64	5.6
437.845	5.63
438.049	5.61
438.253	5.5
438.458	5.44
438.662	5.34
438.867	5.3
439.071	5.35
439.275	5.38
439.48	5.35
439.684	5.22
439.888	5.17
440.093	5.04
440.297	4.98
440.501	4.99
440.706	4.93
440.91	4.95
441.114	4.87
441.318	4.84
441.523	4.84
441.727	4.75
441.931	4.83
442.135	4.99
442.339	5.03
442.543	5.15
442.748	5.11
442.952	5.12
443.156	5.15
443.36	5.19
443.564	5.13
443.768	5.07
443.972	5.15
444.176	5.16
444.38	5.14
444.584	5.09
444.788	5.02
444.992	5.02
445.196	5.12
445.4	5.03
445.604	5.04
445.808	5.07
446.012	5.13
446.216	5.11
446.42	5.13
446.624	5.09
446.828	5.18
447.032	5.18
447.235	5.12
447.439	5
447.643	5.05
447.847	4.98
448.051	5
448.254	4.89
448.458	4.95
448.662	4.95
448.866	4.84
449.069	4.78
449.273	4.83
449.477	4.89
449.681	4.89
449.884	4.9
450.088	5
450.292	4.85
450.495	4.84
450.699	4.7
450.902	4.69
451.106	4.72
451.31	4.76
451.513	4.71
451.717	4.68
451.92	4.81
452.124	4.92
452.327	4.99
452.531	5.16
452.734	5.24
452.938	5.25
453.141	5.18
453.345	5.18
453.548	5.06
453.752	5.1
453.955	5.07
454.158	4.98
454.362	4.8
454.565	4.62
454.769	4.55
454.972	4.56
455.175	4.57
455.379	4.55
455.582	4.57
455.785	4.63
455.988	4.77
456.192	4.75
456.395	4.85
456.598	4.86
456.801	4.94
457.005	5.02
457.208	5.02
457.411	4.98
457.614	4.98
457.817	5.05
458.021	5.1
458.224	4.95
458.427	4.96
458.63	4.88
458.833	4.9
459.036	4.84
459.239	4.8
459.442	4.74
459.645	4.78
459.848	4.79
460.051	4.69
460.254	4.6
460.457	4.61
460.66	4.68
460.863	4.66
461.066	4.76
461.269	4.76
461.472	4.74
461.675	4.97
461.878	5.04
462.081	5.02
462.284	5.03
462.486	5.22
462.689	5.2
462.892	5.09
463.095	5.1
