Data from 2938472_Reflection_2.txt Node
Date: Wed Jun 17 13:29:22 EDT 2015
User: robert
Spectrometer: USB4E03002
Autoset integration time: false
Trigger mode: 4
Integration Time (sec): 1.000000E-1
Scans to average: 10
Electric dark correction enabled: true
Nonlinearity correction enabled: false
Boxcar width: 5
Stray light correction enabled: false
XAxis mode: Wavelengths
Stop averaging: false
Number of Pixels in Spectrum: 3648
>>>>>Begin Spectral Data<<<<<
177.575	39.48
177.794	37.78
178.014	19.07
178.233	19.5
178.452	34.01
178.672	29.54
178.891	9.3
179.11	77.18
179.33	69.86
179.549	61
179.768	48.24
179.987	42.42
180.207	40.62
180.426	38.87
180.645	20.21
180.864	25.8
181.084	31.64
181.303	68.37
181.522	-52.53
181.741	27.58
181.96	6.8
182.179	-9.49
182.398	-16.21
182.618	-25.42
182.837	-54.71
183.056	-110.99
183.275	-179.52
183.494	-127.77
183.713	-178.53
183.932	-101.1
184.151	-153.11
184.37	-180.23
184.589	-143
184.808	-52.67
185.027	-70.95
185.246	-77.7
185.465	-70.37
185.684	-57.26
185.903	-114.85
186.122	-39.05
186.341	-614.06
186.56	-439.38
186.779	41.11
186.998	-454.84
187.216	123.51
187.435	349
187.654	-2617.44
187.873	144.86
188.092	42.93
188.311	162.58
188.53	86.36
188.748	13.95
188.967	-385.93
189.186	233.29
189.405	12419.35
189.623	-313.36
189.842	-93.46
190.061	-43.47
190.28	-90.4
190.498	228.37
190.717	1647.93
190.936	-1745.96
191.154	-959.38
191.373	-404.32
191.592	-257.46
191.81	-279.23
192.029	-466.92
192.248	-673.76
192.466	842.92
192.685	1498.78
192.904	-113.18
193.122	-230.83
193.341	-270
193.559	-273.61
193.778	-188.77
193.996	-195.71
194.215	-1206.91
194.433	-203.23
194.652	-242.71
194.87	-48.25
195.089	-99.38
195.307	-1194.07
195.526	-346.86
195.744	-370.72
195.963	-186.47
196.181	-111.79
196.399	-58.14
196.618	0.72
196.836	-15.81
197.055	35.71
197.273	-30.47
197.491	49.11
197.71	58.94
197.928	-55.85
198.146	-87.92
198.365	-29.43
198.583	-2591.2
198.801	143.5
199.019	261.14
199.238	307.8
199.456	236.52
199.674	351.45
199.892	1139.43
200.111	689.01
200.329	-271.11
200.547	-2602.74
200.765	401.91
200.983	239.04
201.202	-148.09
201.42	-237.89
201.638	-145.35
201.856	-52.12
202.074	-43.47
202.292	-219.33
202.51	-127.05
202.728	-71.01
202.946	-74.74
203.165	-14.7
203.383	-5.37
203.601	-19.66
203.819	-44.55
204.037	-95.41
204.255	-242.82
204.473	-4739.86
204.691	-197.16
204.909	-592.39
205.127	-580.61
205.345	-957.56
205.562	-294.75
205.78	-480.29
205.998	1094.64
206.216	1135.88
206.434	1177.68
206.652	-250.41
206.87	-190.31
207.088	-299.58
207.306	-186.22
207.523	-80.15
207.741	-66.05
207.959	-87.53
208.177	-34.08
208.395	-21.38
208.612	-30.98
208.83	20.67
209.048	15.08
209.266	43.57
209.483	43.75
209.701	23.5
209.919	8.47
210.136	34
210.354	1.8
210.572	-26.51
210.79	-43.46
211.007	-53.93
211.225	-73.9
211.442	-95.85
211.66	-92.86
211.878	-108.05
212.095	-124.45
212.313	-97.1
212.53	-93.3
212.748	-80.47
212.966	-60.86
213.183	-76.64
213.401	-82.86
213.618	-82.59
213.836	-85.07
214.053	-128.53
214.271	-197.01
214.488	-148.7
214.705	-138.95
214.923	-246.84
215.14	-213.35
215.358	-197.07
215.575	-208.53
215.793	-670.46
216.01	-197.48
216.227	-99.54
216.445	-52.95
216.662	-30.31
216.879	-37.39
217.097	-34.44
217.314	-22
217.531	-4.32
217.749	-7.35
217.966	-3.9
218.183	20.77
218.4	-1.21
218.618	-5.33
218.835	0.91
219.052	5.91
219.269	7.06
219.487	-12.14
219.704	-18.34
219.921	-37.47
220.138	-30.82
220.355	-21.92
220.572	-26.41
220.79	-9.63
221.007	-10.89
221.224	-17.22
221.441	-23.18
221.658	-23.2
221.875	-19.77
222.092	-10.56
222.309	-15.58
222.526	-26.41
222.743	-31.38
222.96	-18.4
223.177	-17.67
223.394	-18.24
223.611	-19.15
223.828	-10.85
224.045	-10.06
224.262	-6.39
224.479	-6.45
224.696	-2.86
224.913	-0.19
225.13	0.02
225.347	-1.71
225.564	1.3
225.781	3.99
225.997	3.61
226.214	5.01
226.431	7.58
226.648	7.79
226.865	8.31
227.082	9.17
227.298	10.19
227.515	11.44
227.732	11.83
227.949	10.7
228.165	9.46
228.382	12.01
228.599	12.03
228.816	11.45
229.032	10.64
229.249	10.84
229.466	10.05
229.682	9.41
229.899	7.33
230.116	6.65
230.332	6.48
230.549	7.51
230.765	5.87
230.982	3.19
231.199	1.49
231.415	2.3
231.632	0.12
231.848	2.43
232.065	1.51
232.281	2.92
232.498	3
232.714	2.52
232.931	2.23
233.147	0.82
233.364	1.45
233.58	1.18
233.797	2.02
234.013	1.7
234.23	0.66
234.446	0.18
234.662	1.85
234.879	2.05
235.095	6.08
235.312	5.05
235.528	5.26
235.744	4.97
235.961	7.15
236.177	6.5
236.393	6.41
236.61	6.88
236.826	6.64
237.042	5.14
237.258	5.84
237.475	4.14
237.691	6.31
237.907	6.46
238.123	9.07
238.339	8.87
238.556	9.07
238.772	10.17
238.988	9.19
239.204	8.83
239.42	9.28
239.636	9.13
239.853	8.81
240.069	8.27
240.285	8.45
240.501	7.06
240.717	7.18
240.933	7.16
241.149	6.84
241.365	7.27
241.581	8.18
241.797	8.52
242.013	8.31
242.229	8.55
242.445	8.63
242.661	8.91
242.877	10.61
243.093	10.77
243.309	10.87
243.525	11.45
243.741	11.73
243.957	10.62
244.173	10.21
244.388	9.45
244.604	9.09
244.82	9.69
245.036	9.39
245.252	8.94
245.468	8.63
245.683	8.86
245.899	8.26
246.115	8.34
246.331	8.44
246.547	8.36
246.762	8.75
246.978	8.8
247.194	8.15
247.409	8.2
247.625	7.85
247.841	8.15
248.057	7.24
248.272	7.91
248.488	7.28
248.703	7.61
248.919	7.62
249.135	7.43
249.35	7.42
249.566	8.29
249.782	7.31
249.997	8.27
250.213	8.01
250.428	8.95
250.644	8.6
250.859	9.03
251.075	8.38
251.29	7.67
251.506	7.95
251.721	8.14
251.937	7.36
252.152	7.77
252.368	8.17
252.583	7.71
252.798	7.95
253.014	8.08
253.229	7.67
253.445	7.46
253.66	8.44
253.875	7.67
254.091	6.44
254.306	6.24
254.521	7.74
254.737	6.22
254.952	6.18
255.167	5.04
255.383	6.14
255.598	6.45
255.813	6.82
256.028	6.75
256.244	6.7
256.459	7.26
256.674	7.56
256.889	6.4
257.104	6.25
257.32	7.34
257.535	7.61
257.75	7.03
257.965	6.69
258.18	6.58
258.395	6.58
258.61	7.07
258.826	6.74
259.041	6.48
259.256	6.78
259.471	7.07
259.686	6.31
259.901	6.28
260.116	6.46
260.331	7.01
260.546	7.1
260.761	6.9
260.976	6.43
261.191	7.3
261.406	7.57
261.621	6.92
261.836	6.03
262.05	5.92
262.265	6.33
262.48	5.61
262.695	4.92
262.91	4.71
263.125	5.44
263.34	5.78
263.555	4.58
263.769	4.87
263.984	5.04
264.199	5.47
264.414	4.94
264.629	5.11
264.843	5.87
265.058	5.87
265.273	6.07
265.488	5.81
265.702	5.65
265.917	5.85
266.132	5.38
266.346	5.43
266.561	5.36
266.776	6.05
266.99	5.49
267.205	5.09
267.42	5.41
267.634	5.98
267.849	5.44
268.063	5.12
268.278	5.5
268.492	6.23
268.707	6.35
268.922	6.47
269.136	5.86
269.351	5.81
269.565	5.68
269.78	5.1
269.994	4.69
270.209	5.19
270.423	5.29
270.637	5.51
270.852	5.23
271.066	5.19
271.281	5.3
271.495	5.71
271.709	5.69
271.924	5.68
272.138	5.9
272.353	6.07
272.567	5.46
272.781	5.21
272.996	4.69
273.21	4.53
273.424	4.3
273.638	4.6
273.853	4.77
274.067	4.7
274.281	4.7
274.495	4.5
274.71	4.56
274.924	4.93
275.138	4.89
275.352	5.36
275.566	5.19
275.781	5.69
275.995	4.92
276.209	4.9
276.423	4.5
276.637	4.29
276.851	3.8
277.065	2.74
277.279	3.21
277.493	4.01
277.707	3.37
277.921	3.68
278.135	3.64
278.349	3.57
278.563	3.21
278.777	3.62
278.991	3.87
279.205	4.7
279.419	5.16
279.633	4.66
279.847	4.59
280.061	4.89
280.275	5.15
280.489	4.77
280.703	5.46
280.917	5.68
281.131	5.71
281.344	5.8
281.558	5.63
281.772	5.45
281.986	5.4
282.2	4.97
282.414	4.62
282.627	4.32
282.841	4.63
283.055	4.51
283.269	4.46
283.482	4.56
283.696	4.4
283.91	4.58
284.123	4.94
284.337	5.23
284.551	5.49
284.764	5.8
284.978	5.97
285.192	5.69
285.405	5.79
285.619	5.98
285.833	5.98
286.046	6.58
286.26	6.11
286.473	6.33
286.687	5.86
286.9	5.65
287.114	5.74
287.327	5.86
287.541	6.55
287.754	6.44
287.968	6.38
288.181	5.99
288.395	5.52
288.608	5.82
288.822	5.71
289.035	6.27
289.248	6.34
289.462	6.36
289.675	6.09
289.889	5.87
290.102	5.61
290.315	5.67
290.529	6.15
290.742	6.41
290.955	6.53
291.169	6.27
291.382	5.84
291.595	6.15
291.808	6.23
292.022	6.62
292.235	6.77
292.448	6.49
292.661	6.48
292.875	6.34
293.088	6.36
293.301	6.33
293.514	6.49
293.727	6.43
293.94	6.13
294.153	6.43
294.367	6.68
294.58	6.54
294.793	7.01
295.006	7.36
295.219	7.6
295.432	7.66
295.645	7.82
295.858	7.99
296.071	8.4
296.284	8.69
296.497	8.88
296.71	8.59
296.923	8.5
297.136	8.43
297.349	8.5
297.562	8.41
297.775	8.53
297.988	8.47
298.201	8.38
298.414	8.17
298.626	8.02
298.839	7.7
299.052	7.8
299.265	7.94
299.478	8.14
299.691	7.74
299.903	7.77
300.116	7.62
300.329	7.45
300.542	7.29
300.755	7.38
300.967	7.4
301.18	7.65
301.393	7.88
301.605	8.35
301.818	8.24
302.031	8.24
302.243	8.21
302.456	8.32
302.669	8.47
302.881	8.59
303.094	8.77
303.307	8.72
303.519	8.05
303.732	8.28
303.944	7.87
304.157	7.66
304.37	8.03
304.582	7.53
304.795	7.37
305.007	7.79
305.22	7.73
305.432	7.32
305.645	7.31
305.857	7.54
306.069	7.61
306.282	7.59
306.494	8.04
306.707	8.16
306.919	8.99
307.132	8.7
307.344	8.78
307.556	8.98
307.769	9.32
307.981	9.52
308.193	9.23
308.406	8.56
308.618	8.44
308.83	8.41
309.043	8.21
309.255	7.93
309.467	7.91
309.679	7.62
309.892	7.22
310.104	6.95
310.316	6.73
310.528	7.4
310.74	7.68
310.953	7.98
311.165	7.91
311.377	7.88
311.589	7.93
311.801	8.36
312.013	7.95
312.225	8.48
312.437	8.41
312.649	8.38
312.862	8.09
313.074	7.95
313.286	7.91
313.498	7.65
313.71	7.45
313.922	7.33
314.134	7.25
314.346	7.31
314.558	7.05
314.77	7.01
314.982	7.52
315.193	7.2
315.405	6.67
315.617	6.51
315.829	6.54
316.041	6.83
316.253	6.96
316.465	7.03
316.677	7.27
316.888	7.55
317.1	8.03
317.312	7.88
317.524	7.67
317.736	8.1
317.947	8.18
318.159	8.34
318.371	7.81
318.583	7.51
318.794	7.27
319.006	7.39
319.218	6.98
319.43	6.94
319.641	7.12
319.853	7.4
320.064	7.78
320.276	7.52
320.488	7.44
320.699	7.54
320.911	8.11
321.123	8.12
321.334	8.33
321.546	8.71
321.757	7.91
321.969	7.11
322.18	6.91
322.392	6.53
322.603	6.61
322.815	6.33
323.026	6.68
323.238	6.51
323.449	6.63
323.661	6.59
323.872	6.63
324.083	7.54
324.295	8.09
324.506	8.24
324.718	8.21
324.929	8.37
325.14	8.58
325.352	8.4
325.563	8.73
325.774	8.9
325.986	8.91
326.197	8.78
326.408	8.56
326.62	8.12
326.831	7.92
327.042	8.18
327.253	8.08
327.464	8.16
327.676	8.38
327.887	7.49
328.098	7.69
328.309	7.52
328.52	7.44
328.732	7.31
328.943	7.7
329.154	8.01
329.365	7.69
329.576	7.79
329.787	7.92
329.998	7.66
330.209	8.43
330.42	7.68
330.631	7.68
330.842	7.9
331.053	8.3
331.264	8.03
331.475	8.09
331.686	8.14
331.897	8.11
332.108	8.15
332.319	8.42
332.53	8.13
332.741	8.31
332.952	8.15
333.163	7.74
333.374	7.54
333.585	7.56
333.795	7.93
334.006	7.97
334.217	7.82
334.428	7.74
334.639	7.62
334.849	7.9
335.06	7.82
335.271	7.84
335.482	8.42
335.692	8.53
335.903	8.51
336.114	7.66
336.325	7.85
336.535	8.19
336.746	7.9
336.957	8.02
337.167	7.75
337.378	7.61
337.589	7.64
337.799	6.99
338.01	6.8
338.22	7.35
338.431	7.41
338.642	7
338.852	6.65
339.063	6.95
339.273	6.22
339.484	6.14
339.694	6.56
339.905	6.67
340.115	6.97
340.326	6.73
340.536	6.54
340.746	6.76
340.957	6.99
341.167	6.82
341.378	6.69
341.588	7.06
341.799	7.11
342.009	7
342.219	7.03
342.43	6.96
342.64	7.25
342.85	7.18
343.061	7.23
343.271	7.39
343.481	7.96
343.691	8.1
343.902	8.25
344.112	8.35
344.322	8.66
344.532	8.46
344.743	8.73
344.953	8.67
345.163	8.78
345.373	8.72
345.583	8.45
345.793	8.39
346.004	8.48
346.214	8.19
346.424	8.01
346.634	7.56
346.844	7.82
347.054	7.43
347.264	7.48
347.474	7.3
347.684	7.49
347.894	7.58
348.104	7.42
348.314	7.53
348.524	7.9
348.734	8.04
348.944	8.05
349.154	7.89
349.364	8.03
349.574	7.63
349.784	7.72
349.994	7.67
350.204	7.54
350.413	7.23
350.623	6.98
350.833	6.68
351.043	6.57
351.253	6.74
351.463	6.51
351.672	6.47
351.882	6.51
352.092	6.04
352.302	6.2
352.511	6.1
352.721	6.41
352.931	6.15
353.141	6.48
353.35	6.31
353.56	6.14
353.77	6.19
353.979	6.04
354.189	6.4
354.399	6.54
354.608	6.52
354.818	6.94
355.027	6.86
355.237	6.79
355.447	6.4
355.656	6.44
355.866	6.3
356.075	6.57
356.285	6.51
356.494	6.54
356.704	6.53
356.913	6.61
357.123	6.31
357.332	6.02
357.542	6.14
357.751	6.38
357.96	6.61
358.17	6.81
358.379	6.85
358.589	7
358.798	6.72
359.007	6.73
359.217	6.55
359.426	6.7
359.635	6.83
359.845	6.88
360.054	6.79
360.263	6.57
360.472	6.58
360.682	6.45
360.891	6.4
361.1	6.49
361.309	6.4
361.519	6.26
361.728	6.07
361.937	6.04
362.146	6.09
362.355	6.06
362.564	6.41
362.774	6.28
362.983	6.09
363.192	5.94
363.401	5.91
363.61	5.99
363.819	6.01
364.028	5.94
364.237	6.07
364.446	5.93
364.655	5.83
364.864	5.42
365.073	5.29
365.282	5.27
365.491	5.39
365.7	5.39
365.909	5.47
366.118	5.53
366.327	5.61
366.536	5.69
366.745	5.71
366.954	5.88
367.162	5.88
367.371	6.01
367.58	6.17
367.789	6.18
367.998	6.17
368.207	6.16
368.415	5.76
368.624	5.81
368.833	5.55
369.042	5.47
369.25	5.36
369.459	5.49
369.668	5.29
369.877	5.22
370.085	5.13
370.294	4.85
370.503	4.96
370.711	5.39
370.92	5.22
371.129	5.13
371.337	5.27
371.546	4.99
371.754	4.84
371.963	5.05
372.171	5.35
372.38	5.29
372.589	5.4
372.797	5.03
373.006	4.96
373.214	5.49
373.423	5.42
373.631	5.44
373.84	5.68
374.048	6.1
374.256	5.97
374.465	5.55
374.673	5.62
374.882	5.68
375.09	5.88
375.298	5.85
375.507	5.66
375.715	5.99
375.923	5.86
376.132	5.86
376.34	5.62
376.548	5.72
376.757	5.78
376.965	5.6
377.173	5.52
377.381	5.48
377.59	5.36
377.798	5.28
378.006	4.87
378.214	4.99
378.423	5.08
378.631	4.83
378.839	4.86
379.047	4.96
379.255	5.16
379.463	5.29
379.671	5.2
379.879	5.24
380.088	5.09
380.296	5.23
380.504	4.79
380.712	4.74
380.92	4.81
381.128	4.72
381.336	4.81
381.544	4.78
381.752	4.52
381.96	4.71
382.168	4.71
382.376	4.64
382.584	4.54
382.791	4.76
382.999	4.85
383.207	4.91
383.415	5.01
383.623	5.02
383.831	4.91
384.039	4.96
384.247	4.87
384.454	4.89
384.662	4.95
384.87	5.1
385.078	5.09
385.285	4.97
385.493	4.88
385.701	4.78
385.909	4.5
386.116	4.55
386.324	4.52
386.532	4.37
386.739	4.28
386.947	4.36
387.155	4.27
387.362	4.29
387.57	4.22
387.778	4.2
387.985	4.22
388.193	4.33
388.4	4.26
388.608	4.51
388.816	4.48
389.023	4.6
389.231	4.38
389.438	4.49
389.646	4.48
389.853	4.58
390.061	4.54
390.268	4.55
390.475	4.49
390.683	4.5
390.89	4.33
391.098	4.43
391.305	4.38
391.512	4.43
391.72	4.16
391.927	4.04
392.135	3.95
392.342	3.84
392.549	3.79
392.756	3.71
392.964	3.81
393.171	3.73
393.378	3.68
393.586	3.81
393.793	3.77
394	3.86
394.207	3.96
394.414	3.8
394.622	4.03
394.829	3.98
395.036	4.02
395.243	3.93
395.45	3.87
395.657	3.96
395.864	3.78
396.072	3.96
396.279	4.01
396.486	4
396.693	4.16
396.9	4.08
397.107	4.16
397.314	4.2
397.521	4.1
397.728	4.22
397.935	4.01
398.142	3.8
398.349	3.66
398.556	3.74
398.763	3.77
398.97	3.64
399.177	3.52
399.383	3.39
399.59	3.39
399.797	3.66
400.004	3.55
400.211	3.47
400.418	3.8
400.625	3.98
400.831	3.8
401.038	3.73
401.245	3.91
401.452	3.99
401.658	4.11
401.865	4.15
402.072	3.98
402.279	4.07
402.485	4.09
402.692	4.03
402.899	3.87
403.105	4.01
403.312	4.19
403.519	4.17
403.725	4.23
403.932	4.11
404.138	3.98
404.345	3.93
404.552	3.86
404.758	3.93
404.965	3.87
405.171	3.99
405.378	3.8
405.584	3.74
405.791	3.73
405.997	3.59
406.204	3.46
406.41	3.59
406.617	3.56
406.823	3.67
407.029	3.66
407.236	3.69
407.442	3.62
407.649	3.69
407.855	3.57
408.061	3.48
408.268	3.38
408.474	3.61
408.68	3.46
408.887	3.57
409.093	3.44
409.299	3.51
409.505	3.42
409.712	3.26
409.918	3.53
410.124	3.62
410.33	3.57
410.537	3.64
410.743	3.63
410.949	3.62
411.155	3.66
411.361	3.76
411.567	3.82
411.773	3.89
411.98	3.95
412.186	3.65
412.392	3.53
412.598	3.57
412.804	3.62
413.01	3.53
413.216	3.68
413.422	3.59
413.628	3.64
413.834	3.65
414.04	3.59
414.246	3.58
414.452	3.65
414.658	3.72
414.864	3.7
415.07	3.81
415.275	3.89
415.481	3.67
415.687	3.81
415.893	3.74
416.099	3.7
416.305	3.72
416.511	3.74
416.716	3.68
416.922	3.67
417.128	3.68
417.334	3.62
417.539	3.53
417.745	3.66
417.951	3.52
418.157	3.58
418.362	3.48
418.568	3.45
418.774	3.41
418.979	3.4
419.185	3.28
419.391	3.37
419.596	3.25
419.802	3.28
420.008	3.34
420.213	3.36
420.419	3.29
420.624	3.34
420.83	3.3
421.035	3.32
421.241	3.39
421.446	3.46
421.652	3.41
421.857	3.51
422.063	3.53
422.268	3.48
422.474	3.39
422.679	3.41
422.885	3.41
423.09	3.47
423.295	3.44
423.501	3.46
423.706	3.42
423.911	3.33
424.117	3.21
424.322	3.16
424.527	3.04
424.733	3.02
424.938	2.99
425.143	3.02
425.349	3.03
425.554	3.17
425.759	3.05
425.964	3.11
426.169	3.1
426.375	3.33
426.58	3.2
426.785	3.29
426.99	3.35
427.195	3.32
427.4	3.24
427.605	3.14
427.811	3.01
428.016	2.99
428.221	2.97
428.426	3.07
428.631	3.06
428.836	3.25
429.041	3.26
429.246	3.36
429.451	3.34
429.656	3.36
429.861	3.43
430.066	3.4
430.271	3.46
430.476	3.46
430.681	3.41
430.886	3.32
431.09	3.29
431.295	3.25
431.5	3.16
431.705	3.22
431.91	3.24
432.115	3.19
432.32	3.09
432.524	3.01
432.729	3.01
432.934	2.93
433.139	2.97
433.343	2.9
433.548	2.97
433.753	2.97
433.958	3.07
434.162	2.98
434.367	3.05
434.572	3.04
434.776	3.03
434.981	3
435.186	3.09
435.39	3.03
435.595	3.04
435.799	2.93
436.004	2.88
436.209	2.83
436.413	2.81
436.618	2.7
436.822	2.9
437.027	2.95
437.231	2.9
437.436	2.86
437.64	2.85
437.845	2.87
438.049	2.83
438.253	2.9
438.458	2.91
438.662	2.98
438.867	3.03
439.071	3
439.275	3
439.48	3.02
439.684	3.06
439.888	3.05
440.093	3.1
440.297	3.17
440.501	3.16
440.706	3.14
440.91	3.14
441.114	3.17
441.318	3.09
441.523	3.04
441.727	3.14
441.931	3.08
442.135	3.02
442.339	2.96
442.543	2.85
442.748	2.79
442.952	2.75
443.156	2.7
443.36	2.68
443.564	2.74
443.768	2.78
443.972	2.79
444.176	2.79
444.38	2.85
444.584	2.91
444.788	3.01
444.992	3.05
445.196	3.03
445.4	3.07
445.604	2.95
445.808	2.9
446.012	2.88
446.216	2.84
446.42	2.82
446.624	2.79
446.828	2.79
447.032	2.71
447.235	2.69
447.439	2.76
447.643	2.76
447.847	2.91
448.051	2.9
448.254	2.94
448.458	2.95
448.662	2.99
448.866	2.98
449.069	2.84
449.273	2.88
449.477	2.9
449.681	2.86
449.884	2.98
450.088	2.95
450.292	2.92
450.495	2.93
450.699	2.94
450.902	2.99
451.106	3.06
451.31	3.1
451.513	3.15
451.717	3.07
451.92	3.08
452.124	2.93
452.327	2.9
452.531	2.92
452.734	2.93
452.938	2.76
453.141	2.76
453.345	2.78
453.548	2.8
453.752	2.79
453.955	2.78
454.158	2.68
454.362	2.68
454.565	2.77
454.769	2.86
454.972	2.85
455.175	3.01
455.379	2.93
455.582	2.82
455.785	2.79
455.988	2.74
456.192	2.73
456.395	2.79
456.598	2.8
456.801	2.77
457.005	2.71
457.208	2.75
457.411	2.7
457.614	2.68
457.817	2.76
458.021	2.81
458.224	2.82
458.427	2.83
458.63	2.86
458.833	2.9
459.036	2.84
459.239	2.83
459.442	2.79
459.645	2.84
459.848	2.95
460.051	2.97
460.254	2.92
460.457	2.94
460.66	2.99
460.863	2.94
461.066	2.93
461.269	3
461.472	3.06
461.675	2.9
461.878	2.79
462.081	2.81
462.284	2.83
462.486	2.86
462.689	2.91
462.892	2.92
463.095	2.96
463.298	2.95
463.5	3.05
463.703	3.13
463.906	3.29
464.109	3.41
464.311	3.32
464.514	3.14
464.717	3.16
464.92	3.19
465.122	3.16
465.325	3.16
465.528	3.25
465.73	3.11
465.933	3.05
466.135	2.93
466.338	2.85
466.541	2.77
466.743	2.86
466.946	2.86
467.148	2.82
467.351	2.8
467.553	2.73
467.756	2.67
467.958	2.64
468.161	2.5
468.363	2.59
468.566	2.67
468.768	2.8
468.971	2.85
469.173	2.84
469.375	2.84
469.578	2.74
