Data from 2938455_Reflection_1.txt Node
Date: Fri Jun 19 17:47:45 EDT 2015
User: robert
Spectrometer: USB4E03002
Autoset integration time: false
Trigger mode: 4
Integration Time (sec): 1.000000E-1
Scans to average: 10
Electric dark correction enabled: true
Nonlinearity correction enabled: false
Boxcar width: 5
Stray light correction enabled: false
XAxis mode: Wavelengths
Stop averaging: false
Number of Pixels in Spectrum: 3648
>>>>>Begin Spectral Data<<<<<
177.575	-193.06
177.794	-976.04
178.014	-49.14
178.233	45.65
178.452	35.92
178.672	-431.67
178.891	281.79
179.11	109.11
179.33	42.03
179.549	-38.1
179.768	140.12
179.987	-95.11
180.207	234.58
180.426	-192.68
180.645	-21.26
180.864	371.68
181.084	-2729.03
181.303	-280.6
181.522	-129.71
181.741	-30.61
181.96	-30.25
182.179	-91.86
182.398	-105.98
182.618	-92.15
182.837	-67.27
183.056	19.32
183.275	39.53
183.494	33.3
183.713	87.19
183.932	135.46
184.151	177.02
184.37	59.86
184.589	42.14
184.808	59.33
185.027	-66.13
185.246	1806.07
185.465	551.63
185.684	344.69
185.903	212.59
186.122	295.91
186.341	340.39
186.56	318.97
186.779	233.3
186.998	218.39
187.216	216.08
187.435	191
187.654	377.94
187.873	339.38
188.092	-6650
188.311	-712.42
188.53	986.88
188.748	361.78
188.967	419.39
189.186	1075.71
189.405	-330.56
189.623	-990.78
189.842	312.68
190.061	295.53
190.28	170.11
190.498	75.24
190.717	60.84
190.936	5.07
191.154	14.85
191.373	-6.52
191.592	18.2
191.81	32.39
192.029	41.59
192.248	29.69
192.466	25.86
192.685	37.89
192.904	38.17
193.122	46.16
193.341	51.39
193.559	44.81
193.778	49.7
193.996	17.38
194.215	14.42
194.433	21.48
194.652	19.86
194.87	38.36
195.089	21.51
195.307	47.22
195.526	35.57
195.744	65.57
195.963	78.52
196.181	59.71
196.399	81.65
196.618	110.2
196.836	113.91
197.055	105.98
197.273	106.22
197.491	119.82
197.71	117.26
197.928	132.07
198.146	115.2
198.365	103.04
198.583	103.75
198.801	100.84
199.019	104.14
199.238	82
199.456	76.54
199.674	79.18
199.892	96.44
200.111	71.67
200.329	80.06
200.547	67.6
200.765	72.96
200.983	90.91
201.202	101.98
201.42	124.3
201.638	230.82
201.856	291.86
202.074	196.09
202.292	322.61
202.51	410.7
202.728	533.03
202.946	457.04
203.165	384.38
203.383	111.44
203.601	66.39
203.819	-19.24
204.037	-40.84
204.255	-15.52
204.473	20.9
204.691	35.07
204.909	-1.41
205.127	7.35
205.345	-32.29
205.562	-127.08
205.78	-40.39
205.998	-33.03
206.216	19.96
206.434	55.39
206.652	62.44
206.87	28.86
207.088	18.53
207.306	-688.57
207.523	570.16
207.741	170.88
207.959	367.28
208.177	3152
208.395	-1654.29
208.612	-257.05
208.83	339.09
209.048	125.86
209.266	111.25
209.483	75.58
209.701	51.43
209.919	41.57
210.136	29.37
210.354	32.58
210.572	29.4
210.79	54.23
211.007	76
211.225	58.28
211.442	78.09
211.66	89.49
211.878	105.82
212.095	-340.92
212.313	-256.07
212.53	-293.04
212.748	-209.94
212.966	-178.89
213.183	-754.51
213.401	-811.19
213.618	-3618.25
213.836	1754.65
214.053	489.07
214.271	-593.72
214.488	47.28
214.705	54.02
214.923	30.57
215.14	27.22
215.358	37.15
215.575	35.14
215.793	41.81
216.01	59.17
216.227	62.82
216.445	79.74
216.662	85.66
216.879	109.07
217.097	66.83
217.314	60.38
217.531	91.25
217.749	81.61
217.966	99.97
218.183	83.74
218.4	89.57
218.618	83.42
218.835	75.09
219.052	82.24
219.269	79.45
219.487	92.81
219.704	97.8
219.921	66.2
220.138	70.97
220.355	39.83
220.572	48.17
220.79	46.1
221.007	16.29
221.224	16.92
221.441	7.41
221.658	-1.65
221.875	-3.35
222.092	-4.86
222.309	0.64
222.526	12.14
222.743	21.36
222.96	10.95
223.177	11.95
223.394	27.33
223.611	33.21
223.828	30.15
224.045	24.47
224.262	26.25
224.479	43.06
224.696	44.99
224.913	31.46
225.13	28.94
225.347	29.03
225.564	24.63
225.781	20.38
225.997	17.97
226.214	17.65
226.431	18.65
226.648	17.46
226.865	13.4
227.082	13.5
227.298	16.38
227.515	15.86
227.732	14.48
227.949	14.89
228.165	16.42
228.382	15.57
228.599	16.19
228.816	14.73
229.032	14.11
229.249	12.87
229.466	10.99
229.682	7.52
229.899	6.89
230.116	4.6
230.332	3.37
230.549	-1.57
230.765	1.42
230.982	0.1
231.199	4.06
231.415	6.09
231.632	7.27
231.848	8.41
232.065	9.41
232.281	7.12
232.498	13.41
232.714	13.64
232.931	14.43
233.147	10.61
233.364	9.95
233.58	6.53
233.797	7.65
234.013	5.32
234.23	2.14
234.446	4.8
234.662	8.07
234.879	7.88
235.095	8.39
235.312	8.93
235.528	12.69
235.744	15.33
235.961	18.92
236.177	16.17
236.393	18.86
236.61	23.19
236.826	22.5
237.042	22.23
237.258	17.49
237.475	17.21
237.691	17.19
237.907	12.25
238.123	11.83
238.339	12.66
238.556	15.34
238.772	15.15
238.988	14.59
239.204	14.04
239.42	13.11
239.636	16.22
239.853	15.97
240.069	15.64
240.285	16.72
240.501	15.9
240.717	14.61
240.933	14.18
241.149	14.74
241.365	15.02
241.581	15.78
241.797	15.76
242.013	14.62
242.229	14.98
242.445	14.86
242.661	16.3
242.877	16.9
243.093	16.74
243.309	15.19
243.525	13.78
243.741	13.34
243.957	13.48
244.173	13.4
244.388	14.17
244.604	13.21
244.82	13.73
245.036	12.56
245.252	12
245.468	12.41
245.683	12.72
245.899	13
246.115	12.88
246.331	12.32
246.547	12.3
246.762	11.61
246.978	12.25
247.194	11.52
247.409	12.2
247.625	12.44
247.841	12.27
248.057	12.52
248.272	11.76
248.488	10.31
248.703	10.06
248.919	9.93
249.135	9.99
249.35	9.51
249.566	11.07
249.782	10.66
249.997	10.67
250.213	9.95
250.428	9.94
250.644	11.79
250.859	12.89
251.075	12.79
251.29	12.5
251.506	12.67
251.721	12.48
251.937	11.92
252.152	11.93
252.368	11.79
252.583	12.8
252.798	12.95
253.014	9.87
253.229	10.7
253.445	10.66
253.66	10.63
253.875	9.51
254.091	7.69
254.306	7.03
254.521	5.75
254.737	5.75
254.952	5.6
255.167	5.41
255.383	8.15
255.598	8.81
255.813	9.78
256.028	9.03
256.244	9.81
256.459	10.2
256.674	9.75
256.889	10.03
257.104	9.71
257.32	9.95
257.535	9.5
257.75	8.96
257.965	8.85
258.18	8.28
258.395	8.88
258.61	8.48
258.826	9.02
259.041	9.02
259.256	8.97
259.471	9
259.686	9.04
259.901	9.21
260.116	8.91
260.331	7.89
260.546	8.17
260.761	7.76
260.976	8.31
261.191	7.36
261.406	7.25
261.621	7.8
261.836	7.89
262.05	6.69
262.265	6.44
262.48	7.88
262.695	8.75
262.91	8.4
263.125	8.66
263.34	7.77
263.555	8.38
263.769	8.44
263.984	7.64
264.199	8.06
264.414	9.13
264.629	9.89
264.843	8.21
265.058	7.59
265.273	7.58
265.488	8.2
265.702	9.09
265.917	9.18
266.132	9.25
266.346	10.16
266.561	10.13
266.776	9.96
266.99	9.59
267.205	10.25
267.42	10.18
267.634	10.61
267.849	9.19
268.063	8.94
268.278	7.96
268.492	8.72
268.707	7.91
268.922	7.53
269.136	7.05
269.351	6.6
269.565	7.16
269.78	8.08
269.994	7.61
270.209	8.3
270.423	8.23
270.637	8.85
270.852	8.03
271.066	8.27
271.281	9.11
271.495	9.09
271.709	9.92
271.924	9.19
272.138	8.86
272.353	8.65
272.567	9.14
272.781	9.88
272.996	9.67
273.21	10.59
273.424	10.91
273.638	10.54
273.853	10.8
274.067	10.37
274.281	11.26
274.495	11.31
274.71	12.04
274.924	11.38
275.138	10.51
275.352	10.78
275.566	10.87
275.781	10.1
275.995	9.58
276.209	9.91
276.423	9.65
276.637	8.54
276.851	7.76
277.065	7.02
277.279	6.69
277.493	6.28
277.707	6.44
277.921	6.13
278.135	6
278.349	5.92
278.563	6.05
278.777	6.2
278.991	7.01
279.205	7.54
279.419	8.08
279.633	8.53
279.847	8.98
280.061	9.03
280.275	8.74
280.489	8.34
280.703	8.47
280.917	8.26
281.131	8.18
281.344	8.44
281.558	9.03
281.772	8.84
281.986	9.04
282.2	9.3
282.414	9.15
282.627	8.48
282.841	9.74
283.055	9.24
283.269	9.85
283.482	9.4
283.696	8.88
283.91	8.5
284.123	8.25
284.337	7.99
284.551	7.64
284.764	7.98
284.978	8.7
285.192	7.81
285.405	8.39
285.619	7.15
285.833	7.89
286.046	8.25
286.26	8.73
286.473	8.79
286.687	8.85
286.9	8.86
287.114	8.7
287.327	9
287.541	9.59
287.754	9.41
287.968	10.43
288.181	9.31
288.395	8.8
288.608	8.46
288.822	9.04
289.035	9.63
289.248	9.81
289.462	10.28
289.675	10.06
289.889	9.65
290.102	10.03
290.315	9.64
290.529	10.51
290.742	11.41
290.955	11.22
291.169	11.3
291.382	10.94
291.595	11.14
291.808	10.76
292.022	11.35
292.235	11.42
292.448	10.71
292.661	10.29
292.875	10.86
293.088	10.45
293.301	11.08
293.514	11.21
293.727	10.2
293.94	9.96
294.153	9.89
294.367	8.74
294.58	8.71
294.793	8.66
295.006	9.56
295.219	9.85
295.432	9.97
295.645	9.8
295.858	9.91
296.071	10.62
296.284	10.88
296.497	11.15
296.71	11.57
296.923	12.02
297.136	12.66
297.349	12.66
297.562	11.95
297.775	12.01
297.988	11.88
298.201	11.82
298.414	12.1
298.626	12.24
298.839	11.87
299.052	11.36
299.265	11.5
299.478	11.52
299.691	11.76
299.903	11.69
300.116	11.51
300.329	12.14
300.542	11.99
300.755	12.13
300.967	12.15
301.18	11.9
301.393	12.59
301.605	12.72
301.818	12.58
302.031	11.93
302.243	12.42
302.456	12.28
302.669	12.3
302.881	12.46
303.094	12.28
303.307	11.73
303.519	11.32
303.732	11.45
303.944	11.41
304.157	11.11
304.37	11.78
304.582	12.69
304.795	12.98
305.007	12.31
305.22	12
305.432	11.29
305.645	11.89
305.857	12.47
306.069	12.23
306.282	11.68
306.494	11.82
306.707	11.35
306.919	10.32
307.132	10.42
307.344	11.28
307.556	11.46
307.769	11.41
307.981	11.39
308.193	11.21
308.406	11.33
308.618	11.92
308.83	12.42
309.043	12.54
309.255	12.24
309.467	12.29
309.679	11.88
309.892	11.78
310.104	12.4
310.316	11.98
310.528	12.4
310.74	12.79
310.953	12.27
311.165	12.49
311.377	12.72
311.589	13.02
311.801	13.49
312.013	13.9
312.225	13.83
312.437	14.2
312.649	14.66
312.862	14.41
313.074	14.01
313.286	14.94
313.498	13.77
313.71	13.18
313.922	13.36
314.134	13.38
314.346	12.02
314.558	12
314.77	11
314.982	11.18
315.193	11.88
315.405	12.18
315.617	12.19
315.829	14.03
316.041	14.93
316.253	14.84
316.465	14.74
316.677	15.33
316.888	16.79
317.1	17.84
317.312	17.72
317.524	17.09
317.736	17.89
317.947	17.02
318.159	16.21
318.371	15.02
318.583	15.94
318.794	14.43
319.006	15.27
319.218	14.26
319.43	14.3
319.641	13.88
319.853	14.64
320.064	14.54
320.276	14.7
320.488	14.98
320.699	15.96
320.911	15.1
321.123	16.39
321.334	14.99
321.546	15.07
321.757	15.04
321.969	15.37
322.18	13.73
322.392	13.48
322.603	13.44
322.815	12.88
323.026	13.68
323.238	14.15
323.449	14.45
323.661	15.87
323.872	16.27
324.083	16.01
324.295	16.55
324.506	17.63
324.718	17.22
324.929	17.4
325.14	17.39
325.352	16.77
325.563	16.18
325.774	15.68
325.986	15.73
326.197	15.52
326.408	15.41
326.62	15.05
326.831	14.1
327.042	14.24
327.253	14.42
327.464	14.9
327.676	14.44
327.887	15.07
328.098	15.6
328.309	15.25
328.52	15.29
328.732	15.96
328.943	15.73
329.154	16.74
329.365	17.02
329.576	16.79
329.787	15.95
329.998	16.29
330.209	16.07
330.42	15.54
330.631	15.76
330.842	15.66
331.053	15.26
331.264	14.44
331.475	14.3
331.686	13.76
331.897	14.15
332.108	15.12
332.319	15.12
332.53	15.58
332.741	14.7
332.952	14.62
333.163	14.1
333.374	13.25
333.585	14.19
333.795	13.97
334.006	15.09
334.217	14.73
334.428	14.25
334.639	14.96
334.849	15.11
335.06	16.66
335.271	16.39
335.482	16.1
335.692	16.1
335.903	16.1
336.114	16.08
336.325	15.91
336.535	15.93
336.746	15.57
336.957	14.84
337.167	14.77
337.378	13.85
337.589	13.96
337.799	13.81
338.01	13.57
338.22	14.09
338.431	14.86
338.642	13.86
338.852	14.03
339.063	13.96
339.273	13.71
339.484	12.46
339.694	13.4
339.905	13.52
340.115	13.84
340.326	14.41
340.536	13.97
340.746	13.06
340.957	13.31
341.167	12.39
341.378	12.28
341.588	12.58
341.799	13.61
342.009	12.59
342.219	12.63
342.43	12.71
342.64	12.93
342.85	13.05
343.061	13.31
343.271	12.8
343.481	13.34
343.691	13.8
343.902	13.77
344.112	13.77
344.322	13.51
344.532	13.08
344.743	13.29
344.953	12.75
345.163	12.26
345.373	11.85
345.583	12.12
345.793	12.17
346.004	12.5
346.214	11.42
346.424	11.54
346.634	11.77
346.844	11.8
347.054	11.69
347.264	12.02
347.474	12.58
347.684	12.98
347.894	13.61
348.104	13.48
348.314	12.91
348.524	12.92
348.734	12.43
348.944	12.46
349.154	12.4
349.364	12.05
349.574	12.19
349.784	12.09
349.994	12.47
350.204	11.71
350.413	11.67
350.623	12.02
350.833	12.77
351.043	12.56
351.253	13.03
351.463	13.13
351.672	13.31
351.882	13.74
352.092	13.18
352.302	13.53
352.511	13.55
352.721	13.66
352.931	12.49
353.141	12.14
353.35	12.32
353.56	11.91
353.77	11.39
353.979	11.08
354.189	10.23
354.399	10.4
354.608	9.92
354.818	9.92
355.027	9.7
355.237	10.01
355.447	10.16
355.656	10.19
355.866	10.7
356.075	11.22
356.285	11.84
356.494	12.19
356.704	11.75
356.913	11.78
357.123	11.56
357.332	11.31
357.542	11.59
357.751	11.66
357.96	11.81
358.17	11.3
358.379	10.82
358.589	10.71
358.798	10.41
359.007	10.63
359.217	10.3
359.426	10.28
359.635	10.71
359.845	10.71
360.054	10.68
360.263	10.17
360.472	10.39
360.682	10.55
360.891	10.26
361.1	10.31
361.309	10.42
361.519	10.46
361.728	10.46
361.937	10.24
362.146	10.27
362.355	10.34
362.564	10.83
362.774	10.12
362.983	9.88
363.192	9.99
363.401	9.87
363.61	9.88
363.819	9.55
364.028	9.75
364.237	9.66
364.446	9.37
364.655	9.38
364.864	8.79
365.073	9.42
365.282	9.31
365.491	9.43
365.7	10.26
365.909	10.27
366.118	10.22
366.327	10.03
366.536	9.93
366.745	10.44
366.954	9.73
367.162	9.92
367.371	9.65
367.58	9.73
367.789	9.44
367.998	8.47
368.207	8.36
368.415	8.49
368.624	8.49
368.833	8.51
369.042	7.9
369.25	8.41
369.459	8.92
369.668	8.97
369.877	9.21
370.085	8.96
370.294	9.26
370.503	9.29
370.711	9.38
370.92	9.56
371.129	9.42
371.337	9.41
371.546	9.25
371.754	8.81
371.963	8.72
372.171	8.53
372.38	8.6
372.589	8.26
372.797	8.09
373.006	8.02
373.214	8.17
373.423	7.84
373.631	7.98
373.84	7.45
374.048	7.35
374.256	7.21
374.465	7.22
374.673	7.4
374.882	7.17
375.09	7.27
375.298	7.22
375.507	6.82
375.715	7.46
375.923	7.12
376.132	7.42
376.34	7.26
376.548	7.32
376.757	7.03
376.965	6.66
377.173	6.77
377.381	6.62
377.59	6.75
377.798	6.92
378.006	6.5
378.214	6.53
378.423	6.61
378.631	6.82
378.839	6.41
379.047	6.7
379.255	6.97
379.463	6.99
379.671	7.06
379.879	6.96
380.088	6.67
380.296	6.84
380.504	7.23
380.712	7.35
380.92	7.08
381.128	7.74
381.336	7.72
381.544	7.97
381.752	8.05
381.96	7.65
382.168	7.66
382.376	7.84
382.584	7.57
382.791	7.37
382.999	7.02
383.207	6.98
383.415	6.54
383.623	6.71
383.831	6.4
384.039	6.35
384.247	6.44
384.454	6.59
384.662	6.5
384.87	6.48
385.078	6.65
385.285	6.48
385.493	6.79
385.701	6.8
385.909	6.66
386.116	6.43
386.324	6.19
386.532	5.98
386.739	5.76
386.947	5.65
387.155	5.87
387.362	5.59
387.57	5.84
387.778	5.69
387.985	5.68
388.193	5.57
388.4	5.65
388.608	5.88
388.816	6.17
389.023	6.23
389.231	6.27
389.438	6.1
389.646	6.1
389.853	5.93
390.061	5.81
390.268	5.73
390.475	5.63
390.683	5.47
390.89	5.13
391.098	4.91
391.305	4.72
391.512	4.61
391.72	4.45
391.927	4.35
392.135	4.38
392.342	4.49
392.549	4.51
392.756	4.24
392.964	4.31
393.171	4.55
393.378	4.65
393.586	4.32
393.793	4.28
394	4.38
394.207	4.51
394.414	4.66
394.622	4.47
394.829	4.55
395.036	4.75
395.243	4.65
395.45	4.6
395.657	4.77
395.864	5.25
396.072	5.29
396.279	5.33
396.486	5.19
396.693	4.85
396.9	4.62
397.107	4.59
397.314	4.61
397.521	4.74
397.728	4.6
397.935	4.4
398.142	4.27
398.349	4.2
398.556	4.26
398.763	4.21
398.97	4.27
399.177	4.57
399.383	4.43
399.59	4.43
399.797	4.21
400.004	4.2
400.211	4.29
400.418	4.17
400.625	4.23
400.831	3.9
401.038	3.98
401.245	4.27
401.452	4.08
401.658	4.11
401.865	4.2
402.072	4.35
402.279	4.46
402.485	4.23
402.692	4.21
402.899	4.15
403.105	4.36
403.312	4.38
403.519	4.07
403.725	4.16
403.932	4.21
404.138	4.13
404.345	3.99
404.552	3.83
404.758	4.02
404.965	4.07
405.171	4.01
405.378	4.05
405.584	3.94
405.791	4.05
405.997	4.18
406.204	4.15
406.41	4.19
406.617	4.25
406.823	4.15
407.029	4.03
407.236	4.08
407.442	4.16
407.649	4.02
407.855	4.06
408.061	4.09
408.268	3.82
408.474	3.69
408.68	3.61
408.887	3.65
409.093	3.84
409.299	3.86
409.505	3.73
409.712	3.6
409.918	3.59
410.124	3.53
410.33	3.61
410.537	3.62
410.743	3.72
410.949	3.67
411.155	3.65
411.361	3.6
411.567	3.4
411.773	3.38
411.98	3.38
412.186	3.51
412.392	3.79
412.598	3.64
412.804	3.65
413.01	3.61
413.216	3.7
413.422	3.86
413.628	3.85
413.834	3.97
414.04	4.06
414.246	4.07
414.452	4.02
414.658	3.87
414.864	3.83
415.07	3.81
415.275	3.84
415.481	3.81
415.687	3.59
415.893	3.64
416.099	3.56
416.305	3.55
416.511	3.62
416.716	3.56
416.922	3.54
417.128	3.56
417.334	3.61
417.539	3.53
417.745	3.59
417.951	3.64
418.157	3.52
418.362	3.63
418.568	3.57
418.774	3.47
418.979	3.5
419.185	3.52
419.391	3.45
419.596	3.39
419.802	3.4
420.008	3.32
420.213	2.9
420.419	2.98
420.624	2.95
420.83	3.01
421.035	3.05
421.241	3.09
421.446	3.01
421.652	3.07
421.857	3.13
422.063	3.22
422.268	3.23
422.474	3.63
422.679	3.53
422.885	3.53
423.09	3.55
423.295	3.64
423.501	3.62
423.706	3.68
423.911	3.65
424.117	3.59
424.322	3.49
424.527	3.45
424.733	3.48
424.938	3.52
425.143	3.52
425.349	3.45
425.554	3.37
425.759	3.3
425.964	3.2
426.169	3.18
426.375	3.08
426.58	3.09
426.785	3.21
426.99	3.12
427.195	3.27
427.4	3.28
427.605	3.22
427.811	3.27
428.016	3.35
428.221	3.32
428.426	3.25
428.631	3.45
428.836	3.43
429.041	3.43
429.246	3.46
429.451	3.37
429.656	3.24
429.861	3.38
430.066	3.28
430.271	3.18
430.476	3.29
430.681	3.44
430.886	3.38
431.09	3.3
431.295	3.31
431.5	3.3
431.705	3.27
431.91	3.27
432.115	3.27
432.32	3.25
432.524	3.24
432.729	3.24
432.934	3.15
433.139	3.08
433.343	3.16
433.548	3.15
433.753	3.26
433.958	3.32
434.162	3.44
434.367	3.28
434.572	3.39
434.776	3.44
434.981	3.32
435.186	3.35
435.39	3.46
435.595	3.5
435.799	3.35
436.004	3.32
436.209	3.32
436.413	3.38
436.618	3.41
436.822	3.38
437.027	3.44
437.231	3.51
437.436	3.51
437.64	3.44
437.845	3.38
438.049	3.42
438.253	3.4
438.458	3.39
438.662	3.27
438.867	3.32
439.071	3.37
439.275	3.26
439.48	3.32
439.684	3.28
439.888	3.33
440.093	3.28
440.297	3.32
440.501	3.31
440.706	3.24
440.91	3.27
441.114	3.25
441.318	3.19
441.523	3.3
441.727	3.21
441.931	3.3
442.135	3.34
442.339	3.46
442.543	3.41
442.748	3.38
442.952	3.41
443.156	3.38
443.36	3.38
443.564	3.44
443.768	3.32
443.972	3.28
444.176	3.31
444.38	3.3
444.584	3.21
444.788	3.21
444.992	3.21
445.196	3.24
445.4	3.19
445.604	3.19
445.808	3.18
446.012	3.16
446.216	3.15
446.42	3.16
446.624	3.08
446.828	3.13
447.032	3.11
447.235	3.06
447.439	3.03
447.643	3.04
447.847	3.09
448.051	3.02
448.254	3.06
448.458	3.2
448.662	3.08
448.866	3.13
449.069	3.11
449.273	3.18
449.477	3.29
449.681	3.29
449.884	3.38
450.088	3.3
450.292	3.16
450.495	3.09
450.699	3.04
450.902	3.02
451.106	3.02
451.31	2.96
451.513	2.91
451.717	2.88
451.92	2.94
452.124	2.91
452.327	3
452.531	3.27
452.734	3.38
452.938	3.31
453.141	3.4
453.345	3.38
453.548	3.46
453.752	3.56
453.955	3.53
454.158	3.44
454.362	3.44
454.565	3.37
454.769	3.29
454.972	3.18
455.175	3.16
455.379	2.98
455.582	3.01
455.785	2.98
455.988	3
456.192	2.99
456.395	3
456.598	3.02
456.801	3.06
457.005	3.12
457.208	3.2
457.411	3.2
457.614	3.34
457.817	3.36
458.021	3.34
458.224	3.2
458.427	3.22
458.63	3.23
458.833	3.25
459.036	3.2
459.239	3.25
459.442	3.19
459.645	3.22
459.848	3.18
460.051	3.1
460.254	3.05
460.457	3.06
460.66	3.08
460.863	3.05
461.066	3.09
461.269	3.08
461.472	2.97
461.675	3.02
461.878	3.03
462.081	2.94
462.284	2.95
462.486	3.12
462.689	3.15
462.892	3.06
463.095	3.2
463.298	3.06
463.5	3.19
463.703	3.1
463.906	3.15
464.109	3.13
464.311	3.19
464.514	3.31
464.717	3.31
