Data from 2938578_Reflection_1.txt Node
Date: Sun Jun 14 21:29:22 EDT 2015
User: robert
Spectrometer: USB4E03002
Autoset integration time: false
Trigger mode: 4
Integration Time (sec): 1.000000E-1
Scans to average: 10
Electric dark correction enabled: true
Nonlinearity correction enabled: false
Boxcar width: 5
Stray light correction enabled: false
XAxis mode: Wavelengths
Stop averaging: false
Number of Pixels in Spectrum: 3648
>>>>>Begin Spectral Data<<<<<
177.575	322.77
177.794	455.41
178.014	6900
178.233	-16825
178.452	-1552.01
178.672	-831.88
178.891	-57.65
179.11	248.56
179.33	223.27
179.549	295.39
179.768	526.27
179.987	357.39
180.207	395.77
180.426	634.37
180.645	683.81
180.864	408.43
181.084	370.23
181.303	490.97
181.522	305.13
181.741	261.09
181.96	186.09
182.179	202.96
182.398	209.33
182.618	219.21
182.837	183.14
183.056	148.74
183.275	177.6
183.494	227.12
183.713	210.57
183.932	213.01
184.151	227.46
184.37	244.04
184.589	215.54
184.808	208.88
185.027	198.46
185.246	268.11
185.465	273.05
185.684	276.55
185.903	324.98
186.122	279.08
186.341	277.56
186.56	288.28
186.779	245.1
186.998	232.35
187.216	278.72
187.435	266.66
187.654	254.86
187.873	284.06
188.092	323.55
188.311	244.43
188.53	308.31
188.748	364.57
188.967	765.42
189.186	663.39
189.405	-2382.19
189.623	-48963.89
189.842	-792.95
190.061	-802.65
190.28	-857.76
190.498	-1719.29
190.717	-4457.36
190.936	1389.8
191.154	1418.7
191.373	468.76
191.592	938.23
191.81	291.33
192.029	392.53
192.248	241.91
192.466	202.9
192.685	181.56
192.904	207.7
193.122	196.63
193.341	190.86
193.559	191.64
193.778	216.07
193.996	199.02
194.215	221.53
194.433	201.94
194.652	168.86
194.87	180.1
195.089	192.77
195.307	157.98
195.526	153.53
195.744	179.57
195.963	163.53
196.181	199.94
196.399	221.6
196.618	185.5
196.836	173.85
197.055	203.26
197.273	190.16
197.491	217.74
197.71	252.01
197.928	268.54
198.146	248.19
198.365	318.45
198.583	216.68
198.801	178.66
199.019	199.82
199.238	216.38
199.456	185.21
199.674	191.64
199.892	173.66
200.111	147.08
200.329	139.03
200.547	133.99
200.765	117.73
200.983	109.85
201.202	102.04
201.42	107.1
201.638	100.46
201.856	96.44
202.074	108.58
202.292	117.38
202.51	192.88
202.728	188.44
202.946	176.53
203.165	186.15
203.383	192.63
203.601	195.29
203.819	211.03
204.037	237.12
204.255	271.46
204.473	334.81
204.691	257.29
204.909	219.39
205.127	221.66
205.345	160.86
205.562	165.62
205.78	174.8
205.998	173.28
206.216	153.93
206.434	160.52
206.652	148.26
206.87	145.49
207.088	148.15
207.306	155.05
207.523	156.28
207.741	192.05
207.959	186.37
208.177	151.75
208.395	163
208.612	189.18
208.83	153.48
209.048	142.78
209.266	128.16
209.483	126.11
209.701	122.47
209.919	125.54
210.136	124.25
210.354	138
210.572	156.18
210.79	150.59
211.007	142.35
211.225	164.92
211.442	165.07
211.66	178.54
211.878	202.96
212.095	299.78
212.313	265.88
212.53	283.06
212.748	241.29
212.966	239.4
213.183	238.01
213.401	218.36
213.618	238.07
213.836	302.56
214.053	271.17
214.271	217.68
214.488	139.89
214.705	152.65
214.923	133.12
215.14	131.88
215.358	114.76
215.575	89.86
215.793	112.97
216.01	100.37
216.227	90.8
216.445	93.65
216.662	83.5
216.879	72.03
217.097	47.39
217.314	55.37
217.531	82.9
217.749	91.2
217.966	114.8
218.183	93.43
218.4	94.5
218.618	93.03
218.835	81.93
219.052	81.98
219.269	91.53
219.487	100.71
219.704	98.69
219.921	88.57
220.138	85.58
220.355	76.94
220.572	73.76
220.79	71.42
221.007	73.02
221.224	75.52
221.441	82.76
221.658	79.86
221.875	81.79
222.092	81.15
222.309	69.64
222.526	65.74
222.743	66.55
222.96	65.28
223.177	63.98
223.394	57.29
223.611	52.86
223.828	50.88
224.045	48.4
224.262	44.04
224.479	39.67
224.696	40.21
224.913	39.92
225.13	37.94
225.347	35.32
225.564	31.69
225.781	28.88
225.997	27.79
226.214	23.77
226.431	23.1
226.648	20.91
226.865	20.93
227.082	19.4
227.298	18.49
227.515	17.33
227.732	17.51
227.949	17.92
228.165	17.65
228.382	16.79
228.599	16.21
228.816	15.31
229.032	15.09
229.249	14.98
229.466	16.09
229.682	17.21
229.899	17.17
230.116	16.55
230.332	17.39
230.549	18.65
230.765	19.51
230.982	21.41
231.199	23.15
231.415	24.03
231.632	22.83
231.848	22.63
232.065	20.34
232.281	20.41
232.498	21.17
232.714	22.01
232.931	22.38
233.147	21.95
233.364	21.75
233.58	19.5
233.797	22.43
234.013	22.79
234.23	22.78
234.446	23.44
234.662	23.82
234.879	23.69
235.095	22.03
235.312	21.16
235.528	24.33
235.744	23.7
235.961	25.55
236.177	21.24
236.393	22.28
236.61	22.22
236.826	23.38
237.042	23.01
237.258	21.63
237.475	20.48
237.691	20.46
237.907	17.38
238.123	17.46
238.339	16.76
238.556	17.38
238.772	16.09
238.988	13.1
239.204	12.63
239.42	12.76
239.636	13.19
239.853	12.89
240.069	12.25
240.285	12.57
240.501	11.56
240.717	11.3
240.933	11.3
241.149	11.34
241.365	12.61
241.581	12.14
241.797	11.88
242.013	10.61
242.229	10.85
242.445	11.05
242.661	10.27
242.877	11.36
243.093	11.71
243.309	11.39
243.525	11.84
243.741	11.76
243.957	12.06
244.173	11.35
244.388	11.93
244.604	11.4
244.82	10.99
245.036	10.84
245.252	10.47
245.468	10.07
245.683	9.85
245.899	9.83
246.115	9.13
246.331	8.91
246.547	9.12
246.762	8.96
246.978	8.84
247.194	9.29
247.409	9.37
247.625	9.44
247.841	9.24
248.057	9.62
248.272	9.46
248.488	10.11
248.703	10.27
248.919	10.89
249.135	11.07
249.35	12.14
249.566	11.15
249.782	11.12
249.997	11.19
250.213	10.81
250.428	10.34
250.644	10.05
250.859	10.53
251.075	10.6
251.29	9.93
251.506	10.13
251.721	9.49
251.937	9.78
252.152	10.66
252.368	10.91
252.583	12.17
252.798	12.28
253.014	12.44
253.229	11.05
253.445	11.24
253.66	11.07
253.875	11.93
254.091	12.71
254.306	12.59
254.521	12.1
254.737	10.76
254.952	10.36
255.167	10.36
255.383	9.94
255.598	10.5
255.813	9.55
256.028	9.53
256.244	8.77
256.459	8.2
256.674	8.35
256.889	8.04
257.104	7.63
257.32	7.7
257.535	7.84
257.75	7.85
257.965	7.81
258.18	7.86
258.395	7.64
258.61	7.66
258.826	7.3
259.041	7.3
259.256	7.18
259.471	7.37
259.686	7.15
259.901	6.81
260.116	6.89
260.331	6.57
260.546	6.86
260.761	7.16
260.976	6.82
261.191	7.55
261.406	7.55
261.621	8.45
261.836	8.72
262.05	8.87
262.265	9.09
262.48	9.27
262.695	9.58
262.91	10.27
263.125	10.18
263.34	11.23
263.555	10.98
263.769	10.46
263.984	9.46
264.199	9.5
264.414	9.32
264.629	9.3
264.843	8.82
265.058	9.36
265.273	8.33
265.488	8.52
265.702	7.34
265.917	6.77
266.132	7.32
266.346	7.3
266.561	7.57
266.776	7.82
266.99	8.16
267.205	8.08
267.42	7.61
267.634	7.15
267.849	6.78
268.063	7.4
268.278	8.5
268.492	8.31
268.707	8.23
268.922	8.2
269.136	7.95
269.351	7.67
269.565	7.59
269.78	6.94
269.994	7.82
270.209	7.64
270.423	7.16
270.637	6.66
270.852	6.41
271.066	6.59
271.281	6.32
271.495	6.22
271.709	6.29
271.924	6.33
272.138	7.38
272.353	7.21
272.567	7.71
272.781	8.43
272.996	8.29
273.21	8.34
273.424	8.25
273.638	8.28
273.853	8.64
274.067	8.73
274.281	9.56
274.495	9.11
274.71	9.25
274.924	8.74
275.138	8.28
275.352	8.44
275.566	8.97
275.781	9.14
275.995	9.57
276.209	9.82
276.423	9.83
276.637	9.07
276.851	8.75
277.065	8.27
277.279	8.83
277.493	9.3
277.707	9.26
277.921	8.91
278.135	7.95
278.349	7.48
278.563	6.75
278.777	7
278.991	6.93
279.205	7.14
279.419	7.33
279.633	7.05
279.847	6.76
280.061	6.62
280.275	6.51
280.489	7.78
280.703	8.15
280.917	8.15
281.131	8.01
281.344	8.01
281.558	7.86
281.772	7.46
281.986	7.09
282.2	6.89
282.414	6.78
282.627	6.41
282.841	5.86
283.055	5.67
283.269	6.04
283.482	5.76
283.696	5.67
283.91	5.59
284.123	5.64
284.337	5.89
284.551	5.74
284.764	5.92
284.978	6.19
285.192	5.9
285.405	5.87
285.619	5.93
285.833	6.43
286.046	6.46
286.26	6.7
286.473	6.7
286.687	7.16
286.9	7.18
287.114	7.09
287.327	7.11
287.541	7.54
287.754	7.22
287.968	7.05
288.181	6.46
288.395	6.39
288.608	6.73
288.822	6.74
289.035	6.37
289.248	6.78
289.462	6.95
289.675	6.93
289.889	6.96
290.102	6.99
290.315	7.12
290.529	7.5
290.742	7.69
290.955	7.36
291.169	7.74
291.382	8.07
291.595	8.17
291.808	8.51
292.022	8.68
292.235	8.6
292.448	9.11
292.661	8.7
292.875	8.45
293.088	8.85
293.301	8.98
293.514	8.71
293.727	8.22
293.94	8.02
294.153	7.94
294.367	7.54
294.58	7.37
294.793	6.84
295.006	7.13
295.219	7.03
295.432	6.85
295.645	6.86
295.858	6.83
296.071	6.79
296.284	6.88
296.497	6.94
296.71	7.29
296.923	7.66
297.136	8.05
297.349	8.17
297.562	8.11
297.775	8.29
297.988	8.39
298.201	8.57
298.414	8.64
298.626	8.66
298.839	8.52
299.052	8.53
299.265	8.24
299.478	8.15
299.691	8.15
299.903	8.38
300.116	8.08
300.329	8.04
300.542	8.39
300.755	8.56
300.967	8.7
301.18	8.51
301.393	8.51
301.605	8.56
301.818	8.63
302.031	8.39
302.243	8.43
302.456	8.53
302.669	8.34
302.881	8.41
303.094	8.75
303.307	8.73
303.519	8.52
303.732	8.74
303.944	8.89
304.157	9.22
304.37	9.46
304.582	9.6
304.795	10.06
305.007	10.82
305.22	10.83
305.432	10.74
305.645	10.95
305.857	11.25
306.069	11.07
306.282	10.85
306.494	10.55
306.707	10.25
306.919	10.12
307.132	9.62
307.344	9.35
307.556	9.03
307.769	9.07
307.981	8.56
308.193	8.55
308.406	8.29
308.618	8.36
308.83	8.21
309.043	8.49
309.255	8.52
309.467	8.36
309.679	8.32
309.892	8.42
310.104	8.21
310.316	8.21
310.528	8.18
310.74	8.46
310.953	8.46
311.165	8.24
311.377	8.2
311.589	8.34
311.801	8.46
312.013	8.33
312.225	8.61
312.437	8.85
312.649	9.46
312.862	9.63
313.074	9.16
313.286	9.29
313.498	9.97
313.71	9.62
313.922	9.49
314.134	9.37
314.346	9.26
314.558	9.18
314.77	9.39
314.982	9.28
315.193	9.35
315.405	9.94
315.617	9.89
315.829	9.71
316.041	9.66
316.253	9.88
316.465	10.57
316.677	11.08
316.888	10.96
317.1	10.82
317.312	10.55
317.524	10.62
317.736	10.81
317.947	10.9
318.159	11.35
318.371	12.17
318.583	12.27
318.794	11.91
319.006	11.42
319.218	11.46
319.43	11.08
319.641	11.35
319.853	11.54
320.064	11.5
320.276	11.55
320.488	10.61
320.699	10.68
320.911	10.71
321.123	10.96
321.334	11.14
321.546	11.35
321.757	11.82
321.969	11.68
322.18	11.34
322.392	10.92
322.603	10.92
322.815	11.3
323.026	10.7
323.238	10.37
323.449	10.04
323.661	10.03
323.872	9.73
324.083	9.81
324.295	9.79
324.506	9.5
324.718	9.48
324.929	9.8
325.14	9.89
325.352	10.22
325.563	10.62
325.774	10.7
325.986	10.51
326.197	10.32
326.408	10.22
326.62	9.92
326.831	10.5
327.042	10.87
327.253	10.29
327.464	10.25
327.676	9.87
327.887	9.43
328.098	9.46
328.309	9.75
328.52	10.55
328.732	10.65
328.943	10.9
329.154	11
329.365	10.39
329.576	10.16
329.787	10.51
329.998	11.03
330.209	11.42
330.42	11.52
330.631	11.42
330.842	11.06
331.053	10.89
331.264	10.82
331.475	10.94
331.686	11.35
331.897	11.77
332.108	11.88
332.319	11.36
332.53	11.27
332.741	11.11
332.952	11.07
333.163	10.84
333.374	10.79
333.585	10.63
333.795	10.27
334.006	10.55
334.217	10.48
334.428	10.19
334.639	10.36
334.849	9.84
335.06	9.72
335.271	9.27
335.482	9.48
335.692	9.51
335.903	9.78
336.114	9.57
336.325	9.21
336.535	9.73
336.746	9.67
336.957	9.97
337.167	10.31
337.378	10.45
337.589	10.89
337.799	11.01
338.01	11.14
338.22	10.82
338.431	10.66
338.642	10.86
338.852	10.09
339.063	9.96
339.273	9.55
339.484	9.71
339.694	9.54
339.905	9.94
340.115	9.59
340.326	9.38
340.536	9.75
340.746	10.06
340.957	9.95
341.167	10.12
341.378	10.11
341.588	10.26
341.799	10.04
342.009	10.27
342.219	9.81
342.43	9.92
342.64	9.96
342.85	9.94
343.061	10.03
343.271	10.23
343.481	10.02
343.691	9.86
343.902	9.94
344.112	9.99
344.322	9.78
344.532	9.69
344.743	9.48
344.953	9.46
345.163	9.14
345.373	9
345.583	8.92
345.793	8.77
346.004	8.86
346.214	8.92
346.424	8.83
346.634	8.8
346.844	8.51
347.054	8.49
347.264	8.4
347.474	8.77
347.684	8.89
347.894	8.6
348.104	8.8
348.314	8.47
348.524	7.93
348.734	7.72
348.944	7.55
349.154	7.91
349.364	8.01
349.574	7.76
349.784	7.37
349.994	7.4
350.204	7.35
350.413	7.35
350.623	7.53
350.833	7.73
351.043	7.99
351.253	8.34
351.463	7.68
351.672	7.79
351.882	7.84
352.092	8.14
352.302	7.97
352.511	8.17
352.721	8.03
352.931	8.17
353.141	8.48
353.35	8.73
353.56	8.69
353.77	9.25
353.979	9.12
354.189	9.26
354.399	9.1
354.608	8.76
354.818	8.55
355.027	8.68
355.237	8.64
355.447	8.23
355.656	7.75
355.866	7.72
356.075	7.67
356.285	7.58
356.494	7.57
356.704	7.29
356.913	7.3
357.123	7.31
357.332	7.09
357.542	7.05
357.751	6.97
357.96	7.19
358.17	6.76
358.379	6.82
358.589	6.54
358.798	6.32
359.007	6.42
359.217	6.57
359.426	6.3
359.635	6.7
359.845	6.6
360.054	6.73
360.263	6.78
360.472	7.03
360.682	6.78
360.891	7.02
361.1	6.97
361.309	7.15
361.519	7.27
361.728	7.59
361.937	7.38
362.146	7.45
362.355	7.63
362.564	7.65
362.774	7.69
362.983	7.62
363.192	7.43
363.401	7.61
363.61	7.36
363.819	7.37
364.028	7.26
364.237	7.25
364.446	7.25
364.655	7.06
364.864	6.87
365.073	6.75
365.282	7.11
365.491	7.21
365.7	7.06
365.909	7.38
366.118	7.37
366.327	7.24
366.536	7.3
366.745	7.53
366.954	7.53
367.162	7.64
367.371	7.67
367.58	7.63
367.789	7.59
367.998	7.47
368.207	7.29
368.415	7.05
368.624	7.4
368.833	7.42
369.042	7.14
369.25	7.3
369.459	7.23
369.668	7.14
369.877	6.87
370.085	6.95
370.294	7.05
370.503	7.07
370.711	7.37
370.92	7.24
371.129	7.19
371.337	7.2
371.546	7.01
371.754	7.02
371.963	7.01
372.171	7.27
372.38	7.19
372.589	7.27
372.797	7.41
373.006	7.07
373.214	6.89
373.423	6.94
373.631	7.04
373.84	7.06
374.048	6.85
374.256	6.86
374.465	6.95
374.673	6.9
374.882	7.03
375.09	6.95
375.298	7.03
375.507	7.01
375.715	6.84
375.923	6.56
376.132	6.44
376.34	6.4
376.548	6.38
376.757	6.15
376.965	6.35
377.173	6.2
377.381	6.12
377.59	6
377.798	6.01
378.006	6.08
378.214	6.27
378.423	6.49
378.631	6.46
378.839	6.57
379.047	6.8
379.255	6.6
379.463	6.71
379.671	6.51
379.879	6.53
380.088	6.73
380.296	6.51
380.504	6.51
380.712	6.34
380.92	6.48
381.128	6.52
381.336	6.08
381.544	6.21
381.752	6.21
381.96	6.24
382.168	6.05
382.376	5.92
382.584	6.1
382.791	5.99
382.999	6.06
383.207	5.93
383.415	6.08
383.623	6.28
383.831	6.14
384.039	5.89
384.247	6.04
384.454	6.35
384.662	6.21
384.87	6.19
385.078	6.38
385.285	6.22
385.493	6.5
385.701	6.18
385.909	6.23
386.116	6.23
386.324	6.48
386.532	6.44
386.739	6.2
386.947	6.29
387.155	6.3
387.362	6.14
387.57	6.15
387.778	5.95
387.985	6.06
388.193	6.07
388.4	6.1
388.608	6.15
388.816	6.18
389.023	6.23
389.231	6.22
389.438	6.01
389.646	6.15
389.853	6.27
390.061	6.24
390.268	6.18
390.475	6.08
390.683	6.17
390.89	6.07
391.098	6.05
391.305	5.97
391.512	5.78
391.72	5.87
391.927	5.71
392.135	5.79
392.342	5.71
392.549	5.66
392.756	5.56
392.964	5.47
393.171	5.5
393.378	5.44
393.586	5.37
393.793	5.51
394	5.45
394.207	5.46
394.414	5.3
394.622	5.37
394.829	5.52
395.036	5.56
395.243	5.47
395.45	5.52
395.657	5.49
395.864	5.47
396.072	5.51
396.279	5.46
396.486	5.45
396.693	5.49
396.9	5.51
397.107	5.44
397.314	5.58
397.521	5.68
397.728	5.4
397.935	5.43
398.142	5.55
398.349	5.56
398.556	5.52
398.763	5.43
398.97	5.53
399.177	5.36
399.383	5.27
399.59	5.07
399.797	5
400.004	5.18
400.211	5.06
400.418	5.16
400.625	4.97
400.831	5.16
401.038	5.28
401.245	4.98
401.452	4.99
401.658	4.97
401.865	5.06
402.072	5.05
402.279	5.13
402.485	5.07
402.692	4.95
402.899	4.91
403.105	4.81
403.312	4.87
403.519	4.91
403.725	4.94
403.932	5.03
404.138	4.94
404.345	4.98
404.552	4.76
404.758	4.88
404.965	4.93
405.171	4.85
405.378	4.8
405.584	4.74
405.791	4.86
405.997	4.93
406.204	5.04
406.41	5.16
406.617	5.14
406.823	5.24
407.029	5.24
407.236	5.18
407.442	5.44
407.649	5.49
407.855	5.37
408.061	5.27
408.268	5.23
408.474	5.02
408.68	4.91
408.887	4.94
409.093	4.96
409.299	4.89
409.505	4.71
409.712	4.64
409.918	4.57
410.124	4.54
410.33	4.46
410.537	4.38
410.743	4.43
410.949	4.45
411.155	4.47
411.361	4.42
411.567	4.36
411.773	4.47
411.98	4.49
412.186	4.68
412.392	4.62
412.598	4.78
412.804	4.84
413.01	4.76
413.216	4.64
413.422	4.63
413.628	4.53
413.834	4.63
414.04	4.57
414.246	4.49
414.452	4.45
414.658	4.5
414.864	4.37
415.07	4.31
415.275	4.43
415.481	4.47
415.687	4.46
415.893	4.51
416.099	4.36
416.305	4.51
416.511	4.48
416.716	4.42
416.922	4.4
417.128	4.5
417.334	4.54
417.539	4.47
417.745	4.44
417.951	4.38
418.157	4.34
418.362	4.4
418.568	4.31
418.774	4.35
418.979	4.41
419.185	4.39
419.391	4.34
419.596	4.24
419.802	4.15
420.008	4.19
420.213	4.35
420.419	4.41
420.624	4.46
420.83	4.45
421.035	4.44
421.241	4.44
421.446	4.48
421.652	4.48
421.857	4.5
422.063	4.49
422.268	4.43
422.474	4.2
422.679	4.17
422.885	4.06
423.09	4.04
423.295	3.97
423.501	3.94
423.706	3.89
423.911	3.85
424.117	3.96
424.322	4.1
424.527	4.15
424.733	4.23
424.938	4.2
425.143	4.28
425.349	4.28
425.554	4.29
425.759	4.28
425.964	4.37
426.169	4.37
426.375	4.27
426.58	4.17
426.785	4.23
426.99	4.3
427.195	4.37
427.4	4.38
427.605	4.5
427.811	4.58
428.016	4.59
428.221	4.57
428.426	4.58
428.631	4.51
428.836	4.48
429.041	4.49
429.246	4.34
429.451	4.38
429.656	4.36
429.861	4.32
430.066	4.34
430.271	4.28
430.476	4.2
430.681	4.24
430.886	4.29
431.09	4.35
431.295	4.29
431.5	4.3
431.705	4.21
431.91	4.16
432.115	4.06
432.32	3.99
432.524	3.94
432.729	4.06
432.934	3.96
433.139	3.99
433.343	3.97
433.548	3.89
433.753	3.94
433.958	4.03
434.162	4.11
434.367	4.29
434.572	4.34
434.776	4.33
434.981	4.22
435.186	4.21
435.39	4.18
435.595	4.25
435.799	4.27
436.004	4.17
436.209	4.07
436.413	4
436.618	3.86
436.822	3.75
437.027	3.71
437.231	3.7
437.436	3.76
437.64	3.74
437.845	3.58
438.049	3.57
438.253	3.59
438.458	3.66
438.662	3.65
438.867	3.76
439.071	3.91
439.275	3.95
439.48	3.93
439.684	3.89
439.888	3.92
440.093	4
440.297	4
440.501	4
440.706	3.91
440.91	4
441.114	3.81
441.318	3.76
441.523	3.84
441.727	3.8
441.931	3.84
442.135	3.83
442.339	3.79
442.543	3.87
442.748	3.89
442.952	4
443.156	3.88
443.36	3.93
443.564	3.92
443.768	3.88
443.972	3.91
444.176	3.85
444.38	3.81
444.584	3.86
444.788	3.84
444.992	3.8
445.196	3.72
445.4	3.73
445.604	3.64
445.808	3.61
446.012	3.54
446.216	3.52
446.42	3.6
446.624	3.59
446.828	3.57
447.032	3.51
447.235	3.45
447.439	3.45
447.643	3.55
447.847	3.68
448.051	3.77
448.254	3.86
448.458	4.02
448.662	4.05
448.866	4.07
449.069	4.09
449.273	4.15
449.477	4.24
449.681	4.27
449.884	4.23
450.088	4.28
450.292	4.16
450.495	4.07
450.699	4.02
450.902	3.96
451.106	3.91
451.31	3.95
451.513	3.9
451.717	3.85
451.92	3.84
452.124	3.9
452.327	3.82
452.531	3.79
452.734	3.89
452.938	3.83
453.141	3.79
453.345	3.86
453.548	3.71
453.752	3.77
453.955	3.86
454.158	3.86
454.362	3.79
454.565	3.81
454.769	3.95
454.972	3.91
455.175	3.94
455.379	4
455.582	3.96
455.785	3.91
455.988	3.87
456.192	3.7
456.395	3.66
456.598	3.52
456.801	3.62
457.005	3.59
457.208	3.65
457.411	3.59
457.614	3.55
457.817	3.52
458.021	3.49
458.224	3.57
458.427	3.69
458.63	3.74
458.833	3.74
459.036	3.7
459.239	3.63
459.442	3.52
459.645	3.49
459.848	3.52
460.051	3.55
460.254	3.63
460.457	3.53
460.66	3.49
460.863	3.55
461.066	3.68
461.269	3.62
461.472	3.7
461.675	3.74
461.878	3.92
462.081	3.91
462.284	3.89
462.486	3.91
462.689	3.91
462.892	3.96
463.095	3.79
463.298	3.78
463.5	3.8
463.703	3.77
463.906	3.86
464.109	3.64
464.311	3.66
464.514	3.83
464.717	3.95
464.92	3.93
465.122	3.93
465.325	4.02
465.528	4.06
465.73	4.12
465.933	4.16
466.135	4.18
466.338	4.23
466.541	4.2
466.743	4.07
