Data from 2938546_Reflection_1.txt Node
Date: Mon Jun 15 00:21:27 EDT 2015
User: robert
Spectrometer: USB4E03002
Autoset integration time: false
Trigger mode: 4
Integration Time (sec): 1.000000E-1
Scans to average: 10
Electric dark correction enabled: true
Nonlinearity correction enabled: false
Boxcar width: 5
Stray light correction enabled: false
XAxis mode: Wavelengths
Stop averaging: false
Number of Pixels in Spectrum: 3648
>>>>>Begin Spectral Data<<<<<
177.575	-48.55
177.794	-81.52
178.014	-112.48
178.233	-44.27
178.452	-47.33
178.672	-54.22
178.891	-29.41
179.11	-18.09
179.33	-183.75
179.549	-24.81
179.768	-43.79
179.987	-68.52
180.207	-110.36
180.426	-300.82
180.645	-160.99
180.864	-297.44
181.084	-246.83
181.303	-882.97
181.522	787.5
181.741	-592.77
181.96	3786.98
182.179	305.2
182.398	571.48
182.618	363.46
182.837	-5291.78
183.056	-662.69
183.275	-309.57
183.494	1683.41
183.713	-472.68
183.932	351.9
184.151	278.31
184.37	232.25
184.589	316.59
184.808	265.04
185.027	233.12
185.246	172.35
185.465	189.89
185.684	166.55
185.903	191.34
186.122	174.36
186.341	485.71
186.56	429.73
186.779	-10.39
186.998	-14.1
187.216	-8.64
187.435	-16.24
187.654	6.01
187.873	-3.79
188.092	-27.95
188.311	9.63
188.53	8.31
188.748	6.67
188.967	-2.63
189.186	-47.76
189.405	-53.09
189.623	-64.59
189.842	-35.81
190.061	-50.39
190.28	-82.11
190.498	-114.98
190.717	-164.83
190.936	-675.29
191.154	-755.96
191.373	-5853.33
191.592	-910.89
191.81	275.6
192.029	221.94
192.248	270.65
192.466	231.3
192.685	195.09
192.904	133.83
193.122	152.9
193.341	238.37
193.559	256.2
193.778	254.62
193.996	134.2
194.215	222.09
194.433	137.91
194.652	73.61
194.87	28.48
195.089	329.38
195.307	75.22
195.526	194.2
195.744	1903.01
195.963	-201.9
196.181	-397.56
196.399	-119.91
196.618	105.17
196.836	1004.47
197.055	220.61
197.273	575.27
197.491	172.24
197.71	125.44
197.928	128.4
198.146	169.73
198.365	358
198.583	540.23
198.801	-1265.1
199.019	1193.32
199.238	-22158.62
199.456	-151.61
199.674	-778.32
199.892	-983.42
200.111	-95.32
200.329	-154.09
200.547	-387.93
200.765	-1685.67
200.983	-419.94
201.202	-1420.79
201.42	-809.06
201.638	-232.79
201.856	404
202.074	874.62
202.292	-315.21
202.51	-254.21
202.728	-284.43
202.946	554.67
203.165	199.68
203.383	228.41
203.601	139.72
203.819	199.82
204.037	143.21
204.255	150.07
204.473	138.3
204.691	122.8
204.909	103.47
205.127	103.06
205.345	94.43
205.562	93.21
205.78	68.47
205.998	58.62
206.216	-125.74
206.434	-1174.02
206.652	232.81
206.87	85.63
207.088	139.64
207.306	90.64
207.523	34.22
207.741	-26.66
207.959	-64.65
208.177	-1939.16
208.395	-388.29
208.612	-428.49
208.83	1131.44
209.048	472.6
209.266	288.43
209.483	225.55
209.701	182.12
209.919	133.74
210.136	115.14
210.354	132.76
210.572	118.43
210.79	95.89
211.007	98.99
211.225	123.04
211.442	135.05
211.66	233.4
211.878	300.52
212.095	535.82
212.313	336.32
212.53	355.01
212.748	278.24
212.966	269.76
213.183	231.86
213.401	216.05
213.618	226.52
213.836	184.75
214.053	186.7
214.271	193.21
214.488	41.49
214.705	58.04
214.923	101.81
215.14	105.41
215.358	108.64
215.575	115.68
215.793	103.35
216.01	77.14
216.227	85.36
216.445	63.84
216.662	71.82
216.879	100.1
217.097	86.27
217.314	76.57
217.531	68.98
217.749	73.05
217.966	73.78
218.183	71.56
218.4	63.99
218.618	68.19
218.835	79.36
219.052	57.59
219.269	50.22
219.487	47.35
219.704	38.85
219.921	39.76
220.138	25.95
220.355	12.18
220.572	7.89
220.79	21.94
221.007	15.8
221.224	-8.01
221.441	9.78
221.658	16.56
221.875	6.75
222.092	8.2
222.309	3.13
222.526	10.8
222.743	7.3
222.96	7.07
223.177	-0.59
223.394	5.79
223.611	12.84
223.828	10.07
224.045	9.43
224.262	13.22
224.479	11.9
224.696	14.79
224.913	13.06
225.13	12.21
225.347	12.25
225.564	14.38
225.781	11.07
225.997	10.18
226.214	10.39
226.431	9.69
226.648	9.27
226.865	10.23
227.082	8.45
227.298	9.1
227.515	9.4
227.732	9.02
227.949	9.3
228.165	10.01
228.382	10.58
228.599	10.46
228.816	9.76
229.032	9.89
229.249	9.86
229.466	10.31
229.682	11.3
229.899	12.64
230.116	13.36
230.332	11.7
230.549	9.54
230.765	7.26
230.982	8.34
231.199	7.82
231.415	8.43
231.632	8.25
231.848	10.25
232.065	9.78
232.281	9.46
232.498	7.79
232.714	8.56
232.931	10.97
233.147	12.55
233.364	11.18
233.58	13.63
233.797	13.43
234.013	14.4
234.23	14.2
234.446	13.36
234.662	14.68
234.879	17.06
235.095	17.1
235.312	18.75
235.528	18.85
235.744	18.03
235.961	17.15
236.177	18.44
236.393	16.54
236.61	18.39
236.826	17.98
237.042	15.63
237.258	15.86
237.475	15.9
237.691	13.64
237.907	10.77
238.123	12.61
238.339	11.59
238.556	10.29
238.772	10.46
238.988	10.07
239.204	8.78
239.42	9.23
239.636	8.2
239.853	9.71
240.069	9.9
240.285	10.52
240.501	10.21
240.717	10.04
240.933	10.44
241.149	10.01
241.365	9.46
241.581	10.3
241.797	10.42
242.013	10.93
242.229	10.19
242.445	10.21
242.661	10.51
242.877	10.45
243.093	10.42
243.309	10.93
243.525	10.9
243.741	10.95
243.957	9.83
244.173	9.21
244.388	9.3
244.604	9.06
244.82	9.32
245.036	8.88
245.252	8.72
245.468	8.79
245.683	8.15
245.899	7.99
246.115	7.63
246.331	7.8
246.547	7.61
246.762	7.41
246.978	7.62
247.194	7.49
247.409	8.01
247.625	8.04
247.841	8.32
248.057	9.05
248.272	9.77
248.488	9.56
248.703	9.95
248.919	10.89
249.135	10.74
249.35	9.96
249.566	9.46
249.782	9.04
249.997	8.37
250.213	7.21
250.428	6.88
250.644	6.93
250.859	7.49
251.075	7.44
251.29	7.34
251.506	7.38
251.721	7.77
251.937	7.56
252.152	7.49
252.368	8.07
252.583	8.53
252.798	7.72
253.014	7.37
253.229	6.51
253.445	6.28
253.66	6.22
253.875	6.71
254.091	7.16
254.306	7.96
254.521	8.31
254.737	8.8
254.952	8.39
255.167	9.54
255.383	9.59
255.598	9.49
255.813	8.71
256.028	8.93
256.244	8.19
256.459	7.47
256.674	7.03
256.889	6.85
257.104	6.54
257.32	7.19
257.535	6.61
257.75	6.74
257.965	6.76
258.18	7.18
258.395	6.86
258.61	6.95
258.826	6.79
259.041	6.83
259.256	6.81
259.471	6.97
259.686	6.75
259.901	7.16
260.116	6.99
260.331	7.43
260.546	7.17
260.761	7.62
260.976	7.7
261.191	7.94
261.406	8.13
261.621	8.08
261.836	7.92
262.05	8.25
262.265	8.42
262.48	8.61
262.695	8.03
262.91	7.66
263.125	7.16
263.34	7.46
263.555	7.67
263.769	8.15
263.984	7.32
264.199	7.2
264.414	6.75
264.629	6.62
264.843	6.08
265.058	6.31
265.273	6.53
265.488	6.21
265.702	5.79
265.917	5.81
266.132	5.55
266.346	6.13
266.561	5.79
266.776	5.97
266.99	6.04
267.205	6.79
267.42	7.05
267.634	7.48
267.849	7.92
268.063	7.87
268.278	7.91
268.492	7.27
268.707	6.9
268.922	7.81
269.136	7.57
269.351	7.01
269.565	6.35
269.78	6.32
269.994	6.06
270.209	6.02
270.423	6.07
270.637	5.7
270.852	5.93
271.066	6.03
271.281	5.58
271.495	5.77
271.709	6.18
271.924	6.31
272.138	6
272.353	6.19
272.567	6.25
272.781	6.34
272.996	6.31
273.21	6.52
273.424	6.66
273.638	6.49
273.853	6.65
274.067	6.23
274.281	6.46
274.495	6.3
274.71	5.82
274.924	5.68
275.138	5.5
275.352	5.67
275.566	5.68
275.781	5.61
275.995	6.04
276.209	5.5
276.423	5.77
276.637	5.95
276.851	6.21
277.065	6.52
277.279	6.51
277.493	6.5
277.707	6.51
277.921	6.71
278.135	6.97
278.349	6.21
278.563	6.19
278.777	6.56
278.991	6.15
279.205	6.04
279.419	5.79
279.633	6.03
279.847	6
280.061	6.27
280.275	6.12
280.489	5.89
280.703	6.37
280.917	6.66
281.131	5.88
281.344	6.18
281.558	6.35
281.772	6.36
281.986	6.43
282.2	6.41
282.414	6.55
282.627	6.29
282.841	6.16
283.055	6
283.269	5.49
283.482	5.95
283.696	5.57
283.91	5.41
284.123	5.71
284.337	5.28
284.551	5.46
284.764	5.33
284.978	5.13
285.192	5.3
285.405	5.19
285.619	5.19
285.833	4.53
286.046	4.45
286.26	4.74
286.473	4.5
286.687	4.53
286.9	4.2
287.114	4.19
287.327	4.53
287.541	4.27
287.754	4.52
287.968	4.81
288.181	5.25
288.395	5.26
288.608	4.91
288.822	4.85
289.035	4.71
289.248	4.92
289.462	4.74
289.675	4.87
289.889	5.18
290.102	4.73
290.315	5.01
290.529	5.04
290.742	5.38
290.955	5.42
291.169	5.25
291.382	5.62
291.595	5.37
291.808	5.37
292.022	5.42
292.235	5.46
292.448	5.53
292.661	5.54
292.875	5.46
293.088	5.25
293.301	5.29
293.514	5.49
293.727	5.63
293.94	5.7
294.153	5.86
294.367	5.26
294.58	5.25
294.793	4.99
295.006	4.64
295.219	4.43
295.432	4.61
295.645	4.94
295.858	4.89
296.071	4.71
296.284	4.7
296.497	4.69
296.71	4.78
296.923	5.09
297.136	5.19
297.349	5.53
297.562	5.78
297.775	5.72
297.988	5.52
298.201	5.59
298.414	5.5
298.626	5.7
298.839	5.87
299.052	6.18
299.265	5.99
299.478	6.77
299.691	6.44
299.903	6.45
300.116	6.63
300.329	6.62
300.542	6.62
300.755	6.77
300.967	6.77
301.18	6.36
301.393	5.96
301.605	5.5
301.818	5
302.031	4.97
302.243	5.31
302.456	5.29
302.669	5.35
302.881	5.72
303.094	5.84
303.307	5.69
303.519	6.27
303.732	6.72
303.944	7.04
304.157	7.27
304.37	7.61
304.582	7.13
304.795	7.06
305.007	6.84
305.22	6.77
305.432	6.81
305.645	6.76
305.857	6.37
306.069	6.44
306.282	6.7
306.494	6.6
306.707	6.54
306.919	6.62
307.132	6.4
307.344	6.71
307.556	6.74
307.769	6.52
307.981	6.25
308.193	6.12
308.406	6.25
308.618	5.78
308.83	5.83
309.043	5.73
309.255	5.63
309.467	5.4
309.679	5.45
309.892	5.06
310.104	4.96
310.316	5.38
310.528	5.16
310.74	5.12
310.953	5.34
311.165	5.1
311.377	5.24
311.589	5.62
311.801	5.76
312.013	5.5
312.225	5.35
312.437	5.58
312.649	5.53
312.862	6.07
313.074	5.84
313.286	5.54
313.498	6.03
313.71	5.71
313.922	5.41
314.134	5.42
314.346	5.55
314.558	5.82
314.77	5.78
314.982	5.71
315.193	5.73
315.405	5.76
315.617	5.83
315.829	5.62
316.041	5.74
316.253	5.75
316.465	5.8
316.677	5.51
316.888	5.39
317.1	5.05
317.312	4.94
317.524	4.55
317.736	4.5
317.947	4.7
318.159	4.73
318.371	4.65
318.583	4.21
318.794	4.27
319.006	4.11
319.218	4.26
319.43	4.7
319.641	4.89
319.853	5.05
320.064	5.08
320.276	4.81
320.488	5.12
320.699	5.68
320.911	5.96
321.123	6.39
321.334	6.53
321.546	6.78
321.757	6.91
321.969	7.06
322.18	6.85
322.392	6.71
322.603	7.05
322.815	6.58
323.026	6.58
323.238	6.78
323.449	6.95
323.661	7.11
323.872	6.83
324.083	6.87
324.295	6.86
324.506	7.32
324.718	7.3
324.929	7.15
325.14	7.42
325.352	7.33
325.563	7.56
325.774	7.27
325.986	7.17
326.197	7.61
326.408	7.93
326.62	7.91
326.831	7.84
327.042	7.88
327.253	7.91
327.464	7.82
327.676	7.61
327.887	7.27
328.098	7.05
328.309	6.68
328.52	6.36
328.732	6.11
328.943	5.77
329.154	5.91
329.365	6.46
329.576	6.26
329.787	6.66
329.998	6.62
330.209	7.12
330.42	7.36
330.631	7.73
330.842	8.02
331.053	7.9
331.264	7.98
331.475	7.86
331.686	7.87
331.897	7.97
332.108	6.97
332.319	7.23
332.53	7.06
332.741	7.03
332.952	6.67
333.163	6.47
333.374	6.35
333.585	6.35
333.795	6.33
334.006	6.08
334.217	6.39
334.428	7.08
334.639	7.18
334.849	6.79
335.06	6.52
335.271	6.76
335.482	6.79
335.692	6.82
335.903	6.83
336.114	6.71
336.325	6.74
336.535	6.99
336.746	7.27
336.957	6.87
337.167	7.2
337.378	7.63
337.589	7.85
337.799	7.6
338.01	7.77
338.22	8.02
338.431	7.66
338.642	7.28
338.852	6.97
339.063	6.59
339.273	6.85
339.484	6.88
339.694	6.66
339.905	6.71
340.115	7.1
340.326	7.08
340.536	6.76
340.746	7.12
340.957	7.63
341.167	7.69
341.378	7.7
341.588	7.56
341.799	7.39
342.009	7.73
342.219	7.79
342.43	8.06
342.64	7.82
342.85	7.79
343.061	7.6
343.271	7.4
343.481	7.16
343.691	7.12
343.902	7.36
344.112	7.39
344.322	7.06
344.532	7.02
344.743	6.92
344.953	7.29
345.163	7.51
345.373	7.59
345.583	7.37
345.793	7.29
346.004	7.01
346.214	6.52
346.424	6.74
346.634	6.98
346.844	6.84
347.054	6.63
347.264	6.19
347.474	6.33
347.684	6.73
347.894	6.95
348.104	6.91
348.314	7.04
348.524	7.55
348.734	7.21
348.944	6.7
349.154	7.15
349.364	6.82
349.574	6.95
349.784	6.79
349.994	6.43
350.204	6.44
350.413	6.44
350.623	6.49
350.833	6.07
351.043	6.03
351.253	6.22
351.463	5.79
351.672	6.06
351.882	6.2
352.092	6.29
352.302	6.2
352.511	5.96
352.721	6.13
352.931	6.29
353.141	6.35
353.35	6.54
353.56	6.92
353.77	6.7
353.979	6.39
354.189	6.45
354.399	6.62
354.608	6.7
354.818	7.19
355.027	7.06
355.237	6.93
355.447	6.72
355.656	6.45
355.866	5.97
356.075	5.9
356.285	6.12
356.494	6.03
356.704	5.59
356.913	5.5
357.123	5.32
357.332	5.12
357.542	5.17
357.751	5.38
357.96	5.56
358.17	5.82
358.379	5.95
358.589	5.81
358.798	5.61
359.007	5.57
359.217	5.61
359.426	5.24
359.635	5.42
359.845	5.28
360.054	5.27
360.263	5.38
360.472	5.1
360.682	5.11
360.891	5.3
361.1	5.14
361.309	5.08
361.519	4.98
361.728	5.34
361.937	5.48
362.146	5.76
362.355	5.76
362.564	5.45
362.774	5.62
362.983	5.57
363.192	5.56
363.401	5.87
363.61	6
363.819	6.05
364.028	6.02
364.237	5.86
364.446	5.41
364.655	5.32
364.864	5.65
365.073	5.72
365.282	5.83
365.491	5.61
365.7	5.39
365.909	5.42
366.118	5.34
366.327	5.25
366.536	5.42
366.745	5.58
366.954	5.73
367.162	5.54
367.371	5.65
367.58	5.37
367.789	5.31
367.998	5.47
368.207	5.5
368.415	5.38
368.624	5.35
368.833	4.87
369.042	4.96
369.25	4.9
369.459	4.98
369.668	4.91
369.877	4.98
370.085	5.19
370.294	5.16
370.503	5.09
370.711	5.23
370.92	5.17
371.129	5.51
371.337	5.39
371.546	5.17
371.754	5.2
371.963	5.1
372.171	5.04
372.38	4.66
372.589	4.6
372.797	4.51
373.006	4.6
373.214	4.75
373.423	4.86
373.631	4.66
373.84	4.64
374.048	4.32
374.256	4.4
374.465	4.62
374.673	4.68
374.882	4.83
375.09	4.81
375.298	4.71
375.507	4.63
375.715	4.52
375.923	4.59
376.132	4.85
376.34	5.19
376.548	5.12
376.757	5.04
376.965	5.2
377.173	5
377.381	4.96
377.59	5.08
377.798	4.74
378.006	4.62
378.214	4.73
378.423	4.8
378.631	4.52
378.839	4.17
379.047	4.01
379.255	4.06
379.463	4.22
379.671	4.3
379.879	4.18
380.088	4.21
380.296	4.07
380.504	4.19
380.712	4.26
380.92	4.35
381.128	4.45
381.336	4.46
381.544	4.24
381.752	4.17
381.96	4.37
382.168	4.26
382.376	4.37
382.584	4.66
382.791	4.52
382.999	4.33
383.207	4.27
383.415	4.54
383.623	4.71
383.831	4.92
384.039	4.96
384.247	4.87
384.454	5.21
384.662	5.16
384.87	4.98
385.078	4.94
385.285	4.83
385.493	4.89
385.701	4.76
385.909	4.74
386.116	4.49
386.324	4.25
386.532	4.15
386.739	3.77
386.947	3.8
387.155	3.78
387.362	3.92
387.57	3.78
387.778	3.55
387.985	3.34
388.193	3.29
388.4	3.29
388.608	3.49
388.816	3.41
389.023	3.63
389.231	3.76
389.438	3.6
389.646	3.4
389.853	3.43
390.061	3.54
390.268	3.88
390.475	3.91
390.683	3.92
390.89	3.79
391.098	3.85
391.305	3.81
391.512	3.82
391.72	3.93
391.927	3.85
392.135	4.02
392.342	4.11
392.549	4.04
392.756	4.01
392.964	4.01
393.171	3.93
393.378	3.85
393.586	3.75
393.793	3.75
394	3.85
394.207	3.95
394.414	3.86
394.622	3.77
394.829	3.66
395.036	3.54
395.243	3.54
395.45	3.69
395.657	3.79
395.864	3.81
396.072	3.74
396.279	3.71
396.486	3.83
396.693	3.72
396.9	3.72
397.107	3.7
397.314	3.65
397.521	3.65
397.728	3.48
397.935	3.6
398.142	3.73
398.349	3.79
398.556	3.65
398.763	3.53
398.97	3.59
399.177	3.51
399.383	3.43
399.59	3.52
399.797	3.62
400.004	3.62
400.211	3.4
400.418	3.18
400.625	3.07
400.831	3.23
401.038	3.42
401.245	3.43
401.452	3.35
401.658	3.45
401.865	3.56
402.072	3.52
402.279	3.62
402.485	3.5
402.692	3.44
402.899	3.45
403.105	3.27
403.312	3.03
403.519	3.09
403.725	3.18
403.932	3.19
404.138	3
404.345	3.02
404.552	3.12
404.758	3.38
404.965	3.46
405.171	3.49
405.378	3.53
405.584	3.55
405.791	3.48
405.997	3.37
406.204	3.23
406.41	3.39
406.617	3.44
406.823	3.27
407.029	3.32
407.236	3.32
407.442	3.35
407.649	3.28
407.855	3.49
408.061	3.37
408.268	3.59
408.474	3.57
408.68	3.55
408.887	3.43
409.093	3.4
409.299	3.31
409.505	3.35
409.712	3.34
409.918	3.38
410.124	3.25
410.33	3.26
410.537	3.23
410.743	3.41
410.949	3.34
411.155	3.27
411.361	3.24
411.567	3.19
411.773	3.01
411.98	2.92
412.186	3.07
412.392	3
412.598	3.12
412.804	2.98
413.01	2.77
413.216	2.84
413.422	2.8
413.628	2.71
413.834	2.67
414.04	2.88
414.246	2.9
414.452	2.9
414.658	2.91
414.864	2.96
415.07	3.08
415.275	3.08
415.481	3.1
415.687	3.17
415.893	3.22
416.099	3.26
416.305	3.2
416.511	3.13
416.716	2.96
416.922	2.98
417.128	2.89
417.334	2.85
417.539	2.81
417.745	2.75
417.951	2.72
418.157	2.82
418.362	2.8
418.568	2.71
418.774	2.66
418.979	2.78
419.185	2.77
419.391	2.82
419.596	2.78
419.802	2.88
420.008	2.89
420.213	2.14
420.419	2.03
420.624	2.09
420.83	2.16
421.035	2.19
421.241	2.18
421.446	2.21
421.652	2.15
421.857	2.13
422.063	2.12
422.268	2.14
422.474	2.92
422.679	2.92
422.885	2.83
423.09	2.78
423.295	2.77
423.501	2.7
423.706	2.65
423.911	2.66
424.117	2.7
424.322	2.59
424.527	2.53
424.733	2.44
424.938	2.44
425.143	2.47
425.349	2.5
425.554	2.54
425.759	2.59
425.964	2.65
426.169	2.7
426.375	2.67
426.58	2.75
426.785	2.84
426.99	2.85
427.195	2.9
427.4	2.81
427.605	2.73
427.811	2.77
428.016	2.68
428.221	2.56
428.426	2.46
428.631	2.43
428.836	2.44
429.041	2.44
429.246	2.44
429.451	2.38
429.656	2.39
429.861	2.45
430.066	2.37
430.271	2.45
430.476	2.43
430.681	2.44
430.886	2.42
431.09	2.45
431.295	2.42
431.5	2.47
431.705	2.48
431.91	2.55
432.115	2.48
432.32	2.55
432.524	2.58
432.729	2.64
432.934	2.54
433.139	2.54
433.343	2.53
433.548	2.53
433.753	2.51
433.958	2.53
434.162	2.49
434.367	2.42
434.572	2.39
434.776	2.25
434.981	2.34
435.186	2.4
435.39	2.48
435.595	2.45
435.799	2.46
436.004	2.45
436.209	2.52
436.413	2.55
436.618	2.68
436.822	2.67
437.027	2.72
437.231	2.62
437.436	2.6
437.64	2.52
437.845	2.58
438.049	2.52
438.253	2.46
438.458	2.41
438.662	2.37
438.867	2.41
439.071	2.44
439.275	2.44
439.48	2.44
439.684	2.46
439.888	2.52
440.093	2.5
440.297	2.54
440.501	2.62
440.706	2.66
440.91	2.68
441.114	2.58
441.318	2.57
441.523	2.52
441.727	2.56
441.931	2.64
442.135	2.64
442.339	2.67
442.543	2.65
442.748	2.63
442.952	2.49
443.156	2.5
443.36	2.56
443.564	2.49
443.768	2.51
443.972	2.56
444.176	2.45
444.38	2.43
444.584	2.36
444.788	2.31
444.992	2.33
445.196	2.43
445.4	2.41
445.604	2.38
445.808	2.39
446.012	2.39
446.216	2.3
446.42	2.38
446.624	2.35
446.828	2.39
447.032	2.43
447.235	2.41
447.439	2.32
447.643	2.34
447.847	2.41
448.051	2.36
448.254	2.48
448.458	2.52
448.662	2.49
448.866	2.57
449.069	2.62
449.273	2.6
449.477	2.52
449.681	2.52
449.884	2.51
450.088	2.5
450.292	2.55
450.495	2.53
450.699	2.57
450.902	2.44
451.106	2.33
451.31	2.28
451.513	2.32
451.717	2.32
451.92	2.37
452.124	2.36
452.327	2.28
452.531	2.28
452.734	2.19
452.938	2.15
453.141	2.31
453.345	2.49
453.548	2.41
453.752	2.37
453.955	2.51
454.158	2.5
454.362	2.6
454.565	2.64
454.769	2.78
454.972	2.81
455.175	2.79
455.379	2.73
455.582	2.55
455.785	2.63
455.988	2.62
456.192	2.53
456.395	2.51
456.598	2.51
456.801	2.52
457.005	2.5
457.208	2.46
457.411	2.46
457.614	2.45
457.817	2.5
458.021	2.44
458.224	2.53
458.427	2.52
458.63	2.53
458.833	2.43
459.036	2.41
459.239	2.4
459.442	2.38
459.645	2.41
459.848	2.5
460.051	2.44
460.254	2.57
460.457	2.43
460.66	2.42
460.863	2.44
461.066	2.44
461.269	2.45
461.472	2.34
461.675	2.37
461.878	2.43
462.081	2.32
462.284	2.32
462.486	2.13
462.689	2.19
462.892	2.25
463.095	2.21
463.298	2.27
463.5	2.32
463.703	2.29
463.906	2.38
464.109	2.25
464.311	2.3
464.514	2.35
464.717	2.38
464.92	2.32
465.122	2.3
465.325	2.42
465.528	2.5
465.73	2.46
465.933	2.52
466.135	2.42
466.338	2.44
466.541	2.49
466.743	2.47
466.946	2.51
467.148	2.59
467.351	2.68
467.553	2.5
467.756	2.36
467.958	2.3
468.161	2.28
468.363	2.34
468.566	2.23
468.768	2.17
468.971	2.05
469.173	2
469.375	1.9
