Data from 2938475_Reflection_3.txt Node
Date: Wed Jun 17 13:21:09 EDT 2015
User: robert
Spectrometer: USB4E03002
Autoset integration time: false
Trigger mode: 4
Integration Time (sec): 1.000000E-1
Scans to average: 10
Electric dark correction enabled: true
Nonlinearity correction enabled: false
Boxcar width: 5
Stray light correction enabled: false
XAxis mode: Wavelengths
Stop averaging: false
Number of Pixels in Spectrum: 3648
>>>>>Begin Spectral Data<<<<<
177.575	298.35
177.794	35.3
178.014	67.97
178.233	167.11
178.452	91.95
178.672	175.27
178.891	72.38
179.11	-103.96
179.33	-106.66
179.549	-312.89
179.768	-623.62
179.987	-443.91
180.207	-159.34
180.426	-170.68
180.645	-319.2
180.864	-14.92
181.084	-19.88
181.303	-6.82
181.522	32.06
181.741	57.42
181.96	83.56
182.179	190
182.398	1036.13
182.618	-577.54
182.837	-432.86
183.056	-66.31
183.275	-7.46
183.494	-9.64
183.713	-14.95
183.932	0.54
184.151	-1.11
184.37	0.77
184.589	10.49
184.808	52.54
185.027	53.59
185.246	61.75
185.465	3.13
185.684	37.48
185.903	374.1
186.122	100.16
186.341	90.57
186.56	75.85
186.779	73.32
186.998	183.73
187.216	236.94
187.435	102.83
187.654	64.58
187.873	113.93
188.092	544.87
188.311	244.71
188.53	-81.95
188.748	15.89
188.967	19.24
189.186	-95.16
189.405	-141.01
189.623	-45.92
189.842	21.11
190.061	-13.26
190.28	-2.92
190.498	75.48
190.717	100.63
190.936	141.9
191.154	335.72
191.373	-2797.33
191.592	-865.96
191.81	137.51
192.029	140.46
192.248	128.34
192.466	98.46
192.685	131.88
192.904	457.57
193.122	1141.89
193.341	1872.04
193.559	-136.26
193.778	-79.95
193.996	-77.3
194.215	-25.67
194.433	-84.42
194.652	-98.66
194.87	-155.27
195.089	-172.23
195.307	327.69
195.526	181.32
195.744	121.43
195.963	67.1
196.181	79.08
196.399	70.13
196.618	63.41
196.836	23.05
197.055	16.78
197.273	26.38
197.491	57.6
197.71	46.93
197.928	59.56
198.146	53.82
198.365	64.65
198.583	41.42
198.801	53.98
199.019	79.94
199.238	128.48
199.456	129.34
199.674	127.94
199.892	98.2
200.111	99.49
200.329	134.13
200.547	165.52
200.765	134.19
200.983	146.34
201.202	144.96
201.42	85.12
201.638	97.59
201.856	84.59
202.074	102.05
202.292	172.14
202.51	156.88
202.728	110.5
202.946	78.85
203.165	78.58
203.383	96.4
203.601	57.4
203.819	46.99
204.037	37.89
204.255	31.05
204.473	24.75
204.691	27.27
204.909	12.18
205.127	-23.12
205.345	-34.37
205.562	-49.77
205.78	-142.92
205.998	-99.85
206.216	-11.96
206.434	115.39
206.652	43.07
206.87	41.39
207.088	29.8
207.306	40.57
207.523	61.51
207.741	62.79
207.959	69.67
208.177	73.88
208.395	46.21
208.612	35.99
208.83	26.91
209.048	23.72
209.266	51.44
209.483	8.75
209.701	-43.73
209.919	-81.21
210.136	-126.21
210.354	-34.42
210.572	-123.62
210.79	-57.95
211.007	-93
211.225	-506.95
211.442	-28.56
211.66	-7.34
211.878	-0.38
212.095	9.37
212.313	-2.38
212.53	-10.52
212.748	-31.13
212.966	-14.38
213.183	10.83
213.401	17.89
213.618	16.86
213.836	-12.08
214.053	-26.24
214.271	-27.78
214.488	-28.85
214.705	-14.97
214.923	-4.24
215.14	0.1
215.358	-2.57
215.575	-27.15
215.793	6.27
216.01	16.72
216.227	23.75
216.445	33.66
216.662	32.03
216.879	31.98
217.097	39.04
217.314	35.84
217.531	44.15
217.749	31.03
217.966	33.86
218.183	10.84
218.4	9.93
218.618	9.91
218.835	0.62
219.052	-0.66
219.269	4.16
219.487	3.86
219.704	4.54
219.921	-8.55
220.138	-4.29
220.355	-8.54
220.572	-8.98
220.79	-12.28
221.007	-16.18
221.224	-28.04
221.441	-27.33
221.658	-11.99
221.875	-4.59
222.092	-7.44
222.309	-8.27
222.526	-5.74
222.743	6.75
222.96	12.83
223.177	17.48
223.394	21.97
223.611	19.72
223.828	16.37
224.045	12.77
224.262	8.43
224.479	6.14
224.696	7.12
224.913	11.45
225.13	8.86
225.347	6.65
225.564	8.14
225.781	7.47
225.997	9.66
226.214	9.83
226.431	6.28
226.648	5.62
226.865	6.87
227.082	7.85
227.298	7.05
227.515	7.37
227.732	6.69
227.949	5.52
228.165	4.43
228.382	4.81
228.599	4.49
228.816	4.7
229.032	3.95
229.249	4.78
229.466	3.15
229.682	4.66
229.899	3.18
230.116	4.44
230.332	5.6
230.549	6.91
230.765	6.89
230.982	8.26
231.199	8.41
231.415	12.57
231.632	11.61
231.848	12.37
232.065	9.32
232.281	8.93
232.498	8.71
232.714	5.89
232.931	7.32
233.147	6.25
233.364	5.97
233.58	5.01
233.797	5.15
234.013	7.24
234.23	7.45
234.446	7.95
234.662	9.27
234.879	10.5
235.095	11.58
235.312	10.56
235.528	9.42
235.744	10.88
235.961	12.39
236.177	10.56
236.393	8.63
236.61	9.56
236.826	7.61
237.042	7.32
237.258	7.6
237.475	9.1
237.691	9.83
237.907	10.31
238.123	8.58
238.339	9.6
238.556	8.93
238.772	7.77
238.988	7.56
239.204	8.02
239.42	8.4
239.636	7.63
239.853	6.43
240.069	4.74
240.285	3.9
240.501	3.47
240.717	2.81
240.933	3.2
241.149	3.7
241.365	3.45
241.581	3.62
241.797	2.79
242.013	2.58
242.229	1.99
242.445	3.33
242.661	4.28
242.877	4.75
243.093	4.51
243.309	4.31
243.525	4.4
243.741	4.47
243.957	4.26
244.173	4.28
244.388	4.86
244.604	5.09
244.82	4.37
245.036	3.96
245.252	3.96
245.468	4.4
245.683	4.22
245.899	4.07
246.115	3.93
246.331	4.06
246.547	3.7
246.762	3.49
246.978	3.83
247.194	4.05
247.409	4.43
247.625	4.58
247.841	3.73
248.057	3.78
248.272	3.21
248.488	3.43
248.703	2.9
248.919	3.84
249.135	2.98
249.35	3.05
249.566	2.89
249.782	2.53
249.997	2.9
250.213	3.56
250.428	3.91
250.644	4.39
250.859	3.96
251.075	4.63
251.29	4.62
251.506	5.29
251.721	5.56
251.937	6.04
252.152	6.66
252.368	6.57
252.583	6.54
252.798	6.93
253.014	7.48
253.229	8.19
253.445	8.16
253.66	8.74
253.875	7.77
254.091	7.04
254.306	7.1
254.521	6.37
254.737	4.62
254.952	4.98
255.167	4.2
255.383	3.81
255.598	3.54
255.813	3.01
256.028	2.51
256.244	2.85
256.459	3.37
256.674	2.82
256.889	2.85
257.104	3.05
257.32	3.4
257.535	3.33
257.75	3.6
257.965	3.77
258.18	3.89
258.395	3.92
258.61	4.1
258.826	3.9
259.041	4.34
259.256	4.54
259.471	4.98
259.686	4.55
259.901	4.49
260.116	4.49
260.331	3.91
260.546	3.71
260.761	3.45
260.976	3.27
261.191	2.73
261.406	2
261.621	1.36
261.836	1.2
262.05	1.39
262.265	1.03
262.48	1.33
262.695	1.84
262.91	3
263.125	3.2
263.34	3.31
263.555	3.54
263.769	3.9
263.984	4.81
264.199	4.08
264.414	3.78
264.629	4.47
264.843	3.42
265.058	3.14
265.273	2.46
265.488	1.94
265.702	2.07
265.917	1.97
266.132	1.78
266.346	1.29
266.561	1.41
266.776	2.13
266.99	1.88
267.205	2.34
267.42	2.32
267.634	2.68
267.849	3.42
268.063	3.08
268.278	3.49
268.492	3.52
268.707	3.24
268.922	3.34
269.136	2.88
269.351	2.84
269.565	3.12
269.78	3.57
269.994	3.02
270.209	2.96
270.423	2.73
270.637	3.02
270.852	3.33
271.066	3.16
271.281	3.16
271.495	3.17
271.709	3.07
271.924	2.86
272.138	2.67
272.353	3.01
272.567	2.63
272.781	2.91
272.996	2.53
273.21	2.74
273.424	3.61
273.638	3.76
273.853	3.65
274.067	4.12
274.281	4.38
274.495	4.48
274.71	4.61
274.924	5.19
275.138	5.4
275.352	4.97
275.566	4.23
275.781	3.47
275.995	3.58
276.209	4.17
276.423	4.01
276.637	3.56
276.851	3.36
277.065	3.29
277.279	3.31
277.493	2.94
277.707	3.34
277.921	3.36
278.135	3.69
278.349	3.37
278.563	3.05
278.777	3.28
278.991	3.42
279.205	3.86
279.419	3.77
279.633	3.57
279.847	3.54
280.061	3.34
280.275	3.66
280.489	3.42
280.703	3.2
280.917	3.52
281.131	3.43
281.344	4.07
281.558	3.67
281.772	2.87
281.986	2.47
282.2	2.65
282.414	3.09
282.627	2.63
282.841	2.57
283.055	3.04
283.269	2.74
283.482	2.48
283.696	1.69
283.91	2
284.123	2.7
284.337	2.62
284.551	2.61
284.764	2.54
284.978	3
285.192	3.29
285.405	3.19
285.619	3.19
285.833	3.5
286.046	3.77
286.26	4.25
286.473	4.26
286.687	4.91
286.9	4.52
287.114	4.62
287.327	4.45
287.541	4.4
287.754	4.43
287.968	4.59
288.181	4.61
288.395	4.59
288.608	4.03
288.822	3.73
289.035	3.95
289.248	4.2
289.462	4.04
289.675	3.62
289.889	3.87
290.102	4.44
290.315	4.21
290.529	3.88
290.742	3.84
290.955	3.94
291.169	4.41
291.382	4.42
291.595	5.07
291.808	5.14
292.022	5.32
292.235	5.08
292.448	4.7
292.661	5.23
292.875	5.92
293.088	6
293.301	5.92
293.514	5.84
293.727	5.62
293.94	5.36
294.153	5.33
294.367	5.91
294.58	6.03
294.793	5.97
295.006	5.56
295.219	5.46
295.432	5.33
295.645	5.43
295.858	5.2
296.071	5.29
296.284	5.23
296.497	5.21
296.71	4.78
296.923	4.41
297.136	4.49
297.349	4.31
297.562	4.64
297.775	4.74
297.988	4.87
298.201	5.15
298.414	5.22
298.626	5.56
298.839	5.77
299.052	6
299.265	6.63
299.478	6.43
299.691	7.11
299.903	6.6
300.116	6.47
300.329	6.87
300.542	6.97
300.755	6.71
300.967	6.46
301.18	6.34
301.393	6.12
301.605	5.58
301.818	5.95
302.031	5.99
302.243	5.98
302.456	6.37
302.669	6.07
302.881	6.23
303.094	6.43
303.307	6.56
303.519	7.16
303.732	7.35
303.944	8
304.157	7.65
304.37	7.43
304.582	7.38
304.795	7.45
305.007	6.87
305.22	6.7
305.432	6.99
305.645	7.2
305.857	7.07
306.069	7.46
306.282	7.4
306.494	7.79
306.707	7.84
306.919	7.5
307.132	7.16
307.344	7.82
307.556	8.09
307.769	7.76
307.981	8.48
308.193	8.57
308.406	8.54
308.618	8.35
308.83	8.5
309.043	8.6
309.255	8.76
309.467	9.15
309.679	8.89
309.892	8.59
310.104	8.48
310.316	7.81
310.528	7.35
310.74	7.31
310.953	7.52
311.165	6.96
311.377	7
311.589	7.18
311.801	6.91
312.013	7.13
312.225	7.6
312.437	7.91
312.649	7.69
312.862	8.32
313.074	8.7
313.286	8.74
313.498	9.32
313.71	9.28
313.922	9.5
314.134	9.6
314.346	9.72
314.558	9.79
314.77	9.82
314.982	10.23
315.193	9.89
315.405	9.88
315.617	9.71
315.829	9.4
316.041	9.79
316.253	10.03
316.465	10.37
316.677	10.22
316.888	9.31
317.1	9.37
317.312	9.31
317.524	9.47
317.736	8.99
317.947	9.41
318.159	10.01
318.371	10.08
318.583	9.75
318.794	9.42
319.006	9.34
319.218	9.69
319.43	9.63
319.641	9.42
319.853	9.34
320.064	9.58
320.276	10
320.488	9.43
320.699	9.18
320.911	9.27
321.123	9.75
321.334	9.75
321.546	10.11
321.757	10.13
321.969	10.5
322.18	10.38
322.392	10.38
322.603	10.39
322.815	10.31
323.026	10.2
323.238	10.23
323.449	9.6
323.661	9.52
323.872	9.69
324.083	9.57
324.295	9.7
324.506	9.71
324.718	9.5
324.929	8.66
325.14	8.89
325.352	9.02
325.563	8.94
325.774	9.43
325.986	9.79
326.197	9.88
326.408	10.35
326.62	9.52
326.831	9.44
327.042	9.6
327.253	9.5
327.464	9.72
327.676	9.7
327.887	9.6
328.098	9.5
328.309	9.48
328.52	9.25
328.732	8.91
328.943	9.57
329.154	9.82
329.365	9.85
329.576	9.85
329.787	10.14
329.998	10.41
330.209	10.59
330.42	10.37
330.631	9.65
330.842	9.72
331.053	9.52
331.264	9.49
331.475	9.32
331.686	9.29
331.897	9.81
332.108	9.08
332.319	8.82
332.53	8.98
332.741	9.13
332.952	9.48
333.163	9.23
333.374	9.47
333.585	9.19
333.795	9.18
334.006	8.98
334.217	9.1
334.428	9.1
334.639	8.83
334.849	8.5
335.06	7.96
335.271	8.41
335.482	8.06
335.692	8
335.903	8.5
336.114	8.79
336.325	9.21
336.535	8.98
336.746	9.56
336.957	10.11
337.167	10.41
337.378	11.22
337.589	10.9
337.799	11.56
338.01	11.65
338.22	11.52
338.431	11.54
338.642	11.37
338.852	11.38
339.063	11.3
339.273	11.2
339.484	10.66
339.694	10.29
339.905	10.62
340.115	10.53
340.326	10.43
340.536	10.95
340.746	10.87
340.957	11.27
341.167	11.06
341.378	10.99
341.588	10.64
341.799	10.53
342.009	10.33
342.219	10.2
342.43	10.28
342.64	10.48
342.85	9.73
343.061	9.82
343.271	9.88
343.481	10.4
343.691	10.26
343.902	10.12
344.112	11.07
344.322	11.4
344.532	11.26
344.743	10.83
344.953	10.16
345.163	10.24
345.373	9.98
345.583	8.98
345.793	8.52
346.004	8.76
346.214	8.8
346.424	7.8
346.634	7.64
346.844	7.7
347.054	7.63
347.264	8.55
347.474	8.81
347.684	8.69
347.894	8.9
348.104	8.77
348.314	8.51
348.524	8.42
348.734	8.86
348.944	9.1
349.154	9
349.364	9.69
349.574	9.51
349.784	9.55
349.994	9.88
350.204	10.27
350.413	10.51
350.623	10.43
350.833	10.4
351.043	10.06
351.253	10.03
351.463	10.58
351.672	10.44
351.882	10.05
352.092	10.01
352.302	10.23
352.511	10.21
352.721	10.66
352.931	10.89
353.141	11.2
353.35	11.25
353.56	11.04
353.77	10.64
353.979	10.39
354.189	10.25
354.399	10.37
354.608	10.23
354.818	10.35
355.027	10.2
355.237	10.16
355.447	10.17
355.656	10.45
355.866	10.59
356.075	10.64
356.285	10.72
356.494	11.18
356.704	11
356.913	11.4
357.123	10.95
357.332	10.72
357.542	10.67
357.751	10.52
357.96	10.43
358.17	10.5
358.379	10.65
358.589	10.7
358.798	10.3
359.007	10.62
359.217	10.25
359.426	10.68
359.635	10.92
359.845	10.94
360.054	11.05
360.263	10.96
360.472	11.05
360.682	11.15
360.891	11.28
361.1	11.42
361.309	11.27
361.519	11.35
361.728	11.28
361.937	11.24
362.146	11.29
362.355	11.53
362.564	11.76
362.774	11.8
362.983	11.84
363.192	11.52
363.401	11.76
363.61	11.67
363.819	12.03
364.028	12.27
364.237	12.23
364.446	12.48
364.655	12.39
364.864	12.31
365.073	12.4
365.282	12.22
365.491	12.52
365.7	12.43
365.909	12.69
366.118	12.4
366.327	12.36
366.536	12.13
366.745	12.13
366.954	11.81
367.162	11.95
367.371	11.62
367.58	11.53
367.789	11.5
367.998	11.55
368.207	11.36
368.415	11.46
368.624	11.23
368.833	11.26
369.042	10.91
369.25	11.41
369.459	11.46
369.668	11.47
369.877	11.42
370.085	11.33
370.294	11.27
370.503	11.24
370.711	10.98
370.92	10.99
371.129	10.94
371.337	11.15
371.546	10.63
371.754	10.43
371.963	10.96
372.171	10.93
372.38	10.84
372.589	10.78
372.797	10.75
373.006	10.7
373.214	10.94
373.423	11.06
373.631	11.24
373.84	11.53
374.048	11.58
374.256	11.09
374.465	11.37
374.673	11.9
374.882	12.02
375.09	12.21
375.298	12.31
375.507	12.39
375.715	12.48
375.923	12.23
376.132	12.33
376.34	12.33
376.548	12.41
376.757	12.42
376.965	12
377.173	12.07
377.381	11.92
377.59	12.2
377.798	12.24
378.006	12.15
378.214	12.04
378.423	11.89
378.631	12.1
378.839	12.21
379.047	12.11
379.255	12.24
379.463	12.43
379.671	12.62
379.879	12.47
380.088	12.59
380.296	12.97
380.504	13.32
380.712	13.62
380.92	13.57
381.128	13.51
381.336	13.47
381.544	13.49
381.752	13.52
381.96	13.49
382.168	13.55
382.376	13.22
382.584	13.06
382.791	12.71
382.999	12.7
383.207	12.73
383.415	12.84
383.623	12.93
383.831	12.88
384.039	12.69
384.247	12.71
384.454	12.83
384.662	12.81
384.87	12.87
385.078	12.96
385.285	12.94
385.493	13.29
385.701	13.52
385.909	13.69
386.116	13.9
386.324	14.08
386.532	13.99
386.739	13.87
386.947	14.19
387.155	14.2
387.362	14.45
387.57	14.45
387.778	14.28
387.985	14.04
388.193	14.06
388.4	14.13
388.608	14.28
388.816	14.6
389.023	14.78
389.231	14.85
389.438	15.02
389.646	15.18
389.853	15.19
390.061	14.94
390.268	15.08
390.475	15.18
390.683	15.2
390.89	15.32
391.098	15.12
391.305	15.16
391.512	15
391.72	14.99
391.927	14.82
392.135	14.98
392.342	15.15
392.549	15.3
392.756	15.11
392.964	15.16
393.171	15.08
393.378	15.24
393.586	15.3
393.793	15.46
394	15.73
394.207	15.8
394.414	15.87
394.622	15.94
394.829	15.93
395.036	16.02
395.243	16.01
395.45	15.98
395.657	16.23
395.864	16.15
396.072	16.26
396.279	16.12
396.486	16.13
396.693	16.04
396.9	16.3
397.107	16.37
397.314	16.63
397.521	16.93
397.728	16.92
397.935	16.89
398.142	16.95
398.349	16.94
398.556	16.85
398.763	16.93
398.97	17.1
399.177	17.04
399.383	17.19
399.59	17.04
399.797	17.1
400.004	17.3
400.211	17.08
400.418	16.94
400.625	16.93
400.831	17.03
401.038	17.18
401.245	17.11
401.452	17.18
401.658	17.19
401.865	17.35
402.072	17.13
402.279	17.21
402.485	17.3
402.692	17.67
402.899	17.7
403.105	17.63
403.312	17.71
403.519	17.82
403.725	17.84
403.932	17.83
404.138	17.86
404.345	17.77
404.552	17.69
404.758	17.82
404.965	17.7
405.171	17.69
405.378	17.74
405.584	17.67
405.791	17.55
405.997	17.59
406.204	17.6
406.41	17.47
406.617	17.54
406.823	17.39
407.029	17.35
407.236	17.4
407.442	17.54
407.649	17.58
407.855	17.56
408.061	17.75
408.268	17.68
408.474	17.55
408.68	17.74
408.887	17.78
409.093	18.11
409.299	18.15
409.505	18.09
409.712	18.04
409.918	18.08
410.124	18.06
410.33	18
410.537	18.06
410.743	18.23
410.949	18.01
411.155	18.13
411.361	17.92
411.567	17.87
411.773	17.94
411.98	17.99
412.186	17.94
412.392	18.06
412.598	18.05
412.804	17.98
413.01	17.75
413.216	17.94
413.422	17.94
413.628	18.02
413.834	18.07
414.04	18.05
414.246	17.97
414.452	17.92
414.658	17.91
414.864	17.77
415.07	17.91
415.275	17.97
415.481	17.91
415.687	17.87
415.893	17.84
416.099	17.77
416.305	17.68
416.511	17.68
416.716	17.75
416.922	17.69
417.128	17.79
417.334	17.68
417.539	17.72
417.745	17.64
417.951	17.55
418.157	17.56
418.362	17.46
418.568	17.48
418.774	17.46
418.979	17.41
419.185	17.43
419.391	17.35
419.596	17.35
419.802	17.28
420.008	17.28
420.213	17.29
420.419	17.24
420.624	17.26
420.83	17.2
421.035	17.11
421.241	17.08
421.446	16.98
421.652	17.03
421.857	17.02
422.063	16.96
422.268	16.94
422.474	16.92
422.679	16.81
422.885	16.84
423.09	16.85
423.295	16.87
423.501	16.91
423.706	16.9
423.911	16.85
424.117	16.87
424.322	16.98
424.527	16.95
424.733	16.9
424.938	17.02
425.143	17.01
425.349	17.01
425.554	17.02
425.759	16.99
425.964	17.09
426.169	16.94
426.375	16.74
426.58	16.62
426.785	16.77
426.99	16.81
427.195	16.68
427.4	16.6
427.605	16.54
427.811	16.47
428.016	16.33
428.221	16.31
428.426	16.47
428.631	16.51
428.836	16.46
429.041	16.38
429.246	16.4
429.451	16.47
429.656	16.64
429.861	16.69
430.066	16.7
430.271	16.82
430.476	16.69
430.681	16.67
430.886	16.75
431.09	16.72
431.295	16.71
431.5	16.74
431.705	16.72
431.91	16.64
432.115	16.65
432.32	16.7
432.524	16.7
432.729	16.71
432.934	16.66
433.139	16.62
433.343	16.74
433.548	16.72
433.753	16.63
433.958	16.62
434.162	16.71
434.367	16.84
434.572	16.84
434.776	16.83
434.981	16.83
435.186	16.96
435.39	16.99
435.595	16.98
435.799	16.97
436.004	17.02
436.209	17.1
436.413	16.95
436.618	16.77
436.822	16.69
437.027	16.66
437.231	16.78
437.436	16.72
437.64	16.61
437.845	16.59
438.049	16.49
438.253	16.47
438.458	16.33
438.662	16.34
438.867	16.38
439.071	16.46
439.275	16.45
439.48	16.35
439.684	16.24
439.888	16.25
440.093	16.14
440.297	16.24
440.501	16.25
440.706	16.32
440.91	16.34
441.114	16.36
441.318	16.36
441.523	16.42
441.727	16.52
441.931	16.68
442.135	16.71
442.339	16.75
442.543	16.71
442.748	16.63
442.952	16.59
443.156	16.57
443.36	16.56
443.564	16.52
443.768	16.42
443.972	16.38
444.176	16.31
444.38	16.35
444.584	16.36
444.788	16.28
444.992	16.36
445.196	16.27
445.4	16.24
445.604	16.22
445.808	16.17
446.012	16.13
446.216	16.09
446.42	16.05
446.624	15.93
446.828	15.92
447.032	16.01
447.235	15.91
447.439	15.92
447.643	15.84
447.847	15.85
448.051	15.87
448.254	15.91
448.458	15.86
448.662	15.9
448.866	16.04
449.069	16.13
449.273	16.05
449.477	16.1
449.681	16.19
449.884	16.29
450.088	16.2
450.292	16.16
450.495	16.19
450.699	16.26
450.902	16.2
451.106	16.16
451.31	15.99
451.513	16.07
451.717	16.02
451.92	16.05
452.124	16.09
452.327	16.17
452.531	16.12
452.734	16.14
452.938	16.03
453.141	16
453.345	16
453.548	16.1
453.752	16.07
453.955	16.05
454.158	16.03
454.362	16
454.565	15.9
454.769	15.98
454.972	15.91
455.175	15.97
455.379	15.98
455.582	15.93
455.785	15.94
455.988	16
456.192	15.99
456.395	15.95
456.598	15.94
456.801	16.05
457.005	16.05
457.208	16.18
457.411	16.17
457.614	16.16
457.817	16.09
458.021	16.09
458.224	16.04
458.427	16.01
458.63	16.05
458.833	16.05
459.036	15.97
459.239	15.99
459.442	15.84
459.645	15.84
459.848	15.85
460.051	16
460.254	15.99
460.457	15.97
460.66	16.05
460.863	16
461.066	16.03
461.269	16.08
461.472	16.06
461.675	16.19
461.878	16.22
462.081	16.28
462.284	16.21
462.486	16.1
462.689	16.22
462.892	16.32
463.095	16.47
