Data from 2938490_Reflection_3.txt Node
Date: Wed Jun 17 00:46:54 EDT 2015
User: robert
Spectrometer: USB4E03002
Autoset integration time: false
Trigger mode: 4
Integration Time (sec): 1.000000E-1
Scans to average: 10
Electric dark correction enabled: true
Nonlinearity correction enabled: false
Boxcar width: 5
Stray light correction enabled: false
XAxis mode: Wavelengths
Stop averaging: false
Number of Pixels in Spectrum: 3648
>>>>>Begin Spectral Data<<<<<
177.575	49.6
177.794	318.44
178.014	-34.36
178.233	-9.6
178.452	-85.38
178.672	730.08
178.891	35.55
179.11	360.78
179.33	201.43
179.549	-10805.26
179.768	100.12
179.987	102.28
180.207	303.57
180.426	300.17
180.645	201.59
180.864	289.14
181.084	192.8
181.303	399.32
181.522	166.37
181.741	192.8
181.96	170.89
182.179	444.61
182.398	871.33
182.618	214.67
182.837	140.3
183.056	181.1
183.275	195.78
183.494	276.56
183.713	125
183.932	-19700
184.151	-990.83
184.37	117.71
184.589	70.87
184.808	86.26
185.027	124.88
185.246	250.52
185.465	-291.6
185.684	-175.87
185.903	-312.59
186.122	-408.48
186.341	818.12
186.56	459.05
186.779	343.14
186.998	430.62
187.216	216.25
187.435	373.55
187.654	163.8
187.873	93.55
188.092	84.96
188.311	67.55
188.53	84.35
188.748	99.07
188.967	89.17
189.186	87.02
189.405	35.83
189.623	43.26
189.842	56.52
190.061	86.26
190.28	140.15
190.498	59.35
190.717	61.66
190.936	54.05
191.154	61.05
191.373	104.26
191.592	1464
191.81	660.49
192.029	1411.46
192.248	-761.46
192.466	2277.74
192.685	243.26
192.904	651.98
193.122	423.53
193.341	398.7
193.559	592.66
193.778	302.09
193.996	170.98
194.215	121.55
194.433	114.29
194.652	112.78
194.87	110.78
195.089	95.09
195.307	24.84
195.526	48.14
195.744	10.24
195.963	19.22
196.181	4.32
196.399	-8.84
196.618	25.69
196.836	16.59
197.055	-41.34
197.273	7.59
197.491	30.8
197.71	59.56
197.928	97.08
198.146	96.09
198.365	70.41
198.583	61.95
198.801	63.33
199.019	55.09
199.238	69.63
199.456	110.83
199.674	468.99
199.892	353.67
200.111	3137.84
200.329	751.97
200.547	486.05
200.765	269.95
200.983	583.17
201.202	209.07
201.42	10.75
201.638	6441.3
201.856	-93.44
202.074	11.25
202.292	95.85
202.51	-9.14
202.728	-75.99
202.946	377.99
203.165	147.43
203.383	102.69
203.601	226.21
203.819	170.81
204.037	104.4
204.255	122.85
204.473	145.07
204.691	90.05
204.909	130.21
205.127	126.94
205.345	125.64
205.562	139.15
205.78	156.73
205.998	160.23
206.216	179.98
206.434	313.42
206.652	-41.65
206.87	63.26
207.088	120.78
207.306	47.33
207.523	-70.99
207.741	506.71
207.959	172.73
208.177	189.27
208.395	887.38
208.612	-327.53
208.83	6.63
209.048	37.49
209.266	179.17
209.483	-308.81
209.701	-138.67
209.919	128.85
210.136	166.91
210.354	102.63
210.572	70.77
210.79	118
211.007	188.45
211.225	174.31
211.442	7430.43
211.66	-102.27
211.878	-2177.66
212.095	-306.57
212.313	646.39
212.53	363.87
212.748	22.4
212.966	13.45
213.183	536.76
213.401	166.31
213.618	116.04
213.836	176.29
214.053	790.84
214.271	1243.82
214.488	-93.96
214.705	-192.65
214.923	-652.28
215.14	9.18
215.358	16.89
215.575	-0.84
215.793	-13.63
216.01	118.3
216.227	164.97
216.445	201.82
216.662	166.06
216.879	139.1
217.097	97.59
217.314	110.41
217.531	100.47
217.749	143.34
217.966	265
218.183	138.56
218.4	84.09
218.618	63.35
218.835	60.42
219.052	46
219.269	29.15
219.487	31.79
219.704	23.33
219.921	15.44
220.138	-4.68
220.355	-40.84
220.572	-51.79
220.79	-43.24
221.007	-67.63
221.224	-84.58
221.441	-70.58
221.658	-59.33
221.875	-107.36
222.092	-84.88
222.309	-68.05
222.526	-76.63
222.743	-53.32
222.96	-21.21
223.177	-9.73
223.394	-3.45
223.611	1.29
223.828	10.28
224.045	17.2
224.262	17.91
224.479	14.98
224.696	17.53
224.913	17.08
225.13	17.39
225.347	11.61
225.564	13
225.781	10.73
225.997	12.84
226.214	11.72
226.431	9.67
226.648	12.43
226.865	13.62
227.082	11.18
227.298	10.04
227.515	9.18
227.732	9.64
227.949	7.71
228.165	9.33
228.382	8.84
228.599	8.29
228.816	9.02
229.032	8.67
229.249	7.18
229.466	8.12
229.682	9.18
229.899	9.93
230.116	10.52
230.332	11.42
230.549	8.48
230.765	8.11
230.982	7.06
231.199	8.5
231.415	6.5
231.632	9.93
231.848	7.59
232.065	4.73
232.281	6.11
232.498	5.92
232.714	5.85
232.931	7.42
233.147	9.43
233.364	11.18
233.58	5.94
233.797	9.73
234.013	8.84
234.23	10.14
234.446	11.4
234.662	11.99
234.879	14.22
235.095	16.09
235.312	15.22
235.528	15.21
235.744	13.68
235.961	17.6
236.177	14.03
236.393	13.51
236.61	10.97
236.826	14.33
237.042	14.35
237.258	12.23
237.475	11.64
237.691	10.14
237.907	9.38
238.123	10.83
238.339	11.55
238.556	12.25
238.772	13.08
238.988	15.13
239.204	14.57
239.42	14.81
239.636	14.57
239.853	15.53
240.069	15.78
240.285	16.46
240.501	16.22
240.717	15.5
240.933	14.95
241.149	14.36
241.365	14.38
241.581	15.1
241.797	14.56
242.013	14.96
242.229	14.58
242.445	15.18
242.661	13.26
242.877	14.1
243.093	14.37
243.309	16.04
243.525	15.46
243.741	15.85
243.957	14.9
244.173	15.76
244.388	15.59
244.604	14.96
244.82	14.49
245.036	14.7
245.252	14.25
245.468	14.04
245.683	13.5
245.899	13.16
246.115	12.91
246.331	12.64
246.547	11.75
246.762	11.71
246.978	11.95
247.194	12.28
247.409	12.51
247.625	12.52
247.841	12.98
248.057	12.57
248.272	13.8
248.488	13.05
248.703	13.47
248.919	13.78
249.135	13.54
249.35	13.5
249.566	13.54
249.782	13
249.997	13.23
250.213	12.93
250.428	12.64
250.644	12.41
250.859	13.54
251.075	13.78
251.29	13.94
251.506	13.08
251.721	12.62
251.937	12.57
252.152	12.72
252.368	12.1
252.583	12.7
252.798	13.55
253.014	13.13
253.229	11.81
253.445	11.27
253.66	10.92
253.875	11.98
254.091	11.62
254.306	9.8
254.521	7.93
254.737	8.19
254.952	7.48
255.167	8.43
255.383	8.58
255.598	9.16
255.813	10.03
256.028	10.2
256.244	10.35
256.459	10.37
256.674	11.06
256.889	12.25
257.104	11.31
257.32	11.25
257.535	10.61
257.75	10.25
257.965	10.25
258.18	10.23
258.395	10.5
258.61	10.51
258.826	10.39
259.041	10.34
259.256	10.29
259.471	10.6
259.686	10.5
259.901	10.58
260.116	10.66
260.331	10.96
260.546	10.51
260.761	9.59
260.976	9.35
261.191	9.73
261.406	9.72
261.621	9.46
261.836	9.91
262.05	10.4
262.265	11.02
262.48	11.68
262.695	11
262.91	11.06
263.125	12.13
263.34	12.14
263.555	12.12
263.769	11.33
263.984	11.56
264.199	12.34
264.414	11.93
264.629	11.09
264.843	11
265.058	11.32
265.273	11.4
265.488	11.43
265.702	11.12
265.917	11.3
266.132	12
266.346	11.99
266.561	11.51
266.776	11.16
266.99	11.32
267.205	10.83
267.42	10.47
267.634	10.21
267.849	9.79
268.063	9.6
268.278	8.8
268.492	8.59
268.707	8.24
268.922	8.02
269.136	8.58
269.351	8.72
269.565	8.55
269.78	8.88
269.994	8.83
270.209	9.17
270.423	9.39
270.637	9.68
270.852	10.21
271.066	10.37
271.281	10.29
271.495	10.4
271.709	10.05
271.924	10.37
272.138	10.14
272.353	10.29
272.567	10.17
272.781	10.13
272.996	9.74
273.21	9.13
273.424	9.44
273.638	9.3
273.853	8.88
274.067	9.17
274.281	9.26
274.495	9.62
274.71	9.48
274.924	9.1
275.138	9.14
275.352	9.33
275.566	9.17
275.781	9.09
275.995	8.9
276.209	9.02
276.423	9.17
276.637	8.94
276.851	8.66
277.065	9.11
277.279	9.62
277.493	9.66
277.707	9.9
277.921	10.49
278.135	10.49
278.349	10.88
278.563	10.86
278.777	10.97
278.991	11.79
279.205	11.43
279.419	11.29
279.633	11.05
279.847	11.18
280.061	11.28
280.275	10.99
280.489	10.96
280.703	10.91
280.917	10.81
281.131	10.6
281.344	9.71
281.558	10.19
281.772	9.8
281.986	9.67
282.2	9.72
282.414	9.3
282.627	8.97
282.841	8.96
283.055	8.9
283.269	9.02
283.482	8.66
283.696	8.8
283.91	8.83
284.123	9.15
284.337	9.05
284.551	8.98
284.764	9.22
284.978	9.52
285.192	9.4
285.405	9.23
285.619	9.1
285.833	9.41
286.046	10.04
286.26	9.9
286.473	9.77
286.687	9.97
286.9	9.84
287.114	10.18
287.327	9.96
287.541	9.71
287.754	10.28
287.968	10.22
288.181	10.37
288.395	9.77
288.608	9.46
288.822	9.93
289.035	10.14
289.248	9.94
289.462	9.65
289.675	9.48
289.889	9.71
290.102	9.44
290.315	9.08
290.529	8.73
290.742	9.2
290.955	9.93
291.169	9.3
291.382	9.37
291.595	10.01
291.808	10.12
292.022	9.72
292.235	9.91
292.448	9.39
292.661	9.74
292.875	10.15
293.088	10.45
293.301	10.36
293.514	10.9
293.727	10.93
293.94	11.29
294.153	11.04
294.367	11.72
294.58	11.87
294.793	12.58
295.006	12.32
295.219	12.29
295.432	12
295.645	12.12
295.858	11.96
296.071	11.76
296.284	11.22
296.497	11.38
296.71	11.2
296.923	11.09
297.136	10.57
297.349	11.15
297.562	10.85
297.775	10.82
297.988	10.51
298.201	10.79
298.414	10.69
298.626	10.73
298.839	11.12
299.052	11.25
299.265	11.34
299.478	11.35
299.691	11.23
299.903	11.12
300.116	10.49
300.329	11.08
300.542	10.49
300.755	10.71
300.967	10.64
301.18	10.23
301.393	10.59
301.605	10.33
301.818	10.54
302.031	10.01
302.243	10.47
302.456	10.6
302.669	10.25
302.881	10.68
303.094	10.94
303.307	10.89
303.519	10.45
303.732	10.44
303.944	10.85
304.157	10.77
304.37	11.48
304.582	11.41
304.795	11.62
305.007	11.53
305.22	11.29
305.432	10.45
305.645	10.67
305.857	11.23
306.069	10.4
306.282	9.64
306.494	10.14
306.707	9.78
306.919	10.05
307.132	10.06
307.344	10.08
307.556	10.16
307.769	10.38
307.981	10.96
308.193	10.97
308.406	11.12
308.618	11.41
308.83	11.55
309.043	11.87
309.255	11.63
309.467	11.78
309.679	11.61
309.892	11.4
310.104	11.78
310.316	11.43
310.528	11.27
310.74	11.63
310.953	11.52
311.165	10.94
311.377	10.86
311.589	10.92
311.801	10.78
312.013	10.91
312.225	11.23
312.437	10.94
312.649	10.99
312.862	11.12
313.074	10.87
313.286	11
313.498	11.16
313.71	11
313.922	11.1
314.134	11.07
314.346	11.08
314.558	10.77
314.77	11.03
314.982	11.15
315.193	11.29
315.405	11.49
315.617	11.09
315.829	10.46
316.041	10.09
316.253	10.02
316.465	10.29
316.677	10.12
316.888	9.84
317.1	9.79
317.312	9.74
317.524	9.87
317.736	10.1
317.947	10.53
318.159	11.14
318.371	11.36
318.583	11.33
318.794	11.21
319.006	11.04
319.218	11.67
319.43	11.51
319.641	11.44
319.853	11.52
320.064	11.33
320.276	11.51
320.488	11.51
320.699	12
320.911	12.21
321.123	12.37
321.334	12.38
321.546	12.57
321.757	12.53
321.969	12.03
322.18	11.67
322.392	11.44
322.603	11.1
322.815	11.22
323.026	10.94
323.238	10.24
323.449	10.24
323.661	10.2
323.872	10.46
324.083	10.83
324.295	11.09
324.506	11.19
324.718	11.52
324.929	11.68
325.14	11.56
325.352	11.53
325.563	12.02
325.774	12.22
325.986	12.76
326.197	12.31
326.408	11.66
326.62	11.97
326.831	11.86
327.042	11.7
327.253	11.03
327.464	11.33
327.676	11.17
327.887	10.95
328.098	10.28
328.309	10.35
328.52	9.79
328.732	10.5
328.943	10.07
329.154	10.11
329.365	9.98
329.576	9.92
329.787	9.56
329.998	9.69
330.209	9.78
330.42	10.3
330.631	9.61
330.842	10.01
331.053	9.66
331.264	10.2
331.475	10.4
331.686	11.11
331.897	11.99
332.108	11.74
332.319	11.61
332.53	11.43
332.741	11.21
332.952	11.03
333.163	10.9
333.374	10.79
333.585	10.21
333.795	10.04
334.006	9.5
334.217	9.06
334.428	9.17
334.639	9.6
334.849	9.9
335.06	9.97
335.271	10.36
335.482	10.53
335.692	10.47
335.903	10.41
336.114	10.38
336.325	10.3
336.535	10.53
336.746	10.94
336.957	11.03
337.167	10.95
337.378	10.95
337.589	11.16
337.799	10.68
338.01	10.92
338.22	11.27
338.431	10.77
338.642	10.94
338.852	10.92
339.063	10.62
339.273	10.01
339.484	9.98
339.694	10.13
339.905	9.93
340.115	10.38
340.326	9.94
340.536	10.08
340.746	10.19
340.957	9.87
341.167	9.77
341.378	9.73
341.588	9.82
341.799	9.88
342.009	10.05
342.219	10.15
342.43	9.94
342.64	10.09
342.85	10.07
343.061	10.68
343.271	10.79
343.481	10.74
343.691	10.53
343.902	10.28
344.112	10.2
344.322	9.72
344.532	9.51
344.743	9.6
344.953	9.72
345.163	9.15
345.373	9.07
345.583	9.24
345.793	9.03
346.004	9.51
346.214	9.76
346.424	9.81
346.634	10.34
346.844	10.34
347.054	10.39
347.264	9.99
347.474	10.28
347.684	9.82
347.894	9.64
348.104	9.8
348.314	9.56
348.524	9.44
348.734	9.58
348.944	8.93
349.154	9.05
349.364	9.41
349.574	9.63
349.784	9.71
349.994	9.67
350.204	9.89
350.413	10.23
350.623	10.15
350.833	10.52
351.043	10.24
351.253	10.24
351.463	10.19
351.672	9.54
351.882	10.09
352.092	9.67
352.302	10.12
352.511	9.72
352.721	9.62
352.931	9.82
353.141	9.28
353.35	9.34
353.56	9.34
353.77	9.32
353.979	9.44
354.189	8.74
354.399	9.06
354.608	8.64
354.818	8.55
355.027	8.47
355.237	8.25
355.447	8.68
355.656	8.25
355.866	8.35
356.075	8.4
356.285	8.32
356.494	8.44
356.704	8.21
356.913	8.35
357.123	8.12
357.332	8.18
357.542	8
357.751	7.85
357.96	8.33
358.17	8.63
358.379	8.39
358.589	8.5
358.798	8.44
359.007	8.53
359.217	8.51
359.426	9.01
359.635	9
359.845	8.96
360.054	8.89
360.263	8.73
360.472	8.44
360.682	8.51
360.891	8.61
361.1	8.68
361.309	8.62
361.519	8.48
361.728	8.17
361.937	8.06
362.146	8.1
362.355	7.95
362.564	8.07
362.774	7.99
362.983	7.85
363.192	7.72
363.401	7.74
363.61	7.79
363.819	7.99
364.028	8.1
364.237	8.01
364.446	7.89
364.655	7.81
364.864	7.75
365.073	7.96
365.282	8.07
365.491	8.17
365.7	8.36
365.909	8.15
366.118	7.98
366.327	7.95
366.536	7.86
366.745	8.02
366.954	8.32
367.162	8.11
367.371	7.9
367.58	7.75
367.789	7.55
367.998	7.43
368.207	7.5
368.415	7.57
368.624	7.51
368.833	7.74
369.042	7.8
369.25	7.59
369.459	7.77
369.668	7.7
369.877	7.92
370.085	7.92
370.294	7.75
370.503	7.92
370.711	7.71
370.92	7.84
371.129	7.56
371.337	7.4
371.546	7.34
371.754	7.16
371.963	7.21
372.171	6.98
372.38	6.94
372.589	6.86
372.797	6.77
373.006	6.95
373.214	6.76
373.423	6.87
373.631	7.05
373.84	7.13
374.048	7.46
374.256	7.25
374.465	7.32
374.673	7.2
374.882	7.18
375.09	6.91
375.298	6.92
375.507	6.81
375.715	7.05
375.923	6.88
376.132	6.96
376.34	6.74
376.548	6.96
376.757	6.88
376.965	6.82
377.173	6.92
377.381	7.18
377.59	7.15
377.798	7.33
378.006	6.92
378.214	7.05
378.423	6.81
378.631	6.73
378.839	6.74
379.047	6.94
379.255	6.91
379.463	6.77
379.671	6.61
379.879	6.19
380.088	6.05
380.296	6.26
380.504	5.92
380.712	5.87
380.92	5.92
381.128	6.09
381.336	5.86
381.544	5.8
381.752	5.74
381.96	5.82
382.168	6.25
382.376	6.31
382.584	6.21
382.791	6.51
382.999	6.43
383.207	6.26
383.415	5.98
383.623	5.93
383.831	5.73
384.039	5.83
384.247	5.92
384.454	5.78
384.662	5.84
384.87	5.82
385.078	5.74
385.285	5.93
385.493	6
385.701	5.97
385.909	6.17
386.116	6.41
386.324	6.51
386.532	6.4
386.739	6.6
386.947	6.76
387.155	6.71
387.362	6.75
387.57	6.53
387.778	6.58
387.985	6.68
388.193	6.59
388.4	6.42
388.608	6.01
388.816	5.94
389.023	5.75
389.231	5.59
389.438	5.56
389.646	5.39
389.853	5.54
390.061	5.53
390.268	5.43
390.475	5.26
390.683	5.59
390.89	5.82
391.098	5.84
391.305	5.78
391.512	5.57
391.72	5.61
391.927	5.72
392.135	5.93
392.342	5.83
392.549	5.97
392.756	6.19
392.964	6.07
393.171	6.06
393.378	5.9
393.586	5.92
393.793	5.94
394	5.96
394.207	5.93
394.414	5.73
394.622	5.77
394.829	5.75
395.036	5.48
395.243	5.49
395.45	5.45
395.657	5.62
395.864	5.56
396.072	5.51
396.279	5.44
396.486	5.42
396.693	5.39
396.9	5.43
397.107	5.33
397.314	5.37
397.521	5.58
397.728	5.5
397.935	5.65
398.142	5.87
398.349	6.09
398.556	6.08
398.763	6.14
398.97	6.15
399.177	6.19
399.383	6.25
399.59	6.28
399.797	6.19
400.004	6.19
400.211	6.07
400.418	5.94
400.625	6.13
400.831	5.99
401.038	5.83
401.245	5.87
401.452	5.89
401.658	5.8
401.865	5.91
402.072	5.76
402.279	5.78
402.485	5.77
402.692	5.64
402.899	5.37
403.105	5.38
403.312	5.37
403.519	5.41
403.725	5.21
403.932	5.19
404.138	5.29
404.345	5.28
404.552	5.29
404.758	5.16
404.965	5.32
405.171	5.26
405.378	5.37
405.584	5.41
405.791	5.26
405.997	5.35
406.204	5.49
406.41	5.39
406.617	5.4
406.823	5.42
407.029	5.56
407.236	5.45
407.442	5.59
407.649	5.4
407.855	5.37
408.061	5.47
408.268	5.4
408.474	5.37
408.68	5.21
408.887	5.23
409.093	5.21
409.299	5.15
409.505	5.01
409.712	5.08
409.918	5.23
410.124	5.23
410.33	4.97
410.537	4.99
410.743	4.91
410.949	5.1
411.155	5.03
411.361	4.85
411.567	4.75
411.773	4.96
411.98	4.85
412.186	4.85
412.392	4.95
412.598	5.24
412.804	5.23
413.01	5.21
413.216	5.07
413.422	5.25
413.628	5.31
413.834	5.37
414.04	5.28
414.246	5.24
414.452	5.37
414.658	5.32
414.864	5.1
415.07	5.02
415.275	4.89
415.481	4.84
415.687	4.77
415.893	4.9
416.099	4.9
416.305	4.94
416.511	5.02
416.716	4.86
416.922	4.81
417.128	4.97
417.334	5.05
417.539	5.14
417.745	5.1
417.951	5.07
418.157	5.03
418.362	5.03
418.568	5
418.774	4.92
418.979	5
419.185	4.98
419.391	4.91
419.596	4.89
419.802	4.82
420.008	4.85
420.213	4.2
420.419	4.17
420.624	4.15
420.83	4.17
421.035	4.19
421.241	4.2
421.446	4.24
421.652	4.28
421.857	4.3
422.063	4.36
422.268	4.37
422.474	5.04
422.679	5.03
422.885	5
423.09	4.97
423.295	4.92
423.501	4.87
423.706	4.89
423.911	4.94
424.117	4.88
424.322	4.86
424.527	4.79
424.733	4.73
424.938	4.68
425.143	4.67
425.349	4.65
425.554	4.61
425.759	4.57
425.964	4.54
426.169	4.4
426.375	4.49
426.58	4.48
426.785	4.57
426.99	4.68
427.195	4.73
427.4	4.67
427.605	4.7
427.811	4.7
428.016	4.74
428.221	4.74
428.426	4.63
428.631	4.49
428.836	4.55
429.041	4.47
429.246	4.51
429.451	4.48
429.656	4.46
429.861	4.39
430.066	4.44
430.271	4.47
430.476	4.46
430.681	4.52
430.886	4.52
431.09	4.4
431.295	4.43
431.5	4.44
431.705	4.43
431.91	4.67
432.115	4.67
432.32	4.67
432.524	4.7
432.729	4.67
432.934	4.57
433.139	4.63
433.343	4.75
433.548	4.67
433.753	4.48
433.958	4.54
434.162	4.29
434.367	4.2
434.572	4.19
434.776	4.08
434.981	4.11
435.186	4.18
435.39	4.21
435.595	4.27
435.799	4.4
436.004	4.57
436.209	4.6
436.413	4.65
436.618	4.72
436.822	4.78
437.027	4.82
437.231	4.68
437.436	4.67
437.64	4.58
437.845	4.52
438.049	4.47
438.253	4.37
438.458	4.4
438.662	4.43
438.867	4.47
439.071	4.42
439.275	4.39
439.48	4.49
439.684	4.6
439.888	4.59
440.093	4.59
440.297	4.68
440.501	4.7
440.706	4.64
440.91	4.61
441.114	4.59
441.318	4.57
441.523	4.64
441.727	4.72
441.931	4.7
442.135	4.7
442.339	4.67
442.543	4.57
442.748	4.53
442.952	4.53
443.156	4.53
443.36	4.57
443.564	4.65
443.768	4.58
443.972	4.55
444.176	4.59
444.38	4.61
444.584	4.63
444.788	4.73
444.992	4.75
445.196	4.75
445.4	4.84
445.604	4.84
445.808	4.74
446.012	4.76
446.216	4.72
446.42	4.66
446.624	4.71
446.828	4.78
447.032	4.68
447.235	4.58
447.439	4.61
447.643	4.48
447.847	4.53
448.051	4.56
448.254	4.6
448.458	4.62
448.662	4.55
448.866	4.43
449.069	4.35
449.273	4.31
449.477	4.46
449.681	4.36
449.884	4.56
450.088	4.37
450.292	4.44
450.495	4.43
450.699	4.37
450.902	4.38
451.106	4.38
451.31	4.23
451.513	4.28
451.717	4.24
451.92	4.2
452.124	4.08
452.327	4.16
452.531	4.12
452.734	4.12
452.938	4.13
453.141	4.16
453.345	4.14
453.548	4.21
453.752	4.19
453.955	4.1
454.158	4.2
454.362	4.14
454.565	4.08
454.769	4.08
454.972	4.15
455.175	4.16
455.379	4.22
455.582	4.21
455.785	4.18
455.988	4.13
456.192	4.17
456.395	4.14
456.598	4.15
456.801	4.13
457.005	4.12
457.208	3.99
457.411	4.02
457.614	3.98
457.817	4
458.021	4.12
458.224	4.2
458.427	4.28
458.63	4.23
458.833	4.26
459.036	4.26
459.239	4.27
459.442	4.26
459.645	4.23
459.848	4.21
460.051	4.18
460.254	4.12
460.457	4.04
460.66	3.98
460.863	4.03
461.066	4.01
461.269	4.08
461.472	4.12
461.675	4.1
461.878	4.15
462.081	4.16
462.284	4.22
462.486	4.13
462.689	4.15
462.892	4.2
463.095	4.13
463.298	4.17
463.5	4.05
463.703	4.01
463.906	4.06
464.109	4.01
464.311	3.96
464.514	3.99
464.717	3.99
464.92	4.04
465.122	3.96
