Data from 2938436_Reflection_1.txt Node
Date: Fri Jun 19 18:36:18 EDT 2015
User: robert
Spectrometer: USB4E03002
Autoset integration time: false
Trigger mode: 4
Integration Time (sec): 1.000000E-1
Scans to average: 10
Electric dark correction enabled: true
Nonlinearity correction enabled: false
Boxcar width: 5
Stray light correction enabled: false
XAxis mode: Wavelengths
Stop averaging: false
Number of Pixels in Spectrum: 3648
>>>>>Begin Spectral Data<<<<<
177.575	697.79
177.794	440.84
178.014	527.63
178.233	-62400
178.452	216.9
178.672	419.35
178.891	81.44
179.11	-337.04
179.33	-611.4
179.549	-84.2
179.768	-4.79
179.987	3678.72
180.207	-159.99
180.426	-184.29
180.645	-59.42
180.864	-126.08
181.084	-21.16
181.303	-27.33
181.522	13.53
181.741	65.26
181.96	-62.6
182.179	-60.85
182.398	-18.32
182.618	7.3
182.837	106.04
183.056	24.76
183.275	24.17
183.494	464.29
183.713	220.72
183.932	27.1
184.151	-9.06
184.37	308.21
184.589	300.14
184.808	303.31
185.027	60.78
185.246	166.3
185.465	-1202.5
185.684	1529.93
185.903	-125.21
186.122	-210.47
186.341	-178.32
186.56	14414.71
186.779	37375
186.998	280.14
187.216	142.8
187.435	409.74
187.654	153.8
187.873	87.26
188.092	51.86
188.311	7.26
188.53	2.6
188.748	-3.62
188.967	20.74
189.186	-6.96
189.405	-90.74
189.623	-97.19
189.842	-7.31
190.061	36.16
190.28	10.72
190.498	-37.6
190.717	73.47
190.936	130.51
191.154	122.38
191.373	121.3
191.592	149.87
191.81	127.44
192.029	137.25
192.248	123.68
192.466	170.35
192.685	124.5
192.904	150.02
193.122	104.01
193.341	63.3
193.559	27.6
193.778	40.94
193.996	38.2
194.215	31.84
194.433	16.05
194.652	2.75
194.87	69.35
195.089	47.76
195.307	45.26
195.526	69.15
195.744	63.65
195.963	77.43
196.181	162.21
196.399	139.33
196.618	201.89
196.836	102.06
197.055	249.49
197.273	845.38
197.491	-544.49
197.71	287.68
197.928	-1633.58
198.146	365.82
198.365	133.95
198.583	139.69
198.801	159.87
199.019	130.71
199.238	162.89
199.456	138.79
199.674	73.65
199.892	108.39
200.111	86.8
200.329	-8.68
200.547	-56.46
200.765	887.16
200.983	-472.6
201.202	-426.71
201.42	-178.92
201.638	-91.38
201.856	-66.65
202.074	-45.88
202.292	-61.76
202.51	-16.52
202.728	49.93
202.946	17.81
203.165	-74.17
203.383	30.45
203.601	19.55
203.819	64.75
204.037	142.63
204.255	-82.21
204.473	89.31
204.691	-190.1
204.909	-541.88
205.127	-25.61
205.345	265.78
205.562	78.12
205.78	83.63
205.998	226.2
206.216	305.23
206.434	-2122.94
206.652	122.7
206.87	153.6
207.088	91.33
207.306	66.64
207.523	141.31
207.741	161.41
207.959	405.69
208.177	96.06
208.395	242.73
208.612	-117.11
208.83	-25.83
209.048	-23.21
209.266	1431.19
209.483	-118.05
209.701	17.38
209.919	79.49
210.136	46.91
210.354	150.5
210.572	170.83
210.79	170.94
211.007	308.05
211.225	413.99
211.442	-1452.94
211.66	430.73
211.878	228.58
212.095	-53.42
212.313	-10.02
212.53	-38.16
212.748	-13.21
212.966	16.68
213.183	15.49
213.401	40.62
213.618	14.15
213.836	11.8
214.053	18.52
214.271	-23.07
214.488	9.77
214.705	9.65
214.923	-1.58
215.14	-28.71
215.358	-10.03
215.575	22.58
215.793	-24.93
216.01	-36.44
216.227	-37.76
216.445	-16.45
216.662	-78.22
216.879	-41.79
217.097	-8.45
217.314	21.25
217.531	35.16
217.749	28.19
217.966	5.61
218.183	39.61
218.4	55.84
218.618	55.62
218.835	68.6
219.052	62.64
219.269	46.61
219.487	44.53
219.704	34.17
219.921	33.67
220.138	9.36
220.355	23.29
220.572	1.96
220.79	3.4
221.007	10.37
221.224	-1.53
221.441	-24.59
221.658	-35.9
221.875	-36.04
222.092	-34.93
222.309	-42.4
222.526	-38.6
222.743	-60.42
222.96	-24.18
223.177	-18.23
223.394	-12.31
223.611	-7.64
223.828	10.04
224.045	7.71
224.262	10.7
224.479	14.53
224.696	12.87
224.913	21.71
225.13	23.87
225.347	25.03
225.564	23.51
225.781	20.52
225.997	21.08
226.214	20.41
226.431	20.72
226.648	21.08
226.865	19.51
227.082	21.52
227.298	19.61
227.515	19.25
227.732	16.36
227.949	16.62
228.165	16.5
228.382	15.47
228.599	15.13
228.816	14.87
229.032	15.22
229.249	14.13
229.466	12.26
229.682	14.25
229.899	15.44
230.116	16.46
230.332	14.98
230.549	13.77
230.765	15.36
230.982	15
231.199	18.16
231.415	17.29
231.632	17.09
231.848	20.76
232.065	20.45
232.281	21.33
232.498	20.43
232.714	21.02
232.931	23.35
233.147	20.06
233.364	21.98
233.58	23.45
233.797	23.8
234.013	24.73
234.23	24.69
234.446	22.28
234.662	22
234.879	22.48
235.095	22.94
235.312	21.84
235.528	22.05
235.744	19.77
235.961	14.14
236.177	12.98
236.393	16.05
236.61	16.42
236.826	10.97
237.042	8.72
237.258	8.01
237.475	9.51
237.691	7.53
237.907	8.86
238.123	9.53
238.339	10.45
238.556	10.19
238.772	7.66
238.988	5.64
239.204	10.7
239.42	11.21
239.636	10.4
239.853	9.82
240.069	11.66
240.285	12.51
240.501	12.26
240.717	13.66
240.933	13.44
241.149	15
241.365	16.53
241.581	16.33
241.797	17.26
242.013	19.09
242.229	18.79
242.445	18.55
242.661	18.75
242.877	18.98
243.093	17.98
243.309	17.39
243.525	18.02
243.741	16
243.957	15.78
244.173	14.79
244.388	14.33
244.604	15.19
244.82	15.84
245.036	16.12
245.252	15.78
245.468	15.66
245.683	15.84
245.899	15.22
246.115	15.55
246.331	15.35
246.547	15.34
246.762	15.38
246.978	15.02
247.194	14.44
247.409	14.15
247.625	14.42
247.841	14.45
248.057	15.14
248.272	15.28
248.488	14.52
248.703	14.24
248.919	14.2
249.135	12.5
249.35	12.61
249.566	12.01
249.782	10.99
249.997	10.79
250.213	11.3
250.428	9.45
250.644	9.78
250.859	11.16
251.075	11.13
251.29	9.97
251.506	11.52
251.721	11.21
251.937	12.46
252.152	12.27
252.368	12.07
252.583	12.93
252.798	13.74
253.014	13.44
253.229	14.29
253.445	13.59
253.66	15.39
253.875	14.86
254.091	16.43
254.306	15.39
254.521	16.16
254.737	15.45
254.952	13.71
255.167	15.06
255.383	14.3
255.598	13.73
255.813	13.3
256.028	13.58
256.244	12.83
256.459	11.84
256.674	12.93
256.889	13.26
257.104	13.52
257.32	13.11
257.535	12.41
257.75	12.36
257.965	12.18
258.18	12.73
258.395	12.62
258.61	12.32
258.826	11.94
259.041	11.4
259.256	11.09
259.471	10.99
259.686	11.28
259.901	11.06
260.116	10.28
260.331	10.13
260.546	9.77
260.761	9.67
260.976	10.65
261.191	11.91
261.406	12.38
261.621	12.04
261.836	11.09
262.05	11.29
262.265	11.44
262.48	12.67
262.695	13.56
262.91	11.81
263.125	11.16
263.34	10.68
263.555	9.35
263.769	8.58
263.984	8.87
264.199	9.96
264.414	9.13
264.629	9.59
264.843	10.23
265.058	9.86
265.273	11.61
265.488	11.93
265.702	11.55
265.917	11.69
266.132	11.61
266.346	10.8
266.561	10.82
266.776	11.31
266.99	10.63
267.205	9.57
267.42	9.02
267.634	8.6
267.849	8.67
268.063	9.58
268.278	9.89
268.492	10.1
268.707	10.79
268.922	10.69
269.136	10.88
269.351	11.21
269.565	12.53
269.78	12.55
269.994	11.98
270.209	11.33
270.423	11.16
270.637	10.85
270.852	11.03
271.066	10.96
271.281	10.92
271.495	10.98
271.709	10.74
271.924	9.83
272.138	9.4
272.353	10.48
272.567	10.63
272.781	10.71
272.996	11.09
273.21	10.61
273.424	11.65
273.638	12.34
273.853	11.75
274.067	13.04
274.281	13.11
274.495	12.73
274.71	12.47
274.924	12.05
275.138	11.12
275.352	11.46
275.566	12.33
275.781	11.43
275.995	11.36
276.209	11.8
276.423	11.44
276.637	11.43
276.851	12.51
277.065	12.6
277.279	13.41
277.493	13.91
277.707	13.59
277.921	12.83
278.135	12.18
278.349	11.23
278.563	11.74
278.777	11.31
278.991	11.08
279.205	11.01
279.419	11.45
279.633	11.91
279.847	11.56
280.061	11.82
280.275	11.71
280.489	13.06
280.703	14.47
280.917	14.81
281.131	14.43
281.344	15.2
281.558	15.64
281.772	15.17
281.986	14.85
282.2	15.04
282.414	14.45
282.627	15
282.841	14.24
283.055	12.94
283.269	12
283.482	11.92
283.696	11.38
283.91	11.37
284.123	11.93
284.337	11.49
284.551	10.97
284.764	11.32
284.978	10.46
285.192	10.36
285.405	10.7
285.619	10.75
285.833	11.4
286.046	11.59
286.26	10.72
286.473	9.8
286.687	10.03
286.9	10.63
287.114	10.66
287.327	11.4
287.541	11.62
287.754	12.03
287.968	12.34
288.181	12.67
288.395	12.6
288.608	13.21
288.822	14.37
289.035	14.76
289.248	14.69
289.462	14.39
289.675	13.86
289.889	13.93
290.102	13.23
290.315	12.97
290.529	12.58
290.742	12.88
290.955	13.36
291.169	12.04
291.382	12.23
291.595	12.76
291.808	12.87
292.022	13.25
292.235	14.26
292.448	14.55
292.661	14.78
292.875	14.33
293.088	13.3
293.301	12.77
293.514	13.43
293.727	13.69
293.94	14.1
294.153	14.47
294.367	13.48
294.58	12.89
294.793	13.24
295.006	13.29
295.219	13.49
295.432	14
295.645	13.97
295.858	13.59
296.071	13.46
296.284	12.92
296.497	13.08
296.71	14.36
296.923	13.87
297.136	13.67
297.349	13.85
297.562	13.28
297.775	13.88
297.988	14.53
298.201	13.95
298.414	13.76
298.626	13.94
298.839	13.84
299.052	13.2
299.265	13.05
299.478	12.84
299.691	13.04
299.903	14.35
300.116	13
300.329	13.09
300.542	14.07
300.755	13.49
300.967	13.09
301.18	12.55
301.393	13.1
301.605	13.85
301.818	14.55
302.031	14.24
302.243	13.37
302.456	13.96
302.669	13.64
302.881	13.52
303.094	14.33
303.307	14.72
303.519	14.8
303.732	14.76
303.944	14.75
304.157	14.42
304.37	14.44
304.582	14.83
304.795	14.69
305.007	14.64
305.22	14.18
305.432	12.85
305.645	12.68
305.857	12.87
306.069	12.66
306.282	12.52
306.494	11.79
306.707	11.52
306.919	11.24
307.132	12
307.344	11.96
307.556	11.22
307.769	11.62
307.981	11.63
308.193	11
308.406	10.66
308.618	10.45
308.83	11.18
309.043	10.86
309.255	11.33
309.467	11.37
309.679	11.64
309.892	12.5
310.104	12.66
310.316	12.42
310.528	12.99
310.74	12.97
310.953	13.49
311.165	13.25
311.377	13.78
311.589	13.83
311.801	13.25
312.013	12.6
312.225	12.25
312.437	12.99
312.649	12.65
312.862	12.82
313.074	13.24
313.286	13.57
313.498	13.57
313.71	13.57
313.922	13.84
314.134	14.04
314.346	14.49
314.558	14.38
314.77	13.53
314.982	14.65
315.193	13.37
315.405	13.06
315.617	12.51
315.829	12.83
316.041	12.25
316.253	11.91
316.465	12.99
316.677	12.96
316.888	14.09
317.1	14.49
317.312	13.81
317.524	14.75
317.736	14.51
317.947	14.35
318.159	14.03
318.371	14.68
318.583	15.06
318.794	13.31
319.006	12.54
319.218	12.28
319.43	12.18
319.641	12.37
319.853	12.64
320.064	14.12
320.276	14.3
320.488	14.8
320.699	14.72
320.911	14.53
321.123	15.95
321.334	16.88
321.546	17
321.757	17.17
321.969	16.96
322.18	16.32
322.392	15.25
322.603	15.09
322.815	14.45
323.026	14.26
323.238	13.66
323.449	13.51
323.661	13.1
323.872	12.26
324.083	11.91
324.295	11.79
324.506	12.17
324.718	12.2
324.929	11.89
325.14	12.49
325.352	13.33
325.563	12.99
325.774	12.23
325.986	11.91
326.197	12.48
326.408	13.04
326.62	14.1
326.831	14.43
327.042	14.68
327.253	15.06
327.464	14.47
327.676	14.07
327.887	15.15
328.098	15.21
328.309	15.45
328.52	15.99
328.732	15.3
328.943	15.12
329.154	15.06
329.365	15.19
329.576	14.9
329.787	15.61
329.998	15.01
330.209	14.63
330.42	15.28
330.631	15.71
330.842	15.5
331.053	15.13
331.264	14.93
331.475	15.96
331.686	14.95
331.897	15.37
332.108	15.82
332.319	14.85
332.53	14.07
332.741	14.23
332.952	14.17
333.163	13.53
333.374	14.14
333.585	14.07
333.795	12.96
334.006	12.98
334.217	12.36
334.428	11.5
334.639	12.43
334.849	12.59
335.06	12.24
335.271	12.89
335.482	13.51
335.692	13.36
335.903	12.86
336.114	12.76
336.325	13.64
336.535	13.32
336.746	13.46
336.957	13.55
337.167	13.63
337.378	13.64
337.589	13.02
337.799	12.15
338.01	12.03
338.22	11.95
338.431	11.97
338.642	11.94
338.852	13.03
339.063	13.31
339.273	13.26
339.484	13.96
339.694	14.12
339.905	14.11
340.115	14.07
340.326	14.15
340.536	13.95
340.746	14
340.957	13.42
341.167	13
341.378	13.04
341.588	12.93
341.799	12.8
342.009	12.51
342.219	12.64
342.43	13.03
342.64	12.43
342.85	12.48
343.061	12.26
343.271	12.72
343.481	13.17
343.691	12.76
343.902	12.17
344.112	11.48
344.322	11.37
344.532	11.08
344.743	11.28
344.953	11.75
345.163	12.39
345.373	13.45
345.583	13.75
345.793	13.28
346.004	13.44
346.214	14.18
346.424	14.52
346.634	15.22
346.844	15.15
347.054	15.17
347.264	14.98
347.474	15.1
347.684	14.47
347.894	14.85
348.104	14.85
348.314	14.95
348.524	14.77
348.734	14.81
348.944	13.91
349.154	14.24
349.364	13.9
349.574	14.25
349.784	13.44
349.994	12.43
350.204	10.77
350.413	10.76
350.623	10.48
350.833	10.62
351.043	10.94
351.253	10.82
351.463	10.62
351.672	10.45
351.882	10.41
352.092	10.86
352.302	11.44
352.511	12.6
352.721	12.58
352.931	12.09
353.141	12.07
353.35	11.91
353.56	12.5
353.77	11.68
353.979	11.85
354.189	11.58
354.399	11.1
354.608	11.57
354.818	10.85
355.027	10.88
355.237	10.73
355.447	10.25
355.656	10
355.866	9.67
356.075	9.71
356.285	9.99
356.494	10.01
356.704	10.63
356.913	10.03
357.123	10.69
357.332	10.58
357.542	10.73
357.751	11.51
357.96	11.09
358.17	11.27
358.379	11.68
358.589	11.39
358.798	11.26
359.007	10.92
359.217	10.79
359.426	10.65
359.635	10.36
359.845	10.41
360.054	10.05
360.263	9.84
360.472	9.4
360.682	9.39
360.891	9.33
361.1	9.33
361.309	9.41
361.519	9.65
361.728	9.38
361.937	9.54
362.146	9.26
362.355	8.86
362.564	9.76
362.774	10.05
362.983	9.87
363.192	10.15
363.401	9.85
363.61	9.31
363.819	9.31
364.028	9.25
364.237	8.96
364.446	9.52
364.655	10.18
364.864	9.91
365.073	10.11
365.282	10.15
365.491	9.9
365.7	9.93
365.909	10.25
366.118	10.06
366.327	10.19
366.536	10.61
366.745	10.41
366.954	10.03
367.162	10.32
367.371	10.59
367.58	10.67
367.789	11.13
367.998	11.73
368.207	11.73
368.415	11.41
368.624	10.8
368.833	10.39
369.042	10.06
369.25	10.46
369.459	10.11
369.668	9.23
369.877	8.91
370.085	8.04
370.294	7.64
370.503	7.2
370.711	7.83
370.92	8.45
371.129	8.44
371.337	8.41
371.546	7.97
371.754	7.78
371.963	7.86
372.171	7.92
372.38	8.09
372.589	8.11
372.797	8.69
373.006	8.71
373.214	8.64
373.423	8.69
373.631	8.72
373.84	8.65
374.048	8.57
374.256	8.47
374.465	8.59
374.673	8.47
374.882	8.46
375.09	8.08
375.298	7.81
375.507	7.57
375.715	7.71
375.923	7.65
376.132	7.44
376.34	7.34
376.548	7.98
376.757	7.97
376.965	8.04
377.173	8.09
377.381	8.15
377.59	7.94
377.798	7.99
378.006	7.81
378.214	8.14
378.423	8.4
378.631	8.13
378.839	7.62
379.047	7.58
379.255	7.51
379.463	7.22
379.671	7.2
379.879	7.44
380.088	7.93
380.296	7.81
380.504	8.05
380.712	7.83
380.92	8.45
381.128	8.47
381.336	8.08
381.544	8.36
381.752	8.18
381.96	8.1
382.168	7.7
382.376	7.21
382.584	7.22
382.791	6.68
382.999	6.71
383.207	6.54
383.415	6.49
383.623	6.62
383.831	6.17
384.039	5.78
384.247	5.6
384.454	5.83
384.662	5.54
384.87	5.79
385.078	5.57
385.285	5.76
385.493	5.42
385.701	5.2
385.909	5.14
386.116	5.11
386.324	5.74
386.532	5.64
386.739	5.45
386.947	5.38
387.155	5.08
387.362	5.4
387.57	5.19
387.778	5.44
387.985	5.57
388.193	5.31
388.4	5.27
388.608	5.03
388.816	5.03
389.023	5.04
389.231	5.22
389.438	4.95
389.646	4.9
389.853	4.92
390.061	4.79
390.268	4.8
390.475	4.9
390.683	5.2
390.89	5.28
391.098	5.41
391.305	5.19
391.512	5.11
391.72	5.31
391.927	5.1
392.135	4.77
392.342	4.63
392.549	4.52
392.756	4.53
392.964	4.25
393.171	4.14
393.378	4.09
393.586	4.23
393.793	4.21
394	4.25
394.207	4.48
394.414	4.47
394.622	4.42
394.829	4.48
395.036	4.39
395.243	4.39
395.45	4.39
395.657	4.31
395.864	4.12
396.072	3.99
396.279	3.86
396.486	3.76
396.693	3.9
396.9	3.89
397.107	3.79
397.314	3.82
397.521	3.72
397.728	3.77
397.935	3.82
398.142	4.01
398.349	4.03
398.556	3.92
398.763	3.75
398.97	3.68
399.177	3.91
399.383	4.14
399.59	4.11
399.797	3.81
400.004	3.74
400.211	3.48
400.418	3.52
400.625	3.62
400.831	3.83
401.038	3.95
401.245	4.07
401.452	3.69
401.658	3.38
401.865	3.48
402.072	3.82
402.279	3.84
402.485	4
402.692	3.8
402.899	3.79
403.105	3.63
403.312	3.57
403.519	3.67
403.725	3.92
403.932	4.12
404.138	4.01
404.345	4.07
404.552	3.96
404.758	3.83
404.965	3.85
405.171	3.72
405.378	3.84
405.584	3.85
405.791	3.92
405.997	3.82
406.204	3.68
406.41	3.74
406.617	3.58
406.823	3.57
407.029	3.68
407.236	3.68
407.442	3.71
407.649	3.6
407.855	3.55
408.061	3.36
408.268	3.32
408.474	3.35
408.68	3.24
408.887	3.47
409.093	3.4
409.299	3.23
409.505	3.27
409.712	3.35
409.918	3.42
410.124	3.48
410.33	3.41
410.537	3.45
410.743	3.43
410.949	3.5
411.155	3.36
411.361	3.51
411.567	3.63
411.773	3.68
411.98	3.65
412.186	3.55
412.392	3.44
412.598	3.43
412.804	3.44
413.01	3.46
413.216	3.53
413.422	3.39
413.628	3.38
413.834	3.45
414.04	3.24
414.246	3.05
414.452	3.21
414.658	3.35
414.864	3.27
415.07	3.1
415.275	2.97
415.481	2.99
415.687	3.01
415.893	2.89
416.099	2.89
416.305	2.92
416.511	3.01
416.716	2.97
416.922	2.82
417.128	3
417.334	3.11
417.539	3.22
417.745	3.17
417.951	3.14
418.157	3.21
418.362	3.27
418.568	3.28
418.774	3.31
418.979	3.33
419.185	3.36
419.391	3.3
419.596	3.27
419.802	3.32
420.008	3.39
420.213	3.43
420.419	3.43
420.624	3.32
420.83	3.33
421.035	3.31
421.241	3.14
421.446	3.14
421.652	3.21
421.857	3.18
422.063	3.11
422.268	3.06
422.474	3.03
422.679	2.96
422.885	3.05
423.09	3.05
423.295	2.99
423.501	3.11
423.706	3.12
423.911	3.02
424.117	3.11
424.322	3
424.527	2.93
424.733	2.97
424.938	3.06
425.143	2.94
425.349	2.97
425.554	3.05
425.759	3.03
425.964	3.03
426.169	3.03
426.375	3.05
426.58	3.09
426.785	3.2
426.99	3.12
427.195	3.15
427.4	3.3
427.605	3.38
427.811	3.38
428.016	3.46
428.221	3.47
428.426	3.32
428.631	3.28
428.836	3.33
429.041	3.35
429.246	3.31
429.451	3.31
429.656	3.26
429.861	3.17
430.066	3.16
430.271	3.06
430.476	2.97
430.681	2.98
430.886	3
431.09	2.94
431.295	2.97
431.5	2.96
431.705	2.96
431.91	2.95
432.115	2.98
432.32	3
432.524	3
432.729	3.03
432.934	3.06
433.139	3.02
433.343	3.12
433.548	3.02
433.753	3.09
433.958	2.98
434.162	2.92
434.367	2.95
434.572	2.9
434.776	2.94
434.981	2.95
435.186	2.95
435.39	2.93
435.595	2.85
435.799	2.95
436.004	3.01
436.209	3.09
436.413	3.21
436.618	3.07
436.822	3.07
437.027	2.99
437.231	2.98
437.436	2.96
437.64	3.04
437.845	3.07
438.049	3.01
438.253	2.92
438.458	2.9
438.662	2.9
438.867	2.92
439.071	2.89
439.275	2.94
439.48	2.95
439.684	2.98
439.888	2.89
440.093	2.83
440.297	2.78
440.501	2.79
440.706	2.74
440.91	2.74
441.114	2.8
441.318	2.79
441.523	2.78
441.727	2.82
441.931	2.76
442.135	2.79
442.339	2.85
442.543	2.84
442.748	2.82
442.952	2.8
443.156	2.69
443.36	2.62
443.564	2.7
443.768	2.71
443.972	2.68
444.176	2.74
444.38	2.8
444.584	2.76
444.788	2.84
444.992	2.93
445.196	2.98
445.4	2.96
445.604	2.96
445.808	2.95
446.012	2.98
446.216	3.04
446.42	3.09
446.624	3.03
446.828	3.15
447.032	3.07
447.235	3.01
447.439	2.96
447.643	3.08
447.847	3.14
448.051	3.09
448.254	3
448.458	2.91
448.662	2.81
448.866	2.88
449.069	2.69
449.273	2.68
449.477	2.62
449.681	2.78
449.884	2.8
450.088	2.8
450.292	2.76
450.495	2.81
450.699	2.9
450.902	2.95
451.106	2.93
451.31	3
451.513	3.02
451.717	3.04
451.92	2.9
452.124	2.87
452.327	2.91
452.531	2.98
452.734	2.95
452.938	2.79
453.141	2.8
453.345	2.69
453.548	2.65
453.752	2.71
453.955	2.77
454.158	2.83
454.362	2.81
454.565	2.72
454.769	2.69
454.972	2.67
455.175	2.71
455.379	2.71
455.582	2.76
455.785	2.81
455.988	2.76
456.192	2.84
456.395	2.79
456.598	2.75
456.801	2.85
457.005	2.84
457.208	2.81
457.411	2.89
457.614	2.85
457.817	2.84
458.021	2.82
458.224	2.75
458.427	2.71
458.63	2.74
458.833	2.75
459.036	2.77
459.239	2.73
459.442	2.77
459.645	2.68
459.848	2.63
460.051	2.71
460.254	2.7
460.457	2.77
460.66	2.74
460.863	2.66
461.066	2.58
461.269	2.52
461.472	2.56
461.675	2.61
461.878	2.71
462.081	2.83
