Data from 2938435_Reflection_4.txt Node
Date: Fri Jun 19 18:41:04 EDT 2015
User: robert
Spectrometer: USB4E03002
Autoset integration time: false
Trigger mode: 4
Integration Time (sec): 1.000000E-1
Scans to average: 10
Electric dark correction enabled: true
Nonlinearity correction enabled: false
Boxcar width: 5
Stray light correction enabled: false
XAxis mode: Wavelengths
Stop averaging: false
Number of Pixels in Spectrum: 3648
>>>>>Begin Spectral Data<<<<<
177.575	147.61
177.794	72.77
178.014	167.48
178.233	-48600
178.452	217.78
178.672	164.98
178.891	-4.51
179.11	-259.26
179.33	-592.64
179.549	-68.91
179.768	-144.58
179.987	8738.3
180.207	-271.82
180.426	-336.63
180.645	-234.84
180.864	-689.12
181.084	-212.19
181.303	-274.89
181.522	-224.33
181.741	-324.03
181.96	-304.46
182.179	-149.86
182.398	-12.84
182.618	-2.4
182.837	-119.03
183.056	-74.1
183.275	-12.03
183.494	1635.71
183.713	199.5
183.932	40.08
184.151	93.38
184.37	23.56
184.589	71.48
184.808	61.24
185.027	21.13
185.246	61.78
185.465	-649.5
185.684	-9.18
185.903	99.87
186.122	113.21
186.341	102.93
186.56	-4476.47
186.779	-16587.5
186.998	-47.75
187.216	-307.95
187.435	-506.44
187.654	-694.08
187.873	-74.96
188.092	-36.07
188.311	-12.73
188.53	-42.51
188.748	-72.81
188.967	-36.76
189.186	-49.63
189.405	-86.63
189.623	-55.26
189.842	10.92
190.061	30.08
190.28	7.39
190.498	-66.79
190.717	-1.78
190.936	-12.65
191.154	40.16
191.373	6.96
191.592	2.49
191.81	6.38
192.029	13.86
192.248	9.32
192.466	-60.26
192.685	-72.81
192.904	-12.83
193.122	-48.33
193.341	-44.54
193.559	-81.93
193.778	8.95
193.996	-4.5
194.215	-0.53
194.433	3.18
194.652	15.85
194.87	42.88
195.089	77.43
195.307	79.39
195.526	85.24
195.744	116.35
195.963	185.74
196.181	233.42
196.399	212.15
196.618	362.12
196.836	147.52
197.055	292.57
197.273	950.29
197.491	-742.28
197.71	254.96
197.928	-632.45
198.146	142.21
198.365	43.77
198.583	49.06
198.801	42.3
199.019	-1.07
199.238	-3.88
199.456	4.97
199.674	20.99
199.892	-11.88
200.111	-32.49
200.329	-10.87
200.547	-4.13
200.765	229.05
200.983	-178.23
201.202	-26.23
201.42	28.83
201.638	68.99
201.856	64.67
202.074	28.18
202.292	17.46
202.51	42.98
202.728	26.94
202.946	-19.99
203.165	-68.55
203.383	1.57
203.601	-8.45
203.819	-15.61
204.037	-51.72
204.255	118.31
204.473	135.27
204.691	-476.6
204.909	-776.15
205.127	-498.49
205.345	1244.89
205.562	189.38
205.78	123.34
205.998	255.07
206.216	357.88
206.434	-3779.82
206.652	184.52
206.87	156.37
207.088	71.82
207.306	42.84
207.523	56.35
207.741	88.54
207.959	-175
208.177	138.26
208.395	278.7
208.612	75.7
208.83	36.77
209.048	22.77
209.266	-822.02
209.483	-10.31
209.701	15.32
209.919	60.64
210.136	17.94
210.354	114.26
210.572	161.76
210.79	169.83
211.007	171.93
211.225	204.08
211.442	-621.08
211.66	165.59
211.878	179
212.095	68.83
212.313	92.24
212.53	103.09
212.748	113.53
212.966	119.97
213.183	138.33
213.401	162.21
213.618	150.27
213.836	198.77
214.053	210.72
214.271	156.47
214.488	69.83
214.705	85.25
214.923	87.28
215.14	85.91
215.358	49.68
215.575	55.53
215.793	106.26
216.01	118.16
216.227	151.86
216.445	111.5
216.662	72.07
216.879	90.12
217.097	87.89
217.314	89.2
217.531	96.94
217.749	91.28
217.966	69.83
218.183	54.13
218.4	35.94
218.618	28.5
218.835	41.29
219.052	29.21
219.269	28
219.487	7.41
219.704	-0.01
219.921	-0.37
220.138	-11.65
220.355	-0.81
220.572	-0.88
220.79	3.7
221.007	4.09
221.224	6.84
221.441	6.59
221.658	-35.19
221.875	-23.73
222.092	-48.81
222.309	-69.46
222.526	-64.96
222.743	-70.52
222.96	-45.75
223.177	-45.8
223.394	-38.29
223.611	-34.58
223.828	-17.49
224.045	-13.61
224.262	-11.39
224.479	-1.18
224.696	1.84
224.913	4.83
225.13	3.94
225.347	3.78
225.564	-1.45
225.781	-2.63
225.997	-6.18
226.214	-8.98
226.431	-6.65
226.648	-6.12
226.865	-4.09
227.082	-3.4
227.298	-3.17
227.515	-3.77
227.732	-6.7
227.949	-4.9
228.165	-6.22
228.382	-6.41
228.599	-8.78
228.816	-9.4
229.032	-8.56
229.249	-11.61
229.466	-12.62
229.682	-12.71
229.899	-13.7
230.116	-12.19
230.332	-14.51
230.549	-15.72
230.765	-14.95
230.982	-11.79
231.199	-10.73
231.415	-14.1
231.632	-12.9
231.848	-13.08
232.065	-10.41
232.281	-9.42
232.498	-11.83
232.714	-8.57
232.931	-3.51
233.147	-6.43
233.364	-3.92
233.58	0.41
233.797	1.11
234.013	3.09
234.23	6.04
234.446	4.46
234.662	4.9
234.879	6.27
235.095	6.61
235.312	2.42
235.528	3.4
235.744	0.81
235.961	-4.77
236.177	-5.32
236.393	-7.01
236.61	-11.75
236.826	-14.37
237.042	-12.01
237.258	-11.51
237.475	-8.6
237.691	-4.08
237.907	-1.43
238.123	1.34
238.339	0.84
238.556	1.57
238.772	2.23
238.988	1.24
239.204	-0.18
239.42	-1.42
239.636	-3.77
239.853	-4.2
240.069	-4.31
240.285	-5.56
240.501	-6.83
240.717	-6.58
240.933	-6.65
241.149	-7.22
241.365	-6.24
241.581	-6.36
241.797	-5.56
242.013	-2.87
242.229	-3.4
242.445	-3.18
242.661	-2.36
242.877	-1.46
243.093	-1.19
243.309	-1.55
243.525	-0.24
243.741	-1.46
243.957	-0.57
244.173	-2.09
244.388	-2.88
244.604	-2.66
244.82	-2.75
245.036	-3.22
245.252	-3.87
245.468	-4.67
245.683	-4.16
245.899	-4.51
246.115	-3.89
246.331	-4.05
246.547	-3.62
246.762	-3.9
246.978	-3.68
247.194	-3.64
247.409	-3.12
247.625	-2.64
247.841	-1.22
248.057	-1.39
248.272	-1.26
248.488	-2.31
248.703	-1.78
248.919	-2.29
249.135	-2.29
249.35	-2.97
249.566	-3.92
249.782	-4.11
249.997	-3.99
250.213	-5.03
250.428	-5.69
250.644	-6.09
250.859	-4.82
251.075	-6.13
251.29	-7.34
251.506	-6.73
251.721	-8.18
251.937	-7.22
252.152	-8.03
252.368	-7.58
252.583	-5.96
252.798	-5.28
253.014	-4.17
253.229	-2.68
253.445	-1.24
253.66	0.84
253.875	0.82
254.091	3.02
254.306	2.09
254.521	3.35
254.737	1.33
254.952	0.19
255.167	0.27
255.383	0.31
255.598	-1.55
255.813	-2.18
256.028	-1
256.244	-2.02
256.459	-2.9
256.674	-2.2
256.889	-3.37
257.104	-2.76
257.32	-2.8
257.535	-2.29
257.75	-3
257.965	-2.62
258.18	-2.68
258.395	-3.51
258.61	-3.25
258.826	-2.9
259.041	-3.38
259.256	-3.19
259.471	-3.4
259.686	-3.3
259.901	-3.58
260.116	-3.85
260.331	-4.44
260.546	-3.43
260.761	-2.95
260.976	-2.53
261.191	-2.08
261.406	-1.35
261.621	-0.73
261.836	-1.26
262.05	-1.44
262.265	-0.56
262.48	0.47
262.695	1.82
262.91	0.13
263.125	-0.8
263.34	-1.95
263.555	-2.17
263.769	-3.7
263.984	-4.16
264.199	-2.84
264.414	-3.82
264.629	-5.25
264.843	-5.04
265.058	-5.06
265.273	-5.18
265.488	-4.37
265.702	-4.41
265.917	-4.13
266.132	-3.86
266.346	-3.89
266.561	-4.4
266.776	-3.52
266.99	-3.75
267.205	-3.83
267.42	-4.44
267.634	-3.2
267.849	-3.43
268.063	-2.08
268.278	-2.05
268.492	-1.49
268.707	-0.78
268.922	-0.28
269.136	-0.63
269.351	-0.2
269.565	0.51
269.78	0.62
269.994	0.22
270.209	-0.11
270.423	-0.28
270.637	-0.79
270.852	-0.41
271.066	-1.03
271.281	-0.86
271.495	-0.85
271.709	-1.19
271.924	-1.96
272.138	-2.18
272.353	-2.15
272.567	-1.82
272.781	-1.95
272.996	-2.48
273.21	-3.6
273.424	-3.45
273.638	-2.81
273.853	-2.91
274.067	-3.12
274.281	-3.67
274.495	-3.52
274.71	-3.66
274.924	-3.62
275.138	-4.39
275.352	-3.66
275.566	-3.01
275.781	-3.56
275.995	-4.91
276.209	-4.64
276.423	-3
276.637	-2.5
276.851	-2.81
277.065	-3.34
277.279	-3.61
277.493	-4.11
277.707	-3.99
277.921	-4.73
278.135	-4.91
278.349	-4.32
278.563	-3.68
278.777	-4.89
278.991	-4.88
279.205	-5.31
279.419	-4.4
279.633	-3.87
279.847	-3.65
280.061	-2.94
280.275	-2.09
280.489	-1.19
280.703	-0.45
280.917	-0.44
281.131	0.01
281.344	0.67
281.558	1.28
281.772	0.62
281.986	0.55
282.2	0.88
282.414	-0.11
282.627	-0
282.841	-0.19
283.055	-1.43
283.269	-2.43
283.482	-2.94
283.696	-3.32
283.91	-3.11
284.123	-2.54
284.337	-2.81
284.551	-3.51
284.764	-3.62
284.978	-4.11
285.192	-3.93
285.405	-3.48
285.619	-3.21
285.833	-2.89
286.046	-3.05
286.26	-3.25
286.473	-4.56
286.687	-4.84
286.9	-4.11
287.114	-3.07
287.327	-2.75
287.541	-3
287.754	-3.04
287.968	-3.36
288.181	-3.06
288.395	-2.52
288.608	-3.18
288.822	-1.7
289.035	-1.32
289.248	-1.37
289.462	-2.7
289.675	-3.41
289.889	-3.49
290.102	-3.89
290.315	-3.88
290.529	-3.94
290.742	-4.43
290.955	-3.07
291.169	-4.24
291.382	-3.73
291.595	-3.58
291.808	-2.81
292.022	-2.5
292.235	-2.27
292.448	-2.13
292.661	-1.7
292.875	-2.42
293.088	-2.57
293.301	-3.72
293.514	-3.45
293.727	-3.87
293.94	-3.55
294.153	-3.9
294.367	-4.66
294.58	-5.46
294.793	-5.15
295.006	-5.26
295.219	-4.87
295.432	-4.98
295.645	-4.42
295.858	-4.55
296.071	-4.59
296.284	-5.1
296.497	-4.96
296.71	-4.42
296.923	-4.14
297.136	-4.56
297.349	-4.49
297.562	-4.73
297.775	-4.49
297.988	-4.83
298.201	-5.21
298.414	-5.2
298.626	-4.75
298.839	-4.36
299.052	-4.25
299.265	-4.19
299.478	-4.18
299.691	-4.42
299.903	-4.15
300.116	-5.15
300.329	-5.01
300.542	-4.46
300.755	-5.07
300.967	-5.34
301.18	-6.25
301.393	-6.05
301.605	-4.99
301.818	-4.99
302.031	-4.76
302.243	-5.34
302.456	-4.55
302.669	-4.72
302.881	-5.56
303.094	-5.28
303.307	-5.92
303.519	-5.78
303.732	-5.52
303.944	-6.84
304.157	-6.4
304.37	-6.84
304.582	-6.56
304.795	-6.72
305.007	-6.78
305.22	-6.29
305.432	-7
305.645	-6.3
305.857	-5.99
306.069	-6.67
306.282	-6.81
306.494	-7.1
306.707	-7.26
306.919	-7.67
307.132	-7.84
307.344	-7.54
307.556	-7.59
307.769	-7.16
307.981	-7.05
308.193	-7
308.406	-7.23
308.618	-6.47
308.83	-6.65
309.043	-5.64
309.255	-5.89
309.467	-5.93
309.679	-5.86
309.892	-5.17
310.104	-5.22
310.316	-6.03
310.528	-5.65
310.74	-5.46
310.953	-5.74
311.165	-4.79
311.377	-4.89
311.589	-4.05
311.801	-4.49
312.013	-5.48
312.225	-5.65
312.437	-5.15
312.649	-4.53
312.862	-5.13
313.074	-4.99
313.286	-5.43
313.498	-6.54
313.71	-6.45
313.922	-5.6
314.134	-4.64
314.346	-3.9
314.558	-3.73
314.77	-4.85
314.982	-4.79
315.193	-4.85
315.405	-3.97
315.617	-3.18
315.829	-3.52
316.041	-3.48
316.253	-4.05
316.465	-3.74
316.677	-2.35
316.888	-2.82
317.1	-1.41
317.312	-1.16
317.524	-0.22
317.736	-0.08
317.947	-0.49
318.159	1.04
318.371	0.58
318.583	0.99
318.794	0.87
319.006	-0.11
319.218	-0.37
319.43	-1.57
319.641	-1.92
319.853	-2.41
320.064	-2.4
320.276	-3.05
320.488	-5.7
320.699	-5.26
320.911	-6.51
321.123	-7.03
321.334	-6.79
321.546	-6.54
321.757	-5.11
321.969	-5.22
322.18	-4.88
322.392	-5.77
322.603	-4.28
322.815	-3.01
323.026	-3.17
323.238	-3.88
323.449	-2.95
323.661	-3.72
323.872	-3.49
324.083	-3.19
324.295	-2.43
324.506	-2.51
324.718	-2.57
324.929	-3.74
325.14	-3.66
325.352	-3.45
325.563	-3.12
325.774	-3.5
325.986	-3.03
326.197	-2.79
326.408	-2.27
326.62	-2.33
326.831	-2.72
327.042	-1.94
327.253	-1.6
327.464	-1.34
327.676	-1.03
327.887	0.41
328.098	0.03
328.309	0.31
328.52	0.45
328.732	-0.9
328.943	-0.93
329.154	-0.12
329.365	0.38
329.576	0.81
329.787	1.35
329.998	1.34
330.209	0.67
330.42	1.42
330.631	1.25
330.842	1.55
331.053	1.54
331.264	2.47
331.475	2.25
331.686	1.83
331.897	2.2
332.108	3.06
332.319	2.93
332.53	2.95
332.741	3.06
332.952	3.8
333.163	3.19
333.374	3.37
333.585	2.76
333.795	2.96
334.006	1.89
334.217	1.76
334.428	0.15
334.639	-0.2
334.849	0.43
335.06	1.02
335.271	0.35
335.482	0.32
335.692	0.64
335.903	0.86
336.114	0.97
336.325	2.17
336.535	1.96
336.746	2.66
336.957	3.41
337.167	3.29
337.378	2.62
337.589	3.45
337.799	3.95
338.01	4.62
338.22	5.41
338.431	5.83
338.642	6.25
338.852	7.16
339.063	7.9
339.273	7.74
339.484	7.76
339.694	8.54
339.905	9.45
340.115	9.61
340.326	9.29
340.536	8.91
340.746	8.88
340.957	9
341.167	8.58
341.378	8.42
341.588	8.38
341.799	8.54
342.009	8.83
342.219	7.83
342.43	7.83
342.64	7.82
342.85	7.86
343.061	7.84
343.271	7.91
343.481	8.69
343.691	8.56
343.902	9.35
344.112	9.08
344.322	8.6
344.532	8.8
344.743	9.02
344.953	9.41
345.163	9.8
345.373	10.23
345.583	10.95
345.793	10.71
346.004	11.57
346.214	11.52
346.424	12.65
346.634	13.45
346.844	13.55
347.054	13.68
347.264	14.48
347.474	14.62
347.684	14.93
347.894	14.99
348.104	15.02
348.314	14.67
348.524	14.39
348.734	14.89
348.944	15.03
349.154	15.77
349.364	16.97
349.574	16.37
349.784	16.93
349.994	16.67
350.204	16.28
350.413	16.5
350.623	17.04
350.833	17.95
351.043	18.11
351.253	18.13
351.463	18.6
351.672	18.07
351.882	19.27
352.092	19.78
352.302	20.31
352.511	20.6
352.721	20.82
352.931	19.77
353.141	19.76
353.35	19.71
353.56	19.95
353.77	18.99
353.979	18.9
354.189	18.23
354.399	17.03
354.608	16.93
354.818	16.02
355.027	15.39
355.237	15.63
355.447	14.79
355.656	14
355.866	13.07
356.075	13.33
356.285	13.39
356.494	12.8
356.704	13.3
356.913	13.01
357.123	13.47
357.332	14.45
357.542	15.08
357.751	15.78
357.96	15.65
358.17	16.23
358.379	16.32
358.589	15.95
358.798	16.23
359.007	15.64
359.217	15.33
359.426	15.35
359.635	14.78
359.845	14.81
360.054	14.26
360.263	14.56
360.472	14.56
360.682	14.37
360.891	14.69
361.1	15.07
361.309	15.93
361.519	16.77
361.728	17.86
361.937	18.43
362.146	18.77
362.355	20.18
362.564	21.52
362.774	22.2
362.983	23.25
363.192	24.3
363.401	24.77
363.61	25.19
363.819	25.82
364.028	25.97
364.237	26.62
364.446	27.32
364.655	27.32
364.864	27.74
365.073	28.25
365.282	28.3
365.491	29.02
365.7	29.21
365.909	29.55
366.118	29.5
366.327	29.59
366.536	30.01
366.745	29.81
366.954	30.45
367.162	29.97
367.371	30.2
367.58	30.56
367.789	30.15
367.998	30.92
368.207	31.11
368.415	30.93
368.624	30.48
368.833	29.99
369.042	29.58
369.25	28.45
369.459	28.31
369.668	27.48
369.877	27.2
370.085	26.35
370.294	25.59
370.503	24.76
370.711	24.67
370.92	24.41
371.129	23.87
371.337	23.79
371.546	23.69
371.754	23.42
371.963	23.16
372.171	23.07
372.38	23.07
372.589	23.17
372.797	23.5
373.006	23.5
373.214	23.85
373.423	24.25
373.631	24.02
373.84	24.49
374.048	24.88
374.256	25.23
374.465	25.19
374.673	25.5
374.882	25.08
375.09	24.98
375.298	25.21
375.507	25.09
375.715	25.05
375.923	25.27
376.132	24.94
376.34	24.32
376.548	24.45
376.757	24.23
376.965	24.36
377.173	24.59
377.381	24.82
377.59	24.33
377.798	24.27
378.006	24.24
378.214	24.35
378.423	24.22
378.631	24.2
378.839	23.99
379.047	23.51
379.255	22.95
379.463	22.39
379.671	21.68
379.879	21.5
380.088	20.93
380.296	20.07
380.504	19.33
380.712	18.79
380.92	18.33
381.128	17.57
381.336	17.03
381.544	17.06
381.752	16.43
381.96	16.14
382.168	15.74
382.376	15.55
382.584	15.65
382.791	15.72
382.999	15.86
383.207	16.18
383.415	16.22
383.623	16.68
383.831	16.23
384.039	16.43
384.247	16.48
384.454	16.64
384.662	16.62
384.87	16.75
385.078	16.45
385.285	16.63
385.493	16.62
385.701	16.62
385.909	16.53
386.116	16.6
386.324	16.99
386.532	16.97
386.739	17.05
386.947	17.39
387.155	17.55
387.362	18.06
387.57	18.24
387.778	18.26
387.985	18.34
388.193	18.3
388.4	18.45
388.608	18.15
388.816	18.16
389.023	17.63
389.231	17.24
389.438	16.65
389.646	16.08
389.853	15.54
390.061	14.93
390.268	14.39
390.475	13.96
390.683	13.45
390.89	12.99
391.098	12.38
391.305	12.18
391.512	11.9
391.72	11.74
391.927	11.61
392.135	11.36
392.342	11.45
392.549	11.74
392.756	11.97
392.964	12.01
393.171	12.43
393.378	12.75
393.586	13.18
393.793	13.34
394	13.58
394.207	13.69
394.414	13.7
394.622	13.67
394.829	14
395.036	14.07
395.243	14.56
395.45	14.8
395.657	15.4
395.864	15.77
396.072	16.27
396.279	16.94
396.486	17.94
396.693	18.89
396.9	19.51
397.107	19.89
397.314	20.51
397.521	21.22
397.728	21.88
397.935	22.45
398.142	23.04
398.349	23.56
398.556	23.86
398.763	23.83
398.97	24.22
399.177	24.66
399.383	25.24
399.59	25.44
399.797	25.2
400.004	25.27
400.211	25.07
400.418	24.96
400.625	24.93
400.831	25.05
401.038	24.89
401.245	24.58
401.452	24.05
401.658	23.31
401.865	23.01
402.072	22.77
402.279	22.43
402.485	22.15
402.692	21.74
402.899	21.44
403.105	20.96
403.312	20.73
403.519	20.54
403.725	20.59
403.932	20.61
404.138	20.51
404.345	20.5
404.552	20.53
404.758	20.52
404.965	20.68
405.171	20.98
405.378	21.3
405.584	21.53
405.791	21.88
405.997	22.29
406.204	22.67
406.41	23.09
406.617	23.53
406.823	23.69
407.029	23.81
407.236	23.79
407.442	23.66
407.649	23.51
407.855	23.29
408.061	23.09
408.268	22.82
408.474	22.75
408.68	22.65
408.887	22.67
409.093	22.57
409.299	22.65
409.505	22.77
409.712	22.94
409.918	23.16
410.124	23.45
410.33	23.84
410.537	24.32
410.743	24.46
410.949	24.67
411.155	24.64
411.361	24.92
411.567	25.29
411.773	25.43
411.98	25.3
412.186	25.3
412.392	25.23
412.598	24.8
412.804	24.57
413.01	24.27
413.216	23.94
413.422	23.6
413.628	23.01
413.834	22.4
414.04	21.86
414.246	21.4
414.452	20.94
414.658	20.66
414.864	20.07
415.07	19.35
415.275	18.64
415.481	18
415.687	17.3
415.893	16.77
416.099	16.19
416.305	15.78
416.511	15.28
416.716	14.72
416.922	14.07
417.128	13.82
417.334	13.37
417.539	13.1
417.745	12.7
417.951	12.42
418.157	12.08
418.362	11.8
418.568	11.44
418.774	11.17
418.979	10.89
419.185	10.63
419.391	10.32
419.596	10.21
419.802	10.15
420.008	10.04
420.213	9.24
420.419	9.25
420.624	9.15
420.83	9.16
421.035	9.14
421.241	9.08
421.446	9.11
421.652	9.17
421.857	9.06
422.063	8.92
422.268	8.96
422.474	9.59
422.679	9.51
422.885	9.56
423.09	9.54
423.295	9.55
423.501	9.57
423.706	9.7
423.911	9.82
424.117	10.11
424.322	10.36
424.527	10.58
424.733	11.01
424.938	11.43
425.143	11.78
425.349	12.08
425.554	12.51
425.759	13.02
425.964	13.37
426.169	13.68
426.375	13.92
426.58	14.19
426.785	14.38
426.99	14.36
427.195	14.37
427.4	14.37
427.605	14.38
427.811	14.36
428.016	14.2
428.221	14.15
428.426	14.02
428.631	14.03
428.836	13.97
429.041	13.91
429.246	13.89
429.451	14.02
429.656	14.1
429.861	14.28
430.066	14.38
430.271	14.48
430.476	14.4
430.681	14.39
430.886	14.37
431.09	14.2
431.295	14.12
431.5	14.07
431.705	13.83
431.91	13.7
432.115	13.56
432.32	13.42
432.524	13.4
432.729	13.51
432.934	13.6
433.139	13.73
433.343	14.03
433.548	14.27
433.753	14.49
433.958	14.65
434.162	14.99
434.367	15.3
434.572	15.57
434.776	15.85
434.981	15.89
435.186	15.94
435.39	15.82
435.595	15.63
435.799	15.45
436.004	15.28
436.209	15.17
436.413	14.84
436.618	14.43
436.822	14.17
437.027	13.72
437.231	13.42
437.436	13.08
437.64	12.83
437.845	12.67
438.049	12.44
438.253	12.2
438.458	12.04
438.662	11.84
438.867	11.77
439.071	11.6
439.275	11.6
439.48	11.63
439.684	11.67
439.888	11.79
440.093	11.89
440.297	12.08
440.501	12.38
440.706	12.61
440.91	12.99
441.114	13.25
441.318	13.51
441.523	13.81
441.727	14.09
441.931	14.32
442.135	14.4
442.339	14.42
442.543	14.24
442.748	13.94
442.952	13.64
443.156	13.18
443.36	12.78
443.564	12.42
443.768	11.95
443.972	11.48
444.176	11.07
444.38	10.73
444.584	10.47
444.788	10.28
444.992	10.22
445.196	10.14
445.4	10.16
445.604	10.2
445.808	10.26
446.012	10.44
446.216	10.63
446.42	11.01
446.624	11.33
446.828	11.67
447.032	12.1
447.235	12.52
447.439	13.04
447.643	13.51
447.847	14.06
448.051	14.61
448.254	15.03
448.458	15.59
448.662	15.95
448.866	16.3
449.069	16.53
449.273	16.76
449.477	16.78
449.681	16.85
449.884	16.85
450.088	16.82
450.292	16.74
450.495	16.66
450.699	16.5
450.902	16.3
451.106	16.15
451.31	16.06
451.513	15.98
451.717	15.91
451.92	15.83
452.124	15.91
452.327	15.94
452.531	16.08
452.734	16.16
452.938	16.11
453.141	16.34
453.345	16.46
453.548	16.65
453.752	16.85
453.955	17.08
454.158	17.28
454.362	17.48
454.565	17.54
454.769	17.62
454.972	17.72
455.175	17.85
455.379	17.81
455.582	17.83
455.785	17.68
455.988	17.49
456.192	17.25
456.395	16.75
456.598	16.12
456.801	15.64
