Data from 2938459_Reflection_2.txt Node
Date: Wed Jun 17 14:07:21 EDT 2015
User: robert
Spectrometer: USB4E03002
Autoset integration time: false
Trigger mode: 4
Integration Time (sec): 1.000000E-1
Scans to average: 10
Electric dark correction enabled: true
Nonlinearity correction enabled: false
Boxcar width: 5
Stray light correction enabled: false
XAxis mode: Wavelengths
Stop averaging: false
Number of Pixels in Spectrum: 3648
>>>>>Begin Spectral Data<<<<<
177.575	-126.29
177.794	-191.52
178.014	-80.61
178.233	-229.66
178.452	266.87
178.672	290.63
178.891	44.69
179.11	-88.36
179.33	1523.96
179.549	-5650.62
179.768	-597.16
179.987	-171.52
180.207	-921.23
180.426	-244.34
180.645	213
180.864	198.69
181.084	210.47
181.303	235.02
181.522	249.72
181.741	442.13
181.96	292.58
182.179	339.63
182.398	291.92
182.618	217.58
182.837	231.18
183.056	803.42
183.275	470.95
183.494	489.76
183.713	411.07
183.932	3007.76
184.151	1192.72
184.37	481.77
184.589	243.17
184.808	229.2
185.027	720.16
185.246	425.9
185.465	316.56
185.684	345.96
185.903	446.47
186.122	356.46
186.341	213.17
186.56	202.86
186.779	320.8
186.998	384.39
187.216	213.77
187.435	188.22
187.654	174.61
187.873	137.73
188.092	161.39
188.311	128.56
188.53	143.76
188.748	162.31
188.967	169.61
189.186	178.51
189.405	256.5
189.623	242.12
189.842	327.97
190.061	-2460
190.28	-244.25
190.498	-220.34
190.717	-1370.03
190.936	-503.1
191.154	-269.74
191.373	-245.25
191.592	-1468.96
191.81	225.62
192.029	-566.83
192.248	1250.95
192.466	492.7
192.685	166.22
192.904	177.23
193.122	176.36
193.341	189.33
193.559	223.21
193.778	189.44
193.996	206.53
194.215	249.63
194.433	186.94
194.652	173.85
194.87	158.97
195.089	148.01
195.307	121.93
195.526	240.22
195.744	232.74
195.963	172.12
196.181	177.36
196.399	149.9
196.618	152.97
196.836	183.4
197.055	170.64
197.273	192.66
197.491	196.84
197.71	189.18
197.928	172.21
198.146	151.28
198.365	193.26
198.583	186.89
198.801	174.91
199.019	162.63
199.238	154.97
199.456	137.5
199.674	121.36
199.892	108
200.111	99.33
200.329	138.89
200.547	160.39
200.765	163.11
200.983	174.22
201.202	182.98
201.42	213.28
201.638	231.73
201.856	221.57
202.074	173.41
202.292	175.03
202.51	174.82
202.728	153.29
202.946	146.37
203.165	110.71
203.383	93.53
203.601	118.07
203.819	96.22
204.037	76.08
204.255	84.42
204.473	98.15
204.691	114.9
204.909	125.76
205.127	96.86
205.345	99.93
205.562	111.58
205.78	130.51
205.998	120.42
206.216	128.68
206.434	124.07
206.652	130.96
206.87	134.81
207.088	128.66
207.306	121.39
207.523	134.25
207.741	133.66
207.959	153.16
208.177	145.64
208.395	124.77
208.612	123.25
208.83	131.88
209.048	104
209.266	100.15
209.483	93.6
209.701	97.01
209.919	103.9
210.136	113.1
210.354	82.43
210.572	81.38
210.79	78.14
211.007	85.72
211.225	72.84
211.442	98.86
211.66	113.99
211.878	121.64
212.095	124.66
212.313	115.81
212.53	106.04
212.748	111.19
212.966	113.73
213.183	123.25
213.401	97.96
213.618	99.41
213.836	87.31
214.053	74.03
214.271	68.03
214.488	55.72
214.705	60.15
214.923	63.4
215.14	75.93
215.358	74.68
215.575	72.8
215.793	73.35
216.01	69.72
216.227	77.98
216.445	82.57
216.662	89.45
216.879	100.86
217.097	91.91
217.314	92.49
217.531	99.74
217.749	105.49
217.966	105.58
218.183	108.4
218.4	99.91
218.618	79.24
218.835	42.03
219.052	38.93
219.269	-5.77
219.487	0.9
219.704	4.91
219.921	-5.92
220.138	-7.37
220.355	-8.69
220.572	10.46
220.79	15.75
221.007	24.49
221.224	34.6
221.441	33.14
221.658	45.47
221.875	48.29
222.092	46.53
222.309	53.57
222.526	58.14
222.743	59.27
222.96	54.54
223.177	54.32
223.394	48.3
223.611	47.56
223.828	46.43
224.045	41.24
224.262	34.44
224.479	38.51
224.696	37.88
224.913	36.36
225.13	32.88
225.347	28.21
225.564	25.67
225.781	24.62
225.997	23.41
226.214	22.79
226.431	21.14
226.648	22
226.865	20.31
227.082	20.19
227.298	19.95
227.515	20.04
227.732	20.5
227.949	20.78
228.165	19.66
228.382	18.93
228.599	18.19
228.816	18.46
229.032	18.35
229.249	17.16
229.466	16.36
229.682	16.42
229.899	18.34
230.116	18.75
230.332	17.3
230.549	18.51
230.765	19.42
230.982	20.92
231.199	23.49
231.415	22.94
231.632	25.34
231.848	25.02
232.065	22.66
232.281	19.96
232.498	19.94
232.714	21
232.931	21.74
233.147	22.98
233.364	19.85
233.58	18.2
233.797	18.18
234.013	16.23
234.23	14.35
234.446	15.77
234.662	15.05
234.879	12.53
235.095	13.6
235.312	15.52
235.528	15.81
235.744	16.54
235.961	15.7
236.177	14.55
236.393	16.94
236.61	19.38
236.826	19.03
237.042	19.39
237.258	23.4
237.475	23.87
237.691	23.25
237.907	20.94
238.123	22.02
238.339	24.51
238.556	25.93
238.772	23.84
238.988	22.24
239.204	20.14
239.42	19.65
239.636	18.52
239.853	17.74
240.069	17.76
240.285	17.11
240.501	16.37
240.717	15.2
240.933	14.36
241.149	14.33
241.365	14.87
241.581	16.18
241.797	17.34
242.013	16.74
242.229	17.06
242.445	16.51
242.661	16.35
242.877	17.14
243.093	16.48
243.309	17.1
243.525	16.45
243.741	15.54
243.957	14.8
244.173	12.91
244.388	13.1
244.604	12.44
244.82	12.15
245.036	12.56
245.252	12.11
245.468	12.06
245.683	12.39
245.899	12.63
246.115	12.63
246.331	12.69
246.547	12.93
246.762	12.96
246.978	13.1
247.194	13.38
247.409	13.15
247.625	12.96
247.841	13.69
248.057	13.14
248.272	13.1
248.488	13.04
248.703	12.22
248.919	11.74
249.135	10.65
249.35	11.36
249.566	11.18
249.782	11.53
249.997	12.02
250.213	10.9
250.428	10.28
250.644	10.87
250.859	11.52
251.075	12.35
251.29	12.78
251.506	13.66
251.721	13.26
251.937	13.41
252.152	13.79
252.368	14.52
252.583	15.95
252.798	16.32
253.014	15.84
253.229	15.72
253.445	15.26
253.66	16.04
253.875	15.66
254.091	16.16
254.306	15.51
254.521	15.04
254.737	14.01
254.952	12.44
255.167	12.66
255.383	12.82
255.598	11.89
255.813	11.46
256.028	10.28
256.244	10.29
256.459	8.99
256.674	8.82
256.889	8.56
257.104	8.22
257.32	8.84
257.535	8.72
257.75	8.89
257.965	8.73
258.18	8.55
258.395	8.85
258.61	8.89
258.826	9.2
259.041	9.47
259.256	9.39
259.471	9.83
259.686	9.34
259.901	9.53
260.116	9.23
260.331	9.91
260.546	9.86
260.761	9.54
260.976	9.3
261.191	9.31
261.406	9.46
261.621	9.68
261.836	9.59
262.05	10.18
262.265	10.3
262.48	10.27
262.695	8.67
262.91	9.87
263.125	9.96
263.34	10.49
263.555	10.69
263.769	10.03
263.984	10.14
264.199	10.59
264.414	10.74
264.629	10.51
264.843	10.41
265.058	10.89
265.273	10.3
265.488	10.27
265.702	9.64
265.917	9.35
266.132	9.75
266.346	9.95
266.561	9.73
266.776	9.55
266.99	9.27
267.205	9.42
267.42	9.25
267.634	9.82
267.849	10.08
268.063	10.67
268.278	11.13
268.492	11.13
268.707	10.72
268.922	10.18
269.136	9.82
269.351	9.93
269.565	9.94
269.78	9.5
269.994	9.21
270.209	8.91
270.423	8.83
270.637	8.64
270.852	8.37
271.066	8.95
271.281	9.15
271.495	8.8
271.709	8.62
271.924	8.51
272.138	8.84
272.353	9.26
272.567	9.88
272.781	9.73
272.996	9.64
273.21	9.95
273.424	9.06
273.638	9.19
273.853	10.15
274.067	10.34
274.281	10.51
274.495	10.79
274.71	10.27
274.924	9.35
275.138	9.17
275.352	8.45
275.566	8.59
275.781	9.08
275.995	9.31
276.209	9.22
276.423	9.31
276.637	9.08
276.851	9.2
277.065	9.15
277.279	9.78
277.493	10
277.707	10.65
277.921	10.34
278.135	9.87
278.349	9.25
278.563	9.21
278.777	9.05
278.991	8.75
279.205	8.71
279.419	8.36
279.633	8.68
279.847	8.84
280.061	8.68
280.275	8.7
280.489	9.05
280.703	9.5
280.917	9.32
281.131	9.78
281.344	10.01
281.558	9.88
281.772	10.31
281.986	10.12
282.2	9.97
282.414	9.84
282.627	9.82
282.841	9.66
283.055	9.26
283.269	9.5
283.482	9.28
283.696	9.17
283.91	9
284.123	8.8
284.337	8.49
284.551	8.62
284.764	8.96
284.978	9.06
285.192	9.17
285.405	9.07
285.619	9.2
285.833	8.94
286.046	8.62
286.26	9.08
286.473	9.06
286.687	9.13
286.9	9.07
287.114	8.47
287.327	8.14
287.541	7.91
287.754	8.16
287.968	7.48
288.181	7.63
288.395	8.36
288.608	8.2
288.822	8.06
289.035	7.87
289.248	7.59
289.462	7.95
289.675	7.83
289.889	7.89
290.102	7.49
290.315	7.4
290.529	7.89
290.742	7.38
290.955	7.51
291.169	7.24
291.382	7.88
291.595	8.13
291.808	8.33
292.022	8.71
292.235	8.68
292.448	9.4
292.661	9.82
292.875	9.23
293.088	9.21
293.301	9.23
293.514	9.64
293.727	9.46
293.94	9.44
294.153	9.28
294.367	9.02
294.58	8.67
294.793	8.12
295.006	8.45
295.219	8.7
295.432	9.02
295.645	9.06
295.858	8.96
296.071	8.6
296.284	8.56
296.497	8.54
296.71	8.71
296.923	9.14
297.136	9.3
297.349	9.35
297.562	9.38
297.775	9.04
297.988	9.08
298.201	9.32
298.414	9.74
298.626	9.93
298.839	9.88
299.052	9.69
299.265	9.2
299.478	9.44
299.691	9.35
299.903	9.14
300.116	9.49
300.329	8.68
300.542	8.69
300.755	8.66
300.967	8.78
301.18	9.08
301.393	9.22
301.605	9.25
301.818	8.8
302.031	8.65
302.243	8.63
302.456	8.7
302.669	9.11
302.881	9.09
303.094	8.79
303.307	9.16
303.519	9.42
303.732	9.66
303.944	10.17
304.157	10.44
304.37	10.53
304.582	10.59
304.795	10.58
305.007	10.65
305.22	10.92
305.432	10.8
305.645	9.9
305.857	9.35
306.069	9.6
306.282	9.57
306.494	9.64
306.707	9.79
306.919	9.35
307.132	9.05
307.344	9.05
307.556	8.98
307.769	9.3
307.981	9.54
308.193	9.57
308.406	8.69
308.618	9.01
308.83	8.98
309.043	8.21
309.255	8.75
309.467	8.73
309.679	8.51
309.892	8.48
310.104	8.25
310.316	8.25
310.528	8.47
310.74	8.63
310.953	8.44
311.165	8.11
311.377	8.15
311.589	8.08
311.801	8.22
312.013	8.59
312.225	8.47
312.437	8.81
312.649	9
312.862	8.98
313.074	9.48
313.286	9.33
313.498	9.9
313.71	10.73
313.922	10.54
314.134	10.42
314.346	10.29
314.558	10.52
314.77	10.57
314.982	10.78
315.193	10.86
315.405	10.72
315.617	10.62
315.829	11.13
316.041	10.97
316.253	11.45
316.465	11.74
316.677	11.9
316.888	11.67
317.1	11.96
317.312	11.67
317.524	11.35
317.736	11.85
317.947	12.33
318.159	11.86
318.371	11.74
318.583	11.43
318.794	11.28
319.006	11.41
319.218	11.1
319.43	10.87
319.641	11
319.853	11.05
320.064	10.85
320.276	10.6
320.488	10.58
320.699	10.81
320.911	10.86
321.123	10.96
321.334	11.33
321.546	11.77
321.757	11.66
321.969	12.02
322.18	11.64
322.392	11.36
322.603	11.35
322.815	11.19
323.026	11.19
323.238	11.3
323.449	11.05
323.661	10.4
323.872	10.25
324.083	10.52
324.295	10.22
324.506	10.79
324.718	11.07
324.929	11.32
325.14	11.43
325.352	11.04
325.563	10.94
325.774	11.39
325.986	12.11
326.197	11.96
326.408	11.9
326.62	11.45
326.831	11.96
327.042	11.71
327.253	11.48
327.464	11.67
327.676	12.5
327.887	12.68
328.098	12.39
328.309	12
328.52	11.88
328.732	12.16
328.943	12.76
329.154	11.64
329.365	11.84
329.576	11.45
329.787	11.6
329.998	11.34
330.209	11.04
330.42	11.23
330.631	11.55
330.842	12.2
331.053	11.91
331.264	11.69
331.475	12.04
331.686	12.5
331.897	12.47
332.108	12.75
332.319	12.91
332.53	12.98
332.741	13.06
332.952	12.94
333.163	12.96
333.374	12.83
333.585	12.64
333.795	12.97
334.006	12.87
334.217	13.23
334.428	13.18
334.639	12.86
334.849	12.8
335.06	12.45
335.271	12.04
335.482	11.71
335.692	11.56
335.903	11.81
336.114	11.51
336.325	11.09
336.535	11
336.746	10.87
336.957	10.77
337.167	11.11
337.378	11.44
337.589	11.72
337.799	11.99
338.01	12.98
338.22	13.22
338.431	13.4
338.642	13.34
338.852	13.52
339.063	13.32
339.273	13.57
339.484	13.88
339.694	13.49
339.905	13.38
340.115	13.9
340.326	13.56
340.536	13.54
340.746	13.44
340.957	13.61
341.167	13.38
341.378	13.24
341.588	12.91
341.799	12.77
342.009	12.71
342.219	12.66
342.43	12.11
342.64	11.77
342.85	11.61
343.061	11.34
343.271	11.35
343.481	11.48
343.691	11.34
343.902	11.12
344.112	10.37
344.322	10.69
344.532	10.75
344.743	10.64
344.953	10.73
345.163	10.51
345.373	10.71
345.583	10.25
345.793	10.49
346.004	11.01
346.214	11.32
346.424	11.96
346.634	11.78
346.844	11.91
347.054	11.93
347.264	11.79
347.474	12.12
347.684	12.04
347.894	12.22
348.104	12.03
348.314	11.62
348.524	11.66
348.734	11.61
348.944	11.92
349.154	11.85
349.364	11.5
349.574	11.15
349.784	10.71
349.994	10.71
350.204	10.99
350.413	11.21
350.623	11.43
350.833	11.5
351.043	11.13
351.253	10.59
351.463	10.36
351.672	10.25
351.882	10.91
352.092	10.86
352.302	10.96
352.511	10.84
352.721	10.57
352.931	10.38
353.141	10.42
353.35	10.68
353.56	10.68
353.77	10.45
353.979	10.69
354.189	10.02
354.399	9.96
354.608	9.72
354.818	9.78
355.027	9.85
355.237	9.89
355.447	9.8
355.656	9.68
355.866	9.88
356.075	10.28
356.285	10.46
356.494	10.5
356.704	10.78
356.913	10.79
357.123	10.61
357.332	10.3
357.542	10.15
357.751	10.02
357.96	9.78
358.17	9.8
358.379	9.68
358.589	9.62
358.798	9.83
359.007	9.81
359.217	9.86
359.426	9.88
359.635	10.07
359.845	10.02
360.054	10.05
360.263	10.12
360.472	10.09
360.682	9.92
360.891	9.92
361.1	9.94
361.309	9.98
361.519	10.13
361.728	10.16
361.937	10.31
362.146	10.49
362.355	10.38
362.564	10.56
362.774	10.3
362.983	10.47
363.192	10.43
363.401	10.22
363.61	9.83
363.819	9.97
364.028	9.76
364.237	9.52
364.446	9.43
364.655	9.4
364.864	9.39
365.073	9.41
365.282	9.54
365.491	9.38
365.7	9.35
365.909	9.28
366.118	9.11
366.327	9.05
366.536	9.17
366.745	9.15
366.954	9.08
367.162	8.85
367.371	9.02
367.58	8.9
367.789	8.99
367.998	8.95
368.207	9.15
368.415	8.91
368.624	8.97
368.833	8.77
369.042	8.42
369.25	8.92
369.459	9.32
369.668	9.3
369.877	9.13
370.085	9.1
370.294	9.23
370.503	8.98
370.711	9.45
370.92	9.54
371.129	9.43
371.337	9.52
371.546	8.95
371.754	8.91
371.963	9
372.171	8.85
372.38	8.77
372.589	9.06
372.797	9.36
373.006	8.87
373.214	9.03
373.423	9.03
373.631	9.05
373.84	9.16
374.048	8.96
374.256	8.9
374.465	9.33
374.673	9.36
374.882	9.13
375.09	8.99
375.298	8.8
375.507	8.67
375.715	8.81
375.923	8.83
376.132	9.1
376.34	8.89
376.548	8.92
376.757	8.69
376.965	8.85
377.173	8.57
377.381	8.62
377.59	8.9
377.798	8.99
378.006	8.92
378.214	9.04
378.423	8.73
378.631	8.62
378.839	8.46
379.047	8.36
379.255	8.36
379.463	8.3
379.671	8.08
379.879	8
380.088	8.12
380.296	8.08
380.504	7.97
380.712	8.18
380.92	8.41
381.128	8.65
381.336	8.65
381.544	8.39
381.752	8.51
381.96	8.38
382.168	8.52
382.376	8.25
382.584	8.18
382.791	8.21
382.999	8.14
383.207	7.91
383.415	7.9
383.623	8
383.831	8.11
384.039	8.13
384.247	8.56
384.454	8.29
384.662	8.26
384.87	8.26
385.078	8.33
385.285	7.99
385.493	8.27
385.701	7.98
385.909	7.99
386.116	7.87
386.324	7.77
386.532	7.38
386.739	7.23
386.947	7.37
387.155	7.42
387.362	7.29
387.57	7.48
387.778	7.41
387.985	7.36
388.193	7.23
388.4	7.16
388.608	7.45
388.816	7.48
389.023	7.69
389.231	7.59
389.438	7.59
389.646	7.79
389.853	7.77
390.061	7.6
390.268	7.61
390.475	7.62
390.683	7.79
390.89	7.73
391.098	7.82
391.305	7.86
391.512	7.76
391.72	7.74
391.927	7.64
392.135	7.48
392.342	7.61
392.549	7.69
392.756	7.69
392.964	7.64
393.171	7.58
393.378	7.49
393.586	7.42
393.793	7.51
394	7.26
394.207	7.2
394.414	7.45
394.622	7.46
394.829	7.52
395.036	7.46
395.243	7.52
395.45	7.57
395.657	7.64
395.864	7.71
396.072	7.75
396.279	7.76
396.486	7.53
396.693	7.53
396.9	7.4
397.107	7.23
397.314	7.58
397.521	7.41
397.728	7.38
397.935	7.61
398.142	7.57
398.349	7.32
398.556	7.54
398.763	7.64
398.97	7.69
399.177	7.82
399.383	7.85
399.59	7.42
399.797	7.36
400.004	7.27
400.211	7.06
400.418	7.01
400.625	7.17
400.831	6.98
401.038	6.93
401.245	6.94
401.452	6.88
401.658	6.96
401.865	6.97
402.072	7.01
402.279	7.01
402.485	6.94
402.692	7.02
402.899	7.12
403.105	7.2
403.312	7.34
403.519	7.35
403.725	7.33
403.932	7.31
404.138	7.28
404.345	7.28
404.552	7.31
404.758	7.61
404.965	7.45
405.171	7.37
405.378	7.36
405.584	7.17
405.791	6.93
405.997	7.06
406.204	6.98
406.41	6.97
406.617	6.85
406.823	7
407.029	6.82
407.236	6.95
407.442	6.96
407.649	7.13
407.855	7
408.061	7.07
408.268	6.86
408.474	6.74
408.68	6.75
408.887	6.88
409.093	6.63
409.299	6.65
409.505	6.57
409.712	6.54
409.918	6.33
410.124	6.53
410.33	6.6
410.537	6.71
410.743	6.92
410.949	6.94
411.155	6.92
411.361	6.85
411.567	6.77
411.773	6.68
411.98	6.75
412.186	6.85
412.392	6.87
412.598	6.82
412.804	6.6
413.01	6.53
413.216	6.46
413.422	6.69
413.628	6.78
413.834	6.71
414.04	6.68
414.246	6.47
414.452	6.57
414.658	6.61
414.864	6.57
415.07	6.71
415.275	6.75
415.481	6.82
415.687	6.48
415.893	6.56
416.099	6.47
416.305	6.53
416.511	6.72
416.716	6.66
416.922	6.61
417.128	6.65
417.334	6.58
417.539	6.48
417.745	6.47
417.951	6.54
418.157	6.5
418.362	6.53
418.568	6.55
418.774	6.42
418.979	6.47
419.185	6.45
419.391	6.31
419.596	6.26
419.802	6.25
420.008	6.29
420.213	6.92
420.419	6.93
420.624	6.92
420.83	6.86
421.035	6.83
421.241	6.8
421.446	6.8
421.652	6.89
421.857	6.94
422.063	6.93
422.268	6.86
422.474	6.3
422.679	6.3
422.885	6.23
423.09	6.22
423.295	6.19
423.501	6.14
423.706	6.15
423.911	6.14
424.117	6.23
424.322	6.32
424.527	6.32
424.733	6.24
424.938	6.2
425.143	6.36
425.349	6.46
425.554	6.49
425.759	6.5
425.964	6.45
426.169	6.46
426.375	6.39
426.58	6.48
426.785	6.66
426.99	6.78
427.195	6.87
427.4	6.73
427.605	6.84
427.811	6.86
428.016	6.92
428.221	6.94
428.426	6.91
428.631	6.94
428.836	6.89
429.041	6.71
429.246	6.62
429.451	6.6
429.656	6.7
429.861	6.62
430.066	6.74
430.271	6.7
430.476	6.74
430.681	6.86
430.886	6.78
431.09	6.69
431.295	6.66
431.5	6.6
431.705	6.59
431.91	6.64
432.115	6.47
432.32	6.41
432.524	6.42
432.729	6.49
432.934	6.43
433.139	6.47
433.343	6.52
433.548	6.54
433.753	6.61
433.958	6.55
434.162	6.43
434.367	6.47
434.572	6.54
434.776	6.46
434.981	6.39
435.186	6.21
435.39	6.02
435.595	6.01
435.799	6.08
436.004	6.08
436.209	6.06
436.413	6.15
436.618	6.17
436.822	6.13
437.027	6.19
437.231	6.17
437.436	6.29
437.64	6.45
437.845	6.38
438.049	6.43
438.253	6.45
438.458	6.5
438.662	6.55
438.867	6.65
439.071	6.79
439.275	6.78
439.48	6.75
439.684	6.73
439.888	6.67
440.093	6.77
440.297	6.63
440.501	6.6
440.706	6.62
440.91	6.65
441.114	6.59
441.318	6.38
441.523	6.36
441.727	6.4
441.931	6.58
442.135	6.62
442.339	6.54
442.543	6.6
442.748	6.61
442.952	6.62
443.156	6.56
443.36	6.55
443.564	6.67
443.768	6.68
443.972	6.68
444.176	6.57
444.38	6.49
444.584	6.49
444.788	6.48
444.992	6.4
445.196	6.45
445.4	6.46
445.604	6.38
445.808	6.32
446.012	6.36
446.216	6.31
446.42	6.24
446.624	6.34
446.828	6.33
447.032	6.3
447.235	6.32
447.439	6.21
447.643	6.21
447.847	6.37
448.051	6.46
448.254	6.41
448.458	6.46
448.662	6.56
448.866	6.47
449.069	6.47
449.273	6.49
449.477	6.51
449.681	6.54
449.884	6.52
450.088	6.55
450.292	6.5
450.495	6.5
450.699	6.62
450.902	6.59
451.106	6.61
451.31	6.62
451.513	6.61
451.717	6.68
451.92	6.7
452.124	6.61
452.327	6.54
452.531	6.57
452.734	6.61
452.938	6.45
453.141	6.47
453.345	6.45
453.548	6.36
453.752	6.4
453.955	6.42
454.158	6.39
454.362	6.43
454.565	6.48
454.769	6.49
454.972	6.59
455.175	6.71
455.379	6.63
455.582	6.62
455.785	6.77
455.988	6.76
456.192	6.68
456.395	6.7
456.598	6.78
456.801	6.75
457.005	6.71
457.208	6.61
457.411	6.47
457.614	6.45
457.817	6.51
458.021	6.44
458.224	6.53
458.427	6.54
458.63	6.6
458.833	6.53
459.036	6.5
459.239	6.45
459.442	6.44
459.645	6.48
459.848	6.49
460.051	6.46
460.254	6.57
460.457	6.45
460.66	6.5
460.863	6.45
461.066	6.49
461.269	6.47
461.472	6.47
461.675	6.42
461.878	6.32
462.081	6.44
462.284	6.44
462.486	6.37
462.689	6.37
462.892	6.39
463.095	6.48
463.298	6.48
463.5	6.44
463.703	6.43
463.906	6.54
464.109	6.59
464.311	6.58
464.514	6.63
464.717	6.7
464.92	6.79
