Data from 2938534_Reflection_3.txt Node
Date: Mon Jun 15 23:59:22 EDT 2015
User: robert
Spectrometer: USB4E03002
Autoset integration time: false
Trigger mode: 4
Integration Time (sec): 1.000000E-1
Scans to average: 10
Electric dark correction enabled: true
Nonlinearity correction enabled: false
Boxcar width: 6
Stray light correction enabled: false
XAxis mode: Wavelengths
Stop averaging: false
Number of Pixels in Spectrum: 3648
>>>>>Begin Spectral Data<<<<<
177.575	-46.84
177.794	-66.33
178.014	19.29
178.233	30.24
178.452	40.49
178.672	-17.76
178.891	0
179.11	2.78
179.33	83.54
179.549	20.64
179.768	-8.62
179.987	-17.84
180.207	-33.41
180.426	-69.97
180.645	-22.87
180.864	15.85
181.084	12.45
181.303	20.31
181.522	-10.67
181.741	100.62
181.96	181.82
182.179	89.73
182.398	307.03
182.618	454.69
182.837	760.49
183.056	-7642.86
183.275	-331.73
183.494	-16.25
183.713	50.59
183.932	24.54
184.151	113.93
184.37	85.28
184.589	215.35
184.808	133.23
185.027	139.48
185.246	121.99
185.465	119.2
185.684	134.4
185.903	136.7
186.122	162.86
186.341	99.82
186.56	93.92
186.779	97.49
186.998	113.35
187.216	116.71
187.435	102.07
187.654	112.74
187.873	112.28
188.092	119.67
188.311	78.47
188.53	76.03
188.748	94.77
188.967	57.61
189.186	220
189.405	171.91
189.623	180.5
189.842	91.29
190.061	91.12
190.28	91.25
190.498	121.72
190.717	103.76
190.936	89.6
191.154	77.44
191.373	62.83
191.592	26.47
191.81	32.21
192.029	16.72
192.248	-77.27
192.466	1170
192.685	38.46
192.904	31.67
193.122	-185.45
193.341	-117.07
193.559	-75.58
193.778	89.74
193.996	408.06
194.215	140.75
194.433	199.3
194.652	200
194.87	216.47
195.089	268.53
195.307	216.72
195.526	167.13
195.744	330.41
195.963	212.21
196.181	182.89
196.399	153.38
196.618	164.29
196.836	213.3
197.055	212.73
197.273	477.63
197.491	297.54
197.71	275.4
197.928	191.13
198.146	33.33
198.365	-15.22
198.583	68.1
198.801	66.67
199.019	32
199.238	71.43
199.456	45.98
199.674	168.22
199.892	126.16
200.111	887.1
200.329	-370.83
200.547	-60.47
200.765	-86.67
200.983	95.65
201.202	62.45
201.42	93.07
201.638	128.89
201.856	98.68
202.074	116.16
202.292	146.38
202.51	208.15
202.728	316.67
202.946	642.73
203.165	308.61
203.383	579.03
203.601	386.67
203.819	2833.33
204.037	404.97
204.255	467.35
204.473	206.13
204.691	-672.5
204.909	-172.41
205.127	90.28
205.345	222.47
205.562	476.19
205.78	218.86
205.998	191.1
206.216	143.69
206.434	111.67
206.652	150.45
206.87	210.2
207.088	154.8
207.306	179.1
207.523	153.94
207.741	170
207.959	55.24
208.177	105.45
208.395	46.69
208.612	62.34
208.83	62.63
209.048	39.96
209.266	70.66
209.483	100.53
209.701	127.35
209.919	102.11
210.136	124.36
210.354	71.68
210.572	52
210.79	45.93
211.007	38.01
211.225	56.87
211.442	78.2
211.66	101.63
211.878	73.72
212.095	49.18
212.313	49.79
212.53	32.14
212.748	30.97
212.966	15.47
213.183	7.1
213.401	13.29
213.618	21.91
213.836	46.21
214.053	41.45
214.271	38.49
214.488	40.09
214.705	68.9
214.923	48.1
215.14	23.97
215.358	35.59
215.575	21.75
215.793	39.06
216.01	61.83
216.227	82.13
216.445	77.15
216.662	57.23
216.879	41.55
217.097	34.71
217.314	30.92
217.531	27.71
217.749	30.14
217.966	24.85
218.183	30.84
218.4	34.25
218.618	17.29
218.835	-2.4
219.052	10.14
219.269	9.95
219.487	6.65
219.704	19.35
219.921	4.48
220.138	7.54
220.355	1.94
220.572	15.82
220.79	16.66
221.007	15.05
221.224	-2.55
221.441	0.69
221.658	6.84
221.875	-13.9
222.092	-6.74
222.309	-2.23
222.526	9.1
222.743	15.12
222.96	6.41
223.177	0.48
223.394	-5.39
223.611	-10.29
223.828	-16.3
224.045	-3.04
224.262	1.67
224.479	3.56
224.696	11.43
224.913	11.27
225.13	11.41
225.347	8.04
225.564	9.23
225.781	11.11
225.997	13.92
226.214	11.53
226.431	12.67
226.648	13.08
226.865	12.79
227.082	13.03
227.298	13.11
227.515	12.08
227.732	11.08
227.949	11.11
228.165	11.44
228.382	11.22
228.599	12.04
228.816	11.33
229.032	13.23
229.249	12.24
229.466	12.72
229.682	14.17
229.899	13.51
230.116	12.28
230.332	13.49
230.549	14.05
230.765	14.56
230.982	15.58
231.199	15.32
231.415	13.7
231.632	13.82
231.848	13.91
232.065	15.79
232.281	15.67
232.498	12.93
232.714	14.91
232.931	15.57
233.147	13.78
233.364	13.45
233.58	14.53
233.797	13.39
234.013	12.63
234.23	12.67
234.446	11.57
234.662	10.29
234.879	8.83
235.095	8.43
235.312	8.69
235.528	8.44
235.744	7.61
235.961	8.45
236.177	8.5
236.393	9.77
236.61	10.56
236.826	13.06
237.042	12.33
237.258	12.72
237.475	13.33
237.691	12.53
237.907	12.61
238.123	13.5
238.339	12.19
238.556	12.75
238.772	12.74
238.988	14.01
239.204	12.2
239.42	11.09
239.636	10.54
239.853	11.45
240.069	12.67
240.285	12.37
240.501	12.9
240.717	11.67
240.933	11.35
241.149	11.97
241.365	12.1
241.581	12.12
241.797	11.49
242.013	11.57
242.229	12.47
242.445	12.29
242.661	11.42
242.877	10.93
243.093	11.17
243.309	11
243.525	11.84
243.741	11.67
243.957	10.77
244.173	9.99
244.388	10.17
244.604	9.98
244.82	9.9
245.036	9.39
245.252	9.05
245.468	9.26
245.683	8.91
245.899	8.95
246.115	8.79
246.331	8.93
246.547	8.68
246.762	9.07
246.978	9.65
247.194	9.25
247.409	9.16
247.625	8.87
247.841	8.84
248.057	9.52
248.272	9.84
248.488	10.41
248.703	9.48
248.919	9.21
249.135	9.19
249.35	8.58
249.566	7.83
249.782	7.07
249.997	6.95
250.213	7.39
250.428	7.77
250.644	7.85
250.859	7.41
251.075	7.15
251.29	6.1
251.506	6.19
251.721	6.51
251.937	6.14
252.152	6.4
252.368	6.89
252.583	6.63
252.798	6.86
253.014	6.48
253.229	6.31
253.445	5.57
253.66	5.84
253.875	6.33
254.091	8.15
254.306	8.9
254.521	9.06
254.737	8.57
254.952	10.25
255.167	9.84
255.383	9.21
255.598	9.02
255.813	9.54
256.028	9.31
256.244	9.15
256.459	9.01
256.674	8.63
256.889	7.65
257.104	7.72
257.32	7.75
257.535	7.65
257.75	7.29
257.965	7.01
258.18	7.66
258.395	7.35
258.61	6.85
258.826	6.86
259.041	7.22
259.256	7.14
259.471	7.15
259.686	7.31
259.901	7.36
260.116	7.45
260.331	7.7
260.546	7.56
260.761	7.51
260.976	7
261.191	7.17
261.406	7.25
261.621	7.34
261.836	6.71
262.05	6.43
262.265	6.17
262.48	6.1
262.695	5.59
262.91	5.55
263.125	5.47
263.34	5.48
263.555	6.17
263.769	6
263.984	6.6
264.199	7.41
264.414	7.71
264.629	7.91
264.843	7.97
265.058	7.94
265.273	7.48
265.488	6.91
265.702	6.92
265.917	6.64
266.132	6.59
266.346	6.46
266.561	6.61
266.776	6.25
266.99	5.83
267.205	5.08
267.42	5.06
267.634	5.1
267.849	5.43
268.063	5.56
268.278	6.12
268.492	6.01
268.707	6.53
268.922	6.61
269.136	6.07
269.351	6.24
269.565	6.14
269.78	6.49
269.994	7.06
270.209	7.18
270.423	7
270.637	6.52
270.852	6.57
271.066	6.55
271.281	6.48
271.495	6.31
271.709	6.28
271.924	6.85
272.138	6.56
272.353	6.89
272.567	6.82
272.781	6.43
272.996	6.42
273.21	6.6
273.424	6.99
273.638	7.71
273.853	8.19
274.067	7.97
274.281	8.31
274.495	8.44
274.71	7.96
274.924	8.11
275.138	8.12
275.352	7.67
275.566	7.45
275.781	7.14
275.995	6.98
276.209	6.68
276.423	5.88
276.637	5.29
276.851	5.45
277.065	4.99
277.279	5.58
277.493	5.49
277.707	5.61
277.921	5.17
278.135	5.26
278.349	5.83
278.563	6.15
278.777	6.39
278.991	6.16
279.205	6.38
279.419	6.27
279.633	6.35
279.847	6.56
280.061	5.97
280.275	6.79
280.489	5.83
280.703	6.48
280.917	6.78
281.131	6.49
281.344	6.18
281.558	5.9
281.772	6.31
281.986	6.22
282.2	6.38
282.414	6.55
282.627	6.23
282.841	5.93
283.055	5.75
283.269	6.33
283.482	5.85
283.696	5.72
283.91	5.67
284.123	5.82
284.337	6.47
284.551	6.55
284.764	6.67
284.978	6.91
285.192	6.93
285.405	7.24
285.619	7.31
285.833	7.11
286.046	7.12
286.26	7.34
286.473	7.41
286.687	7.36
286.9	7.52
287.114	6.9
287.327	7.04
287.541	6.81
287.754	6.55
287.968	6.11
288.181	6.06
288.395	6.22
288.608	5.92
288.822	6.16
289.035	6.58
289.248	6.56
289.462	6.95
289.675	6.75
289.889	6.86
290.102	6.74
290.315	7.01
290.529	6.85
290.742	7.31
290.955	7.22
291.169	7.58
291.382	7.54
291.595	7.26
291.808	6.87
292.022	7.09
292.235	6.94
292.448	7.15
292.661	7.17
292.875	7.15
293.088	6.95
293.301	7.19
293.514	7.03
293.727	7.38
293.94	7.27
294.153	7.82
294.367	7.65
294.58	7.66
294.793	7.44
295.006	7.36
295.219	7.31
295.432	7.16
295.645	7.08
295.858	7.31
296.071	7.35
296.284	7.15
296.497	7.07
296.71	7.17
296.923	6.97
297.136	6.93
297.349	7.03
297.562	7.12
297.775	7.07
297.988	6.9
298.201	6.96
298.414	7.03
298.626	6.75
298.839	6.61
299.052	6.83
299.265	6.64
299.478	6.53
299.691	6.42
299.903	7.02
300.116	7.04
300.329	6.86
300.542	7.18
300.755	7.38
300.967	7.54
301.18	7.79
301.393	8.06
301.605	8.01
301.818	8.29
302.031	8.05
302.243	7.61
302.456	7.32
302.669	7.1
302.881	7.17
303.094	7.26
303.307	7.31
303.519	7.49
303.732	7.1
303.944	6.68
304.157	6.44
304.37	6.58
304.582	6.41
304.795	6.6
305.007	6.77
305.22	7.22
305.432	7.63
305.645	7.13
305.857	7.04
306.069	7.1
306.282	6.84
306.494	7.27
306.707	7.24
306.919	7.23
307.132	6.95
307.344	6.66
307.556	6.64
307.769	6.84
307.981	6.7
308.193	6.51
308.406	6.83
308.618	6.73
308.83	6.33
309.043	6.2
309.255	6.19
309.467	6.35
309.679	6.46
309.892	6.44
310.104	6.33
310.316	6.34
310.528	6.53
310.74	6.62
310.953	6.26
311.165	6.29
311.377	6.34
311.589	6.63
311.801	7.29
312.013	7.16
312.225	7.04
312.437	7.12
312.649	6.96
312.862	7
313.074	7.07
313.286	6.38
313.498	6.06
313.71	6.41
313.922	5.96
314.134	6.17
314.346	6.07
314.558	5.52
314.77	5.81
314.982	6.22
315.193	6.37
315.405	6.93
315.617	7.54
315.829	7.42
316.041	7.63
316.253	8.14
316.465	8.01
316.677	8.35
316.888	8.46
317.1	8.41
317.312	8.42
317.524	7.94
317.736	7.99
317.947	7.65
318.159	7.54
318.371	7.6
318.583	7.41
318.794	7.52
319.006	7.28
319.218	7.24
319.43	7.14
319.641	7.21
319.853	7.49
320.064	7.64
320.276	8.05
320.488	7.84
320.699	7.81
320.911	7.98
321.123	7.74
321.334	8.33
321.546	8.54
321.757	8.47
321.969	9.04
322.18	8.81
322.392	8.98
322.603	8.83
322.815	8.78
323.026	8.37
323.238	8.19
323.449	8.37
323.661	8.35
323.872	7.99
324.083	7.99
324.295	8.11
324.506	8.44
324.718	8.29
324.929	8.16
325.14	7.79
325.352	7.72
325.563	7.67
325.774	7.85
325.986	7.73
326.197	7.74
326.408	7.62
326.62	7.99
326.831	7.66
327.042	7.48
327.253	6.7
327.464	6.29
327.676	6.42
327.887	6.56
328.098	6.59
328.309	6.73
328.52	6.81
328.732	7.15
328.943	7.2
329.154	7.48
329.365	7.47
329.576	7.8
329.787	8.08
329.998	8.7
330.209	8.79
330.42	9
330.631	8.96
330.842	9.11
331.053	9.01
331.264	9.13
331.475	8.99
331.686	8.9
331.897	8.9
332.108	8.78
332.319	8.33
332.53	8.16
332.741	8.25
332.952	8.47
333.163	8.41
333.374	8.57
333.585	8.27
333.795	8.4
334.006	8.37
334.217	8.32
334.428	8.46
334.639	8.54
334.849	8.86
335.06	9.13
335.271	9.32
335.482	9.42
335.692	9.32
335.903	9.27
336.114	9.11
336.325	9.18
336.535	8.94
336.746	9.24
336.957	9.3
337.167	9
337.378	8.84
337.589	8.68
337.799	8.61
338.01	8.17
338.22	7.99
338.431	8.05
338.642	8.24
338.852	8.1
339.063	8.04
339.273	8.17
339.484	7.84
339.694	7.81
339.905	7.88
340.115	7.87
340.326	7.79
340.536	7.86
340.746	7.95
340.957	7.98
341.167	7.92
341.378	7.94
341.588	7.99
341.799	8.09
342.009	7.9
342.219	7.63
342.43	7.9
342.64	7.95
342.85	8.08
343.061	8.09
343.271	8.1
343.481	8.1
343.691	8.14
343.902	8.17
344.112	8.06
344.322	8.19
344.532	8.08
344.743	8.3
344.953	8.29
345.163	8.34
345.373	8.73
345.583	9.1
345.793	8.66
346.004	8.64
346.214	8.49
346.424	8.37
346.634	8.26
346.844	8.06
347.054	7.97
347.264	7.86
347.474	7.71
347.684	8.05
347.894	7.81
348.104	7.42
348.314	7.01
348.524	7.18
348.734	7.23
348.944	7.47
349.154	7.33
349.364	7.44
349.574	7.37
349.784	7.56
349.994	8.23
350.204	8.08
350.413	8.21
350.623	8.46
350.833	8.6
351.043	8.53
351.253	8.72
351.463	8.51
351.672	8.67
351.882	8.84
352.092	8.76
352.302	8.61
352.511	8.21
352.721	7.43
352.931	7.48
353.141	7.34
353.35	7.05
353.56	6.9
353.77	6.82
353.979	6.98
354.189	7.05
354.399	6.98
354.608	7.1
354.818	6.98
355.027	6.9
355.237	7.28
355.447	7.65
355.656	7.72
355.866	7.68
356.075	7.72
356.285	7.76
356.494	7.85
356.704	7.56
356.913	7.48
357.123	7.48
357.332	7.07
357.542	7.21
357.751	7.73
357.96	7.53
358.17	7.48
358.379	7.63
358.589	7.33
358.798	7.35
359.007	7.36
359.217	7.2
359.426	7.24
359.635	7.34
359.845	7.33
360.054	7.63
360.263	7.55
360.472	7.5
360.682	7.55
360.891	7.47
361.1	7.52
361.309	7.78
361.519	7.71
361.728	7.76
361.937	7.66
362.146	7.75
362.355	7.59
362.564	7.4
362.774	7.45
362.983	7.64
363.192	7.67
363.401	7.64
363.61	7.85
363.819	7.55
364.028	7.44
364.237	7.5
364.446	7.48
364.655	7.75
364.864	7.95
365.073	7.98
365.282	7.98
365.491	7.92
365.7	7.73
365.909	7.51
366.118	7.41
366.327	7.05
366.536	7.1
366.745	7.43
366.954	7.19
367.162	6.9
367.371	6.98
367.58	6.92
367.789	6.99
367.998	7.27
368.207	7.2
368.415	7.04
368.624	7.15
368.833	7.06
369.042	7.38
369.25	7.36
369.459	6.85
369.668	6.99
369.877	7.18
370.085	7.11
370.294	7.07
370.503	7.16
370.711	6.89
370.92	6.66
371.129	6.83
371.337	6.74
371.546	6.79
371.754	6.71
371.963	6.85
372.171	7.11
372.38	7.21
372.589	7.06
372.797	7.09
373.006	6.81
373.214	6.5
373.423	6.62
373.631	6.75
373.84	6.85
374.048	6.82
374.256	6.82
374.465	6.77
374.673	6.67
374.882	6.55
375.09	6.46
375.298	6.48
375.507	6.23
375.715	6.32
375.923	6.46
376.132	6.26
376.34	6.23
376.548	6.12
376.757	6.16
376.965	5.9
377.173	5.74
377.381	5.55
377.59	5.65
377.798	5.76
378.006	5.69
378.214	5.56
378.423	5.52
378.631	5.35
378.839	5.54
379.047	5.43
379.255	5.4
379.463	5.28
379.671	5.57
379.879	5.67
380.088	5.66
380.296	5.64
380.504	5.43
380.712	5.5
380.92	5.68
381.128	5.71
381.336	5.87
381.544	5.92
381.752	6.03
381.96	6.02
382.168	6.11
382.376	6.05
382.584	6.21
382.791	6.16
382.999	6.17
383.207	6.13
383.415	6.02
383.623	5.82
383.831	5.68
384.039	5.56
384.247	5.45
384.454	5.43
384.662	5.24
384.87	5.02
385.078	4.86
385.285	4.67
385.493	4.92
385.701	4.73
385.909	4.73
386.116	4.79
386.324	4.89
386.532	4.95
386.739	4.84
386.947	4.86
387.155	4.81
387.362	5.01
387.57	5.37
387.778	5.56
387.985	5.42
388.193	5.3
388.4	5.47
388.608	5.52
388.816	5.56
389.023	5.72
389.231	5.77
389.438	5.99
389.646	5.92
389.853	5.82
390.061	5.73
390.268	5.62
390.475	5.53
390.683	5.5
390.89	5.45
391.098	5.43
391.305	5.31
391.512	5.3
391.72	5.1
391.927	4.91
392.135	4.73
392.342	4.74
392.549	4.78
392.756	4.85
392.964	4.74
393.171	4.61
393.378	4.83
393.586	4.9
393.793	4.7
394	4.72
394.207	4.75
394.414	4.82
394.622	4.91
394.829	4.86
395.036	4.76
395.243	4.85
395.45	4.73
395.657	4.73
395.864	4.66
396.072	4.49
396.279	4.42
396.486	4.56
396.693	4.68
396.9	4.68
397.107	4.66
397.314	4.7
397.521	4.76
397.728	4.82
397.935	4.76
398.142	4.72
398.349	4.62
398.556	4.8
398.763	4.98
398.97	5.01
399.177	5.07
399.383	4.93
399.59	4.8
399.797	4.84
400.004	4.77
400.211	4.85
400.418	4.72
400.625	4.78
400.831	4.74
401.038	4.86
401.245	4.71
401.452	4.52
401.658	4.53
401.865	4.27
402.072	4.39
402.279	4.44
402.485	4.31
402.692	4.4
402.899	4.36
403.105	4.46
403.312	4.43
403.519	4.4
403.725	4.33
403.932	4.34
404.138	4.41
404.345	4.37
404.552	4.57
404.758	4.44
404.965	4.33
405.171	4.42
405.378	4.35
405.584	4.38
405.791	4.45
405.997	4.32
406.204	4.45
406.41	4.33
406.617	4.44
406.823	4.5
407.029	4.51
407.236	4.36
407.442	4.42
407.649	4.48
407.855	4.39
408.061	4.3
408.268	4.29
408.474	4.15
408.68	4.17
408.887	4.12
409.093	4.3
409.299	4.37
409.505	4.3
409.712	4.35
409.918	4.56
410.124	4.54
410.33	4.46
410.537	4.43
410.743	4.46
410.949	4.35
411.155	4.42
411.361	4.32
411.567	4.33
411.773	4.22
411.98	4.07
412.186	3.96
412.392	3.95
412.598	3.76
412.804	3.81
413.01	3.88
413.216	4.02
413.422	4.1
413.628	4.04
413.834	4.08
414.04	4.23
414.246	4.25
414.452	4.14
414.658	4.09
414.864	4.09
415.07	4.02
415.275	3.97
415.481	3.91
415.687	3.91
415.893	3.92
416.099	3.86
416.305	3.97
416.511	3.93
416.716	3.83
416.922	3.74
417.128	3.78
417.334	3.82
417.539	3.81
417.745	3.77
417.951	3.83
418.157	3.8
418.362	3.75
418.568	3.6
418.774	3.58
418.979	3.58
419.185	3.52
419.391	3.51
419.596	3.53
419.802	3.61
420.008	4.28
420.213	4.24
420.419	4.23
420.624	4.2
420.83	4.17
421.035	4.13
421.241	4.16
421.446	4.17
421.652	4.08
421.857	4.14
422.063	4.12
422.268	4.13
422.474	4.05
422.679	3.33
422.885	3.39
423.09	3.42
423.295	3.41
423.501	3.47
423.706	3.56
423.911	3.57
424.117	3.63
424.322	3.64
424.527	3.57
424.733	3.54
424.938	3.51
425.143	3.46
425.349	3.47
425.554	3.4
425.759	3.34
425.964	3.33
426.169	3.27
426.375	3.23
426.58	3.26
426.785	3.2
426.99	3.21
427.195	3.2
427.4	3.24
427.605	3.18
427.811	3.32
428.016	3.36
428.221	3.36
428.426	3.37
428.631	3.39
428.836	3.38
429.041	3.37
429.246	3.31
429.451	3.28
429.656	3.27
429.861	3.37
430.066	3.34
430.271	3.34
430.476	3.32
430.681	3.36
430.886	3.44
431.09	3.35
431.295	3.37
431.5	3.38
431.705	3.32
431.91	3.39
432.115	3.4
432.32	3.37
432.524	3.32
432.729	3.41
432.934	3.47
433.139	3.4
433.343	3.37
433.548	3.31
433.753	3.37
433.958	3.26
434.162	3.26
434.367	3.29
434.572	3.23
434.776	3.2
434.981	3.34
435.186	3.24
435.39	3.04
435.595	2.99
435.799	2.98
436.004	3.1
436.209	3.02
436.413	3.03
436.618	3.13
436.822	3.18
437.027	3.14
437.231	3.12
437.436	3.11
437.64	3.04
437.845	3.07
438.049	3.18
438.253	3.19
438.458	3.16
438.662	3.04
438.867	3.07
439.071	2.99
439.275	2.93
439.48	2.94
439.684	2.89
439.888	2.94
440.093	2.94
440.297	2.97
440.501	3.02
440.706	3
440.91	2.99
441.114	3.01
441.318	3.04
441.523	3.02
441.727	3.09
441.931	3.1
442.135	2.95
442.339	3.01
442.543	2.97
442.748	2.98
442.952	2.99
443.156	3.03
443.36	3.02
443.564	3
443.768	3.07
443.972	3
444.176	3.07
444.38	3.02
444.584	2.98
444.788	3.07
444.992	3.08
445.196	3.07
445.4	3.04
445.604	2.96
445.808	2.88
446.012	2.92
446.216	2.93
446.42	2.93
446.624	2.97
446.828	2.89
447.032	2.92
447.235	2.89
447.439	2.89
447.643	2.85
447.847	2.82
448.051	2.89
448.254	2.97
448.458	3.05
448.662	3.01
448.866	3.06
449.069	3.02
449.273	3.02
449.477	3.06
449.681	3.06
449.884	3.22
450.088	3.26
450.292	3.25
450.495	3.31
450.699	3.13
450.902	3.01
451.106	2.91
451.31	2.99
451.513	3.02
451.717	3.02
451.92	3.04
452.124	3.15
452.327	3.11
452.531	3
452.734	3
452.938	2.93
453.141	2.91
453.345	2.99
453.548	2.99
453.752	3.05
453.955	2.95
454.158	2.85
454.362	2.82
454.565	2.86
454.769	2.73
454.972	2.81
455.175	2.84
455.379	2.84
455.582	2.92
455.785	2.86
455.988	2.84
456.192	2.81
456.395	2.72
456.598	2.7
456.801	2.8
457.005	2.79
457.208	2.76
457.411	2.8
457.614	2.74
457.817	2.75
458.021	2.6
458.224	2.65
458.427	2.66
458.63	2.68
458.833	2.73
459.036	2.73
459.239	2.7
459.442	2.62
459.645	2.63
459.848	2.62
460.051	2.59
460.254	2.66
460.457	2.63
460.66	2.71
460.863	2.74
461.066	2.78
461.269	2.76
461.472	2.77
461.675	2.86
461.878	2.94
462.081	2.95
462.284	2.95
462.486	2.86
462.689	2.84
462.892	2.81
463.095	2.8
463.298	2.8
463.5	2.83
463.703	2.77
463.906	2.72
464.109	2.81
464.311	2.77
464.514	2.81
464.717	2.86
464.92	2.86
465.122	2.82
465.325	2.9
465.528	2.95
465.73	3.01
465.933	3.07
466.135	3.07
466.338	3.12
466.541	3.26
466.743	3.2
466.946	3.25
467.148	3.25
467.351	3.29
467.553	3.27
467.756	3.37
467.958	3.35
468.161	3.21
468.363	3.24
468.566	3.19
468.768	3.18
468.971	3.19
469.173	3.11
469.375	3.12
469.578	3.04
469.78	3.08
469.983	3.04
470.185	3.05
470.387	3.08
470.59	3.13
470.792	3.21
