Data from 2938579_Reflection_2.txt Node
Date: Sun Jun 14 21:21:11 EDT 2015
User: robert
Spectrometer: USB4E03002
Autoset integration time: false
Trigger mode: 4
Integration Time (sec): 1.000000E-1
Scans to average: 10
Electric dark correction enabled: true
Nonlinearity correction enabled: false
Boxcar width: 5
Stray light correction enabled: false
XAxis mode: Wavelengths
Stop averaging: false
Number of Pixels in Spectrum: 3648
>>>>>Begin Spectral Data<<<<<
177.575	196.93
177.794	222.3
178.014	866.23
178.233	-5437.5
178.452	-303.41
178.672	-289.3
178.891	128.29
179.11	180.31
179.33	139.43
179.549	188.95
179.768	355.57
179.987	224.47
180.207	215.61
180.426	146.62
180.645	211.63
180.864	115.25
181.084	133.27
181.303	109.66
181.522	86.52
181.741	105.53
181.96	75.67
182.179	73.86
182.398	62.64
182.618	55.91
182.837	88.74
183.056	66.39
183.275	75.13
183.494	107.84
183.713	118.05
183.932	122.01
184.151	102.28
184.37	127.6
184.589	145.56
184.808	120.36
185.027	117.32
185.246	121.89
185.465	124.81
185.684	126.64
185.903	109.77
186.122	103.46
186.341	130.63
186.56	162.02
186.779	149.8
186.998	137.96
187.216	188.9
187.435	182.55
187.654	187.73
187.873	230.36
188.092	297.54
188.311	238.66
188.53	278.11
188.748	313.8
188.967	684.9
189.186	519.78
189.405	-1692.28
189.623	-33188.89
189.842	-492.67
190.061	-557.98
190.28	-669.81
190.498	-1224.87
190.717	-3053.75
190.936	1065.51
191.154	1114.39
191.373	265.57
191.592	574.76
191.81	189.44
192.029	289.47
192.248	183.04
192.466	120.6
192.685	101.14
192.904	110.81
193.122	108.59
193.341	97.35
193.559	88.52
193.778	117.41
193.996	106.29
194.215	111.08
194.433	93.79
194.652	85.51
194.87	119.94
195.089	127.72
195.307	106.62
195.526	110.48
195.744	131.2
195.963	117.75
196.181	155.07
196.399	160.22
196.618	142.64
196.836	124.61
197.055	134.71
197.273	119.34
197.491	130.18
197.71	161.4
197.928	150.7
198.146	142.54
198.365	171.45
198.583	112.61
198.801	111.95
199.019	134.24
199.238	154.01
199.456	135.42
199.674	119.01
199.892	102
200.111	74.58
200.329	73.63
200.547	52.75
200.765	55.03
200.983	38.27
201.202	6.13
201.42	7.81
201.638	9.99
201.856	-7.75
202.074	7.92
202.292	19.86
202.51	58.78
202.728	56.71
202.946	68.54
203.165	77.2
203.383	84.51
203.601	93.23
203.819	90.5
204.037	81.26
204.255	99.18
204.473	136.87
204.691	87.74
204.909	62.15
205.127	72.76
205.345	68.5
205.562	63.55
205.78	76.22
205.998	79.99
206.216	70.37
206.434	80.31
206.652	86.04
206.87	84.64
207.088	86.82
207.306	100.69
207.523	97.98
207.741	108.95
207.959	117.48
208.177	101.36
208.395	103.7
208.612	131.5
208.83	120.74
209.048	113.05
209.266	112.2
209.483	126.04
209.701	107.12
209.919	114.29
210.136	120.04
210.354	133.41
210.572	138.23
210.79	150.49
211.007	159.49
211.225	166.03
211.442	147.53
211.66	131.89
211.878	133.39
212.095	137.3
212.313	110.08
212.53	89.81
212.748	70.05
212.966	75.74
213.183	76.62
213.401	61.23
213.618	66.9
213.836	76.68
214.053	79.62
214.271	76.58
214.488	66.77
214.705	84.22
214.923	80.06
215.14	94.47
215.358	94.76
215.575	72.83
215.793	87.87
216.01	77.01
216.227	65.16
216.445	56.23
216.662	39.53
216.879	40.74
217.097	29.08
217.314	45.71
217.531	41.26
217.749	40.24
217.966	62.09
218.183	39.66
218.4	41.04
218.618	47.38
218.835	50.49
219.052	67.02
219.269	69.08
219.487	74.48
219.704	70.26
219.921	71.64
220.138	61.29
220.355	50.12
220.572	55.98
220.79	60.37
221.007	62.37
221.224	57.89
221.441	50.67
221.658	49.72
221.875	44.23
222.092	38.84
222.309	37.45
222.526	38.72
222.743	41.36
222.96	39.07
223.177	36.64
223.394	29.51
223.611	30.08
223.828	33.19
224.045	32.93
224.262	27.42
224.479	28.58
224.696	26.9
224.913	24.75
225.13	23.07
225.347	19.63
225.564	18.19
225.781	17.52
225.997	17.36
226.214	15.13
226.431	14.03
226.648	14.19
226.865	13.56
227.082	12.91
227.298	12.59
227.515	12.57
227.732	13.44
227.949	13.56
228.165	13.55
228.382	13.66
228.599	13.74
228.816	13.58
229.032	13.51
229.249	13.18
229.466	13.11
229.682	13.98
229.899	12.81
230.116	12.31
230.332	12.34
230.549	12.36
230.765	11.45
230.982	10.06
231.199	9.52
231.415	11.42
231.632	11.27
231.848	12.66
232.065	10.61
232.281	12.9
232.498	13.21
232.714	14.9
232.931	14.75
233.147	15.97
233.364	17.44
233.58	18.55
233.797	17.39
234.013	19.43
234.23	20.25
234.446	20.7
234.662	20.52
234.879	19.99
235.095	19.23
235.312	19.51
235.528	19.56
235.744	18.47
235.961	17.49
236.177	15.01
236.393	15.92
236.61	15.08
236.826	17.1
237.042	16.26
237.258	15.36
237.475	14.39
237.691	14.25
237.907	14.28
238.123	14.22
238.339	14
238.556	16.08
238.772	14.28
238.988	12.45
239.204	11.55
239.42	12.12
239.636	12.12
239.853	11.99
240.069	11.9
240.285	11.15
240.501	10.7
240.717	10.52
240.933	10.27
241.149	9.97
241.365	10.39
241.581	11.09
241.797	11.14
242.013	10.61
242.229	10.81
242.445	10.87
242.661	10.92
242.877	11.87
243.093	12.19
243.309	12.36
243.525	13.32
243.741	13.53
243.957	12.09
244.173	11.05
244.388	11.41
244.604	10.61
244.82	10.58
245.036	10.3
245.252	9.68
245.468	9.52
245.683	9.18
245.899	9.27
246.115	8.96
246.331	9.23
246.547	9.55
246.762	9.59
246.978	9.82
247.194	9.8
247.409	9.79
247.625	10.41
247.841	10.54
248.057	10.88
248.272	10.16
248.488	10.64
248.703	10.24
248.919	10.54
249.135	10.42
249.35	10.5
249.566	9.97
249.782	9.76
249.997	8.93
250.213	8.01
250.428	8.17
250.644	8.69
250.859	8.91
251.075	8.75
251.29	7.75
251.506	8.07
251.721	8.09
251.937	8.18
252.152	9.22
252.368	9.75
252.583	10.64
252.798	10.78
253.014	10.65
253.229	9.72
253.445	10.5
253.66	11.48
253.875	12.11
254.091	12.07
254.306	12.86
254.521	11.4
254.737	10.48
254.952	10.89
255.167	11.04
255.383	11.36
255.598	11.48
255.813	10.32
256.028	9.93
256.244	9.03
256.459	8.4
256.674	8.17
256.889	8.12
257.104	7.77
257.32	7.33
257.535	7.11
257.75	6.5
257.965	6.61
258.18	7
258.395	7.11
258.61	7.06
258.826	6.97
259.041	6.83
259.256	6.71
259.471	6.96
259.686	7.09
259.901	6.81
260.116	7.1
260.331	6.7
260.546	6.84
260.761	6.6
260.976	5.93
261.191	6.61
261.406	6.9
261.621	7.67
261.836	7.81
262.05	8.18
262.265	8.68
262.48	9.16
262.695	10.01
262.91	10.12
263.125	10.38
263.34	11.66
263.555	11.32
263.769	11.01
263.984	10.33
264.199	10.3
264.414	9.9
264.629	10.01
264.843	9.17
265.058	9.4
265.273	8.45
265.488	7.88
265.702	7.21
265.917	6.89
266.132	6.69
266.346	7.09
266.561	7.71
266.776	7.58
266.99	7.1
267.205	7.45
267.42	6.59
267.634	6.56
267.849	6.49
268.063	6.87
268.278	7.38
268.492	8.05
268.707	7.51
268.922	7.31
269.136	7.57
269.351	7.76
269.565	7.48
269.78	7.25
269.994	7.61
270.209	8.08
270.423	8.12
270.637	7.83
270.852	7.35
271.066	7.58
271.281	7.3
271.495	7.28
271.709	7.05
271.924	7.18
272.138	7.71
272.353	7.85
272.567	7.7
272.781	7.77
272.996	7.78
273.21	8.16
273.424	8.42
273.638	8.46
273.853	8.28
274.067	9.04
274.281	9.48
274.495	9.34
274.71	9.3
274.924	9.08
275.138	8.95
275.352	8.96
275.566	8.81
275.781	8.5
275.995	8.57
276.209	8.51
276.423	7.67
276.637	7.36
276.851	7.51
277.065	7.3
277.279	7.67
277.493	8.05
277.707	7.88
277.921	7.74
278.135	7.22
278.349	6.99
278.563	6.88
278.777	7.44
278.991	6.81
279.205	6.76
279.419	7.08
279.633	7.06
279.847	6.62
280.061	6.38
280.275	6.14
280.489	7.23
280.703	7.22
280.917	7.29
281.131	6.89
281.344	7.33
281.558	7.16
281.772	6.53
281.986	6.26
282.2	6.19
282.414	6.02
282.627	6.08
282.841	5.12
283.055	5.33
283.269	5.59
283.482	5.71
283.696	5.27
283.91	5.12
284.123	5.23
284.337	5.4
284.551	5.33
284.764	5.51
284.978	5.48
285.192	5.59
285.405	5.54
285.619	5.56
285.833	5.61
286.046	5.9
286.26	6.27
286.473	6.16
286.687	6.42
286.9	6.37
287.114	6.03
287.327	6.05
287.541	6.33
287.754	5.95
287.968	5.53
288.181	5.58
288.395	5.58
288.608	5.63
288.822	5.76
289.035	5.4
289.248	5.52
289.462	5.84
289.675	6.05
289.889	6.07
290.102	5.94
290.315	6.11
290.529	6.32
290.742	6.17
290.955	6.12
291.169	6.14
291.382	6.13
291.595	6.55
291.808	7.02
292.022	6.72
292.235	6.43
292.448	6.91
292.661	6.85
292.875	6.71
293.088	6.98
293.301	6.87
293.514	6.93
293.727	6.81
293.94	6.62
294.153	6.51
294.367	6.09
294.58	6.15
294.793	5.94
295.006	6.13
295.219	5.84
295.432	5.94
295.645	6.04
295.858	6.08
296.071	5.76
296.284	5.55
296.497	5.42
296.71	5.82
296.923	5.98
297.136	6.13
297.349	6.22
297.562	6.2
297.775	6.18
297.988	6.34
298.201	6.46
298.414	6.87
298.626	7.17
298.839	7.42
299.052	7.76
299.265	7.67
299.478	7.55
299.691	7.38
299.903	7.57
300.116	7.28
300.329	6.96
300.542	6.41
300.755	6.51
300.967	6.79
301.18	6.8
301.393	6.47
301.605	6.32
301.818	6.27
302.031	6.08
302.243	6.27
302.456	6.27
302.669	6.45
302.881	7.16
303.094	7.18
303.307	6.82
303.519	6.73
303.732	6.89
303.944	7
304.157	7.39
304.37	7.68
304.582	7.72
304.795	7.99
305.007	8.08
305.22	7.88
305.432	7.89
305.645	8.18
305.857	8.25
306.069	8.13
306.282	8
306.494	7.76
306.707	7.75
306.919	7.4
307.132	7.45
307.344	7.4
307.556	7.19
307.769	7.06
307.981	6.74
308.193	6.6
308.406	6.33
308.618	6.5
308.83	6.51
309.043	6.45
309.255	6.82
309.467	6.67
309.679	6.85
309.892	7.21
310.104	7.44
310.316	7.34
310.528	7.29
310.74	7.9
310.953	8.04
311.165	7.78
311.377	7.79
311.589	7.64
311.801	7.72
312.013	7.45
312.225	7.37
312.437	7.07
312.649	7.26
312.862	7.58
313.074	7.17
313.286	7.04
313.498	7.59
313.71	7.78
313.922	7.72
314.134	7.71
314.346	7.53
314.558	7.65
314.77	8.31
314.982	8.7
315.193	8.7
315.405	8.6
315.617	8.51
315.829	8.34
316.041	7.93
316.253	8.05
316.465	8.72
316.677	8.75
316.888	8.85
317.1	8.73
317.312	8.69
317.524	8.7
317.736	8.88
317.947	8.92
318.159	9.23
318.371	9.87
318.583	9.93
318.794	9.29
319.006	9.16
319.218	8.87
319.43	8.44
319.641	8.73
319.853	8.61
320.064	8.87
320.276	8.97
320.488	8.66
320.699	8.57
320.911	8.8
321.123	8.92
321.334	9.45
321.546	9.46
321.757	9.97
321.969	9.63
322.18	9.83
322.392	9.71
322.603	9.86
322.815	9.98
323.026	9.59
323.238	9.55
323.449	9.53
323.661	9.27
323.872	9.15
324.083	9.4
324.295	9.01
324.506	8.87
324.718	8.79
324.929	8.83
325.14	9.08
325.352	9.11
325.563	8.41
325.774	8.38
325.986	8.3
326.197	8.39
326.408	8.23
326.62	8.3
326.831	8.8
327.042	9.09
327.253	8.85
327.464	8.41
327.676	8.32
327.887	8.77
328.098	8.76
328.309	9.02
328.52	9.27
328.732	9.2
328.943	9.35
329.154	9.18
329.365	8.8
329.576	8.77
329.787	8.98
329.998	9.48
330.209	9.89
330.42	10.22
330.631	10.03
330.842	9.82
331.053	9.74
331.264	9.66
331.475	9.57
331.686	9.47
331.897	9.85
332.108	10.22
332.319	9.89
332.53	9.69
332.741	9.59
332.952	9.7
333.163	9.59
333.374	9.56
333.585	9.77
333.795	9.48
334.006	10.24
334.217	10.11
334.428	9.84
334.639	10.27
334.849	9.93
335.06	9.86
335.271	9.65
335.482	10.18
335.692	10.28
335.903	10.41
336.114	10.38
336.325	9.65
336.535	10.07
336.746	10.12
336.957	10.03
337.167	10.35
337.378	10.28
337.589	10.67
337.799	10.51
338.01	10.8
338.22	10.5
338.431	10.31
338.642	10.58
338.852	10.07
339.063	9.93
339.273	9.37
339.484	9.17
339.694	9.24
339.905	9.19
340.115	8.72
340.326	8.27
340.536	8.76
340.746	9.13
340.957	9.23
341.167	9.2
341.378	8.96
341.588	9.2
341.799	9.56
342.009	9.64
342.219	9.49
342.43	9.47
342.64	9.54
342.85	9.13
343.061	9.09
343.271	9.11
343.481	8.95
343.691	9.22
343.902	9.36
344.112	8.88
344.322	8.72
344.532	8.66
344.743	8.8
344.953	8.73
345.163	8.61
345.373	8.43
345.583	8.33
345.793	8.52
346.004	8.21
346.214	8
346.424	8.21
346.634	8.23
346.844	8.54
347.054	8.43
347.264	8.49
347.474	8.4
347.684	8.51
347.894	8.44
348.104	8.41
348.314	8.64
348.524	8.54
348.734	8.53
348.944	8.4
349.154	8.51
349.364	8.86
349.574	8.47
349.784	8.71
349.994	8.82
350.204	8.65
350.413	8.45
350.623	8.42
350.833	8.57
351.043	8.53
351.253	8.77
351.463	8.13
351.672	7.97
351.882	8.02
352.092	8.12
352.302	8.04
352.511	8.29
352.721	8.32
352.931	8.17
353.141	8.44
353.35	8.72
353.56	8.45
353.77	8.74
353.979	8.59
354.189	8.78
354.399	8.61
354.608	8.46
354.818	8.43
355.027	8.57
355.237	8.71
355.447	8.23
355.656	7.98
355.866	8
356.075	7.92
356.285	7.81
356.494	7.72
356.704	7.66
356.913	7.81
357.123	7.61
357.332	7.34
357.542	7.21
357.751	7.17
357.96	7.1
358.17	7.08
358.379	7.03
358.589	6.94
358.798	6.94
359.007	6.95
359.217	6.82
359.426	6.74
359.635	7.1
359.845	7.04
360.054	7.27
360.263	7.27
360.472	7.18
360.682	7.23
360.891	7.37
361.1	7.25
361.309	7.37
361.519	7.6
361.728	7.81
361.937	7.7
362.146	7.96
362.355	8.15
362.564	8.43
362.774	8.38
362.983	8.13
363.192	8.05
363.401	8.14
363.61	7.88
363.819	7.67
364.028	7.36
364.237	7.2
364.446	6.87
364.655	6.59
364.864	6.45
365.073	6.71
365.282	7.09
365.491	7.09
365.7	7.05
365.909	7.39
366.118	7.48
366.327	7.48
366.536	7.55
366.745	7.66
366.954	7.78
367.162	7.72
367.371	7.82
367.58	7.71
367.789	7.54
367.998	7.54
368.207	7.39
368.415	7.25
368.624	7.48
368.833	7.28
369.042	7.29
369.25	7.26
369.459	7.41
369.668	7.26
369.877	7.12
370.085	7.37
370.294	7.52
370.503	7.49
370.711	7.62
370.92	7.71
371.129	7.93
371.337	7.95
371.546	7.89
371.754	7.87
371.963	7.67
372.171	7.56
372.38	7.4
372.589	7.26
372.797	7.36
373.006	7.31
373.214	7.11
373.423	7.07
373.631	7.03
373.84	6.9
374.048	6.66
374.256	6.79
374.465	7.24
374.673	7.34
374.882	7.22
375.09	7.16
375.298	7.23
375.507	7.25
375.715	7.26
375.923	7.04
376.132	6.98
376.34	6.82
376.548	6.86
376.757	6.67
376.965	6.78
377.173	6.99
377.381	6.94
377.59	6.77
377.798	6.66
378.006	6.72
378.214	7.01
378.423	7.15
378.631	7.43
378.839	7.52
379.047	7.66
379.255	7.43
379.463	7.4
379.671	7.12
379.879	7.03
380.088	7.09
380.296	6.95
380.504	6.8
380.712	6.81
380.92	6.56
381.128	6.38
381.336	6.02
381.544	6.13
381.752	6.17
381.96	6.46
382.168	6.39
382.376	6.5
382.584	6.54
382.791	6.5
382.999	6.4
383.207	6.5
383.415	6.64
383.623	6.78
383.831	6.76
384.039	6.66
384.247	6.56
384.454	6.75
384.662	6.61
384.87	6.56
385.078	6.8
385.285	6.94
385.493	6.86
385.701	6.69
385.909	6.7
386.116	6.62
386.324	6.87
386.532	6.85
386.739	6.75
386.947	6.85
387.155	6.94
387.362	6.79
387.57	6.77
387.778	6.85
387.985	6.93
388.193	6.86
388.4	6.88
388.608	6.77
388.816	7.01
389.023	7
389.231	6.94
389.438	6.71
389.646	6.71
389.853	6.77
390.061	6.81
390.268	6.94
390.475	6.96
390.683	7.12
390.89	7.06
391.098	6.86
391.305	6.81
391.512	6.72
391.72	6.75
391.927	6.62
392.135	6.58
392.342	6.67
392.549	6.47
392.756	6.34
392.964	6.26
393.171	6.21
393.378	6.3
393.586	6.27
393.793	6.32
394	6.28
394.207	6.42
394.414	6.46
394.622	6.29
394.829	6.36
395.036	6.43
395.243	6.33
395.45	6.41
395.657	6.27
395.864	6.34
396.072	6.45
396.279	6.42
396.486	6.48
396.693	6.3
396.9	6.31
397.107	6.23
397.314	6.22
397.521	6.27
397.728	6.12
397.935	6.15
398.142	6.16
398.349	6.09
398.556	6.23
398.763	6.05
398.97	6.16
399.177	6.13
399.383	6.2
399.59	6.16
399.797	6.06
400.004	6.13
400.211	6.1
400.418	6.14
400.625	6.03
400.831	5.97
401.038	5.96
401.245	5.76
401.452	5.6
401.658	5.57
401.865	5.78
402.072	5.87
402.279	5.94
402.485	5.86
402.692	5.72
402.899	5.7
403.105	5.64
403.312	5.71
403.519	5.72
403.725	5.85
403.932	5.93
404.138	5.74
404.345	5.6
404.552	5.44
404.758	5.56
404.965	5.52
405.171	5.53
405.378	5.5
405.584	5.36
405.791	5.37
405.997	5.24
406.204	5.32
406.41	5.34
406.617	5.48
406.823	5.41
407.029	5.4
407.236	5.44
407.442	5.67
407.649	5.78
407.855	5.78
408.061	5.91
408.268	6.06
408.474	5.8
408.68	5.71
408.887	5.65
409.093	5.73
409.299	5.71
409.505	5.52
409.712	5.25
409.918	5.09
410.124	5.05
410.33	4.85
410.537	4.74
410.743	4.8
410.949	4.97
411.155	4.92
411.361	4.94
411.567	4.85
411.773	5.02
411.98	5.07
412.186	5.1
412.392	5.08
412.598	5.12
412.804	5.21
413.01	5.16
413.216	5.09
413.422	5.14
413.628	5.15
413.834	5.18
414.04	5.16
414.246	5.2
414.452	5.37
414.658	5.52
414.864	5.48
415.07	5.45
415.275	5.53
415.481	5.44
415.687	5.38
415.893	5.22
416.099	5.12
416.305	5.24
416.511	5.24
416.716	5.18
416.922	5.16
417.128	5.24
417.334	5.16
417.539	5.1
417.745	5.05
417.951	5.07
418.157	5.14
418.362	5.14
418.568	5.11
418.774	5.05
418.979	5.02
419.185	4.88
419.391	4.76
419.596	4.7
419.802	4.65
420.008	4.67
420.213	4.04
420.419	4
420.624	4.11
420.83	3.98
421.035	3.97
421.241	3.96
421.446	4.01
421.652	4.01
421.857	4.04
422.063	3.96
422.268	3.95
422.474	4.5
422.679	4.51
422.885	4.34
423.09	4.34
423.295	4.31
423.501	4.29
423.706	4.32
423.911	4.35
424.117	4.36
424.322	4.52
424.527	4.47
424.733	4.53
424.938	4.56
425.143	4.63
425.349	4.63
425.554	4.66
425.759	4.72
425.964	4.69
426.169	4.66
426.375	4.71
426.58	4.67
426.785	4.83
426.99	4.9
427.195	4.85
427.4	4.85
427.605	5.08
427.811	5.07
428.016	5.1
428.221	5.17
428.426	5.18
428.631	5.06
428.836	5.04
429.041	4.99
429.246	4.94
429.451	4.9
429.656	4.87
429.861	4.82
430.066	4.85
430.271	4.78
430.476	4.62
430.681	4.65
430.886	4.74
431.09	4.68
431.295	4.62
431.5	4.58
431.705	4.6
431.91	4.56
432.115	4.47
432.32	4.5
432.524	4.41
432.729	4.51
432.934	4.5
433.139	4.52
433.343	4.55
433.548	4.6
433.753	4.59
433.958	4.63
434.162	4.8
434.367	4.84
434.572	4.8
434.776	4.83
434.981	4.76
435.186	4.79
435.39	4.85
435.595	4.94
435.799	4.82
436.004	4.8
436.209	4.64
436.413	4.49
436.618	4.45
436.822	4.4
437.027	4.4
437.231	4.4
437.436	4.34
437.64	4.23
437.845	4.08
438.049	4.09
438.253	4.17
438.458	4.32
438.662	4.33
438.867	4.37
439.071	4.48
439.275	4.42
439.48	4.41
439.684	4.45
439.888	4.47
440.093	4.51
440.297	4.52
440.501	4.52
440.706	4.4
440.91	4.41
441.114	4.28
441.318	4.15
441.523	4.24
441.727	4.17
441.931	4.2
442.135	4.23
442.339	4.24
442.543	4.28
442.748	4.25
442.952	4.33
443.156	4.28
443.36	4.35
443.564	4.48
443.768	4.43
443.972	4.47
444.176	4.36
444.38	4.31
444.584	4.39
444.788	4.28
444.992	4.24
445.196	4.18
445.4	4.14
445.604	4.08
445.808	4
446.012	3.98
446.216	4.03
446.42	4.08
446.624	4.1
446.828	4.04
447.032	4.09
447.235	4.06
447.439	4.14
447.643	4.25
447.847	4.25
448.051	4.4
448.254	4.43
448.458	4.52
448.662	4.53
448.866	4.51
449.069	4.54
449.273	4.65
449.477	4.67
449.681	4.63
449.884	4.56
450.088	4.71
450.292	4.59
450.495	4.53
450.699	4.46
450.902	4.44
451.106	4.36
451.31	4.31
451.513	4.25
451.717	4.25
451.92	4.33
452.124	4.45
452.327	4.46
452.531	4.3
452.734	4.4
452.938	4.4
453.141	4.26
453.345	4.23
453.548	4.26
453.752	4.36
453.955	4.31
454.158	4.23
454.362	4.06
454.565	4
454.769	4.18
454.972	4.15
455.175	4.13
455.379	4.24
455.582	4.32
455.785	4.14
455.988	4
456.192	4.01
456.395	3.97
456.598	3.95
456.801	3.94
457.005	3.95
457.208	3.94
457.411	3.91
457.614	3.87
457.817	3.82
458.021	3.84
458.224	3.9
458.427	3.93
458.63	3.96
458.833	3.94
459.036	3.96
459.239	3.87
459.442	3.81
459.645	3.76
459.848	3.78
460.051	3.81
460.254	3.84
460.457	3.78
460.66	3.79
460.863	3.9
461.066	3.98
461.269	3.99
461.472	4.05
461.675	4.16
461.878	4.24
462.081	4.29
462.284	4.28
462.486	4.37
462.689	4.37
462.892	4.4
463.095	4.29
463.298	4.35
463.5	4.31
463.703	4.28
463.906	4.27
464.109	4.31
464.311	4.29
464.514	4.34
464.717	4.41
464.92	4.44
465.122	4.36
465.325	4.39
465.528	4.39
465.73	4.42
465.933	4.4
466.135	4.5
466.338	4.42
466.541	4.44
466.743	4.41
466.946	4.3
467.148	4.32
467.351	4.33
467.553	4.36
467.756	4.27
467.958	4.27
468.161	4.39
468.363	4.26
468.566	4.31
468.768	4.35
468.971	4.36
469.173	4.34
