Data from 2938472_Reflection_1.txt Node
Date: Wed Jun 17 13:29:13 EDT 2015
User: robert
Spectrometer: USB4E03002
Autoset integration time: false
Trigger mode: 4
Integration Time (sec): 1.000000E-1
Scans to average: 10
Electric dark correction enabled: true
Nonlinearity correction enabled: false
Boxcar width: 5
Stray light correction enabled: false
XAxis mode: Wavelengths
Stop averaging: false
Number of Pixels in Spectrum: 3648
>>>>>Begin Spectral Data<<<<<
177.575	64.56
177.794	48.34
178.014	7.42
178.233	24.46
178.452	31.39
178.672	15.24
178.891	-52.98
179.11	61.97
179.33	62.65
179.549	50.21
179.768	53.87
179.987	46.9
180.207	39.98
180.426	43.49
180.645	54.13
180.864	50.18
181.084	69.01
181.303	186.74
181.522	-189.14
181.741	35.35
181.96	13.94
182.179	-6.16
182.398	8.29
182.618	-6.88
182.837	32.08
183.056	26.05
183.275	5.89
183.494	46.95
183.713	44.13
183.932	89.16
184.151	57.86
184.37	61.16
184.589	112.93
184.808	88.76
185.027	135.99
185.246	174.97
185.465	154.1
185.684	211.43
185.903	267.82
186.122	423.97
186.341	1807.81
186.56	2092.19
186.779	390.49
186.998	1597.04
187.216	-115.93
187.435	-325.72
187.654	5577.91
187.873	-730.25
188.092	182.05
188.311	488.98
188.53	363.19
188.748	371.43
188.967	685.93
189.186	-13.13
189.405	-6290.32
189.623	375.82
189.842	176.8
190.061	143.2
190.28	234.33
190.498	-63.57
190.717	-182.72
190.936	974.09
191.154	473.37
191.373	190.71
191.592	180.16
191.81	208.37
192.029	56.44
192.248	234.45
192.466	-62.51
192.685	117.1
192.904	52.41
193.122	100.19
193.341	87.12
193.559	135.73
193.778	214.8
193.996	270.45
194.215	1639.64
194.433	533.65
194.652	249.97
194.87	122.51
195.089	148.56
195.307	574.23
195.526	187.15
195.744	85.41
195.963	-65.64
196.181	-18
196.399	18.54
196.618	7.88
196.836	27.66
197.055	160.38
197.273	362.95
197.491	231.37
197.71	206.3
197.928	281.32
198.146	378.91
198.365	562.7
198.583	5605.6
198.801	-269.38
199.019	-459.73
199.238	-410.8
199.456	-52.9
199.674	-57.08
199.892	-324.38
200.111	-321.53
200.329	464.98
200.547	5502.74
200.765	-105.47
200.983	-204.02
201.202	193.27
201.42	334.5
201.638	407.35
201.856	214.22
202.074	146.7
202.292	306.03
202.51	277.26
202.728	270.78
202.946	236.07
203.165	267.32
203.383	229.65
203.601	181.4
203.819	148.13
204.037	153.29
204.255	274.25
204.473	4361.59
204.691	374.61
204.909	795.1
205.127	431.94
205.345	474.73
205.562	134.08
205.78	216.67
205.998	-392.09
206.216	-669.15
206.434	-526.13
206.652	277.53
206.87	173.7
207.088	197.45
207.306	81.3
207.523	54.92
207.741	64.32
207.959	100.63
208.177	78.82
208.395	77.83
208.612	92.69
208.83	96.67
209.048	93.84
209.266	105.41
209.483	103.11
209.701	95.78
209.919	199.64
210.136	145.18
210.354	109.95
210.572	83.72
210.79	71.52
211.007	58.08
211.225	58.11
211.442	46.31
211.66	39.15
211.878	11.29
212.095	30.24
212.313	24.76
212.53	32
212.748	41.04
212.966	67.58
213.183	60.03
213.401	45.37
213.618	56.41
213.836	64.9
214.053	67.8
214.271	114.4
214.488	105.56
214.705	107.43
214.923	90.14
215.14	55.55
215.358	29.39
215.575	1.78
215.793	-153.96
216.01	-22.74
216.227	17.67
216.445	32.68
216.662	35.48
216.879	30.88
217.097	18.1
217.314	17.87
217.531	26.31
217.749	33.82
217.966	44.48
218.183	53.44
218.4	44.39
218.618	41.76
218.835	42.19
219.052	42.45
219.269	35.36
219.487	39.07
219.704	46.87
219.921	42.32
220.138	37.37
220.355	34.72
220.572	48.9
220.79	56.67
221.007	45.75
221.224	44.06
221.441	49.12
221.658	53.57
221.875	60.5
222.092	55.32
222.309	57.83
222.526	56.73
222.743	47.92
222.96	36.2
223.177	34.57
223.394	34.72
223.611	32.85
223.828	32.99
224.045	30.79
224.262	25.67
224.479	20.55
224.696	17.69
224.913	14.8
225.13	14.73
225.347	13.48
225.564	12.09
225.781	12.81
225.997	12.97
226.214	11.36
226.431	11.88
226.648	12.5
226.865	12.61
227.082	12.35
227.298	14.32
227.515	14.27
227.732	14.22
227.949	13.49
228.165	11.7
228.382	13.18
228.599	13.93
228.816	14.11
229.032	13.15
229.249	13.17
229.466	14.37
229.682	11.61
229.899	12.99
230.116	11.44
230.332	12.74
230.549	15.23
230.765	13.38
230.982	10.76
231.199	9.83
231.415	9.65
231.632	10.5
231.848	9.52
232.065	10.02
232.281	7.65
232.498	10.09
232.714	10
232.931	10.24
233.147	11.38
233.364	11.47
233.58	10.51
233.797	11.61
234.013	11.75
234.23	13.12
234.446	12.58
234.662	13.41
234.879	15.15
235.095	17.05
235.312	17.64
235.528	14.5
235.744	14.81
235.961	15.85
236.177	14.65
236.393	11.46
236.61	9.58
236.826	11.36
237.042	11.82
237.258	8.72
237.475	7.96
237.691	10.33
237.907	11.25
238.123	14.15
238.339	13.85
238.556	14.4
238.772	14.92
238.988	14.99
239.204	14.43
239.42	14.19
239.636	14
239.853	12.25
240.069	11.03
240.285	11.18
240.501	9.84
240.717	9.39
240.933	9.42
241.149	10.34
241.365	10.5
241.581	10.29
241.797	10.2
242.013	10.55
242.229	11.52
242.445	11.46
242.661	11.75
242.877	12.73
243.093	12.85
243.309	12.6
243.525	12.31
243.741	12.58
243.957	13.04
244.173	13.19
244.388	12.49
244.604	12.05
244.82	12.1
245.036	11.51
245.252	11.25
245.468	11.66
245.683	11.98
245.899	11.44
246.115	11.34
246.331	11.17
246.547	10.98
246.762	10.93
246.978	10.95
247.194	10.47
247.409	10.09
247.625	10.08
247.841	10.21
248.057	9.24
248.272	9.71
248.488	9.13
248.703	8.92
248.919	8.28
249.135	8.05
249.35	7.69
249.566	8.32
249.782	8.43
249.997	8.14
250.213	8.03
250.428	9.04
250.644	8.77
250.859	9.24
251.075	9.71
251.29	10.28
251.506	11.11
251.721	11.57
251.937	11.36
252.152	11.61
252.368	12.55
252.583	11.63
252.798	11.46
253.014	12.56
253.229	11.82
253.445	11
253.66	11.1
253.875	10.45
254.091	9.41
254.306	9.69
254.521	10.15
254.737	9.2
254.952	10.36
255.167	9.18
255.383	8.56
255.598	9.55
255.813	9.81
256.028	9.63
256.244	9.88
256.459	10.05
256.674	9.79
256.889	9.57
257.104	8.84
257.32	8.7
257.535	8.74
257.75	8.58
257.965	8.19
258.18	7.68
258.395	7.72
258.61	7.8
258.826	7.45
259.041	7.24
259.256	7.11
259.471	7.69
259.686	7.16
259.901	7.18
260.116	7.12
260.331	7.21
260.546	7.54
260.761	7.63
260.976	7.17
261.191	7.77
261.406	8.25
261.621	8.93
261.836	8.47
262.05	8.95
262.265	9.3
262.48	9.18
262.695	8.89
262.91	8.83
263.125	8.46
263.34	8.94
263.555	8.59
263.769	8.46
263.984	8.04
264.199	7.88
264.414	6.95
264.629	7.36
264.843	7.75
265.058	7.26
265.273	7.71
265.488	7.45
265.702	7.1
265.917	7.06
266.132	6.53
266.346	6.3
266.561	6.16
266.776	6.89
266.99	6.83
267.205	7.02
267.42	7.91
267.634	8.07
267.849	7.77
268.063	7.2
268.278	7.08
268.492	8.05
268.707	8.67
268.922	8.51
269.136	8.21
269.351	7.47
269.565	6.81
269.78	5.95
269.994	5.5
270.209	5.63
270.423	5.96
270.637	6.31
270.852	5.9
271.066	5.08
271.281	5.07
271.495	5.36
271.709	5.84
271.924	5.81
272.138	6.21
272.353	6.61
272.567	6.13
272.781	6.24
272.996	5.87
273.21	6.04
273.424	6.51
273.638	7.21
273.853	7.38
274.067	7.19
274.281	7.2
274.495	7.53
274.71	7.13
274.924	7.72
275.138	7.68
275.352	8.29
275.566	8.29
275.781	8.45
275.995	7.43
276.209	7.21
276.423	6.98
276.637	6.88
276.851	6.43
277.065	6.06
277.279	6.56
277.493	6.84
277.707	5.94
277.921	5.43
278.135	5.15
278.349	5.59
278.563	5.41
278.777	5.57
278.991	5.59
279.205	5.75
279.419	6.09
279.633	5.4
279.847	5.5
280.061	6.1
280.275	6.2
280.489	6.19
280.703	6.65
280.917	6.75
281.131	6.8
281.344	6.57
281.558	6.46
281.772	6.36
281.986	6.6
282.2	6.22
282.414	5.78
282.627	5.85
282.841	5.71
283.055	5.45
283.269	5.47
283.482	5.54
283.696	5.86
283.91	5.74
284.123	5.99
284.337	6.38
284.551	6.62
284.764	6.83
284.978	6.71
285.192	6.94
285.405	6.96
285.619	7
285.833	6.88
286.046	7.07
286.26	7.49
286.473	7.65
286.687	7.33
286.9	7.49
287.114	7.77
287.327	8.24
287.541	8.59
287.754	8.9
287.968	8.84
288.181	8.5
288.395	8.29
288.608	7.84
288.822	7.79
289.035	8.05
289.248	8.03
289.462	8.14
289.675	7.62
289.889	7.55
290.102	7.11
290.315	7.19
290.529	7.7
290.742	7.94
290.955	8.16
291.169	7.87
291.382	7.55
291.595	7.38
291.808	7.29
292.022	7.56
292.235	7.89
292.448	7.89
292.661	7.89
292.875	7.63
293.088	7.54
293.301	7.71
293.514	8.02
293.727	7.87
293.94	7.73
294.153	7.86
294.367	7.89
294.58	7.61
294.793	8.05
295.006	8.41
295.219	8.59
295.432	8.63
295.645	8.57
295.858	8.38
296.071	8.64
296.284	8.99
296.497	8.91
296.71	9
296.923	9.17
297.136	8.91
297.349	8.47
297.562	8.56
297.775	8.93
297.988	9
298.201	9.45
298.414	9.33
298.626	9.09
298.839	9.17
299.052	9.22
299.265	8.7
299.478	8.86
299.691	9.01
299.903	8.87
300.116	8.48
300.329	8.45
300.542	8.06
300.755	8.26
300.967	8.18
301.18	8.35
301.393	8.52
301.605	8.69
301.818	8.38
302.031	8.74
302.243	8.97
302.456	9.04
302.669	8.98
302.881	9.04
303.094	9.11
303.307	9.15
303.519	8.89
303.732	8.66
303.944	8.83
304.157	9.03
304.37	9.13
304.582	8.83
304.795	8.95
305.007	9.11
305.22	9.13
305.432	9.09
305.645	8.93
305.857	8.96
306.069	9.12
306.282	9.16
306.494	9.44
306.707	9.28
306.919	9.83
307.132	9.56
307.344	10.07
307.556	10.2
307.769	10.23
307.981	10.59
308.193	10.2
308.406	10.16
308.618	9.97
308.83	9.85
309.043	9.74
309.255	9.55
309.467	9.45
309.679	9.2
309.892	8.83
310.104	8.8
310.316	8.83
310.528	9.29
310.74	9.06
310.953	9.17
311.165	8.65
311.377	8.94
311.589	8.75
311.801	9.2
312.013	8.8
312.225	9.12
312.437	9.33
312.649	9.1
312.862	8.94
313.074	9.02
313.286	9.11
313.498	9.29
313.71	9.02
313.922	8.89
314.134	8.45
314.346	8.65
314.558	8.62
314.77	8.23
314.982	8.2
315.193	8.28
315.405	8.05
315.617	7.89
315.829	8.48
316.041	8.36
316.253	8.87
316.465	9.43
316.677	9.59
316.888	9.77
317.1	10.14
317.312	10.42
317.524	9.99
317.736	10.45
317.947	10.98
318.159	10.68
318.371	10.55
318.583	9.97
318.794	9.6
319.006	9.41
319.218	9
319.43	9.1
319.641	8.94
319.853	9.23
320.064	9.33
320.276	8.89
320.488	9.14
320.699	8.86
320.911	9.94
321.123	9.8
321.334	10.17
321.546	10.44
321.757	9.83
321.969	9.59
322.18	9.53
322.392	9.29
322.603	9.68
322.815	9.26
323.026	9.97
323.238	9.29
323.449	9.21
323.661	8.63
323.872	9.09
324.083	9.55
324.295	9.77
324.506	9.89
324.718	9.84
324.929	9.5
325.14	10.19
325.352	9.89
325.563	10.26
325.774	10.25
325.986	10.29
326.197	10.03
326.408	9.91
326.62	9.71
326.831	9.35
327.042	9.6
327.253	9.72
327.464	9.14
327.676	9.28
327.887	8.58
328.098	8.94
328.309	9.1
328.52	8.65
328.732	8.34
328.943	8.73
329.154	9.27
329.365	9.14
329.576	8.96
329.787	9.27
329.998	9.15
330.209	9.69
330.42	9.23
330.631	9.58
330.842	9.59
331.053	9.69
331.264	9.12
331.475	8.88
331.686	9.05
331.897	9.27
332.108	8.83
332.319	9.08
332.53	8.97
332.741	9.28
332.952	8.98
333.163	9.14
333.374	9.46
333.585	9.71
333.795	9.77
334.006	9.31
334.217	9.07
334.428	9.6
334.639	9.21
334.849	9.3
335.06	9.08
335.271	8.98
335.482	9.28
335.692	8.88
335.903	9.2
336.114	8.96
336.325	8.92
336.535	9.32
336.746	8.73
336.957	8.42
337.167	8
337.378	7.64
337.589	8.05
337.799	7.53
338.01	7.94
338.22	7.91
338.431	7.84
338.642	8.28
338.852	7.72
339.063	8.12
339.273	8.39
339.484	8.42
339.694	8.9
339.905	8.77
340.115	9.07
340.326	8.57
340.536	7.96
340.746	7.88
340.957	7.99
341.167	7.73
341.378	7.75
341.588	7.68
341.799	7.78
342.009	7.5
342.219	7.04
342.43	6.95
342.64	7.27
342.85	7.49
343.061	7.69
343.271	7.19
343.481	7.57
343.691	7.43
343.902	7.51
344.112	7.65
344.322	7.9
344.532	7.96
344.743	8.15
344.953	7.88
345.163	8.05
345.373	8.14
345.583	8.31
345.793	8.19
346.004	8.12
346.214	8.32
346.424	8.06
346.634	8.07
346.844	7.98
347.054	7.6
347.264	7.74
347.474	7.94
347.684	7.93
347.894	7.7
348.104	7.69
348.314	7.58
348.524	7.38
348.734	7.52
348.944	7.22
349.154	7.45
349.364	7.78
349.574	7.73
349.784	7.51
349.994	7.5
350.204	7.73
350.413	7.8
350.623	8.07
350.833	7.84
351.043	7.85
351.253	8.09
351.463	7.93
351.672	7.77
351.882	7.72
352.092	7.32
352.302	7.27
352.511	7.07
352.721	7.09
352.931	6.85
353.141	7.05
353.35	6.82
353.56	6.69
353.77	6.84
353.979	6.75
354.189	6.79
354.399	7.17
354.608	7.09
354.818	7.2
355.027	7.4
355.237	6.98
355.447	6.83
355.656	6.73
355.866	6.53
356.075	6.5
356.285	6.38
356.494	6.29
356.704	6.06
356.913	6.09
357.123	6.13
357.332	5.83
357.542	6.6
357.751	6.85
357.96	7.1
358.17	7.61
358.379	7.47
358.589	7.63
358.798	7.64
359.007	7.63
359.217	7.43
359.426	7.32
359.635	7.33
359.845	6.96
360.054	6.84
360.263	6.94
360.472	6.55
360.682	6.68
360.891	6.61
361.1	6.74
361.309	6.67
361.519	6.68
361.728	6.55
361.937	6.61
362.146	6.79
362.355	6.64
362.564	6.47
362.774	6.6
362.983	6.5
363.192	6.47
363.401	6.42
363.61	6.32
363.819	6.63
364.028	6.7
364.237	6.55
364.446	6.41
364.655	6.43
364.864	6.52
365.073	6.46
365.282	6.65
365.491	6.77
365.7	6.66
365.909	6.73
366.118	6.36
366.327	6.51
366.536	6.73
366.745	6.72
366.954	6.69
367.162	6.62
367.371	6.79
367.58	6.7
367.789	6.55
367.998	6.64
368.207	6.72
368.415	6.75
368.624	6.61
368.833	6.37
369.042	6.53
369.25	6.4
369.459	6.49
369.668	6.35
369.877	6.19
370.085	5.96
370.294	5.82
370.503	5.8
370.711	5.83
370.92	5.81
371.129	5.47
371.337	5.19
371.546	5.22
371.754	5.1
371.963	4.99
372.171	5.1
372.38	5.14
372.589	5.29
372.797	5.18
373.006	5.29
373.214	5.42
373.423	5.71
373.631	5.77
373.84	5.87
374.048	6.09
374.256	6.07
374.465	6.01
374.673	6.26
374.882	6.26
375.09	6.42
375.298	6.46
375.507	6.51
375.715	6.53
375.923	6.57
376.132	6.74
376.34	6.6
376.548	6.76
376.757	6.78
376.965	6.55
377.173	6.23
377.381	6.06
377.59	5.92
377.798	5.74
378.006	5.65
378.214	5.84
378.423	5.85
378.631	5.54
378.839	5.46
379.047	5.43
379.255	5.57
379.463	5.74
379.671	6.05
379.879	5.94
380.088	5.93
380.296	6.02
380.504	5.69
380.712	5.63
380.92	5.77
381.128	5.66
381.336	5.48
381.544	5.41
381.752	5.34
381.96	5.18
382.168	5.44
382.376	5.4
382.584	5.15
382.791	5.15
382.999	4.99
383.207	5.02
383.415	5.12
383.623	5.32
383.831	5.18
384.039	5.15
384.247	5.16
384.454	4.81
384.662	4.84
384.87	5.11
385.078	5.02
385.285	5.09
385.493	5.07
385.701	5.07
385.909	4.87
386.116	5.22
386.324	5.24
386.532	5
386.739	5.21
386.947	5.06
387.155	5.14
387.362	5.26
387.57	5.23
387.778	5.08
387.985	5.08
388.193	5.12
388.4	4.84
388.608	4.91
388.816	4.89
389.023	4.89
389.231	5.04
389.438	4.79
389.646	4.8
389.853	4.84
390.061	4.94
390.268	4.74
390.475	4.84
390.683	4.71
390.89	4.6
391.098	4.75
391.305	4.87
391.512	4.79
391.72	4.76
391.927	4.6
392.135	4.66
392.342	4.53
392.549	4.71
392.756	4.63
392.964	4.94
393.171	4.97
393.378	5
393.586	4.75
393.793	4.81
394	4.89
394.207	5.13
394.414	4.92
394.622	5.02
394.829	4.89
395.036	4.76
395.243	4.65
395.45	4.54
395.657	4.37
395.864	4.61
396.072	4.77
396.279	4.79
396.486	4.65
396.693	4.69
396.9	4.65
397.107	4.82
397.314	4.86
397.521	4.69
397.728	4.84
397.935	4.82
398.142	4.47
398.349	4.3
398.556	4.36
398.763	4.38
398.97	4.46
399.177	4.4
399.383	4.32
399.59	4.49
399.797	4.66
400.004	4.69
400.211	4.67
400.418	4.9
400.625	4.95
400.831	4.83
401.038	4.79
401.245	4.71
401.452	4.64
401.658	4.66
401.865	4.68
402.072	4.61
402.279	4.32
402.485	4.3
402.692	4.39
402.899	4.26
403.105	4.2
403.312	4.38
403.519	4.35
403.725	4.65
403.932	4.59
404.138	4.37
404.345	4.26
404.552	4.35
404.758	4.47
404.965	4.33
405.171	4.44
405.378	4.47
405.584	4.33
405.791	4.43
405.997	4.19
406.204	4.01
406.41	4.24
406.617	4.34
406.823	4.39
407.029	4.06
407.236	4.04
407.442	4.08
407.649	4.15
407.855	4.38
408.061	4.22
408.268	4.05
408.474	4.35
408.68	4.14
408.887	4.2
409.093	4.15
409.299	4.47
409.505	4.5
409.712	4.36
409.918	4.35
410.124	4.18
410.33	4.21
410.537	4.36
410.743	4.23
410.949	4.17
411.155	4.11
411.361	4.32
411.567	4.16
411.773	4.15
411.98	4.15
412.186	4.22
412.392	4.13
412.598	4.03
412.804	3.96
413.01	3.92
413.216	4.01
413.422	3.96
413.628	3.89
413.834	4.09
414.04	3.95
414.246	3.98
414.452	3.93
414.658	4
414.864	4.12
415.07	4.26
415.275	4.23
415.481	4.07
415.687	4.17
415.893	4.04
416.099	4
416.305	4.16
416.511	4.17
416.716	4.07
416.922	4.03
417.128	4.1
417.334	4.11
417.539	4.07
417.745	4.15
417.951	4.06
418.157	4.08
418.362	3.96
418.568	3.88
418.774	3.9
418.979	3.95
419.185	3.85
419.391	3.82
419.596	3.71
419.802	3.74
420.008	3.72
420.213	3.75
420.419	3.74
420.624	3.81
420.83	3.79
421.035	3.71
421.241	3.74
421.446	3.83
421.652	3.81
421.857	3.9
422.063	3.99
422.268	4.03
422.474	3.96
422.679	3.99
422.885	4
423.09	4.07
423.295	4.04
423.501	3.98
423.706	3.94
423.911	3.86
424.117	3.83
424.322	3.69
424.527	3.66
424.733	3.74
424.938	3.72
425.143	3.68
425.349	3.68
425.554	3.85
425.759	3.84
425.964	3.88
426.169	3.98
426.375	4.05
426.58	4
426.785	3.98
426.99	3.92
427.195	3.79
427.4	3.68
427.605	3.56
427.811	3.38
428.016	3.39
428.221	3.3
428.426	3.34
428.631	3.23
428.836	3.4
429.041	3.47
429.246	3.46
429.451	3.5
429.656	3.58
429.861	3.66
430.066	3.65
430.271	3.68
430.476	3.81
430.681	3.77
430.886	3.74
431.09	3.73
431.295	3.65
431.5	3.68
431.705	3.75
431.91	3.79
432.115	3.79
432.32	3.75
432.524	3.65
432.729	3.62
432.934	3.46
433.139	3.51
433.343	3.39
433.548	3.42
433.753	3.38
433.958	3.43
434.162	3.42
434.367	3.34
434.572	3.31
434.776	3.42
434.981	3.42
435.186	3.6
435.39	3.51
435.595	3.59
435.799	3.64
436.004	3.6
436.209	3.53
436.413	3.51
436.618	3.55
436.822	3.71
437.027	3.69
437.231	3.67
437.436	3.51
437.64	3.48
437.845	3.43
438.049	3.26
438.253	3.33
438.458	3.46
438.662	3.47
438.867	3.47
439.071	3.46
439.275	3.47
439.48	3.44
439.684	3.6
439.888	3.62
440.093	3.7
440.297	3.92
440.501	3.9
440.706	3.78
440.91	3.78
441.114	3.83
441.318	3.76
441.523	3.69
441.727	3.71
441.931	3.65
442.135	3.61
442.339	3.48
442.543	3.32
442.748	3.35
442.952	3.33
443.156	3.34
443.36	3.28
443.564	3.38
443.768	3.38
443.972	3.39
444.176	3.39
444.38	3.47
444.584	3.57
444.788	3.57
444.992	3.51
445.196	3.5
445.4	3.49
445.604	3.45
445.808	3.41
446.012	3.45
446.216	3.45
446.42	3.45
446.624	3.38
446.828	3.32
447.032	3.33
447.235	3.36
447.439	3.47
447.643	3.45
447.847	3.48
448.051	3.51
448.254	3.57
448.458	3.58
448.662	3.57
448.866	3.62
449.069	3.59
449.273	3.67
449.477	3.68
449.681	3.55
449.884	3.65
450.088	3.68
450.292	3.52
450.495	3.37
450.699	3.39
450.902	3.45
451.106	3.49
451.31	3.51
451.513	3.46
451.717	3.42
451.92	3.46
452.124	3.32
452.327	3.29
452.531	3.39
452.734	3.52
452.938	3.46
453.141	3.41
453.345	3.38
453.548	3.46
453.752	3.45
453.955	3.47
454.158	3.44
454.362	3.48
454.565	3.54
454.769	3.6
454.972	3.59
455.175	3.47
455.379	3.5
455.582	3.44
455.785	3.38
455.988	3.4
456.192	3.39
456.395	3.32
456.598	3.36
456.801	3.42
457.005	3.37
457.208	3.36
457.411	3.47
457.614	3.4
457.817	3.48
458.021	3.49
458.224	3.47
458.427	3.5
458.63	3.57
458.833	3.59
459.036	3.46
459.239	3.38
459.442	3.33
459.645	3.38
459.848	3.44
460.051	3.42
460.254	3.5
460.457	3.46
460.66	3.46
460.863	3.45
461.066	3.42
461.269	3.53
461.472	3.59
461.675	3.51
461.878	3.38
462.081	3.46
462.284	3.48
462.486	3.43
462.689	3.48
462.892	3.43
463.095	3.46
463.298	3.48
463.5	3.36
463.703	3.45
463.906	3.54
464.109	3.56
464.311	3.47
464.514	3.34
464.717	3.23
464.92	3.29
465.122	3.26
465.325	3.29
465.528	3.35
465.73	3.36
465.933	3.33
466.135	3.32
466.338	3.31
466.541	3.34
466.743	3.42
466.946	3.57
467.148	3.51
467.351	3.64
467.553	3.53
467.756	3.46
467.958	3.55
468.161	3.52
468.363	3.53
468.566	3.58
468.768	3.52
468.971	3.49
469.173	3.38
469.375	3.36
