Data from 2938452_Reflection_3.txt Node
Date: Fri Jun 19 17:56:06 EDT 2015
User: robert
Spectrometer: USB4E03002
Autoset integration time: false
Trigger mode: 4
Integration Time (sec): 1.000000E-1
Scans to average: 10
Electric dark correction enabled: true
Nonlinearity correction enabled: false
Boxcar width: 5
Stray light correction enabled: false
XAxis mode: Wavelengths
Stop averaging: false
Number of Pixels in Spectrum: 3648
>>>>>Begin Spectral Data<<<<<
177.575	-316.47
177.794	-37.92
178.014	-109.58
178.233	-57.4
178.452	-8.89
178.672	-129.16
178.891	66.41
179.11	-225.48
179.33	-179.42
179.549	-131.77
179.768	-43.53
179.987	-91
180.207	-42.36
180.426	-144.77
180.645	-68.1
180.864	-185.57
181.084	609.09
181.303	319.49
181.522	190.69
181.741	229.16
181.96	148.47
182.179	136.09
182.398	86.86
182.618	108.94
182.837	113.14
183.056	136.97
183.275	113.73
183.494	85.84
183.713	70.76
183.932	63.84
184.151	64.78
184.37	78.14
184.589	116.12
184.808	182.25
185.027	112.09
185.246	154.16
185.465	188.77
185.684	157200
185.903	11.61
186.122	1.53
186.341	-0.64
186.56	16.11
186.779	40.33
186.998	32.49
187.216	77.46
187.435	63.15
187.654	72.04
187.873	92.74
188.092	38.64
188.311	41.58
188.53	104.62
188.748	110.92
188.967	116.86
189.186	43.59
189.405	59.84
189.623	-3360.32
189.842	-450.08
190.061	9.29
190.28	-68.42
190.498	41.49
190.717	181.1
190.936	219.38
191.154	158.24
191.373	129.65
191.592	151.42
191.81	330.54
192.029	547.07
192.248	96.65
192.466	125.33
192.685	143.9
192.904	103.04
193.122	103.46
193.341	-135.57
193.559	1091.67
193.778	-2801.42
193.996	-378.25
194.215	342.72
194.433	146.93
194.652	-363.87
194.87	-38.97
195.089	-39.56
195.307	-45.75
195.526	-390.9
195.744	241.4
195.963	181900
196.181	614.37
196.399	208.53
196.618	164.83
196.836	187.37
197.055	175.79
197.273	144.17
197.491	150.31
197.71	127.11
197.928	125.05
198.146	114.07
198.365	61.84
198.583	28.19
198.801	52.59
199.019	36.33
199.238	8.26
199.456	29.14
199.674	-23.79
199.892	-291.47
200.111	16.5
200.329	-2.07
200.547	10.92
200.765	28.13
200.983	24.81
201.202	40.88
201.42	62.56
201.638	49.6
201.856	68.44
202.074	68.9
202.292	95.05
202.51	59.44
202.728	88.72
202.946	-90.36
203.165	-2067.11
203.383	423.15
203.601	192.94
203.819	380.33
204.037	-25.16
204.255	91.81
204.473	25.3
204.691	25.12
204.909	68.48
205.127	31.78
205.345	97.49
205.562	98.58
205.78	107.88
205.998	151.12
206.216	316.65
206.434	438.02
206.652	-146.72
206.87	3.47
207.088	369.92
207.306	95.28
207.523	68.11
207.741	71.43
207.959	79.72
208.177	67.61
208.395	51.86
208.612	72.79
208.83	65.7
209.048	89.68
209.266	69.4
209.483	38.98
209.701	33.47
209.919	24.09
210.136	24.97
210.354	-4.56
210.572	40.49
210.79	64.41
211.007	54.47
211.225	65.08
211.442	21.65
211.66	35.31
211.878	27.58
212.095	-43.03
212.313	-37.1
212.53	-54.69
212.748	-47.48
212.966	-65.31
213.183	-44.1
213.401	-62.82
213.618	-101
213.836	-107.96
214.053	-137.89
214.271	-384.2
214.488	-112.82
214.705	-100
214.923	-81.38
215.14	-91.15
215.358	-83.51
215.575	-172.97
215.793	-88.05
216.01	31.44
216.227	70.2
216.445	65.83
216.662	71.23
216.879	65.79
217.097	63.84
217.314	72.15
217.531	84.5
217.749	70.32
217.966	57.16
218.183	60.79
218.4	54.13
218.618	40.76
218.835	40.43
219.052	56.27
219.269	58.89
219.487	43.73
219.704	32.5
219.921	6.72
220.138	-3.45
220.355	4.21
220.572	-8.48
220.79	-11.98
221.007	-15.4
221.224	-5.95
221.441	-11.75
221.658	-27.25
221.875	-28.4
222.092	-35.19
222.309	-14.58
222.526	-6.48
222.743	-9.16
222.96	4.92
223.177	4.01
223.394	7.5
223.611	5.09
223.828	12.47
224.045	17.9
224.262	21.06
224.479	24.6
224.696	27.19
224.913	28.64
225.13	25.73
225.347	26.33
225.564	26.15
225.781	23.26
225.997	20.93
226.214	18.75
226.431	17.32
226.648	13.69
226.865	13.58
227.082	12.27
227.298	10.29
227.515	12.09
227.732	10.77
227.949	10.67
228.165	13.07
228.382	12.51
228.599	11.79
228.816	10.72
229.032	12.27
229.249	13.22
229.466	12.61
229.682	15.24
229.899	12.4
230.116	12.53
230.332	11.44
230.549	10.26
230.765	12.39
230.982	12.93
231.199	16.66
231.415	19.33
231.632	17.44
231.848	18.79
232.065	16.19
232.281	16.9
232.498	16.62
232.714	18.75
232.931	17.33
233.147	14.06
233.364	16.83
233.58	12.32
233.797	13.55
234.013	13.39
234.23	12.13
234.446	12.38
234.662	12.35
234.879	11.36
235.095	8.51
235.312	10.5
235.528	14
235.744	9.74
235.961	11.35
236.177	6.44
236.393	7.11
236.61	8.85
236.826	10.6
237.042	8.63
237.258	8.49
237.475	9.43
237.691	7.69
237.907	9.29
238.123	10.44
238.339	10.99
238.556	11.52
238.772	11.22
238.988	11.15
239.204	10.26
239.42	12.28
239.636	12.6
239.853	12.46
240.069	12.32
240.285	11.26
240.501	11.01
240.717	11.51
240.933	11.97
241.149	11.82
241.365	12.15
241.581	12.38
241.797	12.32
242.013	11.93
242.229	12.11
242.445	12.77
242.661	11.67
242.877	11.85
243.093	11.07
243.309	11.12
243.525	10.89
243.741	10.5
243.957	9.97
244.173	9.57
244.388	9.49
244.604	9.87
244.82	9.05
245.036	9.71
245.252	9.48
245.468	9.1
245.683	8.68
245.899	8.72
246.115	8.35
246.331	8.27
246.547	8.03
246.762	8
246.978	7.48
247.194	7.36
247.409	6.58
247.625	6.6
247.841	6.86
248.057	6.89
248.272	6.32
248.488	5.63
248.703	4.63
248.919	4.5
249.135	3.88
249.35	3.87
249.566	3.41
249.782	3.84
249.997	3.9
250.213	4.06
250.428	3.57
250.644	4.25
250.859	5.44
251.075	6.23
251.29	6.58
251.506	6.38
251.721	7.06
251.937	8.22
252.152	8.23
252.368	6.64
252.583	6.9
252.798	7.62
253.014	8.33
253.229	7.73
253.445	7.85
253.66	7.44
253.875	8.22
254.091	6.29
254.306	6.34
254.521	6.76
254.737	8.01
254.952	6.86
255.167	6.6
255.383	5.5
255.598	5.75
255.813	6.22
256.028	6.34
256.244	6.77
256.459	7.39
256.674	6.82
256.889	6.4
257.104	6.25
257.32	6.33
257.535	6.37
257.75	6.17
257.965	5.84
258.18	5.49
258.395	5.41
258.61	5.32
258.826	5.11
259.041	4.95
259.256	5.36
259.471	5.47
259.686	5.57
259.901	5.61
260.116	5.47
260.331	5.85
260.546	6.25
260.761	6.21
260.976	5.94
261.191	6.31
261.406	7.45
261.621	6.62
261.836	5.96
262.05	5.95
262.265	5.57
262.48	6.02
262.695	6.3
262.91	6.86
263.125	6.4
263.34	7.01
263.555	6.1
263.769	5.18
263.984	6.69
264.199	7.32
264.414	7.69
264.629	7.69
264.843	7.89
265.058	7.65
265.273	6.61
265.488	7.32
265.702	6.99
265.917	7.7
266.132	7.78
266.346	7.05
266.561	7.27
266.776	6.69
266.99	6.6
267.205	6.38
267.42	6.38
267.634	6.53
267.849	6.5
268.063	6.77
268.278	6.46
268.492	6.17
268.707	6.29
268.922	6.14
269.136	6.29
269.351	5.95
269.565	6.03
269.78	5.61
269.994	5.22
270.209	5.12
270.423	4.74
270.637	4.93
270.852	4.91
271.066	4.94
271.281	5.02
271.495	5.16
271.709	5.06
271.924	5.06
272.138	5.51
272.353	5.89
272.567	5.65
272.781	6.35
272.996	6.39
273.21	6.51
273.424	6.36
273.638	6
273.853	5.84
274.067	5.57
274.281	5.98
274.495	5.13
274.71	5.11
274.924	4.97
275.138	4.79
275.352	4.61
275.566	5.15
275.781	5.06
275.995	5.73
276.209	6.18
276.423	6.73
276.637	6.01
276.851	6.12
277.065	6.71
277.279	7.01
277.493	7.09
277.707	7.23
277.921	6.85
278.135	6.65
278.349	5.68
278.563	5.74
278.777	5.9
278.991	6.05
279.205	5.98
279.419	5.33
279.633	5.91
279.847	6.08
280.061	5.77
280.275	5.52
280.489	6.09
280.703	6.88
280.917	6.19
281.131	6.02
281.344	5.75
281.558	5.32
281.772	5.71
281.986	5.5
282.2	5.3
282.414	4.9
282.627	5.16
282.841	4.87
283.055	4.86
283.269	5.48
283.482	5.7
283.696	5.65
283.91	6.35
284.123	5.99
284.337	5.6
284.551	5.52
284.764	5.9
284.978	5.86
285.192	5.86
285.405	5.78
285.619	5.35
285.833	5.66
286.046	5.88
286.26	6.11
286.473	6.09
286.687	6.34
286.9	6.1
287.114	6.24
287.327	7.15
287.541	6.34
287.754	5.88
287.968	5.8
288.181	5.84
288.395	5.68
288.608	5.32
288.822	5.41
289.035	5.46
289.248	5.46
289.462	5.94
289.675	5.19
289.889	5.98
290.102	6.28
290.315	6.56
290.529	5.89
290.742	5.93
290.955	5.95
291.169	6.22
291.382	6.47
291.595	6.69
291.808	6.57
292.022	6.66
292.235	6.81
292.448	6.23
292.661	6.4
292.875	6.56
293.088	6.8
293.301	7.21
293.514	6.8
293.727	6.56
293.94	6.54
294.153	6.24
294.367	6.13
294.58	6.22
294.793	6.3
295.006	5.99
295.219	6.05
295.432	6.25
295.645	5.9
295.858	6.26
296.071	6.33
296.284	6.43
296.497	6.71
296.71	6.73
296.923	6.61
297.136	7.15
297.349	6.98
297.562	7.22
297.775	7.15
297.988	7.64
298.201	7.74
298.414	7.29
298.626	7.56
298.839	7.18
299.052	7.1
299.265	7.03
299.478	6.55
299.691	6.85
299.903	6.77
300.116	6.5
300.329	5.93
300.542	5.54
300.755	6.2
300.967	6.08
301.18	6.62
301.393	6.55
301.605	6.52
301.818	6.95
302.031	7
302.243	6.88
302.456	6.99
302.669	6.92
302.881	7.8
303.094	7.69
303.307	8.02
303.519	7.4
303.732	7.76
303.944	7.7
304.157	8.11
304.37	8.03
304.582	8.16
304.795	8.67
305.007	9.02
305.22	8.36
305.432	7.82
305.645	7.09
305.857	7.39
306.069	7.85
306.282	8.08
306.494	7.58
306.707	7.5
306.919	7.94
307.132	7.06
307.344	6.86
307.556	7.21
307.769	8
307.981	7.97
308.193	7.87
308.406	7.24
308.618	6.79
308.83	6.47
309.043	6.63
309.255	6.44
309.467	6.69
309.679	7.11
309.892	6.41
310.104	5.72
310.316	5.92
310.528	5.82
310.74	5.79
310.953	6.01
311.165	6.62
311.377	6.59
311.589	6.68
311.801	7.41
312.013	7.14
312.225	7.45
312.437	8.29
312.649	8.04
312.862	7.82
313.074	7.75
313.286	8.11
313.498	7.98
313.71	8.43
313.922	7.9
314.134	7.5
314.346	6.57
314.558	6.94
314.77	6.43
314.982	6.24
315.193	6.62
315.405	6.54
315.617	6.11
315.829	6.15
316.041	6.15
316.253	6.67
316.465	6.32
316.677	7.44
316.888	7.75
317.1	7.74
317.312	7.92
317.524	7
317.736	7.32
317.947	8.19
318.159	7.76
318.371	7.83
318.583	7.04
318.794	6.85
319.006	6.17
319.218	5.35
319.43	5.51
319.641	5.62
319.853	6.63
320.064	6.72
320.276	7.01
320.488	6.87
320.699	6.01
320.911	6.36
321.123	6.21
321.334	6.95
321.546	7.47
321.757	7.56
321.969	8.07
322.18	8.14
322.392	8.14
322.603	6.93
322.815	7.35
323.026	7.65
323.238	7.44
323.449	7.26
323.661	7.04
323.872	5.68
324.083	5.06
324.295	4.68
324.506	4.58
324.718	4.53
324.929	4.57
325.14	4.48
325.352	4.77
325.563	4.69
325.774	5.61
325.986	5.54
326.197	6.85
326.408	7.65
326.62	8.06
326.831	8.06
327.042	6.98
327.253	7.42
327.464	7.83
327.676	7.24
327.887	6.9
328.098	6.21
328.309	6
328.52	5.76
328.732	4.74
328.943	4.66
329.154	4.35
329.365	5.54
329.576	5.75
329.787	5.35
329.998	5.65
330.209	6.51
330.42	7
330.631	7.08
330.842	7.19
331.053	6.93
331.264	6.51
331.475	6.48
331.686	6.15
331.897	6.08
332.108	5.82
332.319	5.85
332.53	5.73
332.741	5.64
332.952	6.28
333.163	6.68
333.374	7.48
333.585	7.12
333.795	7.49
334.006	7.57
334.217	7.27
334.428	7.27
334.639	7.77
334.849	7.84
335.06	8.17
335.271	7.42
335.482	6.34
335.692	6.23
335.903	6.2
336.114	5.76
336.325	5.79
336.535	5.82
336.746	6.25
336.957	6.06
337.167	6.64
337.378	5.97
337.589	6.03
337.799	6.26
338.01	6.58
338.22	7.3
338.431	7.5
338.642	8.06
338.852	8.17
339.063	7.51
339.273	7.25
339.484	6.42
339.694	6.87
339.905	7.27
340.115	7.23
340.326	6.76
340.536	6.47
340.746	6.47
340.957	5.97
341.167	5.72
341.378	5.96
341.588	5.67
341.799	5.54
342.009	5.05
342.219	4.38
342.43	4.85
342.64	5.15
342.85	4.72
343.061	4.47
343.271	4.08
343.481	4.27
343.691	4.29
343.902	4.51
344.112	5.01
344.322	5.22
344.532	6.07
344.743	5.96
344.953	5.76
345.163	5.66
345.373	5.84
345.583	5.97
345.793	5.67
346.004	5.91
346.214	6.25
346.424	6.22
346.634	6.04
346.844	5.54
347.054	5.16
347.264	5.77
347.474	6.12
347.684	5.85
347.894	5.9
348.104	6.61
348.314	6.54
348.524	5.79
348.734	5.56
348.944	5.57
349.154	5.34
349.364	5.56
349.574	4.49
349.784	4.62
349.994	4.91
350.204	5.1
350.413	4.57
350.623	4.29
350.833	3.99
351.043	3.97
351.253	3.7
351.463	4.04
351.672	4.01
351.882	4.23
352.092	4.15
352.302	4.97
352.511	5.22
352.721	4.93
352.931	4.84
353.141	5.29
353.35	5.41
353.56	5.67
353.77	5.58
353.979	5.33
354.189	5.45
354.399	5.31
354.608	5
354.818	4.63
355.027	5.13
355.237	5.22
355.447	5.35
355.656	5.12
355.866	5.11
356.075	5.28
356.285	5.53
356.494	5.87
356.704	5.72
356.913	5.33
357.123	4.72
357.332	4.28
357.542	4.59
357.751	4.44
357.96	4.83
358.17	4.67
358.379	4.37
358.589	4.58
358.798	4.04
359.007	4.17
359.217	4.29
359.426	4.74
359.635	5.05
359.845	4.89
360.054	5.05
360.263	4.79
360.472	4.91
360.682	4.91
360.891	4.58
361.1	4.64
361.309	4.94
361.519	4.8
361.728	4.89
361.937	4.67
362.146	4.33
362.355	4.11
362.564	4.08
362.774	4.18
362.983	4.27
363.192	4.38
363.401	4.58
363.61	4.42
363.819	4.51
364.028	4.53
364.237	4.19
364.446	4.18
364.655	4.13
364.864	4.27
365.073	4.27
365.282	3.73
365.491	3.62
365.7	3.9
365.909	3.87
366.118	3.82
366.327	4.18
366.536	4.76
366.745	4.62
366.954	4.61
367.162	4.51
367.371	4.5
367.58	5.06
367.789	4.94
367.998	4.62
368.207	4.25
368.415	4.22
368.624	3.78
368.833	3.35
369.042	3.8
369.25	4.21
369.459	4.03
369.668	3.87
369.877	3.98
370.085	4.49
370.294	4.45
370.503	4.44
370.711	4.29
370.92	4.39
371.129	4.74
371.337	4.41
371.546	3.89
371.754	4.06
371.963	3.8
372.171	3.28
372.38	2.82
372.589	3.04
372.797	3.15
373.006	3.74
373.214	3.68
373.423	3.37
373.631	3.55
373.84	3.63
374.048	3.3
374.256	3.53
374.465	3.81
374.673	3.68
374.882	3.35
375.09	3.24
375.298	2.81
375.507	3
375.715	3.21
375.923	3.18
376.132	3.01
376.34	2.94
376.548	2.73
376.757	2.62
376.965	2.7
377.173	3
377.381	3.35
377.59	3.41
377.798	3.07
378.006	2.84
378.214	3.21
378.423	3.41
378.631	3.45
378.839	3.61
379.047	3.9
379.255	3.93
379.463	3.81
379.671	3.61
379.879	3.48
380.088	3.61
380.296	3.53
380.504	3.56
380.712	3.74
380.92	3.89
381.128	3.66
381.336	3.14
381.544	2.86
381.752	2.75
381.96	2.65
382.168	2.67
382.376	2.55
382.584	2.55
382.791	2.46
382.999	2.61
383.207	2.47
383.415	2.66
383.623	2.75
383.831	3.01
384.039	3.02
384.247	3.05
384.454	2.88
384.662	2.84
384.87	2.87
385.078	2.48
385.285	2.2
385.493	2.4
385.701	2.53
385.909	2.74
386.116	2.81
386.324	2.7
386.532	2.67
386.739	2.87
386.947	2.85
387.155	3.11
387.362	3.39
387.57	3.69
387.778	3.6
387.985	3.39
388.193	3.24
388.4	3.12
388.608	3.1
388.816	3.07
389.023	2.95
389.231	2.91
389.438	2.53
389.646	2.62
389.853	2.39
390.061	2.25
390.268	2.31
390.475	2.42
390.683	2.53
390.89	2.64
391.098	2.84
391.305	2.87
391.512	2.81
391.72	3.02
391.927	2.69
392.135	2.61
392.342	2.86
392.549	2.84
392.756	2.86
392.964	2.66
393.171	2.74
393.378	2.6
393.586	2.72
393.793	2.86
394	2.79
394.207	2.9
394.414	3.16
394.622	3.09
394.829	2.96
395.036	2.87
395.243	2.84
395.45	2.6
395.657	2.56
395.864	2.51
396.072	2.52
396.279	2.31
396.486	2.28
396.693	2.07
396.9	1.95
397.107	1.98
397.314	1.89
397.521	2
397.728	2.09
397.935	2.1
398.142	1.97
398.349	2.01
398.556	2.12
398.763	2.03
398.97	1.97
399.177	2.13
399.383	2.18
399.59	2.31
399.797	2.29
400.004	2.16
400.211	2.13
400.418	2.09
400.625	1.94
400.831	1.99
401.038	2.11
401.245	2.19
401.452	1.94
401.658	2.06
401.865	2.03
402.072	2.05
402.279	2.18
402.485	1.99
402.692	1.9
402.899	1.92
403.105	1.96
403.312	1.95
403.519	1.97
403.725	2.01
403.932	1.9
404.138	1.79
404.345	1.64
404.552	1.53
404.758	1.79
404.965	1.9
405.171	1.79
405.378	1.79
405.584	1.69
405.791	1.64
405.997	1.64
406.204	1.61
406.41	1.67
406.617	1.81
406.823	1.84
407.029	1.64
407.236	1.76
407.442	1.9
407.649	1.89
407.855	2
408.061	1.97
408.268	1.94
408.474	1.97
408.68	2
408.887	1.93
409.093	1.95
409.299	2.04
409.505	2.13
409.712	2.03
409.918	1.93
410.124	1.93
410.33	1.89
410.537	1.89
410.743	1.9
410.949	2.1
411.155	2.13
411.361	2.06
411.567	2.12
411.773	1.97
411.98	2
412.186	2.1
412.392	1.99
412.598	1.91
412.804	2.05
413.01	1.95
413.216	1.73
413.422	1.71
413.628	1.74
413.834	1.71
414.04	1.72
414.246	1.71
414.452	1.66
414.658	1.59
414.864	1.62
415.07	1.64
415.275	1.72
415.481	1.78
415.687	1.72
415.893	1.72
416.099	1.6
416.305	1.64
416.511	1.64
416.716	1.6
416.922	1.68
417.128	1.72
417.334	1.67
417.539	1.63
417.745	1.51
417.951	1.61
418.157	1.56
418.362	1.64
418.568	1.53
418.774	1.5
418.979	1.52
419.185	1.56
419.391	1.61
419.596	1.62
419.802	1.61
420.008	1.71
420.213	1.79
420.419	1.88
420.624	1.93
420.83	1.89
421.035	1.95
421.241	1.9
421.446	1.89
421.652	1.84
421.857	1.81
422.063	1.81
422.268	1.78
422.474	1.65
422.679	1.59
422.885	1.55
423.09	1.61
423.295	1.56
423.501	1.59
423.706	1.5
423.911	1.46
424.117	1.43
424.322	1.42
424.527	1.39
424.733	1.36
424.938	1.34
425.143	1.24
425.349	1.23
425.554	1.24
425.759	1.33
425.964	1.38
426.169	1.4
426.375	1.42
426.58	1.47
426.785	1.57
426.99	1.67
427.195	1.71
427.4	1.81
427.605	1.79
427.811	1.81
428.016	1.63
428.221	1.66
428.426	1.71
428.631	1.7
428.836	1.55
429.041	1.4
429.246	1.25
429.451	1.26
429.656	1.21
429.861	1.24
430.066	1.24
430.271	1.41
430.476	1.45
430.681	1.4
430.886	1.44
431.09	1.56
431.295	1.59
431.5	1.76
431.705	1.73
431.91	1.78
432.115	1.75
432.32	1.81
432.524	1.73
432.729	1.7
432.934	1.7
433.139	1.64
433.343	1.58
433.548	1.6
433.753	1.57
433.958	1.61
434.162	1.59
434.367	1.6
434.572	1.5
434.776	1.46
434.981	1.4
435.186	1.32
435.39	1.37
435.595	1.44
435.799	1.43
436.004	1.53
436.209	1.46
436.413	1.44
436.618	1.29
436.822	1.29
437.027	1.27
437.231	1.24
437.436	1.3
437.64	1.3
437.845	1.25
438.049	1.25
438.253	1.06
438.458	1.15
438.662	1.15
438.867	1.31
439.071	1.33
439.275	1.3
439.48	1.31
439.684	1.35
439.888	1.32
440.093	1.35
440.297	1.35
440.501	1.41
440.706	1.35
440.91	1.31
441.114	1.17
441.318	1.22
441.523	1.22
441.727	1.24
441.931	1.13
442.135	1.24
442.339	1.28
442.543	1.42
442.748	1.38
442.952	1.43
443.156	1.54
443.36	1.54
443.564	1.5
443.768	1.59
443.972	1.63
444.176	1.75
444.38	1.68
444.584	1.55
444.788	1.39
444.992	1.39
445.196	1.35
445.4	1.23
445.604	1.27
445.808	1.34
446.012	1.25
446.216	1.19
446.42	1.08
446.624	1.11
446.828	1.27
447.032	1.37
447.235	1.37
447.439	1.42
447.643	1.47
447.847	1.48
448.051	1.36
448.254	1.47
448.458	1.45
448.662	1.46
448.866	1.43
449.069	1.32
449.273	1.22
449.477	1.23
449.681	1.23
449.884	1.3
450.088	1.2
450.292	1.17
450.495	1.11
450.699	1.18
450.902	1.25
451.106	1.24
451.31	1.18
451.513	1.2
451.717	1.18
451.92	1.13
452.124	1.03
452.327	1.12
452.531	1.1
452.734	1.08
452.938	1.01
453.141	0.91
453.345	0.89
453.548	0.98
453.752	1
453.955	1.08
454.158	1.07
454.362	1.08
454.565	1.15
454.769	1.18
454.972	1.18
455.175	1.24
455.379	1.36
455.582	1.31
455.785	1.17
455.988	1.17
456.192	1.05
456.395	0.96
456.598	0.98
456.801	0.9
457.005	0.91
457.208	1
457.411	1.05
457.614	1
457.817	0.98
458.021	1.03
458.224	1.02
458.427	1.13
458.63	1.12
458.833	1.14
459.036	1.18
459.239	1.26
459.442	1.25
459.645	1.25
459.848	1.23
460.051	1.26
460.254	1.28
460.457	1.36
460.66	1.32
460.863	1.35
461.066	1.32
461.269	1.31
461.472	1.19
461.675	1.16
461.878	1.07
462.081	1.07
462.284	1.05
462.486	1.09
462.689	0.96
462.892	0.97
463.095	0.98
463.298	1.03
463.5	1.03
463.703	0.98
463.906	1
464.109	0.94
464.311	1.02
464.514	1.06
464.717	0.99
464.92	0.95
465.122	0.83
465.325	0.98
465.528	0.92
465.73	0.95
465.933	1
466.135	0.93
466.338	1.04
466.541	1.11
466.743	1.18
466.946	1.21
467.148	1.31
467.351	1.41
467.553	1.29
467.756	1.45
467.958	1.45
468.161	1.46
468.363	1.5
468.566	1.44
468.768	1.32
468.971	1.32
469.173	1.37
469.375	1.29
469.578	1.22
469.78	1.24
469.983	1.07
470.185	1.01
470.387	1.14
470.59	1.13
