Data from 2938440_Reflection_1.txt Node
Date: Fri Jun 19 18:24:04 EDT 2015
User: robert
Spectrometer: USB4E03002
Autoset integration time: false
Trigger mode: 4
Integration Time (sec): 1.000000E-1
Scans to average: 10
Electric dark correction enabled: true
Nonlinearity correction enabled: false
Boxcar width: 5
Stray light correction enabled: false
XAxis mode: Wavelengths
Stop averaging: false
Number of Pixels in Spectrum: 3648
>>>>>Begin Spectral Data<<<<<
177.575	81.02
177.794	83.02
178.014	36.75
178.233	16.04
178.452	9.44
178.672	0.99
178.891	-208.56
179.11	92.59
179.33	77.7
179.549	74.13
179.768	70.17
179.987	72.34
180.207	89.52
180.426	62.25
180.645	50.16
180.864	44.75
181.084	44.98
181.303	52.63
181.522	73.9
181.741	80.4
181.96	83.9
182.179	88.25
182.398	81.83
182.618	71.95
182.837	68.33
183.056	74.39
183.275	76.52
183.494	76.99
183.713	69.26
183.932	68.37
184.151	52.22
184.37	45.1
184.589	37.41
184.808	46.67
185.027	36.99
185.246	42.19
185.465	54.56
185.684	47.16
185.903	55.85
186.122	61.46
186.341	55.57
186.56	88.91
186.779	66.15
186.998	69.6
187.216	63.58
187.435	77.52
187.654	84.74
187.873	77.79
188.092	79.5
188.311	73.13
188.53	75.98
188.748	71.5
188.967	52.72
189.186	68.61
189.405	64.7
189.623	77.3
189.842	88.81
190.061	89.96
190.28	98.42
190.498	111.25
190.717	155.25
190.936	131.2
191.154	141.51
191.373	124.32
191.592	155.22
191.81	158.13
192.029	137.36
192.248	143.95
192.466	113.1
192.685	65.95
192.904	18.62
193.122	39
193.341	38.15
193.559	65.39
193.778	158.49
193.996	147.97
194.215	135.11
194.433	131.3
194.652	101.58
194.87	116.31
195.089	109.16
195.307	121.08
195.526	95
195.744	78.69
195.963	67.66
196.181	31.57
196.399	29.16
196.618	34.22
196.836	25.62
197.055	5.84
197.273	28.23
197.491	72.05
197.71	74.77
197.928	85.03
198.146	92.53
198.365	91.21
198.583	103.32
198.801	93.3
199.019	99.15
199.238	116.23
199.456	113.16
199.674	97.04
199.892	51.56
200.111	43.75
200.329	53.96
200.547	57.21
200.765	65.75
200.983	69.9
201.202	93.99
201.42	99.76
201.638	95.88
201.856	88.25
202.074	79.78
202.292	98.44
202.51	112.59
202.728	96.7
202.946	98.34
203.165	86.76
203.383	67.1
203.601	47.91
203.819	19.34
204.037	10.83
204.255	5.7
204.473	31.71
204.691	27.51
204.909	27.01
205.127	42.18
205.345	38.7
205.562	45.55
205.78	55.54
205.998	48.29
206.216	73.22
206.434	74.08
206.652	74.48
206.87	81.19
207.088	93.39
207.306	102
207.523	95.54
207.741	116.34
207.959	120.38
208.177	120.16
208.395	109.25
208.612	92.95
208.83	90.44
209.048	90.28
209.266	75.21
209.483	58.49
209.701	59.57
209.919	61.34
210.136	57.48
210.354	53.44
210.572	54.22
210.79	59.96
211.007	56.57
211.225	42.1
211.442	44.92
211.66	53.21
211.878	64.98
212.095	114.76
212.313	121.97
212.53	117.07
212.748	135.7
212.966	130.44
213.183	126.58
213.401	130.87
213.618	163.01
213.836	172.82
214.053	186.67
214.271	181.84
214.488	70.75
214.705	54.14
214.923	52.18
215.14	55.77
215.358	49.45
215.575	44.68
215.793	51.84
216.01	45.8
216.227	45.06
216.445	48.3
216.662	39.17
216.879	49.83
217.097	48.17
217.314	52.31
217.531	54.68
217.749	53.01
217.966	46.45
218.183	34.22
218.4	41.28
218.618	30.84
218.835	30.31
219.052	29.11
219.269	23.78
219.487	23.88
219.704	22.6
219.921	17.7
220.138	29.48
220.355	36.31
220.572	44.75
220.79	43.63
221.007	53.14
221.224	53.18
221.441	56.08
221.658	58.33
221.875	55.84
222.092	62.4
222.309	68.55
222.526	59.57
222.743	57.23
222.96	49.24
223.177	42.12
223.394	42.19
223.611	39.9
223.828	34.68
224.045	41.13
224.262	43.95
224.479	38.78
224.696	37.72
224.913	33.63
225.13	33.25
225.347	35.83
225.564	38.71
225.781	36
225.997	36.25
226.214	35.96
226.431	30.89
226.648	29.85
226.865	29.79
227.082	26.87
227.298	27.6
227.515	27.06
227.732	25.14
227.949	25.26
228.165	25.1
228.382	23.65
228.599	24.45
228.816	25.15
229.032	26.05
229.249	24.91
229.466	26.22
229.682	24.98
229.899	26.29
230.116	26.09
230.332	25.52
230.549	22.64
230.765	26.12
230.982	23.61
231.199	22.55
231.415	20.56
231.632	21.7
231.848	17.99
232.065	16.68
232.281	14.89
232.498	15.06
232.714	12.74
232.931	17.96
233.147	15.26
233.364	16.12
233.58	16.68
233.797	19.23
234.013	18.27
234.23	20.25
234.446	22.35
234.662	22.03
234.879	25.59
235.095	25.93
235.312	24.33
235.528	23.89
235.744	21.7
235.961	22.66
236.177	21.66
236.393	20.1
236.61	20.95
236.826	23.24
237.042	22.52
237.258	22.07
237.475	23.14
237.691	22.65
237.907	24.23
238.123	27.51
238.339	25.72
238.556	27.61
238.772	27.4
238.988	27.31
239.204	25.31
239.42	25.04
239.636	24.13
239.853	24.75
240.069	24.68
240.285	24.65
240.501	23.02
240.717	23.24
240.933	21.96
241.149	21.97
241.365	21.74
241.581	22.1
241.797	22.12
242.013	23.23
242.229	22.68
242.445	22.9
242.661	21.98
242.877	22.53
243.093	22.19
243.309	22.16
243.525	21.98
243.741	21.14
243.957	19.2
244.173	17.89
244.388	16.32
244.604	15.7
244.82	15.19
245.036	15.65
245.252	15.94
245.468	16.29
245.683	15.77
245.899	15.92
246.115	15.82
246.331	16.29
246.547	16.76
246.762	16.98
246.978	17.38
247.194	17.76
247.409	17.83
247.625	17.24
247.841	16.69
248.057	17.38
248.272	17.52
248.488	17.8
248.703	18.62
248.919	19.64
249.135	18.6
249.35	18.37
249.566	18.2
249.782	18.04
249.997	18.24
250.213	17.81
250.428	17.06
250.644	16.88
250.859	17.21
251.075	16.8
251.29	15.63
251.506	16.18
251.721	16.62
251.937	16.35
252.152	16.22
252.368	15.1
252.583	16.68
252.798	16.43
253.014	16.85
253.229	16.64
253.445	16.18
253.66	16.64
253.875	17.95
254.091	16.64
254.306	18.28
254.521	18.03
254.737	18.48
254.952	17.79
255.167	17.55
255.383	16.64
255.598	16.22
255.813	16.8
256.028	17.42
256.244	16.63
256.459	16.45
256.674	15.47
256.889	15.74
257.104	15.91
257.32	15.7
257.535	15.09
257.75	15.14
257.965	15.22
258.18	14.64
258.395	14.13
258.61	13.71
258.826	13.59
259.041	13.2
259.256	12.78
259.471	12.69
259.686	12.73
259.901	13.46
260.116	12.93
260.331	12.16
260.546	12.62
260.761	13.3
260.976	14.02
261.191	14.59
261.406	14.82
261.621	14.65
261.836	15.19
262.05	14.53
262.265	14.41
262.48	14.97
262.695	15.11
262.91	16.23
263.125	15.1
263.34	14.47
263.555	13.92
263.769	13.52
263.984	14.12
264.199	13.35
264.414	13.5
264.629	13.56
264.843	14.17
265.058	14.65
265.273	12.89
265.488	13.02
265.702	13.22
265.917	13.43
266.132	14.38
266.346	14.02
266.561	14.68
266.776	14.85
266.99	15.2
267.205	14.99
267.42	15.01
267.634	15.35
267.849	15.1
268.063	15.6
268.278	15.45
268.492	15.1
268.707	15.41
268.922	15.13
269.136	15.22
269.351	15
269.565	14.14
269.78	13.77
269.994	13.79
270.209	13.37
270.423	12.72
270.637	12.64
270.852	12.58
271.066	12.66
271.281	13
271.495	13.18
271.709	12.85
271.924	13.02
272.138	13.94
272.353	14.03
272.567	15.32
272.781	16.01
272.996	16.4
273.21	16.53
273.424	15.49
273.638	15.96
273.853	16.47
274.067	16.71
274.281	17.09
274.495	16.57
274.71	16.18
274.924	15.76
275.138	15.34
275.352	15.84
275.566	15.72
275.781	16.76
275.995	16.02
276.209	14.99
276.423	14.83
276.637	14.23
276.851	14.05
277.065	14.56
277.279	14.78
277.493	14.76
277.707	14.54
277.921	14.69
278.135	14.4
278.349	13.99
278.563	14.01
278.777	13.9
278.991	14.47
279.205	14.22
279.419	14.3
279.633	14.19
279.847	14
280.061	13.55
280.275	13.9
280.489	14.16
280.703	14.27
280.917	13.96
281.131	13.8
281.344	13.7
281.558	14.03
281.772	13.17
281.986	13.02
282.2	13.81
282.414	13.64
282.627	13.04
282.841	13.03
283.055	13.13
283.269	13.77
283.482	13.9
283.696	14.03
283.91	13.92
284.123	14.62
284.337	14.22
284.551	13.37
284.764	13.65
284.978	13.8
285.192	13.76
285.405	14.19
285.619	13.33
285.833	13.62
286.046	13.1
286.26	13.4
286.473	13.39
286.687	13.6
286.9	14.28
287.114	14.03
287.327	14.56
287.541	14.48
287.754	14.21
287.968	15.11
288.181	15.38
288.395	15.96
288.608	15.44
288.822	15.53
289.035	15.8
289.248	15.23
289.462	15.53
289.675	15.32
289.889	16.13
290.102	15.91
290.315	15.51
290.529	14.91
290.742	14.95
290.955	15.41
291.169	15.51
291.382	15.56
291.595	15.99
291.808	15.18
292.022	15.8
292.235	15.3
292.448	15.22
292.661	15.51
292.875	14.94
293.088	14.62
293.301	15.17
293.514	14.8
293.727	14.74
293.94	14.08
294.153	14.94
294.367	14.35
294.58	13.88
294.793	13.93
295.006	14.11
295.219	14.61
295.432	15.15
295.645	14.53
295.858	14.5
296.071	14.36
296.284	14.91
296.497	14.15
296.71	13.96
296.923	14.83
297.136	15.25
297.349	15.34
297.562	15.68
297.775	15.48
297.988	15.1
298.201	15.1
298.414	14.79
298.626	14.53
298.839	14.85
299.052	15.6
299.265	14.2
299.478	13.18
299.691	13.52
299.903	13.01
300.116	12.76
300.329	13.43
300.542	14.3
300.755	14.99
300.967	15.27
301.18	16.04
301.393	15.46
301.605	15.76
301.818	15.29
302.031	14.57
302.243	15.1
302.456	15.86
302.669	16.05
302.881	15.56
303.094	15.21
303.307	15.28
303.519	14.19
303.732	14.14
303.944	14.73
304.157	15.87
304.37	15.89
304.582	15.85
304.795	14.78
305.007	15.63
305.22	15.64
305.432	15.32
305.645	15.33
305.857	15.53
306.069	15.33
306.282	15.26
306.494	15.81
306.707	15.48
306.919	14.56
307.132	15.77
307.344	14.93
307.556	14.9
307.769	15.5
307.981	14.84
308.193	15.56
308.406	15.96
308.618	16.05
308.83	15.51
309.043	15.85
309.255	16.62
309.467	16
309.679	16.3
309.892	16.23
310.104	15.88
310.316	16.34
310.528	16.23
310.74	16.25
310.953	15.78
311.165	15.65
311.377	16.05
311.589	15.88
311.801	15.69
312.013	14.37
312.225	14.4
312.437	14.43
312.649	14.53
312.862	14.67
313.074	14.18
313.286	14.2
313.498	14.37
313.71	13.59
313.922	14.03
314.134	14
314.346	15.58
314.558	16.19
314.77	15.49
314.982	16.3
315.193	16.87
315.405	17.24
315.617	17.48
315.829	17.6
316.041	18.15
316.253	18.39
316.465	18.79
316.677	18.08
316.888	18.01
317.1	19.2
317.312	18.14
317.524	17.03
317.736	16.8
317.947	17.41
318.159	17.08
318.371	17.35
318.583	16.77
318.794	16.74
319.006	16.98
319.218	16.65
319.43	16.8
319.641	16.98
319.853	17.52
320.064	17.51
320.276	17.06
320.488	17.27
320.699	17.22
320.911	16.06
321.123	15.68
321.334	15.87
321.546	16
321.757	15.89
321.969	15.37
322.18	14.99
322.392	15.13
322.603	15.14
322.815	15.76
323.026	15.22
323.238	15.28
323.449	15.56
323.661	15.38
323.872	15.31
324.083	15.22
324.295	15.98
324.506	16.42
324.718	16.05
324.929	16.13
325.14	16.16
325.352	16.5
325.563	17.19
325.774	16.42
325.986	16.49
326.197	16.46
326.408	16.79
326.62	16.46
326.831	16.47
327.042	16.78
327.253	17.36
327.464	16.52
327.676	16.3
327.887	16.36
328.098	16.4
328.309	16.57
328.52	15.74
328.732	15.93
328.943	16.03
329.154	15.53
329.365	15.45
329.576	14.29
329.787	14.92
329.998	14.55
330.209	14.11
330.42	14.79
330.631	14.73
330.842	15.7
331.053	15.22
331.264	15.25
331.475	15.34
331.686	15.33
331.897	16.12
332.108	15.78
332.319	16.16
332.53	16.3
332.741	16.5
332.952	16.4
333.163	15.44
333.374	15.25
333.585	15.39
333.795	15.47
334.006	15.68
334.217	15.08
334.428	14.84
334.639	14.43
334.849	14.97
335.06	14.2
335.271	14.15
335.482	14.24
335.692	13.29
335.903	13.23
336.114	13.22
336.325	13.42
336.535	13.49
336.746	13.19
336.957	13.7
337.167	13.29
337.378	14.1
337.589	14.17
337.799	14.73
338.01	15.85
338.22	15.04
338.431	15.4
338.642	14.86
338.852	14.39
339.063	14.36
339.273	13.59
339.484	14.06
339.694	13.41
339.905	13.46
340.115	13.13
340.326	12.93
340.536	13.72
340.746	13.31
340.957	13.29
341.167	14.55
341.378	14.84
341.588	15.24
341.799	14.78
342.009	15.09
342.219	14.72
342.43	15.1
342.64	15.53
342.85	15.25
343.061	15.66
343.271	15.23
343.481	14.67
343.691	14.12
343.902	14.31
344.112	14.47
344.322	14.75
344.532	14.85
344.743	15.3
344.953	14.62
345.163	14.65
345.373	14.25
345.583	14.41
345.793	14.13
346.004	14.9
346.214	14.62
346.424	14.79
346.634	14.4
346.844	14.31
347.054	13.92
347.264	14.25
347.474	14.65
347.684	14.62
347.894	14.53
348.104	15.12
348.314	15.16
348.524	15.23
348.734	14.55
348.944	15.01
349.154	15.09
349.364	14.76
349.574	14.33
349.784	14.29
349.994	14.34
350.204	14.99
350.413	14.45
350.623	14.47
350.833	14.44
351.043	14.8
351.253	14.08
351.463	14.28
351.672	14.29
351.882	14.65
352.092	14.01
352.302	14.06
352.511	13.53
352.721	12.99
352.931	12.86
353.141	12.72
353.35	12.67
353.56	12.64
353.77	12.56
353.979	12.72
354.189	12.42
354.399	12.24
354.608	12.08
354.818	11.76
355.027	12.26
355.237	12.3
355.447	12.41
355.656	12.48
355.866	12.58
356.075	12.6
356.285	12.41
356.494	12.51
356.704	12.48
356.913	12.28
357.123	12.69
357.332	12.41
357.542	12.22
357.751	12.08
357.96	11.99
358.17	12.07
358.379	12.2
358.589	12.03
358.798	11.9
359.007	12.72
359.217	12.7
359.426	12.69
359.635	12.74
359.845	12.97
360.054	12.95
360.263	12.61
360.472	12.42
360.682	12.21
360.891	12.23
361.1	12.23
361.309	11.81
361.519	12.02
361.728	11.89
361.937	11.66
362.146	11.46
362.355	11.34
362.564	11.7
362.774	11.92
362.983	11.72
363.192	11.87
363.401	12.01
363.61	11.54
363.819	11.49
364.028	11.38
364.237	11.61
364.446	11.61
364.655	12.25
364.864	11.73
365.073	11.54
365.282	11.25
365.491	10.88
365.7	10.77
365.909	11.17
366.118	11.28
366.327	11.45
366.536	11.54
366.745	11.37
366.954	10.91
367.162	11.33
367.371	11.31
367.58	11.55
367.789	11.72
367.998	11.46
368.207	11.25
368.415	11.15
368.624	11.36
368.833	11.36
369.042	11.09
369.25	10.92
369.459	11.01
369.668	10.63
369.877	10.58
370.085	10.53
370.294	10.76
370.503	10.52
370.711	10.54
370.92	10.14
371.129	9.86
371.337	10.19
371.546	10.06
371.754	9.82
371.963	10.43
372.171	10.65
372.38	10.9
372.589	11.17
372.797	11.46
373.006	10.99
373.214	11.11
373.423	11.24
373.631	10.81
373.84	10.68
374.048	10.48
374.256	10.13
374.465	9.79
374.673	9.33
374.882	9.16
375.09	9.32
375.298	9.23
375.507	9.07
375.715	8.63
375.923	8.88
376.132	8.84
376.34	8.93
376.548	8.56
376.757	8.5
376.965	9.06
377.173	8.69
377.381	8.34
377.59	8.57
377.798	8.71
378.006	8.91
378.214	8.71
378.423	8.88
378.631	9.05
378.839	9.38
379.047	9.47
379.255	9.15
379.463	9.23
379.671	9.14
379.879	9.25
380.088	9.09
380.296	9.43
380.504	9.39
380.712	9.1
380.92	9.1
381.128	9.06
381.336	9
381.544	8.79
381.752	8.73
381.96	9
382.168	8.91
382.376	8.76
382.584	8.42
382.791	8.61
382.999	8.7
383.207	8.34
383.415	8.21
383.623	8.44
383.831	8.31
384.039	8.16
384.247	8.07
384.454	7.9
384.662	7.68
384.87	7.54
385.078	7.18
385.285	7.07
385.493	7.22
385.701	7
385.909	6.63
386.116	6.58
386.324	6.61
386.532	6.23
386.739	6.26
386.947	6.37
387.155	6.41
387.362	6.54
387.57	6.48
387.778	6.15
387.985	6.14
388.193	5.94
388.4	6.06
388.608	6.05
388.816	6.14
389.023	5.99
389.231	5.84
389.438	5.67
389.646	5.42
389.853	5.27
390.061	5.33
390.268	5.33
390.475	5.33
390.683	4.96
390.89	4.76
391.098	4.84
391.305	4.79
391.512	4.74
391.72	4.75
391.927	4.74
392.135	4.75
392.342	4.45
392.549	4.59
392.756	4.69
392.964	4.84
393.171	5.12
393.378	4.91
393.586	4.85
393.793	5.04
394	5.04
394.207	5.12
394.414	5.19
394.622	5.27
394.829	5.22
395.036	5
395.243	4.77
395.45	4.49
395.657	4.35
395.864	4.29
396.072	4.22
396.279	4.3
396.486	4.17
396.693	4.13
396.9	4.27
397.107	4.21
397.314	4.34
397.521	4.62
397.728	4.81
397.935	4.9
398.142	4.93
398.349	4.79
398.556	4.69
398.763	4.83
398.97	4.71
399.177	4.88
399.383	4.8
399.59	4.88
399.797	4.69
400.004	4.4
400.211	4.5
400.418	4.41
400.625	4.42
400.831	4.6
401.038	4.49
401.245	4.64
401.452	4.45
401.658	4.53
401.865	4.44
402.072	4.57
402.279	4.7
402.485	4.7
402.692	4.82
402.899	4.84
403.105	4.74
403.312	4.79
403.519	4.59
403.725	4.5
403.932	4.51
404.138	4.58
404.345	4.46
404.552	4.36
404.758	4.39
404.965	4.36
405.171	4.42
405.378	4.27
405.584	4.32
405.791	4.34
405.997	4.41
406.204	4.27
406.41	4.16
406.617	4.23
406.823	4.51
407.029	4.35
407.236	4.28
407.442	4.32
407.649	4.34
407.855	4.19
408.061	4.39
408.268	4.5
408.474	4.44
408.68	4.27
408.887	4.27
409.093	4.02
409.299	4.1
409.505	4.05
409.712	3.95
409.918	3.99
410.124	4.01
410.33	3.85
410.537	3.76
410.743	3.96
410.949	4.09
411.155	3.95
411.361	3.89
411.567	3.88
411.773	3.88
411.98	3.92
412.186	3.98
412.392	4.18
412.598	4.26
412.804	4.26
413.01	4.2
413.216	4.4
413.422	4.6
413.628	4.56
413.834	4.65
414.04	4.63
414.246	4.66
414.452	4.62
414.658	4.37
414.864	4.34
415.07	4.27
415.275	4.17
415.481	4.01
415.687	3.83
415.893	4.02
416.099	3.96
416.305	4
416.511	3.84
416.716	3.85
416.922	3.8
417.128	3.89
417.334	3.91
417.539	3.85
417.745	3.84
417.951	3.87
418.157	3.71
418.362	3.66
418.568	3.57
418.774	3.62
418.979	3.62
419.185	3.65
419.391	3.58
419.596	3.52
419.802	3.54
420.008	3.55
420.213	2.88
420.419	2.9
420.624	2.95
420.83	3.01
421.035	2.99
421.241	2.89
421.446	2.9
421.652	2.85
421.857	2.91
422.063	2.9
422.268	2.9
422.474	3.59
422.679	3.61
422.885	3.57
423.09	3.5
423.295	3.5
423.501	3.56
423.706	3.51
423.911	3.52
424.117	3.52
424.322	3.54
424.527	3.5
424.733	3.52
424.938	3.55
425.143	3.49
425.349	3.53
425.554	3.55
425.759	3.62
425.964	3.73
426.169	3.74
426.375	3.71
426.58	3.81
426.785	3.81
426.99	3.73
427.195	3.73
427.4	3.8
427.605	3.8
427.811	3.81
428.016	3.75
428.221	3.66
428.426	3.66
428.631	3.84
428.836	3.74
429.041	3.7
429.246	3.83
429.451	3.79
429.656	3.84
429.861	3.82
430.066	3.76
430.271	3.71
430.476	3.76
430.681	3.66
430.886	3.56
431.09	3.55
431.295	3.61
431.5	3.53
431.705	3.55
431.91	3.58
432.115	3.63
432.32	3.63
432.524	3.57
432.729	3.52
432.934	3.61
433.139	3.52
433.343	3.5
433.548	3.51
433.753	3.6
433.958	3.61
434.162	3.6
434.367	3.45
434.572	3.53
434.776	3.53
434.981	3.53
435.186	3.59
435.39	3.63
435.595	3.67
435.799	3.62
436.004	3.53
436.209	3.56
436.413	3.55
436.618	3.62
436.822	3.57
437.027	3.59
437.231	3.54
437.436	3.5
437.64	3.46
437.845	3.44
438.049	3.44
438.253	3.34
438.458	3.31
438.662	3.16
438.867	3.2
439.071	3.17
439.275	3.16
439.48	3.25
439.684	3.28
439.888	3.29
440.093	3.31
440.297	3.24
440.501	3.29
440.706	3.27
440.91	3.37
441.114	3.34
441.318	3.31
441.523	3.38
441.727	3.28
441.931	3.16
442.135	3.16
442.339	3.15
442.543	3.17
442.748	3.23
442.952	3.33
443.156	3.25
443.36	3.29
443.564	3.23
443.768	3.19
443.972	3.23
444.176	3.33
444.38	3.3
444.584	3.33
444.788	3.36
444.992	3.33
445.196	3.28
445.4	3.24
445.604	3.18
445.808	3.24
446.012	3.21
446.216	3.15
446.42	3.06
446.624	3.07
446.828	3.06
447.032	2.99
447.235	2.99
447.439	3.01
447.643	3.05
447.847	3.14
448.051	3.22
448.254	3.23
448.458	3.38
448.662	3.45
448.866	3.46
449.069	3.39
449.273	3.52
449.477	3.52
449.681	3.31
449.884	3.32
450.088	3.24
450.292	3.2
450.495	3.18
450.699	3.15
450.902	3.07
451.106	3.07
451.31	3.1
451.513	3.08
451.717	3.06
451.92	3.23
452.124	3.17
452.327	3.23
452.531	3.19
452.734	3.3
452.938	3.41
453.141	3.45
453.345	3.51
453.548	3.57
453.752	3.5
453.955	3.59
454.158	3.52
454.362	3.73
454.565	3.71
454.769	3.66
454.972	3.66
455.175	3.59
455.379	3.61
455.582	3.61
455.785	3.54
455.988	3.56
456.192	3.5
456.395	3.43
456.598	3.33
456.801	3.22
457.005	3.17
457.208	3.05
457.411	2.97
457.614	3.01
457.817	2.98
458.021	2.98
458.224	2.95
458.427	2.88
458.63	2.92
458.833	2.94
459.036	2.98
459.239	3.04
459.442	3.09
459.645	3.15
459.848	3.1
460.051	3.09
460.254	3.11
460.457	3.24
460.66	3.32
460.863	3.38
461.066	3.42
461.269	3.48
461.472	3.53
461.675	3.46
461.878	3.45
462.081	3.47
462.284	3.56
462.486	3.52
462.689	3.42
462.892	3.38
