Data from 2938448_Reflection_1.txt Node
Date: Fri Jun 19 18:04:26 EDT 2015
User: robert
Spectrometer: USB4E03002
Autoset integration time: false
Trigger mode: 4
Integration Time (sec): 1.000000E-1
Scans to average: 10
Electric dark correction enabled: true
Nonlinearity correction enabled: false
Boxcar width: 5
Stray light correction enabled: false
XAxis mode: Wavelengths
Stop averaging: false
Number of Pixels in Spectrum: 3648
>>>>>Begin Spectral Data<<<<<
177.575	-410.28
177.794	-65.32
178.014	-65.59
178.233	-58.9
178.452	-16.22
178.672	-91.15
178.891	108.53
179.11	-558.69
179.33	-632.48
179.549	-208.94
179.768	-121.49
179.987	-136.27
180.207	-103.51
180.426	-163.31
180.645	-184.56
180.864	-381.09
181.084	656.06
181.303	366.9
181.522	241.36
181.741	287.09
181.96	218.11
182.179	206.85
182.398	177.24
182.618	213.18
182.837	246.06
183.056	246.56
183.275	251.4
183.494	208.63
183.713	233.61
183.932	268.85
184.151	275.43
184.37	384.36
184.589	609.06
184.808	541.64
185.027	469.53
185.246	408.67
185.465	857.31
185.684	546400
185.903	-356.05
186.122	-267.17
186.341	-240.41
186.56	-216.95
186.779	-161.97
186.998	-124.17
187.216	-35.5
187.435	-25.61
187.654	-17.51
187.873	13.67
188.092	-32.65
188.311	36.19
188.53	23.03
188.748	-56.89
188.967	40.85
189.186	-75.5
189.405	-321.32
189.623	-10557.14
189.842	-1195.01
190.061	-205.96
190.28	-576.85
190.498	-474.29
190.717	632.08
190.936	523.83
191.154	426.03
191.373	291.78
191.592	310.84
191.81	880.05
192.029	1507.79
192.248	359.73
192.466	359.9
192.685	424.9
192.904	275.88
193.122	568.26
193.341	-1748.88
193.559	4042.71
193.778	-8100.71
193.996	-1611.58
194.215	745.47
194.433	323.34
194.652	-831.39
194.87	-100.79
195.089	-55.59
195.307	-77.23
195.526	-390.43
195.744	243.46
195.963	365700
196.181	1350.07
196.399	529.01
196.618	389.9
196.836	457.39
197.055	311.24
197.273	276.6
197.491	295.03
197.71	222.64
197.928	287.17
198.146	267.89
198.365	153.21
198.583	165.81
198.801	212.95
199.019	342.79
199.238	238.02
199.456	266.56
199.674	311.52
199.892	-2703.88
200.111	-271.98
200.329	-201.25
200.547	-103.47
200.765	-48.94
200.983	-43.73
201.202	-47.53
201.42	-88.46
201.638	-150.11
201.856	-126.52
202.074	-167.15
202.292	-147.37
202.51	-221.56
202.728	-255.71
202.946	-1465.13
203.165	-14840.79
203.383	1582.77
203.601	411.41
203.819	1076.2
204.037	-675.49
204.255	-383.36
204.473	-224.34
204.691	-292.99
204.909	-214.97
205.127	-79.07
205.345	-62.97
205.562	-38.17
205.78	-32.74
205.998	-85.81
206.216	-208.04
206.434	-1257.82
206.652	654.69
206.87	415.48
207.088	3915.83
207.306	556.22
207.523	224.07
207.741	169.34
207.959	174.28
208.177	162.68
208.395	143.29
208.612	150.9
208.83	126.32
209.048	123.58
209.266	93.47
209.483	77.22
209.701	72.27
209.919	86.45
210.136	113.81
210.354	92.15
210.572	108.24
210.79	152.48
211.007	162.77
211.225	166.05
211.442	168.14
211.66	144.3
211.878	99.82
212.095	137.87
212.313	132.63
212.53	120.61
212.748	119.54
212.966	144.99
213.183	117.3
213.401	126.12
213.618	161.3
213.836	163.58
214.053	160.81
214.271	336.37
214.488	223.12
214.705	258.59
214.923	272.84
215.14	264.99
215.358	232.1
215.575	562.23
215.793	381.54
216.01	211.36
216.227	184.39
216.445	262.73
216.662	179.61
216.879	169.53
217.097	143.68
217.314	114.02
217.531	134.91
217.749	101.86
217.966	95.38
218.183	95.25
218.4	97.73
218.618	89.16
218.835	74.79
219.052	86.56
219.269	71.26
219.487	72.8
219.704	66.21
219.921	49.2
220.138	65.99
220.355	77.11
220.572	72.82
220.79	47.33
221.007	51.06
221.224	54.72
221.441	50.39
221.658	53.34
221.875	44.27
222.092	14.87
222.309	25.75
222.526	31.47
222.743	25.04
222.96	22.4
223.177	31.29
223.394	29.48
223.611	27.77
223.828	29.74
224.045	28.74
224.262	28.96
224.479	41.02
224.696	35.07
224.913	28.9
225.13	28.81
225.347	26.95
225.564	24.4
225.781	23.56
225.997	23.57
226.214	21.76
226.431	21.29
226.648	18.76
226.865	16.91
227.082	16.31
227.298	15.72
227.515	14.34
227.732	14.58
227.949	15.18
228.165	15.21
228.382	15.26
228.599	13.14
228.816	11.05
229.032	9.85
229.249	10.46
229.466	11.56
229.682	12.43
229.899	11.97
230.116	12.51
230.332	11.36
230.549	11.9
230.765	11.85
230.982	13.52
231.199	17.41
231.415	21.98
231.632	21.33
231.848	21.35
232.065	20.46
232.281	21.34
232.498	19.53
232.714	19.65
232.931	19.63
233.147	19.58
233.364	21.31
233.58	18.19
233.797	20.67
234.013	22.26
234.23	20.69
234.446	21.62
234.662	18.64
234.879	19.86
235.095	18.57
235.312	18.52
235.528	20.68
235.744	17.98
235.961	18.95
236.177	14.12
236.393	14.21
236.61	15.42
236.826	14.74
237.042	17.17
237.258	16.12
237.475	15.69
237.691	15.14
237.907	13.89
238.123	14.87
238.339	15.4
238.556	15.88
238.772	15.14
238.988	14.47
239.204	14.39
239.42	14.47
239.636	15.43
239.853	15.28
240.069	15.02
240.285	15.21
240.501	14.89
240.717	13.95
240.933	13.82
241.149	14.08
241.365	14.26
241.581	14.48
241.797	14.72
242.013	14.36
242.229	14.38
242.445	14.07
242.661	12.52
242.877	12.12
243.093	12.44
243.309	12.13
243.525	11.69
243.741	11.72
243.957	11.36
244.173	10.64
244.388	9.89
244.604	9.66
244.82	10
245.036	10.2
245.252	10.32
245.468	9.86
245.683	9.53
245.899	9.33
246.115	8.94
246.331	8.67
246.547	8.48
246.762	8.75
246.978	8.9
247.194	8.76
247.409	8.64
247.625	8.73
247.841	8.28
248.057	8.95
248.272	8.77
248.488	8.38
248.703	7.94
248.919	8.88
249.135	8.4
249.35	8.99
249.566	8.53
249.782	9.3
249.997	9.41
250.213	10.09
250.428	8.85
250.644	9.31
250.859	9.74
251.075	11.06
251.29	10.43
251.506	10.41
251.721	10.78
251.937	11.44
252.152	10.83
252.368	9.81
252.583	11.03
252.798	13.02
253.014	12.75
253.229	12.65
253.445	10.99
253.66	10.75
253.875	11.61
254.091	9.95
254.306	8.78
254.521	9.14
254.737	9.93
254.952	8.05
255.167	7.25
255.383	7.94
255.598	9.05
255.813	9.37
256.028	9.8
256.244	8.94
256.459	8.87
256.674	8.28
256.889	7.46
257.104	7.43
257.32	7.54
257.535	6.84
257.75	6.21
257.965	5.49
258.18	5.65
258.395	5.59
258.61	5.83
258.826	5.9
259.041	6
259.256	6.38
259.471	6.24
259.686	6.53
259.901	7.05
260.116	7.39
260.331	8.1
260.546	8.55
260.761	8.43
260.976	8.56
261.191	8.86
261.406	9.72
261.621	9.51
261.836	8.95
262.05	8.23
262.265	8.29
262.48	8.73
262.695	8.66
262.91	8.42
263.125	8.24
263.34	8.43
263.555	7.54
263.769	6.1
263.984	7.01
264.199	7.67
264.414	8.53
264.629	8.29
264.843	7.04
265.058	7.14
265.273	7
265.488	7.52
265.702	7.04
265.917	7.77
266.132	8.75
266.346	8.6
266.561	8.85
266.776	8.86
266.99	8.81
267.205	9.74
267.42	9.43
267.634	9.03
267.849	8.47
268.063	8.74
268.278	8.16
268.492	7.97
268.707	7.21
268.922	6.76
269.136	6.16
269.351	5.99
269.565	5.93
269.78	5.7
269.994	6
270.209	6.45
270.423	6.11
270.637	6.62
270.852	6.69
271.066	7.28
271.281	8.04
271.495	8.65
271.709	8.69
271.924	8.9
272.138	9.55
272.353	9.74
272.567	9.71
272.781	10.22
272.996	9.86
273.21	10.17
273.424	10
273.638	9.04
273.853	8.76
274.067	8.43
274.281	8.06
274.495	7.77
274.71	7.54
274.924	7.57
275.138	7.44
275.352	7.43
275.566	7.48
275.781	7.26
275.995	8.06
276.209	8.33
276.423	8.72
276.637	8.68
276.851	7.95
277.065	8.52
277.279	8.84
277.493	8.65
277.707	8.3
277.921	7.93
278.135	8.34
278.349	7.63
278.563	7.21
278.777	6.95
278.991	7.13
279.205	7.3
279.419	6.59
279.633	6.87
279.847	6.87
280.061	7.49
280.275	7.43
280.489	6.95
280.703	6.98
280.917	6.83
281.131	6.65
281.344	6.73
281.558	6.13
281.772	6.25
281.986	5.6
282.2	5.76
282.414	5.14
282.627	4.63
282.841	4.98
283.055	5.6
283.269	6.09
283.482	6.56
283.696	6.39
283.91	7.44
284.123	6.88
284.337	6.62
284.551	6.23
284.764	6.44
284.978	6.92
285.192	6.66
285.405	6.99
285.619	6.8
285.833	6.9
286.046	6.79
286.26	6.68
286.473	7.24
286.687	7.5
286.9	7.83
287.114	7.82
287.327	7.82
287.541	7.31
287.754	6.41
287.968	6.14
288.181	5.76
288.395	5.97
288.608	5.91
288.822	6.23
289.035	6.46
289.248	6.28
289.462	6.48
289.675	6.47
289.889	7.58
290.102	7.35
290.315	7.62
290.529	8.22
290.742	8.14
290.955	8.3
291.169	7.9
291.382	7.66
291.595	7.69
291.808	8.21
292.022	7.9
292.235	7.21
292.448	7.51
292.661	7.15
292.875	6.75
293.088	7.08
293.301	7.82
293.514	7.8
293.727	7.99
293.94	8.13
294.153	7.5
294.367	7.85
294.58	7.99
294.793	7.54
295.006	8.09
295.219	8.38
295.432	8.55
295.645	7.73
295.858	7.9
296.071	7.76
296.284	8.17
296.497	8.37
296.71	8.3
296.923	8.41
297.136	8.85
297.349	8.41
297.562	8
297.775	7.62
297.988	7.91
298.201	8.2
298.414	8.27
298.626	7.82
298.839	7.63
299.052	7.53
299.265	7.43
299.478	7.03
299.691	6.94
299.903	7.34
300.116	7.18
300.329	6.79
300.542	6.65
300.755	7.22
300.967	7.59
301.18	7.95
301.393	7.93
301.605	8.07
301.818	8.8
302.031	8.85
302.243	8.95
302.456	8.84
302.669	9.18
302.881	9.75
303.094	9.5
303.307	9.26
303.519	9.11
303.732	9.54
303.944	10
304.157	10.65
304.37	10.98
304.582	10.84
304.795	11.24
305.007	11.56
305.22	10.57
305.432	10.28
305.645	10.2
305.857	10.71
306.069	10.86
306.282	10.07
306.494	9.29
306.707	8.75
306.919	8.54
307.132	8.29
307.344	8.13
307.556	8.4
307.769	8.83
307.981	9.05
308.193	8.53
308.406	8.02
308.618	8.45
308.83	8.16
309.043	8.34
309.255	7.98
309.467	7.93
309.679	7.63
309.892	7.2
310.104	6.58
310.316	6.93
310.528	7.27
310.74	7.25
310.953	7.02
311.165	7.31
311.377	7.28
311.589	7.77
311.801	8.64
312.013	8.35
312.225	8.97
312.437	9.83
312.649	9.61
312.862	8.91
313.074	8.89
313.286	9.05
313.498	9.18
313.71	9.53
313.922	9.63
314.134	9.43
314.346	9.95
314.558	9.61
314.77	9.38
314.982	9.22
315.193	9.91
315.405	9.93
315.617	9.48
315.829	10.24
316.041	9.83
316.253	10.27
316.465	9.52
316.677	9.13
316.888	9.29
317.1	9.24
317.312	9.18
317.524	8.54
317.736	9.42
317.947	10.72
318.159	9.86
318.371	10.1
318.583	9.59
318.794	10.54
319.006	10.71
319.218	10.46
319.43	9.8
319.641	9.58
319.853	9.87
320.064	9.81
320.276	9.54
320.488	9.47
320.699	9.44
320.911	9.07
321.123	8.07
321.334	8.67
321.546	9.09
321.757	9.63
321.969	9.88
322.18	9.91
322.392	9.14
322.603	8.27
322.815	8.36
323.026	8.31
323.238	8.55
323.449	8.46
323.661	8.14
323.872	7.71
324.083	7.52
324.295	7.62
324.506	7.83
324.718	7.91
324.929	7.75
325.14	7.69
325.352	8.38
325.563	8.34
325.774	9.08
325.986	9.18
326.197	9.32
326.408	9.77
326.62	10.11
326.831	9.89
327.042	9.48
327.253	10.07
327.464	10.78
327.676	10.09
327.887	10.04
328.098	9.84
328.309	10.03
328.52	10.02
328.732	9.42
328.943	9.45
329.154	9.58
329.365	10.25
329.576	9.97
329.787	9.1
329.998	9.31
330.209	9.74
330.42	9.78
330.631	9.16
330.842	9.98
331.053	10.11
331.264	9.81
331.475	10.07
331.686	9.88
331.897	10.22
332.108	10.66
332.319	10.95
332.53	10.72
332.741	10.5
332.952	11.08
333.163	10.82
333.374	11.12
333.585	10.76
333.795	10.93
334.006	11.08
334.217	11.06
334.428	11.02
334.639	11.15
334.849	11.12
335.06	11.11
335.271	11.09
335.482	10.71
335.692	10.55
335.903	10.38
336.114	9.75
336.325	9.78
336.535	9.66
336.746	9.92
336.957	10.17
337.167	10.55
337.378	10.71
337.589	11.2
337.799	11.1
338.01	11.56
338.22	12.19
338.431	12.34
338.642	12.79
338.852	13.13
339.063	12.8
339.273	12.27
339.484	11.54
339.694	11.36
339.905	11.31
340.115	11.43
340.326	10.73
340.536	10.64
340.746	10.6
340.957	9.8
341.167	9.57
341.378	9.57
341.588	9.41
341.799	9.38
342.009	8.94
342.219	7.78
342.43	7.66
342.64	7.87
342.85	7.4
343.061	7.2
343.271	7.74
343.481	7.71
343.691	7.57
343.902	7.67
344.112	7.88
344.322	8.13
344.532	8.7
344.743	8.64
344.953	8.48
345.163	8.5
345.373	8.69
345.583	8.58
345.793	8.36
346.004	8.37
346.214	8.55
346.424	9.02
346.634	9.11
346.844	8.7
347.054	8.8
347.264	9.35
347.474	9.89
347.684	10.07
347.894	9.95
348.104	10.3
348.314	9.8
348.524	9.11
348.734	8.67
348.944	8.74
349.154	9.46
349.364	9.81
349.574	8.89
349.784	8.83
349.994	9.02
350.204	8.96
350.413	8.73
350.623	9.31
350.833	9.34
351.043	9.32
351.253	8.87
351.463	8.63
351.672	8.25
351.882	9.12
352.092	9.01
352.302	9.24
352.511	9.11
352.721	8.8
352.931	8.83
353.141	9.12
353.35	9.08
353.56	9.53
353.77	9.69
353.979	9.43
354.189	9
354.399	8.88
354.608	8.44
354.818	8.42
355.027	8.68
355.237	8.44
355.447	8.31
355.656	8.07
355.866	7.79
356.075	7.49
356.285	7.48
356.494	7.8
356.704	7.85
356.913	7.92
357.123	7.7
357.332	7.5
357.542	7.67
357.751	7.79
357.96	8.43
358.17	8.62
358.379	8.56
358.589	8.89
358.798	8.64
359.007	8.42
359.217	8.16
359.426	8.09
359.635	8.24
359.845	8.07
360.054	8
360.263	7.58
360.472	7.46
360.682	7.57
360.891	7.28
361.1	7.06
361.309	7.42
361.519	7.22
361.728	7.55
361.937	7.34
362.146	7.29
362.355	7.25
362.564	7.44
362.774	7.66
362.983	7.2
363.192	7.43
363.401	7.62
363.61	7.21
363.819	7.76
364.028	7.54
364.237	7.18
364.446	7.26
364.655	7.09
364.864	6.9
365.073	7.01
365.282	6.95
365.491	6.93
365.7	7.19
365.909	7.18
366.118	6.81
366.327	6.92
366.536	7.37
366.745	7.57
366.954	7.53
367.162	7.7
367.371	7.43
367.58	7.71
367.789	7.59
367.998	6.96
368.207	6.86
368.415	7.24
368.624	7.16
368.833	7.32
369.042	6.9
369.25	7.38
369.459	7.3
369.668	7.14
369.877	7.1
370.085	7.16
370.294	7.49
370.503	7.32
370.711	7.17
370.92	7.09
371.129	7.03
371.337	6.68
371.546	6.24
371.754	5.92
371.963	5.73
372.171	5.63
372.38	5.31
372.589	5.25
372.797	5.43
373.006	5.69
373.214	5.45
373.423	5.2
373.631	5.68
373.84	5.77
374.048	5.92
374.256	6.07
374.465	6.12
374.673	6.15
374.882	6.03
375.09	5.96
375.298	5.49
375.507	5.86
375.715	5.9
375.923	5.86
376.132	5.91
376.34	5.79
376.548	5.75
376.757	5.78
376.965	5.81
377.173	6.02
377.381	6.17
377.59	6.51
377.798	6.37
378.006	6
378.214	6.11
378.423	6.14
378.631	6.11
378.839	6.3
379.047	6.31
379.255	6.1
379.463	5.95
379.671	5.7
379.879	5.46
380.088	5.38
380.296	5.72
380.504	5.48
380.712	5.59
380.92	5.6
381.128	5.15
381.336	4.61
381.544	4.51
381.752	4.31
381.96	3.98
382.168	3.98
382.376	4.15
382.584	3.86
382.791	4.29
382.999	4.11
383.207	4.05
383.415	4.33
383.623	5.06
383.831	5.33
384.039	5.56
384.247	5.88
384.454	5.81
384.662	5.5
384.87	5.67
385.078	5.09
385.285	5.07
385.493	5.24
385.701	5.18
385.909	4.91
386.116	4.87
386.324	4.69
386.532	4.82
386.739	4.79
386.947	4.65
387.155	4.75
387.362	5.09
387.57	5.14
387.778	5.06
387.985	5.02
388.193	4.96
388.4	4.74
388.608	4.75
388.816	4.5
389.023	4.25
389.231	4.37
389.438	4.17
389.646	4.04
389.853	3.77
390.061	3.67
390.268	3.61
390.475	3.67
390.683	3.89
390.89	3.77
391.098	3.78
391.305	4.16
391.512	4.13
391.72	4.17
391.927	4.04
392.135	3.95
392.342	3.99
392.549	4
392.756	4.02
392.964	3.85
393.171	4.12
393.378	4.23
393.586	4.04
393.793	4.1
394	3.91
394.207	4.01
394.414	4.23
394.622	4.28
394.829	4.21
395.036	4.06
395.243	4.12
395.45	3.81
395.657	3.64
395.864	3.71
396.072	3.66
396.279	3.65
396.486	3.54
396.693	3.47
396.9	3.28
397.107	3.39
397.314	3.35
397.521	3.22
397.728	3.31
397.935	3.39
398.142	3.24
398.349	3.32
398.556	3.23
398.763	3.21
398.97	3.16
399.177	3.27
399.383	3.24
399.59	3.34
399.797	3.45
400.004	3.34
400.211	3.35
400.418	3.32
400.625	3.2
400.831	3.35
401.038	3.46
401.245	3.52
401.452	3.3
401.658	3.23
401.865	3.07
402.072	3.01
402.279	3.15
402.485	2.99
402.692	2.93
402.899	2.84
403.105	2.97
403.312	2.94
403.519	3.02
403.725	3.16
403.932	3.18
404.138	3.22
404.345	3.17
404.552	3.05
404.758	3.18
404.965	3.24
405.171	3.1
405.378	2.96
405.584	2.78
405.791	2.7
405.997	2.72
406.204	2.73
406.41	2.68
406.617	2.84
406.823	2.83
407.029	2.78
407.236	2.9
407.442	3.14
407.649	3.38
407.855	3.52
408.061	3.52
408.268	3.51
408.474	3.47
408.68	3.43
408.887	3.48
409.093	3.6
409.299	3.61
409.505	3.42
409.712	3.31
409.918	3.05
410.124	3
410.33	2.89
410.537	2.84
410.743	2.83
410.949	2.98
411.155	2.93
411.361	2.82
411.567	2.78
411.773	2.74
411.98	2.75
412.186	2.92
412.392	2.75
412.598	2.86
412.804	2.82
413.01	2.73
413.216	2.67
413.422	2.69
413.628	2.63
413.834	2.6
414.04	2.72
414.246	2.68
414.452	2.63
414.658	2.63
414.864	2.51
415.07	2.54
415.275	2.62
415.481	2.57
415.687	2.37
415.893	2.35
416.099	2.22
416.305	2.21
416.511	2.34
416.716	2.27
416.922	2.31
417.128	2.37
417.334	2.24
417.539	2.13
417.745	2.12
417.951	2.14
418.157	2.13
418.362	2.19
418.568	2.11
418.774	2.04
418.979	1.97
419.185	1.97
419.391	1.95
419.596	2.05
419.802	2.03
420.008	2.07
420.213	1.65
420.419	1.74
420.624	1.75
420.83	1.67
421.035	1.67
421.241	1.67
421.446	1.72
421.652	1.72
421.857	1.7
422.063	1.76
422.268	1.73
422.474	2.14
422.679	2.08
422.885	2.07
423.09	2.08
423.295	2.11
423.501	2.13
423.706	2.07
423.911	1.99
424.117	1.95
424.322	1.93
424.527	1.96
424.733	2.02
424.938	1.97
425.143	1.99
425.349	2.14
425.554	2.16
425.759	2.31
425.964	2.34
426.169	2.42
426.375	2.55
426.58	2.58
426.785	2.65
426.99	2.65
427.195	2.76
427.4	2.61
427.605	2.57
427.811	2.53
428.016	2.34
428.221	2.39
428.426	2.36
428.631	2.25
428.836	2.2
429.041	2.06
429.246	1.92
429.451	1.86
429.656	1.93
429.861	1.87
430.066	1.83
430.271	1.92
430.476	1.94
430.681	1.95
430.886	1.94
431.09	1.92
431.295	1.92
431.5	2.05
431.705	2.01
431.91	2.07
432.115	2.02
432.32	2.03
432.524	2.02
432.729	2.03
432.934	2.11
433.139	2.13
433.343	2.19
433.548	2.16
433.753	2.11
433.958	2.16
434.162	2.21
434.367	2.35
434.572	2.36
434.776	2.31
434.981	2.15
435.186	2.08
435.39	2.09
435.595	2.16
435.799	2.22
436.004	2.34
436.209	2.34
436.413	2.24
436.618	2.09
436.822	1.93
437.027	1.87
437.231	1.91
437.436	1.9
437.64	1.88
437.845	1.78
438.049	1.72
438.253	1.64
438.458	1.61
438.662	1.65
438.867	1.67
439.071	1.82
439.275	1.78
439.48	1.74
439.684	1.81
439.888	1.7
440.093	1.74
440.297	1.77
440.501	1.77
440.706	1.83
440.91	1.79
441.114	1.77
441.318	1.77
441.523	1.84
441.727	1.84
441.931	1.77
442.135	1.84
442.339	1.86
442.543	1.94
442.748	1.84
442.952	1.72
443.156	1.76
443.36	1.73
443.564	1.7
443.768	1.78
443.972	1.87
444.176	1.93
444.38	1.95
444.584	1.84
444.788	1.76
444.992	1.72
445.196	1.77
445.4	1.75
445.604	1.79
445.808	1.84
446.012	1.74
446.216	1.69
446.42	1.63
446.624	1.68
446.828	1.78
447.032	1.79
447.235	1.91
447.439	1.95
447.643	1.83
447.847	1.87
448.051	1.81
448.254	1.91
448.458	1.93
448.662	1.97
448.866	1.8
449.069	1.73
449.273	1.75
449.477	1.74
449.681	1.73
449.884	1.94
450.088	1.96
450.292	1.94
450.495	1.77
450.699	1.74
450.902	1.74
451.106	1.81
451.31	1.8
451.513	1.78
451.717	1.71
451.92	1.7
452.124	1.56
452.327	1.58
452.531	1.49
452.734	1.62
452.938	1.48
453.141	1.46
453.345	1.49
453.548	1.54
453.752	1.59
453.955	1.68
454.158	1.67
454.362	1.73
454.565	1.77
454.769	1.85
454.972	1.85
455.175	2.08
455.379	2.05
455.582	1.93
455.785	1.86
455.988	1.8
456.192	1.66
456.395	1.65
456.598	1.65
456.801	1.54
457.005	1.57
457.208	1.62
457.411	1.59
457.614	1.61
457.817	1.69
458.021	1.73
458.224	1.74
458.427	1.83
458.63	1.77
458.833	1.82
459.036	1.84
459.239	1.84
459.442	1.81
459.645	1.82
459.848	1.84
460.051	1.89
460.254	1.88
460.457	1.94
460.66	1.91
460.863	1.92
461.066	1.82
461.269	1.86
461.472	1.86
461.675	1.91
461.878	1.85
462.081	1.8
462.284	1.67
462.486	1.64
462.689	1.55
462.892	1.6
463.095	1.69
463.298	1.71
463.5	1.74
463.703	1.7
463.906	1.61
464.109	1.53
464.311	1.49
464.514	1.65
464.717	1.73
464.92	1.77
465.122	1.6
465.325	1.61
465.528	1.59
465.73	1.66
465.933	1.76
466.135	1.69
466.338	1.76
466.541	1.9
466.743	1.9
466.946	1.87
