Data from 2938518_Reflection_3.txt Node
Date: Tue Jun 16 22:24:45 EDT 2015
User: robert
Spectrometer: USB4E03002
Autoset integration time: false
Trigger mode: 4
Integration Time (sec): 1.000000E-1
Scans to average: 10
Electric dark correction enabled: true
Nonlinearity correction enabled: false
Boxcar width: 5
Stray light correction enabled: false
XAxis mode: Wavelengths
Stop averaging: false
Number of Pixels in Spectrum: 3648
>>>>>Begin Spectral Data<<<<<
177.575	-182.47
177.794	-134.18
178.014	-58.04
178.233	-45.62
178.452	-44.59
178.672	-49.25
178.891	103.74
179.11	1772.73
179.33	4377.4
179.549	1036.49
179.768	440.72
179.987	661.54
180.207	691.45
180.426	256.9
180.645	207.7
180.864	196.17
181.084	207.88
181.303	148.35
181.522	114.02
181.741	96.93
181.96	102.86
182.179	114.7
182.398	95.97
182.618	81.72
182.837	82.68
183.056	67.51
183.275	76.22
183.494	73.16
183.713	77.66
183.932	78.51
184.151	76.11
184.37	77.96
184.589	79.06
184.808	80.76
185.027	91.06
185.246	104.64
185.465	118.13
185.684	134.85
185.903	119.4
186.122	116.6
186.341	105.62
186.56	134.29
186.779	179.73
186.998	225.83
187.216	248.51
187.435	296.18
187.654	364.78
187.873	515.08
188.092	655.17
188.311	-771.32
188.53	-460.77
188.748	-562
188.967	-12025
189.186	609.56
189.405	273.54
189.623	220.06
189.842	237.2
190.061	159.2
190.28	127.81
190.498	101.64
190.717	104.93
190.936	99.5
191.154	114.91
191.373	113.97
191.592	109.5
191.81	96.66
192.029	100.3
192.248	103.03
192.466	151.12
192.685	176.91
192.904	185.33
193.122	165.07
193.341	153.94
193.559	129.55
193.778	145.95
193.996	194.75
194.215	211.93
194.433	205.72
194.652	189.59
194.87	166.02
195.089	146.77
195.307	143.21
195.526	165.22
195.744	157.67
195.963	180.83
196.181	159.38
196.399	131.55
196.618	144.32
196.836	121.4
197.055	124.65
197.273	122.78
197.491	122.1
197.71	133.01
197.928	111.68
198.146	124.02
198.365	111.92
198.583	109.3
198.801	123.37
199.019	105.8
199.238	121.52
199.456	109.4
199.674	112.21
199.892	118.81
200.111	108.76
200.329	92.4
200.547	80.57
200.765	65.92
200.983	57.06
201.202	51.78
201.42	66.69
201.638	65.9
201.856	71.01
202.074	64.72
202.292	46.13
202.51	59.11
202.728	78.79
202.946	89.01
203.165	103.12
203.383	135.13
203.601	133.98
203.819	82.45
204.037	79.54
204.255	88.61
204.473	85.99
204.691	92.53
204.909	81.74
205.127	78.98
205.345	68.04
205.562	73.71
205.78	85.67
205.998	73.81
206.216	95.09
206.434	109.82
206.652	102.1
206.87	110.64
207.088	116.82
207.306	123.16
207.523	119.42
207.741	121.76
207.959	127.22
208.177	110.85
208.395	118.3
208.612	116.61
208.83	111.22
209.048	118.29
209.266	112.02
209.483	91.65
209.701	88.21
209.919	91.33
210.136	98.64
210.354	95.92
210.572	107.4
210.79	101.31
211.007	97.52
211.225	99.14
211.442	85.99
211.66	96.4
211.878	114.66
212.095	179.29
212.313	188.59
212.53	205.93
212.748	199.54
212.966	197.94
213.183	200.48
213.401	226.46
213.618	199.98
213.836	229.63
214.053	206.38
214.271	196.54
214.488	109.53
214.705	111.67
214.923	98.73
215.14	84.52
215.358	70.64
215.575	67.03
215.793	69.89
216.01	67.9
216.227	71.87
216.445	62.65
216.662	71.53
216.879	70.45
217.097	64.13
217.314	57.6
217.531	57.4
217.749	61.43
217.966	63.15
218.183	60.08
218.4	55.05
218.618	56.82
218.835	60.42
219.052	62.32
219.269	67.14
219.487	70
219.704	79.59
219.921	79.05
220.138	82.93
220.355	76.33
220.572	72.44
220.79	77.12
221.007	69.55
221.224	69.28
221.441	63.75
221.658	63.88
221.875	62.25
222.092	56.78
222.309	51.78
222.526	47.21
222.743	47.61
222.96	47.75
223.177	47.81
223.394	44.49
223.611	42.86
223.828	44.63
224.045	45.57
224.262	45.51
224.479	42.38
224.696	43.61
224.913	40.09
225.13	36.32
225.347	33.18
225.564	29.47
225.781	27.31
225.997	27.06
226.214	25.6
226.431	22.92
226.648	20.22
226.865	19.99
227.082	18.43
227.298	17.68
227.515	17.97
227.732	17.16
227.949	16.88
228.165	17.55
228.382	16.76
228.599	16.63
228.816	16.46
229.032	16.34
229.249	15.64
229.466	15.41
229.682	17.39
229.899	17.67
230.116	17.61
230.332	20.03
230.549	18.96
230.765	18.69
230.982	20.94
231.199	21.18
231.415	23.02
231.632	23.64
231.848	23.09
232.065	21.53
232.281	22.03
232.498	22.63
232.714	21.64
232.931	22.27
233.147	23.75
233.364	22.47
233.58	22.62
233.797	21.66
234.013	22.82
234.23	23.15
234.446	21.41
234.662	21.87
234.879	22.61
235.095	22.3
235.312	23.62
235.528	24.33
235.744	23.88
235.961	21.85
236.177	21.45
236.393	22.91
236.61	23.18
236.826	24.98
237.042	25.63
237.258	25.52
237.475	26.18
237.691	25.52
237.907	24.09
238.123	23.85
238.339	25.19
238.556	24.76
238.772	22.93
238.988	22.91
239.204	21.36
239.42	19.42
239.636	18.48
239.853	16.4
240.069	14.9
240.285	14.51
240.501	13.57
240.717	12.65
240.933	11.88
241.149	11.54
241.365	11.15
241.581	11.5
241.797	11.54
242.013	11.62
242.229	12.38
242.445	13.41
242.661	13.16
242.877	13.66
243.093	14.31
243.309	14.75
243.525	13.91
243.741	14.02
243.957	13.63
244.173	13.49
244.388	13.65
244.604	12.56
244.82	11.54
245.036	10.88
245.252	10.8
245.468	10.49
245.683	10.31
245.899	10.32
246.115	10.24
246.331	9.85
246.547	9.82
246.762	9.79
246.978	10.17
247.194	10.59
247.409	11.25
247.625	11.43
247.841	11.19
248.057	11.64
248.272	12.19
248.488	12.41
248.703	12.98
248.919	12.66
249.135	12.02
249.35	11.59
249.566	11.27
249.782	10.98
249.997	10.86
250.213	11.36
250.428	11.25
250.644	11.31
250.859	11.42
251.075	11.58
251.29	12.23
251.506	12.22
251.721	12.34
251.937	13.05
252.152	13.25
252.368	13.22
252.583	13.89
252.798	14.35
253.014	15.49
253.229	14.66
253.445	15.05
253.66	14.13
253.875	13.58
254.091	14.64
254.306	13.8
254.521	14.1
254.737	13.76
254.952	12.31
255.167	11.96
255.383	11.02
255.598	10.4
255.813	9.53
256.028	9.66
256.244	10.17
256.459	9.72
256.674	9.55
256.889	9.06
257.104	8.88
257.32	9.27
257.535	9.03
257.75	8.85
257.965	9.03
258.18	9.28
258.395	9.34
258.61	9.07
258.826	9.1
259.041	9.26
259.256	9.51
259.471	9.7
259.686	9.59
259.901	9.55
260.116	9.58
260.331	9.16
260.546	9.07
260.761	9.03
260.976	9.37
261.191	9.35
261.406	9.11
261.621	8.72
261.836	8.14
262.05	8.16
262.265	8.73
262.48	9.46
262.695	10.34
262.91	10.14
263.125	10.42
263.34	10.1
263.555	9.75
263.769	10.16
263.984	10.27
264.199	10.6
264.414	10.39
264.629	10.09
264.843	9.41
265.058	9.19
265.273	9.45
265.488	9.23
265.702	9.5
265.917	10.22
266.132	9.97
266.346	9.84
266.561	9.87
266.776	10.25
266.99	10.25
267.205	10.57
267.42	11.01
267.634	10.98
267.849	10.99
268.063	10.45
268.278	9.64
268.492	9.71
268.707	10.02
268.922	9.77
269.136	9.31
269.351	9.21
269.565	8.83
269.78	8.73
269.994	8.1
270.209	7.89
270.423	8.32
270.637	8.3
270.852	7.82
271.066	7.8
271.281	8.21
271.495	8.29
271.709	8.71
271.924	8.42
272.138	8.3
272.353	9.03
272.567	9.36
272.781	9.43
272.996	9.85
273.21	10.39
273.424	10.3
273.638	9.92
273.853	10.29
274.067	9.85
274.281	10.45
274.495	10.78
274.71	10.51
274.924	10.16
275.138	9.8
275.352	9.12
275.566	9.07
275.781	9.15
275.995	9.16
276.209	9.04
276.423	8.97
276.637	9.26
276.851	8.99
277.065	8.82
277.279	9
277.493	9.56
277.707	9.96
277.921	10.2
278.135	10.08
278.349	10.25
278.563	10.04
278.777	9.86
278.991	9.75
279.205	9.71
279.419	9.83
279.633	10.29
279.847	9.87
280.061	9.86
280.275	9.86
280.489	9.48
280.703	9.44
280.917	9.66
281.131	9.72
281.344	9.86
281.558	9.38
281.772	9.48
281.986	8.96
282.2	9.06
282.414	8.82
282.627	8.61
282.841	9.11
283.055	9.39
283.269	9.06
283.482	8.86
283.696	8.37
283.91	9.04
284.123	8.6
284.337	8.83
284.551	8.61
284.764	8.88
284.978	8.89
285.192	8.65
285.405	8.36
285.619	8.39
285.833	8.77
286.046	8.72
286.26	8.31
286.473	8.85
286.687	8.61
286.9	8.73
287.114	8.9
287.327	9.09
287.541	8.97
287.754	8.91
287.968	9.34
288.181	9.18
288.395	9.04
288.608	9.34
288.822	9.17
289.035	9.35
289.248	9.17
289.462	9.29
289.675	9.1
289.889	9.42
290.102	9.66
290.315	9.59
290.529	9.83
290.742	9.87
290.955	9.94
291.169	10.15
291.382	10.35
291.595	10.78
291.808	10.67
292.022	11.07
292.235	10.85
292.448	10.96
292.661	10.56
292.875	10.3
293.088	10.84
293.301	10.34
293.514	10.16
293.727	9.91
293.94	9.88
294.153	9.19
294.367	8.95
294.58	8.54
294.793	8.46
295.006	8.74
295.219	8.88
295.432	9
295.645	9.09
295.858	9.01
296.071	8.84
296.284	8.67
296.497	9.07
296.71	8.84
296.923	9.29
297.136	9.07
297.349	9.05
297.562	9.15
297.775	9.01
297.988	9.44
298.201	9.86
298.414	10.16
298.626	10.15
298.839	10.33
299.052	10.32
299.265	10.69
299.478	11.01
299.691	11.08
299.903	11.01
300.116	10.58
300.329	10.59
300.542	10.73
300.755	10.7
300.967	10.84
301.18	10.6
301.393	11.15
301.605	10.52
301.818	10.32
302.031	10.23
302.243	9.87
302.456	10.28
302.669	10.1
302.881	10.17
303.094	10.32
303.307	10.49
303.519	10.71
303.732	10.89
303.944	11.06
304.157	11.63
304.37	11.52
304.582	11.92
304.795	11.65
305.007	11.7
305.22	11.12
305.432	11.39
305.645	11.38
305.857	11.44
306.069	11.18
306.282	11.37
306.494	10.66
306.707	10.93
306.919	10.78
307.132	11.1
307.344	11.01
307.556	11.31
307.769	11.36
307.981	11.42
308.193	11.61
308.406	11.33
308.618	11.51
308.83	11.53
309.043	11.38
309.255	11.21
309.467	10.95
309.679	11.1
309.892	10.88
310.104	10.68
310.316	10.77
310.528	10.35
310.74	10.89
310.953	10.57
311.165	10.76
311.377	10.78
311.589	10.96
311.801	10.88
312.013	10.8
312.225	10.82
312.437	10.37
312.649	10.37
312.862	10.68
313.074	10.13
313.286	10.18
313.498	10.55
313.71	10.7
313.922	10.87
314.134	10.86
314.346	10.77
314.558	11.14
314.77	11.92
314.982	11.71
315.193	11.79
315.405	12.04
315.617	11.76
315.829	11.27
316.041	11.17
316.253	11.27
316.465	12.02
316.677	11.72
316.888	11.59
317.1	11.37
317.312	11.57
317.524	11.58
317.736	11.75
317.947	12.84
318.159	12.87
318.371	12.73
318.583	12.9
318.794	12.73
319.006	13.49
319.218	13.22
319.43	13.31
319.641	13.38
319.853	13.25
320.064	13.19
320.276	12.77
320.488	13.03
320.699	13.67
320.911	13.76
321.123	13.19
321.334	13.21
321.546	13.49
321.757	13.68
321.969	14
322.18	14.48
322.392	14.27
322.603	14.27
322.815	14.25
323.026	13.84
323.238	13.58
323.449	13.91
323.661	13.67
323.872	14
324.083	13.71
324.295	13.22
324.506	12.65
324.718	12.96
324.929	12.92
325.14	13.02
325.352	13.3
325.563	13.7
325.774	13.83
325.986	14.13
326.197	14.47
326.408	14.86
326.62	15.16
326.831	15.49
327.042	15.73
327.253	16.23
327.464	16.42
327.676	16.26
327.887	16.12
328.098	16.22
328.309	16.57
328.52	16.5
328.732	16.38
328.943	16.49
329.154	16.72
329.365	16.25
329.576	16.27
329.787	16.04
329.998	16.74
330.209	17.07
330.42	17.19
330.631	17.24
330.842	17.13
331.053	17.12
331.264	17.24
331.475	17.1
331.686	17.9
331.897	18.03
332.108	18.31
332.319	18.08
332.53	17.82
332.741	17.89
332.952	17.78
333.163	17.79
333.374	17.89
333.585	17.7
333.795	17.68
334.006	17.21
334.217	16.4
334.428	16.51
334.639	16.67
334.849	16.94
335.06	16.91
335.271	16.78
335.482	16.86
335.692	16.78
335.903	16.89
336.114	17.02
336.325	17.2
336.535	17.83
336.746	17.92
336.957	17.95
337.167	18.14
337.378	18.19
337.589	18.2
337.799	17.83
338.01	18.05
338.22	18
338.431	18.59
338.642	18.8
338.852	18.76
339.063	18.66
339.273	18.32
339.484	18.01
339.694	18.19
339.905	18.04
340.115	18.22
340.326	18.11
340.536	18.11
340.746	17.44
340.957	17.04
341.167	17.04
341.378	16.94
341.588	17.01
341.799	17
342.009	16.86
342.219	16.81
342.43	16.69
342.64	16.6
342.85	16.75
343.061	16.82
343.271	17.15
343.481	16.76
343.691	16.84
343.902	16.88
344.112	16.89
344.322	17.11
344.532	17.01
344.743	16.99
344.953	16.92
345.163	16.82
345.373	16.92
345.583	16.73
345.793	16.71
346.004	16.88
346.214	16.62
346.424	16.55
346.634	16.43
346.844	16.8
347.054	17.14
347.264	17.4
347.474	17.23
347.684	17.09
347.894	16.7
348.104	17.18
348.314	17.27
348.524	17.4
348.734	17.19
348.944	17.14
349.154	17.03
349.364	16.44
349.574	16.24
349.784	16.24
349.994	16.53
350.204	16.65
350.413	16.36
350.623	16.08
350.833	16.15
351.043	16.09
351.253	15.69
351.463	15.45
351.672	15.99
351.882	15.97
352.092	15.84
352.302	15.52
352.511	15.74
352.721	15.9
352.931	16.08
353.141	15.78
353.35	16.49
353.56	16.7
353.77	17
353.979	16.82
354.189	16.82
354.399	16.98
354.608	17.23
354.818	17.25
355.027	17.15
355.237	16.95
355.447	17.2
355.656	16.83
355.866	16.87
356.075	16.66
356.285	16.65
356.494	16.83
356.704	16.74
356.913	16.72
357.123	16.62
357.332	16.39
357.542	16.26
357.751	16.37
357.96	16.17
358.17	16.15
358.379	16.13
358.589	16.07
358.798	15.76
359.007	15.67
359.217	15.39
359.426	15.2
359.635	15.53
359.845	15.69
360.054	15.47
360.263	15.38
360.472	15.2
360.682	15.07
360.891	15.04
361.1	15.02
361.309	15.13
361.519	15.23
361.728	15.38
361.937	15.13
362.146	14.92
362.355	15.11
362.564	15.17
362.774	15.29
362.983	15.32
363.192	15.27
363.401	15.37
363.61	15.31
363.819	15.28
364.028	15.13
364.237	15.01
364.446	14.91
364.655	14.45
364.864	14.5
365.073	14.6
365.282	14.69
365.491	14.58
365.7	14.46
365.909	14.29
366.118	14.22
366.327	14.03
366.536	14.04
366.745	14.11
366.954	14.28
367.162	14.55
367.371	14.38
367.58	14.16
367.789	14.04
367.998	13.96
368.207	14.07
368.415	13.95
368.624	13.8
368.833	13.82
369.042	13.76
369.25	14.04
369.459	13.83
369.668	13.76
369.877	13.7
370.085	13.9
370.294	14.11
370.503	13.99
370.711	13.9
370.92	13.91
371.129	14.1
371.337	13.95
371.546	13.49
371.754	13.36
371.963	13.09
372.171	13.11
372.38	13.08
372.589	12.98
372.797	13.11
373.006	13.01
373.214	13.31
373.423	13.05
373.631	13.06
373.84	13.11
374.048	12.88
374.256	13
374.465	13.08
374.673	13.11
374.882	12.92
375.09	12.64
375.298	12.93
375.507	12.84
375.715	12.91
375.923	13.14
376.132	13.23
376.34	13.33
376.548	13.26
376.757	13.15
376.965	13.01
377.173	13.01
377.381	13.25
377.59	13.27
377.798	12.94
378.006	12.89
378.214	12.85
378.423	12.72
378.631	12.58
378.839	12.64
379.047	12.43
379.255	12.27
379.463	12.3
379.671	12.1
379.879	11.79
380.088	11.98
380.296	11.7
380.504	11.6
380.712	11.75
380.92	11.96
381.128	12.05
381.336	11.94
381.544	11.8
381.752	11.55
381.96	11.64
382.168	11.59
382.376	11.64
382.584	11.85
382.791	11.52
382.999	11.41
383.207	11.13
383.415	10.9
383.623	11.04
383.831	11.18
384.039	11.2
384.247	11.15
384.454	11.01
384.662	10.9
384.87	10.77
385.078	10.8
385.285	10.52
385.493	10.5
385.701	10.57
385.909	10.4
386.116	10.35
386.324	10.36
386.532	10.33
386.739	10.5
386.947	10.55
387.155	10.44
387.362	10.38
387.57	10.61
387.778	10.52
387.985	10.31
388.193	10.43
388.4	10.32
388.608	10.29
388.816	9.92
389.023	9.93
389.231	9.63
389.438	9.74
389.646	9.81
389.853	9.7
390.061	9.62
390.268	9.64
390.475	9.53
390.683	9.6
390.89	9.49
391.098	9.7
391.305	9.73
391.512	9.83
391.72	9.68
391.927	9.49
392.135	9.37
392.342	9.41
392.549	9.48
392.756	9.36
392.964	9.14
393.171	9.13
393.378	9.23
393.586	8.95
393.793	9.04
394	9.1
394.207	9.25
394.414	9.32
394.622	9.34
394.829	9.35
395.036	9.3
395.243	9.53
395.45	9.44
395.657	9.09
395.864	9.22
396.072	9.23
396.279	9.04
396.486	8.99
396.693	8.83
396.9	8.82
397.107	8.47
397.314	8.66
397.521	8.51
397.728	8.47
397.935	8.56
398.142	8.48
398.349	8.32
398.556	8.33
398.763	8.41
398.97	8.53
399.177	8.4
399.383	8.57
399.59	8.26
399.797	8.3
400.004	8.33
400.211	8.33
400.418	8.18
400.625	8.18
400.831	8.08
401.038	7.8
401.245	7.73
401.452	7.75
401.658	7.67
401.865	7.85
402.072	7.9
402.279	7.93
402.485	7.79
402.692	7.79
402.899	7.67
403.105	7.77
403.312	7.68
403.519	7.65
403.725	7.63
403.932	7.6
404.138	7.57
404.345	7.37
404.552	7.39
404.758	7.34
404.965	7.32
405.171	7.31
405.378	7.28
405.584	7.39
405.791	7.45
405.997	7.52
406.204	7.63
406.41	7.64
406.617	7.63
406.823	7.4
407.029	7.53
407.236	7.55
407.442	7.67
407.649	7.73
407.855	7.63
408.061	7.63
408.268	7.45
408.474	7.33
408.68	7.32
408.887	7.4
409.093	7.51
409.299	7.49
409.505	7.51
409.712	7.38
409.918	7.44
410.124	7.42
410.33	7.37
410.537	7.42
410.743	7.58
410.949	7.56
411.155	7.73
411.361	7.63
411.567	7.59
411.773	7.42
411.98	7.51
412.186	7.36
412.392	7.46
412.598	7.19
412.804	7.19
413.01	7
413.216	6.94
413.422	6.68
413.628	6.73
413.834	6.69
414.04	6.7
414.246	6.55
414.452	6.47
414.658	6.36
414.864	6.52
415.07	6.5
415.275	6.6
415.481	6.55
415.687	6.53
415.893	6.6
416.099	6.57
416.305	6.6
416.511	6.5
416.716	6.4
416.922	6.47
417.128	6.33
417.334	6.32
417.539	6.14
417.745	6.16
417.951	6.2
418.157	6.16
418.362	6.23
418.568	6.14
418.774	6.16
418.979	6.22
419.185	6.15
419.391	6.14
419.596	6.14
419.802	6.15
420.008	6.04
420.213	5.91
420.419	5.86
420.624	5.76
420.83	5.73
421.035	5.81
421.241	5.76
421.446	5.71
421.652	5.74
421.857	5.64
422.063	5.64
422.268	5.75
422.474	5.82
422.679	5.79
422.885	5.75
423.09	5.69
423.295	5.59
423.501	5.62
423.706	5.66
423.911	5.61
424.117	5.77
424.322	5.81
424.527	5.76
424.733	5.66
424.938	5.66
425.143	5.69
425.349	5.81
425.554	5.83
425.759	5.73
425.964	5.68
426.169	5.79
426.375	5.62
426.58	5.6
426.785	5.67
426.99	5.85
427.195	5.84
427.4	5.9
427.605	5.94
427.811	5.97
428.016	5.86
428.221	5.96
428.426	5.82
428.631	5.82
428.836	5.76
429.041	5.66
429.246	5.59
429.451	5.6
429.656	5.42
429.861	5.4
430.066	5.37
430.271	5.52
430.476	5.46
430.681	5.49
430.886	5.49
431.09	5.46
431.295	5.37
431.5	5.33
431.705	5.32
431.91	5.46
432.115	5.4
432.32	5.4
432.524	5.28
432.729	5.25
432.934	5.26
433.139	5.27
433.343	5.42
433.548	5.48
433.753	5.46
433.958	5.43
434.162	5.46
434.367	5.44
434.572	5.37
434.776	5.47
434.981	5.53
435.186	5.49
435.39	5.55
435.595	5.51
435.799	5.45
436.004	5.43
436.209	5.43
436.413	5.25
436.618	5.28
436.822	5.36
437.027	5.36
437.231	5.25
437.436	5.24
437.64	5.16
437.845	5.13
438.049	5.11
438.253	5.11
438.458	5.16
438.662	5.2
438.867	5.22
439.071	5.18
439.275	5.17
439.48	5.24
439.684	5.21
439.888	5.21
440.093	5.12
440.297	5.12
440.501	5.16
440.706	5.16
440.91	5.23
441.114	5.18
441.318	5.25
441.523	5.28
441.727	5.27
441.931	5.31
442.135	5.35
442.339	5.29
442.543	5.38
442.748	5.29
442.952	5.27
443.156	5.18
443.36	5.16
443.564	5.08
443.768	5.02
443.972	5.03
444.176	5
444.38	5.02
444.584	5.03
444.788	4.98
444.992	4.99
445.196	4.98
445.4	4.96
445.604	4.96
445.808	4.97
446.012	4.96
446.216	4.86
446.42	4.89
446.624	4.82
446.828	4.9
447.032	4.82
447.235	4.89
447.439	4.89
447.643	4.93
447.847	4.97
448.051	4.96
448.254	4.92
448.458	4.99
448.662	5.03
448.866	5.09
449.069	5.11
449.273	5.23
449.477	5.11
449.681	4.98
449.884	4.99
450.088	4.99
450.292	4.98
450.495	5.05
450.699	5.12
450.902	5.11
451.106	4.94
451.31	4.88
451.513	4.98
451.717	5.02
451.92	5.09
452.124	5.09
452.327	5.09
452.531	5.17
452.734	5.2
452.938	5.14
453.141	5.05
453.345	5.15
453.548	5.08
453.752	4.91
453.955	4.89
454.158	4.86
454.362	4.69
454.565	4.65
454.769	4.63
454.972	4.61
455.175	4.63
455.379	4.6
455.582	4.63
455.785	4.65
455.988	4.62
456.192	4.64
456.395	4.7
456.598	4.88
456.801	4.79
457.005	4.74
457.208	4.73
457.411	4.64
457.614	4.65
457.817	4.66
458.021	4.64
458.224	4.67
458.427	4.58
458.63	4.59
458.833	4.56
459.036	4.47
459.239	4.51
459.442	4.48
459.645	4.5
459.848	4.53
460.051	4.46
460.254	4.48
460.457	4.49
460.66	4.55
460.863	4.56
461.066	4.67
461.269	4.79
461.472	4.8
461.675	4.82
461.878	4.93
462.081	4.92
462.284	5
462.486	5.07
