Data from 2938571_Reflection_2.txt Node
Date: Sun Jun 14 22:04:04 EDT 2015
User: robert
Spectrometer: USB4E03002
Autoset integration time: false
Trigger mode: 4
Integration Time (sec): 1.000000E-1
Scans to average: 10
Electric dark correction enabled: true
Nonlinearity correction enabled: false
Boxcar width: 5
Stray light correction enabled: false
XAxis mode: Wavelengths
Stop averaging: false
Number of Pixels in Spectrum: 3648
>>>>>Begin Spectral Data<<<<<
177.575	-6.14
177.794	204.15
178.014	75.77
178.233	36.74
178.452	-90.82
178.672	-23175
178.891	-216.2
179.11	-2.9
179.33	-23.18
179.549	-94.09
179.768	42.41
179.987	-122.26
180.207	179.71
180.426	106.88
180.645	52.28
180.864	41.53
181.084	48.89
181.303	110.72
181.522	464.5
181.741	208.02
181.96	6872.73
182.179	-3528.99
182.398	-308.42
182.618	-1.9
182.837	32.34
183.056	11.84
183.275	-1.15
183.494	30.86
183.713	62.03
183.932	76.04
184.151	84.91
184.37	60.02
184.589	70.22
184.808	68.34
185.027	63.95
185.246	83.9
185.465	81.15
185.684	91.01
185.903	84.85
186.122	138.49
186.341	499.4
186.56	173.19
186.779	213.66
186.998	-3434.78
187.216	-1733.13
187.435	-131.15
187.654	-118.53
187.873	-26.34
188.092	17.81
188.311	25.65
188.53	16.95
188.748	8.69
188.967	13.08
189.186	-10.36
189.405	-12.58
189.623	4.4
189.842	1.02
190.061	-16.78
190.28	-38.47
190.498	-24.02
190.717	1383.77
190.936	-93.93
191.154	-46.4
191.373	-27.64
191.592	-29.84
191.81	-52.15
192.029	-122.55
192.248	-64.65
192.466	-66.7
192.685	-55.07
192.904	-107.64
193.122	-13.12
193.341	22.88
193.559	16.66
193.778	53.43
193.996	75.43
194.215	85.74
194.433	88.57
194.652	96.23
194.87	87.47
195.089	89.93
195.307	101.27
195.526	88.95
195.744	134.4
195.963	160.38
196.181	152.51
196.399	80.16
196.618	37.73
196.836	-26.99
197.055	25.45
197.273	116.16
197.491	92.71
197.71	-7.4
197.928	-986.36
198.146	1186.06
198.365	481.37
198.583	390.01
198.801	-163
199.019	3.91
199.238	63.3
199.456	0.16
199.674	-5.62
199.892	9.73
200.111	14.8
200.329	40.64
200.547	33.03
200.765	52.51
200.983	40.92
201.202	51.01
201.42	69.33
201.638	17.9
201.856	149.89
202.074	84.83
202.292	60.46
202.51	-0.13
202.728	108.44
202.946	112.33
203.165	-135.67
203.383	-14.47
203.601	-168.35
203.819	-317
204.037	-173.03
204.255	-162.32
204.473	426.12
204.691	27.08
204.909	51.88
205.127	43.78
205.345	51
205.562	66.03
205.78	73.87
205.998	88.51
206.216	43.21
206.434	61.54
206.652	32.45
206.87	28.46
207.088	4.36
207.306	-28.78
207.523	-22.06
207.741	-5.32
207.959	-21.48
208.177	7.04
208.395	-18.8
208.612	-20.19
208.83	-10.53
209.048	8.75
209.266	-0.96
209.483	69.91
209.701	61.49
209.919	20.58
210.136	-11.27
210.354	-14.44
210.572	-75.14
210.79	-41
211.007	-25.89
211.225	-54.19
211.442	-65.81
211.66	-49.54
211.878	-91.64
212.095	27.83
212.313	41.88
212.53	42.5
212.748	50.85
212.966	66.72
213.183	67.41
213.401	55.6
213.618	71.73
213.836	78.25
214.053	72.52
214.271	71.35
214.488	39.48
214.705	38.21
214.923	42.12
215.14	45.72
215.358	21.47
215.575	34.34
215.793	20.3
216.01	28.1
216.227	17.71
216.445	1.83
216.662	10.02
216.879	-2.87
217.097	-12.31
217.314	0.55
217.531	3.6
217.749	7.98
217.966	-0.51
218.183	12.33
218.4	12.02
218.618	24.48
218.835	10.74
219.052	4
219.269	12.23
219.487	12.02
219.704	15.71
219.921	15.15
220.138	20
220.355	12.65
220.572	16.53
220.79	14.8
221.007	6.43
221.224	18.39
221.441	20.54
221.658	10.84
221.875	13.08
222.092	3.82
222.309	2.41
222.526	1.39
222.743	5.12
222.96	-0.28
223.177	-0.01
223.394	1.28
223.611	9.31
223.828	9.89
224.045	7.9
224.262	9.17
224.479	12.39
224.696	13.32
224.913	10.5
225.13	14.38
225.347	14.53
225.564	14.89
225.781	14.19
225.997	11.29
226.214	12.81
226.431	12.6
226.648	11.49
226.865	12.31
227.082	11.43
227.298	12.37
227.515	10.86
227.732	11.7
227.949	10.42
228.165	10.42
228.382	10.3
228.599	10.2
228.816	10.49
229.032	11.31
229.249	10.81
229.466	10.79
229.682	11.3
229.899	11.2
230.116	10.11
230.332	11.64
230.549	11.47
230.765	13.76
230.982	12.76
231.199	13.28
231.415	11.99
231.632	11.29
231.848	11.59
232.065	9.67
232.281	11.53
232.498	12.2
232.714	11.48
232.931	11.52
233.147	9.48
233.364	7.96
233.58	7.76
233.797	8.85
234.013	7.47
234.23	7.61
234.446	9.02
234.662	9.41
234.879	9.24
235.095	11.28
235.312	12.52
235.528	13.67
235.744	14.47
235.961	14.62
236.177	13.64
236.393	14.8
236.61	14.74
236.826	13.93
237.042	11.82
237.258	10.9
237.475	10.15
237.691	8.36
237.907	7.58
238.123	9.01
238.339	9.55
238.556	10.46
238.772	9.94
238.988	10.43
239.204	10.1
239.42	10.56
239.636	11.13
239.853	11.75
240.069	11.97
240.285	12.28
240.501	11.72
240.717	11.79
240.933	11.75
241.149	12.01
241.365	11.28
241.581	12.18
241.797	12.03
242.013	12.09
242.229	11.24
242.445	11.71
242.661	11.42
242.877	11.62
243.093	11.17
243.309	10.26
243.525	9.77
243.741	10.87
243.957	9.51
244.173	9.82
244.388	10.07
244.604	9.94
244.82	9.37
245.036	9.07
245.252	9.09
245.468	9.22
245.683	9.03
245.899	8.97
246.115	8.82
246.331	9.09
246.547	9.33
246.762	9.15
246.978	9.15
247.194	9.04
247.409	9.07
247.625	9.04
247.841	9.13
248.057	9.69
248.272	10.04
248.488	10.29
248.703	9.59
248.919	8.15
249.135	7.87
249.35	7.5
249.566	7.69
249.782	8.02
249.997	8
250.213	7.75
250.428	8.23
250.644	7.68
250.859	6.73
251.075	7.07
251.29	7.78
251.506	8.08
251.721	8.81
251.937	9.23
252.152	8.81
252.368	8.71
252.583	7.66
252.798	6.47
253.014	6.74
253.229	6.72
253.445	6.89
253.66	7.12
253.875	6.19
254.091	4.61
254.306	3.93
254.521	4.5
254.737	4.07
254.952	5.97
255.167	5.84
255.383	6.41
255.598	7.49
255.813	7.67
256.028	7.18
256.244	7.59
256.459	8.65
256.674	8.76
256.889	8.48
257.104	8.46
257.32	8.1
257.535	7.41
257.75	7.36
257.965	6.98
258.18	7.18
258.395	7.38
258.61	7.2
258.826	6.97
259.041	7.05
259.256	7.12
259.471	7.08
259.686	7.21
259.901	8.13
260.116	8.25
260.331	8.58
260.546	8.62
260.761	8.52
260.976	8.88
261.191	8.94
261.406	8.92
261.621	9.2
261.836	9.37
262.05	9.22
262.265	8.16
262.48	8.05
262.695	7.78
262.91	7.72
263.125	7.33
263.34	7.38
263.555	7.07
263.769	7.2
263.984	7.06
264.199	6.98
264.414	6.38
264.629	6.23
264.843	6.1
265.058	6.19
265.273	6.05
265.488	6.4
265.702	5.74
265.917	5.65
266.132	5.71
266.346	5.54
266.561	5.47
266.776	5.28
266.99	5.47
267.205	5.08
267.42	5.24
267.634	4.9
267.849	4.93
268.063	5.37
268.278	5.76
268.492	5.71
268.707	5.57
268.922	5.9
269.136	6.35
269.351	6.3
269.565	6.76
269.78	6.99
269.994	6.99
270.209	7.32
270.423	6.88
270.637	6.96
270.852	7.06
271.066	7.15
271.281	7.14
271.495	6.82
271.709	7.26
271.924	7.02
272.138	6.39
272.353	6.24
272.567	5.81
272.781	6.41
272.996	6.22
273.21	6.06
273.424	6.04
273.638	5.63
273.853	6.26
274.067	5.9
274.281	6.52
274.495	7.23
274.71	7.72
274.924	7.61
275.138	7.25
275.352	7.61
275.566	7.22
275.781	7.6
275.995	7.95
276.209	7.85
276.423	8.34
276.637	7.49
276.851	7.18
277.065	7.29
277.279	7.55
277.493	7.85
277.707	6.96
277.921	7.14
278.135	7.17
278.349	6.78
278.563	6.1
278.777	5.91
278.991	5.58
279.205	5.57
279.419	5.48
279.633	5.78
279.847	5.9
280.061	6.23
280.275	6.13
280.489	5.72
280.703	5.52
280.917	5.67
281.131	5.43
281.344	6.33
281.558	6.54
281.772	6.3
281.986	5.54
282.2	5.4
282.414	5.79
282.627	5.9
282.841	5.75
283.055	6.36
283.269	6.92
283.482	6.83
283.696	6.49
283.91	5.9
284.123	5.93
284.337	6.41
284.551	6.23
284.764	5.9
284.978	6.02
285.192	6.38
285.405	5.89
285.619	5.55
285.833	6.1
286.046	6.26
286.26	6.72
286.473	6.7
286.687	6.65
286.9	6.42
287.114	6.99
287.327	7.09
287.541	6.63
287.754	6.68
287.968	6.66
288.181	6.45
288.395	6.34
288.608	6.25
288.822	6.04
289.035	6.03
289.248	6.28
289.462	6.05
289.675	5.8
289.889	6.11
290.102	6.59
290.315	6.96
290.529	6.84
290.742	7.02
290.955	6.73
291.169	6.87
291.382	6.97
291.595	6.74
291.808	6.75
292.022	7.01
292.235	6.86
292.448	6.67
292.661	6.33
292.875	6.58
293.088	6.26
293.301	6.48
293.514	6.81
293.727	6.77
293.94	6.75
294.153	6.55
294.367	6.35
294.58	6.75
294.793	6.41
295.006	6.47
295.219	6.37
295.432	6.64
295.645	6.87
295.858	6.78
296.071	6.8
296.284	7.02
296.497	7.2
296.71	7.26
296.923	7.02
297.136	7.36
297.349	7.17
297.562	7.08
297.775	7.11
297.988	7.33
298.201	7.38
298.414	7.25
298.626	7.25
298.839	7.18
299.052	7.24
299.265	7.48
299.478	7.55
299.691	7.92
299.903	7.76
300.116	7.73
300.329	7.44
300.542	7.63
300.755	7.73
300.967	7.93
301.18	7.94
301.393	8.18
301.605	8.24
301.818	8.28
302.031	8.42
302.243	8.48
302.456	8.37
302.669	8.41
302.881	8.15
303.094	8.09
303.307	8.03
303.519	7.78
303.732	7.66
303.944	7.51
304.157	7.47
304.37	7.42
304.582	7.36
304.795	7.38
305.007	7.11
305.22	7.23
305.432	7.12
305.645	6.91
305.857	7.33
306.069	7.19
306.282	7.22
306.494	7.24
306.707	7.04
306.919	7.08
307.132	7.21
307.344	7.33
307.556	7.16
307.769	7.4
307.981	7.64
308.193	7.43
308.406	7.31
308.618	7.15
308.83	6.92
309.043	6.66
309.255	6.54
309.467	6.55
309.679	6.87
309.892	6.88
310.104	6.68
310.316	6.5
310.528	6.91
310.74	7.01
310.953	7.03
311.165	7.22
311.377	7.43
311.589	7.81
311.801	7.7
312.013	7.15
312.225	7.37
312.437	7.47
312.649	7.89
312.862	7.81
313.074	7.94
313.286	8.2
313.498	7.98
313.71	8.28
313.922	7.95
314.134	7.79
314.346	8.11
314.558	8.18
314.77	8.67
314.982	8.28
315.193	7.78
315.405	7.8
315.617	7.51
315.829	7.99
316.041	7.56
316.253	7.71
316.465	7.82
316.677	7.61
316.888	7.43
317.1	7.02
317.312	7.43
317.524	8.03
317.736	8.05
317.947	8.36
318.159	8.41
318.371	8.54
318.583	8.58
318.794	8.61
319.006	8.84
319.218	8.93
319.43	8.94
319.641	8.9
319.853	8.45
320.064	8.4
320.276	8.55
320.488	8.15
320.699	8.22
320.911	8.15
321.123	8.43
321.334	8.31
321.546	8.51
321.757	8.43
321.969	8.4
322.18	8.03
322.392	7.9
322.603	7.62
322.815	7.98
323.026	8.01
323.238	8.03
323.449	8.13
323.661	7.95
323.872	7.63
324.083	7.77
324.295	7.85
324.506	8.25
324.718	8.26
324.929	8.22
325.14	8.02
325.352	7.72
325.563	8.01
325.774	7.79
325.986	8.33
326.197	8.36
326.408	8.09
326.62	7.75
326.831	7.88
327.042	8.09
327.253	8.05
327.464	7.89
327.676	8.63
327.887	8.06
328.098	8.02
328.309	7.37
328.52	7.25
328.732	7.55
328.943	7.68
329.154	7.57
329.365	7.39
329.576	7.44
329.787	7.52
329.998	6.67
330.209	7.17
330.42	7.06
330.631	7.28
330.842	7.46
331.053	7.58
331.264	7.48
331.475	7.63
331.686	7.58
331.897	7.75
332.108	7.99
332.319	8.12
332.53	8.14
332.741	8.14
332.952	8.19
333.163	8.37
333.374	8.07
333.585	7.89
333.795	7.57
334.006	7.89
334.217	7.94
334.428	7.86
334.639	8.44
334.849	8.52
335.06	8.66
335.271	8.62
335.482	8.34
335.692	8.35
335.903	8.69
336.114	8.66
336.325	8.31
336.535	8.41
336.746	8.05
336.957	7.75
337.167	7.49
337.378	7.34
337.589	7.44
337.799	7.34
338.01	7.49
338.22	7.52
338.431	7.7
338.642	7.76
338.852	7.37
339.063	7.47
339.273	7.42
339.484	7.51
339.694	7.56
339.905	7.64
340.115	7.6
340.326	7.46
340.536	7.59
340.746	7.78
340.957	8.08
341.167	8.31
341.378	8.31
341.588	8.18
341.799	8.22
342.009	8.16
342.219	8
342.43	8.03
342.64	8.3
342.85	7.92
343.061	7.57
343.271	7.05
343.481	6.9
343.691	7.17
343.902	7.38
344.112	7.44
344.322	7.52
344.532	7.7
344.743	7.91
344.953	7.59
345.163	7.56
345.373	7.75
345.583	8.28
345.793	8.66
346.004	8.47
346.214	8.38
346.424	8.26
346.634	8.36
346.844	7.92
347.054	8.07
347.264	8.21
347.474	8.35
347.684	8.21
347.894	7.95
348.104	7.15
348.314	7.35
348.524	7.05
348.734	7.03
348.944	6.71
349.154	6.99
349.364	6.33
349.574	6.33
349.784	6.21
349.994	6.45
350.204	6.45
350.413	7.14
350.623	6.91
350.833	6.61
351.043	6.5
351.253	6.86
351.463	7.01
351.672	7.46
351.882	7.22
352.092	7.37
352.302	7.48
352.511	7.39
352.721	7.02
352.931	7.11
353.141	7.47
353.35	7.5
353.56	7.38
353.77	6.78
353.979	6.88
354.189	6.96
354.399	7.01
354.608	7
354.818	6.89
355.027	6.8
355.237	6.87
355.447	7.14
355.656	7.15
355.866	7.14
356.075	7.22
356.285	7.09
356.494	7.23
356.704	7.05
356.913	6.83
357.123	6.79
357.332	6.65
357.542	6.49
357.751	5.97
357.96	6
358.17	5.98
358.379	6.33
358.589	6.48
358.798	6.44
359.007	6.34
359.217	6.37
359.426	6.64
359.635	6.8
359.845	6.96
360.054	7.35
360.263	7.44
360.472	7.39
360.682	7.25
360.891	7.14
361.1	7.1
361.309	7.29
361.519	7.3
361.728	7.22
361.937	7.32
362.146	7.03
362.355	6.85
362.564	6.82
362.774	6.76
362.983	6.83
363.192	6.98
363.401	7.01
363.61	6.95
363.819	6.72
364.028	6.65
364.237	6.67
364.446	6.77
364.655	6.44
364.864	6.12
365.073	6.21
365.282	6.08
365.491	5.9
365.7	5.91
365.909	6.06
366.118	6.17
366.327	6.22
366.536	6.19
366.745	6.37
366.954	6.65
367.162	7.02
367.371	6.8
367.58	6.78
367.789	6.63
367.998	6.51
368.207	6.18
368.415	6.31
368.624	6.19
368.833	6.05
369.042	5.92
369.25	5.9
369.459	5.6
369.668	5.55
369.877	5.64
370.085	5.72
370.294	5.63
370.503	5.76
370.711	5.63
370.92	5.77
371.129	6
371.337	6.03
371.546	5.92
371.754	5.91
371.963	5.96
372.171	5.91
372.38	5.83
372.589	5.81
372.797	5.53
373.006	5.52
373.214	5.38
373.423	5.18
373.631	5.03
373.84	5.23
374.048	5.44
374.256	5.44
374.465	5.59
374.673	5.74
374.882	5.67
375.09	5.95
375.298	5.9
375.507	5.91
375.715	5.9
375.923	5.74
376.132	5.81
376.34	5.68
376.548	5.69
376.757	5.56
376.965	5.18
377.173	5.29
377.381	5.18
377.59	5.14
377.798	5.03
378.006	4.97
378.214	4.98
378.423	4.74
378.631	4.8
378.839	5.08
379.047	5.16
379.255	5.33
379.463	5.31
379.671	5.26
379.879	5.44
380.088	5.52
380.296	5.54
380.504	5.52
380.712	5.69
380.92	5.51
381.128	5.18
381.336	4.92
381.544	4.88
381.752	4.9
381.96	5.03
382.168	4.97
382.376	4.94
382.584	4.99
382.791	5.24
382.999	5.13
383.207	5.22
383.415	5.42
383.623	5.46
383.831	5.6
384.039	5.69
384.247	5.31
384.454	5.16
384.662	5.2
384.87	5.29
385.078	5.15
385.285	5.03
385.493	4.89
385.701	4.85
385.909	4.93
386.116	5.08
386.324	4.85
386.532	5
386.739	5
386.947	5.16
387.155	5.05
387.362	5.15
387.57	5.48
387.778	5.59
387.985	5.68
388.193	5.65
388.4	5.43
388.608	5.55
388.816	5.65
389.023	5.69
389.231	5.48
389.438	5.65
389.646	5.67
389.853	5.62
390.061	5.67
390.268	5.72
390.475	5.7
390.683	5.77
390.89	5.86
391.098	5.79
391.305	5.68
391.512	5.63
391.72	5.39
391.927	5.37
392.135	5.37
392.342	5.3
392.549	5.11
392.756	5.24
392.964	5.17
393.171	5.04
393.378	5.03
393.586	5.03
393.793	4.99
394	5.1
394.207	4.96
394.414	4.82
394.622	4.8
394.829	4.71
395.036	4.53
395.243	4.49
395.45	4.63
395.657	4.84
395.864	4.74
396.072	4.71
396.279	4.5
396.486	4.47
396.693	4.63
396.9	4.66
397.107	4.77
397.314	4.86
397.521	4.93
397.728	4.67
397.935	4.68
398.142	4.91
398.349	4.91
398.556	4.99
398.763	5.29
398.97	5.01
399.177	4.99
399.383	4.93
399.59	4.91
399.797	4.8
400.004	4.99
400.211	4.92
400.418	4.85
400.625	4.86
400.831	4.71
401.038	4.38
401.245	4.37
401.452	4.48
401.658	4.63
401.865	4.42
402.072	4.42
402.279	4.28
402.485	4.06
402.692	4.12
402.899	4.26
403.105	4.46
403.312	4.52
403.519	4.55
403.725	4.55
403.932	4.35
404.138	4.58
404.345	4.54
404.552	4.77
404.758	5.06
404.965	5.14
405.171	5.15
405.378	5.07
405.584	5.28
405.791	5.32
405.997	5.3
406.204	5.35
406.41	5.27
406.617	5.34
406.823	5.18
407.029	5.04
407.236	4.97
407.442	4.75
407.649	4.8
407.855	4.63
408.061	4.7
408.268	4.41
408.474	4.44
408.68	4.38
408.887	4.46
409.093	4.46
409.299	4.4
409.505	4.18
409.712	4.23
409.918	4.26
410.124	4.14
410.33	4.4
410.537	4.43
410.743	4.46
410.949	4.43
411.155	4.37
411.361	4.4
411.567	4.65
411.773	4.79
411.98	4.86
412.186	4.61
412.392	4.68
412.598	4.42
412.804	4.65
413.01	4.71
413.216	4.66
413.422	4.61
413.628	4.54
413.834	4.37
414.04	4.45
414.246	4.4
414.452	4.43
414.658	4.56
414.864	4.52
415.07	4.45
415.275	4.38
415.481	4.56
415.687	4.58
415.893	4.62
416.099	4.58
416.305	4.58
416.511	4.61
416.716	4.59
416.922	4.47
417.128	4.5
417.334	4.54
417.539	4.36
417.745	4.2
417.951	4.17
418.157	4.13
418.362	4.12
418.568	4.09
418.774	4.06
418.979	4.08
419.185	4.09
419.391	4.05
419.596	4.07
419.802	4.21
420.008	4.25
420.213	4.1
420.419	4.14
420.624	4.15
420.83	4.12
421.035	4.07
421.241	4.13
421.446	4.09
421.652	4.06
421.857	4.08
422.063	4.05
422.268	4.07
422.474	4.27
422.679	4.28
422.885	4.26
423.09	4.27
423.295	4.27
423.501	4.24
423.706	4.32
423.911	4.32
424.117	4.3
424.322	4.34
424.527	4.31
424.733	4.25
424.938	4.2
425.143	4.26
425.349	4.15
425.554	4.13
425.759	4.13
425.964	4.06
426.169	4.1
426.375	4.04
426.58	3.99
426.785	4.08
426.99	4.13
427.195	4.06
427.4	3.92
427.605	4.02
427.811	4.12
428.016	4.1
428.221	4.15
428.426	4.12
428.631	4.02
428.836	4.05
429.041	4.02
429.246	3.95
429.451	3.98
429.656	4.04
429.861	4.1
430.066	3.96
430.271	3.98
430.476	3.93
430.681	3.8
430.886	3.95
431.09	3.95
431.295	3.88
431.5	3.96
431.705	3.96
431.91	3.98
432.115	3.95
432.32	4.05
432.524	4.04
432.729	3.99
432.934	4.03
433.139	4.03
433.343	4
433.548	3.95
433.753	3.89
433.958	3.99
434.162	4.02
434.367	4.09
434.572	4.07
434.776	4.04
434.981	4.19
435.186	4.27
435.39	4.19
435.595	4.24
435.799	4.46
436.004	4.46
436.209	4.4
436.413	4.34
436.618	4.33
436.822	4.43
437.027	4.52
437.231	4.45
437.436	4.43
437.64	4.47
437.845	4.45
438.049	4.38
438.253	4.38
438.458	4.32
438.662	4.31
438.867	4.25
439.071	4.16
439.275	4.11
439.48	4.15
439.684	4.13
439.888	4.13
440.093	4.19
440.297	4.18
440.501	4.21
440.706	4.23
440.91	4.26
441.114	4.31
441.318	4.31
441.523	4.32
441.727	4.27
441.931	4.22
442.135	4.21
442.339	4.12
442.543	4.06
442.748	4.06
442.952	4.11
443.156	3.99
443.36	3.96
443.564	4.1
443.768	4.07
443.972	4.08
444.176	4.15
444.38	4.1
444.584	4.11
444.788	4.1
444.992	4.05
445.196	4.07
445.4	4.22
445.604	4.28
445.808	4.2
446.012	4.17
446.216	4.2
446.42	4.19
446.624	4.22
446.828	4.26
447.032	4.3
447.235	4.34
447.439	4.31
447.643	4.17
447.847	4.14
448.051	4.09
448.254	4.12
448.458	4.11
448.662	4.05
448.866	4.03
449.069	3.91
449.273	3.95
449.477	3.86
449.681	3.9
449.884	4.01
450.088	3.94
450.292	3.84
450.495	3.95
450.699	4.01
450.902	4.01
451.106	4
451.31	4.05
451.513	3.97
451.717	3.95
451.92	3.96
452.124	4.01
452.327	3.98
452.531	4.14
452.734	3.98
452.938	3.94
453.141	3.87
453.345	3.85
453.548	3.81
453.752	3.84
453.955	3.97
454.158	3.79
454.362	3.78
454.565	3.79
454.769	3.76
454.972	3.89
455.175	3.86
455.379	3.85
455.582	3.77
455.785	3.91
455.988	3.95
456.192	3.91
456.395	3.96
456.598	3.92
456.801	3.98
457.005	3.97
457.208	3.94
457.411	4.02
457.614	4.06
457.817	4.11
458.021	4.04
458.224	4.01
458.427	4.04
458.63	4.11
458.833	4.07
459.036	4.06
459.239	4.04
459.442	4.03
459.645	3.93
459.848	4.05
460.051	4.09
460.254	4.12
460.457	4.16
460.66	4.13
460.863	4.02
461.066	4.08
461.269	4.01
461.472	4.01
461.675	3.99
461.878	4
462.081	3.94
462.284	3.95
462.486	3.93
462.689	3.94
462.892	3.92
463.095	4
463.298	3.97
463.5	3.98
463.703	4.03
463.906	4.06
464.109	4.07
464.311	4.05
464.514	4.11
464.717	4.11
464.92	4.05
465.122	4.06
465.325	4.09
465.528	4.05
465.73	4.07
465.933	4.05
466.135	4.05
466.338	4.11
466.541	4.01
466.743	3.84
466.946	3.83
467.148	3.9
467.351	3.92
467.553	3.95
467.756	4.02
467.958	4.11
468.161	4.09
468.363	4.05
468.566	3.93
468.768	4.08
468.971	4.14
469.173	4.27
469.375	4.23
469.578	4.17
469.78	4.16
469.983	4.12
470.185	4.05
470.387	4.12
470.59	4.22
470.792	4.27
470.994	4.22
471.196	4.35
