Data from 2938565_Reflection_3.txt Node
Date: Sun Jun 14 22:31:19 EDT 2015
User: robert
Spectrometer: USB4E03002
Autoset integration time: false
Trigger mode: 4
Integration Time (sec): 1.000000E-1
Scans to average: 10
Electric dark correction enabled: true
Nonlinearity correction enabled: false
Boxcar width: 5
Stray light correction enabled: false
XAxis mode: Wavelengths
Stop averaging: false
Number of Pixels in Spectrum: 3648
>>>>>Begin Spectral Data<<<<<
177.575	193.34
177.794	-179.66
178.014	-104.8
178.233	-99
178.452	-420.48
178.672	-89700
178.891	154.93
179.11	219.81
179.33	215.53
179.549	169.24
179.768	287.11
179.987	214.89
180.207	-26.27
180.426	-22.02
180.645	-38.74
180.864	-51.09
181.084	-78.61
181.303	1.73
181.522	65.59
181.741	62.55
181.96	-4431.82
182.179	923.19
182.398	473.37
182.618	122
182.837	97.73
183.056	71.01
183.275	123.91
183.494	112.14
183.713	97.19
183.932	130.67
184.151	103.93
184.37	108.9
184.589	97.27
184.808	87.24
185.027	81.73
185.246	104.85
185.465	116.5
185.684	129.36
185.903	224.4
186.122	-111.93
186.341	-805.69
186.56	-134.42
186.779	-396.51
186.998	3221.74
187.216	1860.63
187.435	440.26
187.654	318.6
187.873	139.4
188.092	83.38
188.311	75.07
188.53	48.31
188.748	49.51
188.967	35.99
189.186	66.5
189.405	77.61
189.623	75.22
189.842	68.36
190.061	67.04
190.28	76.74
190.498	85.68
190.717	-1082.2
190.936	189.18
191.154	129.04
191.373	121.98
191.592	189.13
191.81	175.34
192.029	220.69
192.248	159.47
192.466	104.8
192.685	91.25
192.904	30.56
193.122	55.62
193.341	78.94
193.559	68.07
193.778	104.99
193.996	87.13
194.215	84.65
194.433	97.95
194.652	173.3
194.87	143.45
195.089	178.31
195.307	203.26
195.526	196.66
195.744	203.54
195.963	215.28
196.181	175.85
196.399	140.54
196.618	180.82
196.836	285.82
197.055	120.32
197.273	-44.15
197.491	-110.12
197.71	145.51
197.928	659.85
198.146	-498.39
198.365	-223.78
198.583	-258.73
198.801	402.03
199.019	255.1
199.238	150.74
199.456	124.29
199.674	164.25
199.892	151.33
200.111	157.3
200.329	129.96
200.547	141.68
200.765	119.58
200.983	145.36
201.202	182.98
201.42	156.45
201.638	251.46
201.856	283.58
202.074	179.34
202.292	340.49
202.51	249.24
202.728	272.07
202.946	378.08
203.165	287.8
203.383	97.89
203.601	37.59
203.819	-109.52
204.037	-300.1
204.255	-101.62
204.473	614.82
204.691	-7.93
204.909	12.79
205.127	23.24
205.345	38.02
205.562	41.01
205.78	55.54
205.998	94.55
206.216	90.06
206.434	98.78
206.652	92.9
206.87	90.77
207.088	96.67
207.306	126.01
207.523	122.56
207.741	119.36
207.959	233.51
208.177	166.55
208.395	160.19
208.612	207.58
208.83	198.31
209.048	247.86
209.266	246.72
209.483	367
209.701	226.09
209.919	169.95
210.136	154.3
210.354	83.85
210.572	82.8
210.79	89.97
211.007	68.95
211.225	50.62
211.442	10.63
211.66	14.78
211.878	-0.78
212.095	79.42
212.313	89.88
212.53	94.67
212.748	101.97
212.966	118.86
213.183	124.16
213.401	108.71
213.618	106.78
213.836	121.63
214.053	96.3
214.271	87.42
214.488	34.4
214.705	13.97
214.923	-82.01
215.14	-29.91
215.358	-32.39
215.575	-24.12
215.793	4.23
216.01	20.93
216.227	4.83
216.445	24.92
216.662	24.71
216.879	27.86
217.097	34.36
217.314	46.96
217.531	49.12
217.749	49.82
217.966	47.73
218.183	37.33
218.4	53.22
218.618	58.27
218.835	48.7
219.052	44.51
219.269	51.38
219.487	48.4
219.704	41.83
219.921	32.44
220.138	35.95
220.355	41.63
220.572	42.12
220.79	22.97
221.007	17.82
221.224	17.46
221.441	12.35
221.658	-1.42
221.875	5.04
222.092	2.13
222.309	2.42
222.526	1.41
222.743	6.53
222.96	7.65
223.177	7.92
223.394	3.18
223.611	5.23
223.828	6.51
224.045	3.75
224.262	6.49
224.479	5.93
224.696	8.83
224.913	8.03
225.13	9.26
225.347	8.36
225.564	9.57
225.781	10.79
225.997	10.81
226.214	11.43
226.431	11.87
226.648	10.84
226.865	10.69
227.082	10.76
227.298	10.26
227.515	9.3
227.732	9.71
227.949	9.49
228.165	9.87
228.382	9.48
228.599	9.95
228.816	10.9
229.032	12.23
229.249	14.24
229.466	13.72
229.682	14.58
229.899	14.97
230.116	16.52
230.332	17.14
230.549	18.56
230.765	19.65
230.982	18.38
231.199	17.63
231.415	15.65
231.632	14.81
231.848	14.38
232.065	14.1
232.281	14.7
232.498	12.6
232.714	11.89
232.931	10.74
233.147	9.85
233.364	11.58
233.58	12.72
233.797	13.07
234.013	11.75
234.23	13.82
234.446	14.98
234.662	13.64
234.879	15.36
235.095	17.66
235.312	15.52
235.528	16.59
235.744	15.56
235.961	13.4
236.177	14.19
236.393	14.6
236.61	15.72
236.826	15.17
237.042	14.07
237.258	13.13
237.475	11.77
237.691	12.4
237.907	12.75
238.123	12.81
238.339	13.81
238.556	12.25
238.772	12.02
238.988	10.1
239.204	9.27
239.42	9.88
239.636	10.35
239.853	10.65
240.069	10.89
240.285	11.13
240.501	10.86
240.717	10.5
240.933	11.04
241.149	10.82
241.365	10.77
241.581	11.94
241.797	12.52
242.013	11.36
242.229	10.45
242.445	10.32
242.661	9.42
242.877	9.83
243.093	9.64
243.309	9.03
243.525	8.96
243.741	9.82
243.957	7.96
244.173	7.22
244.388	8.34
244.604	8.35
244.82	8.18
245.036	8.1
245.252	7.9
245.468	7.8
245.683	7.68
245.899	7.84
246.115	7.73
246.331	7.98
246.547	8.27
246.762	7.87
246.978	7.78
247.194	7.54
247.409	7.96
247.625	7.93
247.841	8.31
248.057	8.92
248.272	8.83
248.488	8.9
248.703	8.5
248.919	7.91
249.135	8.18
249.35	8.53
249.566	9.32
249.782	8.47
249.997	8.83
250.213	8.41
250.428	8.29
250.644	8.09
250.859	7.39
251.075	7.87
251.29	7.45
251.506	8.02
251.721	8.37
251.937	8.61
252.152	8.29
252.368	7.18
252.583	7.24
252.798	6.8
253.014	6.79
253.229	7.04
253.445	8.45
253.66	9.34
253.875	8.3
254.091	7.35
254.306	6.1
254.521	7.42
254.737	7.49
254.952	7.89
255.167	6.58
255.383	7.35
255.598	7.63
255.813	7.19
256.028	6.53
256.244	6.88
256.459	7.56
256.674	7.74
256.889	6.95
257.104	7.3
257.32	6.87
257.535	6.58
257.75	6.13
257.965	5.86
258.18	5.45
258.395	5.88
258.61	5.62
258.826	5.08
259.041	5.13
259.256	5.18
259.471	4.67
259.686	4.91
259.901	5.67
260.116	5.82
260.331	5.81
260.546	5.84
260.761	5.31
260.976	5.3
261.191	5.91
261.406	5.7
261.621	6.13
261.836	6.75
262.05	6.26
262.265	5.68
262.48	5.86
262.695	6.11
262.91	7.02
263.125	7.15
263.34	8.25
263.555	6.95
263.769	7.48
263.984	7.21
264.199	7.36
264.414	7.11
264.629	6.8
264.843	6.74
265.058	6.53
265.273	6.01
265.488	5.73
265.702	4.35
265.917	5.16
266.132	5.05
266.346	4.98
266.561	4.94
266.776	4.68
266.99	4.67
267.205	4.59
267.42	5.1
267.634	4.86
267.849	5.55
268.063	5.93
268.278	6.51
268.492	6.62
268.707	6.47
268.922	6.15
269.136	6.59
269.351	6.31
269.565	6.25
269.78	6.14
269.994	6.37
270.209	6.71
270.423	6.71
270.637	5.98
270.852	5.63
271.066	5.75
271.281	6.2
271.495	6.16
271.709	6.63
271.924	6.6
272.138	6.61
272.353	6.48
272.567	5.7
272.781	6.02
272.996	6.15
273.21	6.26
273.424	6.11
273.638	5.68
273.853	5.79
274.067	5.6
274.281	5.93
274.495	5.89
274.71	5.58
274.924	6.01
275.138	5.62
275.352	5.72
275.566	5.89
275.781	6.29
275.995	6.44
276.209	6.4
276.423	6.53
276.637	6.21
276.851	5.95
277.065	7
277.279	6.74
277.493	6.54
277.707	6.17
277.921	6.44
278.135	6.23
278.349	6.19
278.563	6.18
278.777	6.13
278.991	5.8
279.205	6.34
279.419	5.67
279.633	6.04
279.847	6.61
280.061	6.83
280.275	6.2
280.489	6.14
280.703	5.97
280.917	5.29
281.131	5.26
281.344	5.57
281.558	5.21
281.772	5.1
281.986	4.41
282.2	4.2
282.414	4.29
282.627	4.61
282.841	4.44
283.055	4.49
283.269	5.24
283.482	5.02
283.696	4.83
283.91	4.82
284.123	4.86
284.337	5.33
284.551	5.37
284.764	5.19
284.978	5.18
285.192	4.98
285.405	5.11
285.619	4.72
285.833	5.1
286.046	5.43
286.26	5.55
286.473	5.37
286.687	5.44
286.9	5.18
287.114	5.73
287.327	5.51
287.541	5.78
287.754	5.61
287.968	5.8
288.181	5.5
288.395	5.39
288.608	5.39
288.822	5.29
289.035	4.97
289.248	4.98
289.462	5
289.675	4.97
289.889	4.93
290.102	5.16
290.315	5.43
290.529	5.64
290.742	5.44
290.955	4.96
291.169	5.1
291.382	5.18
291.595	5.31
291.808	5.02
292.022	5.28
292.235	5.33
292.448	5.12
292.661	4.48
292.875	4.62
293.088	4.69
293.301	4.91
293.514	5.18
293.727	5.09
293.94	4.88
294.153	4.62
294.367	4.4
294.58	4.4
294.793	4.23
295.006	4.35
295.219	4.21
295.432	4.28
295.645	4.44
295.858	4.32
296.071	4.45
296.284	4.7
296.497	4.75
296.71	4.9
296.923	4.69
297.136	4.7
297.349	4.86
297.562	4.83
297.775	5.08
297.988	5.16
298.201	5.34
298.414	5.41
298.626	5.27
298.839	5.16
299.052	5.33
299.265	5.68
299.478	5.78
299.691	5.57
299.903	5.59
300.116	5.16
300.329	4.82
300.542	5.11
300.755	5.1
300.967	5.48
301.18	5.4
301.393	5.27
301.605	5.32
301.818	5.5
302.031	5.84
302.243	5.53
302.456	5.53
302.669	5.6
302.881	5.33
303.094	5.1
303.307	4.88
303.519	5.13
303.732	5.02
303.944	5.17
304.157	4.94
304.37	4.99
304.582	5.55
304.795	5.58
305.007	5.54
305.22	5.26
305.432	5.37
305.645	5.36
305.857	5.58
306.069	5.76
306.282	5.57
306.494	5.61
306.707	5.42
306.919	5.24
307.132	5.3
307.344	5.26
307.556	5.3
307.769	5.32
307.981	5.43
308.193	5.15
308.406	5.03
308.618	4.82
308.83	4.7
309.043	4.4
309.255	4.19
309.467	4.46
309.679	4.73
309.892	4.82
310.104	4.52
310.316	4.44
310.528	4.92
310.74	4.73
310.953	4.76
311.165	4.88
311.377	5.29
311.589	5.58
311.801	5.58
312.013	5.43
312.225	5.47
312.437	6.19
312.649	6.33
312.862	6.09
313.074	6.43
313.286	6.65
313.498	6.73
313.71	6.83
313.922	6.44
314.134	6.1
314.346	6.1
314.558	6.41
314.77	6.58
314.982	6.38
315.193	6.72
315.405	6.67
315.617	6.8
315.829	6.92
316.041	6.89
316.253	7.33
316.465	7.38
316.677	7.53
316.888	7.43
317.1	7.02
317.312	7.62
317.524	7.52
317.736	7.73
317.947	7.76
318.159	8.46
318.371	8.03
318.583	7.91
318.794	7.7
319.006	7.46
319.218	7.12
319.43	6.87
319.641	6.5
319.853	5.94
320.064	5.51
320.276	5.49
320.488	4.94
320.699	5.14
320.911	5.34
321.123	5.51
321.334	5.6
321.546	5.75
321.757	5.75
321.969	5.73
322.18	6.11
322.392	6.34
322.603	6.51
322.815	6.52
323.026	6.89
323.238	7.09
323.449	7.18
323.661	6.75
323.872	6.7
324.083	7.07
324.295	6.7
324.506	6.75
324.718	6.84
324.929	6.61
325.14	6.55
325.352	6.41
325.563	6.28
325.774	6.7
325.986	7.13
326.197	7.02
326.408	6.71
326.62	6.94
326.831	7.2
327.042	7.18
327.253	7.09
327.464	6.95
327.676	7.2
327.887	7.08
328.098	6.52
328.309	6.31
328.52	6.69
328.732	6.65
328.943	7.2
329.154	7.16
329.365	7.17
329.576	7.24
329.787	7.66
329.998	7.26
330.209	7.51
330.42	7.61
330.631	7.97
330.842	8.03
331.053	8.18
331.264	7.58
331.475	7.89
331.686	7.72
331.897	7.95
332.108	8.31
332.319	8.37
332.53	8.23
332.741	8.3
332.952	8.2
333.163	8.15
333.374	8.05
333.585	7.94
333.795	6.98
334.006	6.62
334.217	6.74
334.428	6.1
334.639	6.44
334.849	6.63
335.06	6.75
335.271	7.26
335.482	7.26
335.692	7.35
335.903	7.67
336.114	8.15
336.325	8.76
336.535	8.73
336.746	8.76
336.957	8.32
337.167	8.03
337.378	7.79
337.589	7.46
337.799	7.06
338.01	7.35
338.22	7.41
338.431	7.22
338.642	7.11
338.852	6.86
339.063	6.91
339.273	7.15
339.484	7.33
339.694	7.52
339.905	7.54
340.115	7.84
340.326	7.5
340.536	7.56
340.746	7.69
340.957	7.69
341.167	7.91
341.378	8.29
341.588	8.12
341.799	8.18
342.009	8.18
342.219	7.88
342.43	7.83
342.64	7.69
342.85	7.29
343.061	7.02
343.271	7.13
343.481	6.95
343.691	6.76
343.902	6.81
344.112	6.72
344.322	6.23
344.532	6.58
344.743	6.59
344.953	6.86
345.163	7.16
345.373	7.51
345.583	7.45
345.793	7.46
346.004	7.55
346.214	7.69
346.424	7.44
346.634	8.09
346.844	7.69
347.054	7.96
347.264	7.97
347.474	7.93
347.684	7.47
347.894	7.08
348.104	7.13
348.314	7
348.524	6.5
348.734	6.77
348.944	6.57
349.154	6.66
349.364	6.15
349.574	6.13
349.784	5.8
349.994	5.98
350.204	6.38
350.413	6.47
350.623	6.34
350.833	6.43
351.043	6.18
351.253	6.07
351.463	6.26
351.672	6.42
351.882	6.32
352.092	6.25
352.302	6.53
352.511	6.43
352.721	6.28
352.931	6.22
353.141	6.41
353.35	6.77
353.56	6.88
353.77	6.8
353.979	6.8
354.189	7
354.399	7.06
354.608	7.1
354.818	7.12
355.027	7.19
355.237	7.32
355.447	7.39
355.656	7.25
355.866	7.3
356.075	7.28
356.285	7.35
356.494	7.28
356.704	7.39
356.913	7.2
357.123	7.11
357.332	6.89
357.542	6.94
357.751	6.76
357.96	6.26
358.17	6.05
358.379	6.2
358.589	6.36
358.798	6.52
359.007	6.35
359.217	6.39
359.426	6.44
359.635	6.57
359.845	6.54
360.054	6.69
360.263	6.97
360.472	7.08
360.682	6.84
360.891	6.75
361.1	6.49
361.309	6.8
361.519	6.74
361.728	6.83
361.937	6.93
362.146	6.8
362.355	6.79
362.564	7.03
362.774	6.93
362.983	6.96
363.192	6.78
363.401	6.9
363.61	6.62
363.819	6.88
364.028	6.8
364.237	6.63
364.446	6.75
364.655	6.73
364.864	6.48
365.073	6.64
365.282	6.54
365.491	6.51
365.7	6.23
365.909	6.12
366.118	5.89
366.327	5.81
366.536	5.94
366.745	6.05
366.954	5.89
367.162	6.08
367.371	5.8
367.58	6.02
367.789	6
367.998	6.11
368.207	6.32
368.415	6.31
368.624	6.15
368.833	5.99
369.042	5.61
369.25	5.77
369.459	5.59
369.668	5.71
369.877	5.82
370.085	5.84
370.294	5.88
370.503	6.04
370.711	6.02
370.92	6.15
371.129	6.13
371.337	6.13
371.546	5.94
371.754	6.04
371.963	5.93
372.171	5.86
372.38	5.81
372.589	5.79
372.797	5.54
373.006	5.54
373.214	5.43
373.423	5.18
373.631	5.26
373.84	5.52
374.048	5.49
374.256	5.52
374.465	5.45
374.673	5.68
374.882	5.59
375.09	5.64
375.298	5.36
375.507	5.47
375.715	5.74
375.923	5.69
376.132	5.44
376.34	5.35
376.548	5.41
376.757	5.46
376.965	5.38
377.173	5.26
377.381	5.08
377.59	5.42
377.798	5.18
378.006	5.11
378.214	5.09
378.423	5.12
378.631	5.22
378.839	5.46
379.047	5.41
379.255	5.28
379.463	5.56
379.671	5.74
379.879	5.67
380.088	5.88
380.296	5.76
380.504	5.77
380.712	5.95
380.92	5.85
381.128	5.68
381.336	5.57
381.544	5.33
381.752	5.14
381.96	5.17
382.168	5.08
382.376	4.94
382.584	5.07
382.791	5.19
382.999	4.98
383.207	5.06
383.415	5.02
383.623	5.09
383.831	5.26
384.039	5.46
384.247	5.24
384.454	5.23
384.662	5.25
384.87	5.27
385.078	5.05
385.285	5.16
385.493	4.99
385.701	5.16
385.909	5
386.116	5.23
386.324	5.18
386.532	5.2
386.739	5.17
386.947	5.26
387.155	5.28
387.362	5.51
387.57	5.57
387.778	5.74
387.985	5.7
388.193	5.74
388.4	5.57
388.608	5.52
388.816	5.5
389.023	5.59
389.231	5.46
389.438	5.39
389.646	5.27
389.853	5.19
390.061	5.25
390.268	5.12
390.475	5.06
390.683	5
390.89	4.93
391.098	5.02
391.305	4.88
391.512	5.03
391.72	5.1
391.927	4.98
392.135	4.87
392.342	4.63
392.549	4.47
392.756	4.53
392.964	4.46
393.171	4.41
393.378	4.41
393.586	4.39
393.793	4.32
394	4.24
394.207	4.37
394.414	4.43
394.622	4.4
394.829	4.33
395.036	4.11
395.243	4.15
395.45	4.18
395.657	4.26
395.864	4.24
396.072	4.13
396.279	3.97
396.486	3.77
396.693	3.71
396.9	3.92
397.107	4.17
397.314	4.64
397.521	4.84
397.728	4.82
397.935	4.96
398.142	4.9
398.349	4.82
398.556	4.81
398.763	5.05
398.97	5.14
399.177	4.97
399.383	4.64
399.59	4.16
399.797	3.99
400.004	4.12
400.211	3.89
400.418	4
400.625	3.97
400.831	3.86
401.038	3.66
401.245	3.54
401.452	3.59
401.658	3.86
401.865	3.93
402.072	3.84
402.279	3.63
402.485	3.49
402.692	3.51
402.899	3.67
403.105	3.88
403.312	3.93
403.519	3.96
403.725	3.96
403.932	3.82
404.138	4.11
404.345	4.23
404.552	4.4
404.758	4.56
404.965	4.63
405.171	4.68
405.378	4.71
405.584	4.84
405.791	4.9
405.997	4.97
406.204	5.13
406.41	5.1
406.617	5.07
406.823	4.91
407.029	4.95
407.236	4.94
407.442	4.79
407.649	4.69
407.855	4.72
408.061	4.69
408.268	4.44
408.474	4.24
408.68	3.85
408.887	3.89
409.093	4.02
409.299	3.93
409.505	3.68
409.712	3.6
409.918	3.64
410.124	3.45
410.33	3.59
410.537	3.71
410.743	3.85
410.949	3.95
411.155	3.94
411.361	3.89
411.567	4.14
411.773	4.38
411.98	4.41
412.186	4.21
412.392	4.09
412.598	3.85
412.804	4.01
413.01	3.89
413.216	4.03
413.422	4.04
413.628	3.96
413.834	3.7
414.04	3.74
414.246	3.8
414.452	3.77
414.658	3.77
414.864	3.93
415.07	3.82
415.275	3.82
415.481	3.91
415.687	3.86
415.893	3.91
416.099	3.87
416.305	3.82
416.511	3.83
416.716	3.85
416.922	3.82
417.128	3.76
417.334	3.81
417.539	3.76
417.745	3.64
417.951	3.62
418.157	3.57
418.362	3.59
418.568	3.57
418.774	3.53
418.979	3.53
419.185	3.63
419.391	3.65
419.596	3.58
419.802	3.62
420.008	3.61
420.213	3.5
420.419	3.63
420.624	3.62
420.83	3.58
421.035	3.49
421.241	3.57
421.446	3.46
421.652	3.43
421.857	3.51
422.063	3.52
422.268	3.51
422.474	3.63
422.679	3.54
422.885	3.54
423.09	3.51
423.295	3.57
423.501	3.5
423.706	3.61
423.911	3.53
424.117	3.41
424.322	3.4
424.527	3.47
424.733	3.46
424.938	3.46
425.143	3.46
425.349	3.45
425.554	3.48
425.759	3.55
425.964	3.52
426.169	3.57
426.375	3.54
426.58	3.5
426.785	3.48
426.99	3.46
427.195	3.27
427.4	3.21
427.605	3.3
427.811	3.33
428.016	3.26
428.221	3.29
428.426	3.3
428.631	3.27
428.836	3.44
429.041	3.38
429.246	3.39
429.451	3.51
429.656	3.53
429.861	3.54
430.066	3.53
430.271	3.61
430.476	3.53
430.681	3.52
430.886	3.64
431.09	3.57
431.295	3.54
431.5	3.56
431.705	3.49
431.91	3.53
432.115	3.48
432.32	3.52
432.524	3.54
432.729	3.56
432.934	3.55
433.139	3.5
433.343	3.53
433.548	3.55
433.753	3.5
433.958	3.64
434.162	3.6
434.367	3.69
434.572	3.66
434.776	3.54
434.981	3.67
435.186	3.74
435.39	3.73
435.595	3.76
435.799	3.89
436.004	3.86
436.209	3.81
436.413	3.75
436.618	3.67
436.822	3.66
437.027	3.77
437.231	3.68
437.436	3.66
437.64	3.68
437.845	3.59
438.049	3.49
438.253	3.47
438.458	3.49
438.662	3.57
438.867	3.59
439.071	3.57
439.275	3.51
439.48	3.46
439.684	3.4
439.888	3.38
440.093	3.38
440.297	3.36
440.501	3.37
440.706	3.38
440.91	3.35
441.114	3.32
441.318	3.26
441.523	3.25
441.727	3.28
441.931	3.29
442.135	3.28
442.339	3.3
442.543	3.25
442.748	3.24
442.952	3.3
443.156	3.23
443.36	3.3
443.564	3.42
443.768	3.38
443.972	3.33
444.176	3.33
444.38	3.31
444.584	3.32
444.788	3.32
444.992	3.34
445.196	3.28
445.4	3.31
445.604	3.29
445.808	3.21
446.012	3.2
446.216	3.23
446.42	3.23
446.624	3.25
446.828	3.18
447.032	3.23
447.235	3.23
447.439	3.19
447.643	3.17
447.847	3.17
448.051	3.17
448.254	3.18
448.458	3.17
448.662	3.16
448.866	3.11
449.069	3.17
449.273	3.15
449.477	3.16
449.681	3.08
449.884	3.08
450.088	3.01
450.292	2.9
450.495	2.98
450.699	3.15
450.902	3.21
451.106	3.28
451.31	3.29
451.513	3.25
451.717	3.29
451.92	3.42
452.124	3.45
452.327	3.42
452.531	3.62
452.734	3.55
452.938	3.42
453.141	3.25
453.345	3.26
453.548	3.16
453.752	3.3
453.955	3.29
454.158	3.16
454.362	3.2
454.565	3.21
454.769	3.1
454.972	3.16
455.175	3.21
455.379	3.31
455.582	3.28
455.785	3.37
455.988	3.29
456.192	3.22
456.395	3.24
456.598	3.21
456.801	3.24
457.005	3.23
457.208	3.2
457.411	3.18
457.614	3.17
457.817	3.16
458.021	3.19
458.224	3.14
458.427	3.05
458.63	3.1
458.833	3.06
459.036	3.07
459.239	3.07
459.442	3.03
459.645	2.99
459.848	2.97
460.051	2.94
460.254	2.9
460.457	2.89
460.66	3.06
460.863	3
461.066	3.05
461.269	2.98
461.472	3.05
461.675	3.08
461.878	3.07
462.081	3.15
462.284	3.16
462.486	3.16
462.689	3.19
462.892	3.11
463.095	3.15
463.298	3.17
463.5	3.27
463.703	3.2
463.906	3.14
464.109	3.15
464.311	3.19
464.514	3.29
464.717	3.31
464.92	3.42
465.122	3.47
465.325	3.51
465.528	3.51
465.73	3.41
465.933	3.47
466.135	3.52
466.338	3.53
466.541	3.39
466.743	3.36
466.946	3.27
467.148	3.21
467.351	3.12
467.553	3.1
467.756	3.09
467.958	3.18
468.161	3.1
468.363	3.06
468.566	3.13
468.768	3.18
468.971	3.23
469.173	3.32
469.375	3.34
469.578	3.4
469.78	3.42
469.983	3.37
470.185	3.38
470.387	3.34
470.59	3.45
