Data from 2938498_Reflection_1.txt Node
Date: Wed Jun 17 00:24:14 EDT 2015
User: robert
Spectrometer: USB4E03002
Autoset integration time: false
Trigger mode: 4
Integration Time (sec): 1.000000E-1
Scans to average: 10
Electric dark correction enabled: true
Nonlinearity correction enabled: false
Boxcar width: 5
Stray light correction enabled: false
XAxis mode: Wavelengths
Stop averaging: false
Number of Pixels in Spectrum: 3648
>>>>>Begin Spectral Data<<<<<
177.575	11.68
177.794	-5233.33
178.014	-567.03
178.233	-70.52
178.452	-33.84
178.672	-436.17
178.891	20.72
179.11	-174.5
179.33	-174.62
179.549	-467.67
179.768	-105.56
179.987	20.34
180.207	-132.33
180.426	1024.11
180.645	-413.63
180.864	-776.58
181.084	365.4
181.303	6.75
181.522	-535.25
181.741	-72.05
181.96	125.89
182.179	-19.55
182.398	141.02
182.618	134.69
182.837	7.82
183.056	202.53
183.275	-7.23
183.494	-2525
183.713	-4060.63
183.932	324.4
184.151	-413.49
184.37	-270.15
184.589	-164.37
184.808	31.97
185.027	133.84
185.246	77.34
185.465	41.38
185.684	29.63
185.903	100.93
186.122	130.02
186.341	112.5
186.56	328.28
186.779	-33.55
186.998	106.19
187.216	77.59
187.435	95.06
187.654	78.78
187.873	80
188.092	52.77
188.311	7.61
188.53	-73.24
188.748	-203.28
188.967	-86.32
189.186	-424.64
189.405	-116.34
189.623	-314.46
189.842	2248.74
190.061	-4686.51
190.28	474.81
190.498	1376.31
190.717	1810.23
190.936	-4040.71
191.154	-272.65
191.373	7050.72
191.592	8653.49
191.81	559.05
192.029	302.77
192.248	1248.55
192.466	310.57
192.685	-445.92
192.904	-62.87
193.122	-94.54
193.341	-10.8
193.559	280.88
193.778	-266.06
193.996	-158.21
194.215	64.33
194.433	-301.95
194.652	-476.09
194.87	-534.71
195.089	-78.95
195.307	-54.7
195.526	-114
195.744	17.57
195.963	-78.3
196.181	-431.02
196.399	-93.29
196.618	274.85
196.836	50.63
197.055	143.11
197.273	92.52
197.491	53.33
197.71	33.93
197.928	-53.61
198.146	-2.31
198.365	2.48
198.583	-34.08
198.801	19.66
199.019	36.55
199.238	49.42
199.456	115.87
199.674	81.59
199.892	53.04
200.111	32.09
200.329	112.4
200.547	2539.58
200.765	99.02
200.983	126.68
201.202	91.63
201.42	46.55
201.638	65.75
201.856	36.31
202.074	24.95
202.292	-17.6
202.51	-0.38
202.728	-0.05
202.946	3.67
203.165	-2.88
203.383	-37.49
203.601	0.99
203.819	44.81
204.037	-64.1
204.255	-229.35
204.473	-121.88
204.691	-144.45
204.909	-96.1
205.127	-286.31
205.345	61500
205.562	179.64
205.78	288.6
205.998	991.69
206.216	-40490.91
206.434	-463.1
206.652	-157.34
206.87	-180.39
207.088	-64.45
207.306	-52.69
207.523	-71.48
207.741	-38.32
207.959	-28.27
208.177	-49.97
208.395	-3.88
208.612	-27.07
208.83	-38.66
209.048	-70.65
209.266	-36.48
209.483	-139.93
209.701	-281.23
209.919	-91.63
210.136	-71
210.354	-102.31
210.572	-59.03
210.79	-134.05
211.007	-63.04
211.225	-21.32
211.442	-46.71
211.66	-55.57
211.878	-12.41
212.095	-140.04
212.313	-187.11
212.53	-275.08
212.748	-229.86
212.966	-227.54
213.183	-150.03
213.401	-165.3
213.618	-234.04
213.836	-213.05
214.053	-216.1
214.271	-390.82
214.488	-100.4
214.705	-135.08
214.923	-41.27
215.14	-79.43
215.358	-379.68
215.575	163.64
215.793	913.81
216.01	209.42
216.227	150.73
216.445	87.94
216.662	117.36
216.879	228.28
217.097	271.5
217.314	208.85
217.531	222.76
217.749	190.04
217.966	-119.44
218.183	881.33
218.4	-436.83
218.618	-35.33
218.835	-97.55
219.052	-54.92
219.269	26.22
219.487	30.38
219.704	32.57
219.921	-8.45
220.138	-12.65
220.355	5.16
220.572	1.13
220.79	19.11
221.007	8.66
221.224	2.39
221.441	-3.49
221.658	-31.75
221.875	-27.69
222.092	-2.14
222.309	30.34
222.526	16.65
222.743	4.72
222.96	18.88
223.177	-6.24
223.394	3.83
223.611	1.1
223.828	1.83
224.045	17.87
224.262	20.22
224.479	21.39
224.696	17.61
224.913	26.14
225.13	22.24
225.347	10.99
225.564	14.34
225.781	12.69
225.997	15.74
226.214	20.29
226.431	15.48
226.648	16.25
226.865	15.66
227.082	13.82
227.298	13.32
227.515	16.18
227.732	17.17
227.949	15.1
228.165	14.58
228.382	15.38
228.599	12.01
228.816	13.02
229.032	10.87
229.249	9.88
229.466	11.29
229.682	12.03
229.899	9.63
230.116	11.11
230.332	13.35
230.549	13.8
230.765	9.81
230.982	10.44
231.199	8.54
231.415	9.23
231.632	7.31
231.848	6.61
232.065	4.96
232.281	7.01
232.498	7.15
232.714	5.12
232.931	3.03
233.147	5.65
233.364	6.16
233.58	6.91
233.797	1.73
234.013	5.05
234.23	5.56
234.446	4.67
234.662	1.64
234.879	0.78
235.095	2.36
235.312	5.7
235.528	5.11
235.744	6.6
235.961	9.6
236.177	16.85
236.393	16.97
236.61	17.71
236.826	17.93
237.042	16.19
237.258	18.54
237.475	20.75
237.691	21.41
237.907	20.42
238.123	17.5
238.339	14.58
238.556	13.08
238.772	11.04
238.988	10.48
239.204	13.55
239.42	14.05
239.636	13.73
239.853	15.59
240.069	15.15
240.285	15.8
240.501	17.05
240.717	16.73
240.933	17.12
241.149	16.76
241.365	17.12
241.581	16.09
241.797	17.35
242.013	18.14
242.229	16.13
242.445	15.85
242.661	16.43
242.877	15.68
243.093	16.19
243.309	14.97
243.525	14.98
243.741	14.77
243.957	13.61
244.173	13.38
244.388	11.34
244.604	12.22
244.82	12.41
245.036	12.23
245.252	11.66
245.468	11.48
245.683	11.92
245.899	12.02
246.115	11.57
246.331	12.56
246.547	12.59
246.762	12.98
246.978	12.6
247.194	13.01
247.409	12.96
247.625	14.03
247.841	13.66
248.057	13.54
248.272	13.78
248.488	14.32
248.703	13.33
248.919	12.65
249.135	13.54
249.35	13.43
249.566	11.94
249.782	11.09
249.997	9.34
250.213	9.76
250.428	8.67
250.644	8.05
250.859	7.6
251.075	7.44
251.29	7.44
251.506	6.72
251.721	5.59
251.937	6.05
252.152	5.32
252.368	5.02
252.583	4.28
252.798	6.04
253.014	6.24
253.229	7.36
253.445	6.57
253.66	6.04
253.875	5.88
254.091	6.81
254.306	5.33
254.521	5.37
254.737	6.23
254.952	6.08
255.167	5.78
255.383	6.23
255.598	5.06
255.813	4.27
256.028	5.21
256.244	5.26
256.459	6.44
256.674	7.82
256.889	8.42
257.104	8.67
257.32	9.08
257.535	9.14
257.75	9.2
257.965	9.79
258.18	9.96
258.395	9.41
258.61	9.44
258.826	8.64
259.041	8.72
259.256	8.32
259.471	8.29
259.686	8.49
259.901	8.46
260.116	8.16
260.331	7.1
260.546	7.44
260.761	7.03
260.976	6.13
261.191	6.32
261.406	5.53
261.621	6.4
261.836	6.01
262.05	5.16
262.265	6.91
262.48	7.02
262.695	8.93
262.91	7.43
263.125	9.34
263.34	9.69
263.555	10.6
263.769	10.3
263.984	10.16
264.199	9.39
264.414	9.87
264.629	7.82
264.843	8.08
265.058	7.55
265.273	8.18
265.488	7
265.702	7
265.917	6.57
266.132	6.9
266.346	7.02
266.561	7.83
266.776	7.53
266.99	9.18
267.205	9.55
267.42	9.48
267.634	9.55
267.849	9.3
268.063	9.81
268.278	9.76
268.492	9.57
268.707	9.12
268.922	9.02
269.136	8.94
269.351	7.31
269.565	6.05
269.78	5.84
269.994	6.57
270.209	6.61
270.423	6.24
270.637	6.31
270.852	5.72
271.066	6.22
271.281	5.14
271.495	4.63
271.709	5.18
271.924	6.16
272.138	6.21
272.353	5.04
272.567	5.97
272.781	6.7
272.996	6.08
273.21	5.88
273.424	5
273.638	6.34
273.853	6.84
274.067	6.45
274.281	5.29
274.495	5.31
274.71	6.32
274.924	5.74
275.138	4.75
275.352	5.68
275.566	6.66
275.781	7.94
275.995	7.99
276.209	7.46
276.423	6.93
276.637	7.43
276.851	7.94
277.065	7.5
277.279	7.47
277.493	7.69
277.707	7.74
277.921	7.44
278.135	6.81
278.349	6.33
278.563	7.07
278.777	7.26
278.991	6.43
279.205	6.33
279.419	7.14
279.633	7.18
279.847	7.77
280.061	8.22
280.275	8.63
280.489	8.71
280.703	9.48
280.917	10.09
281.131	10.06
281.344	10.77
281.558	10.29
281.772	10.47
281.986	9.8
282.2	9.76
282.414	8.78
282.627	7.73
282.841	7.35
283.055	6.75
283.269	6.3
283.482	6.52
283.696	6.42
283.91	6.14
284.123	5.72
284.337	6.48
284.551	5.69
284.764	5.88
284.978	6.79
285.192	6.91
285.405	7.19
285.619	7.26
285.833	7.37
286.046	8.13
286.26	8.27
286.473	8.13
286.687	8.18
286.9	8.13
287.114	9.15
287.327	8.84
287.541	8.46
287.754	7.85
287.968	8.11
288.181	7.75
288.395	7.04
288.608	7.43
288.822	7.24
289.035	7.13
289.248	7.38
289.462	6.1
289.675	6.01
289.889	6.18
290.102	7.18
290.315	7.18
290.529	7.39
290.742	6.79
290.955	7.11
291.169	7.61
291.382	8.14
291.595	9.07
291.808	9.26
292.022	10.2
292.235	10.39
292.448	9.61
292.661	9.64
292.875	9.91
293.088	10.9
293.301	10.17
293.514	10.53
293.727	9.34
293.94	8.61
294.153	9.37
294.367	9.03
294.58	8.65
294.793	9.24
295.006	9
295.219	9.24
295.432	8.91
295.645	9.21
295.858	9.08
296.071	10.07
296.284	10.36
296.497	9.55
296.71	9.48
296.923	10.04
297.136	9.6
297.349	9.45
297.562	8.72
297.775	8.75
297.988	8.9
298.201	8.75
298.414	7.99
298.626	7.83
298.839	8.88
299.052	8.46
299.265	7.76
299.478	8.14
299.691	9.1
299.903	9
300.116	9.48
300.329	9.69
300.542	8.87
300.755	8.51
300.967	8.65
301.18	8.08
301.393	8.27
301.605	8.81
301.818	8.34
302.031	7.5
302.243	7.98
302.456	7.86
302.669	7.93
302.881	8.07
303.094	8.96
303.307	9.29
303.519	9.46
303.732	9.09
303.944	8.94
304.157	9.59
304.37	10.07
304.582	10.31
304.795	10.4
305.007	9.85
305.22	9.87
305.432	9.36
305.645	9.12
305.857	8.79
306.069	9.39
306.282	9.23
306.494	8.53
306.707	8.25
306.919	8.07
307.132	7.57
307.344	8.02
307.556	8.72
307.769	8.91
307.981	8.71
308.193	8.78
308.406	8.31
308.618	8.39
308.83	8.51
309.043	8.24
309.255	8.03
309.467	7.95
309.679	7.29
309.892	7.09
310.104	6.97
310.316	6.71
310.528	6.64
310.74	6.75
310.953	7.15
311.165	6.93
311.377	6.75
311.589	6.9
311.801	6.22
312.013	6.57
312.225	6.33
312.437	6.13
312.649	6.04
312.862	5.9
313.074	5.98
313.286	5.53
313.498	5.56
313.71	6.75
313.922	7.2
314.134	7.72
314.346	7.8
314.558	7.8
314.77	8.54
314.982	9.02
315.193	8.68
315.405	8.51
315.617	8.75
315.829	8.74
316.041	7.62
316.253	7.37
316.465	7.39
316.677	7.61
316.888	8.07
317.1	7.74
317.312	7.4
317.524	7.99
317.736	8.2
317.947	8.26
318.159	8.2
318.371	8.65
318.583	7.65
318.794	8.12
319.006	7.75
319.218	7.25
319.43	7.65
319.641	7.73
319.853	7.39
320.064	7.07
320.276	6.81
320.488	6.94
320.699	6.8
320.911	8.12
321.123	8.29
321.334	8.39
321.546	8.37
321.757	7.75
321.969	7.81
322.18	8.25
322.392	8.72
322.603	8.44
322.815	8.61
323.026	8.65
323.238	8.22
323.449	7.99
323.661	8.12
323.872	8.09
324.083	8.33
324.295	7.91
324.506	7.72
324.718	7.18
324.929	7.52
325.14	8
325.352	7.9
325.563	8.13
325.774	8.44
325.986	7.88
326.197	8.01
326.408	7.19
326.62	7.45
326.831	7.1
327.042	7.47
327.253	7.28
327.464	6.49
327.676	6.38
327.887	6.11
328.098	5.98
328.309	6.85
328.52	7.12
328.732	7.72
328.943	8.5
329.154	9.13
329.365	8.74
329.576	8.51
329.787	8.8
329.998	9.19
330.209	9.12
330.42	9.26
330.631	8.93
330.842	8.55
331.053	8.71
331.264	8.15
331.475	8.11
331.686	8.14
331.897	8.87
332.108	9.4
332.319	9.25
332.53	9.35
332.741	9.05
332.952	8.81
333.163	8.92
333.374	8.67
333.585	8.74
333.795	8.57
334.006	8.64
334.217	8.07
334.428	7.2
334.639	7.27
334.849	7.23
335.06	7.18
335.271	7.25
335.482	7.3
335.692	7.68
335.903	7.97
336.114	8.12
336.325	8.34
336.535	8.16
336.746	8.44
336.957	8.28
337.167	8.17
337.378	8.18
337.589	8.04
337.799	8.09
338.01	7.86
338.22	7.33
338.431	7.16
338.642	7.1
338.852	7.17
339.063	7.53
339.273	7.32
339.484	7.35
339.694	7.98
339.905	8.26
340.115	8.52
340.326	8.46
340.536	8.49
340.746	8.37
340.957	8.11
341.167	8.38
341.378	8.15
341.588	8.55
341.799	8.65
342.009	8.22
342.219	8.22
342.43	8.14
342.64	8.08
342.85	8.33
343.061	8.88
343.271	9.06
343.481	8.81
343.691	8.38
343.902	8.5
344.112	8.36
344.322	8.07
344.532	8.18
344.743	7.78
344.953	7.95
345.163	7.73
345.373	6.77
345.583	6.73
345.793	7.29
346.004	7.53
346.214	7.18
346.424	7.04
346.634	7.2
346.844	7.31
347.054	7.65
347.264	7.46
347.474	7.38
347.684	7.74
347.894	7.63
348.104	7.4
348.314	7.29
348.524	7.37
348.734	7.33
348.944	6.87
349.154	6.5
349.364	6.4
349.574	6.43
349.784	6.68
349.994	6.74
350.204	6.63
350.413	6.28
350.623	6.61
350.833	6.28
351.043	6.53
351.253	7.17
351.463	7.32
351.672	7.07
351.882	7.26
352.092	7.07
352.302	7
352.511	7.21
352.721	7.2
352.931	7.07
353.141	7.33
353.35	7.23
353.56	6.82
353.77	6.34
353.979	6.82
354.189	6.84
354.399	6.89
354.608	7.13
354.818	6.93
355.027	7.08
355.237	7.29
355.447	7.22
355.656	6.82
355.866	6.95
356.075	7.03
356.285	6.78
356.494	6.47
356.704	6.26
356.913	6.03
357.123	6.35
357.332	6.35
357.542	6.17
357.751	6.46
357.96	6.9
358.17	7.06
358.379	7.05
358.589	7.19
358.798	7.06
359.007	7.17
359.217	7.39
359.426	7.39
359.635	7.18
359.845	7.18
360.054	7.11
360.263	7.12
360.472	7.17
360.682	7.39
360.891	7.17
361.1	7.46
361.309	7.62
361.519	7.47
361.728	7.29
361.937	7.42
362.146	7.18
362.355	6.79
362.564	6.51
362.774	6.25
362.983	6.29
363.192	6.49
363.401	6.28
363.61	6.02
363.819	5.99
364.028	5.88
364.237	5.78
364.446	5.88
364.655	6.02
364.864	6.21
365.073	6.14
365.282	5.82
365.491	5.65
365.7	5.55
365.909	5.24
366.118	5.37
366.327	5.33
366.536	5.48
366.745	5.45
366.954	5.24
367.162	5.45
367.371	5.47
367.58	5.43
367.789	5.63
367.998	5.71
368.207	5.8
368.415	5.64
368.624	6.1
368.833	5.9
369.042	5.88
369.25	6.05
369.459	5.91
369.668	5.84
369.877	5.91
370.085	5.76
370.294	5.99
370.503	6.46
370.711	6.5
370.92	6.35
371.129	6.39
371.337	6.4
371.546	6.49
371.754	6.4
371.963	6.46
372.171	6.49
372.38	6.5
372.589	6.33
372.797	6.22
373.006	6.38
373.214	6.27
373.423	6.46
373.631	6.82
373.84	6.77
374.048	6.67
374.256	6.72
374.465	6.81
374.673	6.74
374.882	6.76
375.09	6.73
375.298	6.58
375.507	6.4
375.715	6.01
375.923	5.91
376.132	5.93
376.34	6.17
376.548	6.21
376.757	6.19
376.965	5.97
377.173	6.12
377.381	5.89
377.59	5.88
377.798	6.11
378.006	6.23
378.214	6.03
378.423	5.82
378.631	5.63
378.839	5.53
379.047	5.4
379.255	5.34
379.463	4.89
379.671	4.68
379.879	4.75
380.088	4.89
380.296	5.02
380.504	5.13
380.712	5.5
380.92	5.53
381.128	5.42
381.336	5.54
381.544	5.75
381.752	5.95
381.96	6.38
382.168	6.59
382.376	6.57
382.584	6.9
382.791	6.75
382.999	6.66
383.207	6.68
383.415	7.07
383.623	7.02
383.831	7.17
384.039	7.25
384.247	7.23
384.454	6.72
384.662	6.44
384.87	6.15
385.078	6.37
385.285	6.2
385.493	6.01
385.701	5.7
385.909	5.51
386.116	5.37
386.324	5.37
386.532	5.29
386.739	5.46
386.947	5.43
387.155	5.41
387.362	5.17
387.57	5.41
387.778	5.53
387.985	5.64
388.193	5.77
388.4	5.73
388.608	5.56
388.816	5.61
389.023	5.68
389.231	5.68
389.438	5.76
389.646	5.71
389.853	5.34
390.061	5.34
390.268	5.21
390.475	5.2
390.683	5.26
390.89	5.22
391.098	5
391.305	5.02
391.512	5.25
391.72	5.25
391.927	5.25
392.135	5.48
392.342	5.43
392.549	5.56
392.756	5.63
392.964	5.64
393.171	5.73
393.378	6.01
393.586	5.84
393.793	5.59
394	5.57
394.207	5.7
394.414	5.67
394.622	5.72
394.829	5.53
395.036	5.32
395.243	5.47
395.45	5.43
395.657	5.43
395.864	5.54
396.072	5.47
396.279	5.5
396.486	5.27
396.693	5.07
396.9	5.02
397.107	5.16
397.314	5.41
397.521	5.15
397.728	5.12
397.935	4.97
398.142	4.75
398.349	4.71
398.556	4.55
398.763	4.54
398.97	4.66
399.177	4.64
399.383	4.66
399.59	4.61
399.797	4.45
400.004	4.29
400.211	4.17
400.418	4.35
400.625	4.45
400.831	4.25
401.038	4.47
401.245	4.22
401.452	4.11
401.658	4.09
401.865	3.87
402.072	4.04
402.279	4.1
402.485	4.21
402.692	3.99
402.899	3.96
403.105	3.98
403.312	3.91
403.519	4.1
403.725	4.21
403.932	4.23
404.138	4.31
404.345	4.23
404.552	4.33
404.758	4.27
404.965	4.38
405.171	4.45
405.378	4.59
405.584	4.48
405.791	4.5
405.997	4.51
406.204	4.42
406.41	4.49
406.617	4.65
406.823	4.51
407.029	4.57
407.236	4.53
407.442	4.56
407.649	4.58
407.855	4.51
408.061	4.5
408.268	4.39
408.474	4.52
408.68	4.35
408.887	4.23
409.093	4.33
409.299	4.36
409.505	4.45
409.712	4.45
409.918	4.5
410.124	4.52
410.33	4.48
410.537	4.53
410.743	4.47
410.949	4.72
411.155	4.85
411.361	4.94
411.567	4.87
411.773	4.75
411.98	4.62
412.186	4.48
412.392	4.45
412.598	4.59
412.804	4.58
413.01	4.37
413.216	4.24
413.422	4.09
413.628	3.71
413.834	3.74
414.04	3.87
414.246	3.85
414.452	3.82
414.658	3.89
414.864	3.76
415.07	3.76
415.275	3.84
415.481	3.88
415.687	3.87
415.893	4.1
416.099	4.01
416.305	4.03
416.511	4.16
416.716	4.16
416.922	4.12
417.128	4.16
417.334	4.17
417.539	4.19
417.745	4.16
417.951	4.19
418.157	4.13
418.362	4.21
418.568	4.18
418.774	4.04
418.979	4.06
419.185	4.15
419.391	4.12
419.596	4.08
419.802	3.97
420.008	3.97
420.213	4.56
420.419	4.53
420.624	4.47
420.83	4.43
421.035	4.5
421.241	4.56
421.446	4.54
421.652	4.47
421.857	4.49
422.063	4.5
422.268	4.4
422.474	3.8
422.679	3.82
422.885	3.78
423.09	3.77
423.295	3.78
423.501	3.62
423.706	3.59
423.911	3.63
424.117	3.56
424.322	3.57
424.527	3.71
424.733	3.6
424.938	3.61
425.143	3.64
425.349	3.62
425.554	3.54
425.759	3.67
425.964	3.6
426.169	3.59
426.375	3.63
426.58	3.72
426.785	3.62
426.99	3.68
427.195	3.67
427.4	3.72
427.605	3.82
427.811	3.85
428.016	3.73
428.221	3.7
428.426	3.75
428.631	3.74
428.836	3.63
429.041	3.59
429.246	3.61
429.451	3.57
429.656	3.49
429.861	3.38
430.066	3.37
430.271	3.46
430.476	3.49
430.681	3.38
430.886	3.43
431.09	3.47
431.295	3.49
431.5	3.43
431.705	3.44
431.91	3.48
432.115	3.58
432.32	3.49
432.524	3.45
432.729	3.35
432.934	3.42
433.139	3.47
433.343	3.39
433.548	3.35
433.753	3.43
433.958	3.61
434.162	3.63
434.367	3.56
434.572	3.63
434.776	3.56
434.981	3.61
435.186	3.65
435.39	3.49
435.595	3.55
435.799	3.61
436.004	3.65
436.209	3.55
436.413	3.48
436.618	3.63
436.822	3.69
437.027	3.65
437.231	3.74
437.436	3.72
437.64	3.79
437.845	3.83
438.049	3.81
438.253	3.74
438.458	3.63
438.662	3.54
438.867	3.38
439.071	3.27
439.275	3.37
439.48	3.35
439.684	3.24
439.888	3.28
440.093	3.28
440.297	3.29
440.501	3.25
440.706	3.29
440.91	3.45
441.114	3.52
441.318	3.6
441.523	3.56
441.727	3.53
441.931	3.58
442.135	3.52
442.339	3.5
442.543	3.49
442.748	3.4
442.952	3.29
443.156	3.27
443.36	3.25
443.564	3.2
443.768	3.21
443.972	3.29
444.176	3.32
444.38	3.31
444.584	3.27
444.788	3.27
444.992	3.37
445.196	3.5
445.4	3.48
445.604	3.45
445.808	3.46
446.012	3.47
446.216	3.47
446.42	3.45
446.624	3.37
446.828	3.4
447.032	3.3
447.235	3.32
447.439	3.24
447.643	3.16
447.847	3.2
448.051	3.25
448.254	3.22
448.458	3.08
448.662	3.03
448.866	3.15
449.069	3.2
449.273	3.36
449.477	3.26
449.681	3.2
449.884	3.2
450.088	3.16
450.292	3.08
450.495	3.09
450.699	3.04
450.902	3.12
451.106	3.02
451.31	3.02
451.513	2.97
451.717	2.9
451.92	2.95
452.124	3
452.327	3.09
452.531	3.12
452.734	3.1
452.938	3.24
453.141	3.21
453.345	3.16
453.548	3.06
453.752	3.03
453.955	3.12
454.158	3.1
454.362	3.08
454.565	2.98
454.769	2.86
454.972	2.9
455.175	2.75
455.379	2.73
455.582	2.79
455.785	2.84
455.988	2.81
456.192	2.81
456.395	2.86
456.598	2.81
456.801	2.88
457.005	2.99
457.208	3.05
457.411	3.07
457.614	3.02
457.817	3.03
458.021	3
458.224	3.07
458.427	3.09
458.63	3.11
458.833	3.16
459.036	3.14
459.239	3.11
459.442	3
459.645	3.04
459.848	3.06
460.051	3.15
460.254	3.11
460.457	3.02
460.66	3.03
460.863	3
461.066	3
461.269	2.98
461.472	2.95
461.675	3.07
461.878	3.18
462.081	3.22
462.284	3.18
462.486	3.32
462.689	3.39
462.892	3.45
463.095	3.39
463.298	3.4
463.5	3.35
463.703	3.39
463.906	3.3
464.109	3.19
464.311	3.24
464.514	3.15
464.717	3.08
464.92	2.92
465.122	2.92
465.325	2.92
465.528	3.07
465.73	3.16
465.933	3.18
466.135	3.29
466.338	3.35
466.541	3.33
466.743	3.46
466.946	3.48
467.148	3.61
467.351	3.55
467.553	3.63
467.756	3.47
467.958	3.38
468.161	3.29
468.363	3.21
468.566	3.15
