Data from 2938476_Reflection_1.txt Node
Date: Wed Jun 17 13:16:16 EDT 2015
User: robert
Spectrometer: USB4E03002
Autoset integration time: false
Trigger mode: 4
Integration Time (sec): 1.000000E-1
Scans to average: 10
Electric dark correction enabled: true
Nonlinearity correction enabled: false
Boxcar width: 5
Stray light correction enabled: false
XAxis mode: Wavelengths
Stop averaging: false
Number of Pixels in Spectrum: 3648
>>>>>Begin Spectral Data<<<<<
177.575	98.65
177.794	43.16
178.014	45.59
178.233	69.86
178.452	76
178.672	158.26
178.891	27.26
179.11	-129.06
179.33	-116.73
179.549	-132
179.768	-232.75
179.987	-125.26
180.207	-64.78
180.426	-29.24
180.645	-238.24
180.864	-6.67
181.084	-9.8
181.303	-10.25
181.522	10.35
181.741	-6.56
181.96	5.64
182.179	2.62
182.398	224.73
182.618	-97.06
182.837	-19.22
183.056	41.27
183.275	57.27
183.494	49.67
183.713	37.86
183.932	18.29
184.151	-31.05
184.37	-5.06
184.589	14.45
184.808	40.04
185.027	36.49
185.246	29.52
185.465	-108.92
185.684	-175.41
185.903	-1409.84
186.122	-198.86
186.341	-22.67
186.56	41.12
186.779	53.31
186.998	-42.95
187.216	-138.36
187.435	-35.36
187.654	-50.37
187.873	-38.85
188.092	-330.13
188.311	49.32
188.53	-48.6
188.748	34.99
188.967	124.01
189.186	266.67
189.405	168.96
189.623	112.96
189.842	42.3
190.061	0.93
190.28	-26.97
190.498	-57.74
190.717	23.31
190.936	31.43
191.154	409.75
191.373	-2619.33
191.592	-1088.65
191.81	536.12
192.029	534.88
192.248	198.02
192.466	161.45
192.685	100.91
192.904	167.57
193.122	881.52
193.341	1398.92
193.559	-5.22
193.778	93.18
193.996	129.68
194.215	53.92
194.433	69.41
194.652	4.2
194.87	11.01
195.089	41.47
195.307	251.28
195.526	247.78
195.744	120.7
195.963	103.02
196.181	162.39
196.399	138.25
196.618	102.84
196.836	88.57
197.055	100.29
197.273	134.48
197.491	219.9
197.71	223.09
197.928	128.85
198.146	150.23
198.365	124.94
198.583	100.92
198.801	106.09
199.019	160.08
199.238	150.58
199.456	67.65
199.674	50.7
199.892	27.14
200.111	32.4
200.329	60.29
200.547	0.08
200.765	29.01
200.983	56.7
201.202	61.94
201.42	18
201.638	76.13
201.856	113.41
202.074	77.08
202.292	94.77
202.51	62.91
202.728	0.09
202.946	39.17
203.165	39.26
203.383	31.88
203.601	26.87
203.819	6.31
204.037	6.01
204.255	16.45
204.473	46.67
204.691	69.71
204.909	104.16
205.127	125.71
205.345	168.84
205.562	200.59
205.78	160.89
205.998	209.57
206.216	211.44
206.434	203.82
206.652	18.15
206.87	-23.04
207.088	-58.5
207.306	-39.85
207.523	-1.01
207.741	-8.42
207.959	-19.25
208.177	6.41
208.395	10.33
208.612	-2.09
208.83	46.22
209.048	46.83
209.266	37.96
209.483	13.15
209.701	-23.15
209.919	-136.59
210.136	-248.25
210.354	-156.58
210.572	-525.75
210.79	-375.66
211.007	-235.43
211.225	-918.8
211.442	-75.78
211.66	-49.45
211.878	-0.47
212.095	-8.79
212.313	-11.17
212.53	4.2
212.748	9.7
212.966	15.42
213.183	43.48
213.401	32.14
213.618	42.7
213.836	33.34
214.053	36.02
214.271	36.21
214.488	33.01
214.705	56.5
214.923	56.98
215.14	58.23
215.358	47.89
215.575	24.9
215.793	37.8
216.01	23.88
216.227	21.49
216.445	18.88
216.662	20.93
216.879	28.67
217.097	26.19
217.314	13.82
217.531	19.78
217.749	18.29
217.966	16.92
218.183	15.02
218.4	20.01
218.618	23.07
218.835	15.42
219.052	13.13
219.269	6.67
219.487	9.64
219.704	13.36
219.921	3.69
220.138	7.87
220.355	5.88
220.572	2.51
220.79	-2.77
221.007	-6.74
221.224	-7.25
221.441	-4.53
221.658	6.46
221.875	4.59
222.092	12.5
222.309	8.56
222.526	5.15
222.743	12.82
222.96	22.15
223.177	18.24
223.394	20.62
223.611	19.87
223.828	21.76
224.045	21.31
224.262	19.1
224.479	11.91
224.696	13.94
224.913	14.52
225.13	13.6
225.347	10.59
225.564	13.64
225.781	13.91
225.997	13.39
226.214	11.04
226.431	8.64
226.648	11.26
226.865	11.16
227.082	11.9
227.298	11.34
227.515	12.38
227.732	11.09
227.949	10.93
228.165	9.84
228.382	10.8
228.599	10.58
228.816	11.39
229.032	9.12
229.249	10.67
229.466	9.18
229.682	10.36
229.899	7.67
230.116	9.23
230.332	10.51
230.549	10.86
230.765	9.46
230.982	12.22
231.199	11.9
231.415	13.11
231.632	11.05
231.848	13.02
232.065	10.97
232.281	11.32
232.498	11.53
232.714	8.6
232.931	7.41
233.147	7.37
233.364	6.13
233.58	6.42
233.797	8.12
234.013	8.56
234.23	8.28
234.446	8.33
234.662	8.65
234.879	9.53
235.095	11.5
235.312	11.44
235.528	9.78
235.744	9.93
235.961	8.5
236.177	8.35
236.393	8.57
236.61	9.04
236.826	7.6
237.042	9.38
237.258	8.75
237.475	6.63
237.691	10.13
237.907	11.52
238.123	12.43
238.339	13.85
238.556	13.38
238.772	12.6
238.988	11.8
239.204	12.87
239.42	12.7
239.636	12.99
239.853	12.84
240.069	11.15
240.285	11.33
240.501	10.55
240.717	10.58
240.933	10.44
241.149	11.16
241.365	10.91
241.581	11.25
241.797	10.81
242.013	10.47
242.229	10.13
242.445	11.07
242.661	10.78
242.877	10.35
243.093	9.61
243.309	9.32
243.525	8.83
243.741	9.34
243.957	7.84
244.173	8.08
244.388	8.3
244.604	9.09
244.82	8.61
245.036	8.44
245.252	8.2
245.468	8.77
245.683	8.45
245.899	8.02
246.115	7.78
246.331	8.52
246.547	8.29
246.762	8.02
246.978	8.13
247.194	8.07
247.409	8.56
247.625	9.06
247.841	8.7
248.057	8.91
248.272	9.08
248.488	9.72
248.703	9.18
248.919	9.13
249.135	9.02
249.35	8.85
249.566	9.07
249.782	8.68
249.997	8.6
250.213	8.25
250.428	8.02
250.644	8.4
250.859	7.67
251.075	6.99
251.29	7.39
251.506	7.76
251.721	8.15
251.937	7.47
252.152	8.21
252.368	8.22
252.583	8.67
252.798	9.59
253.014	8.75
253.229	9.31
253.445	11.03
253.66	11.06
253.875	9.87
254.091	8.48
254.306	9.76
254.521	8.6
254.737	7.68
254.952	8.44
255.167	7.75
255.383	7.68
255.598	8.06
255.813	8.16
256.028	8.09
256.244	8.31
256.459	8.22
256.674	7.59
256.889	7.58
257.104	7.74
257.32	7.29
257.535	7.28
257.75	7.48
257.965	7.01
258.18	6.89
258.395	6.65
258.61	7.09
258.826	7.11
259.041	7.03
259.256	7.12
259.471	7.23
259.686	6.85
259.901	6.72
260.116	7.11
260.331	7.1
260.546	7.06
260.761	7
260.976	6.16
261.191	5.64
261.406	5.98
261.621	5.58
261.836	5.05
262.05	5.15
262.265	5.27
262.48	4.77
262.695	4.72
262.91	5.1
263.125	4.98
263.34	5.47
263.555	6.02
263.769	5.86
263.984	5.82
264.199	6.4
264.414	6.22
264.629	6.46
264.843	6.01
265.058	5.82
265.273	4.83
265.488	5.02
265.702	4.53
265.917	4.4
266.132	3.49
266.346	3.87
266.561	3.58
266.776	4.24
266.99	3.84
267.205	4.44
267.42	4.38
267.634	5.52
267.849	5.71
268.063	6.3
268.278	6.45
268.492	7.2
268.707	6.1
268.922	6.31
269.136	6.15
269.351	6.33
269.565	5.99
269.78	5.96
269.994	5.34
270.209	5.29
270.423	5.01
270.637	5
270.852	5.15
271.066	5.44
271.281	5.67
271.495	5.71
271.709	5.88
271.924	5.82
272.138	6.09
272.353	6.26
272.567	6.18
272.781	6.27
272.996	6.36
273.21	6.31
273.424	7.11
273.638	6.6
273.853	6.4
274.067	6.5
274.281	6.85
274.495	6.77
274.71	6.47
274.924	6.5
275.138	6.58
275.352	6.22
275.566	5.79
275.781	4.72
275.995	4.93
276.209	5.42
276.423	4.91
276.637	4.43
276.851	5.07
277.065	5.23
277.279	5.21
277.493	5.06
277.707	5.17
277.921	5.88
278.135	6.7
278.349	6.75
278.563	6.02
278.777	6.33
278.991	6.58
279.205	5.99
279.419	6.15
279.633	6.21
279.847	6.71
280.061	6.51
280.275	5.83
280.489	5.27
280.703	5.51
280.917	5.81
281.131	5.55
281.344	5.82
281.558	5.87
281.772	5.27
281.986	5.14
282.2	4.77
282.414	5.03
282.627	5.28
282.841	5.64
283.055	5.39
283.269	5.72
283.482	5.76
283.696	5.1
283.91	5.12
284.123	5.55
284.337	5.49
284.551	5.64
284.764	5.63
284.978	5.65
285.192	5.69
285.405	5.58
285.619	5.29
285.833	5.7
286.046	6.06
286.26	6.41
286.473	6.57
286.687	6.85
286.9	6.38
287.114	6.7
287.327	6.9
287.541	6.9
287.754	7.18
287.968	7.32
288.181	7.13
288.395	7.34
288.608	6.95
288.822	6.68
289.035	6.68
289.248	6.86
289.462	6.54
289.675	6.66
289.889	6.95
290.102	6.77
290.315	6.32
290.529	6.23
290.742	6.18
290.955	6.42
291.169	7.05
291.382	7.15
291.595	7.54
291.808	7.74
292.022	7.12
292.235	7.23
292.448	7.76
292.661	8.1
292.875	8.24
293.088	7.98
293.301	7.86
293.514	7.29
293.727	7.57
293.94	7.19
294.153	7.25
294.367	7.65
294.58	7.56
294.793	7.3
295.006	7.19
295.219	7.38
295.432	7.42
295.645	7.44
295.858	7.49
296.071	7.46
296.284	7.65
296.497	7.38
296.71	7.24
296.923	7
297.136	6.93
297.349	6.83
297.562	6.82
297.775	7.02
297.988	7.14
298.201	7.16
298.414	6.28
298.626	6.46
298.839	7.02
299.052	7.13
299.265	7.55
299.478	7.55
299.691	7.94
299.903	7.61
300.116	7.26
300.329	7.59
300.542	7.65
300.755	8.24
300.967	8.1
301.18	7.53
301.393	7.34
301.605	7.09
301.818	7.1
302.031	6.81
302.243	6.62
302.456	6.94
302.669	6.39
302.881	6.3
303.094	6.68
303.307	6.71
303.519	7.33
303.732	7.47
303.944	6.88
304.157	7.27
304.37	7.22
304.582	7.11
304.795	7.23
305.007	7.02
305.22	7.25
305.432	7.14
305.645	7.24
305.857	7.22
306.069	7.4
306.282	7.45
306.494	6.96
306.707	6.57
306.919	6.35
307.132	5.73
307.344	6.29
307.556	6.09
307.769	6.01
307.981	6.13
308.193	6.42
308.406	6.44
308.618	6.95
308.83	7.28
309.043	7.7
309.255	8.08
309.467	8.46
309.679	8.26
309.892	8.71
310.104	8.55
310.316	8.62
310.528	8.05
310.74	8.1
310.953	8.22
311.165	8.08
311.377	8.01
311.589	8.96
311.801	9
312.013	9.29
312.225	8.9
312.437	9.23
312.649	8.67
312.862	8.94
313.074	9.55
313.286	9.27
313.498	9.61
313.71	9.62
313.922	9.02
314.134	9.02
314.346	8.73
314.558	9.05
314.77	8.81
314.982	9.37
315.193	9.2
315.405	9.13
315.617	9.44
315.829	8.91
316.041	9.72
316.253	9.18
316.465	9.17
316.677	9.23
316.888	8.76
317.1	8.62
317.312	8.36
317.524	8.94
317.736	8.25
317.947	7.94
318.159	8.41
318.371	7.79
318.583	7.93
318.794	8.24
319.006	8.65
319.218	8.56
319.43	9.3
319.641	9.27
319.853	9.14
320.064	9.14
320.276	8.85
320.488	8.34
320.699	8.5
320.911	8.83
321.123	8.92
321.334	8.7
321.546	9.01
321.757	8.43
321.969	8.99
322.18	8.33
322.392	8.97
322.603	9.81
322.815	9.98
323.026	10.09
323.238	9.75
323.449	9.12
323.661	9.06
323.872	9.21
324.083	9.8
324.295	9.65
324.506	9.85
324.718	9.57
324.929	8.83
325.14	8.79
325.352	8.82
325.563	8.68
325.774	9.3
325.986	9.22
326.197	9.49
326.408	9.3
326.62	9.04
326.831	8.92
327.042	9.31
327.253	9.1
327.464	9.02
327.676	9.22
327.887	9.19
328.098	8.8
328.309	9.25
328.52	8.93
328.732	8.62
328.943	8.43
329.154	9.04
329.365	8.72
329.576	9.52
329.787	10.16
329.998	9.71
330.209	9.84
330.42	10.37
330.631	9.81
330.842	9.76
331.053	9.78
331.264	10.15
331.475	9.82
331.686	9.89
331.897	10.03
332.108	9.65
332.319	10.24
332.53	10.52
332.741	10.22
332.952	10.43
333.163	10.36
333.374	10.44
333.585	10.19
333.795	9.92
334.006	9.52
334.217	8.85
334.428	8.68
334.639	8.92
334.849	8.44
335.06	8.44
335.271	8.59
335.482	8.21
335.692	7.87
335.903	8.16
336.114	8.23
336.325	8.5
336.535	8.59
336.746	8.5
336.957	8.1
337.167	8.41
337.378	8.53
337.589	8.5
337.799	8.88
338.01	9.2
338.22	9.27
338.431	9.75
338.642	9.87
338.852	10.17
339.063	10.45
339.273	10.12
339.484	9.93
339.694	9.19
339.905	9.26
340.115	9.75
340.326	10.08
340.536	9.99
340.746	10
340.957	9.75
341.167	9.52
341.378	9.67
341.588	9.96
341.799	10.22
342.009	10.41
342.219	10.63
342.43	10.65
342.64	10.82
342.85	10.31
343.061	10.48
343.271	10.35
343.481	10.54
343.691	10.21
343.902	10.04
344.112	10.16
344.322	10.56
344.532	10.24
344.743	9.8
344.953	9.47
345.163	9.93
345.373	9.68
345.583	9.59
345.793	9.29
346.004	10.22
346.214	10.14
346.424	9.77
346.634	9.83
346.844	9.97
347.054	9.62
347.264	9.46
347.474	9.69
347.684	9.58
347.894	9.58
348.104	9.73
348.314	8.86
348.524	8.84
348.734	8.82
348.944	8.58
349.154	8.16
349.364	8.93
349.574	8.88
349.784	8.45
349.994	8.6
350.204	9.04
350.413	8.97
350.623	9.12
350.833	8.82
351.043	8.93
351.253	8.59
351.463	9.25
351.672	8.6
351.882	8.54
352.092	8.47
352.302	8.43
352.511	8.5
352.721	8.84
352.931	8.94
353.141	9.12
353.35	9.01
353.56	9.08
353.77	8.69
353.979	8.97
354.189	8.82
354.399	9.08
354.608	9.03
354.818	8.62
355.027	8.42
355.237	8.35
355.447	8.43
355.656	8.89
355.866	8.91
356.075	8.73
356.285	8.55
356.494	8.7
356.704	8.65
356.913	8.84
357.123	9.04
357.332	9.2
357.542	8.87
357.751	8.9
357.96	8.54
358.17	8.79
358.379	9.07
358.589	9.09
358.798	8.96
359.007	8.94
359.217	8.74
359.426	8.51
359.635	8.45
359.845	8.88
360.054	8.85
360.263	8.8
360.472	8.78
360.682	8.73
360.891	8.96
361.1	9.05
361.309	8.98
361.519	8.91
361.728	8.94
361.937	9.09
362.146	8.76
362.355	8.66
362.564	8.76
362.774	8.66
362.983	8.73
363.192	8.47
363.401	8.42
363.61	8.42
363.819	8.75
364.028	9.09
364.237	8.68
364.446	8.84
364.655	8.76
364.864	8.78
365.073	8.92
365.282	8.83
365.491	8.9
365.7	9.02
365.909	8.96
366.118	8.78
366.327	8.39
366.536	8.51
366.745	8.61
366.954	8.64
367.162	8.57
367.371	8.2
367.58	7.95
367.789	7.98
367.998	7.68
368.207	7.56
368.415	7.46
368.624	7.57
368.833	7.51
369.042	7.14
369.25	7.44
369.459	7.45
369.668	7.5
369.877	7.54
370.085	7.35
370.294	7.71
370.503	7.64
370.711	7.68
370.92	7.51
371.129	7.6
371.337	7.72
371.546	7.39
371.754	6.86
371.963	7.23
372.171	7.28
372.38	6.99
372.589	6.72
372.797	6.95
373.006	6.5
373.214	6.64
373.423	6.76
373.631	6.97
373.84	6.98
374.048	7.46
374.256	6.98
374.465	6.96
374.673	7.45
374.882	7.58
375.09	7.55
375.298	7.62
375.507	7.68
375.715	7.53
375.923	7.34
376.132	7.43
376.34	7.52
376.548	7.47
376.757	7.38
376.965	7.19
377.173	7.15
377.381	6.92
377.59	7.12
377.798	7.12
378.006	7.1
378.214	7.08
378.423	7.13
378.631	6.94
378.839	7.08
379.047	7.14
379.255	6.86
379.463	6.65
379.671	6.71
379.879	6.51
380.088	6.51
380.296	6.58
380.504	6.39
380.712	6.43
380.92	6.27
381.128	6.54
381.336	6.37
381.544	6.55
381.752	6.54
381.96	6.54
382.168	6.62
382.376	6.29
382.584	6.16
382.791	5.97
382.999	5.94
383.207	6.07
383.415	5.67
383.623	5.68
383.831	5.71
384.039	5.94
384.247	5.89
384.454	5.72
384.662	5.68
384.87	5.67
385.078	5.83
385.285	5.83
385.493	5.92
385.701	6.28
385.909	6.38
386.116	6.37
386.324	6.12
386.532	6.18
386.739	6.34
386.947	6.54
387.155	6.6
387.362	6.53
387.57	6.22
387.778	5.97
387.985	5.69
388.193	5.61
388.4	5.61
388.608	5.65
388.816	5.49
389.023	5.48
389.231	5.59
389.438	5.41
389.646	5.56
389.853	5.58
390.061	5.55
390.268	5.4
390.475	5.51
390.683	5.42
390.89	5.59
391.098	5.55
391.305	5.51
391.512	5.27
391.72	5.32
391.927	5.22
392.135	5.25
392.342	5.21
392.549	5.45
392.756	5.21
392.964	5.35
393.171	5.27
393.378	5.39
393.586	5.41
393.793	5.46
394	5.53
394.207	5.47
394.414	5.68
394.622	5.66
394.829	5.46
395.036	5.33
395.243	5.07
395.45	4.98
395.657	5.13
395.864	5.15
396.072	5.2
396.279	5.25
396.486	5.19
396.693	4.83
396.9	4.77
397.107	4.8
397.314	4.97
397.521	5.11
397.728	4.97
397.935	4.93
398.142	4.65
398.349	4.47
398.556	4.34
398.763	4.4
398.97	4.34
399.177	4.41
399.383	4.52
399.59	4.31
399.797	4.29
400.004	4.45
400.211	4.31
400.418	4.39
400.625	4.46
400.831	4.27
401.038	4.28
401.245	4.3
401.452	4.29
401.658	4.18
401.865	4.38
402.072	4.22
402.279	4.21
402.485	4.13
402.692	4.28
402.899	4.34
403.105	4.44
403.312	4.51
403.519	4.69
403.725	4.67
403.932	4.76
404.138	4.85
404.345	4.92
404.552	4.88
404.758	4.86
404.965	4.84
405.171	4.78
405.378	4.65
405.584	4.45
405.791	4.41
405.997	4.46
406.204	4.44
406.41	4.31
406.617	4.2
406.823	4.11
407.029	4.3
407.236	4.21
407.442	4.12
407.649	4.26
407.855	4.31
408.061	4.3
408.268	4.25
408.474	3.98
408.68	4.25
408.887	4.41
409.093	4.66
409.299	4.62
409.505	4.45
409.712	4.45
409.918	4.28
410.124	4.24
410.33	4.33
410.537	4.37
410.743	4.64
410.949	4.27
411.155	4.33
411.361	4.04
411.567	4
411.773	4.23
411.98	4.41
412.186	4.55
412.392	4.77
412.598	4.6
412.804	4.66
413.01	4.46
413.216	4.58
413.422	4.31
413.628	4.31
413.834	4.18
414.04	4.04
414.246	3.9
414.452	3.93
414.658	3.9
414.864	3.96
415.07	3.92
415.275	4.01
415.481	3.98
415.687	4.08
415.893	4.14
416.099	4.14
416.305	4.2
416.511	4.26
416.716	4.26
416.922	4.12
417.128	4.22
417.334	4.19
417.539	4.17
417.745	4.21
417.951	4.2
418.157	4.1
418.362	4.1
418.568	4.13
418.774	4.03
418.979	4.01
419.185	4.12
419.391	4.01
419.596	4.01
419.802	4.03
420.008	4.06
420.213	3.55
420.419	3.61
420.624	3.64
420.83	3.63
421.035	3.6
421.241	3.56
421.446	3.46
421.652	3.48
421.857	3.49
422.063	3.47
422.268	3.42
422.474	3.96
422.679	3.94
422.885	3.92
423.09	3.89
423.295	3.97
423.501	4.06
423.706	4.13
423.911	4.14
424.117	4.17
424.322	4.22
424.527	4.29
424.733	4.19
424.938	4.29
425.143	4.36
425.349	4.36
425.554	4.4
425.759	4.35
425.964	4.28
426.169	4.19
426.375	4.16
426.58	4.12
426.785	3.99
426.99	4.04
427.195	3.94
427.4	3.9
427.605	3.89
427.811	3.82
428.016	3.87
428.221	3.94
428.426	4.08
428.631	3.97
428.836	3.9
429.041	3.88
429.246	3.9
429.451	3.98
429.656	4.04
429.861	4.12
430.066	4.15
430.271	4.1
430.476	4.02
430.681	4
430.886	4.12
431.09	4.1
431.295	4.18
431.5	4.21
431.705	4.15
431.91	4.07
432.115	4.05
432.32	4.06
432.524	4.13
432.729	4.23
432.934	4.16
433.139	4.12
433.343	4.17
433.548	4.1
433.753	4.11
433.958	4.05
434.162	4.01
434.367	4.02
434.572	3.98
434.776	3.97
434.981	3.94
435.186	4.05
435.39	4.1
435.595	4.09
435.799	4.14
436.004	4.05
436.209	4.17
436.413	4.24
436.618	4.11
436.822	4.15
437.027	4.04
437.231	4.02
437.436	3.89
437.64	3.76
437.845	3.81
438.049	3.78
438.253	3.83
438.458	3.78
438.662	3.73
438.867	3.74
439.071	3.76
439.275	3.81
439.48	3.83
439.684	3.88
439.888	4
440.093	3.91
440.297	3.94
440.501	3.95
440.706	3.9
440.91	3.94
441.114	4.03
441.318	3.9
441.523	3.96
441.727	4.03
441.931	4.1
442.135	4.01
442.339	3.99
442.543	4.01
442.748	3.88
442.952	3.92
443.156	3.95
443.36	3.93
443.564	4.02
443.768	3.95
443.972	3.86
444.176	3.79
444.38	3.82
444.584	3.81
444.788	3.8
444.992	3.89
445.196	3.88
445.4	3.81
445.604	3.76
445.808	3.74
446.012	3.76
446.216	3.76
446.42	3.78
446.624	3.78
446.828	3.82
447.032	3.78
447.235	3.83
447.439	3.81
447.643	3.82
447.847	3.81
448.051	3.81
448.254	3.79
448.458	3.78
448.662	3.73
448.866	3.78
449.069	3.78
449.273	3.76
449.477	3.64
449.681	3.71
449.884	3.72
450.088	3.75
450.292	3.73
450.495	3.72
450.699	3.68
450.902	3.75
451.106	3.63
451.31	3.56
451.513	3.64
451.717	3.66
451.92	3.66
452.124	3.72
452.327	3.79
452.531	3.74
452.734	3.67
452.938	3.7
453.141	3.66
453.345	3.65
453.548	3.72
453.752	3.69
453.955	3.76
454.158	3.72
454.362	3.72
454.565	3.66
454.769	3.8
454.972	3.82
455.175	3.86
455.379	3.74
455.582	3.8
455.785	3.85
455.988	3.83
456.192	3.83
456.395	3.85
456.598	3.76
456.801	3.75
457.005	3.68
457.208	3.79
457.411	3.76
457.614	3.78
457.817	3.74
458.021	3.69
458.224	3.68
458.427	3.66
458.63	3.66
458.833	3.67
459.036	3.74
459.239	3.73
459.442	3.68
459.645	3.72
459.848	3.75
460.051	3.85
460.254	3.94
460.457	3.94
460.66	3.91
460.863	3.83
461.066	3.92
461.269	3.81
461.472	3.83
461.675	3.79
461.878	3.8
462.081	3.78
462.284	3.81
462.486	3.67
462.689	3.67
462.892	3.71
463.095	3.81
463.298	3.67
463.5	3.67
463.703	3.6
463.906	3.61
464.109	3.52
464.311	3.57
464.514	3.46
464.717	3.63
464.92	3.56
465.122	3.58
465.325	3.5
465.528	3.72
465.73	3.84
465.933	4
466.135	4.01
466.338	4.01
466.541	4.08
466.743	4.11
466.946	3.98
467.148	4.06
467.351	4.05
467.553	4.13
467.756	4
467.958	3.85
468.161	3.78
468.363	3.8
468.566	3.85
468.768	3.72
468.971	3.64
469.173	3.58
469.375	3.55
469.578	3.52
469.78	3.48
469.983	3.44
470.185	3.49
470.387	3.52
470.59	3.55
