Data from 2938579_Reflection_3.txt Node
Date: Sun Jun 14 21:21:44 EDT 2015
User: robert
Spectrometer: USB4E03002
Autoset integration time: false
Trigger mode: 4
Integration Time (sec): 1.000000E-1
Scans to average: 10
Electric dark correction enabled: true
Nonlinearity correction enabled: false
Boxcar width: 5
Stray light correction enabled: false
XAxis mode: Wavelengths
Stop averaging: false
Number of Pixels in Spectrum: 3648
>>>>>Begin Spectral Data<<<<<
177.575	160.71
177.794	139.34
178.014	1458.44
178.233	-6228.12
178.452	-355.11
178.672	-414.85
178.891	72.06
179.11	160.72
179.33	148
179.549	228.54
179.768	428.42
179.987	230.26
180.207	265.86
180.426	436.76
180.645	438.32
180.864	245.4
181.084	264.97
181.303	291.9
181.522	199.84
181.741	189.47
181.96	134.17
182.179	117.76
182.398	110.75
182.618	78.72
182.837	62
183.056	55.11
183.275	65.11
183.494	53.32
183.713	65.41
183.932	75.6
184.151	72.22
184.37	88.06
184.589	82.35
184.808	76.78
185.027	70.36
185.246	96.72
185.465	76.06
185.684	82.45
185.903	90.11
186.122	91.77
186.341	120.57
186.56	148.4
186.779	125.94
186.998	130.87
187.216	157.28
187.435	160.26
187.654	164.35
187.873	204.32
188.092	239.68
188.311	184.34
188.53	215.8
188.748	233.46
188.967	433.59
189.186	402.03
189.405	-1313.66
189.623	-29930.56
189.842	-445.15
190.061	-461.06
190.28	-572.9
190.498	-1131.19
190.717	-3301.55
190.936	940.3
191.154	980.25
191.373	347.64
191.592	645.54
191.81	210.22
192.029	264.14
192.248	196.57
192.466	144.89
192.685	128.22
192.904	139.93
193.122	147.1
193.341	163.66
193.559	138.47
193.778	146
193.996	128.95
194.215	149.02
194.433	131.45
194.652	95.04
194.87	105.29
195.089	112.53
195.307	93.82
195.526	78.06
195.744	87.56
195.963	94.2
196.181	108.94
196.399	118.14
196.618	91.82
196.836	88.88
197.055	117.62
197.273	110.87
197.491	103.44
197.71	114.7
197.928	127.3
198.146	102.87
198.365	90.05
198.583	79.49
198.801	82.48
199.019	89.28
199.238	87.88
199.456	69.7
199.674	62.02
199.892	65.96
200.111	66.74
200.329	42.98
200.547	31.47
200.765	44.94
200.983	25.62
201.202	5.61
201.42	24.95
201.638	25.28
201.856	7.86
202.074	22.88
202.292	17.54
202.51	42
202.728	66.18
202.946	98.16
203.165	82.7
203.383	88.34
203.601	91.47
203.819	76.99
204.037	89.72
204.255	124.76
204.473	139.21
204.691	94.06
204.909	74.34
205.127	96.81
205.345	79.88
205.562	79.52
205.78	95.02
205.998	92.05
206.216	89.48
206.434	103.98
206.652	99.23
206.87	88.76
207.088	91.45
207.306	89.25
207.523	78.13
207.741	81.8
207.959	90.67
208.177	70.69
208.395	67.68
208.612	69.75
208.83	46.74
209.048	52.81
209.266	70.47
209.483	77.15
209.701	66.54
209.919	72
210.136	75.21
210.354	86.31
210.572	106.99
210.79	100.54
211.007	101.51
211.225	108.29
211.442	96.91
211.66	79.06
211.878	86.84
212.095	183.49
212.313	166.22
212.53	164.74
212.748	134.08
212.966	127.57
213.183	135.1
213.401	119.16
213.618	135.7
213.836	170.83
214.053	151.47
214.271	129.14
214.488	63.4
214.705	52.66
214.923	47.8
215.14	48.62
215.358	43.58
215.575	33.36
215.793	48.53
216.01	38.13
216.227	26.77
216.445	26.56
216.662	2.42
216.879	5.96
217.097	7.95
217.314	3.4
217.531	35.19
217.749	34.63
217.966	53.73
218.183	43.24
218.4	42.18
218.618	42.76
218.835	46.96
219.052	58.44
219.269	64.03
219.487	62.25
219.704	66.98
219.921	51.22
220.138	49.6
220.355	34.08
220.572	36.95
220.79	39.12
221.007	40.27
221.224	38.82
221.441	36.91
221.658	36.02
221.875	34.07
222.092	31.49
222.309	29.09
222.526	29.16
222.743	37.08
222.96	33.43
223.177	31.95
223.394	31.35
223.611	29.25
223.828	33.04
224.045	30.17
224.262	29.87
224.479	26.64
224.696	27.98
224.913	28.29
225.13	26.22
225.347	24.92
225.564	24.99
225.781	22.35
225.997	22.85
226.214	19.66
226.431	18.62
226.648	17.01
226.865	17.22
227.082	16.38
227.298	15.68
227.515	14.59
227.732	14.53
227.949	13.52
228.165	13.82
228.382	12.85
228.599	13.84
228.816	13.59
229.032	13.45
229.249	13.25
229.466	13.19
229.682	13.39
229.899	13.72
230.116	14.09
230.332	13.38
230.549	14.53
230.765	14.41
230.982	14.32
231.199	14.88
231.415	16.31
231.632	16.85
231.848	16.74
232.065	15.52
232.281	16.93
232.498	17.52
232.714	19.39
232.931	18.62
233.147	18.84
233.364	16.83
233.58	15.85
233.797	18.29
234.013	18.33
234.23	16.74
234.446	18.79
234.662	18.31
234.879	16.93
235.095	15.33
235.312	15.12
235.528	16.36
235.744	16.31
235.961	16.07
236.177	11.86
236.393	12.33
236.61	15.59
236.826	14.6
237.042	13.69
237.258	12.22
237.475	13.16
237.691	12.94
237.907	11.91
238.123	13.77
238.339	14.16
238.556	15.58
238.772	14.85
238.988	12.42
239.204	11.89
239.42	12.77
239.636	13.72
239.853	13.13
240.069	13.1
240.285	12.38
240.501	11.32
240.717	10.76
240.933	10.73
241.149	10.93
241.365	12.15
241.581	12.83
241.797	12.22
242.013	11.48
242.229	12.19
242.445	12.47
242.661	13.28
242.877	14.14
243.093	14.56
243.309	13.71
243.525	13.49
243.741	12.44
243.957	11.23
244.173	10.63
244.388	11.47
244.604	11
244.82	10.65
245.036	9.86
245.252	9.48
245.468	9.7
245.683	9.99
245.899	10.15
246.115	10.03
246.331	10.23
246.547	10.7
246.762	10.25
246.978	10.19
247.194	10.33
247.409	10.68
247.625	11.11
247.841	11.09
248.057	11.25
248.272	11.27
248.488	11.63
248.703	11.46
248.919	11.55
249.135	11.45
249.35	11.77
249.566	11.31
249.782	11.47
249.997	10.89
250.213	10.36
250.428	10.27
250.644	9.94
250.859	9.97
251.075	10.18
251.29	9.8
251.506	10.54
251.721	10.63
251.937	10.44
252.152	10.93
252.368	11.54
252.583	12.55
252.798	12
253.014	12.1
253.229	11.33
253.445	11.61
253.66	12.25
253.875	12.02
254.091	12.27
254.306	12.51
254.521	11.22
254.737	10.69
254.952	10.27
255.167	10.91
255.383	10.75
255.598	10.86
255.813	10.01
256.028	8.92
256.244	7.99
256.459	7.16
256.674	7.59
256.889	7.92
257.104	7.59
257.32	7.45
257.535	7.48
257.75	7.28
257.965	7.29
258.18	7.58
258.395	7.72
258.61	7.98
258.826	7.89
259.041	7.4
259.256	7.28
259.471	7.27
259.686	7.14
259.901	6.89
260.116	6.72
260.331	6.53
260.546	6.57
260.761	6.52
260.976	6.05
261.191	6.35
261.406	7.31
261.621	7.57
261.836	7.82
262.05	7.82
262.265	8.33
262.48	9.11
262.695	9.68
262.91	9.74
263.125	9.63
263.34	10.73
263.555	10.82
263.769	9.85
263.984	9.38
264.199	9.9
264.414	9.86
264.629	9.23
264.843	8.5
265.058	8.41
265.273	7.75
265.488	7.41
265.702	6.43
265.917	6.1
266.132	6.58
266.346	7.17
266.561	6.86
266.776	6.79
266.99	7.27
267.205	7.44
267.42	6.69
267.634	6.91
267.849	6.99
268.063	7.36
268.278	7.91
268.492	7.89
268.707	7.29
268.922	7.31
269.136	7.53
269.351	7.29
269.565	7.42
269.78	7.7
269.994	7.41
270.209	7.57
270.423	7.62
270.637	7.22
270.852	6.75
271.066	7.19
271.281	7.29
271.495	7.14
271.709	7.6
271.924	7.61
272.138	8.04
272.353	8.36
272.567	8.44
272.781	8.72
272.996	8.78
273.21	9.09
273.424	9.09
273.638	8.81
273.853	8.93
274.067	8.84
274.281	9.02
274.495	8.99
274.71	9.08
274.924	8.96
275.138	8.4
275.352	8.5
275.566	9.16
275.781	9.28
275.995	9.75
276.209	9.97
276.423	9.76
276.637	9.42
276.851	9.33
277.065	9.13
277.279	9.32
277.493	9.87
277.707	9.7
277.921	9.33
278.135	8.34
278.349	7.49
278.563	7.46
278.777	7.06
278.991	6.83
279.205	7.07
279.419	7.19
279.633	6.83
279.847	6.5
280.061	6.39
280.275	6.17
280.489	7.12
280.703	7.54
280.917	7.45
281.131	7.22
281.344	7.74
281.558	7.44
281.772	7.2
281.986	7.23
282.2	7.11
282.414	7.11
282.627	6.98
282.841	6.45
283.055	6.69
283.269	6.72
283.482	7.05
283.696	6.69
283.91	6.57
284.123	6.46
284.337	6.42
284.551	6.58
284.764	6.72
284.978	6.94
285.192	6.81
285.405	6.63
285.619	6.6
285.833	6.89
286.046	7.05
286.26	7.2
286.473	7.29
286.687	7.72
286.9	7.82
287.114	7.55
287.327	7.62
287.541	8.01
287.754	7.7
287.968	7.3
288.181	6.62
288.395	6.69
288.608	6.86
288.822	6.74
289.035	6.34
289.248	6.24
289.462	6.59
289.675	6.36
289.889	6.46
290.102	6.51
290.315	6.87
290.529	7.34
290.742	7.04
290.955	6.65
291.169	6.94
291.382	7.1
291.595	7.1
291.808	7.11
292.022	7.29
292.235	6.83
292.448	7.56
292.661	7.45
292.875	7.32
293.088	7.61
293.301	7.97
293.514	7.72
293.727	7.79
293.94	8.06
294.153	7.94
294.367	7.48
294.58	7.58
294.793	7.15
295.006	7.28
295.219	7.05
295.432	7.13
295.645	7.09
295.858	7.26
296.071	7.14
296.284	6.97
296.497	7.23
296.71	7.62
296.923	7.92
297.136	7.86
297.349	8.02
297.562	8.11
297.775	8.2
297.988	8.16
298.201	8.27
298.414	8.26
298.626	8.22
298.839	8.04
299.052	8.12
299.265	7.74
299.478	7.85
299.691	7.7
299.903	8.01
300.116	7.78
300.329	8.17
300.542	7.98
300.755	8.41
300.967	8.8
301.18	8.85
301.393	8.77
301.605	8.69
301.818	9.12
302.031	8.98
302.243	9.16
302.456	9.35
302.669	9.13
302.881	9.55
303.094	9.45
303.307	9.15
303.519	9.11
303.732	9.17
303.944	9.48
304.157	9.35
304.37	9.32
304.582	9.21
304.795	9.25
305.007	9.33
305.22	9.11
305.432	8.88
305.645	9.23
305.857	8.99
306.069	9
306.282	8.76
306.494	8.72
306.707	8.49
306.919	8.19
307.132	8.09
307.344	8.11
307.556	8.35
307.769	8.53
307.981	8.21
308.193	8.21
308.406	8.02
308.618	8.26
308.83	8.07
309.043	8.6
309.255	8.91
309.467	9
309.679	8.94
309.892	9.01
310.104	9
310.316	8.89
310.528	9.05
310.74	9.25
310.953	9.31
311.165	9.01
311.377	8.72
311.589	8.61
311.801	8.68
312.013	8.57
312.225	8.51
312.437	8.57
312.649	9.1
312.862	9.38
313.074	9.81
313.286	9.58
313.498	9.97
313.71	10.37
313.922	10.52
314.134	10.18
314.346	10.33
314.558	10.23
314.77	10.78
314.982	10.86
315.193	10.77
315.405	10.45
315.617	10.36
315.829	10.48
316.041	9.92
316.253	10.09
316.465	10.82
316.677	11.08
316.888	11.43
317.1	11.02
317.312	10.63
317.524	10.39
317.736	10.32
317.947	11.01
318.159	11.19
318.371	12.34
318.583	12.47
318.794	12.36
319.006	12.28
319.218	12.2
319.43	12.14
319.641	12.58
319.853	13.07
320.064	13.17
320.276	12.86
320.488	12.47
320.699	12.17
320.911	12.16
321.123	12.24
321.334	12.33
321.546	12.41
321.757	12.91
321.969	12.84
322.18	12.89
322.392	13.14
322.603	13.52
322.815	13.98
323.026	13.77
323.238	13.75
323.449	13.71
323.661	13.7
323.872	13.8
324.083	13.85
324.295	13.97
324.506	13.76
324.718	13.58
324.929	13.74
325.14	13.89
325.352	14.2
325.563	14.38
325.774	14.51
325.986	14.77
326.197	14.75
326.408	14.82
326.62	14.86
326.831	15.34
327.042	15.59
327.253	15.55
327.464	15.16
327.676	15.14
327.887	15.08
328.098	15.03
328.309	15
328.52	15.5
328.732	15.61
328.943	15.57
329.154	15.63
329.365	15.67
329.576	15.84
329.787	16.74
329.998	17.16
330.209	17.23
330.42	17.54
330.631	17.53
330.842	17.34
331.053	17.23
331.264	17.49
331.475	17.72
331.686	18.23
331.897	18.18
332.108	18.21
332.319	17.94
332.53	18.08
332.741	18.17
332.952	17.99
333.163	17.91
333.374	18.22
333.585	18.2
333.795	18.05
334.006	18.04
334.217	18.11
334.428	18.15
334.639	18.63
334.849	18.69
335.06	18.38
335.271	18.43
335.482	18.63
335.692	18.55
335.903	18.52
336.114	18.41
336.325	18.06
336.535	18.55
336.746	18.21
336.957	17.81
337.167	17.9
337.378	18.26
337.589	18.95
337.799	18.97
338.01	18.83
338.22	18.91
338.431	18.8
338.642	18.97
338.852	18.44
339.063	18.51
339.273	18.35
339.484	18.08
339.694	17.53
339.905	17.43
340.115	17.15
340.326	17.32
340.536	17.69
340.746	17.87
340.957	18.01
341.167	18.1
341.378	18.12
341.588	18.25
341.799	18.32
342.009	18.64
342.219	18.59
342.43	18.4
342.64	18.35
342.85	18.15
343.061	17.97
343.271	17.78
343.481	17.45
343.691	17.34
343.902	17.33
344.112	17.36
344.322	17.05
344.532	16.81
344.743	17.07
344.953	16.88
345.163	16.65
345.373	16.93
345.583	17.04
345.793	17.24
346.004	17.32
346.214	17.31
346.424	17.28
346.634	17.51
346.844	17.37
347.054	17.24
347.264	17.33
347.474	17.43
347.684	17.31
347.894	17.2
348.104	17.51
348.314	17.57
348.524	17.27
348.734	17.28
348.944	17.18
349.154	17.37
349.364	17.39
349.574	17.04
349.784	16.68
349.994	16.89
350.204	16.83
350.413	16.5
350.623	16.43
350.833	16.87
351.043	16.77
351.253	17.03
351.463	16.58
351.672	16.73
351.882	16.99
352.092	17.39
352.302	17.22
352.511	17.41
352.721	17.34
352.931	17.05
353.141	17.34
353.35	17.59
353.56	17.69
353.77	18.1
353.979	18.19
354.189	18.43
354.399	18.18
354.608	17.93
354.818	17.91
355.027	18.2
355.237	18.47
355.447	17.92
355.656	17.69
355.866	17.54
356.075	17.34
356.285	17.08
356.494	16.9
356.704	16.78
356.913	16.88
357.123	16.71
357.332	16.39
357.542	16.2
357.751	16.32
357.96	16.28
358.17	16.04
358.379	16.03
358.589	15.99
358.798	15.93
359.007	16.01
359.217	15.96
359.426	15.95
359.635	16.08
359.845	16.03
360.054	16.03
360.263	16.1
360.472	16.1
360.682	16.16
360.891	16.27
361.1	16.19
361.309	16.19
361.519	16.3
361.728	16.36
361.937	16.21
362.146	16.44
362.355	16.59
362.564	16.59
362.774	16.7
362.983	16.49
363.192	16.38
363.401	16.37
363.61	16.53
363.819	16.44
364.028	16.26
364.237	16.3
364.446	16.17
364.655	15.84
364.864	15.83
365.073	15.92
365.282	16.31
365.491	16.6
365.7	16.45
365.909	16.4
366.118	16.45
366.327	16.46
366.536	16.45
366.745	16.51
366.954	16.67
367.162	16.59
367.371	16.39
367.58	16.21
367.789	15.78
367.998	15.81
368.207	15.91
368.415	15.72
368.624	15.86
368.833	15.9
369.042	15.9
369.25	15.78
369.459	15.81
369.668	15.75
369.877	15.43
370.085	15.44
370.294	15.52
370.503	15.31
370.711	15.49
370.92	15.48
371.129	15.5
371.337	15.47
371.546	15.38
371.754	15.57
371.963	15.39
372.171	15.62
372.38	15.65
372.589	15.64
372.797	15.49
373.006	15.11
373.214	14.85
373.423	14.75
373.631	14.57
373.84	14.38
374.048	14
374.256	14.02
374.465	14.07
374.673	14.15
374.882	14.15
375.09	14.25
375.298	14.5
375.507	14.64
375.715	14.6
375.923	14.55
376.132	14.61
376.34	14.56
376.548	14.75
376.757	14.62
376.965	14.45
377.173	14.53
377.381	14.4
377.59	14.26
377.798	14.09
378.006	14.15
378.214	14.14
378.423	14.18
378.631	14.45
378.839	14.49
379.047	14.55
379.255	14.54
379.463	14.49
379.671	14.69
379.879	14.48
380.088	14.58
380.296	14.6
380.504	14.54
380.712	14.59
380.92	14.33
381.128	14.22
381.336	14.13
381.544	14.19
381.752	13.98
381.96	13.95
382.168	13.87
382.376	13.9
382.584	13.77
382.791	13.88
382.999	13.72
383.207	13.8
383.415	13.94
383.623	13.93
383.831	13.78
384.039	13.78
384.247	13.76
384.454	13.92
384.662	13.68
384.87	13.63
385.078	13.55
385.285	13.65
385.493	13.61
385.701	13.35
385.909	13.49
386.116	13.4
386.324	13.63
386.532	13.73
386.739	13.71
386.947	13.71
387.155	13.78
387.362	13.71
387.57	13.58
387.778	13.51
387.985	13.59
388.193	13.51
388.4	13.43
388.608	13.41
388.816	13.3
389.023	13.2
389.231	13.34
389.438	13.1
389.646	13.11
389.853	13.2
390.061	13.23
390.268	13.23
390.475	13.14
390.683	13.43
390.89	13.25
391.098	13.01
391.305	13.03
391.512	12.96
391.72	13
391.927	13.01
392.135	13.07
392.342	13.07
392.549	12.94
392.756	12.77
392.964	12.8
393.171	12.75
393.378	12.81
393.586	12.75
393.793	12.75
394	12.71
394.207	12.53
394.414	12.36
394.622	12.27
394.829	12.36
395.036	12.34
395.243	12.01
395.45	12.02
395.657	11.93
395.864	11.92
396.072	12.01
396.279	11.97
396.486	12.01
396.693	11.96
396.9	11.87
397.107	11.7
397.314	11.87
397.521	11.93
397.728	11.84
397.935	11.91
398.142	12
398.349	11.71
398.556	11.7
398.763	11.73
398.97	11.79
399.177	11.66
399.383	11.65
399.59	11.48
399.797	11.38
400.004	11.45
400.211	11.41
400.418	11.38
400.625	11.37
400.831	11.27
401.038	11.28
401.245	11.13
401.452	11.13
401.658	11.07
401.865	11.15
402.072	11.2
402.279	11.22
402.485	11.12
402.692	11.1
402.899	11
403.105	11.07
403.312	11.02
403.519	10.99
403.725	10.94
403.932	11.1
404.138	11.08
404.345	11.02
404.552	10.81
404.758	10.85
404.965	10.76
405.171	10.72
405.378	10.64
405.584	10.69
405.791	10.76
405.997	10.92
406.204	10.91
406.41	10.81
406.617	10.89
406.823	10.8
407.029	10.79
407.236	10.66
407.442	10.68
407.649	10.78
407.855	10.72
408.061	10.68
408.268	10.65
408.474	10.41
408.68	10.41
408.887	10.36
409.093	10.55
409.299	10.61
409.505	10.58
409.712	10.7
409.918	10.67
410.124	10.57
410.33	10.4
410.537	10.33
410.743	10.41
410.949	10.41
411.155	10.33
411.361	10.29
411.567	10.29
411.773	10.33
411.98	10.26
412.186	10.17
412.392	10.21
412.598	10.34
412.804	10.26
413.01	10.21
413.216	10.05
413.422	10.12
413.628	9.97
413.834	9.96
414.04	9.97
414.246	9.96
414.452	9.95
414.658	9.98
414.864	9.98
415.07	10.01
415.275	9.96
415.481	10.13
415.687	10.05
415.893	10.07
416.099	9.87
416.305	9.95
416.511	9.9
416.716	9.85
416.922	9.83
417.128	9.77
417.334	9.72
417.539	9.74
417.745	9.56
417.951	9.53
418.157	9.52
418.362	9.58
418.568	9.56
418.774	9.55
418.979	9.55
419.185	9.43
419.391	9.4
419.596	9.38
419.802	9.34
420.008	9.43
420.213	8.83
420.419	8.89
420.624	8.87
420.83	8.75
421.035	8.8
421.241	8.79
421.446	8.82
421.652	8.8
421.857	8.79
422.063	8.76
422.268	8.64
422.474	9.16
422.679	9.01
422.885	8.92
423.09	8.93
423.295	8.8
423.501	8.72
423.706	8.76
423.911	8.76
424.117	8.73
424.322	8.8
424.527	8.89
424.733	8.94
424.938	8.99
425.143	9.13
425.349	9.16
425.554	9.23
425.759	9.33
425.964	9.34
426.169	9.32
426.375	9.34
426.58	9.27
426.785	9.18
426.99	9.24
427.195	9.31
427.4	9.17
427.605	9.14
427.811	9.14
428.016	9.2
428.221	9.21
428.426	9.23
428.631	9.2
428.836	9.16
429.041	9.19
429.246	9.12
429.451	9.06
429.656	9.03
429.861	8.98
430.066	8.97
430.271	8.9
430.476	8.8
430.681	8.87
430.886	8.91
431.09	8.94
431.295	8.87
431.5	8.85
431.705	8.87
431.91	8.87
432.115	8.83
432.32	8.73
432.524	8.69
432.729	8.79
432.934	8.66
433.139	8.71
433.343	8.72
433.548	8.74
433.753	8.76
433.958	8.71
434.162	8.78
434.367	8.83
434.572	8.9
434.776	8.82
434.981	8.7
435.186	8.85
435.39	8.83
435.595	8.81
435.799	8.82
436.004	8.75
436.209	8.69
436.413	8.6
436.618	8.59
436.822	8.57
437.027	8.6
437.231	8.6
437.436	8.57
437.64	8.45
437.845	8.4
438.049	8.41
438.253	8.4
438.458	8.46
438.662	8.46
438.867	8.54
439.071	8.57
439.275	8.56
439.48	8.55
439.684	8.52
439.888	8.55
440.093	8.61
440.297	8.62
440.501	8.64
440.706	8.58
440.91	8.62
441.114	8.48
441.318	8.44
441.523	8.5
441.727	8.37
441.931	8.3
442.135	8.25
442.339	8.18
442.543	8.12
442.748	8.13
442.952	8.26
443.156	8.2
443.36	8.27
443.564	8.26
443.768	8.23
443.972	8.34
444.176	8.39
444.38	8.37
444.584	8.4
444.788	8.39
444.992	8.33
445.196	8.28
445.4	8.23
445.604	8.12
445.808	8.11
446.012	8.09
446.216	8.07
446.42	8.06
446.624	8.03
446.828	8.01
447.032	8
447.235	8.02
447.439	7.96
447.643	8.09
447.847	8.18
448.051	8.27
448.254	8.28
448.458	8.33
448.662	8.37
448.866	8.47
449.069	8.5
449.273	8.51
449.477	8.52
449.681	8.49
449.884	8.37
450.088	8.36
450.292	8.1
450.495	8.09
450.699	8.04
450.902	7.97
451.106	7.88
451.31	7.85
451.513	7.8
451.717	7.86
451.92	7.89
452.124	7.96
452.327	7.97
452.531	8.02
452.734	8.14
452.938	8.11
453.141	8.09
453.345	8.07
453.548	8.05
453.752	8.2
453.955	8.08
454.158	8.05
454.362	7.97
454.565	7.98
454.769	8.14
454.972	8.02
455.175	8.04
455.379	8.07
455.582	8.1
455.785	8.03
455.988	7.93
456.192	7.95
456.395	7.96
456.598	7.92
456.801	8.01
457.005	7.98
457.208	7.95
457.411	7.95
457.614	7.87
457.817	7.84
458.021	7.78
458.224	7.79
458.427	7.84
458.63	7.87
458.833	7.87
459.036	7.76
459.239	7.74
459.442	7.71
459.645	7.72
459.848	7.77
460.051	7.85
460.254	7.98
460.457	7.92
460.66	7.87
460.863	7.95
461.066	8.03
461.269	8.14
461.472	8.12
461.675	8.21
461.878	8.25
462.081	8.3
462.284	8.21
462.486	8.2
462.689	8.28
462.892	8.31
