Data from 2938744__Reflection_01.txt Node
Date: Sun Mar 15 11:52:09 EDT 2015
User: robert
Spectrometer: USB4E03002
Autoset integration time: false
Trigger mode: 4
Integration Time (sec): 1.000000E-1
Scans to average: 10
Electric dark correction enabled: false
Nonlinearity correction enabled: false
Boxcar width: 5
Stray light correction enabled: false
XAxis mode: Wavelengths
Stop averaging: false
Number of Pixels in Spectrum: 3648
>>>>>Begin Spectral Data<<<<<
177.575	426.8
177.794	366.4
178.014	674.48
178.233	811.16
178.452	1066.18
178.672	1629.05
178.891	1850.38
179.11	-5693.02
179.33	-1533.73
179.549	-1333.85
179.768	-1959.44
179.987	-3748.05
180.207	-1016.85
180.426	-5390.38
180.645	-4244.78
180.864	-39942.86
181.084	2451.79
181.303	-13219.05
181.522	1510.36
181.741	1303.74
181.96	2198.37
182.179	614.73
182.398	599.38
182.618	413.85
182.837	439.3
183.056	389.9
183.275	426.14
183.494	508.51
183.713	400.98
183.932	379.67
184.151	331.14
184.37	342.71
184.589	529.67
184.808	508.49
185.027	571.96
185.246	608.21
185.465	542.5
185.684	585.42
185.903	502.53
186.122	464.33
186.341	700
186.56	1139.27
186.779	860.97
186.998	756.34
187.216	881.91
187.435	1608.92
187.654	1462.5
187.873	4586
188.092	1464.2
188.311	1077.49
188.53	1543.59
188.748	1384.7
188.967	1075.43
189.186	1167.31
189.405	1009.69
189.623	1431.41
189.842	910.34
190.061	907.59
190.28	912.79
190.498	1696.75
190.717	1347.5
190.936	2160.32
191.154	1494.97
191.373	1291.59
191.592	631.83
191.81	518.64
192.029	418.03
192.248	491.84
192.466	678.14
192.685	586.03
192.904	435.82
193.122	596.8
193.341	655.45
193.559	495.83
193.778	580.39
193.996	1182.84
194.215	1840.91
194.433	-9281.48
194.652	2753.41
194.87	1842.31
195.089	2623.26
195.307	4501.89
195.526	1740.51
195.744	3618.18
195.963	-3018.95
196.181	-6874.42
196.399	-6054
196.618	-2435.2
196.836	-2513.79
197.055	-1165.08
197.273	-1494.66
197.491	-1753.11
197.71	-5805.36
197.928	-2978.57
198.146	-2394.92
198.365	-2607.34
198.583	-4606.9
198.801	7967.65
199.019	1680.86
199.238	910.03
199.456	640.59
199.674	906.21
199.892	1228.51
200.111	1392.23
200.329	1718.71
200.547	643.84
200.765	455.7
200.983	456.46
201.202	444.35
201.42	508.5
201.638	475.34
201.856	555.07
202.074	382.05
202.292	298.54
202.51	358.51
202.728	322.07
202.946	385.09
203.165	499.66
203.383	490.44
203.601	499.82
203.819	459.14
204.037	481.29
204.255	391.47
204.473	339.62
204.691	373.37
204.909	346.53
205.127	345.89
205.345	307.43
205.562	283.91
205.78	385.96
205.998	477.7
206.216	601.09
206.434	590.04
206.652	838.05
206.87	2206.25
207.088	7908.82
207.306	1297.26
207.523	1836.71
207.741	2024.31
207.959	2447.11
208.177	932.93
208.395	660.22
208.612	557.12
208.83	607.16
209.048	646.76
209.266	455.65
209.483	456.91
209.701	537.14
209.919	611.94
210.136	455.06
210.354	379.52
210.572	533.18
210.79	508.94
211.007	388
211.225	344.9
211.442	287.93
211.66	302.56
211.878	345.56
212.095	186.67
212.313	170.35
212.53	182.19
212.748	208.35
212.966	193.03
213.183	177.65
213.401	199.7
213.618	206.25
213.836	196.85
214.053	200.63
214.271	169.25
214.488	330.51
214.705	293.1
214.923	328.52
215.14	286.79
215.358	272.66
215.575	312.94
215.793	249.95
216.01	239.1
216.227	225.46
216.445	229.3
216.662	277.79
216.879	258.36
217.097	255.16
217.314	243.4
217.531	232.04
217.749	228.99
217.966	227.15
218.183	276.71
218.4	281.37
218.618	313.9
218.835	322.45
219.052	243.91
219.269	247.2
219.487	264.29
219.704	257.94
219.921	278.24
220.138	252.08
220.355	198.97
220.572	177.02
220.79	169.28
221.007	159.81
221.224	139.18
221.441	140.47
221.658	134.75
221.875	120.27
222.092	118.37
222.309	109.9
222.526	114.02
222.743	115.92
222.96	115.22
223.177	118.27
223.394	115.38
223.611	119.37
223.828	121.36
224.045	117.67
224.262	120.35
224.479	114.22
224.696	107.09
224.913	107.45
225.13	99.5
225.347	90.41
225.564	77.46
225.781	75.6
225.997	71.04
226.214	65.18
226.431	58.45
226.648	54.41
226.865	47.62
227.082	43.48
227.298	34.72
227.515	32.37
227.732	29.26
227.949	27.87
228.165	24.88
228.382	22.56
228.599	20.84
228.816	18.88
229.032	17.89
229.249	18.08
229.466	17.41
229.682	18.59
229.899	18.65
230.116	19.09
230.332	19.5
230.549	20.52
230.765	21.6
230.982	23.08
231.199	24.83
231.415	24.98
231.632	27.05
231.848	28.87
232.065	28.94
232.281	29.47
232.498	29.45
232.714	31.23
232.931	30.68
233.147	32.15
233.364	31.5
233.58	31.27
233.797	32.09
234.013	31.7
234.23	31.68
234.446	30.49
234.662	29.32
234.879	29.71
235.095	29.13
235.312	30.54
235.528	29.24
235.744	30.07
235.961	30.13
236.177	31.01
236.393	30.32
236.61	31.65
236.826	33.41
237.042	34.79
237.258	35.63
237.475	34.9
237.691	34.07
237.907	35.81
238.123	34.95
238.339	34.62
238.556	34.85
238.772	33.8
238.988	32.92
239.204	33
239.42	31.74
239.636	29.18
239.853	28.11
240.069	27.39
240.285	25.95
240.501	25.2
240.717	23.6
240.933	19.91
241.149	18.16
241.365	16.34
241.581	14.18
241.797	13.09
242.013	12.86
242.229	12.56
242.445	11.82
242.661	11.35
242.877	10.99
243.093	11.64
243.309	12.69
243.525	13.38
243.741	13.7
243.957	15.04
244.173	15.11
244.388	15.79
244.604	15.97
244.82	16.77
245.036	15.87
245.252	15.62
245.468	14.13
245.683	13.07
245.899	11.74
246.115	11.22
246.331	10.34
246.547	10.21
246.762	9.37
246.978	9.17
247.194	8.69
247.409	8.86
247.625	8.49
247.841	8.69
248.057	9.11
248.272	9.52
248.488	9.46
248.703	9.28
248.919	9.28
249.135	9.94
249.35	10.89
249.566	11.66
249.782	11.81
249.997	12.58
250.213	12.25
250.428	12.07
250.644	12.32
250.859	13.11
251.075	13.78
251.29	14.44
251.506	14.15
251.721	13.2
251.937	12.64
252.152	11.93
252.368	11.76
252.583	12.41
252.798	11.72
253.014	11.38
253.229	11.16
253.445	11.76
253.66	12.02
253.875	12.98
254.091	14
254.306	14.75
254.521	15.98
254.737	16.75
254.952	17.5
255.167	19.06
255.383	19.21
255.598	19.32
255.813	18.37
256.028	17.45
256.244	16.92
256.459	16.08
256.674	15.46
256.889	14.44
257.104	14.69
257.32	13.7
257.535	13.09
257.75	12.85
257.965	12.22
258.18	11.3
258.395	10.67
258.61	9.26
258.826	8.55
259.041	7.61
259.256	7.36
259.471	6.61
259.686	6.33
259.901	6.21
260.116	5.83
260.331	5.73
260.546	5.71
260.761	6.15
260.976	6.46
261.191	6.48
261.406	7.38
261.621	7.92
261.836	8.17
262.05	8.73
262.265	9.62
262.48	10.15
262.695	11.18
262.91	12.36
263.125	12.06
263.34	12.72
263.555	13.65
263.769	13.2
263.984	13.8
264.199	14.81
264.414	14.65
264.629	14.31
264.843	14.6
265.058	14.13
265.273	13.39
265.488	12.97
265.702	12.86
265.917	12.31
266.132	12.5
266.346	12.58
266.561	11.81
266.776	12.11
266.99	11.42
267.205	11.19
267.42	11.16
267.634	11.19
267.849	11.06
268.063	11.15
268.278	11.46
268.492	11.14
268.707	10.6
268.922	10.61
269.136	10.33
269.351	10.82
269.565	10.83
269.78	10.13
269.994	10.01
270.209	10.09
270.423	9.7
270.637	9.42
270.852	8.83
271.066	8.42
271.281	8.66
271.495	7.82
271.709	7.62
271.924	7.71
272.138	7.98
272.353	8.07
272.567	8.22
272.781	8.16
272.996	8
273.21	8.56
273.424	9.13
273.638	9.28
273.853	9.96
274.067	10
274.281	9.89
274.495	9.69
274.71	9.99
274.924	9.81
275.138	10.01
275.352	10.33
275.566	10.65
275.781	10.05
275.995	10.18
276.209	10.28
276.423	10.06
276.637	10.19
276.851	10.01
277.065	9.69
277.279	9.57
277.493	9.08
277.707	9.72
277.921	9.17
278.135	9.65
278.349	9.6
278.563	9.8
278.777	9.92
278.991	9.64
279.205	10.18
279.419	10.24
279.633	10.78
279.847	10.96
280.061	9.82
280.275	10.06
280.489	10.01
280.703	9.61
280.917	9.19
281.131	9.09
281.344	9.36
281.558	9.23
281.772	9.29
281.986	8.71
282.2	9.07
282.414	9.43
282.627	9
282.841	8.58
283.055	8.67
283.269	8.57
283.482	8.49
283.696	8.31
283.91	8.29
284.123	7.52
284.337	7.3
284.551	6.81
284.764	6.47
284.978	6.59
285.192	6.69
285.405	6.66
285.619	6.69
285.833	6.44
286.046	6.57
286.26	6.29
286.473	6.9
286.687	7.23
286.9	7.58
287.114	7.33
287.327	7.11
287.541	7.03
287.754	7.09
287.968	7.11
288.181	6.98
288.395	6.81
288.608	7.32
288.822	6.76
289.035	6.99
289.248	6.71
289.462	7.07
289.675	7.38
289.889	7.56
290.102	7.06
290.315	7.25
290.529	7.88
290.742	7.49
290.955	7.31
291.169	7.53
291.382	7.48
291.595	7.66
291.808	7.5
292.022	8.05
292.235	7.81
292.448	7.93
292.661	7.73
292.875	7.43
293.088	7.94
293.301	7.7
293.514	7.63
293.727	7.87
293.94	7.84
294.153	8.09
294.367	7.29
294.58	7.42
294.793	7.34
295.006	7.03
295.219	6.89
295.432	6.82
295.645	7.17
295.858	7.38
296.071	7.02
296.284	6.83
296.497	6.68
296.71	6.89
296.923	6.89
297.136	6.96
297.349	7.27
297.562	7.2
297.775	6.75
297.988	6.32
298.201	6.63
298.414	6.73
298.626	6.86
298.839	7.03
299.052	7.22
299.265	7.36
299.478	7.51
299.691	7.71
299.903	8.2
300.116	8.6
300.329	9.27
300.542	8.5
300.755	8.5
300.967	8.57
301.18	8.5
301.393	8.45
301.605	8.72
301.818	8.76
302.031	8.89
302.243	9.07
302.456	9.56
302.669	9.33
302.881	9.82
303.094	10.04
303.307	10.13
303.519	10.34
303.732	10.01
303.944	9.53
304.157	9.86
304.37	9.49
304.582	9.28
304.795	9.23
305.007	9.04
305.22	9.17
305.432	8.94
305.645	8.49
305.857	8.73
306.069	9.38
306.282	9.28
306.494	8.59
306.707	8.64
306.919	8.73
307.132	8.71
307.344	8.78
307.556	8.38
307.769	8.63
307.981	8.87
308.193	8.61
308.406	8.05
308.618	8.59
308.83	8.73
309.043	8.71
309.255	8.37
309.467	8.16
309.679	8.44
309.892	8.38
310.104	8.22
310.316	8.17
310.528	8.32
310.74	8.52
310.953	8.44
311.165	8.77
311.377	8.97
311.589	9.27
311.801	9.5
312.013	9.28
312.225	9.76
312.437	9.96
312.649	10.09
312.862	10.03
313.074	10.17
313.286	9.95
313.498	9.9
313.71	10.02
313.922	9.85
314.134	10.02
314.346	10.5
314.558	10.36
314.77	9.94
314.982	10.17
315.193	10.49
315.405	10.49
315.617	10.51
315.829	10.79
316.041	10.81
316.253	10.92
316.465	10.95
316.677	11.08
316.888	11.45
317.1	11.93
317.312	12.25
317.524	12.09
317.736	12.7
317.947	13.33
318.159	13.38
318.371	13.23
318.583	13.25
318.794	13.19
319.006	13.24
319.218	13
319.43	12.95
319.641	12.99
319.853	13.56
320.064	13.85
320.276	14.19
320.488	14.4
320.699	15.34
320.911	15.91
321.123	15.92
321.334	15.52
321.546	15.94
321.757	16.53
321.969	16.85
322.18	16.89
322.392	16.43
322.603	16.28
322.815	16.5
323.026	16.01
323.238	15.98
323.449	16.06
323.661	16.23
323.872	16.37
324.083	16.28
324.295	16.38
324.506	16.48
324.718	16.4
324.929	16.47
325.14	16.56
325.352	17.18
325.563	17.58
325.774	17.93
325.986	18.46
326.197	18.49
326.408	19.12
326.62	19.6
326.831	19.88
327.042	20.69
327.253	21.41
327.464	22.08
327.676	22.4
327.887	23.31
328.098	24.43
328.309	25.25
328.52	26.69
328.732	27.64
328.943	28.19
329.154	29.06
329.365	29.69
329.576	30.38
329.787	31.05
329.998	31.61
330.209	32.14
330.42	32.5
330.631	32.91
330.842	32.8
331.053	33.15
331.264	33.55
331.475	34.48
331.686	34.84
331.897	35.34
332.108	35.51
332.319	36.03
332.53	36.16
332.741	36.58
332.952	37.22
333.163	37.76
333.374	37.77
333.585	38.46
333.795	38.31
334.006	38.95
334.217	39.23
334.428	39.44
334.639	39.69
334.849	40.13
335.06	40.34
335.271	40.81
335.482	40.85
335.692	41.29
335.903	41.28
336.114	41.72
336.325	41.47
336.535	41.83
336.746	41.96
336.957	42.18
337.167	42.2
337.378	42.5
337.589	42.34
337.799	42.22
338.01	42.64
338.22	42.88
338.431	42.65
338.642	42.61
338.852	42.28
339.063	42.51
339.273	42.17
339.484	41.98
339.694	42.15
339.905	42.06
340.115	42.6
340.326	42.64
340.536	42.59
340.746	42.25
340.957	43.21
341.167	43.77
341.378	43.67
341.588	44.11
341.799	44.43
342.009	43.97
342.219	43.93
342.43	44.13
342.64	43.75
342.85	43.86
343.061	44.33
343.271	43.86
343.481	44.03
343.691	44.04
343.902	43.92
344.112	43.82
344.322	44.1
344.532	44.35
344.743	44.14
344.953	44.43
345.163	44.43
345.373	44.53
345.583	44.25
345.793	43.82
346.004	43.78
346.214	43.92
346.424	43.84
346.634	43.76
346.844	43.62
347.054	43.49
347.264	43.21
347.474	42.71
347.684	42.63
347.894	42.46
348.104	42.42
348.314	42.38
348.524	42.62
348.734	42.77
348.944	42.99
349.154	43.05
349.364	43.06
349.574	42.74
349.784	43.08
349.994	43.16
350.204	43.57
350.413	43.46
350.623	43.7
350.833	43.52
351.043	43.22
351.253	42.76
351.463	42.59
351.672	42.38
351.882	42.44
352.092	42.34
352.302	42.19
352.511	42.24
352.721	42.27
352.931	42.26
353.141	42
353.35	42.1
353.56	42.4
353.77	42.72
353.979	42.72
354.189	43.01
354.399	43.18
354.608	43.34
354.818	42.94
355.027	43
355.237	42.79
355.447	42.62
355.656	42.44
355.866	42.26
356.075	41.47
356.285	41.41
356.494	41.3
356.704	41.11
356.913	40.73
357.123	40.88
357.332	40.84
357.542	40.73
357.751	40.78
357.96	40.89
358.17	40.78
358.379	41
358.589	41.1
358.798	40.9
359.007	40.82
359.217	40.85
359.426	40.51
359.635	40.37
359.845	40.14
360.054	40.02
360.263	39.83
360.472	39.48
360.682	39.48
360.891	39.15
361.1	39.05
361.309	38.98
361.519	38.93
361.728	39.19
361.937	39.26
362.146	39.51
362.355	39.42
362.564	39.59
362.774	39.71
362.983	39.75
363.192	39.91
363.401	39.94
363.61	39.92
363.819	39.97
364.028	39.78
364.237	39.6
364.446	39.47
364.655	39.59
364.864	39.65
365.073	40.14
365.282	40.4
365.491	40.23
365.7	40.26
365.909	40.35
366.118	40.48
366.327	40.51
366.536	40.56
366.745	40.58
366.954	40.64
367.162	40.53
367.371	40.18
367.58	39.91
367.789	39.94
367.998	39.95
368.207	40.05
368.415	39.98
368.624	39.93
368.833	39.96
369.042	40.01
369.25	40.16
369.459	40.24
369.668	40.35
369.877	40.12
370.085	40.37
370.294	40.09
370.503	39.91
370.711	39.77
370.92	39.84
371.129	39.68
371.337	39.57
371.546	39.27
371.754	39.02
371.963	38.67
372.171	38.7
372.38	38.76
372.589	38.79
372.797	38.78
373.006	38.83
373.214	38.83
373.423	38.98
373.631	39
373.84	39.04
374.048	39.15
374.256	39.49
374.465	39.44
374.673	39.43
374.882	39.92
375.09	39.64
375.298	39.43
375.507	39.59
375.715	39.55
375.923	39.3
376.132	39.26
376.34	39.23
376.548	39.01
376.757	39.02
376.965	38.64
377.173	38.31
377.381	38.62
377.59	38.64
377.798	38.35
378.006	38.09
378.214	38.35
378.423	38.28
378.631	38.25
378.839	38.1
379.047	38.36
379.255	38.47
379.463	38.71
379.671	38.57
379.879	38.67
380.088	38.68
380.296	38.77
380.504	38.59
380.712	38.94
380.92	39.03
381.128	39.38
381.336	39.22
381.544	39.13
381.752	38.91
381.96	38.91
382.168	38.71
382.376	38.75
382.584	38.84
382.791	38.89
382.999	38.79
383.207	38.53
383.415	38.59
383.623	38.4
383.831	38.53
384.039	38.6
384.247	38.62
384.454	38.99
384.662	39.11
384.87	39.12
385.078	38.9
385.285	38.58
385.493	38.54
385.701	38.21
385.909	38.06
386.116	38.01
386.324	38.01
386.532	38
386.739	37.83
386.947	37.61
387.155	37.69
387.362	37.87
387.57	38.06
387.778	38.17
387.985	38.42
388.193	38.71
388.4	38.71
388.608	38.76
388.816	38.73
389.023	38.64
389.231	38.87
389.438	38.81
389.646	38.86
389.853	38.88
390.061	38.98
390.268	38.68
390.475	38.63
390.683	38.78
390.89	38.77
391.098	39.05
391.305	39.16
391.512	39.02
391.72	39.17
391.927	39.18
392.135	38.89
392.342	38.73
392.549	38.77
392.756	38.81
392.964	38.53
393.171	38.46
393.378	38.19
393.586	38.09
393.793	38.02
394	37.85
394.207	37.87
394.414	38.01
394.622	38.15
394.829	38.48
395.036	38.41
395.243	38.57
395.45	38.53
395.657	38.69
395.864	38.76
396.072	38.9
396.279	39.08
396.486	39.05
396.693	39.26
396.9	39.12
397.107	39.02
397.314	39.13
397.521	39.23
397.728	39.04
397.935	38.81
398.142	38.62
398.349	38.42
398.556	38.3
398.763	38.41
398.97	38.33
399.177	38.51
399.383	38.52
399.59	38.39
399.797	38.44
400.004	38.63
400.211	38.66
400.418	39.07
400.625	39.22
400.831	39.37
401.038	39.34
401.245	39.45
401.452	39.5
401.658	39.58
401.865	39.7
402.072	39.66
402.279	39.77
402.485	39.88
402.692	39.58
402.899	39.58
403.105	39.5
403.312	39.56
403.519	39.42
403.725	39.37
403.932	39.3
404.138	39.37
404.345	39.27
404.552	39.27
404.758	39.15
404.965	39.18
405.171	39.25
405.378	39.18
405.584	39.07
405.791	39.11
405.997	38.95
406.204	39.06
406.41	39.01
406.617	39.17
406.823	39.17
407.029	39.29
407.236	39.47
407.442	39.49
407.649	39.74
407.855	39.75
408.061	40.01
408.268	40.17
408.474	40.05
408.68	39.97
408.887	39.99
409.093	40.06
409.299	40.17
409.505	39.99
409.712	40.06
409.918	40.1
410.124	40.18
410.33	40.02
410.537	40.01
410.743	40.09
410.949	40.25
411.155	40.3
411.361	40.11
411.567	40.2
411.773	40.29
411.98	40.08
412.186	39.78
412.392	39.92
412.598	39.86
412.804	39.83
413.01	39.81
413.216	39.7
413.422	39.7
413.628	39.95
413.834	39.93
414.04	39.78
414.246	39.81
414.452	39.96
414.658	39.84
414.864	39.87
415.07	39.93
415.275	39.97
415.481	40.08
415.687	40.04
415.893	39.86
416.099	39.73
416.305	39.77
416.511	39.66
416.716	39.57
416.922	39.55
417.128	39.42
417.334	39.28
417.539	39.23
417.745	39.1
417.951	38.97
418.157	38.99
418.362	38.9
418.568	38.91
418.774	39.16
418.979	39.21
419.185	39.14
419.391	39.1
419.596	39.11
419.802	39.02
420.008	38.99
420.213	39.13
420.419	39.16
420.624	39.14
420.83	39.07
421.035	38.87
421.241	38.8
421.446	38.72
421.652	38.77
421.857	38.73
422.063	38.69
422.268	38.63
422.474	38.48
422.679	38.36
422.885	38.49
423.09	38.59
423.295	38.54
423.501	38.62
423.706	38.77
423.911	38.68
424.117	38.74
424.322	38.83
424.527	38.91
424.733	38.96
424.938	39.03
425.143	39.02
425.349	38.92
425.554	39.08
425.759	38.95
425.964	38.85
426.169	38.93
426.375	38.98
426.58	39.02
426.785	39.16
426.99	39.23
427.195	39.3
427.4	39.29
427.605	39.51
427.811	39.61
428.016	39.68
428.221	39.75
428.426	39.93
428.631	39.97
428.836	39.86
429.041	39.97
429.246	39.95
429.451	40.11
429.656	40.11
429.861	40.02
430.066	40.13
430.271	40.2
430.476	40.28
430.681	40.21
430.886	40.26
431.09	40.37
431.295	40.21
431.5	40.29
431.705	40.2
431.91	40.14
432.115	40.06
432.32	39.81
432.524	39.84
432.729	39.85
432.934	39.87
433.139	39.8
433.343	39.84
433.548	39.9
433.753	39.79
433.958	39.77
434.162	39.87
434.367	40.01
434.572	40.13
434.776	40.11
434.981	40.12
435.186	40.14
435.39	40.25
435.595	40.32
435.799	40.15
436.004	40.26
436.209	40.31
436.413	40.27
436.618	40.25
436.822	40.2
437.027	40.21
437.231	40.22
437.436	40.01
437.64	39.93
437.845	39.92
438.049	39.99
438.253	39.99
438.458	39.89
438.662	39.92
438.867	39.85
439.071	39.81
439.275	39.81
439.48	39.73
439.684	39.99
439.888	39.92
440.093	39.89
440.297	39.91
440.501	39.87
440.706	39.9
440.91	39.89
441.114	39.95
441.318	39.97
441.523	40.03
441.727	40.12
441.931	40.03
442.135	40.08
442.339	40
442.543	40.04
442.748	40.1
442.952	40.13
443.156	40.2
443.36	40.32
443.564	40.31
443.768	40.17
443.972	40.19
444.176	40.24
444.38	40.24
444.584	40.2
444.788	40.14
444.992	40.05
445.196	39.97
445.4	39.96
445.604	39.85
445.808	39.9
446.012	39.94
446.216	39.89
446.42	39.75
446.624	39.79
446.828	39.83
447.032	39.79
447.235	39.83
447.439	39.88
447.643	39.89
447.847	39.9
448.051	39.84
448.254	39.84
448.458	39.87
448.662	39.97
448.866	39.98
449.069	39.96
449.273	40.09
449.477	40.1
449.681	40.1
449.884	39.96
450.088	39.95
450.292	39.99
450.495	40.04
450.699	40
450.902	39.95
451.106	39.92
451.31	39.91
451.513	39.9
451.717	39.98
451.92	39.97
452.124	40.07
452.327	40.02
452.531	39.87
452.734	39.81
452.938	39.8
453.141	39.84
453.345	39.8
453.548	39.98
453.752	39.91
453.955	39.94
454.158	39.97
454.362	39.89
454.565	40.07
454.769	40.24
454.972	40.37
455.175	40.53
455.379	40.52
455.582	40.6
455.785	40.56
