Data from 2938805__Reflection_01.txt Node
Date: Thu Mar 12 22:16:54 EDT 2015
User: robert
Spectrometer: USB4E03002
Autoset integration time: false
Trigger mode: 4
Integration Time (sec): 1.000000E-1
Scans to average: 10
Electric dark correction enabled: false
Nonlinearity correction enabled: false
Boxcar width: 5
Stray light correction enabled: false
XAxis mode: Wavelengths
Stop averaging: false
Number of Pixels in Spectrum: 3648
>>>>>Begin Spectral Data<<<<<
177.575	286.96
177.794	318.18
178.014	112.79
178.233	-16.67
178.452	-18.8
178.672	-125.2
178.891	2960
179.11	409.94
179.33	438.65
179.549	272.87
179.768	647.5
179.987	387.5
180.207	624.68
180.426	650
180.645	371.72
180.864	220.19
181.084	178.08
181.303	192.16
181.522	183.07
181.741	129.48
181.96	187.6
182.179	189.49
182.398	216.31
182.618	278.74
182.837	338.54
183.056	-1437.5
183.275	-51.55
183.494	-101.22
183.713	-114.87
183.932	-108.21
184.151	-57.04
184.37	-88.93
184.589	-196.89
184.808	-224.15
185.027	508.09
185.246	281.48
185.465	231.78
185.684	161.3
185.903	124.43
186.122	152.05
186.341	495.87
186.56	284.02
186.779	184.28
186.998	205.93
187.216	195.32
187.435	322.64
187.654	222.03
187.873	197.19
188.092	209.85
188.311	180.54
188.53	196.59
188.748	139.18
188.967	154.94
189.186	176.18
189.405	154.41
189.623	149.75
189.842	195.31
190.061	307.21
190.28	-1152.17
190.498	-2705.88
190.717	-844.44
190.936	765.63
191.154	659.52
191.373	414.14
191.592	246.62
191.81	295.97
192.029	269.53
192.248	280.55
192.466	224.75
192.685	244.26
192.904	350.36
193.122	415.43
193.341	472.32
193.559	283.33
193.778	5836.36
193.996	-260.24
194.215	-413.16
194.433	-543.09
194.652	-658.82
194.87	-277.86
195.089	-509.15
195.307	-1017.05
195.526	-15266.67
195.744	-630.3
195.963	-526.59
196.181	-634.07
196.399	-1017.78
196.618	-339.08
196.836	-168.99
197.055	-245.54
197.273	-1914.63
197.491	890.32
197.71	342.49
197.928	534.71
198.146	196.02
198.365	159.86
198.583	143.48
198.801	123.19
199.019	93.16
199.238	91.05
199.456	115.85
199.674	134.18
199.892	156.2
200.111	200.59
200.329	206.45
200.547	216.67
200.765	288.93
200.983	566.12
201.202	1825.71
201.42	914.12
201.638	1172.97
201.856	217.79
202.074	169.98
202.292	206.59
202.51	178.75
202.728	162.45
202.946	184.88
203.165	156.47
203.383	162.73
203.601	164.39
203.819	196.4
204.037	178.45
204.255	347.66
204.473	520
204.691	279.1
204.909	203.03
205.127	173.23
205.345	139.61
205.562	146.47
205.78	140.32
205.998	127.08
206.216	164.33
206.434	178.75
206.652	166.19
206.87	164.05
207.088	181.51
207.306	131.31
207.523	177.43
207.741	214.64
207.959	185.02
208.177	162.87
208.395	123.52
208.612	97.64
208.83	97.14
209.048	91.49
209.266	95.33
209.483	100.9
209.701	143.35
209.919	141.61
210.136	139.32
210.354	146.87
210.572	130.29
210.79	146.17
211.007	116.78
211.225	92.58
211.442	83.62
211.66	94.04
211.878	82.34
212.095	10.77
212.313	-2.88
212.53	-2.94
212.748	-0.14
212.966	5.9
213.183	14.04
213.401	28.8
213.618	20.67
213.836	28.33
214.053	14.7
214.271	15.09
214.488	82.97
214.705	91.81
214.923	86.39
215.14	90.11
215.358	95.91
215.575	103.67
215.793	90.5
216.01	94.07
216.227	96.87
216.445	95.26
216.662	83.95
216.879	96.2
217.097	87.65
217.314	74.73
217.531	91.75
217.749	89.33
217.966	81.45
218.183	76.7
218.4	84.68
218.618	79.19
218.835	77.76
219.052	75.08
219.269	72.22
219.487	74.89
219.704	70.16
219.921	54.99
220.138	34.79
220.355	31.51
220.572	33.1
220.79	31.18
221.007	33.62
221.224	35.68
221.441	40.72
221.658	37.35
221.875	35.76
222.092	38.03
222.309	38.69
222.526	43.63
222.743	52.75
222.96	50.25
223.177	43.32
223.394	41.84
223.611	39.51
223.828	34.19
224.045	30.95
224.262	34.11
224.479	33.54
224.696	29.93
224.913	32.99
225.13	22.92
225.347	24.48
225.564	21.21
225.781	21.13
225.997	18.57
226.214	18.92
226.431	17.57
226.648	13.92
226.865	14.36
227.082	14.56
227.298	10.38
227.515	12.37
227.732	9.71
227.949	10.92
228.165	10.2
228.382	9.72
228.599	9.88
228.816	10.51
229.032	10.41
229.249	10.22
229.466	10.41
229.682	11.11
229.899	10.67
230.116	11.95
230.332	11.7
230.549	11.75
230.765	13.38
230.982	13.38
231.199	13.17
231.415	13.08
231.632	13.16
231.848	12.38
232.065	13.18
232.281	13.35
232.498	11.85
232.714	10.62
232.931	12.63
233.147	9.88
233.364	9.56
233.58	9.37
233.797	9.54
234.013	8.75
234.23	8.87
234.446	8.97
234.662	10
234.879	10.31
235.095	10.93
235.312	9.89
235.528	11.62
235.744	11.7
235.961	11.99
236.177	11.56
236.393	11.74
236.61	12.31
236.826	10.79
237.042	10.18
237.258	9.44
237.475	10.45
237.691	9.56
237.907	8.72
238.123	8.69
238.339	9.06
238.556	10.34
238.772	11.23
238.988	11.86
239.204	12.12
239.42	12.61
239.636	13.46
239.853	11.91
240.069	11.59
240.285	11.12
240.501	10.48
240.717	9.65
240.933	9.13
241.149	9.46
241.365	9.28
241.581	9.46
241.797	8.99
242.013	8.88
242.229	9.35
242.445	9.39
242.661	9.55
242.877	9.68
243.093	9.94
243.309	10.32
243.525	10.13
243.741	9.82
243.957	9.76
244.173	10.11
244.388	10.03
244.604	10.42
244.82	10.5
245.036	10.6
245.252	9.98
245.468	9.33
245.683	8.58
245.899	7.96
246.115	7.66
246.331	7.48
246.547	7.11
246.762	7.45
246.978	6.77
247.194	6.68
247.409	6.49
247.625	6.83
247.841	6.89
248.057	7.18
248.272	7.35
248.488	7.54
248.703	7.71
248.919	7.72
249.135	7.27
249.35	8.33
249.566	8.36
249.782	8.23
249.997	8.04
250.213	8.67
250.428	7.64
250.644	7.4
250.859	8
251.075	7.92
251.29	8.33
251.506	8.85
251.721	8.31
251.937	8.79
252.152	9.27
252.368	8.88
252.583	9.08
252.798	9.6
253.014	9.85
253.229	9.33
253.445	9.68
253.66	9.82
253.875	9.41
254.091	9.13
254.306	8.68
254.521	8.08
254.737	8.71
254.952	7.69
255.167	8.36
255.383	8.52
255.598	8.18
255.813	6.87
256.028	7
256.244	7.37
256.459	8.13
256.674	8.29
256.889	7.77
257.104	7.82
257.32	8.07
257.535	7.62
257.75	6.99
257.965	6.93
258.18	7.2
258.395	7.11
258.61	6.59
258.826	6.16
259.041	5.94
259.256	6.31
259.471	6.25
259.686	6.15
259.901	6.1
260.116	6.18
260.331	6.09
260.546	6.1
260.761	6.08
260.976	6.45
261.191	6.47
261.406	6.5
261.621	6.46
261.836	6.3
262.05	6.25
262.265	6.19
262.48	6.75
262.695	6.72
262.91	6.91
263.125	6.61
263.34	6.12
263.555	6.85
263.769	7.17
263.984	7.79
264.199	8
264.414	7.86
264.629	7.3
264.843	6.48
265.058	6.75
265.273	6.57
265.488	7.11
265.702	7.16
265.917	6.74
266.132	6.52
266.346	6.15
266.561	6.1
266.776	6.92
266.99	7.07
267.205	7.3
267.42	7.28
267.634	6.73
267.849	6.39
268.063	5.89
268.278	6.07
268.492	6.39
268.707	6.39
268.922	6.39
269.136	5.75
269.351	5.73
269.565	5.64
269.78	5.9
269.994	6.57
270.209	6.68
270.423	7.3
270.637	6.79
270.852	6.32
271.066	5.87
271.281	5.85
271.495	5.46
271.709	6.01
271.924	6.05
272.138	5.85
272.353	5.52
272.567	5.5
272.781	5.22
272.996	5.39
273.21	5.51
273.424	5.86
273.638	6.2
273.853	6.42
274.067	5.75
274.281	5.6
274.495	5.38
274.71	5.54
274.924	5.22
275.138	5.39
275.352	5.39
275.566	4.96
275.781	5
275.995	4.86
276.209	5.28
276.423	5.47
276.637	5.12
276.851	5.4
277.065	5.22
277.279	5.44
277.493	5.56
277.707	5.41
277.921	6.06
278.135	5.9
278.349	5.53
278.563	5.51
278.777	5.83
278.991	6.49
279.205	6.33
279.419	6.47
279.633	6.31
279.847	5.95
280.061	6.16
280.275	6.13
280.489	6.47
280.703	6.62
280.917	6.36
281.131	6.42
281.344	6.17
281.558	6.08
281.772	6.39
281.986	6.41
282.2	6.6
282.414	6.53
282.627	6.23
282.841	5.93
283.055	5.52
283.269	5.4
283.482	5.41
283.696	5.37
283.91	5.66
284.123	5.35
284.337	5.39
284.551	5.41
284.764	5.25
284.978	5.05
285.192	5.12
285.405	5.46
285.619	5.51
285.833	5.31
286.046	5.34
286.26	5.46
286.473	5.61
286.687	5.67
286.9	5.47
287.114	5.43
287.327	5.61
287.541	5.6
287.754	5.51
287.968	5.77
288.181	5.78
288.395	5.48
288.608	5.26
288.822	5.2
289.035	4.93
289.248	5.22
289.462	5.49
289.675	5.61
289.889	5.51
290.102	5.39
290.315	5.4
290.529	5.34
290.742	5.88
290.955	5.79
291.169	5.62
291.382	5.58
291.595	5.4
291.808	5.42
292.022	5.42
292.235	5.71
292.448	5.75
292.661	5.78
292.875	6.14
293.088	5.9
293.301	5.72
293.514	5.97
293.727	6.29
293.94	6.37
294.153	6.09
294.367	6.29
294.58	6.28
294.793	6.48
295.006	6.42
295.219	6.05
295.432	6.33
295.645	6.58
295.858	6.35
296.071	6.54
296.284	6.32
296.497	6.55
296.71	6.4
296.923	6.02
297.136	5.96
297.349	5.92
297.562	6.1
297.775	5.74
297.988	6.05
298.201	6.2
298.414	6.05
298.626	6.21
298.839	6.15
299.052	5.96
299.265	6.17
299.478	6.01
299.691	6.16
299.903	6.06
300.116	6.11
300.329	5.68
300.542	5.61
300.755	5.49
300.967	5.47
301.18	5.39
301.393	5.73
301.605	5.91
301.818	6.15
302.031	6.04
302.243	6.29
302.456	6.68
302.669	6.76
302.881	7.01
303.094	7.1
303.307	7.05
303.519	7.13
303.732	7.17
303.944	6.84
304.157	6.61
304.37	6.81
304.582	6.69
304.795	6.68
305.007	6.99
305.22	6.99
305.432	7.03
305.645	7.37
305.857	7.51
306.069	7.51
306.282	7.71
306.494	7.8
306.707	7.71
306.919	7.7
307.132	7.44
307.344	7.26
307.556	7.34
307.769	7.32
307.981	6.96
308.193	7.04
308.406	7.18
308.618	7.12
308.83	7.21
309.043	7.15
309.255	6.99
309.467	7.06
309.679	6.98
309.892	7
310.104	7.05
310.316	7.16
310.528	7.31
310.74	7.2
310.953	7.5
311.165	7.61
311.377	7.76
311.589	7.86
311.801	7.75
312.013	7.67
312.225	7.52
312.437	7.52
312.649	7.58
312.862	7.22
313.074	7.44
313.286	7.06
313.498	7.09
313.71	7.1
313.922	7.09
314.134	7.29
314.346	7.2
314.558	7.2
314.77	7.35
314.982	7.49
315.193	7.3
315.405	7.07
315.617	7.54
315.829	7.48
316.041	7.51
316.253	7.7
316.465	7.76
316.677	7.88
316.888	7.99
317.1	7.74
317.312	7.43
317.524	7.99
317.736	8
317.947	8.13
318.159	8.31
318.371	8.26
318.583	8.4
318.794	8.51
319.006	8.81
319.218	9.19
319.43	9.65
319.641	9.98
319.853	10.04
320.064	10.24
320.276	10.12
320.488	9.67
320.699	10.05
320.911	9.78
321.123	9.5
321.334	9.64
321.546	9.62
321.757	9.53
321.969	9.81
322.18	9.65
322.392	9.67
322.603	9.17
322.815	9.86
323.026	9.26
323.238	9.78
323.449	10.21
323.661	9.77
323.872	9.53
324.083	9.48
324.295	9.12
324.506	8.77
324.718	8.51
324.929	9
325.14	8.68
325.352	8.81
325.563	8.47
325.774	8.32
325.986	8.53
326.197	8.59
326.408	8.69
326.62	9.23
326.831	9.44
327.042	9.68
327.253	9.66
327.464	9.65
327.676	9.96
327.887	10.43
328.098	10.6
328.309	10.45
328.52	10.69
328.732	10.42
328.943	10.23
329.154	10.28
329.365	10.41
329.576	10.44
329.787	10.62
329.998	10.47
330.209	10.59
330.42	10.74
330.631	11.08
330.842	11.08
331.053	11.46
331.264	11.56
331.475	11.84
331.686	11.87
331.897	11.85
332.108	11.99
332.319	11.86
332.53	11.65
332.741	11.73
332.952	11.64
333.163	11.56
333.374	11.73
333.585	11.36
333.795	11.41
334.006	10.93
334.217	11.03
334.428	11.19
334.639	11.19
334.849	10.85
335.06	10.78
335.271	10.91
335.482	11.12
335.692	11.04
335.903	11.28
336.114	11.25
336.325	11.76
336.535	11.63
336.746	11.73
336.957	11.91
337.167	12.08
337.378	12.1
337.589	12.14
337.799	12
338.01	11.89
338.22	11.73
338.431	11.88
338.642	11.46
338.852	11.27
339.063	11.1
339.273	10.75
339.484	10.6
339.694	10.26
339.905	9.72
340.115	9.58
340.326	9.65
340.536	9.89
340.746	9.66
340.957	9.82
341.167	10.01
341.378	10.02
341.588	10.26
341.799	10.39
342.009	10.6
342.219	11.17
342.43	11.03
342.64	10.66
342.85	10.63
343.061	10.58
343.271	10.67
343.481	10.6
343.691	10.37
343.902	10.18
344.112	10.17
344.322	10.1
344.532	9.93
344.743	10.02
344.953	10.31
345.163	10.18
345.373	10.24
345.583	9.99
345.793	9.93
346.004	10.26
346.214	10.35
346.424	10.11
346.634	10.18
346.844	10.38
347.054	10.23
347.264	10.38
347.474	10.3
347.684	9.95
347.894	10.33
348.104	10.71
348.314	10.36
348.524	10.38
348.734	10.6
348.944	10.47
349.154	9.96
349.364	10.24
349.574	10.14
349.784	10.41
349.994	10.58
350.204	10.39
350.413	10.29
350.623	10.55
350.833	10.59
351.043	10.5
351.253	10.44
351.463	10.76
351.672	10.51
351.882	10.34
352.092	9.88
352.302	10.06
352.511	10.2
352.721	10.09
352.931	9.88
353.141	9.87
353.35	10
353.56	9.82
353.77	9.85
353.979	10.03
354.189	10.28
354.399	10.5
354.608	10.31
354.818	10.43
355.027	10.27
355.237	10.31
355.447	10.16
355.656	10.1
355.866	10.19
356.075	10.01
356.285	9.88
356.494	9.59
356.704	9.48
356.913	9.5
357.123	9.14
357.332	9.29
357.542	9.25
357.751	9.42
357.96	9.56
358.17	9.38
358.379	9.6
358.589	9.77
358.798	9.68
359.007	9.83
359.217	9.8
359.426	9.73
359.635	9.53
359.845	9.56
360.054	9.33
360.263	8.92
360.472	9.21
360.682	8.87
360.891	8.61
361.1	8.65
361.309	8.45
361.519	8.62
361.728	8.85
361.937	8.67
362.146	8.43
362.355	8.48
362.564	8.61
362.774	8.48
362.983	8.47
363.192	8.65
363.401	8.69
363.61	8.69
363.819	8.4
364.028	8.35
364.237	8.56
364.446	8.65
364.655	8.69
364.864	8.75
365.073	8.64
365.282	8.86
365.491	8.8
365.7	8.83
365.909	8.82
366.118	8.82
366.327	8.76
366.536	8.72
366.745	8.84
366.954	8.64
367.162	8.58
367.371	8.64
367.58	8.64
367.789	8.52
367.998	8.49
368.207	8.71
368.415	8.82
368.624	8.79
368.833	9.04
369.042	8.97
369.25	9.11
369.459	9.06
369.668	8.88
369.877	8.74
370.085	8.6
370.294	8.5
370.503	8.46
370.711	8.64
370.92	8.87
371.129	8.56
371.337	8.54
371.546	8.53
371.754	8.49
371.963	8.55
372.171	8.69
372.38	8.84
372.589	8.66
372.797	8.43
373.006	8.29
373.214	7.94
373.423	8.02
373.631	8.06
373.84	8.26
374.048	8.38
374.256	8.41
374.465	8.42
374.673	8.29
374.882	8.55
375.09	8.62
375.298	8.25
375.507	8.14
375.715	8.17
375.923	8.14
376.132	7.85
376.34	7.83
376.548	7.87
376.757	7.94
376.965	7.97
377.173	7.7
377.381	7.83
377.59	7.95
377.798	8.02
378.006	8.08
378.214	7.92
378.423	7.98
378.631	7.87
378.839	7.82
379.047	7.63
379.255	7.68
379.463	7.82
379.671	7.68
379.879	7.82
380.088	7.92
380.296	7.9
380.504	7.86
380.712	7.7
380.92	7.8
381.128	7.96
381.336	7.91
381.544	7.89
381.752	7.98
381.96	7.88
382.168	7.9
382.376	7.93
382.584	7.71
382.791	7.84
382.999	7.95
383.207	7.79
383.415	7.62
383.623	7.57
383.831	7.41
384.039	7.39
384.247	7.76
384.454	7.59
384.662	7.5
384.87	7.5
385.078	7.41
385.285	7.39
385.493	7.45
385.701	7.46
385.909	7.35
386.116	7.29
386.324	7.17
386.532	6.9
386.739	6.95
386.947	6.9
387.155	7.01
387.362	7.02
387.57	6.92
387.778	6.96
387.985	7.09
388.193	7.03
388.4	7.24
388.608	7.25
388.816	7.19
389.023	7.24
389.231	7.28
389.438	6.97
389.646	6.81
389.853	7
390.061	6.95
390.268	6.76
390.475	6.93
390.683	6.95
390.89	6.99
391.098	6.84
391.305	6.65
391.512	6.55
391.72	6.74
391.927	6.73
392.135	6.71
392.342	6.64
392.549	6.61
392.756	6.47
392.964	6.44
393.171	6.51
393.378	6.55
393.586	6.63
393.793	6.74
394	6.62
394.207	6.85
394.414	6.73
394.622	6.97
394.829	6.99
395.036	7.03
395.243	6.91
395.45	6.99
395.657	7.12
395.864	7.08
396.072	6.74
396.279	6.77
396.486	6.7
396.693	6.66
396.9	6.39
397.107	6.46
397.314	6.44
397.521	6.43
397.728	6.29
397.935	6.17
398.142	6.02
398.349	6.3
398.556	6.3
398.763	6.18
398.97	6.28
399.177	6.27
399.383	6.17
399.59	6.29
399.797	6.33
400.004	6.24
400.211	6.29
400.418	6.54
400.625	6.5
400.831	6.66
401.038	6.7
401.245	6.7
401.452	6.69
401.658	6.78
401.865	6.64
402.072	6.57
402.279	6.68
402.485	6.61
402.692	6.57
402.899	6.7
403.105	6.61
403.312	6.62
403.519	6.47
403.725	6.49
403.932	6.48
404.138	6.48
404.345	6.42
404.552	6.24
404.758	6.33
404.965	6.23
405.171	6.12
405.378	5.92
405.584	5.9
405.791	5.97
405.997	5.94
406.204	5.93
406.41	6.04
406.617	6.06
406.823	6.24
407.029	6.2
407.236	6.1
407.442	6.1
407.649	6.33
407.855	6.33
408.061	6.46
408.268	6.47
408.474	6.44
408.68	6.23
408.887	6.32
409.093	6.26
409.299	6.34
409.505	6.45
409.712	6.44
409.918	6.43
410.124	6.48
410.33	6.35
410.537	6.46
410.743	6.38
410.949	6.62
411.155	6.57
411.361	6.55
411.567	6.47
411.773	6.46
411.98	6.42
412.186	6.2
412.392	6.14
412.598	6.28
412.804	6.25
413.01	6.31
413.216	6.07
413.422	6.06
413.628	5.9
413.834	5.98
414.04	5.94
414.246	5.89
414.452	6.05
414.658	6
414.864	5.92
415.07	5.8
415.275	5.77
415.481	5.9
415.687	5.99
415.893	6.09
416.099	5.97
416.305	5.94
416.511	6.04
416.716	5.9
416.922	5.9
417.128	5.79
417.334	5.83
417.539	5.78
417.745	5.7
417.951	5.64
418.157	5.55
418.362	5.54
418.568	5.55
418.774	5.46
418.979	5.52
419.185	5.46
419.391	5.48
419.596	5.44
419.802	5.43
420.008	5.39
420.213	5.9
420.419	5.93
420.624	5.86
420.83	5.88
421.035	5.89
421.241	5.92
421.446	5.98
421.652	5.91
421.857	5.93
422.063	5.98
422.268	6.03
422.474	5.54
422.679	5.56
422.885	5.62
423.09	5.63
423.295	5.55
423.501	5.51
423.706	5.47
423.911	5.51
424.117	5.5
424.322	5.49
424.527	5.49
424.733	5.44
424.938	5.4
425.143	5.35
425.349	5.35
425.554	5.45
425.759	5.41
425.964	5.45
426.169	5.43
426.375	5.44
426.58	5.45
426.785	5.44
426.99	5.59
427.195	5.62
427.4	5.72
427.605	5.64
427.811	5.73
428.016	5.84
428.221	5.77
428.426	5.8
428.631	5.87
428.836	5.81
429.041	5.76
429.246	5.67
429.451	5.77
429.656	5.66
429.861	5.79
430.066	5.76
430.271	5.76
430.476	5.91
430.681	5.96
430.886	5.83
431.09	5.89
431.295	5.91
431.5	5.89
431.705	5.94
431.91	5.96
432.115	5.94
432.32	5.9
432.524	5.85
432.729	5.7
432.934	5.64
433.139	5.66
433.343	5.67
433.548	5.63
433.753	5.66
433.958	5.59
434.162	5.62
434.367	5.61
434.572	5.61
434.776	5.6
434.981	5.71
435.186	5.65
435.39	5.65
435.595	5.64
435.799	5.73
436.004	5.68
436.209	5.59
436.413	5.55
436.618	5.4
436.822	5.31
437.027	5.22
437.231	5.19
437.436	5.21
437.64	5.32
437.845	5.32
438.049	5.29
438.253	5.26
438.458	5.31
438.662	5.32
438.867	5.37
439.071	5.34
439.275	5.44
439.48	5.42
439.684	5.49
439.888	5.34
440.093	5.28
440.297	5.32
440.501	5.32
440.706	5.29
440.91	5.25
441.114	5.26
441.318	5.28
441.523	5.27
441.727	5.3
441.931	5.38
442.135	5.48
442.339	5.49
442.543	5.49
442.748	5.44
442.952	5.55
443.156	5.64
443.36	5.63
443.564	5.7
443.768	5.7
443.972	5.63
444.176	5.53
444.38	5.47
444.584	5.5
444.788	5.49
444.992	5.5
445.196	5.4
445.4	5.38
445.604	5.37
445.808	5.39
446.012	5.28
446.216	5.27
446.42	5.23
446.624	5.29
446.828	5.21
447.032	5.28
447.235	5.32
447.439	5.32
447.643	5.3
447.847	5.34
448.051	5.3
448.254	5.33
448.458	5.32
448.662	5.28
448.866	5.27
449.069	5.38
449.273	5.25
449.477	5.31
449.681	5.35
449.884	5.37
450.088	5.35
450.292	5.35
450.495	5.46
450.699	5.5
450.902	5.65
451.106	5.65
451.31	5.59
451.513	5.65
451.717	5.6
451.92	5.64
452.124	5.65
452.327	5.62
452.531	5.64
452.734	5.7
452.938	5.68
453.141	5.62
453.345	5.58
453.548	5.57
453.752	5.49
453.955	5.5
454.158	5.47
454.362	5.49
454.565	5.56
454.769	5.62
454.972	5.6
455.175	5.6
455.379	5.51
455.582	5.48
455.785	5.51
455.988	5.6
456.192	5.64
456.395	5.65
456.598	5.67
456.801	5.6
457.005	5.52
457.208	5.4
457.411	5.37
457.614	5.38
457.817	5.43
458.021	5.36
458.224	5.29
458.427	5.23
458.63	5.2
458.833	5.18
459.036	5.26
459.239	5.19
459.442	5.27
459.645	5.27
459.848	5.36
460.051	5.32
460.254	5.38
460.457	5.38
460.66	5.39
460.863	5.41
461.066	5.38
461.269	5.32
461.472	5.45
461.675	5.54
461.878	5.63
462.081	5.62
462.284	5.64
462.486	5.65
462.689	5.62
462.892	5.65
463.095	5.66
463.298	5.62
463.5	5.66
463.703	5.59
463.906	5.54
464.109	5.5
464.311	5.55
464.514	5.66
464.717	5.69
464.92	5.79
465.122	5.81
465.325	5.74
465.528	5.87
465.73	5.82
465.933	5.85
466.135	5.7
466.338	5.7
466.541	5.64
466.743	5.68
466.946	5.59
467.148	5.68
467.351	5.69
467.553	5.84
467.756	5.82
467.958	5.77
