Data from 2938713__Reflection_03.txt Node
Date: Tue Mar 17 19:16:52 EDT 2015
User: robert
Spectrometer: USB4E03002
Autoset integration time: false
Trigger mode: 4
Integration Time (sec): 1.000000E-1
Scans to average: 10
Electric dark correction enabled: false
Nonlinearity correction enabled: false
Boxcar width: 5
Stray light correction enabled: false
XAxis mode: Wavelengths
Stop averaging: false
Number of Pixels in Spectrum: 3648
>>>>>Begin Spectral Data<<<<<
177.575	-938.89
177.794	-209.3
178.014	-102.26
178.233	-241.41
178.452	-498.28
178.672	-267.31
178.891	-199.25
179.11	-146.86
179.33	-125.19
179.549	-86.72
179.768	-68.11
179.987	-42.89
180.207	-58.36
180.426	-117.52
180.645	-172.62
180.864	-980
181.084	2885.71
181.303	-642.86
181.522	162.12
181.741	50.56
181.96	29.29
182.179	31.95
182.398	27.71
182.618	34.78
182.837	44.6
183.056	46.7
183.275	64.63
183.494	55.66
183.713	70.41
183.932	94.42
184.151	125.12
184.37	169.15
184.589	223.76
184.808	247.47
185.027	157.07
185.246	169.09
185.465	135.31
185.684	101.28
185.903	83.23
186.122	220.75
186.341	9.86
186.56	-140.58
186.779	8.13
186.998	57.31
187.216	54.14
187.435	3.42
187.654	-26.1
187.873	-76.43
188.092	35.32
188.311	86.52
188.53	98.55
188.748	57.63
188.967	61.11
189.186	93.68
189.405	41.12
189.623	75.53
189.842	24.89
190.061	79.08
190.28	73.69
190.498	57.14
190.717	40.36
190.936	-64.25
191.154	42.67
191.373	17
191.592	67.88
191.81	130
192.029	137.92
192.248	120.23
192.466	103.39
192.685	96.51
192.904	68.94
193.122	67.06
193.341	95.18
193.559	104.88
193.778	119.35
193.996	95.09
194.215	77.26
194.433	56.41
194.652	91.51
194.87	86.27
195.089	104.26
195.307	152.36
195.526	156.84
195.744	120.27
195.963	96.48
196.181	94.87
196.399	38.36
196.618	24.07
196.836	27.45
197.055	-176.81
197.273	-131.17
197.491	-1600
197.71	269.7
197.928	535.63
198.146	779.07
198.365	815.38
198.583	-10100
198.801	165.1
199.019	181.82
199.238	105.88
199.456	49.21
199.674	47.22
199.892	72.23
200.111	55.63
200.329	63.5
200.547	51.73
200.765	53.17
200.983	47.64
201.202	41.14
201.42	43.7
201.638	35.09
201.856	27.01
202.074	29.45
202.292	23.31
202.51	21.59
202.728	33.28
202.946	60.76
203.165	68.84
203.383	73.8
203.601	60
203.819	51.56
204.037	53.09
204.255	55.21
204.473	43.49
204.691	26.76
204.909	22.98
205.127	25.15
205.345	-13.06
205.562	-40.8
205.78	-50.31
205.998	-66.17
206.216	-120
206.434	-190.52
206.652	22000
206.87	266.34
207.088	79.41
207.306	241.07
207.523	-101.05
207.741	5.23
207.959	-17.43
208.177	-2.26
208.395	11.24
208.612	26.24
208.83	39.44
209.048	22.3
209.266	14.66
209.483	-57.81
209.701	-11.59
209.919	-40.39
210.136	-131.18
210.354	-85.71
210.572	-30.74
210.79	-52.94
211.007	-111.88
211.225	-20.29
211.442	-67.08
211.66	-0.66
211.878	11.69
212.095	4.03
212.313	-23.51
212.53	-13.44
212.748	-17.43
212.966	-7.06
213.183	-13.94
213.401	-2.94
213.618	1.35
213.836	9.56
214.053	-5.18
214.271	0.96
214.488	-5.76
214.705	19.91
214.923	29
215.14	37.43
215.358	31.78
215.575	40.46
215.793	42.17
216.01	9.29
216.227	27.24
216.445	36.24
216.662	31.57
216.879	41.91
217.097	26.44
217.314	17.18
217.531	10.4
217.749	7.83
217.966	5.04
218.183	20.93
218.4	38.14
218.618	22.79
218.835	13.37
219.052	17.54
219.269	9.75
219.487	18.56
219.704	14.23
219.921	19.63
220.138	19.52
220.355	25.17
220.572	4.91
220.79	8.56
221.007	13.69
221.224	7.94
221.441	6.55
221.658	11.9
221.875	6.04
222.092	3.25
222.309	-2.07
222.526	5.68
222.743	6.01
222.96	5.44
223.177	-1.24
223.394	-10.47
223.611	-8.12
223.828	-4.95
224.045	-7.59
224.262	-4.19
224.479	4.01
224.696	-3.58
224.913	-12.22
225.13	-12.73
225.347	-1.86
225.564	-2.66
225.781	-2.18
225.997	1.43
226.214	1.76
226.431	1.59
226.648	3.27
226.865	1.4
227.082	2.77
227.298	6.38
227.515	5.61
227.732	4.63
227.949	5.46
228.165	6.03
228.382	5.34
228.599	4.79
228.816	4.75
229.032	4.31
229.249	4.49
229.466	5.23
229.682	3.85
229.899	3.69
230.116	3.83
230.332	4.13
230.549	3.67
230.765	3.88
230.982	4.54
231.199	4.25
231.415	4.22
231.632	2.69
231.848	2.39
232.065	2.88
232.281	2.29
232.498	3.01
232.714	2.85
232.931	4.21
233.147	3.77
233.364	3.87
233.58	4.91
233.797	4.25
234.013	4.83
234.23	3.75
234.446	3.85
234.662	3.05
234.879	0.24
235.095	0.15
235.312	-1.02
235.528	0.34
235.744	-1.37
235.961	-1.6
236.177	0.21
236.393	0.92
236.61	1.72
236.826	0.95
237.042	-0.01
237.258	0.93
237.475	1.39
237.691	1.44
237.907	-0.26
238.123	1.18
238.339	0.74
238.556	-0.87
238.772	-2.35
238.988	-0.9
239.204	0.2
239.42	3.74
239.636	3.56
239.853	2.91
240.069	2.54
240.285	3.03
240.501	3.11
240.717	2.93
240.933	3.15
241.149	4.57
241.365	3.95
241.581	3.29
241.797	2.92
242.013	3.05
242.229	3.36
242.445	3.84
242.661	3.6
242.877	3.04
243.093	3.3
243.309	2.78
243.525	2.45
243.741	2.46
243.957	2.56
244.173	2.49
244.388	1.99
244.604	1.35
244.82	0.57
245.036	0.89
245.252	2.14
245.468	2.66
245.683	2.96
245.899	2.96
246.115	3.3
246.331	4.08
246.547	4.02
246.762	4.31
246.978	4.56
247.194	4.91
247.409	4.99
247.625	4.86
247.841	4.73
248.057	5.11
248.272	5.18
248.488	4.86
248.703	4.41
248.919	4.89
249.135	5.03
249.35	5.22
249.566	5.58
249.782	5.05
249.997	5.16
250.213	4.48
250.428	4.17
250.644	3.96
250.859	4.42
251.075	5.53
251.29	4.55
251.506	3.54
251.721	2.74
251.937	1.9
252.152	2.66
252.368	2.34
252.583	2.86
252.798	2.46
253.014	2.69
253.229	2.77
253.445	1.56
253.66	1.8
253.875	1.97
254.091	1.85
254.306	1.29
254.521	1
254.737	1.41
254.952	1.51
255.167	1.55
255.383	0.97
255.598	0.13
255.813	0.8
256.028	0.2
256.244	0.67
256.459	1.44
256.674	1.75
256.889	1.39
257.104	1.5
257.32	1.53
257.535	1.87
257.75	2.28
257.965	3.1
258.18	3.43
258.395	3.37
258.61	3.74
258.826	3.48
259.041	3.63
259.256	3.68
259.471	3.65
259.686	3.67
259.901	3.58
260.116	3.73
260.331	3.45
260.546	2.9
260.761	2.64
260.976	2.27
261.191	2.32
261.406	2.49
261.621	2.3
261.836	2.07
262.05	1.92
262.265	1.66
262.48	0.93
262.695	0.8
262.91	0.95
263.125	1.76
263.34	1.89
263.555	1.93
263.769	1.19
263.984	2.05
264.199	1.93
264.414	1.91
264.629	2.41
264.843	2.46
265.058	2.51
265.273	3.32
265.488	3.19
265.702	3.8
265.917	3.29
266.132	3.49
266.346	3.09
266.561	2.88
266.776	2.9
266.99	3.14
267.205	3.34
267.42	3.5
267.634	2.96
267.849	2.83
268.063	2.41
268.278	2.38
268.492	2.33
268.707	2.43
268.922	2.89
269.136	2.9
269.351	2.93
269.565	2.85
269.78	2.55
269.994	2.66
270.209	2.94
270.423	2.54
270.637	2.39
270.852	2.61
271.066	2.64
271.281	2.53
271.495	2.55
271.709	2.16
271.924	2.24
272.138	2.38
272.353	2.42
272.567	2.2
272.781	2.79
272.996	3.06
273.21	3.05
273.424	2.8
273.638	2.62
273.853	2.76
274.067	2.87
274.281	2.45
274.495	2.18
274.71	2.2
274.924	2.32
275.138	2.14
275.352	2.02
275.566	1.57
275.781	1.96
275.995	2.03
276.209	1.65
276.423	1.36
276.637	1.84
276.851	1.76
277.065	1.71
277.279	1.38
277.493	1.44
277.707	1.75
277.921	1.95
278.135	1.85
278.349	1.75
278.563	1.92
278.777	1.77
278.991	1.44
279.205	1.76
279.419	1.63
279.633	1.86
279.847	1.6
280.061	1.14
280.275	1.15
280.489	1.1
280.703	1.17
280.917	1.29
281.131	1.74
281.344	1.99
281.558	1.63
281.772	2.13
281.986	2.04
282.2	2
282.414	1.86
282.627	1.87
282.841	2.02
283.055	1.87
283.269	2
283.482	2.03
283.696	2.12
283.91	2.35
284.123	1.71
284.337	2.08
284.551	2.3
284.764	3.09
284.978	2.95
285.192	2.52
285.405	2.53
285.619	2.38
285.833	2.2
286.046	2.43
286.26	2.7
286.473	2.92
286.687	2.7
286.9	2.45
287.114	2.16
287.327	2.56
287.541	2.74
287.754	2.87
287.968	2.85
288.181	2.95
288.395	2.28
288.608	2.24
288.822	2.42
289.035	2.71
289.248	3.04
289.462	2.84
289.675	2.76
289.889	2.91
290.102	3.04
290.315	2.99
290.529	2.98
290.742	3.33
290.955	3.23
291.169	3.05
291.382	3.03
291.595	2.87
291.808	2.75
292.022	2.21
292.235	1.83
292.448	1.96
292.661	2
292.875	1.76
293.088	2.07
293.301	1.91
293.514	1.97
293.727	2.08
293.94	2.66
294.153	2.87
294.367	3.39
294.58	3.85
294.793	3.75
295.006	3.8
295.219	4.02
295.432	3.88
295.645	4.19
295.858	4.49
296.071	4.33
296.284	4.23
296.497	4.49
296.71	4.43
296.923	4.56
297.136	4.68
297.349	4.99
297.562	5.34
297.775	5.33
297.988	5.42
298.201	5.34
298.414	5.4
298.626	5.5
298.839	5.63
299.052	5.88
299.265	5.92
299.478	6.12
299.691	6.15
299.903	6.11
300.116	6.44
300.329	6.54
300.542	6.79
300.755	7.02
300.967	6.78
301.18	6.81
301.393	6.53
301.605	6.55
301.818	6.41
302.031	6.32
302.243	6.75
302.456	6.63
302.669	6.83
302.881	6.86
303.094	6.93
303.307	7.1
303.519	7.15
303.732	7.63
303.944	7.67
304.157	7.47
304.37	7.67
304.582	7.21
304.795	7.31
305.007	6.95
305.22	6.76
305.432	6.5
305.645	6.86
305.857	6.91
306.069	6.96
306.282	6.72
306.494	7.1
306.707	6.93
306.919	6.97
307.132	6.93
307.344	7.24
307.556	7.67
307.769	8.27
307.981	8.34
308.193	8.42
308.406	8.23
308.618	8.34
308.83	8.26
309.043	8.52
309.255	8.54
309.467	8.65
309.679	8.65
309.892	8.59
310.104	8.3
310.316	7.99
310.528	7.97
310.74	8.03
310.953	8.32
311.165	8.48
311.377	8.34
311.589	8.75
311.801	8.94
312.013	8.53
312.225	8.47
312.437	8.45
312.649	8.56
312.862	8.52
313.074	8.55
313.286	8.03
313.498	8.17
313.71	8.21
313.922	7.78
314.134	7.31
314.346	7.75
314.558	7.88
314.77	7.89
314.982	7.94
315.193	8.09
315.405	8.28
315.617	8.72
315.829	8.61
316.041	8.58
316.253	8.69
316.465	8.88
316.677	9.2
316.888	9.14
317.1	9.1
317.312	9.6
317.524	9.5
317.736	9.6
317.947	9.7
318.159	9.54
318.371	9.35
318.583	9.39
318.794	9.52
319.006	9.37
319.218	9.1
319.43	9.15
319.641	8.91
319.853	9.01
320.064	8.91
320.276	8.62
320.488	9.32
320.699	9.43
320.911	9.2
321.123	8.95
321.334	8.82
321.546	9.6
321.757	10.23
321.969	10.29
322.18	10.14
322.392	10.26
322.603	10.46
322.815	10.05
323.026	10.26
323.238	10.54
323.449	10.26
323.661	10.7
323.872	10.06
324.083	9.75
324.295	9.3
324.506	9.38
324.718	9.15
324.929	9.24
325.14	9.17
325.352	9.08
325.563	9.12
325.774	9.16
325.986	9.03
326.197	9.29
326.408	8.93
326.62	9.16
326.831	9.55
327.042	9.84
327.253	9.79
327.464	10.03
327.676	10.04
327.887	10.1
328.098	10.31
328.309	10.26
328.52	10.55
328.732	11.09
328.943	11.14
329.154	11.25
329.365	11.41
329.576	11.75
329.787	11.55
329.998	11.46
330.209	11.59
330.42	11.7
330.631	11.66
330.842	11.66
331.053	11.38
331.264	11.61
331.475	11.48
331.686	11.34
331.897	11.36
332.108	11.52
332.319	12.13
332.53	11.76
332.741	11.58
332.952	11.53
333.163	11.41
333.374	11.69
333.585	11.56
333.795	11
334.006	10.76
334.217	10.45
334.428	10.1
334.639	10.04
334.849	10.32
335.06	10.67
335.271	10.81
335.482	10.64
335.692	10.88
335.903	11.19
336.114	11.64
336.325	11.65
336.535	11.6
336.746	11.93
336.957	12.03
337.167	12.22
337.378	12.06
337.589	11.83
337.799	11.94
338.01	11.66
338.22	11.51
338.431	11.83
338.642	11.86
338.852	11.93
339.063	11.94
339.273	11.68
339.484	11.47
339.694	11.89
339.905	12.37
340.115	12.45
340.326	12.31
340.536	12.36
340.746	12.11
340.957	12.58
341.167	12.98
341.378	12.9
341.588	12.69
341.799	12.78
342.009	12.17
342.219	11.84
342.43	11.82
342.64	11.87
342.85	11.73
343.061	11.5
343.271	11.16
343.481	11.09
343.691	11.18
343.902	11.33
344.112	11.26
344.322	11.91
344.532	12.11
344.743	12.13
344.953	12.31
345.163	12.5
345.373	12.65
345.583	12.78
345.793	12.47
346.004	12.52
346.214	12.6
346.424	12.61
346.634	12.13
346.844	12.1
347.054	12.12
347.264	12.09
347.474	11.86
347.684	11.8
347.894	11.66
348.104	11.88
348.314	11.8
348.524	12.07
348.734	12.05
348.944	12.41
349.154	12.5
349.364	12.5
349.574	12.45
349.784	12.32
349.994	12.57
350.204	12.68
350.413	12.64
350.623	12.55
350.833	12.24
351.043	12.11
351.253	11.82
351.463	11.49
351.672	11.27
351.882	11.14
352.092	11.11
352.302	10.99
352.511	10.91
352.721	11.01
352.931	11.08
353.141	11.38
353.35	11.58
353.56	11.58
353.77	11.85
353.979	12.02
354.189	12.03
354.399	12.06
354.608	11.81
354.818	11.87
355.027	11.65
355.237	11.69
355.447	11.48
355.656	11.4
355.866	11.55
356.075	11.49
356.285	11.32
356.494	11.39
356.704	11.42
356.913	11.44
357.123	10.92
357.332	10.97
357.542	10.9
357.751	10.82
357.96	10.57
358.17	10.59
358.379	10.46
358.589	10.8
358.798	10.78
359.007	10.72
359.217	10.71
359.426	11.19
359.635	10.97
359.845	10.86
360.054	10.79
360.263	10.86
360.472	11.15
360.682	11.25
360.891	11.18
361.1	11.14
361.309	11.19
361.519	11.38
361.728	11.24
361.937	11.41
362.146	11.31
362.355	11.42
362.564	11.46
362.774	11.24
362.983	11.17
363.192	10.94
363.401	10.93
363.61	10.75
363.819	10.49
364.028	10.41
364.237	10.39
364.446	10.61
364.655	10.63
364.864	10.76
365.073	10.62
365.282	10.4
365.491	10.4
365.7	10.23
365.909	10.21
366.118	10.27
366.327	10.15
366.536	10.2
366.745	10.1
366.954	9.79
367.162	9.43
367.371	9.5
367.58	9.48
367.789	9.42
367.998	9.42
368.207	9.57
368.415	9.38
368.624	9.48
368.833	9.31
369.042	9.08
369.25	9.24
369.459	9.49
369.668	9.34
369.877	9.42
370.085	9.35
370.294	9.54
370.503	9.51
370.711	9.5
370.92	9.65
371.129	9.7
371.337	9.73
371.546	9.58
371.754	9.37
371.963	9.27
372.171	9.33
372.38	9.22
372.589	9.1
372.797	8.8
373.006	8.84
373.214	8.68
373.423	8.52
373.631	8.41
373.84	8.42
374.048	8.45
374.256	8.4
374.465	8.08
374.673	8.46
374.882	8.42
375.09	8.57
375.298	8.29
375.507	8.24
375.715	8.21
375.923	8.22
376.132	8.24
376.34	8.26
376.548	8.08
376.757	7.99
376.965	7.7
377.173	7.55
377.381	7.54
377.59	7.52
377.798	7.36
378.006	7.2
378.214	7.22
378.423	6.96
378.631	6.71
378.839	6.63
379.047	6.88
379.255	6.77
379.463	6.75
379.671	6.76
379.879	6.85
380.088	6.87
380.296	7.09
380.504	7.13
380.712	7.24
380.92	7.26
381.128	7.44
381.336	7.36
381.544	7.37
381.752	7.27
381.96	7.1
382.168	7.1
382.376	7.28
382.584	7.07
382.791	7.11
382.999	6.98
383.207	7.01
383.415	6.8
383.623	6.72
383.831	6.72
384.039	6.84
384.247	7.09
384.454	6.92
384.662	6.65
384.87	6.67
385.078	6.45
385.285	6.52
385.493	6.5
385.701	6.53
385.909	6.34
386.116	6.25
386.324	6.06
386.532	5.65
386.739	5.76
386.947	5.99
387.155	5.92
387.362	5.82
387.57	5.79
387.778	5.87
387.985	5.83
388.193	6.06
388.4	6.06
388.608	6.19
388.816	6.08
389.023	5.91
389.231	5.64
389.438	5.64
389.646	5.87
389.853	5.6
390.061	5.54
390.268	5.66
390.475	5.4
390.683	5.37
390.89	5.33
391.098	5.49
391.305	5.52
391.512	5.57
391.72	5.44
391.927	5.26
392.135	5.37
392.342	5.28
392.549	5.13
392.756	5.17
392.964	5.01
393.171	4.88
393.378	4.92
393.586	4.8
393.793	4.89
394	4.93
394.207	5.04
394.414	5.21
394.622	5.08
394.829	5.16
395.036	5.17
395.243	5.2
395.45	5.2
395.657	5.13
395.864	5.34
396.072	5.2
396.279	5.22
396.486	4.97
396.693	4.77
396.9	4.81
397.107	4.63
397.314	4.65
397.521	4.83
397.728	4.7
397.935	4.74
398.142	4.43
398.349	4.34
398.556	4.24
398.763	4.31
398.97	4.44
399.177	4.51
399.383	4.4
399.59	4.27
399.797	4.34
400.004	4.51
400.211	4.58
400.418	4.73
400.625	4.86
400.831	5.15
401.038	5.08
401.245	4.96
401.452	4.89
401.658	5.09
401.865	5.15
402.072	5.05
402.279	5.13
402.485	4.88
402.692	4.94
402.899	4.82
403.105	4.6
403.312	4.66
403.519	4.59
403.725	4.59
403.932	4.72
404.138	4.76
404.345	4.6
404.552	4.54
404.758	4.63
404.965	4.65
405.171	4.61
405.378	4.58
405.584	4.59
405.791	4.58
405.997	4.62
406.204	4.49
406.41	4.54
406.617	4.58
406.823	4.46
407.029	4.42
407.236	4.36
407.442	4.41
407.649	4.47
407.855	4.37
408.061	4.44
408.268	4.42
408.474	4.46
408.68	4.47
408.887	4.49
409.093	4.45
409.299	4.59
409.505	4.57
409.712	4.52
409.918	4.39
410.124	4.5
410.33	4.47
410.537	4.44
410.743	4.36
410.949	4.19
411.155	4.2
411.361	4.35
411.567	4.23
411.773	4.18
411.98	4.15
412.186	4.19
412.392	4.02
412.598	3.96
412.804	4.05
413.01	4.08
413.216	4.06
413.422	4.07
413.628	4.07
413.834	3.91
414.04	3.99
414.246	3.97
414.452	4.1
414.658	4.19
414.864	4.27
415.07	4.07
415.275	4.17
415.481	4.21
415.687	4.14
415.893	4.02
416.099	4.1
416.305	4.05
416.511	4.08
416.716	3.95
416.922	4.03
417.128	4.01
417.334	4.05
417.539	3.98
417.745	4.07
417.951	4.09
418.157	4.12
418.362	4.11
418.568	4.12
418.774	4.12
418.979	4.1
419.185	4.08
419.391	4.1
419.596	4.05
419.802	3.99
420.008	3.99
420.213	3.85
420.419	3.85
420.624	3.88
420.83	3.9
421.035	3.9
421.241	3.93
421.446	3.96
421.652	3.96
421.857	4.01
422.063	4.05
422.268	3.98
422.474	4.11
422.679	4.1
422.885	4.07
423.09	4
423.295	4.01
423.501	4.04
423.706	3.99
423.911	3.91
424.117	3.9
424.322	3.94
424.527	3.96
424.733	3.9
424.938	3.88
425.143	3.91
425.349	3.98
425.554	3.97
425.759	3.95
425.964	3.96
426.169	4.04
426.375	4.07
426.58	4.08
426.785	4.02
426.99	4.01
427.195	3.98
427.4	3.92
427.605	3.82
427.811	3.8
428.016	3.69
428.221	3.58
428.426	3.42
428.631	3.25
428.836	3.07
429.041	3.04
429.246	3.1
429.451	3.13
429.656	3.16
429.861	3.12
430.066	3.06
430.271	3.22
430.476	3.29
430.681	3.45
430.886	3.55
431.09	3.67
431.295	3.8
431.5	3.8
431.705	3.83
431.91	3.71
432.115	3.79
432.32	3.88
432.524	3.82
432.729	3.76
432.934	3.7
433.139	3.66
433.343	3.59
433.548	3.57
433.753	3.6
433.958	3.57
434.162	3.68
434.367	3.76
434.572	3.67
434.776	3.71
434.981	3.74
435.186	3.81
435.39	3.88
435.595	3.95
435.799	3.89
436.004	3.93
436.209	3.91
436.413	3.8
436.618	3.68
436.822	3.8
437.027	3.75
437.231	3.72
437.436	3.68
437.64	3.73
437.845	3.68
438.049	3.75
438.253	3.62
438.458	3.72
438.662	3.82
438.867	3.92
439.071	3.89
439.275	3.95
439.48	3.97
439.684	3.93
439.888	3.89
440.093	3.85
440.297	3.78
440.501	3.88
440.706	3.85
440.91	3.83
441.114	3.76
441.318	3.74
441.523	3.72
441.727	3.76
441.931	3.85
442.135	3.81
442.339	3.83
442.543	3.82
442.748	3.78
442.952	3.81
443.156	3.76
443.36	3.78
443.564	3.76
443.768	3.65
443.972	3.6
444.176	3.52
444.38	3.56
444.584	3.58
444.788	3.69
444.992	3.68
445.196	3.67
445.4	3.73
445.604	3.72
445.808	3.72
446.012	3.83
446.216	3.85
446.42	3.85
446.624	3.82
446.828	3.76
447.032	3.7
447.235	3.63
447.439	3.58
447.643	3.51
447.847	3.46
448.051	3.43
448.254	3.37
448.458	3.29
448.662	3.33
448.866	3.34
449.069	3.41
449.273	3.33
449.477	3.38
449.681	3.35
449.884	3.42
450.088	3.47
450.292	3.46
450.495	3.35
450.699	3.36
450.902	3.27
451.106	3.31
451.31	3.27
451.513	3.38
451.717	3.44
451.92	3.47
452.124	3.46
452.327	3.48
452.531	3.51
452.734	3.58
452.938	3.63
453.141	3.58
453.345	3.57
453.548	3.64
453.752	3.54
453.955	3.52
454.158	3.47
454.362	3.44
454.565	3.38
454.769	3.49
454.972	3.47
455.175	3.42
455.379	3.38
455.582	3.39
455.785	3.33
455.988	3.29
456.192	3.3
456.395	3.32
456.598	3.26
456.801	3.36
457.005	3.33
457.208	3.31
457.411	3.25
457.614	3.36
457.817	3.26
458.021	3.21
458.224	3.25
458.427	3.26
458.63	3.34
458.833	3.36
459.036	3.31
459.239	3.24
459.442	3.32
459.645	3.38
459.848	3.38
460.051	3.42
460.254	3.42
460.457	3.44
460.66	3.47
460.863	3.44
461.066	3.43
461.269	3.45
461.472	3.52
461.675	3.48
461.878	3.49
462.081	3.41
462.284	3.41
462.486	3.5
462.689	3.6
462.892	3.55
463.095	3.55
463.298	3.64
463.5	3.56
463.703	3.32
463.906	3.34
464.109	3.33
464.311	3.46
464.514	3.46
464.717	3.56
464.92	3.45
465.122	3.46
465.325	3.51
465.528	3.53
465.73	3.62
465.933	3.78
466.135	3.75
466.338	3.8
466.541	3.83
466.743	3.8
466.946	3.68
467.148	3.74
467.351	3.66
467.553	3.66
467.756	3.6
467.958	3.6
468.161	3.61
468.363	3.64
468.566	3.54
468.768	3.52
468.971	3.6
