Data from 2938829__Reflection_04.txt Node
Date: Thu Mar 12 13:12:50 EDT 2015
User: robert
Spectrometer: USB4E03002
Autoset integration time: false
Trigger mode: 4
Integration Time (sec): 1.000000E-1
Scans to average: 10
Electric dark correction enabled: false
Nonlinearity correction enabled: false
Boxcar width: 5
Stray light correction enabled: false
XAxis mode: Wavelengths
Stop averaging: false
Number of Pixels in Spectrum: 3648
>>>>>Begin Spectral Data<<<<<
177.575	-193.38
177.794	-561.33
178.014	-1469.77
178.233	-611.3
178.452	-401.34
178.672	-468.35
178.891	-687.7
179.11	-1154.88
179.33	1908.33
179.549	-1197.06
179.768	-952.38
179.987	992.37
180.207	600.98
180.426	755.09
180.645	568.66
180.864	329.96
181.084	247.8
181.303	276.64
181.522	218.4
181.741	253.98
181.96	228.35
182.179	207.96
182.398	206.74
182.618	236.14
182.837	237.41
183.056	243.6
183.275	389.3
183.494	638.57
183.713	367.07
183.932	1107.23
184.151	-702.97
184.37	-756.94
184.589	-226.47
184.808	-234.5
185.027	-1324.39
185.246	626.51
185.465	468.1
185.684	290.06
185.903	298.24
186.122	297.42
186.341	204.81
186.56	140.21
186.779	183.63
186.998	175.87
187.216	186.06
187.435	203.72
187.654	220.95
187.873	181.72
188.092	188.08
188.311	189.92
188.53	188.3
188.748	202.72
188.967	236.72
189.186	193.87
189.405	231.16
189.623	261.74
189.842	208.32
190.061	203.38
190.28	182.76
190.498	142.75
190.717	136.92
190.936	167.18
191.154	177.51
191.373	214.25
191.592	182.68
191.81	161.18
192.029	136.29
192.248	186.61
192.466	228.85
192.685	531.45
192.904	-1356.41
193.122	-3994.12
193.341	1162.22
193.559	746.32
193.778	4630.77
193.996	-463.03
194.215	-295.65
194.433	-142.18
194.652	-181.46
194.87	-350.21
195.089	-286.12
195.307	-253.89
195.526	-186.85
195.744	-220.45
195.963	-209.91
196.181	-259.64
196.399	-343.48
196.618	-666.1
196.836	-799.31
197.055	-613.07
197.273	-333.14
197.491	-526.34
197.71	-792.16
197.928	-668.79
198.146	-900.96
198.365	-850.89
198.583	-10088.89
198.801	1865.71
199.019	620
199.238	251.83
199.456	169.49
199.674	105.86
199.892	126.83
200.111	156.91
200.329	101.44
200.547	124.7
200.765	100.54
200.983	120.51
201.202	118.55
201.42	248.69
201.638	531.9
201.856	695.86
202.074	449.41
202.292	483.47
202.51	303.38
202.728	554.76
202.946	551.27
203.165	583.6
203.383	517.46
203.601	433.83
203.819	205.19
204.037	191.71
204.255	155.03
204.473	151.44
204.691	158.23
204.909	157.89
205.127	161.61
205.345	240.26
205.562	244.2
205.78	387.85
205.998	319.05
206.216	700.92
206.434	555.15
206.652	-536.27
206.87	-524.79
207.088	-285.09
207.306	-362.42
207.523	-771
207.741	-1672.73
207.959	1075
208.177	260.36
208.395	168.57
208.612	201.05
208.83	245.21
209.048	164.5
209.266	175.14
209.483	145.12
209.701	114.71
209.919	101.06
210.136	105.78
210.354	109.93
210.572	138.96
210.79	169.56
211.007	134.24
211.225	133.65
211.442	115.85
211.66	99.52
211.878	119.03
212.095	146.19
212.313	146.72
212.53	145.74
212.748	130.23
212.966	143.35
213.183	144.41
213.401	160.57
213.618	141.16
213.836	185.46
214.053	206.13
214.271	253.52
214.488	286.05
214.705	244.08
214.923	223.19
215.14	288.89
215.358	156.22
215.575	141.65
215.793	117.64
216.01	125.5
216.227	108.42
216.445	99.42
216.662	75.78
216.879	75.34
217.097	75.71
217.314	78
217.531	90.1
217.749	89.83
217.966	90.91
218.183	86.14
218.4	78.6
218.618	62.13
218.835	60.07
219.052	74.66
219.269	66.93
219.487	61.81
219.704	56.29
219.921	47.56
220.138	57.31
220.355	49
220.572	59.53
220.79	46.81
221.007	48.46
221.224	49.83
221.441	37.09
221.658	41.16
221.875	47.05
222.092	46.65
222.309	40.65
222.526	39.73
222.743	42.14
222.96	35.43
223.177	35.69
223.394	36.36
223.611	38.76
223.828	38.01
224.045	37.13
224.262	33.64
224.479	32.9
224.696	37.65
224.913	35.2
225.13	35.08
225.347	31.62
225.564	32.27
225.781	30.39
225.997	28.97
226.214	29.64
226.431	23.12
226.648	20.33
226.865	17.92
227.082	14
227.298	12.47
227.515	10.21
227.732	9.48
227.949	7.33
228.165	7.22
228.382	5.83
228.599	4.05
228.816	5.32
229.032	4.97
229.249	4.23
229.466	4.72
229.682	4.26
229.899	4.41
230.116	4.7
230.332	5.39
230.549	5.16
230.765	5.71
230.982	6.69
231.199	6.47
231.415	8.65
231.632	9.02
231.848	7.41
232.065	9.1
232.281	10.66
232.498	9.12
232.714	9.84
232.931	9.73
233.147	9.67
233.364	9.86
233.58	8.94
233.797	6.55
234.013	7.34
234.23	8.56
234.446	6.84
234.662	4.03
234.879	4.41
235.095	4.55
235.312	5.54
235.528	4.88
235.744	4.5
235.961	4.52
236.177	5.27
236.393	6.29
236.61	8.75
236.826	8.47
237.042	10.64
237.258	12.21
237.475	12.98
237.691	11.53
237.907	10.47
238.123	9.7
238.339	9.46
238.556	9.11
238.772	7.5
238.988	4.78
239.204	5.62
239.42	4.56
239.636	3.3
239.853	2.31
240.069	2.96
240.285	2.45
240.501	2.87
240.717	4.12
240.933	4.21
241.149	4.3
241.365	3.63
241.581	3.68
241.797	3.49
242.013	3.32
242.229	3.47
242.445	3.85
242.661	3.87
242.877	4.36
243.093	4.03
243.309	3.95
243.525	3.5
243.741	4.25
243.957	4.73
244.173	5.23
244.388	5.26
244.604	5.29
244.82	4.73
245.036	5.62
245.252	4.65
245.468	4.47
245.683	4.49
245.899	4.39
246.115	4.24
246.331	3.81
246.547	3.28
246.762	3.38
246.978	3.21
247.194	3.17
247.409	2.96
247.625	3.09
247.841	2.96
248.057	2.63
248.272	3
248.488	3.29
248.703	3.43
248.919	4.03
249.135	3.99
249.35	3.92
249.566	3.93
249.782	3.79
249.997	4.21
250.213	4.52
250.428	5.51
250.644	5.11
250.859	4.58
251.075	4.75
251.29	3.65
251.506	4.54
251.721	5.08
251.937	5.25
252.152	6.4
252.368	5.71
252.583	5.93
252.798	5.29
253.014	5.26
253.229	5.46
253.445	4.91
253.66	5.66
253.875	5.77
254.091	5.76
254.306	5.78
254.521	4.81
254.737	5.44
254.952	5.13
255.167	5.6
255.383	5.95
255.598	5.68
255.813	6.03
256.028	6.56
256.244	6.52
256.459	5.91
256.674	5.71
256.889	5.46
257.104	4.87
257.32	4.63
257.535	4.2
257.75	4.32
257.965	3.62
258.18	3.64
258.395	3.09
258.61	3.12
258.826	3.14
259.041	3.24
259.256	2.93
259.471	2.7
259.686	2.6
259.901	2.78
260.116	2.38
260.331	2.74
260.546	2.48
260.761	2.28
260.976	2.17
261.191	2.12
261.406	2.14
261.621	2.43
261.836	2.76
262.05	3.05
262.265	3.05
262.48	3.52
262.695	3.69
262.91	4.51
263.125	5.03
263.34	4.94
263.555	5.24
263.769	4.98
263.984	4.49
264.199	4.42
264.414	4.09
264.629	4.54
264.843	4.29
265.058	3.49
265.273	3.27
265.488	3.24
265.702	2.97
265.917	3.05
266.132	3.38
266.346	3.81
266.561	3.94
266.776	3.94
266.99	3.25
267.205	3.7
267.42	4.07
267.634	3.75
267.849	3.94
268.063	3.87
268.278	3.61
268.492	3.53
268.707	3.14
268.922	2.83
269.136	2.75
269.351	3.19
269.565	2.37
269.78	2.16
269.994	2.34
270.209	2.27
270.423	2.48
270.637	2.77
270.852	2.55
271.066	2.84
271.281	3.44
271.495	3.11
271.709	2.67
271.924	2.93
272.138	2.68
272.353	2.55
272.567	2.32
272.781	2.3
272.996	1.99
273.21	2.06
273.424	2.01
273.638	1.71
273.853	1.97
274.067	1.7
274.281	1.93
274.495	2.7
274.71	3.06
274.924	3.2
275.138	3.21
275.352	3.03
275.566	3.36
275.781	3.44
275.995	3.26
276.209	3.61
276.423	4.46
276.637	3.83
276.851	2.8
277.065	2.24
277.279	2.27
277.493	1.92
277.707	2.32
277.921	1.95
278.135	1.75
278.349	1.55
278.563	1.7
278.777	1.32
278.991	1.59
279.205	2.31
279.419	2.32
279.633	2.15
279.847	2.1
280.061	2.37
280.275	2.25
280.489	2.03
280.703	1.84
280.917	1.38
281.131	1.5
281.344	2.2
281.558	1.73
281.772	1.85
281.986	2.15
282.2	2.25
282.414	1.99
282.627	2.08
282.841	2.38
283.055	2.86
283.269	3.36
283.482	3.55
283.696	2.92
283.91	3.12
284.123	3.26
284.337	2.93
284.551	3.21
284.764	3.18
284.978	3.27
285.192	3.06
285.405	2.8
285.619	2.56
285.833	2.29
286.046	2.34
286.26	2.3
286.473	2.4
286.687	2.56
286.9	2.18
287.114	2.14
287.327	1.89
287.541	2.11
287.754	2.36
287.968	2.3
288.181	2.67
288.395	2.82
288.608	3.01
288.822	2.92
289.035	2.96
289.248	3.34
289.462	3.4
289.675	3.53
289.889	3.45
290.102	3.39
290.315	3.56
290.529	3.38
290.742	3.42
290.955	3.46
291.169	3.33
291.382	3.32
291.595	3.53
291.808	3.41
292.022	3.49
292.235	3.64
292.448	3.92
292.661	4.22
292.875	4.19
293.088	4.15
293.301	4.15
293.514	4.39
293.727	4.4
293.94	3.91
294.153	3.99
294.367	3.76
294.58	3.77
294.793	3.6
295.006	3.1
295.219	3.16
295.432	3.32
295.645	3.28
295.858	2.91
296.071	2.93
296.284	3.1
296.497	2.9
296.71	3
296.923	2.81
297.136	2.78
297.349	2.87
297.562	2.59
297.775	2.58
297.988	2.47
298.201	2.66
298.414	2.72
298.626	2.69
298.839	3.03
299.052	3.31
299.265	3.58
299.478	3.57
299.691	3.7
299.903	4.43
300.116	4.48
300.329	4.66
300.542	4.81
300.755	5.01
300.967	4.93
301.18	4.73
301.393	4.46
301.605	4.66
301.818	4.71
302.031	4.77
302.243	4.37
302.456	4.22
302.669	3.89
302.881	3.76
303.094	3.25
303.307	3.14
303.519	3.63
303.732	3.69
303.944	3.31
304.157	3.28
304.37	3.1
304.582	3.33
304.795	3.5
305.007	3.6
305.22	4.06
305.432	4.45
305.645	5.19
305.857	5.1
306.069	5.44
306.282	5.4
306.494	5.63
306.707	5.63
306.919	5.31
307.132	5.46
307.344	6.2
307.556	5.89
307.769	5.9
307.981	5.59
308.193	5.6
308.406	5.59
308.618	5.75
308.83	5.69
309.043	6.2
309.255	6.24
309.467	6.13
309.679	5.94
309.892	5.74
310.104	5.8
310.316	5.54
310.528	5.19
310.74	4.98
310.953	5.04
311.165	5.02
311.377	4.87
311.589	5.02
311.801	4.8
312.013	4.76
312.225	4.95
312.437	5
312.649	5.17
312.862	5.48
313.074	5.83
313.286	5.62
313.498	5.44
313.71	5.11
313.922	5.04
314.134	5.24
314.346	5.04
314.558	4.99
314.77	4.97
314.982	5.6
315.193	5.75
315.405	5.62
315.617	6.27
315.829	6.47
316.041	6.44
316.253	6.35
316.465	6.67
316.677	6.9
316.888	7.13
317.1	7.07
317.312	6.6
317.524	6.55
317.736	6.59
317.947	6.57
318.159	6.7
318.371	6.82
318.583	7.33
318.794	7.59
319.006	7.67
319.218	7.8
319.43	8.05
319.641	8.29
319.853	8.15
320.064	7.98
320.276	7.79
320.488	8.24
320.699	8.93
320.911	9.21
321.123	8.66
321.334	8.75
321.546	8.87
321.757	9.3
321.969	8.87
322.18	9.49
322.392	10.19
322.603	10.6
322.815	10.25
323.026	10.23
323.238	9.82
323.449	9.88
323.661	9.78
323.872	9.7
324.083	9.76
324.295	10.32
324.506	10.59
324.718	10.65
324.929	10.76
325.14	11.34
325.352	11.3
325.563	11.49
325.774	11.88
325.986	12.41
326.197	12.72
326.408	13.03
326.62	13.09
326.831	13.16
327.042	13.15
327.253	13.31
327.464	13.38
327.676	13.35
327.887	13.5
328.098	13.48
328.309	13.81
328.52	14.43
328.732	14.15
328.943	14.64
329.154	14.75
329.365	14.89
329.576	15.25
329.787	15.59
329.998	15.97
330.209	16.28
330.42	17.04
330.631	17.35
330.842	17.28
331.053	17.98
331.264	18.49
331.475	18.87
331.686	19.21
331.897	19.2
332.108	19.47
332.319	19.76
332.53	20.26
332.741	20.32
332.952	20.29
333.163	19.77
333.374	19.65
333.585	19.2
333.795	19.36
334.006	19.64
334.217	19.81
334.428	20.03
334.639	20.45
334.849	21.03
335.06	21.42
335.271	21.72
335.482	22.47
335.692	22.58
335.903	22.96
336.114	22.82
336.325	22.95
336.535	22.82
336.746	22.59
336.957	22.45
337.167	22.26
337.378	22.19
337.589	22.03
337.799	22.16
338.01	22.2
338.22	21.91
338.431	22.05
338.642	21.98
338.852	22.44
339.063	22.82
339.273	22.94
339.484	22.64
339.694	22.56
339.905	22.54
340.115	22.5
340.326	22.85
340.536	23.37
340.746	23.59
340.957	23.73
341.167	23.62
341.378	23.43
341.588	23.35
341.799	23.19
342.009	23.1
342.219	23.04
342.43	23.34
342.64	23.03
342.85	22.98
343.061	22.7
343.271	22.64
343.481	22.84
343.691	22.56
343.902	22.48
344.112	22.74
344.322	22.64
344.532	22.47
344.743	22.38
344.953	22.7
345.163	22.83
345.373	22.81
345.583	22.64
345.793	22.49
346.004	22.86
346.214	22.8
346.424	22.85
346.634	23.02
346.844	23.23
347.054	22.89
347.264	22.53
347.474	22.29
347.684	22.31
347.894	22.43
348.104	22.4
348.314	22.14
348.524	22.28
348.734	22.15
348.944	22.16
349.154	22.19
349.364	22.11
349.574	22.28
349.784	22.12
349.994	22.06
350.204	22.06
350.413	22.13
350.623	22.12
350.833	22.18
351.043	22.29
351.253	21.94
351.463	21.91
351.672	22.14
351.882	22.37
352.092	22.46
352.302	22.51
352.511	22.32
352.721	22.21
352.931	22.25
353.141	22.36
353.35	21.85
353.56	22.18
353.77	21.98
353.979	21.99
354.189	21.6
354.399	21.47
354.608	21.49
354.818	21.54
355.027	21.4
355.237	21.17
355.447	20.79
355.656	21.3
355.866	21.37
356.075	21.4
356.285	21.1
356.494	21.1
356.704	21.09
356.913	21.16
357.123	21.23
357.332	21.31
357.542	21.71
357.751	21.84
357.96	21.68
358.17	21.56
358.379	21.7
358.589	21.96
358.798	21.76
359.007	21.84
359.217	21.63
359.426	21.7
359.635	21.47
359.845	20.91
360.054	20.96
360.263	20.7
360.472	20.61
360.682	20.74
360.891	20.79
361.1	20.99
361.309	20.76
361.519	20.81
361.728	20.7
361.937	20.76
362.146	21.12
362.355	21.07
362.564	21.15
362.774	21.14
362.983	20.88
363.192	20.67
363.401	20.66
363.61	20.92
363.819	20.99
364.028	20.98
364.237	21.03
364.446	20.88
364.655	20.89
364.864	20.9
365.073	20.79
365.282	20.61
365.491	20.49
365.7	20.4
365.909	20.33
366.118	20.07
366.327	19.9
366.536	19.6
366.745	19.61
366.954	19.75
367.162	19.82
367.371	19.72
367.58	20.23
367.789	20.37
367.998	20.29
368.207	20.44
368.415	20.7
368.624	20.81
368.833	21.06
369.042	21
369.25	20.94
369.459	20.92
369.668	21.13
369.877	20.84
370.085	20.86
370.294	20.84
370.503	20.63
370.711	20.46
370.92	20.45
371.129	20.33
371.337	20.34
371.546	20.24
371.754	20.26
371.963	20.32
372.171	20.5
372.38	20.45
372.589	20.26
372.797	20.15
373.006	20.28
373.214	20.29
373.423	20.66
373.631	20.31
373.84	20.19
374.048	20.24
374.256	20.27
374.465	20.14
374.673	20.1
374.882	20.28
375.09	20.42
375.298	20.39
375.507	20.34
375.715	20.07
375.923	20.29
376.132	20.41
376.34	20.24
376.548	20.27
376.757	20.15
376.965	20.16
377.173	20.11
377.381	20
377.59	19.89
377.798	19.99
378.006	20.04
378.214	20.09
378.423	19.94
378.631	20.34
378.839	20.24
379.047	20.2
379.255	20.33
379.463	20.37
379.671	20.37
379.879	20.51
380.088	20.55
380.296	20.8
380.504	20.82
380.712	20.89
380.92	20.59
381.128	20.49
381.336	20.55
381.544	20.63
381.752	20.65
381.96	20.57
382.168	20.54
382.376	20.6
382.584	20.41
382.791	20.39
382.999	20.24
383.207	20.2
383.415	20.33
383.623	20.3
383.831	20.32
384.039	20.2
384.247	20.21
384.454	20.17
384.662	19.99
384.87	20.11
385.078	20.11
385.285	20.02
385.493	20.02
385.701	19.92
385.909	19.9
386.116	19.66
386.324	19.89
386.532	20.15
386.739	20.15
386.947	20.25
387.155	19.94
387.362	19.92
387.57	20.09
387.778	20.06
387.985	20
388.193	19.95
388.4	20.2
388.608	20.2
388.816	19.94
389.023	19.9
389.231	19.95
389.438	20.12
389.646	20.04
389.853	19.92
390.061	20.04
390.268	20.13
390.475	20.4
390.683	20.16
390.89	20.01
391.098	19.97
391.305	19.98
391.512	19.89
391.72	19.81
391.927	19.82
392.135	19.86
392.342	19.77
392.549	19.78
392.756	19.66
392.964	19.69
393.171	19.67
393.378	19.75
393.586	19.82
393.793	19.7
394	19.6
394.207	19.74
394.414	19.77
394.622	19.75
394.829	19.9
395.036	19.93
395.243	19.93
395.45	20.01
395.657	20
395.864	19.85
396.072	19.86
396.279	19.92
396.486	19.86
396.693	19.9
396.9	19.86
397.107	19.71
397.314	19.83
397.521	20.11
397.728	20.01
397.935	20.12
398.142	20.19
398.349	20.38
398.556	20.5
398.763	20.51
398.97	20.68
399.177	20.84
399.383	20.7
399.59	20.49
399.797	20.37
400.004	20.49
400.211	20.49
400.418	20.36
400.625	20.32
400.831	20.4
401.038	20.45
401.245	20.28
401.452	20.24
401.658	20.65
401.865	20.72
402.072	20.63
402.279	20.65
402.485	20.55
402.692	20.76
402.899	20.71
403.105	20.69
403.312	20.7
403.519	20.65
403.725	20.7
403.932	20.63
404.138	20.67
404.345	20.5
404.552	20.71
404.758	20.73
404.965	20.68
405.171	20.61
405.378	20.57
405.584	20.43
405.791	20.35
405.997	20.35
406.204	20.28
406.41	20.14
406.617	20.31
406.823	20.12
407.029	20.14
407.236	20.22
407.442	20.38
407.649	20.4
407.855	20.53
408.061	20.77
408.268	20.68
408.474	20.65
408.68	20.72
408.887	20.57
409.093	20.62
409.299	20.61
409.505	20.43
409.712	20.36
409.918	20.48
410.124	20.5
410.33	20.49
410.537	20.56
410.743	20.63
410.949	20.57
411.155	20.77
411.361	20.89
411.567	20.92
411.773	21.11
411.98	21.14
412.186	21.05
412.392	21.07
412.598	21.04
412.804	21.19
413.01	21.15
413.216	21.39
413.422	21.3
413.628	21.22
413.834	21.31
414.04	21.35
414.246	21.41
414.452	21.35
414.658	21.28
414.864	21.41
415.07	21.26
415.275	21.29
415.481	21.36
415.687	21.47
415.893	21.51
416.099	21.52
416.305	21.44
416.511	21.62
416.716	21.53
416.922	21.54
417.128	21.39
417.334	21.34
417.539	21.36
417.745	21.26
417.951	21.17
418.157	21
418.362	20.9
418.568	21
418.774	20.75
418.979	20.87
419.185	20.83
419.391	20.86
419.596	20.95
419.802	20.9
420.008	20.88
420.213	21.53
420.419	21.58
420.624	21.62
420.83	21.56
421.035	21.6
421.241	21.5
421.446	21.53
421.652	21.52
421.857	21.38
422.063	21.4
422.268	21.35
422.474	20.79
422.679	20.8
422.885	20.76
423.09	20.76
423.295	20.82
423.501	20.87
423.706	20.89
423.911	20.97
424.117	21.06
424.322	20.99
424.527	21.07
424.733	21.05
424.938	20.99
425.143	21.1
425.349	21.07
425.554	21.03
425.759	21.05
425.964	21.05
426.169	20.96
426.375	20.96
426.58	21.03
426.785	21.02
426.99	20.99
427.195	21.02
427.4	20.83
427.605	20.93
427.811	20.89
428.016	20.9
428.221	20.86
428.426	20.94
428.631	20.89
428.836	20.91
429.041	20.86
429.246	20.97
429.451	21.09
429.656	21.21
429.861	21.2
430.066	21.29
430.271	21.22
430.476	21.29
430.681	21.26
430.886	21.26
431.09	21.47
431.295	21.65
431.5	21.67
431.705	21.56
431.91	21.61
432.115	21.55
432.32	21.44
432.524	21.45
432.729	21.48
432.934	21.4
433.139	21.47
433.343	21.44
433.548	21.43
433.753	21.43
433.958	21.64
434.162	21.7
434.367	21.82
434.572	22.07
434.776	22.22
434.981	22.34
435.186	22.58
435.39	22.75
435.595	22.73
435.799	22.74
436.004	22.85
436.209	22.8
436.413	22.66
436.618	22.66
436.822	22.61
437.027	22.44
437.231	22.37
437.436	22.28
437.64	22.18
437.845	22.14
438.049	22.14
438.253	22.11
438.458	22.06
438.662	22.12
438.867	22.06
439.071	21.95
439.275	22.08
439.48	21.94
439.684	21.97
439.888	21.89
440.093	21.79
440.297	21.76
440.501	21.77
440.706	21.74
440.91	21.73
441.114	21.73
441.318	21.8
441.523	21.76
441.727	21.89
441.931	21.83
442.135	21.89
442.339	21.99
442.543	21.95
442.748	21.96
442.952	21.98
443.156	22.03
443.36	22.07
443.564	22.13
443.768	22.15
443.972	22.09
444.176	22.16
444.38	22.15
444.584	22.11
444.788	22.07
444.992	21.98
445.196	21.98
445.4	21.94
445.604	21.88
445.808	21.83
446.012	21.81
446.216	21.77
446.42	21.71
446.624	21.74
446.828	21.67
447.032	21.68
447.235	21.66
447.439	21.67
447.643	21.69
447.847	21.7
448.051	21.66
448.254	21.68
448.458	21.72
448.662	21.69
448.866	21.66
449.069	21.71
449.273	21.81
449.477	21.89
449.681	21.95
449.884	21.95
450.088	22.12
450.292	22.03
450.495	22.05
450.699	22.16
450.902	22.33
451.106	22.3
451.31	22.33
451.513	22.29
451.717	22.32
451.92	22.24
452.124	22.23
452.327	21.98
452.531	22.23
452.734	22.17
452.938	22.07
453.141	21.98
453.345	22.09
453.548	22.09
453.752	22.05
453.955	22.01
454.158	22.05
454.362	22.07
454.565	22.23
454.769	22.09
454.972	22.08
455.175	22.19
455.379	22.25
455.582	22.31
455.785	22.27
455.988	22.32
456.192	22.27
456.395	22.31
456.598	22.4
456.801	22.4
457.005	22.5
457.208	22.55
457.411	22.42
457.614	22.35
457.817	22.22
458.021	22.25
458.224	22.31
458.427	22.27
458.63	22.2
458.833	22.06
459.036	22.02
459.239	21.9
459.442	21.9
459.645	21.95
459.848	21.93
460.051	21.92
460.254	21.86
