Data from 2938738__Reflection_02.txt Node
Date: Sun Mar 15 18:10:07 EDT 2015
User: robert
Spectrometer: USB4E03002
Autoset integration time: false
Trigger mode: 4
Integration Time (sec): 1.000000E-1
Scans to average: 10
Electric dark correction enabled: false
Nonlinearity correction enabled: false
Boxcar width: 5
Stray light correction enabled: false
XAxis mode: Wavelengths
Stop averaging: false
Number of Pixels in Spectrum: 3648
>>>>>Begin Spectral Data<<<<<
177.575	174.2
177.794	247.25
178.014	320.77
178.233	392.87
178.452	584.7
178.672	543.19
178.891	768.66
179.11	758.95
179.33	994.57
179.549	1044.12
179.768	2687.1
179.987	1426.98
180.207	684.67
180.426	633
180.645	581.46
180.864	466.9
181.084	584.46
181.303	567.77
181.522	699.65
181.741	701.75
181.96	907.87
182.179	892.43
182.398	973.25
182.618	1252.4
182.837	1156.49
183.056	1003.98
183.275	1297.4
183.494	838.44
183.713	688.72
183.932	693.32
184.151	791.11
184.37	984.19
184.589	1502.73
184.808	1173.67
185.027	961.25
185.246	775.76
185.465	842.57
185.684	796.41
185.903	926.7
186.122	1200.37
186.341	1428.94
186.56	810.11
186.779	517.39
186.998	463.59
187.216	477.52
187.435	487.48
187.654	557.34
187.873	591.44
188.092	509.62
188.311	523.84
188.53	538.61
188.748	468.23
188.967	452.34
189.186	512.18
189.405	455.25
189.623	541.72
189.842	630.1
190.061	702.38
190.28	685.12
190.498	1540.71
190.717	1284.76
190.936	1195.78
191.154	1307.91
191.373	-16945
191.592	-17705
191.81	-4128.74
192.029	-3945.16
192.248	-2993.39
192.466	-3145.76
192.685	3454.87
192.904	1100.26
193.122	1016.13
193.341	995.93
193.559	906.29
193.778	840.17
193.996	939.95
194.215	795.87
194.433	636.71
194.652	554.48
194.87	463.73
195.089	619.43
195.307	765.44
195.526	1093.46
195.744	924.8
195.963	1419.92
196.181	4971.23
196.399	2579.05
196.618	2059.46
196.836	2350.61
197.055	4287.1
197.273	3637.27
197.491	2688.89
197.71	1592.8
197.928	861.28
198.146	922.37
198.365	715.64
198.583	498.28
198.801	587.5
199.019	694.39
199.238	506.53
199.456	553.28
199.674	585.67
199.892	659.71
200.111	603.03
200.329	681.02
200.547	761.08
200.765	1070.59
200.983	807.4
201.202	615.62
201.42	603.63
201.638	1847.85
201.856	1404.45
202.074	2574.81
202.292	1918.38
202.51	3822.58
202.728	14275
202.946	-8409.52
203.165	-3995.24
203.383	-2622.83
203.601	-2241.78
203.819	-1570.65
204.037	2786.44
204.255	1558.96
204.473	1515.04
204.691	914.13
204.909	639.08
205.127	634.5
205.345	419.44
205.562	391.32
205.78	466.05
205.998	465.56
206.216	444.79
206.434	549.72
206.652	525.95
206.87	470.65
207.088	538.06
207.306	642.16
207.523	561.23
207.741	956.17
207.959	717.61
208.177	538.47
208.395	475.42
208.612	471.1
208.83	483.43
209.048	475.71
209.266	619.62
209.483	651.23
209.701	655.81
209.919	710.47
210.136	477.71
210.354	477.63
210.572	563.26
210.79	455.04
211.007	443.49
211.225	434.93
211.442	532.62
211.66	422.29
211.878	390.7
212.095	328.04
212.313	314.47
212.53	351.01
212.748	324.76
212.966	333.99
213.183	363.33
213.401	334.02
213.618	330.64
213.836	350.45
214.053	367.76
214.271	411.99
214.488	476.73
214.705	564.19
214.923	513.59
215.14	1104.53
215.358	709.23
215.575	851.39
215.793	749.89
216.01	607.17
216.227	459.84
216.445	417.61
216.662	393.92
216.879	410.5
217.097	417.68
217.314	379.08
217.531	333.27
217.749	352.04
217.966	342.35
218.183	351.21
218.4	358.22
218.618	393.38
218.835	355.21
219.052	342.18
219.269	315.37
219.487	293.98
219.704	319.24
219.921	330.5
220.138	337.31
220.355	303.66
220.572	303.37
220.79	305.04
221.007	297.6
221.224	307.98
221.441	299.03
221.658	272.99
221.875	271.47
222.092	283.11
222.309	247.12
222.526	222.46
222.743	215.18
222.96	217.12
223.177	192.89
223.394	179.32
223.611	185.74
223.828	175.95
224.045	183.11
224.262	156.19
224.479	141.08
224.696	146.51
224.913	134.78
225.13	125.58
225.347	118.35
225.564	118.14
225.781	108.79
225.997	101.91
226.214	98.76
226.431	87.21
226.648	82.76
226.865	74.12
227.082	63.3
227.298	59.26
227.515	51.77
227.732	46.46
227.949	41.18
228.165	36.01
228.382	33.13
228.599	30.87
228.816	29.06
229.032	27.05
229.249	25.64
229.466	24.41
229.682	23.97
229.899	23.86
230.116	22.98
230.332	23.34
230.549	25.36
230.765	26.28
230.982	26.75
231.199	28.33
231.415	32.35
231.632	33.73
231.848	36.72
232.065	39.35
232.281	43.12
232.498	45.53
232.714	48.41
232.931	50.11
233.147	51.37
233.364	50.7
233.58	50.24
233.797	49.15
234.013	51.62
234.23	50.99
234.446	48.89
234.662	46.38
234.879	47.78
235.095	48.15
235.312	48.36
235.528	47.63
235.744	49.61
235.961	49.83
236.177	48.12
236.393	48.49
236.61	49.19
236.826	48.65
237.042	50.24
237.258	49.71
237.475	50.72
237.691	50.75
237.907	50.34
238.123	51.6
238.339	51.62
238.556	51.73
238.772	48.54
238.988	48
239.204	45.81
239.42	44.16
239.636	41.51
239.853	37.27
240.069	34.43
240.285	32.98
240.501	29.41
240.717	27.24
240.933	25.19
241.149	24.82
241.365	23.13
241.581	22.68
241.797	21.64
242.013	20.9
242.229	20.56
242.445	20.25
242.661	19.82
242.877	19.41
243.093	19.72
243.309	19.91
243.525	19.52
243.741	19.99
243.957	21.66
244.173	22.1
244.388	22.48
244.604	22.54
244.82	23
245.036	22.31
245.252	21.43
245.468	20.21
245.683	18.81
245.899	17.87
246.115	16.53
246.331	14.8
246.547	13.99
246.762	13.53
246.978	13.16
247.194	12.03
247.409	11.99
247.625	12.43
247.841	12.11
248.057	12.41
248.272	12.38
248.488	12.75
248.703	13.07
248.919	13.44
249.135	13.85
249.35	14.44
249.566	16.4
249.782	17.01
249.997	17.42
250.213	18.74
250.428	19.91
250.644	20.67
250.859	21.17
251.075	21.37
251.29	21.75
251.506	21.05
251.721	20.7
251.937	19.7
252.152	19.9
252.368	19.86
252.583	20.27
252.798	20.84
253.014	20.71
253.229	20.83
253.445	21.8
253.66	22.23
253.875	22.91
254.091	24.95
254.306	26.96
254.521	27.86
254.737	29.08
254.952	29.2
255.167	28.93
255.383	29.43
255.598	30.12
255.813	29.45
256.028	29.03
256.244	29.78
256.459	28.51
256.674	26.89
256.889	25.65
257.104	23.81
257.32	23.27
257.535	22.28
257.75	20.7
257.965	18.97
258.18	17.56
258.395	16.76
258.61	15.01
258.826	13.68
259.041	12.98
259.256	12.41
259.471	12.2
259.686	11.65
259.901	10.94
260.116	10.86
260.331	10.63
260.546	10.9
260.761	10.89
260.976	11.12
261.191	11.34
261.406	11.76
261.621	12.03
261.836	12.27
262.05	12.48
262.265	13.27
262.48	14.39
262.695	14.81
262.91	14.98
263.125	15.77
263.34	16.43
263.555	16.74
263.769	17.36
263.984	18.12
264.199	18.88
264.414	19.54
264.629	20.27
264.843	19.41
265.058	19.87
265.273	19.15
265.488	18.82
265.702	18.14
265.917	18
266.132	17.03
266.346	15.51
266.561	14.95
266.776	14.52
266.99	13.86
267.205	13.82
267.42	14.12
267.634	14.1
267.849	14.01
268.063	13.9
268.278	14.4
268.492	14.66
268.707	15.96
268.922	16.29
269.136	16.2
269.351	16.53
269.565	16.41
269.78	15.95
269.994	16.06
270.209	15.76
270.423	16.06
270.637	15.36
270.852	14.74
271.066	14.11
271.281	14.06
271.495	13.98
271.709	13.84
271.924	13.33
272.138	12.91
272.353	13.07
272.567	12.94
272.781	12.72
272.996	12.74
273.21	13.34
273.424	13.51
273.638	13.18
273.853	13.4
274.067	13
274.281	13.85
274.495	14.27
274.71	14.1
274.924	14.47
275.138	14.27
275.352	14.93
275.566	14.82
275.781	14.5
275.995	14.57
276.209	14.61
276.423	14.64
276.637	14.58
276.851	14.71
277.065	14.42
277.279	14.13
277.493	15.07
277.707	14.6
277.921	14.52
278.135	14.58
278.349	14.22
278.563	14.2
278.777	14.61
278.991	14.6
279.205	14.63
279.419	14.54
279.633	14.38
279.847	13.7
280.061	13.2
280.275	13.08
280.489	13.44
280.703	13.51
280.917	13.76
281.131	13.31
281.344	13.71
281.558	13.21
281.772	13.24
281.986	13.4
282.2	13.17
282.414	13.35
282.627	13.36
282.841	12.89
283.055	12.95
283.269	12.74
283.482	12.73
283.696	11.8
283.91	11.77
284.123	11.4
284.337	11.2
284.551	11.12
284.764	10.96
284.978	10.57
285.192	10.51
285.405	10.53
285.619	9.79
285.833	9.59
286.046	9.63
286.26	9.56
286.473	9.83
286.687	9.92
286.9	9.96
287.114	9.86
287.327	10.25
287.541	10.73
287.754	10.43
287.968	11.32
288.181	11.34
288.395	11.11
288.608	11.11
288.822	10.91
289.035	10.53
289.248	10.57
289.462	10.73
289.675	10.27
289.889	10.02
290.102	10.26
290.315	9.79
290.529	10.33
290.742	10.89
290.955	11.21
291.169	11.42
291.382	11.59
291.595	11.97
291.808	12.62
292.022	12.73
292.235	13.16
292.448	13.79
292.661	13.7
292.875	13.3
293.088	13.42
293.301	13.73
293.514	13.39
293.727	13.36
293.94	13.3
294.153	12.54
294.367	12.66
294.58	12.16
294.793	11.8
295.006	12.37
295.219	12.13
295.432	11.92
295.645	11.48
295.858	11.7
296.071	11.68
296.284	11.55
296.497	11.68
296.71	11.62
296.923	11.6
297.136	11.3
297.349	10.88
297.562	11.24
297.775	11.52
297.988	11.6
298.201	11.87
298.414	11.89
298.626	11.91
298.839	12.05
299.052	12.11
299.265	12.31
299.478	12.94
299.691	13.64
299.903	14.05
300.116	14.19
300.329	14.69
300.542	14.41
300.755	14.91
300.967	14.95
301.18	14.97
301.393	15.3
301.605	15.58
301.818	15.23
302.031	14.85
302.243	14.74
302.456	14.45
302.669	14.13
302.881	14.07
303.094	13.79
303.307	13.91
303.519	14.09
303.732	13.92
303.944	13.84
304.157	14.23
304.37	14.56
304.582	14.71
304.795	14.72
305.007	14.86
305.22	14.84
305.432	15.07
305.645	15.45
305.857	15.81
306.069	16.2
306.282	16.03
306.494	15.92
306.707	15.67
306.919	15.5
307.132	15.59
307.344	15.31
307.556	15.52
307.769	15.5
307.981	15.01
308.193	14.28
308.406	13.96
308.618	14.21
308.83	14.46
309.043	14.72
309.255	14.6
309.467	14.52
309.679	14.64
309.892	14.5
310.104	14.36
310.316	14.38
310.528	14.57
310.74	14.77
310.953	14.55
311.165	14.16
311.377	14.06
311.589	14.05
311.801	14.21
312.013	13.91
312.225	14.14
312.437	14.55
312.649	14.9
312.862	15.03
313.074	14.84
313.286	15.23
313.498	15.54
313.71	15.48
313.922	15.59
314.134	15.63
314.346	16.14
314.558	16.27
314.77	16.36
314.982	16.17
315.193	15.88
315.405	16.11
315.617	16.35
315.829	16.36
316.041	16.7
316.253	16.73
316.465	16.87
316.677	17.48
316.888	17.54
317.1	17.32
317.312	17.93
317.524	18.2
317.736	18.16
317.947	17.9
318.159	18.22
318.371	17.75
318.583	18.21
318.794	18.2
319.006	17.88
319.218	17.98
319.43	18.11
319.641	17.83
319.853	18.11
320.064	19.24
320.276	19.24
320.488	19.84
320.699	20.85
320.911	20.42
321.123	20.56
321.334	20.59
321.546	20.35
321.757	20.07
321.969	20.28
322.18	20.59
322.392	20.04
322.603	19.86
322.815	19.07
323.026	18.45
323.238	18.67
323.449	18.85
323.661	18.67
323.872	18.75
324.083	18.96
324.295	18.75
324.506	18.38
324.718	18.05
324.929	17.84
325.14	18.11
325.352	17.85
325.563	17.92
325.774	17.77
325.986	17.91
326.197	18.24
326.408	18.37
326.62	18.44
326.831	18.27
327.042	18.52
327.253	18.82
327.464	18.9
327.676	19.77
327.887	19.87
328.098	19.68
328.309	19.76
328.52	19.72
328.732	19.73
328.943	20.17
329.154	20.5
329.365	20.47
329.576	20.87
329.787	20.45
329.998	20.5
330.209	20.75
330.42	21.37
330.631	21.55
330.842	21.84
331.053	22.16
331.264	21.73
331.475	21.68
331.686	21.78
331.897	21.58
332.108	21.67
332.319	21.61
332.53	21.26
332.741	20.86
332.952	20.71
333.163	20.38
333.374	20.2
333.585	20.25
333.795	20.7
334.006	20.87
334.217	20.89
334.428	21.11
334.639	21.65
334.849	21.82
335.06	21.44
335.271	21.68
335.482	22.17
335.692	22.28
335.903	22.13
336.114	22.06
336.325	22.03
336.535	22.31
336.746	22.42
336.957	21.45
337.167	21.7
337.378	22.5
337.589	22.51
337.799	22.28
338.01	22.46
338.22	22.49
338.431	22.25
338.642	22.13
338.852	22.07
339.063	22.05
339.273	22.3
339.484	22.04
339.694	21.55
339.905	21.81
340.115	21.75
340.326	21.27
340.536	21.36
340.746	21.05
340.957	20.62
341.167	20.5
341.378	20
341.588	20.13
341.799	20.15
342.009	20.3
342.219	19.97
342.43	19.7
342.64	19.77
342.85	19.3
343.061	19.29
343.271	19.73
343.481	19.67
343.691	20.01
343.902	19.63
344.112	19.36
344.322	19.31
344.532	18.85
344.743	18.78
344.953	18.77
345.163	18.99
345.373	19.49
345.583	19.49
345.793	19.62
346.004	19.25
346.214	19.22
346.424	19.38
346.634	19.25
346.844	19.54
347.054	19.84
347.264	19.87
347.474	20.56
347.684	20.22
347.894	19.98
348.104	19.8
348.314	20.1
348.524	20.11
348.734	20.12
348.944	19.95
349.154	20.09
349.364	20.25
349.574	19.92
349.784	19.29
349.994	19.28
350.204	19.34
350.413	19.18
350.623	19.38
350.833	19.29
351.043	19.13
351.253	19.58
351.463	19.42
351.672	19.08
351.882	19.23
352.092	19.37
352.302	19.49
352.511	19.6
352.721	19.66
352.931	19.52
353.141	19.63
353.35	19.9
353.56	19.61
353.77	19.44
353.979	19.21
354.189	19.28
354.399	19.02
354.608	18.92
354.818	18.72
355.027	18.37
355.237	18.15
355.447	18.16
355.656	17.74
355.866	17.56
356.075	17.52
356.285	17.65
356.494	17.45
356.704	17.54
356.913	17.68
357.123	17.74
357.332	17.79
357.542	17.96
357.751	17.94
357.96	17.93
358.17	17.92
358.379	18.04
358.589	18.06
358.798	17.86
359.007	17.78
359.217	17.69
359.426	17.32
359.635	17.19
359.845	16.64
360.054	16.29
360.263	15.97
360.472	15.97
360.682	15.61
360.891	15.41
361.1	15.44
361.309	15.26
361.519	14.91
361.728	14.79
361.937	14.82
362.146	14.87
362.355	14.94
362.564	15.24
362.774	15.44
362.983	15.49
363.192	15.21
363.401	15.13
363.61	15.28
363.819	15.45
364.028	15.7
364.237	15.86
364.446	15.96
364.655	15.87
364.864	15.75
365.073	15.42
365.282	15.55
365.491	15.97
365.7	16.06
365.909	15.98
366.118	16.2
366.327	16.15
366.536	15.96
366.745	16.13
366.954	16.44
367.162	16.48
367.371	16.56
367.58	16.44
367.789	16.38
367.998	16.48
368.207	16.57
368.415	16.44
368.624	16.42
368.833	16.49
369.042	16.23
369.25	16.02
369.459	16.07
369.668	15.72
369.877	15.74
370.085	15.8
370.294	15.57
370.503	15.67
370.711	15.24
370.92	15.2
371.129	15.1
371.337	15.1
371.546	14.73
371.754	14.8
371.963	15.02
372.171	15.22
372.38	15.24
372.589	15.41
372.797	15.48
373.006	16
373.214	15.89
373.423	15.97
373.631	16.09
373.84	16.19
374.048	15.89
374.256	15.98
374.465	15.97
374.673	15.91
374.882	15.71
375.09	15.57
375.298	15.31
375.507	15.29
375.715	15.19
375.923	15.08
376.132	15.25
376.34	14.95
376.548	14.79
376.757	14.27
376.965	14.13
377.173	14.01
377.381	13.52
377.59	13.25
377.798	13.15
378.006	12.86
378.214	12.84
378.423	12.8
378.631	13.04
378.839	12.96
379.047	13.24
379.255	12.98
379.463	13.09
379.671	12.94
379.879	13.16
380.088	13.33
380.296	13.14
380.504	13.27
380.712	13.27
380.92	13.13
381.128	13.18
381.336	12.94
381.544	12.94
381.752	12.92
381.96	13.14
382.168	13
382.376	12.78
382.584	13.09
382.791	13.36
382.999	13.15
383.207	13.03
383.415	12.95
383.623	13.12
383.831	13.22
384.039	13.08
384.247	13
384.454	12.85
384.662	12.94
384.87	13
385.078	12.41
385.285	12.5
385.493	12.87
385.701	12.75
385.909	12.56
386.116	12.45
386.324	12.46
386.532	12.33
386.739	12.24
386.947	12.16
387.155	12.14
387.362	12.53
387.57	12.15
387.778	11.87
387.985	11.96
388.193	11.99
388.4	11.95
388.608	12.13
388.816	12.16
389.023	12.53
389.231	12.4
389.438	12.32
389.646	11.79
389.853	11.87
390.061	11.58
390.268	11.54
390.475	11.19
390.683	11.23
390.89	10.98
391.098	11.21
391.305	10.98
391.512	11.06
391.72	10.94
391.927	10.92
392.135	10.98
392.342	11.26
392.549	11.12
392.756	11.17
392.964	11.14
393.171	11.09
393.378	11.05
393.586	10.86
393.793	10.92
394	10.85
394.207	10.94
394.414	11
394.622	10.82
394.829	10.77
395.036	10.83
395.243	10.76
395.45	11.02
395.657	10.77
395.864	10.86
396.072	10.55
396.279	10.51
396.486	10.51
396.693	10.41
396.9	10.45
397.107	10.63
397.314	10.85
397.521	10.79
397.728	10.54
397.935	10.59
398.142	10.46
398.349	10.41
398.556	10.62
398.763	10.57
398.97	10.49
399.177	10.35
399.383	10.2
399.59	9.99
399.797	9.94
400.004	9.87
400.211	9.9
400.418	10.12
400.625	10.29
400.831	10.19
401.038	10.28
401.245	10.26
401.452	10.27
401.658	10.27
401.865	10.29
402.072	10.16
402.279	10.3
402.485	10.32
402.692	10.27
402.899	10.22
403.105	9.98
403.312	9.58
403.519	9.63
403.725	9.52
403.932	9.47
404.138	9.35
404.345	9.44
404.552	9.08
404.758	8.97
404.965	8.89
405.171	8.94
405.378	9.03
405.584	9.28
405.791	9.34
405.997	9.4
406.204	9.54
406.41	9.66
406.617	9.52
406.823	9.73
407.029	9.82
407.236	10
407.442	9.99
407.649	9.99
407.855	9.95
408.061	9.87
408.268	9.77
408.474	9.46
408.68	9.4
408.887	9.44
409.093	9.19
409.299	9.13
409.505	8.84
409.712	8.87
409.918	8.81
410.124	8.78
410.33	8.88
410.537	9.06
410.743	9
410.949	8.95
411.155	9.16
411.361	9.16
411.567	9.17
411.773	9.15
411.98	8.89
412.186	8.92
412.392	9.08
412.598	8.8
412.804	8.63
413.01	8.65
413.216	8.57
413.422	8.72
413.628	8.88
413.834	8.62
414.04	8.64
414.246	8.88
414.452	8.84
414.658	8.5
414.864	8.58
415.07	8.63
415.275	8.69
415.481	8.66
415.687	8.36
415.893	8.23
416.099	8.3
416.305	8.33
416.511	8.24
416.716	8.14
416.922	8.23
417.128	8.23
417.334	8.15
417.539	8.02
417.745	8.04
417.951	7.93
418.157	7.86
418.362	7.81
418.568	7.65
418.774	7.43
418.979	7.3
419.185	7.22
419.391	7.01
419.596	6.97
419.802	6.99
420.008	6.89
420.213	7.05
420.419	7.1
420.624	7.13
420.83	7.12
421.035	7.14
421.241	7.11
421.446	7.12
421.652	7.17
421.857	7.13
422.063	7.13
422.268	7.18
422.474	6.94
422.679	6.91
422.885	6.84
423.09	6.8
423.295	6.81
423.501	6.85
423.706	6.83
423.911	6.77
424.117	6.81
424.322	6.79
424.527	6.76
424.733	6.89
424.938	6.82
425.143	6.9
425.349	6.97
425.554	7
425.759	7.13
425.964	7.14
426.169	7.27
426.375	7.32
426.58	7.36
426.785	7.45
426.99	7.46
427.195	7.57
427.4	7.5
427.605	7.65
427.811	7.65
428.016	7.53
428.221	7.6
428.426	7.62
428.631	7.59
428.836	7.6
429.041	7.58
429.246	7.73
429.451	7.78
429.656	7.88
429.861	7.75
430.066	7.82
430.271	7.86
430.476	7.8
430.681	7.8
430.886	7.73
431.09	7.7
431.295	7.5
431.5	7.26
431.705	7.18
431.91	7.1
432.115	6.98
432.32	6.96
432.524	6.9
432.729	6.85
432.934	6.81
433.139	6.81
433.343	6.8
433.548	6.96
433.753	7.04
433.958	7.14
434.162	7.17
434.367	7.25
434.572	7.07
434.776	7.17
434.981	7.32
435.186	7.32
435.39	7.38
435.595	7.54
435.799	7.44
436.004	7.4
436.209	7.27
436.413	7.21
436.618	7.16
436.822	7.29
437.027	7.2
437.231	7.08
437.436	7.03
437.64	7.02
437.845	6.86
438.049	6.84
438.253	6.85
438.458	6.85
438.662	6.8
438.867	6.8
439.071	6.83
439.275	6.88
439.48	6.82
439.684	6.77
439.888	6.73
440.093	6.71
440.297	6.74
440.501	6.76
440.706	6.78
440.91	6.81
441.114	6.79
441.318	6.67
441.523	6.58
441.727	6.63
441.931	6.7
442.135	6.77
442.339	6.73
442.543	6.76
442.748	6.6
442.952	6.6
443.156	6.62
443.36	6.6
443.564	6.75
443.768	6.79
443.972	6.79
444.176	6.8
444.38	6.67
444.584	6.86
444.788	6.84
444.992	6.9
445.196	6.78
445.4	6.74
445.604	6.69
445.808	6.69
446.012	6.61
446.216	6.58
446.42	6.53
446.624	6.56
446.828	6.45
447.032	6.44
447.235	6.38
447.439	6.45
447.643	6.4
447.847	6.53
448.051	6.53
448.254	6.59
448.458	6.56
448.662	6.65
448.866	6.53
449.069	6.54
449.273	6.54
449.477	6.67
449.681	6.7
449.884	6.86
450.088	6.82
450.292	6.69
450.495	6.68
450.699	6.79
450.902	6.86
451.106	6.98
451.31	7.1
451.513	7.12
451.717	7.05
451.92	7.07
452.124	6.98
452.327	6.97
452.531	7.1
452.734	7.07
452.938	7.11
453.141	6.99
453.345	7.02
453.548	6.93
453.752	6.97
453.955	7.08
454.158	7.07
454.362	7.17
454.565	7.09
454.769	7.15
454.972	7.19
455.175	7.13
455.379	7.2
455.582	7.23
455.785	7.14
455.988	7.17
456.192	7.09
456.395	6.91
456.598	6.89
456.801	6.93
457.005	6.87
457.208	6.96
