Data from 2938815__Reflection_01.txt Node
Date: Thu Mar 12 15:42:32 EDT 2015
User: robert
Spectrometer: USB4E03002
Autoset integration time: false
Trigger mode: 4
Integration Time (sec): 1.000000E-1
Scans to average: 10
Electric dark correction enabled: false
Nonlinearity correction enabled: false
Boxcar width: 5
Stray light correction enabled: false
XAxis mode: Wavelengths
Stop averaging: false
Number of Pixels in Spectrum: 3648
>>>>>Begin Spectral Data<<<<<
177.575	-795.24
177.794	-573.85
178.014	-356.45
178.233	-2012.9
178.452	1121.79
178.672	-3300
178.891	-629.84
179.11	-641.45
179.33	-876.51
179.549	-1012.84
179.768	-7654.55
179.987	-6200
180.207	-1037.58
180.426	2784.38
180.645	-1726.8
180.864	-1387.29
181.084	2718.75
181.303	992.57
181.522	5906.25
181.741	0
181.96	44475
182.179	-6725.93
182.398	-3766
182.618	2156.84
182.837	-2822.97
183.056	-3776.27
183.275	-3444.26
183.494	-6372.73
183.713	3432.79
183.932	1251.72
184.151	1221.48
184.37	512.04
184.589	438.16
184.808	357.2
185.027	264.4
185.246	270.11
185.465	202.74
185.684	238.86
185.903	260.8
186.122	318.63
186.341	358.37
186.56	334.64
186.779	370.35
186.998	523.12
187.216	515.04
187.435	848.46
187.654	709.9
187.873	1130.81
188.092	935.44
188.311	648.5
188.53	506.71
188.748	432.68
188.967	475.47
189.186	906.67
189.405	465.06
189.623	465.63
189.842	504.08
190.061	486.74
190.28	494.65
190.498	493.37
190.717	1078.92
190.936	1454.17
191.154	976.54
191.373	876
191.592	1458.97
191.81	-59033.33
192.029	-1187.5
192.248	-607.88
192.466	-421.74
192.685	-575.54
192.904	-509.56
193.122	-370.13
193.341	-445.83
193.559	-486.97
193.778	-412.5
193.996	-2526.15
194.215	4350
194.433	600.31
194.652	378.43
194.87	347.46
195.089	435.07
195.307	493.27
195.526	395.95
195.744	358.18
195.963	320.89
196.181	336.36
196.399	355.84
196.618	369.52
196.836	514.1
197.055	869.4
197.273	649.84
197.491	514.52
197.71	340.55
197.928	333.13
198.146	365.83
198.365	610.69
198.583	607.87
198.801	675.15
199.019	831.91
199.238	594.09
199.456	446.15
199.674	550.6
199.892	646.53
200.111	746.1
200.329	625.76
200.547	476.09
200.765	412.08
200.983	441.6
201.202	389.78
201.42	342.73
201.638	396.02
201.856	435.1
202.074	354.34
202.292	303.77
202.51	596.85
202.728	649.84
202.946	938.5
203.165	589.31
203.383	580.97
203.601	641.48
203.819	948.84
204.037	808.33
204.255	608.47
204.473	766.17
204.691	3109.09
204.909	650.61
205.127	743.11
205.345	455.74
205.562	303.09
205.78	315.16
205.998	273.31
206.216	245.49
206.434	230.06
206.652	225.09
206.87	211.91
207.088	194.81
207.306	169.57
207.523	148.3
207.741	163.78
207.959	256.85
208.177	256.29
208.395	261.48
208.612	247.88
208.83	269.52
209.048	343.82
209.266	366.21
209.483	243.03
209.701	242.17
209.919	278.12
210.136	354.87
210.354	281.83
210.572	240.94
210.79	220.77
211.007	244.15
211.225	232.95
211.442	194.47
211.66	170.42
211.878	185.23
212.095	187.79
212.313	191
212.53	199.52
212.748	186.85
212.966	183.12
213.183	190.57
213.401	184.14
213.618	187.38
213.836	203.18
214.053	203.68
214.271	226.22
214.488	255.35
214.705	243.47
214.923	207.56
215.14	215.8
215.358	217.54
215.575	227.79
215.793	196.19
216.01	192.02
216.227	181.35
216.445	195.33
216.662	182.02
216.879	182.21
217.097	180.26
217.314	183.22
217.531	179.1
217.749	185.83
217.966	162.16
218.183	173.6
218.4	161.16
218.618	172.83
218.835	159.53
219.052	157.55
219.269	153.36
219.487	141.59
219.704	140.01
219.921	146.62
220.138	140.64
220.355	140.04
220.572	138.44
220.79	140.82
221.007	128.18
221.224	131.22
221.441	130.15
221.658	121.95
221.875	117.39
222.092	103.81
222.309	95.86
222.526	98.81
222.743	104.25
222.96	95.17
223.177	92.28
223.394	85.25
223.611	80.87
223.828	81.17
224.045	78.3
224.262	81.12
224.479	80.15
224.696	74.88
224.913	67.73
225.13	66.59
225.347	64.77
225.564	61.53
225.781	59.57
225.997	58.33
226.214	51.9
226.431	52.5
226.648	48.35
226.865	43.21
227.082	39.46
227.298	34.76
227.515	30.66
227.732	28.02
227.949	25.58
228.165	23.81
228.382	22.5
228.599	21.45
228.816	18.85
229.032	17.3
229.249	16.62
229.466	16.29
229.682	16.26
229.899	16.84
230.116	16.4
230.332	16.68
230.549	17.24
230.765	16.97
230.982	16.74
231.199	18.15
231.415	19.96
231.632	21.13
231.848	22.85
232.065	23.04
232.281	22.81
232.498	23.65
232.714	23.79
232.931	23.9
233.147	25.45
233.364	25.87
233.58	25.09
233.797	23.25
234.013	23.6
234.23	21.37
234.446	20.86
234.662	20.51
234.879	21.52
235.095	21.04
235.312	20.58
235.528	20.57
235.744	20.63
235.961	21.95
236.177	21.82
236.393	21.33
236.61	22.8
236.826	24.84
237.042	25.68
237.258	24.85
237.475	25.82
237.691	26.58
237.907	25.47
238.123	25.73
238.339	24.67
238.556	25.58
238.772	26.17
238.988	27.06
239.204	25.92
239.42	26.24
239.636	25.48
239.853	24.82
240.069	23.77
240.285	22.32
240.501	20.81
240.717	20.54
240.933	19.75
241.149	18.21
241.365	16.95
241.581	16.41
241.797	16.03
242.013	15.5
242.229	14.28
242.445	13.47
242.661	13.48
242.877	13.6
243.093	13.28
243.309	13.33
243.525	13.9
243.741	14.14
243.957	14.1
244.173	13.26
244.388	13.74
244.604	14.61
244.82	15.31
245.036	14.85
245.252	14.44
245.468	14.32
245.683	13.25
245.899	12.3
246.115	11.52
246.331	11.35
246.547	11
246.762	10.89
246.978	10.55
247.194	10.37
247.409	10.26
247.625	10.31
247.841	9.95
248.057	10.15
248.272	10
248.488	10.1
248.703	9.99
248.919	10.49
249.135	10.45
249.35	10.38
249.566	11.34
249.782	11.51
249.997	12.17
250.213	12.27
250.428	12.25
250.644	12.32
250.859	11.82
251.075	12.65
251.29	12.52
251.506	12.74
251.721	13.58
251.937	12.8
252.152	12.94
252.368	12.12
252.583	12.8
252.798	13.14
253.014	14
253.229	14.77
253.445	15.2
253.66	15.59
253.875	15.62
254.091	15.42
254.306	15.76
254.521	16.58
254.737	17.29
254.952	16.49
255.167	16.24
255.383	15.55
255.598	15.11
255.813	14.36
256.028	12.68
256.244	12.55
256.459	12.32
256.674	12.11
256.889	11.33
257.104	10.86
257.32	11.6
257.535	11.42
257.75	11.36
257.965	11.2
258.18	10.68
258.395	10.64
258.61	10.11
258.826	9.6
259.041	9.08
259.256	9.14
259.471	8.95
259.686	8.46
259.901	8.17
260.116	8.05
260.331	7.74
260.546	7.69
260.761	7.84
260.976	7.95
261.191	8.27
261.406	8.48
261.621	8.03
261.836	8.21
262.05	8.26
262.265	8.76
262.48	9.04
262.695	9.18
262.91	9.16
263.125	9.09
263.34	9.38
263.555	9.24
263.769	9.41
263.984	9.45
264.199	9.58
264.414	10.14
264.629	10.06
264.843	9.9
265.058	11.14
265.273	11.26
265.488	11.66
265.702	11.33
265.917	10.73
266.132	10.8
266.346	11.08
266.561	11.07
266.776	10.53
266.99	10.05
267.205	10.35
267.42	10
267.634	10.28
267.849	9.81
268.063	9.4
268.278	9.43
268.492	9.33
268.707	9.59
268.922	8.8
269.136	8.86
269.351	9.31
269.565	8.32
269.78	8.45
269.994	7.88
270.209	7.71
270.423	7.99
270.637	7.94
270.852	7.55
271.066	7.21
271.281	7.38
271.495	7.23
271.709	7.25
271.924	7.96
272.138	7.71
272.353	7.78
272.567	7.86
272.781	8.05
272.996	8.76
273.21	8.88
273.424	9.22
273.638	9.62
273.853	10.04
274.067	9.91
274.281	9.69
274.495	9.89
274.71	9.94
274.924	10.16
275.138	9.97
275.352	9.75
275.566	10.37
275.781	10.27
275.995	9.95
276.209	10.4
276.423	10.42
276.637	10.03
276.851	9.76
277.065	9.92
277.279	9.9
277.493	10.11
277.707	9.69
277.921	8.77
278.135	8.92
278.349	9.06
278.563	8.85
278.777	9.27
278.991	9.53
279.205	9.94
279.419	9.81
279.633	9.65
279.847	9.62
280.061	9.5
280.275	9.54
280.489	8.73
280.703	9.15
280.917	8.8
281.131	8.13
281.344	7.98
281.558	7.71
281.772	7.72
281.986	7.62
282.2	7.3
282.414	7.26
282.627	7.39
282.841	7.88
283.055	7.4
283.269	7.75
283.482	8.07
283.696	7.88
283.91	7.6
284.123	7.5
284.337	7.53
284.551	7.7
284.764	7.56
284.978	7.57
285.192	7.34
285.405	7.19
285.619	6.75
285.833	6.66
286.046	6.73
286.26	7.03
286.473	6.95
286.687	7.08
286.9	7.09
287.114	7.32
287.327	7.48
287.541	7.57
287.754	7.83
287.968	7.96
288.181	7.68
288.395	7.74
288.608	7.59
288.822	7.73
289.035	7.62
289.248	7.44
289.462	7.3
289.675	7.28
289.889	7.41
290.102	7.33
290.315	7.35
290.529	7.6
290.742	7.7
290.955	7.36
291.169	7.44
291.382	7.81
291.595	7.94
291.808	7.99
292.022	7.77
292.235	7.61
292.448	7.9
292.661	7.97
292.875	8.02
293.088	8.07
293.301	8.72
293.514	8.35
293.727	7.8
293.94	7.79
294.153	8.17
294.367	8.51
294.58	8.34
294.793	8.08
295.006	8.09
295.219	7.86
295.432	7.84
295.645	7.38
295.858	7.3
296.071	7.44
296.284	7.42
296.497	7.12
296.71	6.78
296.923	6.79
297.136	6.78
297.349	6.97
297.562	7.18
297.775	7.18
297.988	7.49
298.201	7.66
298.414	7.45
298.626	7.32
298.839	7.39
299.052	7.47
299.265	7.61
299.478	7.82
299.691	7.47
299.903	7.43
300.116	7.51
300.329	7.69
300.542	7.74
300.755	8.02
300.967	8.13
301.18	7.98
301.393	7.99
301.605	8.16
301.818	8.17
302.031	8.49
302.243	8.75
302.456	9.1
302.669	8.97
302.881	9.12
303.094	9.07
303.307	9.26
303.519	9.61
303.732	9.78
303.944	9.72
304.157	9.5
304.37	9.07
304.582	8.89
304.795	8.6
305.007	8.51
305.22	8.3
305.432	8.34
305.645	8.49
305.857	8.67
306.069	8.98
306.282	9.01
306.494	9.29
306.707	9.99
306.919	10.03
307.132	10.13
307.344	10.29
307.556	10.87
307.769	11.19
307.981	10.74
308.193	10.36
308.406	10.19
308.618	10.36
308.83	10.15
309.043	9.8
309.255	9.59
309.467	9.55
309.679	9.44
309.892	9.11
310.104	8.66
310.316	8.85
310.528	8.84
310.74	8.79
310.953	8.85
311.165	8.86
311.377	8.9
311.589	9.07
311.801	8.9
312.013	8.52
312.225	8.66
312.437	9.07
312.649	9.19
312.862	9.68
313.074	9.82
313.286	9.93
313.498	9.97
313.71	10.01
313.922	9.96
314.134	10.21
314.346	10.51
314.558	10.86
314.77	10.89
314.982	11.08
315.193	10.76
315.405	10.88
315.617	10.59
315.829	10.9
316.041	10.8
316.253	11.18
316.465	11.3
316.677	11.96
316.888	11.9
317.1	11.96
317.312	11.4
317.524	11.5
317.736	12.08
317.947	12.19
318.159	12.13
318.371	12.57
318.583	12.77
318.794	13.06
319.006	13.36
319.218	13.02
319.43	13.27
319.641	13.96
319.853	13.99
320.064	13.42
320.276	13.61
320.488	14.16
320.699	14.18
320.911	13.88
321.123	13.96
321.334	13.71
321.546	14.26
321.757	14.57
321.969	14.37
322.18	14.61
322.392	14.71
322.603	14.77
322.815	14.59
323.026	14.56
323.238	14.63
323.449	14.4
323.661	13.87
323.872	13.48
324.083	13.41
324.295	13.49
324.506	13.27
324.718	13.01
324.929	12.86
325.14	12.71
325.352	12.23
325.563	11.91
325.774	12.15
325.986	12.16
326.197	12.26
326.408	11.93
326.62	11.89
326.831	12.08
327.042	12.35
327.253	12.48
327.464	12.29
327.676	13.15
327.887	13.63
328.098	13.61
328.309	13.96
328.52	14.17
328.732	14.52
328.943	14.73
329.154	14.7
329.365	14.83
329.576	14.88
329.787	15.2
329.998	14.86
330.209	14.88
330.42	14.81
330.631	15.09
330.842	15.25
331.053	15.14
331.264	14.98
331.475	15.23
331.686	15.17
331.897	15.03
332.108	15.11
332.319	14.91
332.53	14.94
332.741	14.64
332.952	14.66
333.163	14.36
333.374	14.49
333.585	14.47
333.795	14.43
334.006	14.21
334.217	14.5
334.428	14.29
334.639	14.46
334.849	14.33
335.06	14.6
335.271	14.58
335.482	14.83
335.692	14.75
335.903	15.22
336.114	14.84
336.325	15.11
336.535	15.14
336.746	15.48
336.957	15.53
337.167	15.81
337.378	15.9
337.589	15.8
337.799	15.75
338.01	15.79
338.22	15.56
338.431	16.19
338.642	16.29
338.852	15.99
339.063	15.71
339.273	15.34
339.484	15.18
339.694	15.35
339.905	15.49
340.115	15.18
340.326	15.19
340.536	15.18
340.746	14.7
340.957	14.48
341.167	14.93
341.378	15.23
341.588	15.64
341.799	15.45
342.009	15.08
342.219	14.99
342.43	15.76
342.64	15.45
342.85	15.32
343.061	15.16
343.271	15.37
343.481	14.82
343.691	14.78
343.902	14.46
344.112	14.55
344.322	14.57
344.532	14.75
344.743	14.17
344.953	14.64
345.163	14.52
345.373	14.84
345.583	14.44
345.793	14.66
346.004	14.83
346.214	15.09
346.424	15.17
346.634	15.16
346.844	14.75
347.054	14.79
347.264	14.31
347.474	14.55
347.684	14.69
347.894	14.7
348.104	14.63
348.314	14
348.524	13.79
348.734	13.67
348.944	13.68
349.154	13.6
349.364	13.85
349.574	14
349.784	13.94
349.994	13.5
350.204	13.78
350.413	13.98
350.623	14.27
350.833	14.3
351.043	14.15
351.253	14.26
351.463	14.63
351.672	14.32
351.882	14.32
352.092	14.18
352.302	14.45
352.511	14.39
352.721	14.33
352.931	14.42
353.141	14.23
353.35	14.25
353.56	14.32
353.77	14.14
353.979	14.13
354.189	14.21
354.399	14.43
354.608	14.4
354.818	14.23
355.027	14.05
355.237	13.94
355.447	14.1
355.656	13.99
355.866	13.91
356.075	13.84
356.285	13.81
356.494	13.34
356.704	12.89
356.913	12.79
357.123	12.66
357.332	12.62
357.542	12.63
357.751	12.53
357.96	12.85
358.17	12.6
358.379	12.58
358.589	12.71
358.798	13.06
359.007	13.47
359.217	13.22
359.426	13.28
359.635	13.37
359.845	13.18
360.054	13.18
360.263	12.87
360.472	12.89
360.682	12.84
360.891	12.7
361.1	12.52
361.309	12.31
361.519	12.41
361.728	12.22
361.937	12.1
362.146	11.97
362.355	12.08
362.564	12.19
362.774	12.09
362.983	11.98
363.192	11.88
363.401	11.92
363.61	11.81
363.819	12.11
364.028	12.31
364.237	12.54
364.446	12.91
364.655	12.76
364.864	12.72
365.073	12.94
365.282	13.09
365.491	13.07
365.7	12.94
365.909	13.18
366.118	12.92
366.327	12.98
366.536	12.67
366.745	12.57
366.954	12.42
367.162	12.33
367.371	12.19
367.58	12.18
367.789	12.19
367.998	12.36
368.207	12.21
368.415	11.95
368.624	12.34
368.833	12.48
369.042	12.65
369.25	12.97
369.459	12.91
369.668	12.98
369.877	12.87
370.085	12.8
370.294	12.8
370.503	12.79
370.711	12.67
370.92	12.23
371.129	12.25
371.337	11.81
371.546	11.52
371.754	11.82
371.963	11.88
372.171	11.91
372.38	11.68
372.589	11.48
372.797	11.62
373.006	11.78
373.214	11.8
373.423	11.79
373.631	12.03
373.84	12.02
374.048	11.86
374.256	11.61
374.465	11.43
374.673	11.71
374.882	11.81
375.09	11.77
375.298	11.66
375.507	11.66
375.715	11.58
375.923	11.34
376.132	11.36
376.34	11.22
376.548	11.23
376.757	11.45
376.965	11.74
377.173	11.7
377.381	11.67
377.59	11.84
377.798	11.79
378.006	11.55
378.214	11.6
378.423	11.5
378.631	11.58
378.839	11.6
379.047	11.37
379.255	11.07
379.463	11.14
379.671	11.05
379.879	10.91
380.088	10.81
380.296	10.98
380.504	11.19
380.712	11.19
380.92	11.02
381.128	11.12
381.336	11.23
381.544	11.5
381.752	11.36
381.96	11.25
382.168	11.47
382.376	11.47
382.584	11.5
382.791	11.35
382.999	11.18
383.207	11.43
383.415	11.59
383.623	11.66
383.831	11.29
384.039	11.36
384.247	11.23
384.454	11.04
384.662	10.85
384.87	10.88
385.078	10.73
385.285	10.89
385.493	10.53
385.701	10.32
385.909	10.25
386.116	10.31
386.324	10.11
386.532	10.28
386.739	10.32
386.947	10.42
387.155	10.36
387.362	10.17
387.57	10.21
387.778	10.17
387.985	10.08
388.193	10.09
388.4	9.99
388.608	10.22
388.816	10.07
389.023	9.94
389.231	9.94
389.438	9.84
389.646	10.11
389.853	10.08
390.061	10.16
390.268	10.14
390.475	10.01
390.683	9.91
390.89	9.71
391.098	9.85
391.305	9.84
391.512	9.85
391.72	9.74
391.927	9.44
392.135	9.2
392.342	9.32
392.549	9.41
392.756	9.28
392.964	9.22
393.171	9.22
393.378	8.99
393.586	8.96
393.793	8.91
394	8.82
394.207	8.89
394.414	8.93
394.622	8.79
394.829	8.67
395.036	8.82
395.243	8.86
395.45	8.78
395.657	8.87
395.864	8.88
396.072	8.63
396.279	8.56
396.486	8.63
396.693	8.74
396.9	8.54
397.107	8.24
397.314	8.42
397.521	8.46
397.728	8.38
397.935	8.44
398.142	8.4
398.349	8.67
398.556	8.8
398.763	8.87
398.97	8.93
399.177	9.14
399.383	9.5
399.59	9.45
399.797	9.47
400.004	9.6
400.211	9.47
400.418	9.56
400.625	9.65
400.831	9.88
401.038	9.86
401.245	9.72
401.452	9.68
401.658	9.61
401.865	9.33
402.072	9.43
402.279	9.46
402.485	9.51
402.692	9.36
402.899	9.23
403.105	9.03
403.312	8.97
403.519	8.95
403.725	9.08
403.932	9.08
404.138	9.19
404.345	9
404.552	8.89
404.758	8.76
404.965	8.71
405.171	8.84
405.378	8.9
405.584	9
405.791	9.01
405.997	8.95
406.204	8.84
406.41	8.75
406.617	8.79
406.823	8.73
407.029	8.89
407.236	9.09
407.442	8.93
407.649	8.79
407.855	8.59
408.061	8.53
408.268	8.54
408.474	8.71
408.68	8.87
408.887	8.84
409.093	9.07
409.299	8.88
409.505	8.74
409.712	8.78
409.918	8.87
410.124	8.93
410.33	8.88
410.537	8.79
410.743	8.57
410.949	8.38
411.155	8.37
411.361	8.21
411.567	8.44
411.773	8.45
411.98	8.33
412.186	8.34
412.392	8.41
412.598	8.54
412.804	8.56
413.01	8.48
413.216	8.54
413.422	8.64
413.628	8.59
413.834	8.33
414.04	8.28
414.246	8.27
414.452	8.25
414.658	8.25
414.864	8.27
415.07	8.26
415.275	8.43
415.481	8.43
415.687	8.47
415.893	8.56
416.099	8.6
416.305	8.66
416.511	8.68
416.716	8.68
416.922	8.6
417.128	8.43
417.334	8.38
417.539	8.34
417.745	8.34
417.951	8.13
418.157	7.95
418.362	7.87
418.568	7.77
418.774	7.71
418.979	7.72
419.185	7.69
419.391	7.74
419.596	7.69
419.802	7.64
420.008	7.53
420.213	7.71
420.419	7.8
420.624	7.89
420.83	7.93
421.035	7.9
421.241	7.85
421.446	7.82
421.652	7.8
421.857	7.75
422.063	7.79
422.268	7.84
422.474	7.7
422.679	7.61
422.885	7.57
423.09	7.48
423.295	7.53
423.501	7.51
423.706	7.56
423.911	7.54
424.117	7.64
424.322	7.65
424.527	7.73
424.733	7.74
424.938	7.82
425.143	7.81
425.349	7.91
425.554	7.85
425.759	7.91
425.964	7.98
426.169	7.99
426.375	7.98
426.58	7.88
426.785	7.81
426.99	7.97
427.195	7.91
427.4	7.93
427.605	7.99
427.811	8.16
428.016	8.08
428.221	8.07
428.426	8.07
428.631	8.11
428.836	8.12
429.041	8.05
429.246	8
429.451	8.08
429.656	8.01
429.861	7.9
430.066	7.86
430.271	7.9
430.476	7.77
430.681	7.91
430.886	7.96
431.09	8.08
431.295	8.17
431.5	8.05
431.705	8.1
431.91	8.1
432.115	8.26
432.32	8.28
432.524	8.3
432.729	8.38
432.934	8.37
433.139	8.25
433.343	8.12
433.548	8.14
433.753	8.19
433.958	8.2
434.162	8.24
434.367	8.23
434.572	8.21
434.776	8.17
434.981	8.07
435.186	8.02
435.39	8.09
435.595	8.25
435.799	8.26
436.004	8.31
436.209	8.36
436.413	8.45
436.618	8.31
436.822	8.38
437.027	8.33
437.231	8.4
437.436	8.44
437.64	8.43
437.845	8.36
438.049	8.35
438.253	8.26
438.458	8.13
438.662	8.07
438.867	8.06
439.071	7.9
439.275	7.96
439.48	7.93
439.684	7.93
439.888	7.93
440.093	8.01
440.297	7.92
440.501	7.92
440.706	7.96
440.91	7.98
441.114	7.93
441.318	7.96
441.523	8.02
441.727	8.09
441.931	8.05
442.135	7.97
442.339	7.9
442.543	7.93
442.748	7.96
442.952	7.96
443.156	7.85
443.36	8.03
443.564	8.15
443.768	8.05
443.972	8.08
444.176	8.02
444.38	8.08
444.584	8.11
444.788	8.2
444.992	8.21
445.196	8.14
445.4	8.18
445.604	8.07
445.808	8.04
446.012	8.05
446.216	7.98
446.42	8
446.624	8.03
446.828	8.01
447.032	7.9
447.235	7.88
447.439	7.89
447.643	7.85
447.847	7.87
448.051	7.88
448.254	7.85
448.458	7.87
448.662	7.84
448.866	7.79
449.069	7.78
449.273	7.83
449.477	7.85
449.681	7.89
449.884	7.95
450.088	8.02
450.292	7.97
450.495	8.06
450.699	8.19
450.902	8.09
451.106	8.11
451.31	8.16
451.513	8.14
451.717	8.14
451.92	8.06
452.124	8.14
452.327	8.07
452.531	8.11
452.734	8.06
452.938	7.92
453.141	8.02
453.345	8.05
453.548	7.99
453.752	8.01
453.955	8.01
454.158	7.99
454.362	8.02
454.565	8.02
454.769	7.94
454.972	7.88
455.175	7.95
455.379	7.95
455.582	7.93
455.785	7.93
455.988	7.82
456.192	7.75
456.395	7.82
456.598	7.7
456.801	7.76
457.005	7.8
457.208	7.88
457.411	7.84
457.614	7.92
457.817	7.98
458.021	7.91
458.224	7.99
458.427	7.98
458.63	8.01
458.833	8.05
459.036	8.04
459.239	7.94
459.442	7.89
459.645	7.85
459.848	7.79
460.051	7.76
460.254	7.85
460.457	7.94
460.66	7.93
460.863	7.96
461.066	7.95
461.269	7.9
461.472	7.98
