Data from 2938810__Reflection_03.txt Node
Date: Thu Mar 12 16:59:03 EDT 2015
User: robert
Spectrometer: USB4E03002
Autoset integration time: false
Trigger mode: 4
Integration Time (sec): 1.000000E-1
Scans to average: 10
Electric dark correction enabled: false
Nonlinearity correction enabled: false
Boxcar width: 5
Stray light correction enabled: false
XAxis mode: Wavelengths
Stop averaging: false
Number of Pixels in Spectrum: 3648
>>>>>Begin Spectral Data<<<<<
177.575	-144.62
177.794	-397.53
178.014	1078.57
178.233	-2047.62
178.452	-10650
178.672	-1603.85
178.891	498.57
179.11	427.78
179.33	110.09
179.549	473.91
179.768	148.34
179.987	204.42
180.207	740.74
180.426	1516.67
180.645	503.61
180.864	407.75
181.084	321.5
181.303	423.24
181.522	317.06
181.741	698.4
181.96	1853.85
182.179	1201.85
182.398	-654.39
182.618	250.65
182.837	1004.08
183.056	369.11
183.275	334.88
183.494	1187.18
183.713	-24600
183.932	326.5
184.151	166.34
184.37	142
184.589	242.09
184.808	177.67
185.027	155.53
185.246	87.73
185.465	116.15
185.684	295.08
185.903	278.86
186.122	194.39
186.341	-322.03
186.56	-2040
186.779	-63.3
186.998	-4.99
187.216	33.41
187.435	12.56
187.654	-14.31
187.873	-23.92
188.092	-72.92
188.311	-136.4
188.53	-61.45
188.748	-70.62
188.967	-64.92
189.186	-132.1
189.405	-994.59
189.623	842.59
189.842	151.21
190.061	142.65
190.28	140.68
190.498	143.89
190.717	146.41
190.936	106.45
191.154	103.58
191.373	83.51
191.592	111.53
191.81	74.17
192.029	87.44
192.248	126.11
192.466	156.88
192.685	210.16
192.904	172.67
193.122	138.55
193.341	205.28
193.559	186.83
193.778	179.18
193.996	185.19
194.215	195.52
194.433	160.42
194.652	176.65
194.87	179.9
195.089	142.11
195.307	123.91
195.526	134.73
195.744	134.22
195.963	141.87
196.181	182.93
196.399	90.4
196.618	76.49
196.836	57.53
197.055	46.55
197.273	132.04
197.491	125.45
197.71	248.05
197.928	304.58
198.146	235.82
198.365	120.47
198.583	250
198.801	312.03
199.019	185.24
199.238	268
199.456	376.11
199.674	250.26
199.892	1142.11
200.111	356.35
200.329	287.17
200.547	210.41
200.765	263.39
200.983	181.36
201.202	261.13
201.42	2137.93
201.638	51400
201.856	1063.46
202.074	-4313.33
202.292	990.62
202.51	432.37
202.728	228.72
202.946	294.7
203.165	189.32
203.383	151.02
203.601	159.18
203.819	141.54
204.037	183.07
204.255	131.21
204.473	112.23
204.691	113.39
204.909	151.08
205.127	238.89
205.345	205.72
205.562	264.18
205.78	371.15
205.998	563.28
206.216	626.92
206.434	395.09
206.652	-1847.83
206.87	-993.02
207.088	-109.62
207.306	-264.33
207.523	-525.81
207.741	-718
207.959	329.49
208.177	186.79
208.395	128.94
208.612	84.46
208.83	77.3
209.048	86.63
209.266	80.88
209.483	61.12
209.701	50.68
209.919	40.84
210.136	43.72
210.354	26.04
210.572	-0.94
210.79	24.69
211.007	19.95
211.225	-10.47
211.442	-20.44
211.66	-21.35
211.878	9.69
212.095	15.09
212.313	24.62
212.53	21.7
212.748	41.56
212.966	49.53
213.183	38.29
213.401	45.97
213.618	51.99
213.836	56.92
214.053	58.69
214.271	42.49
214.488	53.47
214.705	31.01
214.923	34.38
215.14	23.02
215.358	24.73
215.575	20.94
215.793	11.78
216.01	0.61
216.227	16.4
216.445	17.17
216.662	13.1
216.879	13.64
217.097	53.45
217.314	44.95
217.531	32.52
217.749	36.58
217.966	34.87
218.183	52.33
218.4	58.51
218.618	51.52
218.835	48.31
219.052	45.25
219.269	39.39
219.487	34.7
219.704	41.78
219.921	61.78
220.138	51.8
220.355	59.31
220.572	56.08
220.79	50.88
221.007	57.09
221.224	46.69
221.441	56.55
221.658	49.41
221.875	55.32
222.092	53.5
222.309	40.06
222.526	39.27
222.743	31.85
222.96	31.18
223.177	34.28
223.394	21.35
223.611	26.26
223.828	25.44
224.045	24.29
224.262	18.2
224.479	11.18
224.696	6.43
224.913	3.99
225.13	13.79
225.347	8.55
225.564	1.36
225.781	1.46
225.997	1.81
226.214	1.55
226.431	4.24
226.648	5.29
226.865	7.5
227.082	8.15
227.298	8.49
227.515	7.35
227.732	9
227.949	9.85
228.165	10.74
228.382	10.6
228.599	10.03
228.816	9.59
229.032	8.96
229.249	9.01
229.466	8.8
229.682	8.28
229.899	8.58
230.116	8.44
230.332	8.65
230.549	7.45
230.765	6.57
230.982	7.26
231.199	7.7
231.415	6.89
231.632	6.81
231.848	7.4
232.065	8.22
232.281	7.4
232.498	6.52
232.714	6.27
232.931	9.22
233.147	11.7
233.364	11.22
233.58	11.44
233.797	14.73
234.013	15.73
234.23	14.22
234.446	13.91
234.662	14.16
234.879	13.96
235.095	14.56
235.312	13.28
235.528	13.07
235.744	12.78
235.961	12.3
236.177	11.9
236.393	11.52
236.61	10.48
236.826	10.86
237.042	9.48
237.258	9.63
237.475	9.83
237.691	8.69
237.907	6.82
238.123	6.46
238.339	6.84
238.556	5.73
238.772	4.38
238.988	6.03
239.204	5.06
239.42	4.7
239.636	5.42
239.853	5.59
240.069	6.71
240.285	7.04
240.501	6.46
240.717	6.64
240.933	7.12
241.149	6.97
241.365	7.38
241.581	7.6
241.797	8.11
242.013	7.68
242.229	6.8
242.445	7.32
242.661	7.49
242.877	7.41
243.093	6.93
243.309	6.86
243.525	6.94
243.741	6.51
243.957	6.52
244.173	5.94
244.388	6.05
244.604	6.2
244.82	5.42
245.036	5.64
245.252	5.87
245.468	6.05
245.683	5.45
245.899	5.45
246.115	5.26
246.331	5.12
246.547	5.45
246.762	5.37
246.978	5.6
247.194	5.3
247.409	5.12
247.625	4.99
247.841	5.13
248.057	4.91
248.272	4.94
248.488	5.26
248.703	5.38
248.919	5.4
249.135	5.38
249.35	5.22
249.566	5.26
249.782	5.3
249.997	6.1
250.213	5.64
250.428	7.27
250.644	6.81
250.859	6.96
251.075	6.56
251.29	6.42
251.506	6.09
251.721	6.31
251.937	6.46
252.152	6.26
252.368	5.45
252.583	6.25
252.798	5.59
253.014	6.01
253.229	5.78
253.445	5.79
253.66	5.49
253.875	5.78
254.091	6.29
254.306	6.86
254.521	6.95
254.737	7.61
254.952	6.13
255.167	5.56
255.383	5.77
255.598	6.26
255.813	6.97
256.028	7.24
256.244	7.51
256.459	6.35
256.674	6.33
256.889	6.12
257.104	6.1
257.32	6.16
257.535	6.86
257.75	6.26
257.965	5.42
258.18	4.95
258.395	4.84
258.61	4.76
258.826	4.67
259.041	4.53
259.256	4.49
259.471	4.31
259.686	4.17
259.901	4.08
260.116	4.23
260.331	4.33
260.546	4.45
260.761	4.55
260.976	4.35
261.191	4.46
261.406	4.46
261.621	4.6
261.836	4.81
262.05	5.05
262.265	4.83
262.48	4.83
262.695	5.03
262.91	5.6
263.125	5.29
263.34	5.42
263.555	5.17
263.769	4.64
263.984	4.89
264.199	4.88
264.414	4.95
264.629	4.95
264.843	5.38
265.058	5.22
265.273	4.36
265.488	4.75
265.702	5.04
265.917	5.07
266.132	4.94
266.346	5.05
266.561	4.72
266.776	4.69
266.99	4.64
267.205	4.26
267.42	4.04
267.634	4.26
267.849	3.82
268.063	3.55
268.278	3.8
268.492	4.04
268.707	3.49
268.922	3.9
269.136	3.93
269.351	4
269.565	3.81
269.78	4.28
269.994	4.78
270.209	5.12
270.423	5.23
270.637	4.96
270.852	5.01
271.066	5.34
271.281	5.25
271.495	5.18
271.709	4.83
271.924	4.96
272.138	4.89
272.353	4.16
272.567	4.12
272.781	4.26
272.996	3.97
273.21	4.04
273.424	3.74
273.638	3.1
273.853	3.27
274.067	3.43
274.281	3.46
274.495	3.61
274.71	3.85
274.924	4.03
275.138	4.09
275.352	4.5
275.566	4.38
275.781	4.57
275.995	5.54
276.209	5.1
276.423	5.51
276.637	5.48
276.851	5.13
277.065	4.73
277.279	4.41
277.493	4.39
277.707	4.71
277.921	4.35
278.135	3.91
278.349	3.58
278.563	4.33
278.777	4.13
278.991	3.79
279.205	3.95
279.419	4.58
279.633	4.9
279.847	4.3
280.061	4.25
280.275	4.61
280.489	5.07
280.703	4.83
280.917	3.8
281.131	3.59
281.344	4.05
281.558	3.55
281.772	3.24
281.986	2.71
282.2	2.89
282.414	2.64
282.627	2.96
282.841	2.74
283.055	3.05
283.269	3.6
283.482	3.61
283.696	3.32
283.91	3.49
284.123	3.7
284.337	3.84
284.551	3.9
284.764	4.09
284.978	3.99
285.192	3.86
285.405	3.75
285.619	3.46
285.833	3.77
286.046	3.76
286.26	4.1
286.473	4.09
286.687	4.34
286.9	4.55
287.114	4.53
287.327	4.38
287.541	4.91
287.754	5.18
287.968	5.54
288.181	5.13
288.395	5.24
288.608	4.74
288.822	4.68
289.035	4.54
289.248	4.41
289.462	4.31
289.675	4.46
289.889	3.98
290.102	3.67
290.315	3.64
290.529	3.93
290.742	3.86
290.955	4.34
291.169	4.37
291.382	4.25
291.595	3.99
291.808	4.06
292.022	3.71
292.235	3.9
292.448	4.12
292.661	4.06
292.875	4.21
293.088	4.57
293.301	4.36
293.514	4.24
293.727	4.42
293.94	4.82
294.153	4.59
294.367	4.98
294.58	5.12
294.793	5
295.006	5.19
295.219	4.77
295.432	4.64
295.645	4.64
295.858	4.7
296.071	4.44
296.284	4.37
296.497	4.49
296.71	4.6
296.923	4.45
297.136	4.56
297.349	4.38
297.562	4.34
297.775	4.51
297.988	4.64
298.201	4.62
298.414	4.72
298.626	4.69
298.839	4.86
299.052	4.39
299.265	4.47
299.478	4.45
299.691	4.5
299.903	4.78
300.116	4.57
300.329	4.73
300.542	4.6
300.755	4.89
300.967	4.58
301.18	4.41
301.393	4.32
301.605	4.12
301.818	4
302.031	3.83
302.243	3.66
302.456	3.66
302.669	3.2
302.881	3.63
303.094	3.56
303.307	4.04
303.519	4.18
303.732	4.51
303.944	4.57
304.157	4.75
304.37	4.94
304.582	4.95
304.795	4.81
305.007	4.8
305.22	4.84
305.432	4.75
305.645	4.75
305.857	5.16
306.069	5.02
306.282	5.07
306.494	5
306.707	4.84
306.919	4.99
307.132	5.44
307.344	5.75
307.556	5.26
307.769	5.29
307.981	5.28
308.193	4.82
308.406	5.28
308.618	5.5
308.83	5.63
309.043	5.75
309.255	6.11
309.467	5.8
309.679	5.95
309.892	6.22
310.104	6.13
310.316	6
310.528	6.07
310.74	5.99
310.953	5.87
311.165	5.89
311.377	6.21
311.589	5.74
311.801	5.6
312.013	5.4
312.225	5.27
312.437	5.31
312.649	5.41
312.862	5.77
313.074	5.08
313.286	5.12
313.498	5.08
313.71	4.79
313.922	5.02
314.134	4.67
314.346	4.94
314.558	5.34
314.77	5.49
314.982	5.89
315.193	5.34
315.405	5.93
315.617	5.96
315.829	5.66
316.041	5.72
316.253	5.46
316.465	6.77
316.677	6.68
316.888	6.43
317.1	6.53
317.312	6.17
317.524	6.44
317.736	6.77
317.947	6.95
318.159	7.21
318.371	7.13
318.583	7.31
318.794	7.19
319.006	7.37
319.218	7.33
319.43	7.52
319.641	7.43
319.853	7.16
320.064	6.86
320.276	7.08
320.488	7.03
320.699	6.92
320.911	7.15
321.123	6.67
321.334	5.88
321.546	6.5
321.757	6.78
321.969	6.52
322.18	7.14
322.392	6.85
322.603	6.14
322.815	6.45
323.026	7.12
323.238	7.15
323.449	7.13
323.661	7.28
323.872	6.86
324.083	6.46
324.295	6.66
324.506	6.45
324.718	6.53
324.929	6.66
325.14	6.31
325.352	6.09
325.563	5.93
325.774	6.08
325.986	6.46
326.197	6.66
326.408	6.72
326.62	6.9
326.831	6.72
327.042	6.94
327.253	6.96
327.464	7.17
327.676	7.05
327.887	7.16
328.098	7
328.309	6.93
328.52	6.84
328.732	6.95
328.943	7.11
329.154	7.16
329.365	7.36
329.576	7.53
329.787	7.69
329.998	8.08
330.209	7.92
330.42	8.1
330.631	8.02
330.842	7.74
331.053	7.54
331.264	7.14
331.475	6.78
331.686	6.8
331.897	6.76
332.108	6.79
332.319	6.68
332.53	6.46
332.741	6.14
332.952	6.1
333.163	6.43
333.374	6.48
333.585	6.7
333.795	7.01
334.006	6.91
334.217	6.81
334.428	6.34
334.639	6.26
334.849	7.18
335.06	7.12
335.271	7.32
335.482	7.51
335.692	7.56
335.903	7.79
336.114	7.96
336.325	7.82
336.535	8.03
336.746	8.21
336.957	7.93
337.167	7.38
337.378	7.5
337.589	7.26
337.799	6.84
338.01	6.9
338.22	6.76
338.431	6.46
338.642	6.46
338.852	6.47
339.063	6.55
339.273	6.77
339.484	6.93
339.694	7
339.905	7.2
340.115	7.41
340.326	7.26
340.536	6.98
340.746	7.27
340.957	7.24
341.167	7.16
341.378	7.31
341.588	7.24
341.799	7.18
342.009	7.13
342.219	7.04
342.43	7
342.64	6.9
342.85	6.89
343.061	6.62
343.271	6.85
343.481	6.88
343.691	6.41
343.902	6.25
344.112	6.53
344.322	6.55
344.532	6.43
344.743	6.53
344.953	6.82
345.163	7
345.373	7.07
345.583	7.02
345.793	7.21
346.004	7.23
346.214	7.38
346.424	7.08
346.634	7.23
346.844	7.17
347.054	7.2
347.264	6.71
347.474	6.48
347.684	6.69
347.894	6.57
348.104	6.33
348.314	6.26
348.524	6.04
348.734	5.88
348.944	5.53
349.154	5.48
349.364	5.24
349.574	5.47
349.784	5.56
349.994	5.52
350.204	5.38
350.413	5.29
350.623	5.62
350.833	5.39
351.043	5.13
351.253	5.47
351.463	5.75
351.672	5.71
351.882	5.82
352.092	5.68
352.302	5.61
352.511	5.71
352.721	5.7
352.931	5.57
353.141	5.92
353.35	6.19
353.56	5.81
353.77	5.75
353.979	5.61
354.189	5.8
354.399	6.13
354.608	6.26
354.818	6.27
355.027	6.27
355.237	6.55
355.447	6.51
355.656	6.55
355.866	6.78
356.075	6.65
356.285	6.74
356.494	6.37
356.704	6.27
356.913	6.05
357.123	6
357.332	5.96
357.542	5.7
357.751	5.81
357.96	5.64
358.17	5.61
358.379	5.44
358.589	5.47
358.798	5.32
359.007	5.45
359.217	5.65
359.426	5.81
359.635	6.08
359.845	6.21
360.054	6.1
360.263	6.25
360.472	6.24
360.682	6.42
360.891	6.37
361.1	6.53
361.309	6.38
361.519	6.03
361.728	5.97
361.937	5.84
362.146	5.7
362.355	5.57
362.564	5.53
362.774	5.43
362.983	5.3
363.192	5.27
363.401	5.52
363.61	5.49
363.819	5.79
364.028	5.91
364.237	5.85
364.446	6.04
364.655	6.23
364.864	6.12
365.073	6.22
365.282	6.31
365.491	6.35
365.7	6.1
365.909	6.09
366.118	6.2
366.327	6.04
366.536	6.3
366.745	6.48
366.954	6.38
367.162	6.34
367.371	6.19
367.58	6
367.789	5.97
367.998	5.88
368.207	5.74
368.415	5.6
368.624	5.54
368.833	5.43
369.042	4.98
369.25	5.07
369.459	5.19
369.668	5.03
369.877	5.2
370.085	5.07
370.294	5.03
370.503	5.26
370.711	5.22
370.92	5.3
371.129	5.28
371.337	5.3
371.546	5.31
371.754	5.44
371.963	5.67
372.171	5.67
372.38	5.63
372.589	5.43
372.797	5.29
373.006	5.3
373.214	5.37
373.423	5.01
373.631	5.02
373.84	4.84
374.048	4.73
374.256	4.62
374.465	4.52
374.673	4.5
374.882	4.39
375.09	4.51
375.298	4.45
375.507	4.34
375.715	4.76
375.923	4.77
376.132	4.65
376.34	4.58
376.548	4.51
376.757	4.5
376.965	4.42
377.173	4.75
377.381	4.56
377.59	4.55
377.798	4.71
378.006	4.24
378.214	4.4
378.423	4.76
378.631	4.88
378.839	5
379.047	5.11
379.255	5.21
379.463	5.15
379.671	5.4
379.879	5.09
380.088	4.68
380.296	4.77
380.504	4.56
380.712	4.26
380.92	3.96
381.128	3.92
381.336	3.86
381.544	3.99
381.752	3.91
381.96	3.77
382.168	4.2
382.376	4.48
382.584	4.47
382.791	4.6
382.999	4.47
383.207	4.64
383.415	4.78
383.623	4.87
383.831	4.76
384.039	4.67
384.247	4.59
384.454	4.32
384.662	3.91
384.87	3.92
385.078	3.6
385.285	3.68
385.493	3.75
385.701	3.45
385.909	2.96
386.116	3
386.324	2.93
386.532	3.04
386.739	3.06
386.947	3.36
387.155	3.76
387.362	4.25
387.57	4.45
387.778	4.6
387.985	4.56
388.193	4.75
388.4	5
388.608	5.24
388.816	5.08
389.023	5.18
389.231	5.21
389.438	4.85
389.646	4.35
389.853	4.12
390.061	4.05
390.268	4.26
390.475	4.58
390.683	4.45
390.89	4.36
391.098	4.33
391.305	4.24
391.512	4.05
391.72	3.94
391.927	4.2
392.135	4.3
392.342	4.23
392.549	4.18
392.756	4.13
392.964	3.89
393.171	3.97
393.378	3.89
393.586	3.86
393.793	3.79
394	3.89
394.207	3.81
394.414	3.76
394.622	3.64
394.829	3.86
395.036	3.52
395.243	3.55
395.45	3.6
395.657	3.74
395.864	3.67
396.072	3.91
396.279	3.92
396.486	3.83
396.693	3.83
396.9	3.88
397.107	3.68
397.314	4.1
397.521	4.2
397.728	3.97
397.935	4.29
398.142	4.47
398.349	4.37
398.556	4.56
398.763	4.71
398.97	4.7
399.177	4.63
399.383	4.4
399.59	3.98
399.797	3.87
400.004	4.06
400.211	3.57
400.418	3.46
400.625	3.46
400.831	3.4
401.038	3.17
401.245	3.33
401.452	3.24
401.658	3.6
401.865	3.88
402.072	4.07
402.279	3.84
402.485	3.97
402.692	4.09
402.899	4.24
403.105	4.23
403.312	4.37
403.519	4.36
403.725	4.3
403.932	4.22
404.138	4.15
404.345	4.14
404.552	4.3
404.758	4.39
404.965	4.45
405.171	4.1
405.378	3.95
405.584	3.94
405.791	3.72
405.997	3.94
406.204	3.73
406.41	3.7
406.617	3.59
406.823	3.54
407.029	3.45
407.236	3.29
407.442	3.45
407.649	3.46
407.855	3.46
408.061	3.73
408.268	3.79
408.474	4.04
408.68	4.13
408.887	4.12
409.093	4.06
409.299	4.14
409.505	4.19
409.712	4.27
409.918	4.22
410.124	4.08
410.33	3.86
410.537	3.77
410.743	3.68
410.949	3.69
411.155	3.69
411.361	3.7
411.567	3.59
411.773	3.49
411.98	3.38
412.186	3.4
412.392	3.61
412.598	3.69
412.804	3.67
413.01	3.59
413.216	3.52
413.422	3.51
413.628	3.84
413.834	3.8
414.04	3.86
414.246	3.95
414.452	4.05
414.658	3.86
414.864	3.75
415.07	3.67
415.275	3.61
415.481	3.54
415.687	3.47
415.893	3.1
416.099	3.12
416.305	3.17
416.511	3.2
416.716	3.18
416.922	3.3
417.128	3.38
417.334	3.53
417.539	3.67
417.745	3.75
417.951	3.74
418.157	3.84
418.362	3.84
418.568	3.75
418.774	3.72
418.979	3.68
419.185	3.65
419.391	3.64
419.596	3.54
419.802	3.49
420.008	3.38
420.213	3.47
420.419	3.45
420.624	3.44
420.83	3.49
421.035	3.42
421.241	3.38
421.446	3.39
421.652	3.46
421.857	3.55
422.063	3.59
422.268	3.7
422.474	3.62
422.679	3.59
422.885	3.75
423.09	3.76
423.295	3.84
423.501	3.89
423.706	3.78
423.911	3.64
424.117	3.61
424.322	3.48
424.527	3.43
424.733	3.46
424.938	3.52
425.143	3.38
425.349	3.36
425.554	3.32
425.759	3.29
425.964	3.39
426.169	3.49
426.375	3.36
426.58	3.37
426.785	3.23
426.99	3.26
427.195	3.2
427.4	3.14
427.605	3.09
427.811	3.15
428.016	3.12
428.221	3.12
428.426	3.12
428.631	3.26
428.836	3.34
429.041	3.61
429.246	3.65
429.451	3.49
429.656	3.6
429.861	3.53
430.066	3.61
430.271	3.69
430.476	3.66
430.681	3.54
430.886	3.48
431.09	3.49
431.295	3.33
431.5	3.27
431.705	3.35
431.91	3.26
432.115	3.4
432.32	3.2
432.524	3.17
432.729	3.24
432.934	3.44
433.139	3.38
433.343	3.33
433.548	3.43
433.753	3.38
433.958	3.46
434.162	3.61
434.367	3.58
434.572	3.66
434.776	3.71
434.981	3.59
435.186	3.47
435.39	3.61
435.595	3.67
435.799	3.64
436.004	3.64
436.209	3.6
436.413	3.5
436.618	3.46
436.822	3.43
437.027	3.33
437.231	3.48
437.436	3.47
437.64	3.4
437.845	3.42
438.049	3.46
438.253	3.53
438.458	3.57
438.662	3.54
438.867	3.46
439.071	3.44
439.275	3.48
439.48	3.3
439.684	3.32
439.888	3.36
440.093	3.31
440.297	3.25
440.501	3.22
440.706	3.2
440.91	3.14
441.114	3.27
441.318	3.3
441.523	3.32
441.727	3.4
441.931	3.37
442.135	3.41
442.339	3.39
442.543	3.37
442.748	3.43
442.952	3.41
443.156	3.55
443.36	3.47
443.564	3.43
443.768	3.41
443.972	3.39
444.176	3.47
444.38	3.44
444.584	3.43
444.788	3.41
444.992	3.46
445.196	3.39
445.4	3.4
445.604	3.5
445.808	3.47
446.012	3.5
446.216	3.45
446.42	3.43
446.624	3.42
446.828	3.39
447.032	3.4
447.235	3.3
447.439	3.32
447.643	3.23
447.847	3.12
448.051	3.23
448.254	3.23
448.458	3.22
448.662	3.23
448.866	3.2
449.069	3.25
449.273	3.3
449.477	3.3
449.681	3.38
449.884	3.46
450.088	3.53
450.292	3.44
450.495	3.34
450.699	3.42
450.902	3.39
451.106	3.38
451.31	3.45
451.513	3.41
451.717	3.37
451.92	3.32
452.124	3.21
452.327	3.12
452.531	3.11
452.734	3.07
452.938	3.1
453.141	3.09
453.345	3.13
453.548	3.04
453.752	3.15
453.955	3.22
454.158	3.28
454.362	3.33
454.565	3.41
454.769	3.44
454.972	3.59
455.175	3.57
455.379	3.59
455.582	3.43
455.785	3.49
455.988	3.43
456.192	3.43
456.395	3.43
456.598	3.44
456.801	3.27
457.005	3.24
457.208	3.22
457.411	3
457.614	2.92
457.817	3.03
458.021	2.98
458.224	2.92
458.427	2.81
458.63	2.79
458.833	2.8
459.036	2.88
459.239	2.86
459.442	2.85
459.645	2.96
459.848	2.92
460.051	3
460.254	3.09
460.457	3.13
460.66	3.25
460.863	3.32
461.066	3.24
461.269	3.27
461.472	3.31
461.675	3.26
461.878	3.37
462.081	3.48
462.284	3.39
462.486	3.34
462.689	3.38
462.892	3.39
463.095	3.23
463.298	3.43
463.5	3.47
463.703	3.43
463.906	3.48
464.109	3.39
464.311	3.42
464.514	3.42
464.717	3.35
464.92	3.28
465.122	3.27
465.325	3.3
465.528	3.22
465.73	3.23
465.933	3.34
466.135	3.36
466.338	3.45
466.541	3.42
466.743	3.42
466.946	3.54
467.148	3.64
467.351	3.66
467.553	3.79
467.756	3.81
467.958	3.7
468.161	3.53
468.363	3.52
468.566	3.35
468.768	3.41
468.971	3.49
469.173	3.44
469.375	3.29
469.578	3.06
469.78	3.01
469.983	3.04
470.185	3.1
470.387	3.16
470.59	3.15
470.792	3.14
470.994	3.03
471.196	3.05
