Data from 2938721__Reflection_01.txt Node
Date: Tue Mar 17 10:43:32 EDT 2015
User: robert
Spectrometer: USB4E03002
Autoset integration time: false
Trigger mode: 4
Integration Time (sec): 1.000000E-1
Scans to average: 10
Electric dark correction enabled: false
Nonlinearity correction enabled: false
Boxcar width: 5
Stray light correction enabled: false
XAxis mode: Wavelengths
Stop averaging: false
Number of Pixels in Spectrum: 3648
>>>>>Begin Spectral Data<<<<<
177.575	223.08
177.794	217.51
178.014	185.25
178.233	214.57
178.452	225.65
178.672	223.9
178.891	280.63
179.11	376.8
179.33	1338.46
179.549	758.62
179.768	536.47
179.987	189.8
180.207	278.26
180.426	-50.73
180.645	-54.55
180.864	-410.87
181.084	-226.46
181.303	-588.89
181.522	-415.6
181.741	-386.15
181.96	3105.26
182.179	4857.14
182.398	652.17
182.618	784.51
182.837	186.15
183.056	199.02
183.275	203.45
183.494	175.66
183.713	144.13
183.932	212.35
184.151	207.07
184.37	-947.73
184.589	-2417.65
184.808	-316.15
185.027	29350
185.246	1964.29
185.465	1050
185.684	501.04
185.903	332.33
186.122	317.7
186.341	249.58
186.56	254.37
186.779	173.81
186.998	210.19
187.216	187.88
187.435	241.4
187.654	282.02
187.873	433.5
188.092	1189.8
188.311	2457.14
188.53	1919.05
188.748	-984.06
188.967	-840.74
189.186	-1380.39
189.405	-864.06
189.623	-207.87
189.842	-495.15
190.061	715.73
190.28	454.91
190.498	372.55
190.717	239.7
190.936	242.23
191.154	274.47
191.373	212.54
191.592	357.86
191.81	253.9
192.029	221.09
192.248	255.41
192.466	-5437.5
192.685	344.35
192.904	213.42
193.122	423.14
193.341	670.59
193.559	169.35
193.778	169.51
193.996	150
194.215	278.17
194.433	223.63
194.652	333.88
194.87	228.01
195.089	417.82
195.307	369.31
195.526	188.95
195.744	156.89
195.963	158.2
196.181	133.09
196.399	125.94
196.618	72.94
196.836	55.38
197.055	56.94
197.273	48.61
197.491	44.67
197.71	55.78
197.928	65.57
198.146	96.56
198.365	124.07
198.583	206.41
198.801	275
199.019	281.22
199.238	229.49
199.456	215.83
199.674	244.38
199.892	276.2
200.111	227.87
200.329	409.37
200.547	350.94
200.765	373.8
200.983	236.3
201.202	142.27
201.42	135.88
201.638	271.91
201.856	228.02
202.074	186.34
202.292	245.89
202.51	156.07
202.728	123.41
202.946	122.19
203.165	148.5
203.383	119.68
203.601	125.29
203.819	114.71
204.037	56.51
204.255	41.62
204.473	29.72
204.691	96.34
204.909	108.25
205.127	72.82
205.345	110.99
205.562	161.43
205.78	369.57
205.998	320
206.216	204.72
206.434	158.41
206.652	166.94
206.87	164.08
207.088	103.66
207.306	158.55
207.523	157.55
207.741	94.71
207.959	71.2
208.177	58.06
208.395	63.25
208.612	62.32
208.83	150.88
209.048	86.99
209.266	284.04
209.483	211.69
209.701	141.27
209.919	204.46
210.136	143.93
210.354	138.8
210.572	417.56
210.79	329.27
211.007	207.43
211.225	130.06
211.442	143.13
211.66	98.93
211.878	89.73
212.095	96.16
212.313	96.68
212.53	117.45
212.748	136.59
212.966	77.73
213.183	76.99
213.401	51.23
213.618	45.86
213.836	28.5
214.053	32.64
214.271	33.27
214.488	6.02
214.705	1.65
214.923	4.49
215.14	-4.42
215.358	-30.09
215.575	23.55
215.793	36.79
216.01	37.66
216.227	27.76
216.445	81.37
216.662	101.73
216.879	229.67
217.097	428.97
217.314	235.74
217.531	214.51
217.749	134.44
217.966	109.89
218.183	150.44
218.4	115.14
218.618	164.74
218.835	69.87
219.052	59.97
219.269	5.79
219.487	-6.57
219.704	28.25
219.921	25.55
220.138	24.54
220.355	20.88
220.572	20.27
220.79	22.76
221.007	21.89
221.224	19.36
221.441	12.28
221.658	26.61
221.875	25.72
222.092	9.34
222.309	14.59
222.526	17.56
222.743	18.71
222.96	19.19
223.177	15.52
223.394	19.62
223.611	23.33
223.828	32.55
224.045	27.88
224.262	26
224.479	28.23
224.696	24.64
224.913	22.71
225.13	23.1
225.347	18.15
225.564	15.91
225.781	10.95
225.997	8.65
226.214	4.3
226.431	4
226.648	3.97
226.865	6.45
227.082	6.16
227.298	6.2
227.515	5.19
227.732	7.36
227.949	7.74
228.165	7.47
228.382	6.78
228.599	6.46
228.816	6.07
229.032	6.21
229.249	5.99
229.466	5.38
229.682	5.44
229.899	5.45
230.116	3.78
230.332	3.73
230.549	3.19
230.765	4.41
230.982	3.95
231.199	3.98
231.415	3.82
231.632	3.49
231.848	3.75
232.065	5.01
232.281	5.33
232.498	6.87
232.714	6.58
232.931	8.68
233.147	8.13
233.364	8.77
233.58	8.31
233.797	10.94
234.013	12.32
234.23	13.8
234.446	12.71
234.662	11
234.879	11.95
235.095	11.94
235.312	10.11
235.528	8.95
235.744	8.3
235.961	8.43
236.177	5.57
236.393	4.77
236.61	1.27
236.826	1.13
237.042	1.24
237.258	0.69
237.475	2.03
237.691	3.63
237.907	4.05
238.123	5.87
238.339	5.62
238.556	4.86
238.772	5.16
238.988	6.74
239.204	7.51
239.42	7.71
239.636	6.19
239.853	5.81
240.069	6.05
240.285	6.55
240.501	5.76
240.717	5.4
240.933	5.16
241.149	4.26
241.365	3.8
241.581	3.86
241.797	4.19
242.013	4.5
242.229	4.45
242.445	4.41
242.661	4.44
242.877	4.65
243.093	5.06
243.309	5.3
243.525	5.89
243.741	6.49
243.957	6.06
244.173	5.62
244.388	5.64
244.604	5.67
244.82	5.3
245.036	5.04
245.252	4.32
245.468	4.43
245.683	4.65
245.899	4.08
246.115	3.72
246.331	3.5
246.547	3.43
246.762	3.62
246.978	4.03
247.194	4.12
247.409	4.08
247.625	4.33
247.841	4.36
248.057	4.13
248.272	4.14
248.488	4.45
248.703	4.55
248.919	4.74
249.135	4.56
249.35	4.14
249.566	4.59
249.782	4.35
249.997	3.93
250.213	3.99
250.428	4.45
250.644	4.99
250.859	4.94
251.075	5.14
251.29	5.19
251.506	5.58
251.721	5.32
251.937	4.27
252.152	4.32
252.368	5.07
252.583	4.95
252.798	5.18
253.014	4.88
253.229	4.5
253.445	4.66
253.66	4.36
253.875	3.76
254.091	3.07
254.306	4.07
254.521	4.03
254.737	3.53
254.952	3.45
255.167	2.89
255.383	3.53
255.598	3.68
255.813	3.41
256.028	3.81
256.244	4.53
256.459	5.09
256.674	4.4
256.889	4.44
257.104	4.02
257.32	2.95
257.535	2.89
257.75	2.67
257.965	2.17
258.18	2.19
258.395	2.7
258.61	2.29
258.826	2.58
259.041	2.86
259.256	3.15
259.471	3.36
259.686	3.77
259.901	3.95
260.116	4.02
260.331	4.4
260.546	4.65
260.761	4.42
260.976	4.71
261.191	4.59
261.406	4.7
261.621	4.49
261.836	4.09
262.05	3.94
262.265	3.83
262.48	3.54
262.695	3.11
262.91	2.51
263.125	2.67
263.34	2.47
263.555	2.4
263.769	1.92
263.984	2.05
264.199	2.72
264.414	3.42
264.629	2.92
264.843	2.8
265.058	3.11
265.273	2.97
265.488	3.49
265.702	3.97
265.917	4.26
266.132	4.67
266.346	4.95
266.561	4.81
266.776	4.34
266.99	4.7
267.205	4.62
267.42	4.53
267.634	4.9
267.849	4.42
268.063	3.8
268.278	3.52
268.492	3.01
268.707	2.94
268.922	2.9
269.136	2.99
269.351	2.64
269.565	2.62
269.78	2.51
269.994	2.15
270.209	2.21
270.423	2.69
270.637	3.02
270.852	3.08
271.066	2.59
271.281	2.73
271.495	2.59
271.709	2.83
271.924	2.9
272.138	3.12
272.353	3.18
272.567	2.71
272.781	2.57
272.996	2.75
273.21	2.78
273.424	3.14
273.638	2.98
273.853	2.55
274.067	2.28
274.281	2.54
274.495	2.35
274.71	2.42
274.924	2.56
275.138	2.39
275.352	1.76
275.566	1.93
275.781	1.92
275.995	2.09
276.209	3.01
276.423	3.22
276.637	2.97
276.851	2.97
277.065	3.31
277.279	3.38
277.493	3.58
277.707	4.03
277.921	3.94
278.135	3.78
278.349	3.33
278.563	2.85
278.777	3.23
278.991	2.78
279.205	2.44
279.419	2.12
279.633	2.21
279.847	2.32
280.061	1.79
280.275	1.93
280.489	2.34
280.703	2.96
280.917	3.35
281.131	3.05
281.344	3.38
281.558	3.7
281.772	3.68
281.986	3.8
282.2	3.73
282.414	3.89
282.627	3.5
282.841	2.89
283.055	2.81
283.269	2.59
283.482	2.58
283.696	2.75
283.91	2.56
284.123	2.29
284.337	1.9
284.551	1.75
284.764	1.7
284.978	1.95
285.192	1.87
285.405	1.72
285.619	1.69
285.833	1.62
286.046	1.57
286.26	1.61
286.473	1.66
286.687	2.18
286.9	2.15
287.114	2.27
287.327	2.2
287.541	2.5
287.754	2.44
287.968	2.68
288.181	2.91
288.395	2.94
288.608	3.28
288.822	3.29
289.035	3.2
289.248	3.46
289.462	3.48
289.675	3.57
289.889	3.76
290.102	3.74
290.315	3.74
290.529	3.76
290.742	3.57
290.955	3.64
291.169	3.99
291.382	4.04
291.595	3.67
291.808	3.59
292.022	3.37
292.235	3.33
292.448	3.39
292.661	2.98
292.875	2.8
293.088	2.97
293.301	2.69
293.514	2.73
293.727	2.67
293.94	3.03
294.153	3.19
294.367	3.67
294.58	3.47
294.793	3.52
295.006	3.46
295.219	3.8
295.432	3.55
295.645	3.62
295.858	3.68
296.071	3.7
296.284	3.73
296.497	3.65
296.71	3.46
296.923	3.55
297.136	3.4
297.349	3.66
297.562	3.6
297.775	3.82
297.988	3.71
298.201	3.54
298.414	3.41
298.626	3.45
298.839	3.48
299.052	3.42
299.265	3.71
299.478	4.14
299.691	4.11
299.903	4.05
300.116	4.03
300.329	4.08
300.542	3.99
300.755	4.01
300.967	3.94
301.18	4.17
301.393	4.16
301.605	3.97
301.818	3.76
302.031	3.74
302.243	3.49
302.456	3.5
302.669	3.6
302.881	3.69
303.094	4.1
303.307	4.03
303.519	3.83
303.732	3.49
303.944	3.2
304.157	3.4
304.37	3.49
304.582	3.53
304.795	3.28
305.007	3.33
305.22	3.5
305.432	3.2
305.645	3.28
305.857	3.17
306.069	3.38
306.282	3.51
306.494	3.39
306.707	3.32
306.919	3.55
307.132	3.77
307.344	3.69
307.556	3.65
307.769	4.17
307.981	4.1
308.193	4.36
308.406	4.46
308.618	4.53
308.83	4.73
309.043	4.52
309.255	4.15
309.467	4.43
309.679	4.28
309.892	4.38
310.104	4.02
310.316	3.99
310.528	3.98
310.74	4.23
310.953	4.23
311.165	4.11
311.377	4.47
311.589	4.94
311.801	4.72
312.013	5.29
312.225	5.61
312.437	5.92
312.649	6.28
312.862	6.36
313.074	6.39
313.286	6.54
313.498	6.62
313.71	6.73
313.922	6.71
314.134	7.13
314.346	6.41
314.558	6
314.77	5.94
314.982	6.06
315.193	5.99
315.405	5.76
315.617	5.34
315.829	5.24
316.041	4.96
316.253	4.73
316.465	4.54
316.677	4.98
316.888	5.19
317.1	4.57
317.312	4.3
317.524	4.48
317.736	4.98
317.947	5.45
318.159	5.32
318.371	5.58
318.583	5.69
318.794	5.64
319.006	5.62
319.218	5.47
319.43	5.73
319.641	5.67
319.853	5.67
320.064	6.06
320.276	6.32
320.488	6.59
320.699	6.56
320.911	6.62
321.123	6.68
321.334	6.92
321.546	7.15
321.757	7.36
321.969	6.91
322.18	6.6
322.392	5.82
322.603	6.06
322.815	6.28
323.026	6.01
323.238	5.65
323.449	5.46
323.661	5.5
323.872	5.39
324.083	5.51
324.295	5.73
324.506	6.05
324.718	6.06
324.929	5.89
325.14	5.74
325.352	5.98
325.563	6.37
325.774	6.84
325.986	6.69
326.197	6.42
326.408	6.29
326.62	6.47
326.831	6.65
327.042	6.87
327.253	6.99
327.464	7.2
327.676	7.4
327.887	7.55
328.098	7.37
328.309	7.38
328.52	7.5
328.732	7.51
328.943	7.64
329.154	7.57
329.365	7.44
329.576	7.27
329.787	7.08
329.998	7.16
330.209	6.94
330.42	6.92
330.631	7.07
330.842	7.35
331.053	7.61
331.264	7.67
331.475	7.6
331.686	7.68
331.897	7.76
332.108	7.99
332.319	7.94
332.53	8.02
332.741	8.38
332.952	8.52
333.163	8.59
333.374	8.63
333.585	8.68
333.795	8.68
334.006	8.71
334.217	8.73
334.428	8.78
334.639	8.74
334.849	8.61
335.06	8.34
335.271	8.11
335.482	8.19
335.692	8.22
335.903	8.36
336.114	8.1
336.325	8.64
336.535	8.65
336.746	8.75
336.957	8.35
337.167	8.44
337.378	8.67
337.589	8.85
337.799	8.76
338.01	8.93
338.22	8.55
338.431	8.98
338.642	8.72
338.852	8.51
339.063	8.19
339.273	8.57
339.484	8.71
339.694	8.6
339.905	8.46
340.115	8.62
340.326	8.54
340.536	8.86
340.746	8.56
340.957	8.54
341.167	8.84
341.378	8.95
341.588	8.64
341.799	8.51
342.009	8.58
342.219	8.59
342.43	8.64
342.64	8.58
342.85	8.48
343.061	8.58
343.271	8.39
343.481	8.35
343.691	8.3
343.902	8.43
344.112	8.43
344.322	8.06
344.532	7.88
344.743	7.82
344.953	7.69
345.163	7.73
345.373	7.53
345.583	7.73
345.793	7.39
346.004	7.3
346.214	7.28
346.424	7.3
346.634	7.7
346.844	8.03
347.054	7.85
347.264	7.87
347.474	8
347.684	8.45
347.894	8.15
348.104	8.38
348.314	8.46
348.524	8.46
348.734	8.56
348.944	8.05
349.154	7.93
349.364	8.06
349.574	7.91
349.784	7.68
349.994	7.28
350.204	7.5
350.413	7.42
350.623	7.31
350.833	7.41
351.043	7.61
351.253	7.77
351.463	7.86
351.672	7.89
351.882	7.98
352.092	8.15
352.302	8
352.511	7.98
352.721	7.87
352.931	8.01
353.141	8.15
353.35	7.61
353.56	7.61
353.77	7.53
353.979	7.4
354.189	7.41
354.399	7.55
354.608	7.98
354.818	7.75
355.027	7.96
355.237	7.65
355.447	7.54
355.656	7.91
355.866	7.91
356.075	7.91
356.285	7.8
356.494	7.96
356.704	7.72
356.913	7.43
357.123	7.43
357.332	7.19
357.542	7.52
357.751	7.59
357.96	7.6
358.17	7.87
358.379	7.9
358.589	7.85
358.798	7.72
359.007	7.7
359.217	7.95
359.426	8.17
359.635	8.46
359.845	8.33
360.054	8.19
360.263	8.09
360.472	7.84
360.682	7.75
360.891	7.89
361.1	7.81
361.309	7.72
361.519	7.61
361.728	7.63
361.937	7.52
362.146	7.56
362.355	7.57
362.564	7.44
362.774	7.49
362.983	7.53
363.192	7.59
363.401	7.71
363.61	7.7
363.819	7.88
364.028	7.72
364.237	7.66
364.446	7.56
364.655	7.65
364.864	7.38
365.073	7.37
365.282	7.44
365.491	7.47
365.7	7.25
365.909	7.34
366.118	7.1
366.327	6.94
366.536	6.91
366.745	6.96
366.954	6.98
367.162	7.45
367.371	7.13
367.58	7.08
367.789	6.86
367.998	7.04
368.207	7.05
368.415	7.06
368.624	7.22
368.833	7.31
369.042	7.36
369.25	7.15
369.459	6.9
369.668	7.22
369.877	7.08
370.085	7.05
370.294	7.06
370.503	6.99
370.711	6.92
370.92	7.07
371.129	6.93
371.337	6.72
371.546	6.65
371.754	6.73
371.963	6.53
372.171	6.44
372.38	6.35
372.589	6.41
372.797	6.51
373.006	6.58
373.214	6.34
373.423	6.44
373.631	6.4
373.84	6.52
374.048	6.23
374.256	6.13
374.465	6.34
374.673	6.22
374.882	5.94
375.09	5.93
375.298	5.82
375.507	5.82
375.715	5.71
375.923	5.53
376.132	5.51
376.34	5.51
376.548	5.62
376.757	5.5
376.965	5.68
377.173	5.8
377.381	5.55
377.59	5.65
377.798	5.62
378.006	5.68
378.214	5.85
378.423	5.71
378.631	5.96
378.839	5.87
379.047	5.85
379.255	5.86
379.463	5.77
379.671	5.91
379.879	5.58
380.088	5.69
380.296	5.65
380.504	5.75
380.712	5.83
380.92	5.65
381.128	5.88
381.336	5.78
381.544	5.77
381.752	5.53
381.96	5.54
382.168	5.87
382.376	5.89
382.584	5.85
382.791	5.77
382.999	5.77
383.207	5.84
383.415	5.56
383.623	5.55
383.831	5.53
384.039	5.72
384.247	5.7
384.454	5.56
384.662	5.46
384.87	5.47
385.078	5.49
385.285	5.51
385.493	5.37
385.701	5.32
385.909	5.2
386.116	5.12
386.324	5.33
386.532	5.4
386.739	5.3
386.947	5.3
387.155	5.23
387.362	5.09
387.57	5
387.778	5.16
387.985	5.32
388.193	5.49
388.4	5.4
388.608	5.25
388.816	5.05
389.023	5.14
389.231	5.07
389.438	5.07
389.646	5.08
389.853	5.23
390.061	5.23
390.268	5.27
390.475	5.29
390.683	5.35
390.89	5.21
391.098	5.24
391.305	5.3
391.512	5.23
391.72	5.3
391.927	5.44
392.135	5.2
392.342	5.08
392.549	4.91
392.756	4.9
392.964	4.85
393.171	4.9
393.378	5.03
393.586	4.97
393.793	4.94
394	4.78
394.207	4.77
394.414	4.78
394.622	4.79
394.829	5
395.036	4.8
395.243	4.8
395.45	4.75
395.657	4.64
395.864	4.55
396.072	4.54
396.279	4.58
396.486	4.5
396.693	4.51
396.9	4.41
397.107	4.26
397.314	4.42
397.521	4.48
397.728	4.56
397.935	4.38
398.142	4.47
398.349	4.64
398.556	4.79
398.763	4.63
398.97	4.65
399.177	4.68
399.383	4.6
399.59	4.46
399.797	4.53
400.004	4.37
400.211	4.42
400.418	4.42
400.625	4.36
400.831	4.3
401.038	4.41
401.245	4.43
401.452	4.61
401.658	4.58
401.865	4.78
402.072	4.66
402.279	4.74
402.485	4.85
402.692	4.65
402.899	4.57
403.105	4.62
403.312	4.66
403.519	4.64
403.725	4.44
403.932	4.59
404.138	4.44
404.345	4.46
404.552	4.44
404.758	4.41
404.965	4.47
405.171	4.49
405.378	4.44
405.584	4.39
405.791	4.26
405.997	4.39
406.204	4.36
406.41	4.26
406.617	4.12
406.823	4.19
407.029	4.13
407.236	4.04
407.442	3.83
407.649	3.7
407.855	3.68
408.061	3.67
408.268	3.53
408.474	3.53
408.68	3.6
408.887	3.72
409.093	3.75
409.299	3.88
409.505	3.94
409.712	4.14
409.918	4.17
410.124	4.15
410.33	4.29
410.537	4.32
410.743	4.31
410.949	4.42
411.155	4.39
411.361	4.25
411.567	4.11
411.773	4.01
411.98	3.85
412.186	3.79
412.392	3.85
412.598	3.76
412.804	3.78
413.01	3.81
413.216	3.69
413.422	3.82
413.628	4.01
413.834	4.11
414.04	4.27
414.246	4.4
414.452	4.38
414.658	4.29
414.864	4.35
415.07	4.39
415.275	4.36
415.481	4.27
415.687	4.33
415.893	4.33
416.099	4.34
416.305	4.34
416.511	4.24
416.716	4.24
416.922	4.29
417.128	4.24
417.334	4.16
417.539	4.17
417.745	4.25
417.951	4.18
418.157	4.05
418.362	3.91
418.568	3.92
418.774	4.02
418.979	4.08
419.185	4.03
419.391	3.99
419.596	3.98
419.802	3.96
420.008	3.98
420.213	3.97
420.419	3.98
420.624	4.17
420.83	4.19
421.035	4.17
421.241	4.15
421.446	4.17
421.652	4.22
421.857	4.23
422.063	4.19
422.268	4.2
422.474	4.13
422.679	4.14
422.885	4.03
423.09	3.98
423.295	3.94
423.501	3.92
423.706	3.93
423.911	3.96
424.117	4.01
424.322	4.03
424.527	4.02
424.733	4.03
424.938	4.04
425.143	4.04
425.349	4.1
425.554	4.14
425.759	4.22
425.964	4.18
426.169	4.2
426.375	4.13
426.58	4.14
426.785	4.14
426.99	4.19
427.195	4.18
427.4	4.12
427.605	4.03
427.811	3.94
428.016	3.79
428.221	3.85
428.426	3.81
428.631	3.87
428.836	3.75
429.041	3.68
429.246	3.61
429.451	3.58
429.656	3.66
429.861	3.62
430.066	3.69
430.271	3.63
430.476	3.59
430.681	3.58
430.886	3.5
431.09	3.61
431.295	3.62
431.5	3.73
431.705	3.66
431.91	3.66
432.115	3.7
432.32	3.62
432.524	3.8
432.729	3.84
432.934	3.86
433.139	3.93
433.343	3.96
433.548	4.01
433.753	3.94
433.958	4.03
434.162	4.02
434.367	4.07
434.572	4.16
434.776	4.12
434.981	4.07
435.186	4.15
435.39	4.14
435.595	4.06
435.799	4.05
436.004	4.06
436.209	4.09
436.413	4.12
436.618	4.09
436.822	4.07
437.027	4.12
437.231	4.14
437.436	4
437.64	3.97
437.845	3.93
438.049	3.98
438.253	4.06
438.458	4.02
438.662	3.92
438.867	4.05
439.071	3.96
439.275	3.83
439.48	3.8
439.684	3.91
439.888	3.93
440.093	4.02
440.297	3.99
440.501	3.93
440.706	3.87
440.91	3.9
441.114	3.8
441.318	3.83
441.523	3.94
441.727	3.91
441.931	3.91
442.135	3.92
442.339	3.86
442.543	3.83
442.748	3.83
442.952	3.94
443.156	3.91
443.36	3.96
443.564	4.09
443.768	4.08
443.972	4.12
444.176	4.06
444.38	4
444.584	4.08
444.788	4.12
444.992	4.13
445.196	4.14
445.4	4.16
445.604	4.15
445.808	4.07
446.012	4.02
446.216	4.03
446.42	4.01
446.624	4.04
446.828	3.97
447.032	3.92
447.235	3.87
447.439	3.87
447.643	3.96
447.847	3.96
448.051	3.97
448.254	3.98
448.458	4.06
448.662	4.07
448.866	4.03
449.069	4.03
449.273	4
449.477	3.97
449.681	3.95
449.884	3.89
450.088	3.85
450.292	3.82
450.495	3.77
450.699	3.71
450.902	3.77
451.106	3.76
451.31	3.82
451.513	3.93
451.717	4.07
451.92	4.08
452.124	3.98
452.327	4.02
452.531	3.92
452.734	4.02
452.938	4.04
453.141	3.88
453.345	4.04
453.548	4.02
453.752	3.92
453.955	3.89
454.158	3.9
454.362	3.98
454.565	3.88
454.769	4.1
454.972	4.01
455.175	3.98
455.379	4.06
455.582	3.97
455.785	3.87
455.988	3.91
456.192	3.86
456.395	3.83
456.598	3.73
456.801	3.78
457.005	3.67
457.208	3.72
457.411	3.73
457.614	3.71
457.817	3.68
458.021	3.78
458.224	3.81
458.427	3.76
458.63	3.73
458.833	3.75
459.036	3.73
459.239	3.73
459.442	3.75
459.645	3.72
459.848	3.74
460.051	3.79
460.254	3.76
460.457	3.66
460.66	3.72
460.863	3.73
461.066	3.83
461.269	3.87
461.472	3.84
461.675	3.85
461.878	3.85
462.081	3.86
462.284	3.78
462.486	3.82
462.689	3.9
462.892	3.88
463.095	3.86
463.298	3.93
463.5	3.87
463.703	3.89
463.906	4
464.109	4.01
464.311	4.12
464.514	4.15
464.717	4.18
464.92	4.26
465.122	4.29
465.325	4.26
465.528	4.09
465.73	4.09
465.933	4.13
466.135	4.07
466.338	4.15
466.541	4.08
466.743	4.12
466.946	3.99
467.148	3.97
467.351	3.9
467.553	3.95
467.756	4.01
467.958	4.03
468.161	4.03
468.363	4.01
468.566	3.98
468.768	3.96
468.971	3.95
469.173	3.98
469.375	3.98
469.578	4.07
469.78	4.01
469.983	3.98
470.185	3.89
470.387	3.84
470.59	3.8
