Data from 2938720__Reflection_01.txt Node
Date: Tue Mar 17 10:56:55 EDT 2015
User: robert
Spectrometer: USB4E03002
Autoset integration time: false
Trigger mode: 4
Integration Time (sec): 1.000000E-1
Scans to average: 10
Electric dark correction enabled: false
Nonlinearity correction enabled: false
Boxcar width: 5
Stray light correction enabled: false
XAxis mode: Wavelengths
Stop averaging: false
Number of Pixels in Spectrum: 3648
>>>>>Begin Spectral Data<<<<<
177.575	109.78
177.794	419.15
178.014	156.19
178.233	139.2
178.452	65.45
178.672	-206.78
178.891	-94.23
179.11	-126.76
179.33	-8.09
179.549	45.12
179.768	19.78
179.987	100
180.207	8.24
180.426	-55.56
180.645	16.43
180.864	-33.6
181.084	-63.33
181.303	-31.52
181.522	15.35
181.741	65.32
181.96	2
182.179	-113.93
182.398	-5.48
182.618	61.22
182.837	275
183.056	273.68
183.275	-760
183.494	-262.73
183.713	-115.38
183.932	-59.33
184.151	-93.79
184.37	-180.15
184.589	-441.35
184.808	-141.43
185.027	-119.77
185.246	-36.89
185.465	-89.19
185.684	-11.03
185.903	2.68
186.122	-35.92
186.341	-780
186.56	620
186.779	-608.33
186.998	430.77
187.216	259.46
187.435	164.84
187.654	165.37
187.873	453.33
188.092	198.3
188.311	163.52
188.53	170.04
188.748	248.98
188.967	169.47
189.186	74.03
189.405	82.46
189.623	75.93
189.842	-3020
190.061	-535.85
190.28	-229.73
190.498	-396
190.717	232.19
190.936	172.66
191.154	88.11
191.373	133.78
191.592	170.59
191.81	223.97
192.029	123.85
192.248	78.05
192.466	63.75
192.685	71.25
192.904	95.69
193.122	112.88
193.341	75.15
193.559	101.48
193.778	57.58
193.996	42.73
194.215	27.45
194.433	23.94
194.652	33.49
194.87	27.91
195.089	-11.11
195.307	-8.66
195.526	-95.29
195.744	-138.36
195.963	338.46
196.181	63.9
196.399	-51.77
196.618	-24.2
196.836	2.12
197.055	-13
197.273	46.53
197.491	-117.81
197.71	22.64
197.928	71.81
198.146	58.12
198.365	14.23
198.583	-11.01
198.801	12.84
199.019	25.21
199.238	43.19
199.456	56.55
199.674	35.96
199.892	-15.31
200.111	16.48
200.329	24.73
200.547	73.91
200.765	69.05
200.983	66.56
201.202	6.11
201.42	2.61
201.638	-1.83
201.856	-3.29
202.074	51.15
202.292	63.27
202.51	51.63
202.728	38.36
202.946	6.64
203.165	5.46
203.383	34.82
203.601	66.57
203.819	75.7
204.037	71.17
204.255	84.89
204.473	78.83
204.691	185.12
204.909	143.6
205.127	127.86
205.345	89.64
205.562	96.04
205.78	73.99
205.998	30.04
206.216	-47.21
206.434	27.92
206.652	-1.73
206.87	19.93
207.088	13.3
207.306	-6.68
207.523	-15.31
207.741	-10.75
207.959	-13.32
208.177	-14.55
208.395	-8.29
208.612	4.48
208.83	-62.11
209.048	-54.79
209.266	-102.2
209.483	-28.47
209.701	-36.2
209.919	-28.47
210.136	-3.12
210.354	-26.7
210.572	-51.17
210.79	-25.85
211.007	-38.61
211.225	6
211.442	1.73
211.66	-4.26
211.878	-5.06
212.095	4.68
212.313	-2.78
212.53	-40.32
212.748	-21.81
212.966	-29.1
213.183	-83.4
213.401	-97.52
213.618	-101.1
213.836	-87.13
214.053	-69.49
214.271	-94.5
214.488	-79.82
214.705	-72.27
214.923	-9.3
215.14	-22.7
215.358	-0.25
215.575	26.04
215.793	27.08
216.01	3.7
216.227	-9.18
216.445	-6.57
216.662	-3.42
216.879	9.89
217.097	7.45
217.314	-0.22
217.531	10.67
217.749	14.45
217.966	2.58
218.183	6.84
218.4	17.28
218.618	27.97
218.835	20.39
219.052	11.19
219.269	5.59
219.487	-1.57
219.704	-8.63
219.921	-18.02
220.138	-21.99
220.355	-16.83
220.572	-5.82
220.79	-10.09
221.007	-29.13
221.224	-21.73
221.441	-14.22
221.658	-26.16
221.875	-16.73
222.092	-20.02
222.309	-6.66
222.526	-6.61
222.743	-3.61
222.96	-14.04
223.177	-16.57
223.394	-7.13
223.611	-6.59
223.828	-9.9
224.045	-12.92
224.262	-6.89
224.479	-7.23
224.696	-9.68
224.913	-1.83
225.13	-1.68
225.347	3.2
225.564	8.31
225.781	6.64
225.997	6.02
226.214	6.88
226.431	14.66
226.648	10.4
226.865	11.29
227.082	8.48
227.298	4.63
227.515	5.26
227.732	5.03
227.949	2.28
228.165	3.47
228.382	2.73
228.599	2.75
228.816	2.52
229.032	2.79
229.249	3.06
229.466	3.56
229.682	3.93
229.899	3.8
230.116	3.27
230.332	4.7
230.549	4.51
230.765	5.11
230.982	5.36
231.199	5.07
231.415	5.38
231.632	3.78
231.848	2.42
232.065	3.03
232.281	1.24
232.498	1.04
232.714	1.3
232.931	-0.71
233.147	-0.54
233.364	-2.62
233.58	-2.29
233.797	-3.95
234.013	-0.87
234.23	1.12
234.446	1.08
234.662	3.34
234.879	3.21
235.095	2.16
235.312	2.21
235.528	1.44
235.744	2.43
235.961	3.33
236.177	5.56
236.393	6.1
236.61	7.37
236.826	6.74
237.042	6.77
237.258	6.51
237.475	7.28
237.691	8.99
237.907	9.07
238.123	10.92
238.339	10.04
238.556	8.7
238.772	7.32
238.988	3.8
239.204	4.72
239.42	5.29
239.636	5.19
239.853	5.28
240.069	3.74
240.285	4.54
240.501	4.73
240.717	4.43
240.933	4.81
241.149	3.87
241.365	4.08
241.581	3.56
241.797	3.45
242.013	3.56
242.229	3.35
242.445	3.47
242.661	3.44
242.877	2.24
243.093	2.02
243.309	1.71
243.525	2.55
243.741	2.9
243.957	3.15
244.173	2.74
244.388	2.7
244.604	2.18
244.82	3.11
245.036	2.75
245.252	3.57
245.468	4.37
245.683	4.52
245.899	4.36
246.115	4.23
246.331	3.93
246.547	4.37
246.762	4.48
246.978	4.83
247.194	4.6
247.409	4.96
247.625	4.92
247.841	4.69
248.057	4.73
248.272	4.51
248.488	4.85
248.703	4.81
248.919	4.54
249.135	4.1
249.35	3.85
249.566	4.09
249.782	3.37
249.997	2.82
250.213	3.17
250.428	3.21
250.644	3.14
250.859	2.76
251.075	3.23
251.29	2.59
251.506	2.92
251.721	3.13
251.937	2.86
252.152	3.26
252.368	3.21
252.583	2.09
252.798	1.95
253.014	2.1
253.229	1.75
253.445	1.77
253.66	2.53
253.875	2.6
254.091	1.7
254.306	1.51
254.521	0.98
254.737	1.38
254.952	2.53
255.167	3.32
255.383	3.16
255.598	3.28
255.813	3.5
256.028	2.75
256.244	3.8
256.459	4.43
256.674	4.11
256.889	4.84
257.104	4.64
257.32	4.37
257.535	3.94
257.75	3.78
257.965	3.46
258.18	2.71
258.395	3.03
258.61	3.16
258.826	2.73
259.041	2.65
259.256	2.18
259.471	2.27
259.686	2.45
259.901	2.14
260.116	2.18
260.331	2.37
260.546	2.62
260.761	2.52
260.976	2.12
261.191	2.29
261.406	2.57
261.621	2.76
261.836	2.92
262.05	2.86
262.265	2.98
262.48	2.69
262.695	2.13
262.91	2.05
263.125	2.93
263.34	3.3
263.555	3.55
263.769	2.79
263.984	2.92
264.199	2.76
264.414	2.68
264.629	1.73
264.843	2.28
265.058	2.97
265.273	2.17
265.488	0.82
265.702	0.4
265.917	0.43
266.132	1.3
266.346	1.03
266.561	0.61
266.776	0.99
266.99	1.59
267.205	1.77
267.42	2.01
267.634	2.48
267.849	2.56
268.063	2.61
268.278	2.58
268.492	2.51
268.707	2.91
268.922	2.84
269.136	3.09
269.351	3.63
269.565	3.69
269.78	3.45
269.994	3.46
270.209	3.56
270.423	3.67
270.637	3.57
270.852	3.53
271.066	3.13
271.281	3.83
271.495	3.09
271.709	2.76
271.924	2.61
272.138	2.88
272.353	2.76
272.567	2.66
272.781	2.8
272.996	3.31
273.21	3.32
273.424	3.33
273.638	3.03
273.853	2.83
274.067	3.35
274.281	3.21
274.495	3.3
274.71	3.37
274.924	3.62
275.138	3.61
275.352	2.85
275.566	2.91
275.781	3.61
275.995	4.59
276.209	5.3
276.423	5.16
276.637	5.38
276.851	4.84
277.065	4.6
277.279	4.38
277.493	4.4
277.707	5
277.921	4.56
278.135	4.05
278.349	2.78
278.563	2.72
278.777	2.57
278.991	2.39
279.205	2.46
279.419	3.03
279.633	2.82
279.847	2.48
280.061	2.14
280.275	2.01
280.489	1.89
280.703	2.29
280.917	2.09
281.131	1.95
281.344	2.13
281.558	2.32
281.772	2.25
281.986	3
282.2	3.23
282.414	2.92
282.627	2.95
282.841	3.26
283.055	3.02
283.269	2.82
283.482	2.99
283.696	3.07
283.91	2.9
284.123	2.62
284.337	2.17
284.551	2.04
284.764	2.53
284.978	2.64
285.192	2.63
285.405	2.53
285.619	2.85
285.833	2.73
286.046	2.42
286.26	2.48
286.473	2.75
286.687	2.86
286.9	2.74
287.114	2.67
287.327	2.68
287.541	2.53
287.754	3.26
287.968	3.09
288.181	2.91
288.395	3.32
288.608	3.45
288.822	3.26
289.035	3.11
289.248	3.33
289.462	3.5
289.675	3.59
289.889	3.56
290.102	3.23
290.315	3.35
290.529	3.57
290.742	3.32
290.955	3.36
291.169	3.38
291.382	3.64
291.595	3.58
291.808	3.08
292.022	3.06
292.235	3.02
292.448	2.79
292.661	2.59
292.875	2.26
293.088	2.47
293.301	2.61
293.514	2.49
293.727	2.41
293.94	2.86
294.153	3.48
294.367	3.45
294.58	3.46
294.793	3.68
295.006	3.69
295.219	3.81
295.432	3.66
295.645	3.5
295.858	3.74
296.071	3.85
296.284	3.51
296.497	3.24
296.71	3.38
296.923	3.49
297.136	3.27
297.349	3.17
297.562	3.42
297.775	3.33
297.988	3.17
298.201	3.22
298.414	3.02
298.626	3.15
298.839	3.2
299.052	3.28
299.265	2.97
299.478	2.8
299.691	2.92
299.903	2.74
300.116	3.2
300.329	3.35
300.542	3.24
300.755	3.34
300.967	3.05
301.18	2.98
301.393	3
301.605	3.4
301.818	3.84
302.031	3.68
302.243	3.56
302.456	3.32
302.669	3.5
302.881	3.46
303.094	3.61
303.307	3.55
303.519	3.65
303.732	3.69
303.944	4.04
304.157	3.93
304.37	4.46
304.582	4.59
304.795	4.65
305.007	4.8
305.22	4.93
305.432	4.85
305.645	5.46
305.857	5.66
306.069	5.65
306.282	5.03
306.494	5.22
306.707	4.92
306.919	5.07
307.132	5.13
307.344	4.78
307.556	4.32
307.769	4.51
307.981	4.11
308.193	4.02
308.406	4
308.618	4.1
308.83	4.03
309.043	4.37
309.255	4.55
309.467	4.49
309.679	4.44
309.892	4.97
310.104	4.89
310.316	5.21
310.528	4.93
310.74	4.73
310.953	5.17
311.165	5.22
311.377	5.29
311.589	5.21
311.801	5.43
312.013	5.56
312.225	5.53
312.437	5.48
312.649	5.22
312.862	5.59
313.074	5.7
313.286	5.19
313.498	5.33
313.71	5.1
313.922	4.59
314.134	4.53
314.346	4.87
314.558	4.9
314.77	5
314.982	5.21
315.193	5.32
315.405	5.49
315.617	5.87
315.829	6.17
316.041	6.6
316.253	6.63
316.465	6.67
316.677	6.18
316.888	6.2
317.1	6.21
317.312	6.15
317.524	6.1
317.736	5.97
317.947	6.04
318.159	6.28
318.371	5.68
318.583	6.22
318.794	5.91
319.006	6.2
319.218	5.75
319.43	5.92
319.641	6.28
319.853	6.18
320.064	6.32
320.276	6.51
320.488	6.18
320.699	6.22
320.911	6.28
321.123	5.99
321.334	6.1
321.546	6.96
321.757	7.33
321.969	7.17
322.18	7.31
322.392	7.48
322.603	7.17
322.815	7.31
323.026	7.66
323.238	8.14
323.449	8.21
323.661	8.17
323.872	7.84
324.083	7.57
324.295	8.04
324.506	7.56
324.718	7.86
324.929	8
325.14	8.06
325.352	8.08
325.563	7.87
325.774	8.19
325.986	8.3
326.197	8.58
326.408	8.4
326.62	7.99
326.831	8.32
327.042	8.23
327.253	8.19
327.464	8.31
327.676	8.35
327.887	8.47
328.098	8.91
328.309	9.41
328.52	9.59
328.732	10.06
328.943	10.36
329.154	11.24
329.365	11.54
329.576	11.9
329.787	11.86
329.998	12.32
330.209	12.58
330.42	12.54
330.631	12.13
330.842	12.17
331.053	12.22
331.264	12.81
331.475	12.64
331.686	12.32
331.897	12.42
332.108	12.78
332.319	12.86
332.53	12.71
332.741	12.66
332.952	12.92
333.163	13.02
333.374	13.24
333.585	13
333.795	13.09
334.006	13.66
334.217	13.57
334.428	13.46
334.639	13.58
334.849	13.73
335.06	13.94
335.271	14
335.482	13.75
335.692	13.81
335.903	13.87
336.114	13.91
336.325	13.49
336.535	13.71
336.746	13.57
336.957	13.34
337.167	13.32
337.378	13.11
337.589	12.71
337.799	12.68
338.01	12.68
338.22	12.74
338.431	12.4
338.642	12.76
338.852	12.72
339.063	12.92
339.273	13.03
339.484	12.75
339.694	13.14
339.905	13.3
340.115	13.56
340.326	13.03
340.536	12.82
340.746	12.93
340.957	12.79
341.167	13.11
341.378	12.96
341.588	12.7
341.799	12.71
342.009	12.49
342.219	12.62
342.43	12.64
342.64	12.82
342.85	12.99
343.061	12.86
343.271	12.93
343.481	12.62
343.691	12.77
343.902	12.72
344.112	12.6
344.322	12.61
344.532	12.64
344.743	12.7
344.953	12.73
345.163	12.61
345.373	12.92
345.583	12.71
345.793	12.47
346.004	12.4
346.214	12.57
346.424	12.68
346.634	13.02
346.844	13.25
347.054	12.93
347.264	12.87
347.474	12.6
347.684	12.36
347.894	12.49
348.104	12.55
348.314	12.59
348.524	12.6
348.734	12.38
348.944	12.03
349.154	11.74
349.364	12.01
349.574	12.32
349.784	12.46
349.994	12.47
350.204	12.28
350.413	12.34
350.623	12.05
350.833	11.78
351.043	11.86
351.253	11.74
351.463	11.73
351.672	11.51
351.882	11.54
352.092	11.55
352.302	11.45
352.511	11.65
352.721	11.58
352.931	11.96
353.141	12.22
353.35	12.48
353.56	12.34
353.77	12.38
353.979	12.52
354.189	12.07
354.399	11.88
354.608	11.85
354.818	11.73
355.027	11.85
355.237	11.66
355.447	11.4
355.656	11.46
355.866	11.56
356.075	11.63
356.285	11.65
356.494	11.59
356.704	11.77
356.913	11.84
357.123	11.95
357.332	11.91
357.542	11.83
357.751	12.09
357.96	12.15
358.17	12.2
358.379	12.22
358.589	12.18
358.798	12.34
359.007	12.3
359.217	12.34
359.426	12.29
359.635	12.01
359.845	11.89
360.054	11.74
360.263	11.74
360.472	11.82
360.682	11.37
360.891	11.3
361.1	11.4
361.309	11.47
361.519	11.34
361.728	11.05
361.937	11.36
362.146	11.58
362.355	11.69
362.564	11.66
362.774	11.6
362.983	11.99
363.192	11.98
363.401	12.03
363.61	12.12
363.819	12.16
364.028	12.45
364.237	12.55
364.446	12.21
364.655	12.38
364.864	12.19
365.073	12.12
365.282	12.06
365.491	12.2
365.7	11.85
365.909	11.52
366.118	11.82
366.327	11.75
366.536	11.43
366.745	11.58
366.954	11.2
367.162	11.19
367.371	11.3
367.58	11.2
367.789	11
367.998	11.22
368.207	11.4
368.415	11.01
368.624	11.15
368.833	11.38
369.042	11.34
369.25	11.36
369.459	11.51
369.668	11.42
369.877	11.39
370.085	11.26
370.294	11.26
370.503	11.11
370.711	11.53
370.92	11.17
371.129	11.14
371.337	11.27
371.546	11.31
371.754	11.11
371.963	11.12
372.171	11.02
372.38	11.13
372.589	11.22
372.797	11.41
373.006	11.26
373.214	11.48
373.423	11.22
373.631	11.2
373.84	10.95
374.048	11.18
374.256	11.1
374.465	11.27
374.673	11.37
374.882	11.25
375.09	11.15
375.298	10.96
375.507	10.76
375.715	11
375.923	10.83
376.132	11.1
376.34	10.88
376.548	10.8
376.757	10.91
376.965	10.72
377.173	10.33
377.381	10.49
377.59	10.64
377.798	10.66
378.006	10.35
378.214	10.64
378.423	10.82
378.631	10.95
378.839	11.06
379.047	10.85
379.255	10.84
379.463	11.03
379.671	10.94
379.879	10.96
380.088	10.96
380.296	11.08
380.504	10.85
380.712	10.64
380.92	10.45
381.128	10.41
381.336	10.28
381.544	10.47
381.752	10.63
381.96	10.36
382.168	10.07
382.376	10.26
382.584	10.37
382.791	10.37
382.999	10.28
383.207	10.38
383.415	10.47
383.623	10.55
383.831	10.57
384.039	10.48
384.247	10.46
384.454	10.54
384.662	10.39
384.87	10.3
385.078	10.3
385.285	10.13
385.493	10.01
385.701	9.86
385.909	9.87
386.116	9.66
386.324	9.71
386.532	9.77
386.739	9.59
386.947	9.51
387.155	9.48
387.362	9.38
387.57	9.35
387.778	9.27
387.985	9.38
388.193	9.48
388.4	9.47
388.608	9.44
388.816	9.33
389.023	9.55
389.231	9.59
389.438	9.55
389.646	9.44
389.853	9.35
390.061	9.51
390.268	9.36
390.475	9.17
390.683	9.27
390.89	9.37
391.098	9.45
391.305	9.27
391.512	9.31
391.72	9.24
391.927	9.63
392.135	9.65
392.342	9.63
392.549	9.65
392.756	9.66
392.964	9.47
393.171	9.36
393.378	9.33
393.586	9.42
393.793	9.38
394	9.37
394.207	9.12
394.414	9.19
394.622	9.07
394.829	9.12
395.036	9.14
395.243	9.31
395.45	9.29
395.657	9.28
395.864	9.21
396.072	9.36
396.279	9.29
396.486	9.3
396.693	9.44
396.9	9.5
397.107	9.23
397.314	9.27
397.521	9.03
397.728	9.11
397.935	9.13
398.142	9.08
398.349	8.97
398.556	8.99
398.763	8.89
398.97	8.85
399.177	8.95
399.383	9.01
399.59	8.85
399.797	8.82
400.004	8.9
400.211	8.94
400.418	9.08
400.625	9.25
400.831	9.23
401.038	9.17
401.245	9.2
401.452	9.11
401.658	9.19
401.865	9.21
402.072	9.36
402.279	9.35
402.485	9.22
402.692	9.25
402.899	9.16
403.105	9.25
403.312	9.41
403.519	9.41
403.725	9.38
403.932	9.52
404.138	9.58
404.345	9.57
404.552	9.53
404.758	9.4
404.965	9.4
405.171	9.32
405.378	9.25
405.584	9.11
405.791	9.14
405.997	9.09
406.204	8.95
406.41	9.01
406.617	8.9
406.823	8.66
407.029	8.84
407.236	8.77
407.442	8.9
407.649	9.04
407.855	9.15
408.061	9.05
408.268	8.94
408.474	8.96
408.68	8.78
408.887	8.98
409.093	9.19
409.299	9.19
409.505	9.15
409.712	9.17
409.918	9.11
410.124	9.34
410.33	9.27
410.537	9.41
410.743	9.51
410.949	9.65
411.155	9.56
411.361	9.58
411.567	9.54
411.773	9.58
411.98	9.39
412.186	9.44
412.392	9.19
412.598	9.28
412.804	9.14
413.01	9.01
413.216	9.05
413.422	9.12
413.628	8.95
413.834	9.11
414.04	8.98
414.246	9.16
414.452	9.22
414.658	9.21
414.864	9.11
415.07	9.26
415.275	9.18
415.481	9.13
415.687	9.03
415.893	8.97
416.099	8.82
416.305	8.91
416.511	8.75
416.716	8.69
416.922	8.67
417.128	8.76
417.334	8.9
417.539	8.95
417.745	9.01
417.951	9.17
418.157	9.37
418.362	9.41
418.568	9.48
418.774	9.48
418.979	9.55
419.185	9.51
419.391	9.51
419.596	9.44
419.802	9.49
420.008	9.41
420.213	9.9
420.419	9.83
420.624	9.79
420.83	9.72
421.035	9.83
421.241	9.87
421.446	9.92
421.652	9.83
421.857	9.82
422.063	9.77
422.268	9.91
422.474	9.43
422.679	9.4
422.885	9.46
423.09	9.46
423.295	9.37
423.501	9.32
423.706	9.37
423.911	9.38
424.117	9.35
424.322	9.4
424.527	9.32
424.733	9.31
424.938	9.28
425.143	9.3
425.349	9.32
425.554	9.33
425.759	9.32
425.964	9.25
426.169	9.37
426.375	9.43
426.58	9.47
426.785	9.53
426.99	9.5
427.195	9.64
427.4	9.64
427.605	9.76
427.811	9.77
428.016	9.72
428.221	9.85
428.426	9.83
428.631	9.73
428.836	9.68
429.041	9.62
429.246	9.55
429.451	9.53
429.656	9.43
429.861	9.35
430.066	9.43
430.271	9.57
430.476	9.42
430.681	9.41
430.886	9.48
431.09	9.38
431.295	9.37
431.5	9.56
431.705	9.46
431.91	9.54
432.115	9.63
432.32	9.51
432.524	9.39
432.729	9.37
432.934	9.33
433.139	9.32
433.343	9.46
433.548	9.54
433.753	9.49
433.958	9.55
434.162	9.53
434.367	9.5
434.572	9.5
434.776	9.52
434.981	9.64
435.186	9.75
435.39	9.9
435.595	9.81
435.799	9.75
436.004	9.75
436.209	9.77
436.413	9.85
436.618	9.83
436.822	9.96
437.027	10.03
437.231	10
437.436	10.02
437.64	9.87
437.845	10.01
438.049	10.06
438.253	10.07
438.458	10.09
438.662	10.16
438.867	10.22
439.071	10.13
439.275	10.02
439.48	9.99
439.684	9.9
439.888	10.02
440.093	9.96
440.297	9.89
440.501	9.94
440.706	9.98
440.91	9.95
441.114	9.86
441.318	9.94
441.523	10.03
441.727	10.1
441.931	10.16
442.135	10.04
442.339	10.05
442.543	10.11
442.748	10.1
442.952	10.07
443.156	10.06
443.36	10.2
443.564	10.18
443.768	10.13
443.972	10.11
444.176	10.1
444.38	10.15
444.584	10.14
444.788	10.18
444.992	10.16
445.196	10.15
445.4	10.12
445.604	9.99
445.808	9.97
446.012	9.99
446.216	10
446.42	10.02
446.624	10.08
446.828	10.16
447.032	10.04
447.235	10.1
447.439	10.08
447.643	10.08
447.847	10.09
448.051	10.09
448.254	10.04
448.458	10.04
448.662	10.01
448.866	9.98
449.069	9.86
449.273	9.95
449.477	9.82
449.681	9.8
449.884	9.78
450.088	9.8
450.292	9.75
450.495	9.88
450.699	9.84
450.902	9.78
451.106	9.77
451.31	9.78
451.513	9.74
451.717	9.79
451.92	9.91
452.124	9.96
452.327	9.93
452.531	9.98
452.734	9.9
452.938	9.87
453.141	9.99
453.345	10
453.548	9.9
453.752	9.97
453.955	9.94
454.158	9.8
454.362	9.71
454.565	9.77
454.769	9.75
454.972	9.81
455.175	9.92
455.379	9.86
455.582	9.89
455.785	10.05
455.988	10.03
456.192	10.05
456.395	10.18
456.598	10.35
456.801	10.43
457.005	10.45
457.208	10.4
457.411	10.38
457.614	10.38
457.817	10.28
458.021	10.21
458.224	10.26
458.427	10.26
458.63	10.2
458.833	10.11
459.036	10.04
459.239	10.11
459.442	10.15
459.645	10.11
459.848	10.09
460.051	10.08
460.254	10.07
460.457	9.97
460.66	9.98
460.863	9.99
461.066	9.99
461.269	9.97
461.472	9.88
461.675	9.84
461.878	9.91
462.081	9.97
462.284	9.95
462.486	9.96
462.689	10.06
462.892	10.06
463.095	10.04
463.298	10.02
463.5	10
463.703	10.06
463.906	10.05
464.109	9.95
464.311	9.84
464.514	9.97
464.717	9.93
464.92	9.9
465.122	9.95
465.325	9.94
465.528	9.97
465.73	9.93
465.933	9.92
466.135	9.97
466.338	9.9
466.541	9.94
466.743	9.88
