Data from 2938723__Reflection_02.txt Node
Date: Sun Mar 15 20:32:36 EDT 2015
User: robert
Spectrometer: USB4E03002
Autoset integration time: false
Trigger mode: 4
Integration Time (sec): 1.000000E-1
Scans to average: 10
Electric dark correction enabled: false
Nonlinearity correction enabled: false
Boxcar width: 5
Stray light correction enabled: false
XAxis mode: Wavelengths
Stop averaging: false
Number of Pixels in Spectrum: 3648
>>>>>Begin Spectral Data<<<<<
177.575	19.69
177.794	27.78
178.014	1.85
178.233	-42.12
178.452	-21.67
178.672	-221.67
178.891	-161.02
179.11	-247.73
179.33	-50
179.549	75.73
179.768	270.83
179.987	134.84
180.207	614.71
180.426	136.97
180.645	42.9
180.864	91.94
181.084	67.98
181.303	79.22
181.522	69.45
181.741	77.31
181.96	80.73
182.179	73.06
182.398	76.11
182.618	64.59
182.837	66.52
183.056	56.33
183.275	49.54
183.494	248.61
183.713	-1176.92
183.932	323.28
184.151	346.77
184.37	648.33
184.589	138.03
184.808	183.88
185.027	193.46
185.246	399.24
185.465	-4384.62
185.684	1539.29
185.903	-331.73
186.122	-412.82
186.341	108.04
186.56	82.56
186.779	115.79
186.998	34.14
187.216	115.91
187.435	146.98
187.654	134.41
187.873	367.74
188.092	8700
188.311	-637.18
188.53	291.87
188.748	420
188.967	319.81
189.186	249.65
189.405	7500
189.623	1039.39
189.842	215.34
190.061	264.66
190.28	-483.72
190.498	-1380
190.717	658.33
190.936	45.39
191.154	111.21
191.373	99.77
191.592	89.98
191.81	118.94
192.029	125.05
192.248	108.89
192.466	86.31
192.685	100.74
192.904	93.88
193.122	115.7
193.341	170.56
193.559	109.29
193.778	77.22
193.996	83.77
194.215	57.05
194.433	45.74
194.652	40.95
194.87	28.57
195.089	26.37
195.307	-205.52
195.526	-174.55
195.744	-172.92
195.963	-608.55
196.181	-490.6
196.399	1373.47
196.618	-596.34
196.836	-1343.9
197.055	2600
197.273	-1045.59
197.491	-543.84
197.71	-188.19
197.928	-481.61
198.146	369.92
198.365	306.54
198.583	343.09
198.801	427.34
199.019	301.62
199.238	267.84
199.456	344.66
199.674	221.78
199.892	-10.14
200.111	36.79
200.329	86.36
200.547	12.73
200.765	-110.31
200.983	-266.67
201.202	230
201.42	26.09
201.638	-300
201.856	-144.78
202.074	-64.53
202.292	-609.52
202.51	-183.06
202.728	-587.04
202.946	-292.97
203.165	-117.06
203.383	-1976.92
203.601	1663.16
203.819	591.18
204.037	120.09
204.255	147.08
204.473	206.08
204.691	687.65
204.909	191.28
205.127	-347.89
205.345	-272.16
205.562	-135.5
205.78	-189.21
205.998	-47.9
206.216	15.75
206.434	55.59
206.652	146
206.87	133.83
207.088	215.24
207.306	115.22
207.523	-311.11
207.741	255
207.959	107.32
208.177	166.27
208.395	226.53
208.612	-86.9
208.83	39.68
209.048	-10.39
209.266	-1.04
209.483	35
209.701	46.11
209.919	58.75
210.136	9.63
210.354	-3.17
210.572	-36.19
210.79	8.03
211.007	-27.95
211.225	-17.11
211.442	-7.01
211.66	42.99
211.878	20.75
212.095	-6.29
212.313	-29.22
212.53	-33.53
212.748	10.24
212.966	5.45
213.183	-43.47
213.401	4.47
213.618	-47.89
213.836	-26.01
214.053	-119.15
214.271	-211.76
214.488	-173.84
214.705	-376.77
214.923	-113.13
215.14	-262.3
215.358	-41.47
215.575	-57.84
215.793	-30.9
216.01	20.29
216.227	30.13
216.445	28.72
216.662	49.94
216.879	49.14
217.097	48.17
217.314	43.63
217.531	25.93
217.749	20.1
217.966	26.49
218.183	11.84
218.4	-28.2
218.618	-73.29
218.835	-35.47
219.052	-41.09
219.269	-29.18
219.487	-14
219.704	-14.96
219.921	4.12
220.138	-3.69
220.355	2.46
220.572	7.93
220.79	27.29
221.007	26
221.224	19.56
221.441	26.23
221.658	26.65
221.875	23.72
222.092	25.16
222.309	19.72
222.526	15.01
222.743	17.91
222.96	10.71
223.177	4.23
223.394	4.03
223.611	-1.13
223.828	-5.92
224.045	-8.46
224.262	-1.97
224.479	-9.32
224.696	-7.95
224.913	-2.89
225.13	-5.31
225.347	-1.96
225.564	3.79
225.781	1.08
225.997	6.94
226.214	6.02
226.431	5.98
226.648	4.45
226.865	4.54
227.082	4.36
227.298	5.1
227.515	4.82
227.732	5.07
227.949	4.8
228.165	5.36
228.382	3.13
228.599	3.89
228.816	3.57
229.032	2.93
229.249	2.73
229.466	2.58
229.682	2.58
229.899	3.04
230.116	1.87
230.332	1.87
230.549	1.75
230.765	3
230.982	0.81
231.199	1.07
231.415	0.51
231.632	1
231.848	2.04
232.065	-1.19
232.281	-2.03
232.498	2.4
232.714	0.92
232.931	1.81
233.147	3.68
233.364	6.88
233.58	4.82
233.797	7.28
234.013	9.34
234.23	8.15
234.446	7.92
234.662	6.94
234.879	4.66
235.095	5.05
235.312	4.06
235.528	1.95
235.744	-0.17
235.961	0.86
236.177	0.88
236.393	1.22
236.61	0.98
236.826	3.66
237.042	4.24
237.258	4.4
237.475	2.49
237.691	1.78
237.907	0.47
238.123	1.93
238.339	2.93
238.556	4.18
238.772	3.71
238.988	3
239.204	1.66
239.42	0.59
239.636	-0.88
239.853	-0.39
240.069	0.75
240.285	2.07
240.501	2.61
240.717	2.13
240.933	0.71
241.149	1.12
241.365	1.8
241.581	2.15
241.797	1.85
242.013	2.59
242.229	3.05
242.445	2.87
242.661	2.72
242.877	2.24
243.093	2.94
243.309	2.75
243.525	2.28
243.741	2.02
243.957	1.44
244.173	2.23
244.388	1.57
244.604	1.32
244.82	1.45
245.036	1.74
245.252	1.87
245.468	0.9
245.683	1.57
245.899	1.53
246.115	1.91
246.331	2.33
246.547	2.67
246.762	2.98
246.978	2.87
247.194	3.11
247.409	2.76
247.625	2.37
247.841	2.64
248.057	2.74
248.272	2.72
248.488	2.81
248.703	2.7
248.919	2.35
249.135	2.3
249.35	1.97
249.566	1.39
249.782	1.48
249.997	2.75
250.213	2.82
250.428	2.32
250.644	3.06
250.859	2.48
251.075	3.32
251.29	2.98
251.506	3.17
251.721	3.29
251.937	3.5
252.152	3.35
252.368	3.21
252.583	2.79
252.798	3.49
253.014	2.62
253.229	2.91
253.445	2.73
253.66	2.54
253.875	2.05
254.091	3.04
254.306	2.79
254.521	3.57
254.737	2.96
254.952	3.41
255.167	1.9
255.383	1.86
255.598	0.96
255.813	1.09
256.028	1.25
256.244	0.67
256.459	0.67
256.674	1.31
256.889	1.66
257.104	1.61
257.32	1.94
257.535	2.68
257.75	2.79
257.965	3.45
258.18	2.59
258.395	2.63
258.61	2.74
258.826	2.62
259.041	2.25
259.256	1.74
259.471	1.8
259.686	1.7
259.901	1.52
260.116	1.28
260.331	1.4
260.546	1.62
260.761	1.89
260.976	2.18
261.191	2.04
261.406	2.04
261.621	2.43
261.836	2.55
262.05	2.64
262.265	2.94
262.48	3.4
262.695	3.1
262.91	2.84
263.125	1.98
263.34	1.65
263.555	2.01
263.769	2.42
263.984	1.92
264.199	1.27
264.414	0.74
264.629	0.47
264.843	0.94
265.058	1.3
265.273	1.12
265.488	1.42
265.702	0.54
265.917	0.36
266.132	0.35
266.346	0.36
266.561	0.59
266.776	0.41
266.99	0.59
267.205	0.49
267.42	-0.13
267.634	0.63
267.849	0.85
268.063	1.66
268.278	1.6
268.492	1.09
268.707	1.17
268.922	1.48
269.136	1.97
269.351	2.37
269.565	2.85
269.78	2.74
269.994	1.97
270.209	1.61
270.423	1.21
270.637	0.98
270.852	1.47
271.066	1.81
271.281	1.36
271.495	0.92
271.709	0.3
271.924	-0.13
272.138	-0.11
272.353	0.23
272.567	0.67
272.781	0.97
272.996	1.4
273.21	1.2
273.424	0.85
273.638	0.96
273.853	1.4
274.067	1.23
274.281	1.37
274.495	1.68
274.71	1.09
274.924	0.92
275.138	0.75
275.352	0.59
275.566	0.73
275.781	0.65
275.995	0.42
276.209	0
276.423	0.54
276.637	0.59
276.851	0.42
277.065	0.92
277.279	0.87
277.493	0.7
277.707	0.37
277.921	0.89
278.135	0.66
278.349	1.19
278.563	1.27
278.777	1.02
278.991	0.55
279.205	1.25
279.419	0.8
279.633	0.66
279.847	0.75
280.061	0.25
280.275	-0.67
280.489	0.1
280.703	0.21
280.917	0.78
281.131	0.94
281.344	1.13
281.558	0.7
281.772	0.85
281.986	0.49
282.2	0.83
282.414	1.14
282.627	1.86
282.841	1.59
283.055	0.77
283.269	0.26
283.482	0.09
283.696	0.18
283.91	0.53
284.123	0.61
284.337	1.03
284.551	0.79
284.764	0.76
284.978	0.14
285.192	-0.03
285.405	0.63
285.619	0.94
285.833	1.2
286.046	1.24
286.26	0.75
286.473	0.67
286.687	0.66
286.9	0.78
287.114	1.39
287.327	2.22
287.541	2.61
287.754	2.6
287.968	2.5
288.181	2.32
288.395	2.09
288.608	2.46
288.822	2.84
289.035	2.66
289.248	2.51
289.462	2.1
289.675	1.34
289.889	1.52
290.102	1.73
290.315	1.55
290.529	2.01
290.742	2.24
290.955	1.99
291.169	1.79
291.382	1.55
291.595	1.61
291.808	1.72
292.022	1.97
292.235	1.72
292.448	1.36
292.661	1.48
292.875	1.22
293.088	0.62
293.301	0.71
293.514	0.57
293.727	1.09
293.94	1.35
294.153	1.46
294.367	1.68
294.58	1.73
294.793	1.91
295.006	1.99
295.219	2.02
295.432	2.16
295.645	2.21
295.858	2.22
296.071	1.98
296.284	1.8
296.497	1.88
296.71	1.62
296.923	1.91
297.136	1.69
297.349	1.89
297.562	1.64
297.775	2.05
297.988	2.05
298.201	2.11
298.414	2.48
298.626	2.67
298.839	2.47
299.052	2.78
299.265	2.64
299.478	3.14
299.691	2.91
299.903	3.37
300.116	3.18
300.329	3.06
300.542	3.41
300.755	3.06
300.967	2.65
301.18	2.47
301.393	2.47
301.605	2.28
301.818	1.82
302.031	1.91
302.243	1.67
302.456	1.5
302.669	2.05
302.881	1.71
303.094	1.64
303.307	2.18
303.519	2.59
303.732	2.73
303.944	2.91
304.157	3.13
304.37	3.21
304.582	3
304.795	3.52
305.007	3.46
305.22	3.7
305.432	4.26
305.645	4.17
305.857	3.98
306.069	3.61
306.282	3.62
306.494	3.62
306.707	3.35
306.919	3.93
307.132	3.5
307.344	3.48
307.556	3.62
307.769	3.33
307.981	3.6
308.193	3.71
308.406	3.52
308.618	3.29
308.83	3.06
309.043	3.04
309.255	2.9
309.467	3.12
309.679	3.03
309.892	2.66
310.104	2.57
310.316	2.68
310.528	2.67
310.74	3.12
310.953	2.93
311.165	3.34
311.377	3.39
311.589	3.25
311.801	3.06
312.013	3.16
312.225	3.25
312.437	3.11
312.649	2.5
312.862	2.62
313.074	2.25
313.286	2.53
313.498	2.41
313.71	2.43
313.922	2.29
314.134	2.68
314.346	2.92
314.558	2.79
314.77	3.24
314.982	3.41
315.193	3.52
315.405	3.72
315.617	4.08
315.829	4.24
316.041	4.51
316.253	4.76
316.465	4.69
316.677	4.4
316.888	4.9
317.1	4.59
317.312	4.66
317.524	4.03
317.736	3.9
317.947	3.79
318.159	3.51
318.371	3.74
318.583	3.7
318.794	3.87
319.006	3.73
319.218	3.5
319.43	3.85
319.641	4.06
319.853	4.32
320.064	4.16
320.276	4.13
320.488	4.01
320.699	3.65
320.911	3.73
321.123	3.13
321.334	3.36
321.546	3.48
321.757	3.64
321.969	4.3
322.18	5.04
322.392	5.54
322.603	5.61
322.815	6.14
323.026	6.21
323.238	6.49
323.449	7.09
323.661	7.76
323.872	8.11
324.083	8.22
324.295	8.09
324.506	8.16
324.718	8.24
324.929	8.45
325.14	8.29
325.352	8.76
325.563	8.81
325.774	9.2
325.986	8.98
326.197	9.44
326.408	9.41
326.62	9.75
326.831	9.72
327.042	10.46
327.253	11.03
327.464	11.27
327.676	11.44
327.887	12.02
328.098	12.55
328.309	12.86
328.52	12.85
328.732	13.31
328.943	13.19
329.154	14.18
329.365	14.32
329.576	14.27
329.787	15.09
329.998	15.81
330.209	16.18
330.42	15.99
330.631	16.45
330.842	17.13
331.053	17.79
331.264	18.64
331.475	18.74
331.686	19.06
331.897	19.71
332.108	20.28
332.319	20.15
332.53	20.14
332.741	20.51
332.952	20.87
333.163	21.22
333.374	21.49
333.585	21.53
333.795	21.92
334.006	22.31
334.217	22.74
334.428	22.9
334.639	23.35
334.849	23.49
335.06	24.07
335.271	24.24
335.482	24.08
335.692	24.59
335.903	24.85
336.114	25.08
336.325	25.19
336.535	25.39
336.746	25.28
336.957	25.93
337.167	26.41
337.378	26.37
337.589	26.77
337.799	27
338.01	26.73
338.22	26.68
338.431	26.46
338.642	26.21
338.852	25.95
339.063	26.26
339.273	26.32
339.484	26.25
339.694	26.42
339.905	26.18
340.115	26.72
340.326	26.85
340.536	27.26
340.746	27.31
340.957	28.09
341.167	28.4
341.378	28.29
341.588	27.93
341.799	28.38
342.009	28.56
342.219	28.76
342.43	28.17
342.64	28.22
342.85	28.64
343.061	28.94
343.271	28.5
343.481	28.53
343.691	28.48
343.902	28.58
344.112	28.53
344.322	28.36
344.532	28.31
344.743	28.05
344.953	28.05
345.163	27.59
345.373	27.51
345.583	27.83
345.793	28.02
346.004	27.86
346.214	28.02
346.424	28
346.634	28.25
346.844	28.15
347.054	28.69
347.264	28.76
347.474	28.84
347.684	28.69
347.894	28.68
348.104	28.49
348.314	28.98
348.524	28.78
348.734	28.54
348.944	28.42
349.154	28.59
349.364	28.59
349.574	28.52
349.784	28.15
349.994	28.42
350.204	28.39
350.413	28.26
350.623	28.27
350.833	28.3
351.043	28.4
351.253	28.12
351.463	27.79
351.672	27.71
351.882	27.66
352.092	28
352.302	27.59
352.511	27.17
352.721	27.26
352.931	27.27
353.141	27
353.35	27.09
353.56	27.33
353.77	27.51
353.979	27.49
354.189	27.48
354.399	27.62
354.608	28.02
354.818	28.16
355.027	28.19
355.237	27.95
355.447	28.21
355.656	28.13
355.866	27.95
356.075	27.85
356.285	27.89
356.494	28.26
356.704	28.34
356.913	28.13
357.123	28.16
357.332	28.22
357.542	28.23
357.751	28.11
357.96	28.21
358.17	27.97
358.379	27.96
358.589	27.93
358.798	27.38
359.007	27.13
359.217	27.09
359.426	26.92
359.635	26.62
359.845	26.58
360.054	26.53
360.263	26.38
360.472	26.61
360.682	26.52
360.891	26.49
361.1	26.53
361.309	26.52
361.519	26.49
361.728	26.65
361.937	26.96
362.146	26.91
362.355	27.06
362.564	27.08
362.774	26.82
362.983	26.81
363.192	26.81
363.401	26.91
363.61	26.75
363.819	26.67
364.028	26.42
364.237	25.98
364.446	26.09
364.655	25.83
364.864	25.75
365.073	25.96
365.282	26.07
365.491	25.93
365.7	25.93
365.909	25.92
366.118	26.03
366.327	25.85
366.536	26.05
366.745	26.01
366.954	26.07
367.162	25.92
367.371	25.86
367.58	25.53
367.789	25.69
367.998	25.53
368.207	25.64
368.415	25.46
368.624	25.9
368.833	25.98
369.042	25.96
369.25	25.86
369.459	26.15
369.668	26.32
369.877	26.59
370.085	26.47
370.294	26.5
370.503	26.2
370.711	26.56
370.92	26.41
371.129	25.83
371.337	25.84
371.546	26.04
371.754	25.87
371.963	25.77
372.171	25.77
372.38	25.84
372.589	25.88
372.797	26.16
373.006	25.64
373.214	25.51
373.423	25.83
373.631	25.8
373.84	25.64
374.048	25.74
374.256	25.55
374.465	25.29
374.673	25.17
374.882	25
375.09	24.97
375.298	25.1
375.507	24.96
375.715	25.06
375.923	25.17
376.132	25.17
376.34	24.95
376.548	25.09
376.757	25.08
376.965	25.31
377.173	25.27
377.381	25.37
377.59	25.19
377.798	25.31
378.006	25.4
378.214	25.18
378.423	25.07
378.631	25.1
378.839	25.14
379.047	25.43
379.255	25.11
379.463	25.23
379.671	25.11
379.879	25.59
380.088	25.79
380.296	25.62
380.504	25.41
380.712	25.5
380.92	25.69
381.128	25.51
381.336	25.54
381.544	25.64
381.752	25.8
381.96	25.73
382.168	25.34
382.376	25.22
382.584	25.23
382.791	25.51
382.999	25.63
383.207	25.34
383.415	25.36
383.623	25.33
383.831	25.48
384.039	25.17
384.247	25.16
384.454	25.48
384.662	25.4
384.87	25.24
385.078	25.23
385.285	25.19
385.493	25.42
385.701	25.41
385.909	25.43
386.116	25.26
386.324	25.43
386.532	25.58
386.739	25.32
386.947	25.34
387.155	25.69
387.362	25.74
387.57	25.69
387.778	25.55
387.985	25.57
388.193	25.7
388.4	25.64
388.608	25.37
388.816	25.22
389.023	25.35
389.231	25.39
389.438	25.07
389.646	25.17
389.853	25.24
390.061	25.44
390.268	25.57
390.475	25.41
390.683	25.71
390.89	26.04
391.098	25.97
391.305	25.93
391.512	25.99
391.72	25.97
391.927	25.7
392.135	25.64
392.342	25.57
392.549	25.45
392.756	25.51
392.964	25.08
393.171	25.03
393.378	25.18
393.586	25.14
393.793	25.16
394	25.38
394.207	25.46
394.414	25.43
394.622	25.3
394.829	25.23
395.036	25.22
395.243	25.51
395.45	25.56
395.657	25.39
395.864	25.32
396.072	25.32
396.279	25.13
396.486	25.05
396.693	25.04
396.9	25.18
397.107	25.46
397.314	25.4
397.521	25.58
397.728	25.55
397.935	25.8
398.142	25.99
398.349	26.06
398.556	25.99
398.763	26.09
398.97	26.26
399.177	26.04
399.383	26.03
399.59	25.96
399.797	25.65
400.004	25.9
400.211	25.76
400.418	25.76
400.625	25.51
400.831	25.6
401.038	25.57
401.245	25.35
401.452	25.58
401.658	25.51
401.865	25.83
402.072	25.84
402.279	25.43
402.485	25.5
402.692	25.53
402.899	25.75
403.105	25.75
403.312	25.88
403.519	26.11
403.725	26.14
403.932	26.26
404.138	26.03
404.345	26.08
404.552	26.2
404.758	26.23
404.965	26.19
405.171	26.29
405.378	26.43
405.584	26.29
405.791	26.29
405.997	26.31
406.204	26.28
406.41	26.49
406.617	26.61
406.823	26.61
407.029	26.51
407.236	26.35
407.442	26.21
407.649	26.04
407.855	26.2
408.061	26.11
408.268	26
408.474	26.01
408.68	25.79
408.887	25.75
409.093	25.96
409.299	25.88
409.505	26.25
409.712	26.27
409.918	26.33
410.124	26.51
410.33	26.75
410.537	26.83
410.743	26.75
410.949	26.82
411.155	26.82
411.361	26.76
411.567	26.88
411.773	26.62
411.98	26.63
412.186	26.65
412.392	26.45
412.598	26.4
412.804	26.57
413.01	26.69
413.216	26.77
413.422	26.79
413.628	26.74
413.834	26.74
414.04	26.72
414.246	26.83
414.452	26.81
414.658	26.79
414.864	26.63
415.07	26.57
415.275	26.47
415.481	26.36
415.687	26.42
415.893	26.44
416.099	26.51
416.305	26.69
416.511	26.67
416.716	26.83
416.922	26.81
417.128	26.83
417.334	26.78
417.539	26.82
417.745	26.84
417.951	26.85
418.157	26.89
418.362	26.94
418.568	26.82
418.774	26.87
418.979	26.88
419.185	26.96
419.391	26.95
419.596	26.88
419.802	27.02
420.008	27.09
420.213	27.11
420.419	27.09
420.624	27.02
420.83	27.12
421.035	27.07
421.241	26.99
421.446	26.99
421.652	26.98
421.857	27.11
422.063	27.01
422.268	26.96
422.474	26.88
422.679	26.86
422.885	26.94
423.09	26.93
423.295	26.92
423.501	26.97
423.706	26.93
423.911	26.96
424.117	26.95
424.322	27.01
424.527	27.07
424.733	27.18
424.938	27.17
425.143	27.1
425.349	27.13
425.554	27.13
425.759	27.13
425.964	27.27
426.169	27.4
426.375	27.43
426.58	27.36
426.785	27.48
426.99	27.44
427.195	27.59
427.4	27.68
427.605	27.74
427.811	27.8
428.016	27.84
428.221	27.78
428.426	27.64
428.631	27.56
428.836	27.63
429.041	27.54
429.246	27.48
429.451	27.28
429.656	27.37
429.861	27.3
430.066	27.41
430.271	27.32
430.476	27.4
430.681	27.53
430.886	27.65
431.09	27.5
431.295	27.44
431.5	27.55
431.705	27.74
431.91	27.66
432.115	27.59
432.32	27.52
432.524	27.62
432.729	27.45
432.934	27.33
433.139	27.29
433.343	27.47
433.548	27.58
433.753	27.56
433.958	27.49
434.162	27.47
434.367	27.6
434.572	27.58
434.776	27.56
434.981	27.74
435.186	27.83
435.39	27.93
435.595	27.9
435.799	27.84
436.004	27.8
436.209	27.98
436.413	27.99
436.618	28.03
436.822	28.17
437.027	28.28
437.231	28.2
437.436	28.17
437.64	28.02
437.845	28.05
438.049	27.99
438.253	28.1
438.458	28
438.662	28.16
438.867	28.12
439.071	28.12
439.275	28.1
439.48	28.15
439.684	28.21
439.888	28.27
440.093	28.22
440.297	28.3
440.501	28.32
440.706	28.31
440.91	28.27
441.114	28.32
441.318	28.31
441.523	28.33
441.727	28.3
441.931	28.24
442.135	28.29
442.339	28.4
442.543	28.44
442.748	28.43
442.952	28.46
443.156	28.45
443.36	28.38
443.564	28.38
443.768	28.28
443.972	28.33
444.176	28.39
444.38	28.31
444.584	28.19
444.788	28.25
444.992	28.35
445.196	28.32
445.4	28.34
445.604	28.36
445.808	28.27
446.012	28.31
446.216	28.24
446.42	28.17
446.624	28.23
446.828	28.23
447.032	28.1
447.235	28.02
447.439	28
447.643	28
447.847	27.99
448.051	27.92
448.254	27.95
448.458	27.99
448.662	28.02
448.866	28.03
449.069	28.08
449.273	28.13
449.477	28.14
449.681	28.33
449.884	28.34
450.088	28.36
450.292	28.53
450.495	28.62
450.699	28.53
450.902	28.57
451.106	28.57
451.31	28.59
451.513	28.6
451.717	28.59
451.92	28.49
452.124	28.46
452.327	28.43
452.531	28.31
452.734	28.24
452.938	28.47
453.141	28.46
453.345	28.38
453.548	28.3
453.752	28.32
453.955	28.27
454.158	28.27
454.362	28.25
454.565	28.26
454.769	28.39
454.972	28.41
455.175	28.21
455.379	28.27
455.582	28.27
455.785	28.36
455.988	28.38
456.192	28.5
456.395	28.52
456.598	28.49
456.801	28.55
457.005	28.52
457.208	28.45
457.411	28.46
457.614	28.37
457.817	28.43
458.021	28.47
458.224	28.47
458.427	28.4
458.63	28.52
458.833	28.59
459.036	28.67
459.239	28.76
459.442	28.78
459.645	28.81
459.848	28.85
460.051	28.91
460.254	28.87
460.457	28.97
460.66	28.9
460.863	28.73
461.066	28.69
461.269	28.52
