Data from 2938709__Reflection_03.txt Node
Date: Tue Mar 17 19:38:08 EDT 2015
User: robert
Spectrometer: USB4E03002
Autoset integration time: false
Trigger mode: 4
Integration Time (sec): 1.000000E-1
Scans to average: 10
Electric dark correction enabled: false
Nonlinearity correction enabled: false
Boxcar width: 5
Stray light correction enabled: false
XAxis mode: Wavelengths
Stop averaging: false
Number of Pixels in Spectrum: 3648
>>>>>Begin Spectral Data<<<<<
177.575	121.32
177.794	106.25
178.014	134.18
178.233	141.99
178.452	100
178.672	140.72
178.891	191.96
179.11	218.64
179.33	154.49
179.549	284.77
179.768	312.35
179.987	344.29
180.207	-2221.74
180.426	412.66
180.645	211.93
180.864	184.49
181.084	164.85
181.303	116.05
181.522	120.63
181.741	136.77
181.96	112.8
182.179	115.76
182.398	81.64
182.618	126.98
182.837	131.43
183.056	156.27
183.275	228.65
183.494	215.99
183.713	207.33
183.932	158.57
184.151	267.46
184.37	325.83
184.589	234.82
184.808	287.93
185.027	333.33
185.246	276.34
185.465	415.23
185.684	321.11
185.903	191.63
186.122	305.38
186.341	344.09
186.56	279.63
186.779	224.84
186.998	325.94
187.216	295.76
187.435	253.57
187.654	223.31
187.873	237.79
188.092	251.1
188.311	819.74
188.53	325.57
188.748	311.85
188.967	177.33
189.186	171.99
189.405	141.2
189.623	134.24
189.842	126.49
190.061	153.66
190.28	127.86
190.498	220.47
190.717	157.55
190.936	253.55
191.154	1121.21
191.373	-789.83
191.592	550.36
191.81	1732.5
192.029	1700
192.248	24100
192.466	-831.58
192.685	-204.55
192.904	-788.89
193.122	-876.92
193.341	-2182.14
193.559	10316.67
193.778	2118.52
193.996	-650.94
194.215	-446.91
194.433	-151.59
194.652	-618.75
194.87	1038
195.089	612.15
195.307	821.52
195.526	2083.87
195.744	2080.77
195.963	549.46
196.181	739.47
196.399	779
196.618	3159.09
196.836	843.43
197.055	416.83
197.273	357.53
197.491	226.75
197.71	182.83
197.928	149.13
198.146	152.31
198.365	144.27
198.583	129.31
198.801	100.19
199.019	98.42
199.238	98.8
199.456	102.91
199.674	129.6
199.892	175
200.111	167.99
200.329	213.46
200.547	242.98
200.765	1878.95
200.983	1000
201.202	-238.39
201.42	-60.56
201.638	5.38
201.856	22.67
202.074	73.75
202.292	69.26
202.51	63.98
202.728	88.36
202.946	21.29
203.165	344.44
203.383	1940
203.601	5
203.819	17.24
204.037	413.51
204.255	-735.9
204.473	1016
204.691	1069.57
204.909	476.58
205.127	456.02
205.345	534.65
205.562	-1355.56
205.78	522.14
205.998	250.75
206.216	170
206.434	224.23
206.652	157.53
206.87	146.27
207.088	129.45
207.306	129.17
207.523	116.7
207.741	135.17
207.959	89.67
208.177	117.94
208.395	90.26
208.612	96.22
208.83	84.79
209.048	57.89
209.266	92.61
209.483	94.04
209.701	104.26
209.919	84.5
210.136	-41.75
210.354	320.45
210.572	30.51
210.79	-1709.09
211.007	182.24
211.225	207.51
211.442	138.11
211.66	52.49
211.878	58.85
212.095	-51.88
212.313	-20.35
212.53	-39.16
212.748	-56.56
212.966	-72.09
213.183	-82.95
213.401	-92.95
213.618	-68.35
213.836	-52.19
214.053	-51.12
214.271	-39.23
214.488	96.83
214.705	63.85
214.923	72.19
215.14	77.16
215.358	83.63
215.575	89.73
215.793	110.02
216.01	91.44
216.227	106.8
216.445	88.45
216.662	75.55
216.879	105.39
217.097	99
217.314	142.15
217.531	80.51
217.749	78.66
217.966	67.92
218.183	60.5
218.4	51.75
218.618	33.08
218.835	19.87
219.052	26.45
219.269	13.15
219.487	11.99
219.704	-11.54
219.921	1.89
220.138	-1.44
220.355	-11.86
220.572	1.3
220.79	10.79
221.007	21.38
221.224	30.53
221.441	22.4
221.658	30.39
221.875	33.69
222.092	38.58
222.309	35.64
222.526	36.57
222.743	39.54
222.96	38.59
223.177	38.47
223.394	36.02
223.611	32.18
223.828	32.15
224.045	25.44
224.262	22.88
224.479	22.02
224.696	26.91
224.913	29.59
225.13	32.92
225.347	28.08
225.564	27.81
225.781	25.15
225.997	20.86
226.214	17.97
226.431	14.24
226.648	11.87
226.865	12.85
227.082	8.81
227.298	6.32
227.515	3.9
227.732	6.33
227.949	5.99
228.165	5.15
228.382	5.51
228.599	5.56
228.816	6.73
229.032	6.17
229.249	5.66
229.466	6.13
229.682	5.9
229.899	5.29
230.116	5.11
230.332	4.67
230.549	4.68
230.765	4.78
230.982	4.9
231.199	4.29
231.415	4.48
231.632	3.72
231.848	2.87
232.065	1.72
232.281	3.37
232.498	2.65
232.714	3.01
232.931	3.69
233.147	2.94
233.364	1.8
233.58	1.52
233.797	3.59
234.013	3.3
234.23	4.75
234.446	6.55
234.662	5
234.879	3.97
235.095	4.06
235.312	4.59
235.528	6.86
235.744	8.5
235.961	8.45
236.177	6.37
236.393	6.6
236.61	5.29
236.826	3.25
237.042	5.37
237.258	6.4
237.475	5.06
237.691	3.22
237.907	2.44
238.123	1.97
238.339	0.16
238.556	1.79
238.772	2.47
238.988	2.4
239.204	3.24
239.42	4.63
239.636	4.5
239.853	4.27
240.069	5.29
240.285	4.28
240.501	3.87
240.717	5.16
240.933	5.81
241.149	4.96
241.365	4.53
241.581	4.61
241.797	3.56
242.013	2.92
242.229	2.93
242.445	2.74
242.661	3.08
242.877	2.74
243.093	2.87
243.309	1.54
243.525	2.02
243.741	2.47
243.957	2.64
244.173	2.99
244.388	3.81
244.604	4.53
244.82	4.89
245.036	4.62
245.252	5.03
245.468	5.12
245.683	5.24
245.899	4.9
246.115	4.98
246.331	4.86
246.547	4.57
246.762	3.99
246.978	3.96
247.194	3.84
247.409	4
247.625	4.1
247.841	4.07
248.057	4.46
248.272	4.34
248.488	3.99
248.703	3.89
248.919	4.17
249.135	4.96
249.35	4.96
249.566	4.51
249.782	4.22
249.997	3.93
250.213	3.48
250.428	3
250.644	3.33
250.859	3.33
251.075	3.53
251.29	3.3
251.506	2.87
251.721	3.09
251.937	4.15
252.152	4.27
252.368	4.02
252.583	4.11
252.798	4.19
253.014	4.2
253.229	4.25
253.445	3.81
253.66	3.8
253.875	3.87
254.091	4.2
254.306	3.61
254.521	3.21
254.737	4.21
254.952	4.68
255.167	4.53
255.383	4.38
255.598	4.5
255.813	3.67
256.028	3.56
256.244	3.11
256.459	2.11
256.674	2.51
256.889	2.63
257.104	1.98
257.32	1.42
257.535	1.92
257.75	2.03
257.965	1.81
258.18	2.49
258.395	2.3
258.61	2.45
258.826	2.78
259.041	2.7
259.256	2.67
259.471	2.64
259.686	2.68
259.901	2.51
260.116	2.28
260.331	2.38
260.546	2.27
260.761	2.4
260.976	2.21
261.191	2.1
261.406	2.17
261.621	2.21
261.836	2.54
262.05	2.13
262.265	1.86
262.48	2.24
262.695	2.63
262.91	3.15
263.125	3.47
263.34	3.37
263.555	3.62
263.769	2.86
263.984	3.03
264.199	2.61
264.414	3.2
264.629	3.2
264.843	3.15
265.058	2.98
265.273	2.78
265.488	2.35
265.702	2.58
265.917	2.76
266.132	3.63
266.346	3.28
266.561	3.61
266.776	3.93
266.99	3.9
267.205	3.76
267.42	3.45
267.634	3.44
267.849	3.17
268.063	3.54
268.278	2.86
268.492	2.52
268.707	2.71
268.922	2.23
269.136	2.01
269.351	2.15
269.565	2.18
269.78	2.11
269.994	1.98
270.209	2.19
270.423	2.04
270.637	2.57
270.852	2.69
271.066	2.81
271.281	3.04
271.495	2.82
271.709	3.01
271.924	3.07
272.138	3.43
272.353	3.62
272.567	3.71
272.781	3.57
272.996	3.28
273.21	3.46
273.424	3.48
273.638	3.29
273.853	3.21
274.067	3.24
274.281	3.49
274.495	3.01
274.71	2.77
274.924	2.55
275.138	2.74
275.352	2.97
275.566	2.49
275.781	2.04
275.995	2.09
276.209	2.22
276.423	2.27
276.637	1.69
276.851	2.09
277.065	2.13
277.279	2.05
277.493	2.09
277.707	1.89
277.921	2.18
278.135	2.42
278.349	2.46
278.563	2.54
278.777	2.23
278.991	2.57
279.205	1.93
279.419	1.67
279.633	1.26
279.847	0.84
280.061	0.9
280.275	0.79
280.489	1.1
280.703	0.98
280.917	1.29
281.131	0.99
281.344	0.66
281.558	1.18
281.772	1.54
281.986	1.72
282.2	1.95
282.414	2.21
282.627	2.37
282.841	1.89
283.055	1.96
283.269	1.45
283.482	1.72
283.696	2.06
283.91	1.97
284.123	1.54
284.337	1.8
284.551	1.97
284.764	1.57
284.978	1.27
285.192	1.61
285.405	1.8
285.619	1.97
285.833	2.08
286.046	2.2
286.26	2.24
286.473	2.89
286.687	2.9
286.9	2.9
287.114	2.89
287.327	2.96
287.541	2.73
287.754	2.78
287.968	2.65
288.181	2.44
288.395	2.48
288.608	2.44
288.822	2.12
289.035	2.23
289.248	2.15
289.462	2.68
289.675	2.71
289.889	3.1
290.102	2.87
290.315	3.14
290.529	3.55
290.742	3.41
290.955	3.7
291.169	3.56
291.382	3.59
291.595	3.54
291.808	3.34
292.022	3.19
292.235	3.15
292.448	3.15
292.661	3.27
292.875	2.74
293.088	2.56
293.301	2.05
293.514	2.03
293.727	1.74
293.94	2.06
294.153	1.85
294.367	2.25
294.58	2.35
294.793	2.34
295.006	2.42
295.219	2.74
295.432	2.44
295.645	2.58
295.858	2.81
296.071	3.02
296.284	3.09
296.497	3.26
296.71	3.19
296.923	2.8
297.136	2.94
297.349	2.93
297.562	2.78
297.775	3.2
297.988	3.42
298.201	3.33
298.414	3.4
298.626	3.25
298.839	3.15
299.052	3.15
299.265	3.34
299.478	3.48
299.691	3.67
299.903	3.95
300.116	3.96
300.329	3.91
300.542	3.91
300.755	3.76
300.967	3.36
301.18	3.58
301.393	3.7
301.605	3.62
301.818	3.3
302.031	3.23
302.243	3.12
302.456	3.19
302.669	3.21
302.881	3.29
303.094	3.31
303.307	3.25
303.519	3.24
303.732	3.09
303.944	3.49
304.157	3.95
304.37	3.84
304.582	3.94
304.795	4.12
305.007	4.08
305.22	3.79
305.432	3.68
305.645	4.39
305.857	4.42
306.069	4.53
306.282	4.55
306.494	4.17
306.707	3.97
306.919	4.02
307.132	3.94
307.344	3.64
307.556	4.02
307.769	4.62
307.981	4.63
308.193	4.46
308.406	4.67
308.618	4.67
308.83	4.6
309.043	4.82
309.255	4.81
309.467	4.87
309.679	4.92
309.892	5.18
310.104	4.82
310.316	4.6
310.528	4.59
310.74	4.6
310.953	4.5
311.165	4.73
311.377	4.73
311.589	4.47
311.801	3.99
312.013	3.93
312.225	3.65
312.437	3.65
312.649	3.9
312.862	3.77
313.074	3.48
313.286	3.77
313.498	3.82
313.71	3.88
313.922	4.36
314.134	4.61
314.346	4.82
314.558	5.01
314.77	5.18
314.982	4.83
315.193	5.13
315.405	5.31
315.617	4.77
315.829	4.75
316.041	4.28
316.253	4.15
316.465	4.4
316.677	4.68
316.888	4.39
317.1	4.54
317.312	4.81
317.524	4.55
317.736	4.43
317.947	4.49
318.159	4.66
318.371	5.02
318.583	5.11
318.794	5.22
319.006	4.94
319.218	5.06
319.43	5.18
319.641	4.91
319.853	5.48
320.064	5.85
320.276	5.9
320.488	5.83
320.699	6.02
320.911	5.99
321.123	6.21
321.334	6.35
321.546	6.59
321.757	6.14
321.969	6.56
322.18	6.52
322.392	6.34
322.603	6.55
322.815	6.21
323.026	6.15
323.238	6.15
323.449	5.85
323.661	6.16
323.872	6.09
324.083	6.27
324.295	6.09
324.506	5.96
324.718	5.92
324.929	6
325.14	6.49
325.352	6.7
325.563	7.02
325.774	7.07
325.986	7.1
326.197	7.25
326.408	7.79
326.62	7.99
326.831	7.98
327.042	8.56
327.253	8.53
327.464	8.46
327.676	8.28
327.887	8.37
328.098	8.53
328.309	8.63
328.52	8.73
328.732	8.2
328.943	8.44
329.154	8.88
329.365	8.24
329.576	8.6
329.787	8.31
329.998	8.58
330.209	8.59
330.42	8.57
330.631	8.41
330.842	8.75
331.053	8.95
331.264	8.31
331.475	8.24
331.686	8.67
331.897	8.27
332.108	8.84
332.319	9.08
332.53	8.59
332.741	8.62
332.952	8.82
333.163	8.81
333.374	8.99
333.585	9.41
333.795	9.43
334.006	9.06
334.217	9.52
334.428	9.48
334.639	9.6
334.849	10
335.06	10.02
335.271	10.09
335.482	10.02
335.692	10.19
335.903	10.26
336.114	10.07
336.325	10.32
336.535	10.39
336.746	10.43
336.957	10.27
337.167	10.31
337.378	10.36
337.589	10.29
337.799	9.84
338.01	9.95
338.22	9.87
338.431	9.68
338.642	9.97
338.852	9.68
339.063	9.8
339.273	9.77
339.484	9.72
339.694	9.58
339.905	9.55
340.115	10.08
340.326	9.86
340.536	9.75
340.746	9.88
340.957	9.89
341.167	10
341.378	9.77
341.588	9.58
341.799	9.54
342.009	9.46
342.219	9.33
342.43	9.12
342.64	8.77
342.85	8.96
343.061	8.93
343.271	8.63
343.481	8.35
343.691	8.23
343.902	8.2
344.112	8.38
344.322	8.34
344.532	8.39
344.743	8.09
344.953	8.3
345.163	8.23
345.373	8.34
345.583	8.32
345.793	8.63
346.004	8.72
346.214	8.81
346.424	8.58
346.634	8.96
346.844	8.89
347.054	9.12
347.264	9.34
347.474	9.27
347.684	9.34
347.894	9.52
348.104	9.38
348.314	9.14
348.524	9.31
348.734	9.2
348.944	8.99
349.154	9.25
349.364	9.35
349.574	8.91
349.784	9.08
349.994	9.01
350.204	8.76
350.413	8.84
350.623	9.05
350.833	8.69
351.043	8.8
351.253	8.82
351.463	8.67
351.672	8.49
351.882	8.84
352.092	8.63
352.302	8.62
352.511	8.86
352.721	8.92
352.931	9.08
353.141	9.57
353.35	9.38
353.56	9.3
353.77	9.19
353.979	9.15
354.189	9.28
354.399	9.13
354.608	9.33
354.818	9.46
355.027	9.33
355.237	9.25
355.447	8.9
355.656	8.99
355.866	8.84
356.075	8.91
356.285	9
356.494	8.7
356.704	8.95
356.913	8.86
357.123	8.61
357.332	8.45
357.542	8.49
357.751	8.6
357.96	8.57
358.17	8.74
358.379	8.66
358.589	8.61
358.798	8.59
359.007	8.68
359.217	8.74
359.426	8.67
359.635	8.9
359.845	9.09
360.054	9.11
360.263	9.07
360.472	9.12
360.682	9.33
360.891	9.29
361.1	9.11
361.309	9.04
361.519	8.9
361.728	8.79
361.937	8.67
362.146	8.32
362.355	8.22
362.564	8.26
362.774	8.21
362.983	8.06
363.192	8.03
363.401	8.38
363.61	8.33
363.819	8.38
364.028	8.37
364.237	8.16
364.446	8.29
364.655	8.18
364.864	8
365.073	7.69
365.282	7.61
365.491	7.58
365.7	7.31
365.909	7.23
366.118	7.19
366.327	7.18
366.536	7.52
366.745	7.5
366.954	7.72
367.162	7.88
367.371	8.03
367.58	7.84
367.789	7.92
367.998	7.91
368.207	7.91
368.415	8.07
368.624	8.26
368.833	8.01
369.042	7.94
369.25	8.01
369.459	8.01
369.668	8.4
369.877	8.54
370.085	8.69
370.294	8.82
370.503	8.58
370.711	8.35
370.92	8.39
371.129	8.5
371.337	8.3
371.546	8.02
371.754	8.01
371.963	7.75
372.171	7.95
372.38	7.86
372.589	7.97
372.797	8.22
373.006	7.99
373.214	7.87
373.423	8.01
373.631	8.23
373.84	8.22
374.048	8.38
374.256	8.33
374.465	8.35
374.673	8.19
374.882	7.96
375.09	7.69
375.298	7.8
375.507	7.69
375.715	7.42
375.923	7.44
376.132	7.6
376.34	7.3
376.548	7.49
376.757	7.29
376.965	7.4
377.173	7.4
377.381	7.73
377.59	8
377.798	8.09
378.006	8.31
378.214	8.46
378.423	8.46
378.631	8.54
378.839	8.42
379.047	8.52
379.255	8.6
379.463	8.47
379.671	8.43
379.879	8.28
380.088	8.2
380.296	8.11
380.504	7.76
380.712	7.48
380.92	7.6
381.128	7.45
381.336	7.34
381.544	7.12
381.752	7.06
381.96	6.85
382.168	6.75
382.376	7.02
382.584	6.95
382.791	7.06
382.999	7.24
383.207	7.15
383.415	7.26
383.623	7.3
383.831	7.27
384.039	7.42
384.247	7.5
384.454	7.43
384.662	6.97
384.87	7.08
385.078	7.08
385.285	6.91
385.493	6.75
385.701	6.63
385.909	6.68
386.116	6.61
386.324	6.66
386.532	6.45
386.739	6.58
386.947	6.8
387.155	6.67
387.362	6.67
387.57	6.52
387.778	6.58
387.985	6.48
388.193	6.37
388.4	6.38
388.608	6.37
388.816	6.43
389.023	6.42
389.231	6.29
389.438	6.29
389.646	6.13
389.853	6.44
390.061	6.49
390.268	6.62
390.475	6.69
390.683	6.8
390.89	6.84
391.098	6.91
391.305	6.81
391.512	6.8
391.72	6.98
391.927	7.13
392.135	6.98
392.342	6.86
392.549	6.83
392.756	6.81
392.964	6.82
393.171	6.67
393.378	6.66
393.586	6.73
393.793	6.8
394	6.57
394.207	6.62
394.414	6.73
394.622	6.69
394.829	6.75
395.036	6.57
395.243	6.48
395.45	6.32
395.657	6.33
395.864	6.44
396.072	6.33
396.279	6.4
396.486	6.32
396.693	6.14
396.9	6.35
397.107	6.15
397.314	6.22
397.521	6.32
397.728	6.39
397.935	6.04
398.142	5.86
398.349	6.02
398.556	5.81
398.763	5.71
398.97	5.91
399.177	5.88
399.383	5.82
399.59	5.82
399.797	5.55
400.004	5.71
400.211	6.01
400.418	5.93
400.625	5.72
400.831	5.81
401.038	5.88
401.245	5.75
401.452	5.56
401.658	5.68
401.865	5.58
402.072	5.68
402.279	5.65
402.485	5.58
402.692	5.61
402.899	5.71
403.105	5.85
403.312	5.73
403.519	5.8
403.725	5.81
403.932	5.74
404.138	5.86
404.345	5.94
404.552	5.9
404.758	6.01
404.965	6.03
405.171	5.96
405.378	5.85
405.584	6.1
405.791	6.08
405.997	6.15
406.204	6.3
406.41	6.41
406.617	6.35
406.823	6.32
407.029	6.12
407.236	6.17
407.442	6.24
407.649	6.25
407.855	5.92
408.061	5.83
408.268	5.79
408.474	5.77
408.68	5.56
408.887	5.57
409.093	5.59
409.299	5.77
409.505	5.79
409.712	5.74
409.918	5.6
410.124	5.83
410.33	5.71
410.537	5.73
410.743	5.79
410.949	5.87
411.155	5.75
411.361	5.63
411.567	5.49
411.773	5.28
411.98	5.36
412.186	5.5
412.392	5.32
412.598	5.37
412.804	5.29
413.01	5.25
413.216	5.23
413.422	5.37
413.628	5.59
413.834	5.65
414.04	5.85
414.246	5.81
414.452	5.81
414.658	5.92
414.864	5.94
415.07	6.08
415.275	5.98
415.481	5.98
415.687	5.87
415.893	5.85
416.099	5.81
416.305	5.84
416.511	5.8
416.716	5.78
416.922	5.72
417.128	5.75
417.334	5.64
417.539	5.61
417.745	5.64
417.951	5.73
418.157	5.72
418.362	5.74
418.568	5.66
418.774	5.67
418.979	5.72
419.185	5.74
419.391	5.8
419.596	5.81
419.802	5.85
420.008	5.81
420.213	6.41
420.419	6.34
420.624	6.39
420.83	6.3
421.035	6.27
421.241	6.22
421.446	6.21
421.652	6.17
421.857	6.16
422.063	6.15
422.268	6.14
422.474	5.56
422.679	5.61
422.885	5.57
423.09	5.66
423.295	5.73
423.501	5.7
423.706	5.77
423.911	5.74
424.117	5.65
424.322	5.62
424.527	5.67
424.733	5.65
424.938	5.64
425.143	5.64
425.349	5.58
425.554	5.51
425.759	5.52
425.964	5.46
426.169	5.52
426.375	5.61
426.58	5.68
426.785	5.67
426.99	5.72
427.195	5.65
427.4	5.57
427.605	5.58
427.811	5.69
428.016	5.64
428.221	5.57
428.426	5.55
428.631	5.66
428.836	5.54
429.041	5.56
429.246	5.59
429.451	5.7
429.656	5.74
429.861	5.81
430.066	5.8
430.271	5.9
430.476	5.98
430.681	5.89
430.886	5.78
431.09	5.79
431.295	5.64
431.5	5.55
431.705	5.48
431.91	5.44
432.115	5.43
432.32	5.41
432.524	5.46
432.729	5.38
432.934	5.42
433.139	5.42
433.343	5.48
433.548	5.38
433.753	5.42
433.958	5.33
434.162	5.36
434.367	5.41
434.572	5.38
434.776	5.37
434.981	5.46
435.186	5.44
435.39	5.5
435.595	5.47
435.799	5.68
436.004	5.69
436.209	5.76
436.413	5.78
436.618	5.76
436.822	5.75
437.027	5.72
437.231	5.62
437.436	5.61
437.64	5.7
437.845	5.74
438.049	5.7
438.253	5.73
438.458	5.81
438.662	5.89
438.867	5.88
439.071	5.92
439.275	5.84
439.48	5.82
439.684	5.77
439.888	5.68
440.093	5.61
440.297	5.6
440.501	5.48
440.706	5.56
440.91	5.56
441.114	5.55
441.318	5.58
441.523	5.64
441.727	5.67
441.931	5.8
442.135	5.84
442.339	5.86
442.543	5.92
442.748	6.04
442.952	5.97
443.156	5.84
443.36	5.82
443.564	5.76
443.768	5.71
443.972	5.76
444.176	5.67
444.38	5.72
444.584	5.78
444.788	5.79
444.992	5.76
445.196	5.77
445.4	5.87
445.604	5.88
445.808	5.85
446.012	5.76
446.216	5.75
446.42	5.77
446.624	5.73
446.828	5.65
447.032	5.65
447.235	5.63
447.439	5.68
447.643	5.58
447.847	5.56
448.051	5.54
448.254	5.67
448.458	5.62
448.662	5.58
448.866	5.56
449.069	5.66
449.273	5.58
449.477	5.66
449.681	5.55
449.884	5.67
450.088	5.77
450.292	5.79
450.495	5.74
450.699	5.8
450.902	5.79
451.106	5.86
451.31	5.79
451.513	5.77
451.717	5.71
451.92	5.78
452.124	5.73
452.327	5.6
452.531	5.59
452.734	5.6
452.938	5.54
453.141	5.56
453.345	5.42
453.548	5.4
453.752	5.43
453.955	5.43
454.158	5.38
454.362	5.3
454.565	5.39
454.769	5.41
454.972	5.33
455.175	5.49
455.379	5.49
455.582	5.69
455.785	5.63
455.988	5.75
456.192	5.85
456.395	5.86
456.598	5.99
456.801	5.92
457.005	5.91
457.208	6.1
457.411	5.99
457.614	6.04
457.817	5.96
458.021	5.98
458.224	5.85
458.427	5.77
458.63	5.78
458.833	5.73
459.036	5.71
459.239	5.74
459.442	5.71
459.645	5.73
459.848	5.66
460.051	5.5
460.254	5.57
460.457	5.61
460.66	5.63
460.863	5.61
461.066	5.58
461.269	5.7
461.472	5.65
461.675	5.61
461.878	5.52
462.081	5.58
462.284	5.73
462.486	5.66
462.689	5.63
462.892	5.64
463.095	5.66
463.298	5.66
463.5	5.49
463.703	5.51
463.906	5.54
464.109	5.52
464.311	5.47
464.514	5.5
464.717	5.55
464.92	5.5
465.122	5.49
465.325	5.45
465.528	5.52
465.73	5.73
465.933	5.78
466.135	5.79
466.338	5.88
466.541	5.91
466.743	5.9
466.946	5.94
467.148	6
467.351	5.95
467.553	5.99
467.756	5.98
467.958	5.87
468.161	5.87
468.363	5.84
468.566	5.85
468.768	5.85
468.971	5.84
469.173	5.8
469.375	5.75
469.578	5.72
469.78	5.66
469.983	5.64
470.185	5.69
470.387	5.68
470.59	5.61
