Data from 2938848__Reflection_03.txt Node
Date: Wed Mar 11 13:36:29 EDT 2015
User: robert
Spectrometer: USB4E03002
Autoset integration time: false
Trigger mode: 4
Integration Time (sec): 1.000000E-1
Scans to average: 10
Electric dark correction enabled: false
Nonlinearity correction enabled: false
Boxcar width: 5
Stray light correction enabled: false
XAxis mode: Wavelengths
Stop averaging: false
Number of Pixels in Spectrum: 3648
>>>>>Begin Spectral Data<<<<<
177.575	266.67
177.794	-506.25
178.014	-144.52
178.233	-382.35
178.452	-284.67
178.672	-104.57
178.891	-78.13
179.11	-47.06
179.33	-93.3
179.549	-97.5
179.768	-234.13
179.987	-238.36
180.207	-105.51
180.426	-160.54
180.645	-115.68
180.864	-53.16
181.084	-132.45
181.303	-1057.14
181.522	-447.79
181.741	-286.39
181.96	-381.56
182.179	-881.03
182.398	-485.88
182.618	564.84
182.837	775.38
183.056	1397.87
183.275	254.64
183.494	217.07
183.713	301.21
183.932	195.73
184.151	226.35
184.37	202.72
184.589	365.56
184.808	408.03
185.027	-1542.86
185.246	-593.33
185.465	-88.19
185.684	-26.99
185.903	-78.26
186.122	-11.86
186.341	-29.71
186.56	6.21
186.779	-34.06
186.998	-23.35
187.216	-13.97
187.435	13.44
187.654	11.48
187.873	-9.59
188.092	-26.12
188.311	-15.77
188.53	-20.4
188.748	4.33
188.967	3.86
189.186	15.22
189.405	4.83
189.623	5.38
189.842	-12.29
190.061	-13.42
190.28	-9.87
190.498	-13.17
190.717	-10.88
190.936	-20.9
191.154	-26.6
191.373	-25.83
191.592	-39.62
191.81	-27.24
192.029	-55.86
192.248	-114.45
192.466	-174.92
192.685	-162
192.904	-119.44
193.122	-105.44
193.341	-383.22
193.559	-433.33
193.778	-808.64
193.996	-369.4
194.215	-291.46
194.433	-111.97
194.652	-77.13
194.87	-66.44
195.089	-85.99
195.307	-90.11
195.526	-152.16
195.744	-49.58
195.963	-36.22
196.181	-17.85
196.399	-42.51
196.618	-28.21
196.836	-51
197.055	-18.16
197.273	-1.55
197.491	-12.62
197.71	-18.1
197.928	-5.7
198.146	-6.49
198.365	-16.15
198.583	-34.95
198.801	-30.26
199.019	-44.91
199.238	-44.56
199.456	-62.5
199.674	-90.78
199.892	-31.09
200.111	-24.69
200.329	-18.76
200.547	-34.58
200.765	-38.99
200.983	-32.18
201.202	-28.68
201.42	-8.06
201.638	-10.88
201.856	-27.36
202.074	-48.07
202.292	-86.24
202.51	-118.93
202.728	-200.49
202.946	-139.45
203.165	-150.49
203.383	-136.82
203.601	-166.41
203.819	-251.22
204.037	-245.32
204.255	-137.77
204.473	-116.28
204.691	-94.15
204.909	-88.21
205.127	-79.23
205.345	-148.66
205.562	-123.37
205.78	-135
205.998	-235.51
206.216	-244.63
206.434	-144.44
206.652	-111.43
206.87	-113.41
207.088	-82.89
207.306	-91.59
207.523	-77.51
207.741	-66.37
207.959	-62.08
208.177	-71.25
208.395	-46.23
208.612	-38.69
208.83	-50.8
209.048	-90.73
209.266	-49.03
209.483	-122.44
209.701	-127.87
209.919	-109.28
210.136	-97.9
210.354	-85.45
210.572	-71.02
210.79	-65.28
211.007	-94.23
211.225	-113.09
211.442	-95.63
211.66	-171.92
211.878	-104.82
212.095	-63.28
212.313	-73.98
212.53	-64.85
212.748	-35.3
212.966	-31.61
213.183	-16.98
213.401	7.47
213.618	11.41
213.836	17.9
214.053	20.75
214.271	15.66
214.488	0.87
214.705	-4.87
214.923	-14.66
215.14	-41.9
215.358	-44.38
215.575	-49.28
215.793	-64.44
216.01	-82.5
216.227	-70.03
216.445	-55.9
216.662	-51.99
216.879	-39.88
217.097	-25.33
217.314	-13.31
217.531	-4.36
217.749	-5.78
217.966	0.67
218.183	6.73
218.4	12.18
218.618	3.91
218.835	10.96
219.052	15.92
219.269	15.14
219.487	7.33
219.704	4.84
219.921	1.72
220.138	6.32
220.355	4.73
220.572	2.87
220.79	0.05
221.007	0.45
221.224	-10.77
221.441	-14.73
221.658	-10.67
221.875	-11.32
222.092	-12.89
222.309	-13.07
222.526	-11.4
222.743	-13.09
222.96	-16.67
223.177	-17.59
223.394	-18.09
223.611	-18.26
223.828	-16.89
224.045	-9.49
224.262	-5.69
224.479	-2.6
224.696	1.15
224.913	1.54
225.13	4.07
225.347	0.78
225.564	2.4
225.781	3.95
225.997	4.94
226.214	6.19
226.431	3.61
226.648	3.87
226.865	2.79
227.082	3.41
227.298	4.2
227.515	3.43
227.732	4.55
227.949	5.82
228.165	5.43
228.382	5.52
228.599	4.75
228.816	4.43
229.032	3.95
229.249	3.84
229.466	2.99
229.682	2.4
229.899	2.41
230.116	2.56
230.332	1.92
230.549	1.63
230.765	0.99
230.982	1.53
231.199	1.24
231.415	0.81
231.632	0.14
231.848	-0.38
232.065	-0.03
232.281	0.21
232.498	-0.45
232.714	-2.56
232.931	-2.11
233.147	-2.61
233.364	-2.94
233.58	-2.79
233.797	-1.87
234.013	-1.6
234.23	-1.38
234.446	-0.73
234.662	-2.33
234.879	-3.22
235.095	-1.3
235.312	-1.01
235.528	-1.01
235.744	-0.15
235.961	0.34
236.177	0.3
236.393	1.22
236.61	2.94
236.826	3.59
237.042	4.12
237.258	4.19
237.475	2.9
237.691	1.82
237.907	3.34
238.123	2.52
238.339	3.14
238.556	1.63
238.772	1.28
238.988	0.13
239.204	-1.65
239.42	-0.87
239.636	0.84
239.853	1.62
240.069	1.12
240.285	1.2
240.501	1.51
240.717	0.75
240.933	1.06
241.149	1.46
241.365	1.65
241.581	2.21
241.797	2.25
242.013	2.33
242.229	2.55
242.445	3.22
242.661	3.04
242.877	3.14
243.093	3.44
243.309	3.5
243.525	3.12
243.741	3.49
243.957	2.94
244.173	2.85
244.388	2.81
244.604	2.07
244.82	1.61
245.036	1.49
245.252	0.7
245.468	0.97
245.683	2.06
245.899	2.55
246.115	2.62
246.331	3
246.547	2.9
246.762	2.72
246.978	2.85
247.194	2.99
247.409	3.23
247.625	3.84
247.841	3.59
248.057	3.3
248.272	3.36
248.488	3.06
248.703	3.19
248.919	3.09
249.135	3.04
249.35	3.02
249.566	2.86
249.782	2.83
249.997	2.14
250.213	2.08
250.428	1.86
250.644	1.26
250.859	1.72
251.075	1.5
251.29	1.72
251.506	2.28
251.721	2.83
251.937	3.26
252.152	3.46
252.368	3.46
252.583	3.7
252.798	3.22
253.014	3.42
253.229	3.2
253.445	2.87
253.66	2.71
253.875	2.73
254.091	1.66
254.306	0.63
254.521	0.08
254.737	0.65
254.952	0.81
255.167	1.23
255.383	1.58
255.598	1.28
255.813	1.91
256.028	2.79
256.244	2.09
256.459	2.91
256.674	3.37
256.889	2.98
257.104	2.09
257.32	1.7
257.535	1.16
257.75	0.9
257.965	1.17
258.18	1.03
258.395	1.18
258.61	1.34
258.826	1.25
259.041	1.3
259.256	1.36
259.471	1.64
259.686	1.63
259.901	2
260.116	2.14
260.331	2.1
260.546	2.18
260.761	1.89
260.976	1.98
261.191	1.96
261.406	1.94
261.621	2.07
261.836	1.76
262.05	1.48
262.265	1.28
262.48	1
262.695	0.65
262.91	0.26
263.125	0.79
263.34	0.67
263.555	0.21
263.769	-0.16
263.984	-0.97
264.199	-1.02
264.414	-0.05
264.629	-0.08
264.843	0
265.058	0.66
265.273	0.37
265.488	-0.54
265.702	-0.68
265.917	0.59
266.132	0.51
266.346	1.73
266.561	2.11
266.776	1.85
266.99	1.96
267.205	1.73
267.42	1.42
267.634	1.74
267.849	2.05
268.063	2.05
268.278	1.31
268.492	1.89
268.707	1.17
268.922	1.05
269.136	0.99
269.351	0.74
269.565	0.55
269.78	0.67
269.994	0.34
270.209	0.77
270.423	0.93
270.637	1.23
270.852	0.99
271.066	1.31
271.281	1.26
271.495	1.36
271.709	1.24
271.924	1.63
272.138	1.66
272.353	2.04
272.567	1.79
272.781	1.87
272.996	1.6
273.21	1.71
273.424	1.63
273.638	1.49
273.853	1.43
274.067	1.81
274.281	2.27
274.495	2.16
274.71	1.94
274.924	1.85
275.138	1.84
275.352	2.57
275.566	2.62
275.781	2.61
275.995	2.98
276.209	3.1
276.423	3.04
276.637	2.14
276.851	2.56
277.065	2.94
277.279	3.17
277.493	3.19
277.707	2.82
277.921	2.56
278.135	2.4
278.349	2.18
278.563	1.92
278.777	1.83
278.991	2.34
279.205	1.85
279.419	1.61
279.633	1.4
279.847	1.56
280.061	1.42
280.275	1.65
280.489	1.47
280.703	1.71
280.917	1.96
281.131	1.99
281.344	1.97
281.558	2.13
281.772	1.84
281.986	2.27
282.2	1.92
282.414	1.83
282.627	1.81
282.841	2.27
283.055	2.02
283.269	2.18
283.482	2.37
283.696	2.25
283.91	2.32
284.123	2.31
284.337	2.06
284.551	2.13
284.764	2.05
284.978	1.89
285.192	1.68
285.405	1.58
285.619	1.37
285.833	1.27
286.046	1.26
286.26	1.36
286.473	1.61
286.687	1.63
286.9	1.87
287.114	2.21
287.327	2.49
287.541	2.61
287.754	2.86
287.968	2.58
288.181	2.79
288.395	2.62
288.608	2.15
288.822	2.01
289.035	1.94
289.248	1.75
289.462	1.62
289.675	1.63
289.889	1.58
290.102	1.45
290.315	1.84
290.529	1.66
290.742	1.8
290.955	2.06
291.169	1.84
291.382	2.2
291.595	2.28
291.808	2.39
292.022	2.23
292.235	1.99
292.448	2.02
292.661	1.65
292.875	1.5
293.088	1.76
293.301	1.65
293.514	2.41
293.727	2.3
293.94	2.37
294.153	2.15
294.367	2.39
294.58	2.84
294.793	2.84
295.006	2.86
295.219	3.31
295.432	3.06
295.645	3.45
295.858	3.21
296.071	2.89
296.284	2.99
296.497	3.14
296.71	3.35
296.923	3.18
297.136	3.48
297.349	3.66
297.562	3.56
297.775	3.75
297.988	3.86
298.201	3.89
298.414	4.25
298.626	4.25
298.839	4.24
299.052	4.16
299.265	4.25
299.478	4.26
299.691	4.31
299.903	4.48
300.116	4.55
300.329	4.43
300.542	4.33
300.755	4.24
300.967	4.39
301.18	4.73
301.393	4.71
301.605	5.28
301.818	5.3
302.031	5.77
302.243	5.74
302.456	5.87
302.669	5.73
302.881	6.16
303.094	6.49
303.307	6.38
303.519	6.44
303.732	6.65
303.944	6.42
304.157	6.42
304.37	6.35
304.582	6.23
304.795	6.17
305.007	6.19
305.22	6.37
305.432	5.98
305.645	6.11
305.857	5.92
306.069	5.65
306.282	5.38
306.494	5.54
306.707	5.21
306.919	5.31
307.132	5.26
307.344	5.6
307.556	5.22
307.769	5.23
307.981	5.41
308.193	5.35
308.406	5.69
308.618	6.16
308.83	6.04
309.043	6.3
309.255	6.56
309.467	6.68
309.679	6.63
309.892	6.82
310.104	7.47
310.316	7.55
310.528	7.84
310.74	7.96
310.953	7.73
311.165	7.79
311.377	7.92
311.589	7.74
311.801	7.75
312.013	7.91
312.225	7.88
312.437	7.51
312.649	7.46
312.862	7.31
313.074	7.13
313.286	7.2
313.498	7.38
313.71	7.27
313.922	7.38
314.134	7.41
314.346	7.37
314.558	7.56
314.77	7.74
314.982	7.66
315.193	7.84
315.405	7.7
315.617	7.66
315.829	7.15
316.041	7.34
316.253	7.34
316.465	7.25
316.677	7.1
316.888	7.12
317.1	7.24
317.312	7.25
317.524	6.93
317.736	6.71
317.947	7.13
318.159	7.63
318.371	7.53
318.583	7.46
318.794	7.74
319.006	8.1
319.218	8.38
319.43	8.13
319.641	8.14
319.853	8
320.064	8.29
320.276	8.26
320.488	8.37
320.699	8.35
320.911	9.12
321.123	9.28
321.334	9.26
321.546	8.8
321.757	8.87
321.969	8.99
322.18	9.68
322.392	10.01
322.603	10.21
322.815	10.11
323.026	10.08
323.238	9.52
323.449	9.47
323.661	9.53
323.872	9.88
324.083	9.97
324.295	9.93
324.506	9.83
324.718	9.31
324.929	8.96
325.14	9.01
325.352	9.06
325.563	9.44
325.774	9.27
325.986	9.06
326.197	8.98
326.408	9.01
326.62	9.11
326.831	9.41
327.042	9.85
327.253	9.91
327.464	9.94
327.676	10.12
327.887	10.03
328.098	10.31
328.309	10.49
328.52	10.65
328.732	10.78
328.943	11
329.154	11.12
329.365	11.26
329.576	11.58
329.787	11.51
329.998	11.57
330.209	11.89
330.42	11.94
330.631	12.06
330.842	11.83
331.053	11.82
331.264	11.68
331.475	11.94
331.686	12.02
331.897	11.95
332.108	11.89
332.319	11.83
332.53	11.67
332.741	11.95
332.952	11.94
333.163	11.91
333.374	12.07
333.585	12.11
333.795	11.8
334.006	12.06
334.217	12.22
334.428	12.72
334.639	12.64
334.849	12.71
335.06	12.35
335.271	12.44
335.482	13.05
335.692	13.22
335.903	13.12
336.114	13.28
336.325	13.29
336.535	13.39
336.746	13.2
336.957	13.16
337.167	13.19
337.378	13.41
337.589	13.61
337.799	13.28
338.01	13.22
338.22	13.36
338.431	13.19
338.642	12.53
338.852	12.38
339.063	12.24
339.273	12.51
339.484	12.24
339.694	11.96
339.905	11.68
340.115	11.64
340.326	11.38
340.536	11.42
340.746	11.51
340.957	12.07
341.167	12.2
341.378	12.43
341.588	12.39
341.799	12.83
342.009	13.39
342.219	13.41
342.43	13.7
342.64	14.02
342.85	13.82
343.061	13.58
343.271	13.6
343.481	13.45
343.691	13.27
343.902	13.31
344.112	12.8
344.322	12.54
344.532	12.49
344.743	12.21
344.953	11.78
345.163	11.85
345.373	11.83
345.583	11.78
345.793	11.78
346.004	12
346.214	11.77
346.424	11.99
346.634	12.03
346.844	12.01
347.054	12.06
347.264	11.97
347.474	11.84
347.684	12.24
347.894	11.92
348.104	11.83
348.314	11.6
348.524	11.54
348.734	11.53
348.944	11.24
349.154	11.3
349.364	11.19
349.574	11.38
349.784	11.64
349.994	11.24
350.204	11.44
350.413	11.34
350.623	11.39
350.833	11.55
351.043	11.48
351.253	11.31
351.463	11.52
351.672	11.41
351.882	11.82
352.092	11.88
352.302	11.97
352.511	12.02
352.721	12.23
352.931	12.42
353.141	12.26
353.35	12.39
353.56	12.63
353.77	12.43
353.979	12.7
354.189	12.54
354.399	12.28
354.608	12.34
354.818	12.34
355.027	12.6
355.237	12.14
355.447	12.36
355.656	12.27
355.866	12.23
356.075	12.21
356.285	12.06
356.494	12.13
356.704	12.23
356.913	12.37
357.123	12.29
357.332	12.04
357.542	12.42
357.751	12.36
357.96	12.33
358.17	12.36
358.379	12.46
358.589	12.45
358.798	12.27
359.007	12.18
359.217	12.11
359.426	12.09
359.635	12.11
359.845	11.85
360.054	11.9
360.263	12.04
360.472	11.96
360.682	11.79
360.891	11.76
361.1	11.67
361.309	11.73
361.519	11.55
361.728	11.69
361.937	11.59
362.146	11.62
362.355	11.54
362.564	11.34
362.774	11.43
362.983	11.52
363.192	11.58
363.401	11.67
363.61	11.74
363.819	11.76
364.028	11.57
364.237	11.62
364.446	11.8
364.655	11.77
364.864	11.78
365.073	11.83
365.282	11.64
365.491	11.59
365.7	11.58
365.909	11.44
366.118	11.48
366.327	11.66
366.536	11.67
366.745	11.45
366.954	11.68
367.162	11.92
367.371	11.67
367.58	11.6
367.789	11.59
367.998	11.5
368.207	11.29
368.415	11.13
368.624	11.04
368.833	10.91
369.042	11.09
369.25	10.69
369.459	10.48
369.668	10.72
369.877	10.78
370.085	10.63
370.294	10.67
370.503	10.96
370.711	10.99
370.92	10.91
371.129	10.99
371.337	11.03
371.546	11.27
371.754	11.43
371.963	11.17
372.171	11.19
372.38	11.22
372.589	10.98
372.797	10.94
373.006	10.95
373.214	10.93
373.423	11
373.631	10.75
373.84	10.61
374.048	10.38
374.256	10.6
374.465	10.68
374.673	10.79
374.882	10.85
375.09	10.85
375.298	10.78
375.507	10.57
375.715	10.37
375.923	10.2
376.132	10.21
376.34	10.5
376.548	10.34
376.757	10.29
376.965	10.25
377.173	10.45
377.381	10.53
377.59	10.62
377.798	10.73
378.006	10.78
378.214	11.03
378.423	11.01
378.631	10.76
378.839	10.75
379.047	10.64
379.255	10.74
379.463	10.6
379.671	10.35
379.879	10.31
380.088	10.42
380.296	10.26
380.504	10.33
380.712	10.53
380.92	10.42
381.128	10.32
381.336	10.59
381.544	10.66
381.752	10.56
381.96	10.56
382.168	10.58
382.376	10.4
382.584	10.5
382.791	10.42
382.999	10.02
383.207	10.23
383.415	10.19
383.623	9.84
383.831	9.51
384.039	9.65
384.247	9.69
384.454	9.75
384.662	9.77
384.87	9.78
385.078	9.58
385.285	9.64
385.493	9.56
385.701	9.61
385.909	9.86
386.116	10.12
386.324	10
386.532	9.95
386.739	9.85
386.947	9.87
387.155	10.04
387.362	10.07
387.57	9.98
387.778	9.94
387.985	9.93
388.193	9.86
388.4	9.51
388.608	9.5
388.816	9.48
389.023	9.31
389.231	9.17
389.438	8.95
389.646	9
389.853	9.28
390.061	9.2
390.268	9.19
390.475	9.14
390.683	9.34
390.89	9.38
391.098	9.4
391.305	9.59
391.512	9.73
391.72	9.86
391.927	9.73
392.135	9.63
392.342	9.76
392.549	9.8
392.756	9.81
392.964	9.71
393.171	9.88
393.378	9.92
393.586	9.91
393.793	9.76
394	9.73
394.207	9.91
394.414	10.08
394.622	9.81
394.829	9.77
395.036	9.7
395.243	9.88
395.45	9.71
395.657	9.79
395.864	9.85
396.072	9.82
396.279	9.7
396.486	9.58
396.693	9.39
396.9	9.57
397.107	9.69
397.314	9.81
397.521	9.56
397.728	9.56
397.935	9.42
398.142	9.26
398.349	9.37
398.556	9.43
398.763	9.29
398.97	9.31
399.177	9.29
399.383	9.4
399.59	9.3
399.797	9.48
400.004	9.55
400.211	9.56
400.418	9.74
400.625	10
400.831	9.96
401.038	10.19
401.245	10.2
401.452	10.07
401.658	9.99
401.865	9.97
402.072	9.85
402.279	9.63
402.485	9.58
402.692	9.46
402.899	9.23
403.105	9.36
403.312	9.4
403.519	9.46
403.725	9.61
403.932	9.41
404.138	9.38
404.345	9.47
404.552	9.6
404.758	9.59
404.965	9.61
405.171	9.52
405.378	9.48
405.584	9.37
405.791	9.38
405.997	9.39
406.204	9.45
406.41	9.53
406.617	9.53
406.823	9.57
407.029	9.71
407.236	9.67
407.442	9.78
407.649	9.68
407.855	9.67
408.061	9.62
408.268	9.64
408.474	9.72
408.68	9.75
408.887	9.62
409.093	9.54
409.299	9.55
409.505	9.58
409.712	9.55
409.918	9.63
410.124	9.82
410.33	9.81
410.537	9.84
410.743	9.93
410.949	10.05
411.155	10.23
411.361	10.26
411.567	10.39
411.773	10.48
411.98	10.58
412.186	10.61
412.392	10.55
412.598	10.74
412.804	10.75
413.01	10.73
413.216	10.78
413.422	10.65
413.628	10.68
413.834	10.42
414.04	10.43
414.246	10.33
414.452	10.35
414.658	10.24
414.864	9.96
415.07	9.93
415.275	9.91
415.481	9.78
415.687	9.87
415.893	9.86
416.099	9.9
416.305	9.84
416.511	9.93
416.716	9.81
416.922	9.84
417.128	9.9
417.334	9.92
417.539	10
417.745	10.11
417.951	10.15
418.157	10.13
418.362	10.23
418.568	10.23
418.774	10.17
418.979	10.22
419.185	10.25
419.391	10.29
419.596	10.34
419.802	10.28
420.008	10.21
420.213	10.21
420.419	10.22
420.624	10.25
420.83	10.22
421.035	10.26
421.241	10.22
421.446	10.24
421.652	10.27
421.857	10.21
422.063	10.25
422.268	10.26
422.474	10.24
422.679	10.32
422.885	10.25
423.09	10.31
423.295	10.3
423.501	10.36
423.706	10.35
423.911	10.3
424.117	10.36
424.322	10.42
424.527	10.53
424.733	10.64
424.938	10.61
425.143	10.61
425.349	10.58
425.554	10.68
425.759	10.75
425.964	10.8
426.169	10.92
426.375	10.83
426.58	10.73
426.785	10.64
426.99	10.58
427.195	10.61
427.4	10.62
427.605	10.62
427.811	10.59
428.016	10.58
428.221	10.63
428.426	10.56
428.631	10.8
428.836	10.82
429.041	10.79
429.246	10.74
429.451	10.8
429.656	10.9
429.861	11
430.066	10.94
430.271	10.96
430.476	10.98
430.681	10.98
430.886	10.86
431.09	10.88
431.295	10.88
431.5	10.91
431.705	10.79
431.91	10.7
432.115	10.76
432.32	10.87
432.524	10.84
432.729	10.74
432.934	10.79
433.139	10.83
433.343	10.93
433.548	11.02
433.753	11.14
433.958	11.22
434.162	11.36
434.367	11.26
434.572	11.21
434.776	11.39
434.981	11.52
435.186	11.49
435.39	11.59
435.595	11.56
435.799	11.51
436.004	11.39
436.209	11.37
436.413	11.29
436.618	11.37
436.822	11.44
437.027	11.24
437.231	11.25
437.436	11.29
437.64	11.2
437.845	11.18
438.049	11.2
438.253	11.3
438.458	11.25
438.662	11.29
438.867	11.26
439.071	11.24
439.275	11.34
439.48	11.3
439.684	11.31
439.888	11.35
440.093	11.35
440.297	11.38
440.501	11.37
440.706	11.43
440.91	11.44
441.114	11.42
441.318	11.38
441.523	11.32
441.727	11.42
441.931	11.38
442.135	11.37
442.339	11.41
442.543	11.33
442.748	11.25
442.952	11.18
443.156	11.18
443.36	11.24
443.564	11.33
443.768	11.35
443.972	11.23
444.176	11.31
444.38	11.29
444.584	11.33
444.788	11.28
444.992	11.32
445.196	11.42
445.4	11.44
445.604	11.51
445.808	11.48
446.012	11.45
446.216	11.43
446.42	11.38
446.624	11.38
446.828	11.29
447.032	11.39
447.235	11.4
447.439	11.45
447.643	11.42
447.847	11.39
448.051	11.35
448.254	11.4
448.458	11.44
448.662	11.48
448.866	11.51
449.069	11.59
449.273	11.55
449.477	11.54
449.681	11.43
449.884	11.43
450.088	11.39
450.292	11.5
450.495	11.54
450.699	11.55
450.902	11.55
451.106	11.57
451.31	11.63
451.513	11.71
451.717	11.67
451.92	11.64
452.124	11.7
452.327	11.56
452.531	11.56
452.734	11.39
452.938	11.37
453.141	11.36
453.345	11.27
453.548	11.18
453.752	11.1
453.955	11.14
454.158	11.22
454.362	11.16
454.565	11.29
454.769	11.29
454.972	11.49
455.175	11.57
455.379	11.54
455.582	11.6
455.785	11.58
455.988	11.6
456.192	11.59
456.395	11.55
456.598	11.52
456.801	11.55
457.005	11.54
457.208	11.48
457.411	11.46
457.614	11.47
457.817	11.55
458.021	11.56
458.224	11.57
458.427	11.57
458.63	11.57
458.833	11.55
459.036	11.48
459.239	11.42
459.442	11.45
459.645	11.4
459.848	11.43
460.051	11.38
460.254	11.4
460.457	11.36
460.66	11.34
460.863	11.35
461.066	11.41
461.269	11.47
461.472	11.57
461.675	11.5
461.878	11.53
462.081	11.5
