Data from 2938834__Reflection_01.txt Node
Date: Thu Mar 12 11:41:29 EDT 2015
User: robert
Spectrometer: USB4E03002
Autoset integration time: false
Trigger mode: 4
Integration Time (sec): 1.000000E-1
Scans to average: 10
Electric dark correction enabled: false
Nonlinearity correction enabled: false
Boxcar width: 5
Stray light correction enabled: false
XAxis mode: Wavelengths
Stop averaging: false
Number of Pixels in Spectrum: 3648
>>>>>Begin Spectral Data<<<<<
177.575	79.56
177.794	97.88
178.014	100
178.233	116.77
178.452	116.07
178.672	95.71
178.891	118.07
179.11	124.7
179.33	184.52
179.549	140.58
179.768	208.84
179.987	119.13
180.207	63.95
180.426	54.19
180.645	-57.03
180.864	676.19
181.084	37.31
181.303	-13.62
181.522	36.45
181.741	23.35
181.96	-4.15
182.179	-92.96
182.398	-40.37
182.618	63.32
182.837	215
183.056	100
183.275	35.86
183.494	71.38
183.713	151.59
183.932	130.22
184.151	120.73
184.37	134.77
184.589	124.76
184.808	96.92
185.027	88.53
185.246	68.88
185.465	71.04
185.684	97.62
185.903	83.45
186.122	72.7
186.341	87.66
186.56	68.4
186.779	65.37
186.998	45.42
187.216	55.49
187.435	70.6
187.654	66.16
187.873	118.96
188.092	93.95
188.311	94.94
188.53	145.6
188.748	112.79
188.967	116.36
189.186	79.16
189.405	92.29
189.623	92.51
189.842	78
190.061	83.91
190.28	57.08
190.498	63.46
190.717	63.98
190.936	63.24
191.154	46.65
191.373	74.71
191.592	126.43
191.81	145.42
192.029	219.48
192.248	460.29
192.466	336.24
192.685	420.1
192.904	391.58
193.122	268.56
193.341	198.99
193.559	218.81
193.778	142.37
193.996	114.42
194.215	89.18
194.433	90.85
194.652	82.63
194.87	61.9
195.089	47.1
195.307	34.8
195.526	29.78
195.744	36.55
195.963	43.1
196.181	81.31
196.399	134.27
196.618	163.04
196.836	-28.79
197.055	-25.97
197.273	-102.75
197.491	13.58
197.71	192.05
197.928	109.05
198.146	76.73
198.365	17.02
198.583	-6.92
198.801	2.49
199.019	-6.73
199.238	-4.35
199.456	-18.75
199.674	14.13
199.892	27.2
200.111	20.91
200.329	14.06
200.547	15.66
200.765	35.74
200.983	44.74
201.202	32.97
201.42	55.78
201.638	60.61
201.856	43.21
202.074	45.53
202.292	21.52
202.51	-140.43
202.728	-18.84
202.946	4.19
203.165	-33.68
203.383	-10.1
203.601	32.74
203.819	2.64
204.037	25.57
204.255	35.77
204.473	44.03
204.691	62.84
204.909	62.7
205.127	72.53
205.345	47.15
205.562	54.25
205.78	45.03
205.998	31.15
206.216	42.15
206.434	15.88
206.652	19.52
206.87	-2.06
207.088	-7.44
207.306	-1.67
207.523	-23.61
207.741	-11.35
207.959	-9.18
208.177	-3.79
208.395	-4.89
208.612	21.43
208.83	22.55
209.048	35.16
209.266	61.64
209.483	69.53
209.701	84.19
209.919	114.1
210.136	138.75
210.354	201.87
210.572	153.99
210.79	135.79
211.007	106.85
211.225	94.44
211.442	128.68
211.66	98.63
211.878	73.89
212.095	166.95
212.313	141.84
212.53	116.41
212.748	97.98
212.966	104.84
213.183	114.05
213.401	113.73
213.618	128.83
213.836	110.89
214.053	105.77
214.271	106.29
214.488	35
214.705	27.5
214.923	30.68
215.14	33.88
215.358	15.38
215.575	3.6
215.793	17.17
216.01	9.42
216.227	12.57
216.445	13.74
216.662	24.26
216.879	4.68
217.097	7.68
217.314	16.4
217.531	21.07
217.749	29.73
217.966	22.74
218.183	28.22
218.4	20.86
218.618	21.94
218.835	30.66
219.052	22.57
219.269	19.94
219.487	18.96
219.704	31.71
219.921	16.18
220.138	31.96
220.355	32.03
220.572	26.71
220.79	39.57
221.007	29.04
221.224	16.38
221.441	19.35
221.658	26.36
221.875	25.41
222.092	18.34
222.309	22.46
222.526	11.48
222.743	13.06
222.96	11.64
223.177	11.21
223.394	17.49
223.611	18.27
223.828	18.37
224.045	10.83
224.262	11.71
224.479	10.69
224.696	5.13
224.913	9.66
225.13	12.91
225.347	14.48
225.564	10.5
225.781	6.94
225.997	7.43
226.214	9.31
226.431	11.09
226.648	12.65
226.865	12.49
227.082	13.08
227.298	10.01
227.515	8.58
227.732	8.23
227.949	8.02
228.165	7.47
228.382	7.52
228.599	6.4
228.816	5.49
229.032	4.62
229.249	4.4
229.466	4.96
229.682	5.86
229.899	5.49
230.116	5.13
230.332	6.24
230.549	6.69
230.765	6.73
230.982	7.77
231.199	8.6
231.415	8.85
231.632	9.36
231.848	9.74
232.065	8.09
232.281	9.03
232.498	9.58
232.714	8.38
232.931	8.16
233.147	8.58
233.364	7.86
233.58	8.33
233.797	6.64
234.013	6.04
234.23	6.59
234.446	9.09
234.662	8.74
234.879	9.78
235.095	10.15
235.312	9.69
235.528	7.45
235.744	6.37
235.961	6.46
236.177	8.5
236.393	8.92
236.61	8.18
236.826	8.01
237.042	6.78
237.258	5.72
237.475	6.14
237.691	6.19
237.907	7.16
238.123	8.67
238.339	8.11
238.556	7.47
238.772	6.72
238.988	7.2
239.204	7.55
239.42	7.11
239.636	6.36
239.853	4.19
240.069	3.68
240.285	4
240.501	3.28
240.717	3.96
240.933	4.05
241.149	4.92
241.365	4.22
241.581	3.99
241.797	4.63
242.013	4.96
242.229	5.18
242.445	5.63
242.661	6.19
242.877	6.6
243.093	5.71
243.309	5.69
243.525	5.5
243.741	5.47
243.957	4.9
244.173	5.12
244.388	4.62
244.604	4.36
244.82	4.12
245.036	3.44
245.252	3.51
245.468	4.66
245.683	4.71
245.899	4.41
246.115	4.25
246.331	4.31
246.547	4.08
246.762	4.66
246.978	5.19
247.194	5.16
247.409	5.25
247.625	5.1
247.841	5
248.057	5.13
248.272	5.15
248.488	5.55
248.703	5.59
248.919	6.08
249.135	5.88
249.35	5.92
249.566	5.93
249.782	6.14
249.997	5.99
250.213	5.77
250.428	5.49
250.644	5.34
250.859	6.06
251.075	6.36
251.29	6.42
251.506	6.33
251.721	6.14
251.937	6.04
252.152	5.56
252.368	5.97
252.583	6.41
252.798	6.47
253.014	6.85
253.229	5.81
253.445	6.31
253.66	6
253.875	6.22
254.091	6.1
254.306	6.41
254.521	6.43
254.737	6.87
254.952	6.22
255.167	6.85
255.383	6.26
255.598	6.45
255.813	5.45
256.028	4.3
256.244	4.35
256.459	3.3
256.674	3.17
256.889	4.01
257.104	4.13
257.32	4.4
257.535	4.37
257.75	4.4
257.965	4.1
258.18	4.43
258.395	5.11
258.61	4.64
258.826	4.99
259.041	5.04
259.256	4.57
259.471	4.42
259.686	4.12
259.901	4.1
260.116	4.2
260.331	4.31
260.546	4.25
260.761	4.05
260.976	3.93
261.191	3.88
261.406	3.96
261.621	4.22
261.836	4.41
262.05	4.61
262.265	4.06
262.48	3.75
262.695	3.51
262.91	3.08
263.125	3.57
263.34	4.22
263.555	4.25
263.769	4.33
263.984	3.97
264.199	3.2
264.414	3.28
264.629	4.01
264.843	4.41
265.058	4.42
265.273	4.73
265.488	4.39
265.702	4.12
265.917	4.05
266.132	4.16
266.346	4.6
266.561	4.78
266.776	4.6
266.99	4.62
267.205	4.27
267.42	3.92
267.634	4.04
267.849	4.1
268.063	4.06
268.278	4.03
268.492	3.77
268.707	3.26
268.922	3.43
269.136	3.68
269.351	3.92
269.565	4.15
269.78	4.63
269.994	4.54
270.209	4.3
270.423	4.21
270.637	3.81
270.852	3.49
271.066	3.42
271.281	3.56
271.495	3.51
271.709	2.89
271.924	2.67
272.138	2.83
272.353	2.57
272.567	2.28
272.781	2.17
272.996	2.66
273.21	2.94
273.424	3.24
273.638	2.75
273.853	2.8
274.067	2.85
274.281	2.73
274.495	2.11
274.71	3.01
274.924	3.11
275.138	3.45
275.352	2.92
275.566	2.64
275.781	2.09
275.995	2.49
276.209	2.41
276.423	2.73
276.637	2.91
276.851	3.16
277.065	2.65
277.279	2.61
277.493	2.45
277.707	3.05
277.921	2.94
278.135	2.76
278.349	2.53
278.563	3.12
278.777	2.75
278.991	2.88
279.205	2.93
279.419	2.92
279.633	2.95
279.847	2.97
280.061	2.37
280.275	2.48
280.489	2.93
280.703	3.16
280.917	2.75
281.131	3.26
281.344	3.39
281.558	3.66
281.772	3.72
281.986	4
282.2	3.58
282.414	3.99
282.627	3.97
282.841	3.85
283.055	3.67
283.269	3.41
283.482	3.08
283.696	3.06
283.91	2.94
284.123	3.22
284.337	3.02
284.551	3.56
284.764	3.12
284.978	3.42
285.192	3.59
285.405	3.66
285.619	4.04
285.833	3.85
286.046	3.56
286.26	3.45
286.473	3.17
286.687	3.06
286.9	2.94
287.114	3.12
287.327	3.08
287.541	3.03
287.754	3.07
287.968	2.83
288.181	3.12
288.395	3.37
288.608	3.33
288.822	3.68
289.035	3.77
289.248	3.56
289.462	3.59
289.675	3.36
289.889	3.86
290.102	3.81
290.315	3.87
290.529	3.87
290.742	3.68
290.955	3.85
291.169	3.31
291.382	3.8
291.595	4.19
291.808	4.33
292.022	4.56
292.235	4.09
292.448	4.14
292.661	4.28
292.875	4.22
293.088	4.57
293.301	5.03
293.514	5.28
293.727	5.29
293.94	5.05
294.153	5.19
294.367	5.07
294.58	5.23
294.793	5.31
295.006	5.03
295.219	4.97
295.432	4.77
295.645	4.72
295.858	4.84
296.071	4.74
296.284	4.81
296.497	4.75
296.71	4.76
296.923	4.8
297.136	4.94
297.349	5.02
297.562	5.15
297.775	5.23
297.988	5.07
298.201	5.11
298.414	5.06
298.626	5.25
298.839	5.18
299.052	5.28
299.265	5.3
299.478	5.03
299.691	5.3
299.903	5.75
300.116	6
300.329	6.05
300.542	5.96
300.755	6.06
300.967	6.16
301.18	6.34
301.393	6.22
301.605	6.23
301.818	6.38
302.031	6.34
302.243	6.25
302.456	5.86
302.669	5.97
302.881	6.17
303.094	6.07
303.307	5.9
303.519	5.65
303.732	5.85
303.944	5.63
304.157	5.55
304.37	5.65
304.582	5.74
304.795	6.06
305.007	6.04
305.22	5.81
305.432	5.94
305.645	6.42
305.857	6.64
306.069	6.6
306.282	6.92
306.494	7.24
306.707	7.42
306.919	7.28
307.132	7.2
307.344	7.29
307.556	7.71
307.769	7.59
307.981	7.26
308.193	7.03
308.406	7.28
308.618	7.42
308.83	7.05
309.043	6.77
309.255	6.85
309.467	6.82
309.679	6.93
309.892	6.81
310.104	6.91
310.316	6.9
310.528	7.31
310.74	7.46
310.953	7.49
311.165	7.8
311.377	7.85
311.589	7.68
311.801	7.82
312.013	7.52
312.225	7.77
312.437	7.86
312.649	8.14
312.862	8.31
313.074	7.88
313.286	7.79
313.498	7.75
313.71	7.97
313.922	8.12
314.134	8.64
314.346	9.05
314.558	9.12
314.77	9.17
314.982	9.35
315.193	9.11
315.405	9.39
315.617	9.56
315.829	9.85
316.041	9.9
316.253	10.09
316.465	9.49
316.677	9.85
316.888	10.06
317.1	10.37
317.312	10.39
317.524	10.47
317.736	10.81
317.947	10.79
318.159	10.69
318.371	10.81
318.583	10.86
318.794	11.18
319.006	10.9
319.218	10.7
319.43	10.29
319.641	10.09
319.853	10.35
320.064	10.35
320.276	10.59
320.488	10.57
320.699	10.65
320.911	10.8
321.123	10.87
321.334	10.74
321.546	10.58
321.757	10.8
321.969	10.77
322.18	10.67
322.392	10.75
322.603	10.45
322.815	10.89
323.026	11.01
323.238	11.23
323.449	11.69
323.661	11.77
323.872	11.71
324.083	12.01
324.295	12.08
324.506	12.34
324.718	12.5
324.929	12.79
325.14	12.97
325.352	12.79
325.563	12.93
325.774	13.03
325.986	13.1
326.197	13.58
326.408	13.49
326.62	13.62
326.831	13.83
327.042	13.67
327.253	13.81
327.464	13.81
327.676	14.43
327.887	14.48
328.098	14.19
328.309	14.7
328.52	14.84
328.732	15.4
328.943	15.92
329.154	15.82
329.365	16.32
329.576	16.57
329.787	16.52
329.998	16.68
330.209	16.75
330.42	17.35
330.631	17.22
330.842	17.06
331.053	16.78
331.264	16.8
331.475	17.11
331.686	17.43
331.897	17.08
332.108	17.22
332.319	17.05
332.53	17.09
332.741	17.22
332.952	17.44
333.163	17.62
333.374	18.07
333.585	18.12
333.795	18.33
334.006	18.21
334.217	18.74
334.428	18.92
334.639	19.03
334.849	19.35
335.06	19.23
335.271	19.12
335.482	19.28
335.692	19.31
335.903	19.29
336.114	19.1
336.325	19.19
336.535	18.9
336.746	18.86
336.957	18.94
337.167	18.8
337.378	18.71
337.589	19.18
337.799	19.18
338.01	19
338.22	19.07
338.431	19.37
338.642	19.18
338.852	19.81
339.063	19.81
339.273	19.87
339.484	19.74
339.694	20.22
339.905	19.92
340.115	19.84
340.326	19.66
340.536	19.68
340.746	19.6
340.957	19.71
341.167	19.41
341.378	19.44
341.588	19.64
341.799	19.81
342.009	19.69
342.219	19.65
342.43	19.7
342.64	20.02
342.85	20
343.061	20.08
343.271	20.29
343.481	20.14
343.691	19.96
343.902	19.25
344.112	19.07
344.322	18.91
344.532	19.39
344.743	19.38
344.953	19.28
345.163	19.35
345.373	19.11
345.583	18.82
345.793	18.96
346.004	19.06
346.214	19.43
346.424	19.48
346.634	19.33
346.844	19.06
347.054	19.33
347.264	19.24
347.474	19.01
347.684	19.14
347.894	19.1
348.104	18.89
348.314	18.92
348.524	18.82
348.734	18.8
348.944	19.03
349.154	18.7
349.364	18.32
349.574	18.37
349.784	18.26
349.994	17.97
350.204	18.26
350.413	18.43
350.623	18.57
350.833	18.53
351.043	18.26
351.253	18.09
351.463	18.15
351.672	18.42
351.882	18.31
352.092	18.4
352.302	18.31
352.511	18.27
352.721	18.03
352.931	17.88
353.141	17.83
353.35	17.67
353.56	17.81
353.77	17.73
353.979	17.26
354.189	17.49
354.399	17.49
354.608	17.72
354.818	17.85
355.027	18.06
355.237	17.92
355.447	18.3
355.656	18.65
355.866	18.27
356.075	18.46
356.285	18.35
356.494	18.1
356.704	18.2
356.913	18.2
357.123	18.07
357.332	17.71
357.542	18.02
357.751	17.68
357.96	17.7
358.17	17.85
358.379	17.52
358.589	17.61
358.798	17.57
359.007	17.13
359.217	16.99
359.426	16.89
359.635	16.9
359.845	16.65
360.054	16.77
360.263	16.67
360.472	16.77
360.682	16.87
360.891	16.97
361.1	17.22
361.309	17.45
361.519	17.48
361.728	17.29
361.937	17.5
362.146	17.32
362.355	17.27
362.564	17.28
362.774	17.18
362.983	17.31
363.192	17.27
363.401	17.14
363.61	17.13
363.819	17.23
364.028	17.28
364.237	17
364.446	17.21
364.655	17.04
364.864	17.03
365.073	16.94
365.282	16.9
365.491	17.01
365.7	16.88
365.909	16.87
366.118	16.97
366.327	16.85
366.536	17.02
366.745	16.9
366.954	17.34
367.162	17.22
367.371	17.17
367.58	16.94
367.789	16.71
367.998	16.67
368.207	16.74
368.415	16.4
368.624	16.35
368.833	16.7
369.042	16.67
369.25	16.13
369.459	16.2
369.668	16
369.877	15.96
370.085	16.17
370.294	16.31
370.503	16.12
370.711	16.14
370.92	16.21
371.129	15.89
371.337	15.91
371.546	16.27
371.754	16.17
371.963	16.2
372.171	16.38
372.38	16.23
372.589	16.25
372.797	16.33
373.006	16.27
373.214	16.38
373.423	16.36
373.631	16.36
373.84	16.05
374.048	16.15
374.256	16.42
374.465	16.26
374.673	16.37
374.882	16.27
375.09	15.85
375.298	16.07
375.507	16.02
375.715	15.85
375.923	15.87
376.132	15.65
376.34	15.43
376.548	15.49
376.757	15.4
376.965	15.32
377.173	15.16
377.381	15.4
377.59	15.21
377.798	15.17
378.006	15.08
378.214	15.2
378.423	15.54
378.631	15.91
378.839	15.7
379.047	15.8
379.255	15.86
379.463	15.81
379.671	15.75
379.879	15.68
380.088	15.65
380.296	15.76
380.504	15.4
380.712	15.21
380.92	14.78
381.128	15.09
381.336	14.9
381.544	14.78
381.752	14.82
381.96	14.64
382.168	14.71
382.376	14.72
382.584	14.57
382.791	14.77
382.999	14.57
383.207	14.76
383.415	14.56
383.623	14.72
383.831	14.77
384.039	14.75
384.247	14.87
384.454	14.79
384.662	14.67
384.87	14.76
385.078	14.6
385.285	14.66
385.493	14.64
385.701	14.66
385.909	14.44
386.116	14.34
386.324	14.45
386.532	14.31
386.739	14.38
386.947	14.3
387.155	14.24
387.362	14.24
387.57	14.46
387.778	14.45
387.985	14.37
388.193	14.47
388.4	14.46
388.608	14.42
388.816	14.73
389.023	14.71
389.231	14.82
389.438	14.98
389.646	15.01
389.853	14.69
390.061	14.68
390.268	14.8
390.475	14.86
390.683	14.69
390.89	14.53
391.098	14.22
391.305	13.98
391.512	13.91
391.72	13.72
391.927	13.82
392.135	14.07
392.342	13.91
392.549	13.72
392.756	13.72
392.964	13.73
393.171	13.61
393.378	13.64
393.586	13.8
393.793	13.77
394	13.84
394.207	13.53
394.414	13.59
394.622	13.68
394.829	13.75
395.036	13.72
395.243	13.75
395.45	14.01
395.657	14.04
395.864	14.02
396.072	14.1
396.279	14.24
396.486	14.4
396.693	14.18
396.9	14.07
397.107	14.07
397.314	14.08
397.521	14.22
397.728	14.05
397.935	13.97
398.142	14.04
398.349	14.06
398.556	13.85
398.763	13.82
398.97	13.79
399.177	13.88
399.383	13.67
399.59	13.52
399.797	13.44
400.004	13.41
400.211	13.49
400.418	13.45
400.625	13.26
400.831	13.15
401.038	13.32
401.245	13.31
401.452	13.25
401.658	13.4
401.865	13.39
402.072	13.32
402.279	13.36
402.485	13.34
402.692	13.23
402.899	13.47
403.105	13.61
403.312	13.33
403.519	13.47
403.725	13.67
403.932	13.67
404.138	13.61
404.345	13.53
404.552	13.49
404.758	13.45
404.965	13.4
405.171	13.17
405.378	13.01
405.584	13.17
405.791	13.13
405.997	12.96
406.204	12.88
406.41	13.13
406.617	13.07
406.823	13.13
407.029	13.2
407.236	13.14
407.442	13.29
407.649	13.42
407.855	13.48
408.061	13.45
408.268	13.43
408.474	13.4
408.68	13.19
408.887	13.32
409.093	13.26
409.299	13.24
409.505	13.3
409.712	13.25
409.918	13.26
410.124	13.09
410.33	13.07
410.537	13.1
410.743	13.16
410.949	13.13
411.155	13.25
411.361	13.2
411.567	13.22
411.773	13.28
411.98	13.27
412.186	13.11
412.392	13.21
412.598	13.13
412.804	13.12
413.01	13.15
413.216	13.27
413.422	13.21
413.628	13.26
413.834	13.29
414.04	13.3
414.246	13.24
414.452	13.32
414.658	13.21
414.864	13.21
415.07	13.12
415.275	13.13
415.481	13.12
415.687	13.04
415.893	13.03
416.099	12.96
416.305	12.85
416.511	12.97
416.716	12.93
416.922	13.01
417.128	13.01
417.334	13
417.539	12.87
417.745	12.81
417.951	12.69
418.157	12.64
418.362	12.71
418.568	12.82
418.774	12.8
418.979	12.83
419.185	12.79
419.391	12.79
419.596	12.77
419.802	12.77
420.008	12.73
420.213	13.45
420.419	13.57
420.624	13.56
420.83	13.43
421.035	13.37
421.241	13.35
421.446	13.37
421.652	13.3
421.857	13.42
422.063	13.47
422.268	13.49
422.474	12.92
422.679	12.8
422.885	12.77
423.09	12.88
423.295	12.94
423.501	12.93
423.706	12.88
423.911	12.98
424.117	12.85
424.322	12.87
424.527	12.9
424.733	12.96
424.938	12.97
425.143	12.95
425.349	12.91
425.554	12.82
425.759	12.93
425.964	12.96
426.169	12.88
426.375	12.95
426.58	12.89
426.785	12.87
426.99	12.78
427.195	12.77
427.4	12.81
427.605	12.81
427.811	12.92
428.016	12.78
428.221	12.94
428.426	12.9
428.631	12.89
428.836	12.97
429.041	13.1
429.246	13.13
429.451	13.17
429.656	13.18
429.861	13.26
430.066	13.27
430.271	13.15
430.476	12.97
430.681	13.03
430.886	13.02
431.09	12.99
431.295	12.9
431.5	12.86
431.705	12.91
431.91	12.92
432.115	12.8
432.32	12.72
432.524	12.87
432.729	12.93
432.934	13.04
433.139	13.1
433.343	13.19
433.548	13.25
433.753	13.3
433.958	13.27
434.162	13.22
434.367	13.28
434.572	13.38
434.776	13.54
434.981	13.54
435.186	13.48
435.39	13.5
435.595	13.37
435.799	13.33
436.004	13.42
436.209	13.42
436.413	13.49
436.618	13.58
436.822	13.61
437.027	13.42
437.231	13.52
437.436	13.56
437.64	13.6
437.845	13.66
438.049	13.69
438.253	13.68
438.458	13.7
438.662	13.63
438.867	13.52
439.071	13.53
439.275	13.62
439.48	13.44
439.684	13.46
439.888	13.42
440.093	13.41
440.297	13.41
440.501	13.41
440.706	13.41
440.91	13.39
441.114	13.48
441.318	13.42
441.523	13.37
441.727	13.54
441.931	13.48
442.135	13.47
442.339	13.44
442.543	13.44
442.748	13.37
442.952	13.24
443.156	13.35
443.36	13.33
443.564	13.36
443.768	13.42
443.972	13.34
444.176	13.36
444.38	13.28
444.584	13.31
444.788	13.36
444.992	13.39
445.196	13.47
445.4	13.42
445.604	13.38
445.808	13.38
446.012	13.34
446.216	13.39
446.42	13.33
446.624	13.35
446.828	13.36
447.032	13.22
447.235	13.16
447.439	13.12
447.643	13.2
447.847	13.2
448.051	13.21
448.254	13.26
448.458	13.27
448.662	13.35
448.866	13.4
449.069	13.3
449.273	13.4
449.477	13.54
449.681	13.69
449.884	13.57
450.088	13.66
450.292	13.66
450.495	13.56
450.699	13.55
450.902	13.52
451.106	13.47
451.31	13.68
451.513	13.7
451.717	13.52
451.92	13.57
452.124	13.63
452.327	13.51
452.531	13.45
452.734	13.52
452.938	13.51
453.141	13.58
453.345	13.57
453.548	13.49
453.752	13.48
453.955	13.51
454.158	13.45
454.362	13.59
454.565	13.61
454.769	13.67
454.972	13.61
455.175	13.58
455.379	13.49
455.582	13.47
455.785	13.38
455.988	13.39
456.192	13.41
456.395	13.27
456.598	13.26
456.801	13.27
457.005	13.27
457.208	13.32
457.411	13.26
457.614	13.31
457.817	13.42
458.021	13.53
458.224	13.42
458.427	13.41
458.63	13.41
458.833	13.3
459.036	13.27
459.239	13.25
459.442	13.21
459.645	13.23
459.848	13.18
460.051	13.18
460.254	13.19
460.457	13.25
460.66	13.29
460.863	13.29
461.066	13.22
461.269	13.24
461.472	13.28
461.675	13.38
461.878	13.32
