Data from 2938807__Reflection_03.txt Node
Date: Thu Mar 12 22:03:37 EDT 2015
User: robert
Spectrometer: USB4E03002
Autoset integration time: false
Trigger mode: 4
Integration Time (sec): 1.000000E-1
Scans to average: 10
Electric dark correction enabled: false
Nonlinearity correction enabled: false
Boxcar width: 5
Stray light correction enabled: false
XAxis mode: Wavelengths
Stop averaging: false
Number of Pixels in Spectrum: 3648
>>>>>Begin Spectral Data<<<<<
177.575	83.29
177.794	87.46
178.014	117.1
178.233	130.85
178.452	144.41
178.672	194.74
178.891	282.27
179.11	560.29
179.33	436.17
179.549	838.54
179.768	10942.86
179.987	-1015.22
180.207	-764.52
180.426	-81.93
180.645	-111.82
180.864	-227.16
181.084	-537.39
181.303	-488.46
181.522	-790.2
181.741	-299.24
181.96	-416.07
182.179	1571.43
182.398	-3300
182.618	4047.06
182.837	703.66
183.056	355.56
183.275	504.48
183.494	459.18
183.713	496.15
183.932	-153.75
184.151	2.61
184.37	103.74
184.589	91.47
184.808	48.86
185.027	18.47
185.246	-82.86
185.465	-1340
185.684	6900
185.903	-675
186.122	-135
186.341	-87.88
186.56	5.31
186.779	6.35
186.998	-22.32
187.216	4.37
187.435	-40.69
187.654	-160.14
187.873	-47.31
188.092	-13.49
188.311	-2.21
188.53	-0
188.748	322.5
188.967	185.36
189.186	171.75
189.405	437.78
189.623	393.42
189.842	872.22
190.061	1804.76
190.28	-1165.12
190.498	385.26
190.717	-1005.66
190.936	-640.95
191.154	-207.04
191.373	-225.73
191.592	-106.87
191.81	-114.97
192.029	-96.56
192.248	-119.28
192.466	-55.23
192.685	-52.25
192.904	-13.85
193.122	-32.56
193.341	9.73
193.559	27.64
193.778	28.64
193.996	6.48
194.215	-3.75
194.433	-8
194.652	-55.38
194.87	-312.9
195.089	181.25
195.307	729.69
195.526	616.92
195.744	266.67
195.963	267.07
196.181	382.4
196.399	202.2
196.618	218.28
196.836	179.51
197.055	231.19
197.273	175
197.491	420.55
197.71	80.17
197.928	117.67
198.146	144.87
198.365	298.02
198.583	450
198.801	184.15
199.019	55.17
199.238	-2200
199.456	210.99
199.674	748.48
199.892	197.65
200.111	222.73
200.329	195.47
200.547	120.75
200.765	105.2
200.983	68.85
201.202	82.16
201.42	141.67
201.638	94.29
201.856	93.57
202.074	59.16
202.292	39.2
202.51	121.47
202.728	47
202.946	72.55
203.165	125.16
203.383	201.75
203.601	150.21
203.819	311.46
204.037	147.57
204.255	-3.57
204.473	60.71
204.691	142.86
204.909	107.45
205.127	134.53
205.345	127.09
205.562	111.99
205.78	118.67
205.998	103.47
206.216	66.58
206.434	75.41
206.652	75.64
206.87	68.87
207.088	54.03
207.306	53.4
207.523	44.67
207.741	46.16
207.959	48.26
208.177	25.93
208.395	42.95
208.612	51.55
208.83	65.45
209.048	99.28
209.266	159.57
209.483	133.78
209.701	2109.09
209.919	401.39
210.136	-783.78
210.354	-121.21
210.572	255.09
210.79	262.65
211.007	183.7
211.225	-686.54
211.442	-405.88
211.66	101.45
211.878	302.86
212.095	-422.31
212.313	-660.98
212.53	-172.9
212.748	-92.45
212.966	-101.21
213.183	-127.27
213.401	-113.41
213.618	-47.15
213.836	-31.19
214.053	-28.78
214.271	-67.52
214.488	32.8
214.705	33.43
214.923	23.76
215.14	24.45
215.358	-3.17
215.575	27.64
215.793	10.21
216.01	-4.07
216.227	-73.93
216.445	-85.41
216.662	-34.03
216.879	11.11
217.097	1
217.314	-4.05
217.531	-7.73
217.749	14.87
217.966	5.4
218.183	13.58
218.4	11.44
218.618	8.54
218.835	28.64
219.052	35.96
219.269	32.32
219.487	42.5
219.704	44.13
219.921	54.04
220.138	54.48
220.355	41.77
220.572	40.17
220.79	40.13
221.007	40.2
221.224	36.42
221.441	35.26
221.658	26.57
221.875	20.32
222.092	24.51
222.309	18.91
222.526	17.33
222.743	22.71
222.96	26.05
223.177	25.8
223.394	27.83
223.611	28.67
223.828	22.97
224.045	21.45
224.262	23.7
224.479	15.29
224.696	11.8
224.913	8.11
225.13	9.64
225.347	3.33
225.564	3.03
225.781	5.17
225.997	4.69
226.214	6.65
226.431	7.17
226.648	5.43
226.865	7.34
227.082	5.67
227.298	3.77
227.515	3.8
227.732	4.34
227.949	3.23
228.165	2.64
228.382	3.12
228.599	2.31
228.816	2.62
229.032	2.08
229.249	1.66
229.466	2.83
229.682	3.43
229.899	2.57
230.116	2.87
230.332	2.69
230.549	2.58
230.765	1.81
230.982	2.71
231.199	1.75
231.415	2.91
231.632	3.06
231.848	2.31
232.065	2.12
232.281	3.19
232.498	2.94
232.714	5.29
232.931	5.15
233.147	5.5
233.364	3.75
233.58	4.61
233.797	3.82
234.013	2.94
234.23	1.2
234.446	2
234.662	1.6
234.879	0.97
235.095	-0.07
235.312	-0.12
235.528	-0.06
235.744	-1.07
235.961	-1.74
236.177	0.4
236.393	0.41
236.61	0.8
236.826	-0.75
237.042	-0.39
237.258	0.31
237.475	0.51
237.691	2.2
237.907	1.95
238.123	2.95
238.339	2.69
238.556	0.63
238.772	0.77
238.988	1.33
239.204	1.61
239.42	1.88
239.636	2.11
239.853	0.62
240.069	-0.46
240.285	-0.19
240.501	1.03
240.717	0.5
240.933	-0.02
241.149	0.77
241.365	0.83
241.581	1.44
241.797	1.55
242.013	1.29
242.229	1.73
242.445	1.61
242.661	2.45
242.877	2.59
243.093	3.17
243.309	3.39
243.525	3.17
243.741	3.51
243.957	2.79
244.173	2.37
244.388	2.68
244.604	2.4
244.82	2.68
245.036	2.25
245.252	0.98
245.468	0.93
245.683	1.16
245.899	1.49
246.115	1.73
246.331	2.55
246.547	2.57
246.762	2.37
246.978	2.51
247.194	2.44
247.409	2.34
247.625	2.53
247.841	2.72
248.057	2.79
248.272	2.71
248.488	2.64
248.703	2.38
248.919	2.31
249.135	2.43
249.35	2.68
249.566	2.94
249.782	2.98
249.997	3.6
250.213	2.94
250.428	2.98
250.644	2.95
250.859	2.81
251.075	2.63
251.29	2.94
251.506	2.51
251.721	2.23
251.937	2.15
252.152	2.34
252.368	1.87
252.583	2.46
252.798	3.08
253.014	3.16
253.229	3.21
253.445	2.75
253.66	2.9
253.875	3.61
254.091	3.69
254.306	3.69
254.521	3.34
254.737	3.7
254.952	3.67
255.167	1.98
255.383	1.45
255.598	1.92
255.813	2.55
256.028	1.52
256.244	1.82
256.459	1.44
256.674	1.47
256.889	1.57
257.104	1.77
257.32	1.01
257.535	1.98
257.75	2.04
257.965	1.57
258.18	1.9
258.395	2.28
258.61	1.63
258.826	1.55
259.041	1.39
259.256	1.31
259.471	1.26
259.686	1.5
259.901	1.12
260.116	1.36
260.331	1.27
260.546	1.22
260.761	1.13
260.976	1.24
261.191	1.24
261.406	1.41
261.621	1.33
261.836	1.18
262.05	1.23
262.265	1.51
262.48	1.45
262.695	1.55
262.91	1.69
263.125	1.99
263.34	1.94
263.555	2.54
263.769	1.87
263.984	1.68
264.199	1.98
264.414	1.75
264.629	2.04
264.843	1.62
265.058	1.85
265.273	1.52
265.488	1.5
265.702	1.87
265.917	1.38
266.132	1.78
266.346	2.19
266.561	1.38
266.776	1.53
266.99	1.59
267.205	1.8
267.42	1.39
267.634	1.19
267.849	0.98
268.063	1.17
268.278	1.38
268.492	1.98
268.707	1.66
268.922	2.35
269.136	2.34
269.351	1.97
269.565	1.59
269.78	2.39
269.994	2.61
270.209	2.49
270.423	2.26
270.637	2.42
270.852	1.81
271.066	1.98
271.281	2.05
271.495	2.11
271.709	1.94
271.924	1.86
272.138	1.59
272.353	1.64
272.567	1.62
272.781	1.24
272.996	1.12
273.21	1.04
273.424	1.56
273.638	1.36
273.853	1.09
274.067	1.52
274.281	1.91
274.495	1.94
274.71	1.96
274.924	2.37
275.138	2.64
275.352	2.36
275.566	2.56
275.781	1.65
275.995	1.71
276.209	2.05
276.423	2.01
276.637	1.63
276.851	1.77
277.065	1.56
277.279	1.54
277.493	1.7
277.707	2.08
277.921	1.92
278.135	1.82
278.349	1.7
278.563	1.58
278.777	1.28
278.991	1.38
279.205	1.19
279.419	1.24
279.633	1.51
279.847	1.37
280.061	1.18
280.275	1.4
280.489	1.77
280.703	2.07
280.917	1.94
281.131	1.9
281.344	2.27
281.558	2.43
281.772	2.86
281.986	2.3
282.2	2.21
282.414	2.35
282.627	2.24
282.841	1.71
283.055	1.43
283.269	1.57
283.482	1.7
283.696	1.34
283.91	1.32
284.123	0.83
284.337	0.77
284.551	0.75
284.764	0.76
284.978	0.59
285.192	1.07
285.405	1.15
285.619	1.2
285.833	1.09
286.046	0.89
286.26	1.03
286.473	1.02
286.687	1.29
286.9	1.43
287.114	1.42
287.327	1.69
287.541	1.84
287.754	1.9
287.968	1.88
288.181	1.89
288.395	2.21
288.608	2.23
288.822	2.36
289.035	2.36
289.248	2.03
289.462	1.91
289.675	1.82
289.889	1.66
290.102	1.41
290.315	1.32
290.529	1.26
290.742	1.26
290.955	1.07
291.169	1.02
291.382	0.96
291.595	1.26
291.808	1.27
292.022	1.57
292.235	1.55
292.448	1.78
292.661	1.86
292.875	2.11
293.088	2.48
293.301	2.14
293.514	2.33
293.727	2.37
293.94	2.54
294.153	2.25
294.367	1.95
294.58	1.74
294.793	2.01
295.006	1.97
295.219	1.74
295.432	1.34
295.645	1.39
295.858	1.25
296.071	1.33
296.284	1.41
296.497	1.76
296.71	1.68
296.923	1.77
297.136	1.44
297.349	1.29
297.562	1.36
297.775	1.47
297.988	1.41
298.201	1.23
298.414	1.34
298.626	1.19
298.839	1.26
299.052	1.35
299.265	1.32
299.478	1.6
299.691	1.9
299.903	1.78
300.116	1.87
300.329	2.02
300.542	2.61
300.755	2.37
300.967	2.55
301.18	2.47
301.393	2.63
301.605	2.78
301.818	2.39
302.031	2.51
302.243	3.1
302.456	3.06
302.669	3.28
302.881	2.79
303.094	2.94
303.307	2.82
303.519	2.77
303.732	2.54
303.944	2.71
304.157	2.99
304.37	2.6
304.582	2.48
304.795	2.18
305.007	2.14
305.22	2.48
305.432	2.08
305.645	2.11
305.857	1.86
306.069	2.14
306.282	1.69
306.494	1.78
306.707	2.19
306.919	2.2
307.132	2.75
307.344	2.98
307.556	2.8
307.769	2.93
307.981	2.61
308.193	2.72
308.406	2.51
308.618	2.68
308.83	2.64
309.043	2.6
309.255	2.45
309.467	2.16
309.679	2.09
309.892	2.05
310.104	2.26
310.316	2.49
310.528	2.5
310.74	2.54
310.953	2.72
311.165	2.77
311.377	2.76
311.589	2.67
311.801	2.64
312.013	2.55
312.225	2.64
312.437	2.41
312.649	2.44
312.862	2.33
313.074	2.31
313.286	2.3
313.498	2.73
313.71	2.57
313.922	2.33
314.134	2.7
314.346	2.41
314.558	2.92
314.77	3.43
314.982	3.48
315.193	3.58
315.405	3.67
315.617	3.91
315.829	3.5
316.041	3.65
316.253	3.92
316.465	4.06
316.677	4.65
316.888	4.38
317.1	3.98
317.312	3.9
317.524	3.48
317.736	3.32
317.947	2.98
318.159	3.26
318.371	3.04
318.583	2.91
318.794	2.67
319.006	2.69
319.218	2.89
319.43	3.2
319.641	3.15
319.853	3.94
320.064	4.03
320.276	4.02
320.488	3.73
320.699	4.06
320.911	4.73
321.123	4.6
321.334	4.77
321.546	4.34
321.757	4
321.969	4.09
322.18	3.92
322.392	4.03
322.603	3.76
322.815	3.7
323.026	3.43
323.238	3.35
323.449	3.66
323.661	3.22
323.872	3.17
324.083	3.42
324.295	3.46
324.506	3.72
324.718	3.93
324.929	4.17
325.14	4.52
325.352	5.13
325.563	4.79
325.774	4.67
325.986	4.76
326.197	5
326.408	5.14
326.62	5.31
326.831	5.65
327.042	5.67
327.253	6.08
327.464	6.08
327.676	6.09
327.887	6.73
328.098	7.19
328.309	7.08
328.52	7.09
328.732	7.02
328.943	7.08
329.154	6.69
329.365	6.89
329.576	6.72
329.787	7.2
329.998	7.2
330.209	6.98
330.42	6.7
330.631	7.26
330.842	7.27
331.053	7.18
331.264	7.16
331.475	7.64
331.686	7.53
331.897	7.49
332.108	7.1
332.319	7.05
332.53	6.96
332.741	7.19
332.952	7.01
333.163	7.48
333.374	7.75
333.585	7.67
333.795	7.21
334.006	7.24
334.217	7.38
334.428	7.64
334.639	7.66
334.849	7.47
335.06	7.54
335.271	7.73
335.482	7.48
335.692	7.52
335.903	7.78
336.114	8.15
336.325	8.45
336.535	8.74
336.746	9.02
336.957	8.94
337.167	9.35
337.378	9.7
337.589	9.42
337.799	9.04
338.01	9.37
338.22	9.41
338.431	9.54
338.642	9.36
338.852	9.33
339.063	8.91
339.273	8.94
339.484	8.82
339.694	8.49
339.905	8.78
340.115	9.52
340.326	9.23
340.536	9.24
340.746	9.1
340.957	8.85
341.167	8.82
341.378	8.78
341.588	8.59
341.799	8.46
342.009	8.37
342.219	8.46
342.43	8.18
342.64	8.15
342.85	8.27
343.061	8.17
343.271	8.27
343.481	8.22
343.691	8.17
343.902	8.55
344.112	8.88
344.322	8.73
344.532	9.03
344.743	8.99
344.953	8.86
345.163	8.76
345.373	8.56
345.583	8.64
345.793	8.5
346.004	8.61
346.214	8.72
346.424	8.67
346.634	9
346.844	8.76
347.054	8.45
347.264	8.92
347.474	8.8
347.684	9.19
347.894	9.26
348.104	9.55
348.314	9.32
348.524	9.19
348.734	9.23
348.944	9.07
349.154	9.07
349.364	9.53
349.574	9.05
349.784	9.19
349.994	9.17
350.204	8.93
350.413	8.75
350.623	9.12
350.833	8.86
351.043	9.02
351.253	9.06
351.463	9.15
351.672	8.89
351.882	9.18
352.092	8.84
352.302	8.6
352.511	8.89
352.721	8.81
352.931	8.66
353.141	8.91
353.35	8.71
353.56	8.32
353.77	8.27
353.979	8.67
354.189	8.47
354.399	8.7
354.608	8.71
354.818	8.68
355.027	8.76
355.237	8.71
355.447	8.5
355.656	8.39
355.866	8.71
356.075	8.55
356.285	8.36
356.494	8.49
356.704	8.55
356.913	8.56
357.123	8.74
357.332	8.61
357.542	8.41
357.751	8.31
357.96	8.32
358.17	8.32
358.379	8.46
358.589	8.42
358.798	8.19
359.007	8.18
359.217	7.98
359.426	7.97
359.635	8.16
359.845	8.24
360.054	8.31
360.263	8.21
360.472	8.02
360.682	8.14
360.891	8.29
361.1	8.36
361.309	8.19
361.519	8.45
361.728	8.28
361.937	8.14
362.146	8.14
362.355	8.27
362.564	8.25
362.774	8.28
362.983	8.03
363.192	7.78
363.401	7.8
363.61	8.01
363.819	7.93
364.028	8.14
364.237	8.18
364.446	8.09
364.655	8.02
364.864	8.2
365.073	8.23
365.282	8.27
365.491	8.35
365.7	8.22
365.909	8.17
366.118	8.02
366.327	8.02
366.536	8.07
366.745	8.25
366.954	8.18
367.162	8.02
367.371	7.96
367.58	7.96
367.789	8
367.998	7.92
368.207	7.81
368.415	8
368.624	7.92
368.833	7.92
369.042	8
369.25	7.94
369.459	8.15
369.668	8.26
369.877	8.21
370.085	8.51
370.294	8.65
370.503	9.04
370.711	8.82
370.92	8.61
371.129	8.4
371.337	8.44
371.546	8.54
371.754	8.4
371.963	8.41
372.171	8.63
372.38	8.42
372.589	8.68
372.797	8.41
373.006	8.6
373.214	8.84
373.423	8.95
373.631	8.74
373.84	8.78
374.048	8.72
374.256	8.77
374.465	8.65
374.673	8.73
374.882	8.55
375.09	8.51
375.298	8.53
375.507	8.32
375.715	8.26
375.923	8.29
376.132	8.1
376.34	8.25
376.548	8.27
376.757	8.22
376.965	8.09
377.173	8.05
377.381	7.97
377.59	8.07
377.798	8.17
378.006	8.15
378.214	8.23
378.423	8.5
378.631	8.57
378.839	8.54
379.047	8.69
379.255	8.58
379.463	8.76
379.671	9.01
379.879	8.7
380.088	8.73
380.296	8.91
380.504	9.01
380.712	8.86
380.92	8.73
381.128	8.69
381.336	8.49
381.544	8.75
381.752	8.61
381.96	8.4
382.168	8.56
382.376	8.33
382.584	8.15
382.791	8.08
382.999	8.22
383.207	8.38
383.415	8.58
383.623	8.71
383.831	8.51
384.039	8.63
384.247	8.75
384.454	8.7
384.662	8.84
384.87	9.01
385.078	9.08
385.285	9.16
385.493	9.16
385.701	9.1
385.909	8.95
386.116	9.07
386.324	9.07
386.532	9.03
386.739	9.16
386.947	9.16
387.155	9.22
387.362	9.22
387.57	9.07
387.778	9.03
387.985	8.96
388.193	9.14
388.4	9.2
388.608	9.08
388.816	9.12
389.023	9.1
389.231	9.1
389.438	8.88
389.646	8.9
389.853	8.87
390.061	8.78
390.268	8.95
390.475	8.93
390.683	8.86
390.89	8.94
391.098	9.09
391.305	9.1
391.512	9.09
391.72	9.22
391.927	9.18
392.135	9.36
392.342	9.51
392.549	9.56
392.756	9.4
392.964	9.45
393.171	9.57
393.378	9.52
393.586	9.42
393.793	9.61
394	9.77
394.207	9.78
394.414	9.74
394.622	9.75
394.829	9.63
395.036	9.84
395.243	9.95
395.45	10.05
395.657	10.1
395.864	10.17
396.072	10.09
396.279	10.12
396.486	10.23
396.693	10.19
396.9	10.09
397.107	10.11
397.314	10.32
397.521	10.29
397.728	10.14
397.935	10.03
398.142	10.01
398.349	10.08
398.556	10.01
398.763	10.08
398.97	10.07
399.177	10.2
399.383	10.26
399.59	10
399.797	9.81
400.004	9.92
400.211	9.8
400.418	9.93
400.625	9.93
400.831	9.95
401.038	10.08
401.245	10.05
401.452	10
401.658	10.1
401.865	10.1
402.072	10.12
402.279	10.29
402.485	10.38
402.692	10.32
402.899	10.43
403.105	10.45
403.312	10.32
403.519	10.32
403.725	10.32
403.932	10.26
404.138	10.36
404.345	10.51
404.552	10.26
404.758	10.35
404.965	10.35
405.171	10.3
405.378	10.39
405.584	10.39
405.791	10.45
405.997	10.34
406.204	10.47
406.41	10.4
406.617	10.49
406.823	10.52
407.029	10.46
407.236	10.66
407.442	10.65
407.649	10.55
407.855	10.61
408.061	10.75
408.268	10.92
408.474	10.85
408.68	10.98
408.887	10.76
409.093	10.84
409.299	10.93
409.505	10.78
409.712	10.89
409.918	10.9
410.124	10.79
410.33	10.78
410.537	10.87
410.743	10.74
410.949	10.59
411.155	10.73
411.361	10.68
411.567	10.69
411.773	10.69
411.98	10.52
412.186	10.44
412.392	10.5
412.598	10.39
412.804	10.37
413.01	10.41
413.216	10.49
413.422	10.42
413.628	10.49
413.834	10.36
414.04	10.3
414.246	10.3
414.452	10.38
414.658	10.47
414.864	10.38
415.07	10.27
415.275	10.35
415.481	10.52
415.687	10.52
415.893	10.51
416.099	10.59
416.305	10.69
416.511	10.69
416.716	10.57
416.922	10.52
417.128	10.52
417.334	10.58
417.539	10.47
417.745	10.38
417.951	10.4
418.157	10.36
418.362	10.37
418.568	10.35
418.774	10.28
418.979	10.35
419.185	10.27
419.391	10.32
419.596	10.19
419.802	10.23
420.008	10.23
420.213	10.64
420.419	10.6
420.624	10.5
420.83	10.51
421.035	10.56
421.241	10.46
421.446	10.43
421.652	10.48
421.857	10.52
422.063	10.48
422.268	10.49
422.474	10.12
422.679	10.12
422.885	10.21
423.09	10.19
423.295	10.12
423.501	10.27
423.706	10.26
423.911	10.21
424.117	10.2
424.322	10.23
424.527	10.13
424.733	10.07
424.938	10.05
425.143	9.96
425.349	9.97
425.554	9.96
425.759	9.88
425.964	9.95
426.169	9.94
426.375	9.97
426.58	9.84
426.785	9.97
426.99	9.97
427.195	9.97
427.4	10.05
427.605	9.97
427.811	10.08
428.016	10.05
428.221	9.98
428.426	9.92
428.631	9.75
428.836	9.76
429.041	9.63
429.246	9.64
429.451	9.72
429.656	9.83
429.861	9.85
430.066	9.71
430.271	9.63
430.476	9.71
430.681	9.73
430.886	9.88
431.09	9.9
431.295	9.98
431.5	10.08
431.705	10.01
431.91	9.93
432.115	9.97
432.32	10.06
432.524	10.06
432.729	10.07
432.934	10.13
433.139	10.22
433.343	10.31
433.548	10.28
433.753	10.26
433.958	10.2
434.162	10.25
434.367	10.27
434.572	10.21
434.776	10.3
434.981	10.23
435.186	10.17
435.39	10.1
435.595	10.07
435.799	10.1
436.004	10.09
436.209	10.15
436.413	10.05
436.618	10.08
436.822	10.16
437.027	10.14
437.231	10.21
437.436	10.15
437.64	10.11
437.845	10.15
438.049	10.17
438.253	10.14
438.458	10.08
438.662	10.02
438.867	9.91
439.071	9.91
439.275	9.86
439.48	9.79
439.684	9.87
439.888	9.79
440.093	9.72
440.297	9.66
440.501	9.61
440.706	9.64
440.91	9.71
441.114	9.78
441.318	9.73
441.523	9.76
441.727	9.81
441.931	9.79
442.135	9.81
442.339	9.82
442.543	9.83
442.748	9.85
442.952	9.79
443.156	9.87
443.36	9.79
443.564	9.81
443.768	9.82
443.972	9.78
444.176	9.81
444.38	9.92
444.584	10.01
444.788	9.94
444.992	9.99
445.196	10.1
445.4	9.99
445.604	10.01
445.808	9.97
446.012	9.99
446.216	9.99
446.42	10.02
446.624	9.98
446.828	9.89
447.032	9.98
447.235	9.97
447.439	9.92
447.643	9.92
447.847	10.01
448.051	10.04
448.254	9.99
448.458	10
448.662	9.9
448.866	9.99
449.069	10.05
449.273	10.01
449.477	9.94
449.681	9.93
449.884	10.12
450.088	9.98
450.292	10.02
450.495	10.03
450.699	10.05
450.902	10.09
451.106	9.94
451.31	9.91
451.513	9.99
451.717	9.95
451.92	10.02
452.124	9.94
452.327	10.01
452.531	10
452.734	10.07
452.938	10.03
453.141	10.02
453.345	10.14
453.548	10.17
453.752	10.02
453.955	10.07
454.158	10.11
454.362	9.91
454.565	9.93
454.769	9.77
454.972	9.7
455.175	9.79
455.379	9.76
455.582	9.69
455.785	9.68
455.988	9.72
456.192	9.72
456.395	9.65
456.598	9.79
456.801	9.69
457.005	9.82
457.208	9.85
457.411	9.78
457.614	9.89
457.817	9.85
458.021	9.89
458.224	9.92
458.427	9.9
458.63	9.85
458.833	9.78
459.036	9.84
459.239	9.79
459.442	9.78
459.645	9.78
459.848	9.79
460.051	9.74
460.254	9.68
460.457	9.77
460.66	9.74
460.863	9.84
461.066	9.9
461.269	9.84
461.472	9.87
461.675	9.86
461.878	9.84
462.081	9.67
462.284	9.79
462.486	9.81
462.689	9.7
462.892	9.87
463.095	9.77
463.298	9.78
463.5	9.82
463.703	9.82
463.906	9.81
464.109	9.78
464.311	9.9
464.514	9.9
464.717	9.94
464.92	9.88
465.122	9.71
465.325	9.72
465.528	9.73
465.73	9.65
465.933	9.69
466.135	9.78
466.338	9.8
466.541	9.81
466.743	9.82
466.946	9.85
467.148	9.87
467.351	9.87
467.553	9.95
467.756	9.99
467.958	10.06
