Data from 2938771__Reflection_05.txt Node
Date: Fri Mar 13 15:13:39 EDT 2015
User: robert
Spectrometer: USB4E03002
Autoset integration time: false
Trigger mode: 4
Integration Time (sec): 1.000000E-1
Scans to average: 10
Electric dark correction enabled: false
Nonlinearity correction enabled: false
Boxcar width: 5
Stray light correction enabled: false
XAxis mode: Wavelengths
Stop averaging: false
Number of Pixels in Spectrum: 3648
>>>>>Begin Spectral Data<<<<<
177.575	-362.5
177.794	-705.48
178.014	-2248.15
178.233	1053.73
178.452	2372.97
178.672	510.23
178.891	564.63
179.11	3739.13
179.33	-1317.91
179.549	-530.95
179.768	-2350
179.987	889.55
180.207	2633.33
180.426	1143.08
180.645	-2145.71
180.864	-1006.45
181.084	-273.23
181.303	-379.91
181.522	-1719.15
181.741	4386.67
181.96	253.65
182.179	196.55
182.398	143.1
182.618	126.36
182.837	139.11
183.056	87.64
183.275	66.84
183.494	47.78
183.713	9.25
183.932	26.32
184.151	36.83
184.37	17.24
184.589	41.01
184.808	66.67
185.027	89.82
185.246	109.84
185.465	114.62
185.684	164.27
185.903	139.47
186.122	98.36
186.341	85.93
186.56	109.55
186.779	171.81
186.998	163.43
187.216	214.15
187.435	549.15
187.654	237.17
187.873	180.05
188.092	160.27
188.311	324.28
188.53	264.9
188.748	801.56
188.967	-1287.5
189.186	261.59
189.405	279.86
189.623	191.3
189.842	155.31
190.061	180.05
190.28	282.08
190.498	183.8
190.717	151.73
190.936	171.45
191.154	172.96
191.373	198.31
191.592	204.1
191.81	172.77
192.029	170.89
192.248	193.52
192.466	175.66
192.685	161.14
192.904	205.53
193.122	243.96
193.341	330.47
193.559	505.63
193.778	321.86
193.996	395.52
194.215	3388
194.433	873.83
194.652	542.57
194.87	958.51
195.089	14880
195.307	2776.92
195.526	-614.95
195.744	1755.32
195.963	508.74
196.181	428.93
196.399	303.73
196.618	286.23
196.836	360.87
197.055	592.21
197.273	945.05
197.491	2582.35
197.71	1581.48
197.928	482.12
198.146	661.86
198.365	757.33
198.583	765.15
198.801	-131.44
199.019	-92.41
199.238	-7.35
199.456	-15.37
199.674	-63.58
199.892	-62.6
200.111	-41.39
200.329	-41.27
200.547	-30.54
200.765	-171.56
200.983	-129.22
201.202	-379.44
201.42	-906.25
201.638	2213.04
201.856	445.36
202.074	934.15
202.292	301.05
202.51	441.09
202.728	215.74
202.946	385.91
203.165	963.49
203.383	47600
203.601	328.17
203.819	291.09
204.037	211.23
204.255	302.3
204.473	175.79
204.691	330.94
204.909	148.49
205.127	238.91
205.345	142.01
205.562	83.28
205.78	103.71
205.998	117.94
206.216	129.38
206.434	111.45
206.652	112.85
206.87	155.9
207.088	143.67
207.306	193.17
207.523	153.93
207.741	161.5
207.959	171.19
208.177	190.53
208.395	226.62
208.612	297.48
208.83	276.61
209.048	342.39
209.266	1963.33
209.483	-1285.29
209.701	-2104
209.919	973.44
210.136	11780
210.354	-1566.67
210.572	-244.81
210.79	476.64
211.007	193.21
211.225	766.1
211.442	193.94
211.66	120.9
211.878	140.47
212.095	270.87
212.313	280.09
212.53	294.53
212.748	243.81
212.966	169.05
213.183	214.55
213.401	211.67
213.618	173.2
213.836	179.92
214.053	202.12
214.271	191.04
214.488	66.82
214.705	72.34
214.923	51.21
215.14	65.54
215.358	72.31
215.575	69.24
215.793	71.67
216.01	73.48
216.227	73.12
216.445	71.45
216.662	61.84
216.879	71.62
217.097	71.48
217.314	89.72
217.531	84.42
217.749	75.53
217.966	92.64
218.183	99.5
218.4	72.24
218.618	65.71
218.835	59.13
219.052	59.72
219.269	54.85
219.487	51.51
219.704	44
219.921	47.73
220.138	48.65
220.355	33.91
220.572	31.75
220.79	35.3
221.007	20.9
221.224	20.57
221.441	22.32
221.658	28.33
221.875	27.72
222.092	28.97
222.309	18.84
222.526	20.72
222.743	20.03
222.96	25.33
223.177	30.16
223.394	34.78
223.611	32.64
223.828	35.25
224.045	32.85
224.262	44.83
224.479	42.51
224.696	44.71
224.913	43.39
225.13	44.7
225.347	41.2
225.564	39.45
225.781	40.4
225.997	36.24
226.214	31.63
226.431	29.21
226.648	17.67
226.865	15.72
227.082	14.08
227.298	11.85
227.515	9.27
227.732	8.05
227.949	6.33
228.165	6.36
228.382	7.3
228.599	7.21
228.816	7.11
229.032	7.58
229.249	6.88
229.466	7.09
229.682	7.13
229.899	7.27
230.116	6.9
230.332	7.98
230.549	7.92
230.765	8.31
230.982	8.43
231.199	8.05
231.415	9.3
231.632	9.98
231.848	10.81
232.065	9.99
232.281	10.71
232.498	11.48
232.714	10.96
232.931	11.53
233.147	11.09
233.364	11.37
233.58	10.09
233.797	8.69
234.013	8.53
234.23	7.03
234.446	8.33
234.662	7.41
234.879	8.04
235.095	8.2
235.312	9.17
235.528	7.98
235.744	8.23
235.961	10.03
236.177	9.79
236.393	10.1
236.61	11.09
236.826	10.4
237.042	10.63
237.258	9.4
237.475	9.53
237.691	6.76
237.907	6.48
238.123	5.51
238.339	5.92
238.556	6.51
238.772	6.84
238.988	4.73
239.204	4.59
239.42	4.94
239.636	6.37
239.853	5.53
240.069	6.82
240.285	7.62
240.501	8.03
240.717	8.06
240.933	8.07
241.149	7.61
241.365	7.75
241.581	7.2
241.797	7.62
242.013	7.57
242.229	7.94
242.445	7.39
242.661	7.51
242.877	7.39
243.093	7.21
243.309	6.97
243.525	6.67
243.741	7.01
243.957	7.53
244.173	6.76
244.388	6.31
244.604	6.1
244.82	6.41
245.036	5.62
245.252	5.04
245.468	4.99
245.683	5.63
245.899	5.5
246.115	5.8
246.331	5.87
246.547	5.95
246.762	5.93
246.978	5.92
247.194	6.08
247.409	6.21
247.625	6.07
247.841	6.04
248.057	5.98
248.272	6.21
248.488	6.11
248.703	6.34
248.919	6.45
249.135	6.43
249.35	6.56
249.566	6.37
249.782	6.7
249.997	7.52
250.213	7.98
250.428	8.01
250.644	7.52
250.859	7.03
251.075	6.59
251.29	5.97
251.506	6.95
251.721	6.79
251.937	6.25
252.152	5.91
252.368	6.52
252.583	5.84
252.798	5.69
253.014	6.5
253.229	6.89
253.445	6.81
253.66	7.23
253.875	6.52
254.091	6.05
254.306	6.4
254.521	6.57
254.737	5.84
254.952	6.07
255.167	5.62
255.383	5
255.598	5.09
255.813	4.91
256.028	4.7
256.244	3.59
256.459	3.73
256.674	3.19
256.889	3.36
257.104	2.91
257.32	3.35
257.535	3.41
257.75	3.93
257.965	3.6
258.18	3.54
258.395	3.55
258.61	4.11
258.826	4.17
259.041	4.29
259.256	4.28
259.471	4
259.686	3.77
259.901	3.54
260.116	3.12
260.331	3.15
260.546	3.13
260.761	3.15
260.976	2.89
261.191	2.9
261.406	2.59
261.621	2.57
261.836	2.66
262.05	2.27
262.265	2.41
262.48	2.2
262.695	2.51
262.91	2.43
263.125	2.53
263.34	2.51
263.555	2.1
263.769	2.69
263.984	1.98
264.199	1.26
264.414	1.75
264.629	2.06
264.843	2.81
265.058	2.81
265.273	3.18
265.488	3.26
265.702	3.82
265.917	3.96
266.132	3.89
266.346	4.29
266.561	5.42
266.776	5.38
266.99	5.16
267.205	5.26
267.42	5.22
267.634	4.94
267.849	4.74
268.063	4.86
268.278	5.19
268.492	5.34
268.707	5.46
268.922	5.15
269.136	5.53
269.351	5.01
269.565	5.01
269.78	5.02
269.994	5.28
270.209	5.15
270.423	4.9
270.637	4.49
270.852	4.38
271.066	4.37
271.281	4.08
271.495	3.86
271.709	4.28
271.924	4.04
272.138	3.9
272.353	3.69
272.567	4.01
272.781	3.94
272.996	4.2
273.21	4.54
273.424	4.37
273.638	4.4
273.853	4.33
274.067	4.49
274.281	4.74
274.495	4.54
274.71	5.07
274.924	5.11
275.138	5.13
275.352	5.28
275.566	4.83
275.781	4.94
275.995	5.09
276.209	5.21
276.423	4.5
276.637	3.98
276.851	4.57
277.065	4.44
277.279	4.26
277.493	4.32
277.707	4.16
277.921	3.96
278.135	3.89
278.349	3.54
278.563	3.7
278.777	4.1
278.991	4.72
279.205	4.44
279.419	4.06
279.633	3.63
279.847	3.5
280.061	3.11
280.275	3.22
280.489	2.88
280.703	3.41
280.917	3.04
281.131	2.82
281.344	2.37
281.558	2.14
281.772	2.23
281.986	2.38
282.2	2.48
282.414	2.39
282.627	2.19
282.841	2.46
283.055	2.49
283.269	2.26
283.482	2.51
283.696	2.6
283.91	2.58
284.123	2.44
284.337	2.8
284.551	2.9
284.764	3.09
284.978	3.38
285.192	3.09
285.405	2.74
285.619	2.89
285.833	2.9
286.046	2.76
286.26	2.8
286.473	3.1
286.687	3
286.9	2.97
287.114	2.88
287.327	2.72
287.541	3
287.754	3.06
287.968	3.29
288.181	3.39
288.395	3.78
288.608	3.93
288.822	3.51
289.035	3.36
289.248	3.16
289.462	3.37
289.675	3.57
289.889	3.64
290.102	3.67
290.315	3.76
290.529	3.72
290.742	3.55
290.955	3.3
291.169	3.9
291.382	4.13
291.595	4.21
291.808	4.11
292.022	4.28
292.235	4.07
292.448	4.35
292.661	4.18
292.875	4.15
293.088	4.69
293.301	4.75
293.514	4.39
293.727	4.62
293.94	4.82
294.153	4.93
294.367	4.52
294.58	4.43
294.793	4.11
295.006	3.95
295.219	3.75
295.432	3.08
295.645	3.4
295.858	3.07
296.071	3.01
296.284	2.82
296.497	2.97
296.71	3.28
296.923	3.47
297.136	3.55
297.349	3.65
297.562	3.73
297.775	4.05
297.988	4.09
298.201	4.38
298.414	4.27
298.626	4.58
298.839	4.4
299.052	4.47
299.265	4.4
299.478	4.46
299.691	4.52
299.903	4.84
300.116	4.88
300.329	4.49
300.542	4.78
300.755	4.96
300.967	4.61
301.18	4.54
301.393	4.48
301.605	4.58
301.818	4.74
302.031	5.04
302.243	4.62
302.456	4.47
302.669	4.54
302.881	4.08
303.094	3.74
303.307	4.06
303.519	3.89
303.732	3.78
303.944	3.64
304.157	3.63
304.37	3.38
304.582	3.62
304.795	3.62
305.007	4.18
305.22	4.09
305.432	4.2
305.645	3.94
305.857	4.47
306.069	4.54
306.282	4.82
306.494	4.63
306.707	4.36
306.919	4.03
307.132	4.4
307.344	4.22
307.556	4.69
307.769	4.75
307.981	4.98
308.193	4.61
308.406	4.74
308.618	4.72
308.83	5.16
309.043	5.45
309.255	5.64
309.467	5.29
309.679	5.09
309.892	5
310.104	5.08
310.316	4.47
310.528	4.44
310.74	4.42
310.953	4.44
311.165	4.19
311.377	3.85
311.589	4.13
311.801	4.06
312.013	4.17
312.225	4.03
312.437	4.22
312.649	4.83
312.862	5.3
313.074	5
313.286	5.14
313.498	4.86
313.71	5.79
313.922	5.66
314.134	6.05
314.346	6.04
314.558	6.73
314.77	6.36
314.982	6.43
315.193	6.36
315.405	6.84
315.617	6.62
315.829	7.03
316.041	6.73
316.253	6.51
316.465	7.21
316.677	7.17
316.888	6.9
317.1	7.1
317.312	7.23
317.524	7.15
317.736	7.57
317.947	7.95
318.159	8.44
318.371	8.37
318.583	9.17
318.794	8.66
319.006	8.92
319.218	8.84
319.43	8.75
319.641	9.29
319.853	9.47
320.064	9.1
320.276	9.12
320.488	8.52
320.699	8.9
320.911	9.02
321.123	9.19
321.334	9.06
321.546	9.47
321.757	9.64
321.969	8.98
322.18	9.48
322.392	9.84
322.603	9.95
322.815	10.51
323.026	10.73
323.238	10.41
323.449	10.31
323.661	10.31
323.872	10.41
324.083	10.55
324.295	11.34
324.506	11.22
324.718	10.98
324.929	11.29
325.14	11.68
325.352	11.78
325.563	12.24
325.774	12.57
325.986	13.24
326.197	13.88
326.408	14.58
326.62	14.83
326.831	15.48
327.042	16.46
327.253	16.79
327.464	16.98
327.676	17.36
327.887	18.1
328.098	18.75
328.309	19.12
328.52	19.58
328.732	20.27
328.943	20.92
329.154	21.26
329.365	21.62
329.576	22.19
329.787	23.14
329.998	23.54
330.209	24.07
330.42	24.94
330.631	25.78
330.842	26.16
331.053	26.78
331.264	26.72
331.475	27.45
331.686	28.01
331.897	28.79
332.108	29.2
332.319	30.05
332.53	30.28
332.741	30.79
332.952	30.87
333.163	30.97
333.374	30.81
333.585	31.85
333.795	31.87
334.006	31.96
334.217	32.07
334.428	32.27
334.639	32.62
334.849	32.71
335.06	32.63
335.271	33.32
335.482	34.27
335.692	34.88
335.903	34.83
336.114	35.31
336.325	35.73
336.535	35.83
336.746	36.37
336.957	36.23
337.167	36.52
337.378	36.92
337.589	36.99
337.799	36.68
338.01	36.73
338.22	37.04
338.431	37.13
338.642	37.21
338.852	37.47
339.063	37.36
339.273	37.75
339.484	38.16
339.694	37.93
339.905	37.89
340.115	37.94
340.326	38.02
340.536	37.95
340.746	38.13
340.957	38.45
341.167	38.34
341.378	38.27
341.588	38.05
341.799	38.02
342.009	38.24
342.219	38.37
342.43	38.26
342.64	38.57
342.85	38.8
343.061	38.55
343.271	38.23
343.481	38.3
343.691	38.21
343.902	38.42
344.112	38.21
344.322	38.09
344.532	37.86
344.743	38.08
344.953	37.97
345.163	37.96
345.373	38.29
345.583	38.56
345.793	38.92
346.004	39.11
346.214	39.06
346.424	39.12
346.634	39.07
346.844	39.42
347.054	39.47
347.264	39.37
347.474	39.3
347.684	38.96
347.894	39.04
348.104	38.7
348.314	38.77
348.524	38.61
348.734	38.72
348.944	38.85
349.154	38.91
349.364	38.93
349.574	38.82
349.784	38.87
349.994	39.18
350.204	38.91
350.413	38.99
350.623	39.25
350.833	39.21
351.043	38.97
351.253	38.99
351.463	39.04
351.672	38.99
351.882	39.3
352.092	39.11
352.302	39.2
352.511	39.18
352.721	38.96
352.931	38.53
353.141	38.56
353.35	38.53
353.56	38.51
353.77	38.26
353.979	38.18
354.189	37.72
354.399	37.76
354.608	37.57
354.818	37.41
355.027	37.67
355.237	37.74
355.447	37.72
355.656	38.02
355.866	37.82
356.075	37.96
356.285	37.8
356.494	37.95
356.704	37.95
356.913	37.75
357.123	38.02
357.332	37.9
357.542	37.78
357.751	38.19
357.96	38
358.17	38.05
358.379	37.75
358.589	37.92
358.798	38.07
359.007	37.86
359.217	38.07
359.426	37.96
359.635	38.15
359.845	38.06
360.054	37.45
360.263	37.4
360.472	37.24
360.682	37.35
360.891	37.16
361.1	36.9
361.309	37.07
361.519	36.78
361.728	36.51
361.937	36.26
362.146	36.18
362.355	36.28
362.564	36.25
362.774	36.38
362.983	36.14
363.192	36.22
363.401	36.2
363.61	35.83
363.819	35.96
364.028	35.85
364.237	35.78
364.446	35.68
364.655	35.88
364.864	35.9
365.073	35.9
365.282	36.11
365.491	35.89
365.7	36.02
365.909	36.3
366.118	36.38
366.327	36.46
366.536	36.43
366.745	36.59
366.954	36.34
367.162	36.1
367.371	36.09
367.58	36.09
367.789	36.15
367.998	36.06
368.207	35.88
368.415	35.65
368.624	35.69
368.833	35.84
369.042	35.88
369.25	35.97
369.459	36.24
369.668	36.11
369.877	35.89
370.085	35.78
370.294	35.91
370.503	35.98
370.711	35.99
370.92	36.19
371.129	36.05
371.337	36.04
371.546	36.17
371.754	36.06
371.963	36.01
372.171	36.09
372.38	36.15
372.589	35.94
372.797	35.74
373.006	35.81
373.214	35.92
373.423	35.79
373.631	35.74
373.84	35.59
374.048	35.47
374.256	35.42
374.465	35.37
374.673	35.33
374.882	35.4
375.09	35.59
375.298	35.69
375.507	35.3
375.715	35.19
375.923	35.1
376.132	34.99
376.34	35.03
376.548	35.13
376.757	35.14
376.965	35.07
377.173	34.88
377.381	34.9
377.59	34.7
377.798	34.8
378.006	34.87
378.214	34.91
378.423	35.03
378.631	35.04
378.839	34.73
379.047	34.79
379.255	35.01
379.463	34.95
379.671	34.72
379.879	34.73
380.088	34.53
380.296	34.64
380.504	34.51
380.712	34.47
380.92	34.48
381.128	34.7
381.336	34.37
381.544	34.16
381.752	34.02
381.96	34.18
382.168	34.25
382.376	34.53
382.584	34.5
382.791	34.52
382.999	34.38
383.207	34.19
383.415	34.03
383.623	34.05
383.831	34.17
384.039	34.36
384.247	34.21
384.454	34.01
384.662	33.89
384.87	33.76
385.078	33.75
385.285	33.6
385.493	33.66
385.701	33.81
385.909	33.96
386.116	33.91
386.324	33.84
386.532	33.78
386.739	33.64
386.947	33.64
387.155	33.77
387.362	33.74
387.57	33.76
387.778	33.77
387.985	33.7
388.193	33.66
388.4	33.57
388.608	33.75
388.816	33.71
389.023	33.88
389.231	33.82
389.438	33.85
389.646	33.92
389.853	34.12
390.061	34.21
390.268	34.05
390.475	33.93
390.683	33.88
390.89	33.78
391.098	33.73
391.305	33.74
391.512	33.6
391.72	33.42
391.927	33.37
392.135	33.26
392.342	33.21
392.549	33.21
392.756	33.01
392.964	32.91
393.171	32.73
393.378	32.55
393.586	32.5
393.793	32.36
394	32.28
394.207	32.3
394.414	32.3
394.622	32.01
394.829	32.25
395.036	32.56
395.243	32.64
395.45	32.73
395.657	32.95
395.864	32.94
396.072	32.94
396.279	33.08
396.486	32.79
396.693	32.76
396.9	32.87
397.107	32.61
397.314	32.58
397.521	32.57
397.728	32.52
397.935	32.63
398.142	32.71
398.349	32.79
398.556	32.59
398.763	32.67
398.97	32.52
399.177	32.41
399.383	32.32
399.59	32.16
399.797	32.03
400.004	31.89
400.211	31.89
400.418	31.64
400.625	31.72
400.831	31.85
401.038	32.09
401.245	32.11
401.452	32.33
401.658	32.45
401.865	32.46
402.072	32.56
402.279	32.66
402.485	32.49
402.692	32.52
402.899	32.43
403.105	32.36
403.312	32.05
403.519	31.96
403.725	31.93
403.932	31.88
404.138	31.82
404.345	31.91
404.552	31.77
404.758	31.77
404.965	31.8
405.171	31.84
405.378	31.74
405.584	31.77
405.791	31.86
405.997	31.77
406.204	31.77
406.41	31.87
406.617	31.81
406.823	32.06
407.029	32.19
407.236	32.3
407.442	32.35
407.649	32.53
407.855	32.41
408.061	32.51
408.268	32.61
408.474	32.61
408.68	32.5
408.887	32.5
409.093	32.36
409.299	32.23
409.505	32.16
409.712	32.12
409.918	32.18
410.124	32.35
410.33	32.42
410.537	32.3
410.743	32.18
410.949	32.21
411.155	32.26
411.361	32.35
411.567	32.59
411.773	32.57
411.98	32.61
412.186	32.4
412.392	32.52
412.598	32.5
412.804	32.58
413.01	32.57
413.216	32.67
413.422	32.54
413.628	32.36
413.834	32.12
414.04	32.18
414.246	32.1
414.452	32.19
414.658	32.18
414.864	32.12
415.07	32.31
415.275	32.4
415.481	32.26
415.687	32.25
415.893	32.39
416.099	32.3
416.305	32.25
416.511	32.27
416.716	32.21
416.922	32.2
417.128	32.11
417.334	31.96
417.539	31.94
417.745	32.03
417.951	32.04
418.157	31.92
418.362	31.96
418.568	31.9
418.774	31.89
418.979	31.94
419.185	31.88
419.391	31.91
419.596	31.89
419.802	31.89
420.008	31.82
420.213	31.85
420.419	31.92
420.624	31.79
420.83	31.85
421.035	31.92
421.241	31.91
421.446	31.92
421.652	31.95
421.857	32.06
422.063	32.01
422.268	32.08
422.474	32.07
422.679	32.11
422.885	32.21
423.09	32.21
423.295	32.16
423.501	32.19
423.706	32.11
423.911	32.03
424.117	31.96
424.322	31.96
424.527	31.9
424.733	31.92
424.938	31.91
425.143	31.98
425.349	31.97
425.554	31.96
425.759	31.88
425.964	31.9
426.169	31.97
426.375	31.94
426.58	31.98
426.785	32.05
426.99	32.03
427.195	32.06
427.4	32.04
427.605	32.06
427.811	32.1
428.016	32.26
428.221	32.35
428.426	32.29
428.631	32.41
428.836	32.54
429.041	32.54
429.246	32.48
429.451	32.5
429.656	32.63
429.861	32.63
430.066	32.69
430.271	32.62
430.476	32.62
430.681	32.78
430.886	32.63
431.09	32.57
431.295	32.73
431.5	32.89
431.705	32.9
431.91	32.79
432.115	32.92
432.32	32.96
432.524	33.08
432.729	33.07
432.934	33
433.139	33.08
433.343	33.05
433.548	33.01
433.753	33.04
433.958	33.05
434.162	33.08
434.367	33.07
434.572	33.02
434.776	33.04
434.981	33.13
435.186	33.26
435.39	33.31
435.595	33.38
435.799	33.38
436.004	33.4
436.209	33.44
436.413	33.64
436.618	33.62
436.822	33.7
437.027	33.78
437.231	33.74
437.436	33.73
437.64	33.77
437.845	33.85
438.049	33.89
438.253	33.81
438.458	33.86
438.662	33.73
438.867	33.9
439.071	33.82
439.275	33.85
439.48	33.91
439.684	33.92
439.888	33.95
440.093	33.98
440.297	33.96
440.501	33.93
440.706	33.87
440.91	33.88
441.114	33.82
441.318	33.79
441.523	33.7
441.727	33.72
441.931	33.71
442.135	33.69
442.339	33.67
442.543	33.71
442.748	33.79
442.952	33.83
443.156	33.83
443.36	33.85
443.564	33.91
443.768	34.02
443.972	33.91
444.176	33.96
444.38	33.93
444.584	33.92
444.788	33.89
444.992	33.87
445.196	33.89
445.4	33.93
445.604	33.87
445.808	33.89
446.012	33.71
446.216	33.79
446.42	33.76
446.624	33.72
446.828	33.76
447.032	33.69
447.235	33.71
447.439	33.68
447.643	33.66
447.847	33.7
448.051	33.68
448.254	33.73
448.458	33.67
448.662	33.68
448.866	33.66
449.069	33.58
449.273	33.65
449.477	33.7
449.681	33.62
449.884	33.57
450.088	33.61
450.292	33.6
450.495	33.82
450.699	33.87
450.902	33.82
451.106	33.96
451.31	34.1
451.513	34.04
451.717	33.99
451.92	34.09
452.124	34.11
452.327	33.97
452.531	34.03
452.734	33.97
452.938	33.99
453.141	34.08
453.345	34.13
453.548	34.03
453.752	34.01
453.955	34.04
454.158	34.08
454.362	34.08
454.565	34.17
454.769	34.06
454.972	33.98
455.175	33.97
455.379	33.89
455.582	33.87
455.785	33.8
455.988	33.94
456.192	33.99
456.395	33.95
456.598	33.95
456.801	33.9
457.005	34.09
457.208	34.09
457.411	34.17
457.614	34.21
457.817	34.12
458.021	34.22
458.224	34.24
458.427	34.23
458.63	34.2
458.833	34.22
459.036	34.17
459.239	34.01
459.442	34
459.645	33.98
459.848	33.96
460.051	33.9
460.254	33.89
