Data from 2938717__Reflection_02.txt Node
Date: Tue Mar 17 18:48:40 EDT 2015
User: robert
Spectrometer: USB4E03002
Autoset integration time: false
Trigger mode: 4
Integration Time (sec): 1.000000E-1
Scans to average: 10
Electric dark correction enabled: false
Nonlinearity correction enabled: false
Boxcar width: 5
Stray light correction enabled: false
XAxis mode: Wavelengths
Stop averaging: false
Number of Pixels in Spectrum: 3648
>>>>>Begin Spectral Data<<<<<
177.575	196.11
177.794	218.89
178.014	1912.5
178.233	1285.71
178.452	-83.76
178.672	6.98
178.891	69.43
179.11	104.11
179.33	159.57
179.549	192.28
179.768	271.94
179.987	234.97
180.207	254.09
180.426	1060
180.645	629.2
180.864	-922.03
181.084	-3200
181.303	-117.54
181.522	-172.77
181.741	-133.51
181.96	-109.68
182.179	-28.38
182.398	-129.13
182.618	-277.51
182.837	-3150
183.056	-118.96
183.275	901.56
183.494	1648.78
183.713	675.57
183.932	-1819.51
184.151	1197.1
184.37	454.37
184.589	326.06
184.808	289.27
185.027	258.47
185.246	309.02
185.465	200.8
185.684	214.87
185.903	170
186.122	103.25
186.341	99.39
186.56	92.02
186.779	80.48
186.998	71.47
187.216	94.85
187.435	70.64
187.654	47.64
187.873	22.07
188.092	33.58
188.311	38.04
188.53	77.04
188.748	10.61
188.967	63.52
189.186	162.07
189.405	1290
189.623	15.76
189.842	68.14
190.061	75.51
190.28	228.13
190.498	175
190.717	105.41
190.936	193.1
191.154	145.95
191.373	205.56
191.592	177.85
191.81	262.8
192.029	305.59
192.248	162
192.466	246.36
192.685	165.92
192.904	194.59
193.122	210.2
193.341	201.33
193.559	222.45
193.778	165.57
193.996	114.63
194.215	95.17
194.433	71.64
194.652	93.3
194.87	94.74
195.089	-16.67
195.307	27.55
195.526	2.97
195.744	-44.37
195.963	26.58
196.181	-155.21
196.399	502.33
196.618	219.08
196.836	172.19
197.055	198.82
197.273	159.24
197.491	167
197.71	312.96
197.928	79.53
198.146	115.71
198.365	71.1
198.583	93.15
198.801	78.81
199.019	104.72
199.238	118.67
199.456	107.66
199.674	90.66
199.892	87.93
200.111	82.73
200.329	53.2
200.547	48.42
200.765	19.21
200.983	30.29
201.202	61.19
201.42	24.65
201.638	-15.13
201.856	6.87
202.074	107.86
202.292	172.79
202.51	202.98
202.728	793.18
202.946	417.86
203.165	475.51
203.383	257.56
203.601	171.31
203.819	112.78
204.037	123.93
204.255	133.13
204.473	134.74
204.691	128.05
204.909	111.22
205.127	122.74
205.345	104.89
205.562	117.19
205.78	119.51
205.998	121.88
206.216	169.24
206.434	190.52
206.652	178.92
206.87	159.48
207.088	152.82
207.306	163.96
207.523	51.83
207.741	124.39
207.959	122.22
208.177	191.21
208.395	297.26
208.612	216.67
208.83	112.95
209.048	98.94
209.266	89.93
209.483	145.37
209.701	144.4
209.919	326.27
210.136	100
210.354	72.64
210.572	34.85
210.79	47.31
211.007	65.52
211.225	44.54
211.442	47.47
211.66	47.58
211.878	51.43
212.095	22.78
212.313	11.59
212.53	-45.64
212.748	9.6
212.966	18.9
213.183	-54.87
213.401	-36.31
213.618	17.83
213.836	38.02
214.053	18.92
214.271	21.81
214.488	50.35
214.705	50.12
214.923	62.27
215.14	73.45
215.358	57.94
215.575	63.02
215.793	76.31
216.01	66.23
216.227	65.67
216.445	81.34
216.662	91.45
216.879	90.83
217.097	105.96
217.314	64.24
217.531	57.02
217.749	54.44
217.966	44.73
218.183	43.11
218.4	34.01
218.618	23.87
218.835	10.58
219.052	-0.22
219.269	-3.45
219.487	-2.17
219.704	1.64
219.921	9.72
220.138	20.6
220.355	33.22
220.572	34.95
220.79	40.57
221.007	38.95
221.224	39.92
221.441	39.68
221.658	45.94
221.875	42.19
222.092	42.24
222.309	39.04
222.526	33.24
222.743	28.58
222.96	24.55
223.177	21.89
223.394	21.09
223.611	25.23
223.828	27.72
224.045	19.1
224.262	25.58
224.479	22.6
224.696	20.42
224.913	21.99
225.13	25.97
225.347	22.91
225.564	20.02
225.781	21.17
225.997	21.4
226.214	18.4
226.431	16.39
226.648	12.6
226.865	11.85
227.082	12.27
227.298	11.81
227.515	10.14
227.732	10.62
227.949	10.15
228.165	10.01
228.382	9.08
228.599	8.07
228.816	8.67
229.032	8.03
229.249	8.22
229.466	8.54
229.682	8
229.899	7.36
230.116	6.76
230.332	7.81
230.549	7.25
230.765	6.91
230.982	6.99
231.199	6.67
231.415	7.99
231.632	8.29
231.848	6.99
232.065	8.06
232.281	8.38
232.498	8.77
232.714	8.17
232.931	9.61
233.147	10.32
233.364	11.48
233.58	9.78
233.797	8.34
234.013	7.72
234.23	7.2
234.446	5.12
234.662	5.29
234.879	6.59
235.095	5.97
235.312	5.17
235.528	4.91
235.744	4.45
235.961	5.79
236.177	6.26
236.393	7.84
236.61	7.51
236.826	9.06
237.042	8.4
237.258	8.3
237.475	9.44
237.691	7.69
237.907	7.71
238.123	5.86
238.339	6.98
238.556	6.1
238.772	5.48
238.988	5.93
239.204	4.31
239.42	4.66
239.636	4.88
239.853	4.73
240.069	5.75
240.285	6.59
240.501	6.57
240.717	6.34
240.933	6.9
241.149	7.02
241.365	6.94
241.581	7.69
241.797	7.36
242.013	7.25
242.229	6.83
242.445	6.98
242.661	6.63
242.877	7.35
243.093	6.94
243.309	6.64
243.525	6.05
243.741	6.17
243.957	5.81
244.173	6.16
244.388	5.72
244.604	5.53
244.82	5.13
245.036	5.82
245.252	5.97
245.468	6.42
245.683	6.69
245.899	7.3
246.115	7.49
246.331	7.66
246.547	7.47
246.762	7.73
246.978	7.6
247.194	7.37
247.409	6.79
247.625	6.18
247.841	5.96
248.057	5.61
248.272	5.26
248.488	5
248.703	5.1
248.919	5.19
249.135	4.56
249.35	4.97
249.566	5.37
249.782	5.5
249.997	6.33
250.213	6.76
250.428	7.64
250.644	8.27
250.859	8.58
251.075	7.63
251.29	7.01
251.506	7.86
251.721	7.14
251.937	6.36
252.152	6.45
252.368	6.88
252.583	6.67
252.798	6.31
253.014	6.1
253.229	6
253.445	6.5
253.66	7.43
253.875	7.02
254.091	7.76
254.306	9.18
254.521	8.46
254.737	7.58
254.952	7.35
255.167	7.22
255.383	7.4
255.598	7.34
255.813	6.28
256.028	6.16
256.244	6.48
256.459	5.53
256.674	4.82
256.889	4.59
257.104	5.32
257.32	5.45
257.535	5.08
257.75	4.38
257.965	4.16
258.18	4.28
258.395	3.94
258.61	4.02
258.826	4.31
259.041	4.27
259.256	4.4
259.471	4.27
259.686	4.41
259.901	4.49
260.116	4.68
260.331	4.65
260.546	5.03
260.761	5.2
260.976	5.23
261.191	5.29
261.406	5.63
261.621	5.86
261.836	5.75
262.05	5.42
262.265	5.09
262.48	4.97
262.695	4.8
262.91	4.15
263.125	4.13
263.34	4.07
263.555	3.9
263.769	3.28
263.984	3.19
264.199	3.05
264.414	3.46
264.629	4.42
264.843	4.52
265.058	5.08
265.273	5.02
265.488	5.25
265.702	5.36
265.917	5.33
266.132	5.07
266.346	5.09
266.561	5.45
266.776	5.32
266.99	5.73
267.205	5.79
267.42	5.44
267.634	5.3
267.849	5.02
268.063	4.88
268.278	5.04
268.492	5.24
268.707	5.05
268.922	4.77
269.136	4.61
269.351	4.14
269.565	4.12
269.78	4.14
269.994	4.46
270.209	4.46
270.423	4.17
270.637	3.98
270.852	4.05
271.066	4.51
271.281	4.5
271.495	4.72
271.709	4.51
271.924	4.54
272.138	4.68
272.353	4.64
272.567	4.08
272.781	4.23
272.996	3.92
273.21	3.86
273.424	3.39
273.638	3.22
273.853	3.26
274.067	3.34
274.281	3.49
274.495	3.72
274.71	3.64
274.924	4.21
275.138	3.95
275.352	4.08
275.566	4.11
275.781	4.17
275.995	4.45
276.209	4.17
276.423	4.17
276.637	4.21
276.851	3.95
277.065	4.03
277.279	3.82
277.493	3.96
277.707	3.75
277.921	3.98
278.135	4.18
278.349	4.06
278.563	4.28
278.777	3.75
278.991	3.18
279.205	3.02
279.419	2.93
279.633	3.23
279.847	3.49
280.061	3.9
280.275	3.86
280.489	3.86
280.703	3.84
280.917	3.38
281.131	3.55
281.344	3.8
281.558	3.83
281.772	3.85
281.986	3.34
282.2	3.42
282.414	3.58
282.627	3.04
282.841	3.04
283.055	3.09
283.269	3.64
283.482	3.58
283.696	3.36
283.91	3.32
284.123	3.15
284.337	3.31
284.551	2.92
284.764	2.81
284.978	3.29
285.192	3.48
285.405	3.65
285.619	3.51
285.833	3.89
286.046	4.12
286.26	4.28
286.473	4.71
286.687	4.76
286.9	4.85
287.114	4.96
287.327	5.09
287.541	5.08
287.754	5.07
287.968	4.85
288.181	4.64
288.395	4.46
288.608	4.51
288.822	4.38
289.035	4.47
289.248	4.47
289.462	4.45
289.675	4.36
289.889	4.47
290.102	4.04
290.315	4.41
290.529	4.51
290.742	4.34
290.955	4.28
291.169	4.04
291.382	4.55
291.595	4.92
291.808	4.82
292.022	4.64
292.235	4.45
292.448	4.9
292.661	4.51
292.875	4.45
293.088	4.92
293.301	5.08
293.514	5.27
293.727	5.04
293.94	4.89
294.153	4.83
294.367	5.22
294.58	5.2
294.793	5.23
295.006	5.63
295.219	5.87
295.432	5.83
295.645	5.78
295.858	5.75
296.071	5.55
296.284	5.77
296.497	5.8
296.71	5.59
296.923	5.6
297.136	5.49
297.349	5.38
297.562	5.32
297.775	5.46
297.988	5.6
298.201	5.86
298.414	5.89
298.626	5.6
298.839	5.83
299.052	5.75
299.265	5.56
299.478	5.54
299.691	5.87
299.903	5.82
300.116	5.3
300.329	5.19
300.542	5.13
300.755	5.13
300.967	5.27
301.18	5.4
301.393	5.68
301.605	6.03
301.818	6.04
302.031	5.65
302.243	5.42
302.456	5.76
302.669	5.9
302.881	5.68
303.094	5.86
303.307	6.14
303.519	6.25
303.732	6.52
303.944	6.83
304.157	7.05
304.37	7.11
304.582	7.22
304.795	7.05
305.007	7.03
305.22	7.19
305.432	7.04
305.645	6.76
305.857	6.52
306.069	6.3
306.282	5.75
306.494	5.48
306.707	5.51
306.919	5.7
307.132	5.95
307.344	5.93
307.556	5.79
307.769	5.87
307.981	5.78
308.193	5.6
308.406	5.48
308.618	6.06
308.83	6.54
309.043	6.47
309.255	6.81
309.467	6.88
309.679	7.07
309.892	7.24
310.104	6.92
310.316	6.94
310.528	7.43
310.74	7.53
310.953	7.39
311.165	7.32
311.377	7.25
311.589	7.14
311.801	7.13
312.013	7.02
312.225	6.77
312.437	7.6
312.649	7.76
312.862	7.1
313.074	7.2
313.286	7.24
313.498	7.5
313.71	8.24
313.922	8.21
314.134	8.18
314.346	8.4
314.558	8.97
314.77	8.66
314.982	8.8
315.193	9.18
315.405	9.49
315.617	9.9
315.829	9.49
316.041	9.19
316.253	9.1
316.465	9.13
316.677	9.06
316.888	8.84
317.1	8.88
317.312	8.88
317.524	9.44
317.736	9.08
317.947	9.21
318.159	9.76
318.371	9.56
318.583	9.75
318.794	9.72
319.006	9.71
319.218	9.7
319.43	9.39
319.641	9.47
319.853	8.84
320.064	8.84
320.276	8.8
320.488	8.61
320.699	8.18
320.911	7.93
321.123	8.23
321.334	8.01
321.546	8.3
321.757	8.78
321.969	9.17
322.18	9.39
322.392	9.54
322.603	9.08
322.815	8.9
323.026	9.37
323.238	10.06
323.449	10.18
323.661	10.72
323.872	10.4
324.083	10.27
324.295	10.38
324.506	10.78
324.718	10.64
324.929	10.74
325.14	11.27
325.352	11.26
325.563	10.97
325.774	10.96
325.986	10.58
326.197	10.63
326.408	10.72
326.62	10.43
326.831	10.44
327.042	11.02
327.253	11.2
327.464	11.03
327.676	11.23
327.887	11.23
328.098	11.44
328.309	11.69
328.52	12.05
328.732	12.06
328.943	12.32
329.154	12.15
329.365	11.92
329.576	11.98
329.787	12.21
329.998	12.42
330.209	12.68
330.42	13.09
330.631	13.12
330.842	13.5
331.053	13.76
331.264	13.75
331.475	13.95
331.686	13.96
331.897	13.67
332.108	13.86
332.319	13.87
332.53	13.89
332.741	13.6
332.952	13.65
333.163	13.34
333.374	13.14
333.585	13.14
333.795	13.13
334.006	13.16
334.217	13.52
334.428	13.64
334.639	13.82
334.849	14.08
335.06	14.12
335.271	14.47
335.482	14.58
335.692	14.56
335.903	14.6
336.114	14.79
336.325	14.74
336.535	14.75
336.746	14.38
336.957	14
337.167	14.21
337.378	14.05
337.589	13.89
337.799	13.9
338.01	14.04
338.22	13.95
338.431	13.8
338.642	14.33
338.852	14.29
339.063	14.37
339.273	14.76
339.484	14.29
339.694	14.38
339.905	14.68
340.115	14.85
340.326	14.8
340.536	15.03
340.746	14.81
340.957	14.45
341.167	14.51
341.378	14.43
341.588	14.44
341.799	14.72
342.009	14.84
342.219	14.25
342.43	13.87
342.64	13.91
342.85	13.77
343.061	14.01
343.271	13.85
343.481	13.56
343.691	13.5
343.902	13.34
344.112	13.22
344.322	12.96
344.532	12.9
344.743	13.09
344.953	13.33
345.163	13.41
345.373	13.2
345.583	13.31
345.793	13.23
346.004	13.28
346.214	13.44
346.424	13.29
346.634	13.28
346.844	13.56
347.054	13.3
347.264	13.1
347.474	13.23
347.684	13.39
347.894	13.38
348.104	13.7
348.314	13.72
348.524	13.75
348.734	13.37
348.944	13.49
349.154	13.47
349.364	13.7
349.574	13.5
349.784	13.36
349.994	13.3
350.204	13.21
350.413	13.13
350.623	13.14
350.833	12.96
351.043	13.37
351.253	13.39
351.463	13.37
351.672	13.3
351.882	13.47
352.092	13.29
352.302	13.17
352.511	13.13
352.721	13.12
352.931	12.92
353.141	13.16
353.35	13.11
353.56	12.8
353.77	12.62
353.979	12.86
354.189	12.74
354.399	12.79
354.608	12.9
354.818	12.98
355.027	13.06
355.237	13.28
355.447	12.97
355.656	12.84
355.866	13.04
356.075	12.97
356.285	12.82
356.494	12.84
356.704	12.77
356.913	12.92
357.123	12.66
357.332	12.62
357.542	12.64
357.751	12.77
357.96	12.82
358.17	12.63
358.379	12.67
358.589	12.46
358.798	12.53
359.007	12.52
359.217	12.53
359.426	12.48
359.635	12.55
359.845	12.33
360.054	12.25
360.263	12.22
360.472	12.36
360.682	12.43
360.891	12.72
361.1	12.63
361.309	12.69
361.519	12.7
361.728	12.96
361.937	12.88
362.146	13
362.355	12.85
362.564	12.8
362.774	12.81
362.983	12.87
363.192	12.68
363.401	12.88
363.61	12.73
363.819	12.51
364.028	12.34
364.237	12.1
364.446	12
364.655	12.05
364.864	12.17
365.073	12.23
365.282	12.08
365.491	12.1
365.7	11.96
365.909	11.92
366.118	11.89
366.327	11.95
366.536	11.95
366.745	11.96
366.954	12.18
367.162	12
367.371	11.91
367.58	11.91
367.789	11.61
367.998	11.3
368.207	11.28
368.415	11.32
368.624	11.42
368.833	11.6
369.042	11.29
369.25	11.15
369.459	11.16
369.668	11.17
369.877	10.92
370.085	11.1
370.294	11.11
370.503	10.89
370.711	10.84
370.92	10.57
371.129	10.55
371.337	10.62
371.546	10.37
371.754	10.49
371.963	10.34
372.171	10.6
372.38	10.36
372.589	10.35
372.797	10.62
373.006	10.63
373.214	10.68
373.423	10.53
373.631	10.55
373.84	10.7
374.048	10.41
374.256	10.38
374.465	10.11
374.673	10.33
374.882	10.19
375.09	10.07
375.298	10.02
375.507	9.88
375.715	9.95
375.923	9.84
376.132	9.75
376.34	9.72
376.548	9.86
376.757	9.82
376.965	9.67
377.173	9.69
377.381	9.72
377.59	9.45
377.798	9.4
378.006	9.19
378.214	9.08
378.423	9.01
378.631	9.08
378.839	9.02
379.047	9.23
379.255	9.23
379.463	9.25
379.671	8.95
379.879	8.95
380.088	9.01
380.296	8.84
380.504	9.06
380.712	8.97
380.92	8.82
381.128	8.56
381.336	8.25
381.544	8.21
381.752	8.26
381.96	8.21
382.168	8.17
382.376	8.09
382.584	8.08
382.791	7.97
382.999	8.21
383.207	8.38
383.415	8.5
383.623	8.52
383.831	8.35
384.039	8.16
384.247	8.51
384.454	8.7
384.662	8.56
384.87	8.65
385.078	8.54
385.285	8.54
385.493	8.22
385.701	8
385.909	7.87
386.116	8.09
386.324	7.94
386.532	7.59
386.739	7.36
386.947	7.59
387.155	7.7
387.362	7.75
387.57	7.69
387.778	7.88
387.985	7.88
388.193	8.03
388.4	7.88
388.608	8.13
388.816	8.13
389.023	8.22
389.231	7.93
389.438	7.82
389.646	7.64
389.853	7.3
390.061	7.29
390.268	7.23
390.475	7.1
390.683	7
390.89	6.95
391.098	6.85
391.305	6.9
391.512	7.05
391.72	6.91
391.927	7.07
392.135	7.23
392.342	7.26
392.549	7.19
392.756	7.16
392.964	7.24
393.171	7.26
393.378	7.37
393.586	7.39
393.793	7.22
394	7.13
394.207	6.89
394.414	6.71
394.622	6.55
394.829	6.7
395.036	6.46
395.243	6.45
395.45	6.39
395.657	6.29
395.864	6.16
396.072	6.42
396.279	6.51
396.486	6.59
396.693	6.62
396.9	6.58
397.107	6.57
397.314	6.81
397.521	6.77
397.728	6.59
397.935	6.54
398.142	6.46
398.349	6.36
398.556	6.21
398.763	6.13
398.97	6.27
399.177	6.19
399.383	6.05
399.59	6.01
399.797	5.93
400.004	6.06
400.211	6.05
400.418	5.81
400.625	5.62
400.831	5.89
401.038	6.02
401.245	5.85
401.452	6
401.658	6
401.865	6.03
402.072	6.06
402.279	5.92
402.485	5.87
402.692	6.08
402.899	5.98
403.105	5.69
403.312	5.74
403.519	5.67
403.725	5.37
403.932	5.32
404.138	5.31
404.345	5.33
404.552	5.38
404.758	5.35
404.965	5.17
405.171	5.19
405.378	5.24
405.584	5
405.791	5.01
405.997	5.24
406.204	5.42
406.41	5.25
406.617	5.1
406.823	5.07
407.029	5.19
407.236	5.33
407.442	5.35
407.649	5.49
407.855	5.66
408.061	5.58
408.268	5.35
408.474	5
408.68	5.07
408.887	5.07
409.093	5.07
409.299	5.06
409.505	5.08
409.712	5.12
409.918	4.94
410.124	4.86
410.33	4.87
410.537	5.02
410.743	5.35
410.949	5.31
411.155	5.48
411.361	5.4
411.567	5.46
411.773	5.48
411.98	5.47
412.186	5.44
412.392	5.38
412.598	5.49
412.804	5.38
413.01	5.28
413.216	5.41
413.422	5.21
413.628	5.27
413.834	5.12
414.04	5.06
414.246	4.96
414.452	4.93
414.658	4.99
414.864	4.94
415.07	4.94
415.275	4.84
415.481	4.73
415.687	4.79
415.893	4.76
416.099	4.86
416.305	4.8
416.511	4.82
416.716	4.96
416.922	4.86
417.128	4.92
417.334	4.95
417.539	4.93
417.745	4.87
417.951	4.81
418.157	4.82
418.362	4.74
418.568	4.75
418.774	4.79
418.979	4.81
419.185	4.82
419.391	4.74
419.596	4.8
419.802	4.77
420.008	4.8
420.213	5.45
420.419	5.44
420.624	5.44
420.83	5.43
421.035	5.35
421.241	5.3
421.446	5.35
421.652	5.36
421.857	5.29
422.063	5.3
422.268	5.3
422.474	4.67
422.679	4.65
422.885	4.65
423.09	4.56
423.295	4.54
423.501	4.44
423.706	4.39
423.911	4.31
424.117	4.31
424.322	4.31
424.527	4.28
424.733	4.26
424.938	4.22
425.143	4.2
425.349	4.31
425.554	4.3
425.759	4.33
425.964	4.28
426.169	4.27
426.375	4.23
426.58	4.22
426.785	4.25
426.99	4.4
427.195	4.46
427.4	4.44
427.605	4.39
427.811	4.38
428.016	4.44
428.221	4.5
428.426	4.52
428.631	4.59
428.836	4.49
429.041	4.46
429.246	4.36
429.451	4.28
429.656	4.26
429.861	4.21
430.066	4.23
430.271	4.22
430.476	4.19
430.681	4.27
430.886	4.27
431.09	4.35
431.295	4.34
431.5	4.39
431.705	4.39
431.91	4.43
432.115	4.38
432.32	4.46
432.524	4.58
432.729	4.53
432.934	4.53
433.139	4.49
433.343	4.58
433.548	4.61
433.753	4.51
433.958	4.5
434.162	4.51
434.367	4.68
434.572	4.61
434.776	4.39
434.981	4.46
435.186	4.53
435.39	4.65
435.595	4.5
435.799	4.55
436.004	4.59
436.209	4.6
436.413	4.56
436.618	4.43
436.822	4.44
437.027	4.57
437.231	4.6
437.436	4.51
437.64	4.39
437.845	4.51
438.049	4.54
438.253	4.56
438.458	4.52
438.662	4.54
438.867	4.57
439.071	4.61
439.275	4.65
439.48	4.59
439.684	4.66
439.888	4.74
440.093	4.68
440.297	4.59
440.501	4.54
440.706	4.58
440.91	4.58
441.114	4.6
441.318	4.59
441.523	4.61
441.727	4.67
441.931	4.57
442.135	4.5
442.339	4.48
442.543	4.54
442.748	4.64
442.952	4.62
443.156	4.62
443.36	4.57
443.564	4.63
443.768	4.51
443.972	4.51
444.176	4.52
444.38	4.59
444.584	4.6
444.788	4.55
444.992	4.45
445.196	4.53
445.4	4.48
445.604	4.49
445.808	4.42
446.012	4.45
446.216	4.39
446.42	4.42
446.624	4.35
446.828	4.34
447.032	4.36
447.235	4.34
447.439	4.26
447.643	4.33
447.847	4.32
448.051	4.31
448.254	4.27
448.458	4.29
448.662	4.29
448.866	4.31
449.069	4.36
449.273	4.3
449.477	4.31
449.681	4.23
449.884	4.21
450.088	4.19
450.292	4.18
450.495	4.21
450.699	4.16
450.902	4.09
451.106	4.06
451.31	4.03
451.513	3.96
451.717	3.96
451.92	4.06
452.124	4.02
452.327	4.14
452.531	4.1
452.734	4.1
452.938	4.1
453.141	4.03
453.345	3.98
453.548	4.04
453.752	4.16
453.955	4.18
454.158	4.12
454.362	4.13
454.565	4.12
454.769	4.24
454.972	4.24
455.175	4.28
455.379	4.38
455.582	4.42
455.785	4.39
455.988	4.35
456.192	4.36
456.395	4.36
456.598	4.36
456.801	4.21
457.005	4.07
457.208	4.13
457.411	4.14
457.614	4.14
457.817	4.16
458.021	4.11
458.224	4.14
458.427	4.08
458.63	4.14
458.833	4.21
459.036	4.21
459.239	4.3
459.442	4.25
459.645	4.21
459.848	4.24
460.051	4.21
460.254	4.25
460.457	4.23
460.66	4.3
460.863	4.23
461.066	4.12
461.269	4.21
461.472	4.17
461.675	4.23
461.878	4.28
462.081	4.25
462.284	4.23
462.486	4.25
462.689	4.24
462.892	4.2
463.095	4.22
463.298	4.29
463.5	4.26
463.703	4.32
463.906	4.24
464.109	4.21
464.311	4.26
464.514	4.31
464.717	4.37
464.92	4.39
465.122	4.4
465.325	4.52
465.528	4.45
465.73	4.46
465.933	4.42
466.135	4.37
466.338	4.32
466.541	4.24
466.743	4.22
466.946	4.1
467.148	4.09
467.351	4.17
467.553	4.02
467.756	4.03
467.958	3.95
