Data from 2938744__Reflection_03.txt Node
Date: Sun Mar 15 11:53:03 EDT 2015
User: robert
Spectrometer: USB4E03002
Autoset integration time: false
Trigger mode: 4
Integration Time (sec): 1.000000E-1
Scans to average: 10
Electric dark correction enabled: false
Nonlinearity correction enabled: false
Boxcar width: 5
Stray light correction enabled: false
XAxis mode: Wavelengths
Stop averaging: false
Number of Pixels in Spectrum: 3648
>>>>>Begin Spectral Data<<<<<
177.575	544.4
177.794	433.6
178.014	696.23
178.233	834.76
178.452	1022.71
178.672	1563.51
178.891	1745.86
179.11	-5109.3
179.33	-1292.17
179.549	-1107.69
179.768	-1606.29
179.987	-3066.23
180.207	-833.69
180.426	-5017.31
180.645	-3785.07
180.864	-35942.86
181.084	2325.89
181.303	-12200
181.522	1460.1
181.741	1304.67
181.96	2288.62
182.179	656.25
182.398	602.91
182.618	438.53
182.837	442.94
183.056	412.66
183.275	454.41
183.494	500.35
183.713	422.78
183.932	380.31
184.151	325.65
184.37	309.13
184.589	459
184.808	470.72
185.027	501.31
185.246	513.81
185.465	444.23
185.684	471.87
185.903	443.35
186.122	376.22
186.341	587.5
186.56	1005.67
186.779	797.1
186.998	694.99
187.216	807.09
187.435	1517.83
187.654	1486.31
187.873	4990
188.092	1731.48
188.311	1220.35
188.53	1916.67
188.748	1731.69
188.967	1342.67
189.186	1490.38
189.405	1230.62
189.623	1671.73
189.842	1109.66
190.061	1107.59
190.28	1053.2
190.498	1875.97
190.717	1461
190.936	2174.6
191.154	1453.63
191.373	1322.9
191.592	657.49
191.81	557.84
192.029	466.24
192.248	499.84
192.466	685.35
192.685	609.38
192.904	471.49
193.122	645.31
193.341	717.08
193.559	544.59
193.778	578.88
193.996	1162.25
194.215	1803.03
194.433	-8444.44
194.652	2592.05
194.87	1855.38
195.089	2659.3
195.307	4415.09
195.526	1699.37
195.744	3535.06
195.963	-3004.21
196.181	-6565.12
196.399	-5902
196.618	-2452.8
196.836	-2593.97
197.055	-1183.33
197.273	-1421.84
197.491	-1670.06
197.71	-5219.64
197.928	-2759.18
198.146	-2111.86
198.365	-2236.7
198.583	-4510.34
198.801	7876.47
199.019	1648.15
199.238	898.38
199.456	648.3
199.674	915.69
199.892	1199.57
200.111	1403.11
200.329	1610.53
200.547	643.84
200.765	476.11
200.983	447.85
201.202	419.28
201.42	485.67
201.638	449.16
201.856	524.09
202.074	371.41
202.292	299.03
202.51	375.77
202.728	333.05
202.946	419.79
203.165	520.96
203.383	521.95
203.601	516.97
203.819	489.83
204.037	504.35
204.255	431.74
204.473	350.9
204.691	382.88
204.909	354.5
205.127	382.01
205.345	312.8
205.562	295.34
205.78	402.44
205.998	506.47
206.216	605.45
206.434	623.17
206.652	855.16
206.87	2312.5
207.088	8852.94
207.306	1402.28
207.523	2039.87
207.741	2209.72
207.959	2585.95
208.177	973.78
208.395	688.76
208.612	565.84
208.83	591.32
209.048	607.41
209.266	441.2
209.483	403.83
209.701	484.69
209.919	516.39
210.136	412.43
210.354	369.05
210.572	538.25
210.79	507.32
211.007	427.68
211.225	388.3
211.442	341.22
211.66	368.57
211.878	433.06
212.095	286.52
212.313	255.78
212.53	282.47
212.748	303.93
212.966	270.86
213.183	253.78
213.401	260.06
213.618	263.21
213.836	245.74
214.053	246.36
214.271	226.32
214.488	345.34
214.705	304.31
214.923	310.03
215.14	287.47
215.358	276.07
215.575	346.54
215.793	290.54
216.01	283.8
216.227	280.15
216.445	273.98
216.662	292.73
216.879	271.42
217.097	282.74
217.314	275.47
217.531	249.15
217.749	235.21
217.966	217.28
218.183	257.55
218.4	252.03
218.618	265.1
218.835	260.95
219.052	212.82
219.269	220.15
219.487	229.07
219.704	226.82
219.921	253.56
220.138	248.4
220.355	199.93
220.572	178.94
220.79	179.03
221.007	169.18
221.224	158.22
221.441	158.33
221.658	147.94
221.875	135.61
222.092	124.19
222.309	112.95
222.526	113.64
222.743	116.62
222.96	117.56
223.177	115.77
223.394	110.52
223.611	111.26
223.828	112.12
224.045	103.67
224.262	102.92
224.479	101.89
224.696	96.76
224.913	95.27
225.13	86.83
225.347	80.43
225.564	71.26
225.781	68.75
225.997	63.51
226.214	60.24
226.431	56.68
226.648	50.72
226.865	46.83
227.082	42.54
227.298	37.09
227.515	32.01
227.732	28.34
227.949	26.5
228.165	24.23
228.382	22.86
228.599	20.77
228.816	19.09
229.032	18.92
229.249	18.38
229.466	18.32
229.682	17.71
229.899	19.17
230.116	19.75
230.332	20.57
230.549	21.07
230.765	22.68
230.982	23.75
231.199	25.16
231.415	24.76
231.632	26.2
231.848	27.06
232.065	28.59
232.281	26.98
232.498	26.84
232.714	28.53
232.931	32.59
233.147	33.07
233.364	32.37
233.58	31.26
233.797	32.12
234.013	31.82
234.23	30.36
234.446	29
234.662	30.54
234.879	31.4
235.095	31.41
235.312	28.98
235.528	27.77
235.744	29.59
235.961	30.16
236.177	30.78
236.393	32.33
236.61	35.97
236.826	36.58
237.042	36.69
237.258	35.84
237.475	34.25
237.691	33.82
237.907	34.21
238.123	31.08
238.339	32.06
238.556	32.37
238.772	30.76
238.988	29.47
239.204	31.13
239.42	30.77
239.636	29.7
239.853	29.06
240.069	28.22
240.285	25.75
240.501	25.15
240.717	23.32
240.933	20.83
241.149	18.61
241.365	16.47
241.581	14.05
241.797	13.08
242.013	12.53
242.229	11.27
242.445	10.86
242.661	10.78
242.877	10.76
243.093	10.62
243.309	11.35
243.525	12.17
243.741	13.15
243.957	14.39
244.173	14.16
244.388	14.57
244.604	15.03
244.82	15.29
245.036	14.75
245.252	14.29
245.468	13.56
245.683	12.17
245.899	11.15
246.115	9.49
246.331	8.43
246.547	8.57
246.762	8.13
246.978	7.92
247.194	7.79
247.409	7.77
247.625	7.54
247.841	7.62
248.057	7.81
248.272	8.12
248.488	8.43
248.703	8.78
248.919	9.23
249.135	10.15
249.35	11.06
249.566	11.56
249.782	12.34
249.997	13.03
250.213	13.26
250.428	13.63
250.644	13.45
250.859	14.48
251.075	14.11
251.29	13.74
251.506	13.23
251.721	13.2
251.937	12.8
252.152	12.78
252.368	11.93
252.583	12.51
252.798	12.75
253.014	12.98
253.229	13.05
253.445	13.95
253.66	15.06
253.875	15.78
254.091	16.35
254.306	17.58
254.521	17.88
254.737	19.91
254.952	21.16
255.167	21.12
255.383	20.81
255.598	21.28
255.813	21.37
256.028	20.14
256.244	19.21
256.459	18.14
256.674	16.96
256.889	15.23
257.104	15.15
257.32	13.7
257.535	13.23
257.75	12.99
257.965	11.26
258.18	10
258.395	9.23
258.61	8.29
258.826	7.64
259.041	7.03
259.256	7.14
259.471	6.49
259.686	5.87
259.901	5.38
260.116	4.91
260.331	5.17
260.546	5.3
260.761	5.41
260.976	5.6
261.191	5.99
261.406	6.42
261.621	6.69
261.836	6.99
262.05	7.68
262.265	9.09
262.48	9.9
262.695	10.14
262.91	10.65
263.125	11.31
263.34	12.01
263.555	12.85
263.769	13.21
263.984	13.9
264.199	14.23
264.414	14.11
264.629	13.69
264.843	13.84
265.058	13.9
265.273	13.55
265.488	12.85
265.702	12.47
265.917	11.18
266.132	10.81
266.346	10.35
266.561	10.37
266.776	10.35
266.99	10.64
267.205	10.38
267.42	10.24
267.634	10.44
267.849	10.26
268.063	10.35
268.278	10.71
268.492	10.72
268.707	10.62
268.922	10.72
269.136	10.43
269.351	10.05
269.565	9.83
269.78	8.97
269.994	8.58
270.209	8.48
270.423	8.53
270.637	8.37
270.852	7.85
271.066	7.48
271.281	7.4
271.495	6.99
271.709	6.59
271.924	7.07
272.138	7.54
272.353	7.53
272.567	7.82
272.781	7.81
272.996	7.64
273.21	7.83
273.424	8.25
273.638	8
273.853	8.58
274.067	8.45
274.281	8.39
274.495	8.39
274.71	8.54
274.924	8.69
275.138	8.74
275.352	9.23
275.566	9.78
275.781	9.53
275.995	9.78
276.209	10.24
276.423	10.73
276.637	10.29
276.851	10.55
277.065	10.53
277.279	10.53
277.493	10.26
277.707	10.03
277.921	10.16
278.135	10.2
278.349	9.83
278.563	9.54
278.777	9.87
278.991	9.75
279.205	9.61
279.419	9.97
279.633	9.78
279.847	9.29
280.061	9.31
280.275	8.61
280.489	8.78
280.703	8.59
280.917	8.23
281.131	7.35
281.344	7.56
281.558	7.6
281.772	7.35
281.986	7.27
282.2	7.63
282.414	7.55
282.627	7.36
282.841	7.23
283.055	7.62
283.269	7.95
283.482	7.89
283.696	7.83
283.91	7.63
284.123	7.26
284.337	6.97
284.551	6.81
284.764	6.73
284.978	6.8
285.192	6.67
285.405	6.63
285.619	6.4
285.833	6.47
286.046	6.49
286.26	6.49
286.473	6.73
286.687	6.72
286.9	6.94
287.114	6.91
287.327	7.05
287.541	6.73
287.754	6.9
287.968	7.08
288.181	7.1
288.395	6.63
288.608	6.76
288.822	6.53
289.035	6.59
289.248	6.53
289.462	6.48
289.675	6.29
289.889	6.62
290.102	6.02
290.315	6.1
290.529	6.34
290.742	6.66
290.955	6.72
291.169	6.76
291.382	7.09
291.595	7.43
291.808	7.31
292.022	8.12
292.235	8.04
292.448	8.24
292.661	7.83
292.875	8.06
293.088	8.57
293.301	8.53
293.514	8.61
293.727	8.13
293.94	7.73
294.153	8
294.367	7.46
294.58	7.89
294.793	7.91
295.006	7.97
295.219	7.69
295.432	7.22
295.645	7.16
295.858	7.04
296.071	7.09
296.284	6.65
296.497	6.55
296.71	6.56
296.923	6.26
297.136	5.89
297.349	5.83
297.562	5.62
297.775	5.55
297.988	5.81
298.201	6.17
298.414	6.41
298.626	6.78
298.839	6.84
299.052	6.91
299.265	7.28
299.478	7.82
299.691	8.29
299.903	8.79
300.116	8.92
300.329	8.72
300.542	8.29
300.755	8.13
300.967	8.04
301.18	8.32
301.393	8.68
301.605	8.51
301.818	8.67
302.031	8.59
302.243	8.79
302.456	9.01
302.669	8.78
302.881	9.2
303.094	9.4
303.307	9.82
303.519	9.59
303.732	9.12
303.944	9.25
304.157	9.39
304.37	9.42
304.582	9.08
304.795	8.81
305.007	8.8
305.22	8.9
305.432	9.01
305.645	8.58
305.857	8.91
306.069	9.1
306.282	8.89
306.494	8.33
306.707	8.46
306.919	8.51
307.132	8.63
307.344	8.47
307.556	8.02
307.769	7.81
307.981	7.91
308.193	7.42
308.406	7
308.618	6.84
308.83	6.95
309.043	6.94
309.255	6.71
309.467	6.84
309.679	6.82
309.892	6.77
310.104	6.82
310.316	6.52
310.528	6.6
310.74	6.55
310.953	6.69
311.165	6.82
311.377	6.6
311.589	6.74
311.801	6.85
312.013	6.92
312.225	7.06
312.437	7.23
312.649	7.57
312.862	7.61
313.074	8.14
313.286	8.22
313.498	8.23
313.71	8.49
313.922	8.51
314.134	8.94
314.346	9.48
314.558	9.55
314.77	9.23
314.982	9.55
315.193	9.99
315.405	9.62
315.617	9.53
315.829	9.89
316.041	9.86
316.253	9.99
316.465	9.82
316.677	9.87
316.888	10.29
317.1	10.17
317.312	10.39
317.524	10.37
317.736	11.35
317.947	11.9
318.159	11.86
318.371	12.29
318.583	12.58
318.794	12.46
319.006	11.82
319.218	11.53
319.43	11.94
319.641	11.67
319.853	12.22
320.064	12.05
320.276	12.01
320.488	11.8
320.699	11.76
320.911	12.04
321.123	12.02
321.334	12.78
321.546	13.01
321.757	12.93
321.969	13.36
322.18	13.13
322.392	13.38
322.603	13.35
322.815	14.01
323.026	13.77
323.238	13.4
323.449	13.37
323.661	13.55
323.872	13.82
324.083	13.68
324.295	13.88
324.506	14.12
324.718	13.81
324.929	13.86
325.14	13.74
325.352	14.07
325.563	14.32
325.774	14.38
325.986	14.15
326.197	13.97
326.408	15.07
326.62	15.06
326.831	14.88
327.042	15.58
327.253	16.17
327.464	16.81
327.676	17.78
327.887	18.32
328.098	19.18
328.309	20.24
328.52	21.36
328.732	21.48
328.943	21.97
329.154	22.33
329.365	22.39
329.576	23.16
329.787	23.64
329.998	23.47
330.209	23.67
330.42	23.82
330.631	23.74
330.842	24.22
331.053	24.77
331.264	24.77
331.475	25.49
331.686	26.05
331.897	26.15
332.108	26.24
332.319	26.24
332.53	27.06
332.741	27.61
332.952	28.33
333.163	27.76
333.374	27.21
333.585	27.78
333.795	28.15
334.006	28.09
334.217	28.43
334.428	28.18
334.639	28.68
334.849	28.75
335.06	28.78
335.271	28.81
335.482	29.62
335.692	30.22
335.903	30.54
336.114	30.08
336.325	30.38
336.535	30.38
336.746	30.78
336.957	30.98
337.167	31.15
337.378	31.53
337.589	31.43
337.799	31.24
338.01	31.52
338.22	31.59
338.431	32.16
338.642	32.14
338.852	32.3
339.063	32.62
339.273	32.49
339.484	32.06
339.694	32.04
339.905	32.01
340.115	32.42
340.326	32.4
340.536	32.35
340.746	32.21
340.957	32.48
341.167	32.34
341.378	31.96
341.588	32.07
341.799	32.53
342.009	32.3
342.219	32.52
342.43	32.03
342.64	31.72
342.85	31.76
343.061	31.69
343.271	31.35
343.481	31.36
343.691	31.63
343.902	31.35
344.112	31.37
344.322	31.5
344.532	31.19
344.743	31.48
344.953	31.81
345.163	31.71
345.373	32.02
345.583	32
345.793	31.91
346.004	31.99
346.214	32.1
346.424	31.59
346.634	31.56
346.844	31.75
347.054	31.61
347.264	31.66
347.474	31.42
347.684	31.16
347.894	31.17
348.104	31.27
348.314	31.17
348.524	31.52
348.734	31.59
348.944	31.82
349.154	31.56
349.364	31.24
349.574	31.04
349.784	31.54
349.994	31.77
350.204	31.95
350.413	31.86
350.623	31.83
350.833	31.47
351.043	31.65
351.253	31.28
351.463	31.41
351.672	31.89
351.882	32.02
352.092	31.54
352.302	31.29
352.511	31.43
352.721	31
352.931	30.73
353.141	30.6
353.35	30.31
353.56	30.31
353.77	30.88
353.979	30.39
354.189	30.25
354.399	30.31
354.608	30.43
354.818	30.16
355.027	30.41
355.237	30.54
355.447	30.35
355.656	30.49
355.866	30.56
356.075	29.94
356.285	30.33
356.494	30.3
356.704	30.2
356.913	30.04
357.123	29.86
357.332	29.78
357.542	29.69
357.751	29.62
357.96	29.63
358.17	29.63
358.379	29.65
358.589	29.53
358.798	29.36
359.007	29.73
359.217	29.51
359.426	29.67
359.635	29.7
359.845	29.75
360.054	29.76
360.263	29.8
360.472	29.56
360.682	29.39
360.891	29.08
361.1	29.28
361.309	28.86
361.519	28.72
361.728	28.76
361.937	28.81
362.146	28.84
362.355	28.76
362.564	28.78
362.774	28.57
362.983	28.47
363.192	28.53
363.401	28.17
363.61	28.24
363.819	28.41
364.028	28.4
364.237	28.29
364.446	28.06
364.655	28.48
364.864	28.42
365.073	28.79
365.282	29.15
365.491	29.16
365.7	28.99
365.909	29.11
366.118	29.27
366.327	29.01
366.536	29.08
366.745	29.2
366.954	29.13
367.162	28.93
367.371	28.7
367.58	28.55
367.789	28.56
367.998	28.94
368.207	28.98
368.415	28.88
368.624	28.91
368.833	28.78
369.042	28.77
369.25	28.82
369.459	29.16
369.668	29.46
369.877	29.27
370.085	29.34
370.294	29.3
370.503	29.1
370.711	29.14
370.92	29.19
371.129	29.36
371.337	29.37
371.546	29.28
371.754	28.97
371.963	28.81
372.171	29.03
372.38	29.06
372.589	29.03
372.797	29.04
373.006	28.9
373.214	28.84
373.423	28.64
373.631	28.56
373.84	28.52
374.048	28.71
374.256	28.94
374.465	28.8
374.673	28.83
374.882	28.78
375.09	28.84
375.298	29.05
375.507	29.09
375.715	29.11
375.923	29.15
376.132	29.24
376.34	29.08
376.548	29.08
376.757	29.09
376.965	28.96
377.173	28.9
377.381	28.74
377.59	28.46
377.798	28.34
378.006	28.15
378.214	28.28
378.423	28.07
378.631	27.85
378.839	27.53
379.047	27.62
379.255	27.45
379.463	27.72
379.671	27.65
379.879	27.71
380.088	27.72
380.296	27.79
380.504	27.47
380.712	27.58
380.92	28.04
381.128	28.26
381.336	27.89
381.544	27.89
381.752	27.67
381.96	27.91
382.168	27.91
382.376	28.15
382.584	28.13
382.791	28.29
382.999	28.19
383.207	27.7
383.415	27.88
383.623	28.03
383.831	28.09
384.039	28.16
384.247	28.08
384.454	28.18
384.662	28.15
384.87	28.44
385.078	28.16
385.285	27.96
385.493	28.17
385.701	27.84
385.909	27.92
386.116	28.14
386.324	28.2
386.532	28.08
386.739	28.06
386.947	28.09
387.155	27.91
387.362	28.05
387.57	28.29
387.778	28.33
387.985	28.18
388.193	28.38
388.4	28.31
388.608	28.27
388.816	28.51
389.023	28.47
389.231	28.28
389.438	28.28
389.646	28.52
389.853	28.7
390.061	28.58
390.268	28.78
390.475	28.55
390.683	28.49
390.89	28.22
391.098	28.09
391.305	28.02
391.512	27.92
391.72	27.9
391.927	27.68
392.135	27.32
392.342	27.37
392.549	27.4
392.756	27.25
392.964	27.11
393.171	27.23
393.378	26.93
393.586	26.92
393.793	26.93
394	26.99
394.207	27.12
394.414	27.36
394.622	27.3
394.829	27.41
395.036	27.45
395.243	27.48
395.45	27.37
395.657	27.59
395.864	27.73
396.072	27.9
396.279	27.81
396.486	27.89
396.693	27.67
396.9	27.64
397.107	27.41
397.314	27.58
397.521	27.62
397.728	27.82
397.935	27.97
398.142	27.64
398.349	27.49
398.556	27.57
398.763	27.43
398.97	27.64
399.177	27.72
399.383	27.71
399.59	27.55
399.797	27.63
400.004	27.41
400.211	27.31
400.418	27.64
400.625	27.72
400.831	27.68
401.038	27.52
401.245	27.28
401.452	27.4
401.658	27.48
401.865	27.71
402.072	27.78
402.279	28.03
402.485	28.31
402.692	28.16
402.899	28.09
403.105	28.04
403.312	28.08
403.519	28.15
403.725	28.02
403.932	27.95
404.138	27.84
404.345	27.53
404.552	27.43
404.758	27.26
404.965	27.35
405.171	27.35
405.378	27.46
405.584	27.63
405.791	27.73
405.997	27.86
406.204	27.95
406.41	28.05
406.617	28.28
406.823	28.42
407.029	28.52
407.236	28.58
407.442	28.68
407.649	28.82
407.855	28.74
408.061	28.86
408.268	28.69
408.474	28.67
408.68	28.67
408.887	28.67
409.093	28.56
409.299	28.48
409.505	28.28
409.712	28.22
409.918	28.12
410.124	28.28
410.33	27.97
410.537	28.13
410.743	28.16
410.949	28.15
411.155	28.34
411.361	28.48
411.567	28.47
411.773	28.53
411.98	28.53
412.186	28.47
412.392	28.31
412.598	28.35
412.804	28.45
413.01	28.57
413.216	28.49
413.422	28.4
413.628	28.4
413.834	28.54
414.04	28.54
414.246	28.38
414.452	28.47
414.658	28.51
414.864	28.71
415.07	28.56
415.275	28.29
415.481	28.28
415.687	28.13
415.893	27.95
416.099	27.95
416.305	28.05
416.511	28.12
416.716	28.04
416.922	27.92
417.128	27.76
417.334	27.77
417.539	27.79
417.745	27.79
417.951	27.74
418.157	27.8
418.362	27.73
418.568	27.72
418.774	27.8
418.979	27.71
419.185	27.78
419.391	27.76
419.596	27.68
419.802	27.69
420.008	27.7
420.213	27.17
420.419	27.14
420.624	27.05
420.83	27.02
421.035	26.98
421.241	26.92
421.446	26.79
421.652	26.78
421.857	26.71
422.063	26.76
422.268	26.74
422.474	27.17
422.679	27.17
422.885	27.24
423.09	27.24
423.295	27.23
423.501	27.36
423.706	27.38
423.911	27.34
424.117	27.36
424.322	27.37
424.527	27.31
424.733	27.35
424.938	27.37
425.143	27.32
425.349	27.27
425.554	27.24
425.759	27.22
425.964	27.33
426.169	27.48
426.375	27.57
426.58	27.59
426.785	27.73
426.99	27.82
427.195	27.97
427.4	28.11
427.605	28.22
427.811	28.48
428.016	28.46
428.221	28.25
428.426	28.29
428.631	28.32
428.836	28.21
429.041	28.23
429.246	28.35
429.451	28.43
429.656	28.37
429.861	28.44
430.066	28.37
430.271	28.47
430.476	28.74
430.681	28.6
430.886	28.71
431.09	28.76
431.295	28.83
431.5	28.84
431.705	28.71
431.91	28.65
432.115	28.6
432.32	28.48
432.524	28.5
432.729	28.46
432.934	28.56
433.139	28.58
433.343	28.61
433.548	28.52
433.753	28.51
433.958	28.4
434.162	28.44
434.367	28.48
434.572	28.53
434.776	28.46
434.981	28.55
435.186	28.57
435.39	28.44
435.595	28.46
435.799	28.41
436.004	28.38
436.209	28.45
436.413	28.45
436.618	28.4
436.822	28.41
437.027	28.53
437.231	28.34
437.436	28.35
437.64	28.3
437.845	28.36
438.049	28.42
438.253	28.43
438.458	28.42
438.662	28.4
438.867	28.37
439.071	28.41
439.275	28.29
439.48	28.33
439.684	28.34
439.888	28.34
440.093	28.31
440.297	28.31
440.501	28.23
440.706	28.24
440.91	28.25
441.114	28.29
441.318	28.19
441.523	28.2
441.727	28.27
441.931	28.24
442.135	28.24
442.339	28.25
442.543	28.27
442.748	28.34
442.952	28.35
443.156	28.46
443.36	28.51
443.564	28.53
443.768	28.64
443.972	28.55
444.176	28.58
444.38	28.61
444.584	28.57
444.788	28.49
444.992	28.45
445.196	28.43
445.4	28.39
445.604	28.35
445.808	28.3
446.012	28.29
446.216	28.27
446.42	28.13
446.624	28.17
446.828	28.2
447.032	28.17
447.235	28.14
447.439	28.2
447.643	28.15
447.847	28.17
448.051	28.31
448.254	28.16
448.458	28.21
448.662	28.35
448.866	28.31
449.069	28.28
449.273	28.41
449.477	28.46
449.681	28.56
449.884	28.64
450.088	28.6
450.292	28.51
450.495	28.69
450.699	28.69
450.902	28.64
451.106	28.75
451.31	28.81
451.513	28.8
451.717	28.91
451.92	28.75
452.124	28.72
452.327	28.7
452.531	28.81
452.734	28.73
452.938	28.76
453.141	28.76
453.345	28.58
453.548	28.53
453.752	28.46
453.955	28.46
454.158	28.48
454.362	28.42
454.565	28.56
454.769	28.55
454.972	28.64
455.175	28.77
455.379	28.84
455.582	28.93
455.785	28.94
