Data from 2938742__Reflection_03.txt Node
Date: Sun Mar 15 12:03:42 EDT 2015
User: robert
Spectrometer: USB4E03002
Autoset integration time: false
Trigger mode: 4
Integration Time (sec): 1.000000E-1
Scans to average: 10
Electric dark correction enabled: false
Nonlinearity correction enabled: false
Boxcar width: 5
Stray light correction enabled: false
XAxis mode: Wavelengths
Stop averaging: false
Number of Pixels in Spectrum: 3648
>>>>>Begin Spectral Data<<<<<
177.575	567.6
177.794	475.66
178.014	777.41
178.233	888.41
178.452	1073.43
178.672	1664.86
178.891	1966.17
179.11	-5962.79
179.33	-1518.67
179.549	-1377.44
179.768	-2047.55
179.987	-3790.91
180.207	-1037.99
180.426	-6073.08
180.645	-4892.54
180.864	-47028.57
181.084	3073.21
181.303	-15490.48
181.522	1776.68
181.741	1676.64
181.96	2814.63
182.179	791.96
182.398	738.88
182.618	529.44
182.837	553.26
183.056	492.89
183.275	554.86
183.494	627.08
183.713	511.53
183.932	475.19
184.151	408.3
184.37	389.09
184.589	603
184.808	614.31
185.027	643.18
185.246	666.6
185.465	586.89
185.684	637.85
185.903	582.28
186.122	551.15
186.341	863.22
186.56	1408.91
186.779	1118.71
186.998	997.05
187.216	1178.37
187.435	2136.31
187.654	1955.95
187.873	6556
188.092	2104.94
188.311	1484.85
188.53	2121.15
188.748	1884.7
188.967	1451.72
189.186	1676.44
189.405	1332.56
189.623	1856.54
189.842	1239.66
190.061	1232.76
190.28	1158.25
190.498	2190.91
190.717	1695
190.936	2737.3
191.154	1835.2
191.373	1621.03
191.592	733.06
191.81	654.88
192.029	533.62
192.248	624.32
192.466	898.84
192.685	793.01
192.904	587.35
193.122	828.6
193.341	869.06
193.559	675.71
193.778	735.13
193.996	1627.45
194.215	2429.55
194.433	-11766.67
194.652	3443.18
194.87	2260
195.089	3409.3
195.307	5622.64
195.526	2012.66
195.744	4220.78
195.963	-3442.11
196.181	-7916.28
196.399	-6940
196.618	-2864.8
196.836	-3017.24
197.055	-1386.51
197.273	-1702.91
197.491	-2003.95
197.71	-6525
197.928	-3609.18
198.146	-2939.83
198.365	-3311.01
198.583	-6096.55
198.801	10673.53
199.019	2203.09
199.238	1172.82
199.456	821.09
199.674	1162.42
199.892	1468.51
200.111	1769.95
200.329	1966.67
200.547	741.68
200.765	540.03
200.983	527.85
201.202	490.29
201.42	568.33
201.638	525.57
201.856	641.67
202.074	467.08
202.292	392.7
202.51	471.04
202.728	435.27
202.946	554.09
203.165	715.64
203.383	728.32
203.601	737.23
203.819	720.69
204.037	767.49
204.255	618.56
204.473	522.82
204.691	546.87
204.909	501.8
205.127	543.24
205.345	445.37
205.562	400.4
205.78	534.81
205.998	667.81
206.216	774.07
206.434	762.6
206.652	1062.54
206.87	2741.41
207.088	10094.12
207.306	1619.63
207.523	2262.03
207.741	2435.42
207.959	2910.74
208.177	1100
208.395	802.25
208.612	665.65
208.83	752.49
209.048	793.06
209.266	564.45
209.483	558.07
209.701	671.63
209.919	736.77
210.136	575.13
210.354	485.87
210.572	732.26
210.79	661.59
211.007	522.24
211.225	444.08
211.442	376.34
211.66	413.4
211.878	478.33
212.095	262.12
212.313	237.06
212.53	267.17
212.748	295.02
212.966	256.65
213.183	247.32
213.401	277
213.618	286.82
213.836	270.08
214.053	284.57
214.271	256.23
214.488	506.64
214.705	454.8
214.923	458.85
215.14	418.91
215.358	411.03
215.575	476.73
215.793	379.03
216.01	367.6
216.227	360.39
216.445	333.28
216.662	373.59
216.879	339.52
217.097	329.51
217.314	319.91
217.531	292.57
217.749	272.06
217.966	257.45
218.183	300.9
218.4	292.34
218.618	315.57
218.835	325.7
219.052	245.13
219.269	242.35
219.487	263.96
219.704	260.86
219.921	267.54
220.138	266.13
220.355	211.45
220.572	190.67
220.79	187.22
221.007	174.25
221.224	163.51
221.441	171.16
221.658	164.7
221.875	147.03
222.092	143.1
222.309	135.98
222.526	135.78
222.743	140.64
222.96	143.66
223.177	145.31
223.394	146.51
223.611	147.98
223.828	149.45
224.045	141.54
224.262	142.75
224.479	133.65
224.696	131.08
224.913	125.53
225.13	120.42
225.347	112.32
225.564	103.22
225.781	96.74
225.997	91
226.214	83.01
226.431	79.93
226.648	76.18
226.865	70.45
227.082	63.84
227.298	57.01
227.515	50.69
227.732	44.84
227.949	42.06
228.165	37.71
228.382	34.92
228.599	32.86
228.816	29.63
229.032	27.62
229.249	26.65
229.466	26.56
229.682	26.29
229.899	26.55
230.116	27.04
230.332	26.99
230.549	29.06
230.765	30.23
230.982	31.66
231.199	34.1
231.415	37.39
231.632	39.37
231.848	40.95
232.065	44.1
232.281	45.86
232.498	48.61
232.714	51.55
232.931	50.48
233.147	50.18
233.364	50.7
233.58	50.03
233.797	47.45
234.013	48.63
234.23	48.79
234.446	46.9
234.662	46.72
234.879	47.32
235.095	47.37
235.312	48.88
235.528	50.06
235.744	49.68
235.961	49.72
236.177	49.9
236.393	49.73
236.61	49.42
236.826	49.16
237.042	50.08
237.258	47.73
237.475	46.18
237.691	47.32
237.907	47.63
238.123	47.83
238.339	48.37
238.556	49.51
238.772	47.72
238.988	46.3
239.204	46.8
239.42	45.79
239.636	43.14
239.853	41.64
240.069	39.67
240.285	36
240.501	33.62
240.717	31.35
240.933	28.33
241.149	26.16
241.365	24.79
241.581	22.87
241.797	21.63
242.013	20.74
242.229	20.2
242.445	18.94
242.661	19.5
242.877	19.85
243.093	20.16
243.309	20.77
243.525	21.89
243.741	22.65
243.957	24.31
244.173	24.23
244.388	25
244.604	24.57
244.82	25.47
245.036	23.96
245.252	23.08
245.468	21.95
245.683	21.12
245.899	19.07
246.115	17.86
246.331	16.15
246.547	15.29
246.762	14.68
246.978	14.35
247.194	13.83
247.409	14.14
247.625	13.68
247.841	13.55
248.057	13.34
248.272	13.8
248.488	13.52
248.703	13.75
248.919	14.27
249.135	14.95
249.35	15.89
249.566	16.65
249.782	17.07
249.997	18.38
250.213	19.01
250.428	19.72
250.644	19.85
250.859	21.6
251.075	21.92
251.29	21.99
251.506	21.5
251.721	21.01
251.937	20.78
252.152	20.55
252.368	19.93
252.583	20.26
252.798	20.11
253.014	20.65
253.229	20.08
253.445	20.45
253.66	21.8
253.875	23.13
254.091	24.07
254.306	24.76
254.521	25.57
254.737	26.7
254.952	27.07
255.167	28.23
255.383	27.83
255.598	27.78
255.813	26.94
256.028	25.28
256.244	24.63
256.459	24.29
256.674	24.01
256.889	21.76
257.104	21.09
257.32	20.11
257.535	18.91
257.75	18.02
257.965	17.55
258.18	16.38
258.395	15.71
258.61	14.36
258.826	13.43
259.041	12.31
259.256	12.27
259.471	11.58
259.686	11.1
259.901	10.93
260.116	10.78
260.331	10.42
260.546	10.37
260.761	10.58
260.976	10.62
261.191	11.08
261.406	11.8
261.621	12.42
261.836	13.09
262.05	14.09
262.265	15.15
262.48	15.95
262.695	16.7
262.91	17.94
263.125	18.44
263.34	19.7
263.555	20.25
263.769	20.32
263.984	20.33
264.199	20.22
264.414	19.99
264.629	19.58
264.843	19.17
265.058	19.94
265.273	19.55
265.488	19.19
265.702	18.39
265.917	17.07
266.132	16.61
266.346	16.29
266.561	16.28
266.776	16.22
266.99	15.77
267.205	16.25
267.42	15.38
267.634	15.5
267.849	14.78
268.063	14.94
268.278	14.92
268.492	15.21
268.707	15.18
268.922	15.08
269.136	14.44
269.351	14.49
269.565	14.16
269.78	14.09
269.994	14.11
270.209	14.46
270.423	14.5
270.637	14.6
270.852	13.7
271.066	13.12
271.281	13.08
271.495	12.94
271.709	12.6
271.924	12.57
272.138	12.72
272.353	12.35
272.567	12.33
272.781	12.04
272.996	12.12
273.21	12.31
273.424	13.07
273.638	13.3
273.853	13.64
274.067	13.57
274.281	13.69
274.495	13.75
274.71	13.94
274.924	14.7
275.138	15.31
275.352	15.32
275.566	15.71
275.781	15.29
275.995	15.07
276.209	15.3
276.423	15.87
276.637	15.72
276.851	15.77
277.065	15.49
277.279	15.02
277.493	14.62
277.707	14.46
277.921	14.73
278.135	14.85
278.349	14.81
278.563	14.24
278.777	14.11
278.991	13.97
279.205	13.91
279.419	14.45
279.633	14.35
279.847	13.85
280.061	14.06
280.275	13.49
280.489	13.6
280.703	13.58
280.917	13.59
281.131	12.95
281.344	12.93
281.558	12.87
281.772	12.82
281.986	12.44
282.2	13.14
282.414	12.82
282.627	12.61
282.841	12.33
283.055	12.41
283.269	12.44
283.482	12.82
283.696	12.48
283.91	12.42
284.123	11.68
284.337	11.65
284.551	11.04
284.764	11.21
284.978	11.24
285.192	10.83
285.405	10.62
285.619	10.74
285.833	10.24
286.046	10.51
286.26	10.08
286.473	10.34
286.687	10.37
286.9	10.58
287.114	10.25
287.327	10.4
287.541	10.99
287.754	11.19
287.968	11.07
288.181	11.25
288.395	10.83
288.608	11.22
288.822	11.07
289.035	11.11
289.248	10.79
289.462	10.81
289.675	10.76
289.889	10.37
290.102	9.92
290.315	9.98
290.529	10.01
290.742	10.14
290.955	10.27
291.169	10.26
291.382	10.44
291.595	10.84
291.808	10.82
292.022	11.67
292.235	11.84
292.448	12.13
292.661	11.86
292.875	12.43
293.088	12.73
293.301	12.35
293.514	12.26
293.727	12.06
293.94	11.92
294.153	12.04
294.367	10.94
294.58	10.8
294.793	10.68
295.006	10.64
295.219	10.21
295.432	10.11
295.645	10.22
295.858	10.29
296.071	10.21
296.284	9.97
296.497	9.79
296.71	9.82
296.923	9.53
297.136	9.49
297.349	9.5
297.562	9.17
297.775	8.87
297.988	8.82
298.201	9.07
298.414	9.3
298.626	9.38
298.839	9.66
299.052	9.88
299.265	10.28
299.478	10.34
299.691	10.82
299.903	11.48
300.116	11.6
300.329	12.14
300.542	11.76
300.755	11.5
300.967	11.53
301.18	11.45
301.393	11.4
301.605	11.42
301.818	11.6
302.031	11.34
302.243	11.32
302.456	11.57
302.669	11.28
302.881	11.64
303.094	11.93
303.307	12.03
303.519	12.08
303.732	12.14
303.944	12.09
304.157	12.42
304.37	12.71
304.582	12.94
304.795	13.09
305.007	12.88
305.22	12.98
305.432	12.97
305.645	13.02
305.857	13.54
306.069	13.8
306.282	13.97
306.494	13.63
306.707	13.49
306.919	13.27
307.132	12.95
307.344	12.92
307.556	12.52
307.769	12.87
307.981	12.96
308.193	11.98
308.406	11.65
308.618	11.57
308.83	11.37
309.043	11.41
309.255	11.39
309.467	11.45
309.679	11.28
309.892	11.25
310.104	10.67
310.316	10.15
310.528	10.72
310.74	10.71
310.953	10.77
311.165	10.87
311.377	10.68
311.589	10.68
311.801	10.7
312.013	10.86
312.225	10.95
312.437	11.55
312.649	11.72
312.862	11.74
313.074	11.99
313.286	12.12
313.498	12.14
313.71	12.2
313.922	12.29
314.134	12.77
314.346	13.46
314.558	13.5
314.77	12.76
314.982	13.37
315.193	13.7
315.405	13.41
315.617	13.3
315.829	13.47
316.041	13.84
316.253	13.87
316.465	13.72
316.677	13.22
316.888	14.01
317.1	14.25
317.312	14.37
317.524	14.24
317.736	14.44
317.947	14.7
318.159	15.14
318.371	15.13
318.583	15.5
318.794	15.45
319.006	15.46
319.218	15.23
319.43	15.73
319.641	15.83
319.853	16.24
320.064	16.73
320.276	17.39
320.488	17.09
320.699	17.46
320.911	17.64
321.123	17.67
321.334	17.52
321.546	17.77
321.757	17.39
321.969	17.34
322.18	16.77
322.392	17
322.603	16.54
322.815	17.2
323.026	16.86
323.238	16.41
323.449	16.48
323.661	16.99
323.872	17.03
324.083	17.3
324.295	17.6
324.506	18.1
324.718	17.63
324.929	17.85
325.14	17.53
325.352	18.03
325.563	18.24
325.774	18.39
325.986	18.55
326.197	18.25
326.408	18.96
326.62	18.89
326.831	18.86
327.042	19.41
327.253	19.49
327.464	20.01
327.676	20.15
327.887	20.34
328.098	21.14
328.309	21.43
328.52	21.88
328.732	22.06
328.943	22.33
329.154	22.69
329.365	22.92
329.576	23.46
329.787	23.45
329.998	23.9
330.209	24.65
330.42	24.6
330.631	24.8
330.842	25.09
331.053	25.11
331.264	25.44
331.475	25.56
331.686	26.08
331.897	26.18
332.108	26.1
332.319	25.73
332.53	25.66
332.741	25.6
332.952	25.94
333.163	25.9
333.374	25.38
333.585	25.64
333.795	25.73
334.006	25.36
334.217	25.11
334.428	25.03
334.639	25.15
334.849	25.16
335.06	25.44
335.271	25.45
335.482	25.75
335.692	25.97
335.903	25.8
336.114	25.6
336.325	25.92
336.535	26.52
336.746	26.65
336.957	26.92
337.167	26.96
337.378	26.99
337.589	26.94
337.799	26.69
338.01	27.14
338.22	27.11
338.431	27.31
338.642	27.04
338.852	26.33
339.063	27.06
339.273	26.78
339.484	26.52
339.694	26.46
339.905	26.34
340.115	26.21
340.326	25.94
340.536	25.92
340.746	25.83
340.957	26.29
341.167	26.44
341.378	25.99
341.588	25.44
341.799	25.74
342.009	25.53
342.219	25.42
342.43	25.52
342.64	25.65
342.85	25.54
343.061	25.62
343.271	25.31
343.481	25.31
343.691	25.19
343.902	25.39
344.112	25.21
344.322	25.19
344.532	25.11
344.743	25.1
344.953	24.89
345.163	24.78
345.373	24.57
345.583	24.38
345.793	24.36
346.004	24.36
346.214	24.51
346.424	24.47
346.634	24.39
346.844	24.24
347.054	24.19
347.264	24.1
347.474	24.27
347.684	24.49
347.894	24
348.104	23.76
348.314	23.94
348.524	24.52
348.734	24.29
348.944	24.48
349.154	24.65
349.364	24.46
349.574	24.22
349.784	24.29
349.994	24.3
350.204	24.83
350.413	25.3
350.623	25.15
350.833	25.04
351.043	25
351.253	24.73
351.463	24.74
351.672	24.99
351.882	25.14
352.092	25.06
352.302	24.88
352.511	24.91
352.721	24.31
352.931	24.35
353.141	24.02
353.35	24.33
353.56	24.28
353.77	24.72
353.979	24.43
354.189	24.69
354.399	24.4
354.608	24.28
354.818	24.17
355.027	24.87
355.237	24.63
355.447	24.17
355.656	23.98
355.866	23.96
356.075	23.37
356.285	23.62
356.494	23.44
356.704	23.55
356.913	23.53
357.123	23.49
357.332	22.95
357.542	22.94
357.751	23.17
357.96	23.24
358.17	23.52
358.379	23.43
358.589	23.32
358.798	23.27
359.007	23.32
359.217	23.29
359.426	23.09
359.635	23.12
359.845	23.01
360.054	23.05
360.263	22.9
360.472	22.36
360.682	22.34
360.891	21.91
361.1	21.8
361.309	21.6
361.519	21.37
361.728	21.49
361.937	21.63
362.146	21.58
362.355	21.4
362.564	21.41
362.774	21.51
362.983	21.49
363.192	21.68
363.401	21.61
363.61	21.42
363.819	21.91
364.028	22
364.237	21.81
364.446	21.9
364.655	22.06
364.864	22.09
365.073	22.41
365.282	22.62
365.491	22.55
365.7	22.56
365.909	22.83
366.118	22.55
366.327	22.51
366.536	22.85
366.745	22.74
366.954	23.09
367.162	23.1
367.371	22.85
367.58	22.93
367.789	23.22
367.998	23.11
368.207	23.35
368.415	23.51
368.624	23.11
368.833	22.71
369.042	22.97
369.25	22.81
369.459	23.22
369.668	23.37
369.877	23.25
370.085	23.2
370.294	23.43
370.503	22.91
370.711	22.87
370.92	23.05
371.129	23.2
371.337	23.06
371.546	22.81
371.754	22.52
371.963	22.36
372.171	22.33
372.38	22.47
372.589	22.35
372.797	22.55
373.006	22.25
373.214	22.15
373.423	21.78
373.631	21.82
373.84	21.77
374.048	21.62
374.256	21.62
374.465	21.58
374.673	21.39
374.882	21.43
375.09	21.32
375.298	21.52
375.507	21.66
375.715	21.77
375.923	21.49
376.132	21.39
376.34	21.35
376.548	21.52
376.757	21.54
376.965	21.4
377.173	21.32
377.381	21.48
377.59	21.18
377.798	21.06
378.006	20.79
378.214	21.07
378.423	21.01
378.631	20.86
378.839	20.58
379.047	20.6
379.255	20.67
379.463	20.71
379.671	20.4
379.879	20.47
380.088	20.59
380.296	20.61
380.504	20.4
380.712	20.69
380.92	20.77
381.128	20.76
381.336	20.54
381.544	20.46
381.752	20.38
381.96	20.58
382.168	20.56
382.376	20.51
382.584	20.75
382.791	20.75
382.999	20.56
383.207	20.49
383.415	20.49
383.623	20.39
383.831	20.3
384.039	20.11
384.247	20.18
384.454	20.22
384.662	20.2
384.87	20.24
385.078	20.2
385.285	20.2
385.493	20.28
385.701	20.23
385.909	20.24
386.116	20.16
386.324	20.38
386.532	20.39
386.739	20.45
386.947	20.53
387.155	20.53
387.362	20.32
387.57	20.25
387.778	20.24
387.985	20.36
388.193	20.58
388.4	20.8
388.608	20.92
388.816	21.01
389.023	20.9
389.231	20.89
389.438	20.86
389.646	21.02
389.853	20.9
390.061	20.83
390.268	20.89
390.475	20.69
390.683	20.47
390.89	20.18
391.098	20.02
391.305	19.9
391.512	19.58
391.72	19.45
391.927	19.45
392.135	19.32
392.342	19.42
392.549	19.43
392.756	19.38
392.964	19.38
393.171	19.49
393.378	19.21
393.586	19.27
393.793	19.29
394	19.39
394.207	19.47
394.414	19.81
394.622	19.53
394.829	19.43
395.036	19.19
395.243	19.16
395.45	19.08
395.657	19.2
395.864	19.27
396.072	19.4
396.279	19.27
396.486	19.35
396.693	19.22
396.9	19.26
397.107	18.98
397.314	19.28
397.521	19.19
397.728	19.19
397.935	19.19
398.142	19.15
398.349	19.05
398.556	19.13
398.763	18.77
398.97	18.73
399.177	18.71
399.383	18.98
399.59	18.83
399.797	18.89
400.004	18.82
400.211	18.73
400.418	18.79
400.625	18.78
400.831	18.67
401.038	18.86
401.245	18.78
401.452	19.06
401.658	18.89
401.865	19.14
402.072	19.25
402.279	19.49
402.485	19.84
402.692	19.76
402.899	19.62
403.105	19.62
403.312	19.68
403.519	19.74
403.725	19.45
403.932	19.3
404.138	19.24
404.345	19.05
404.552	18.74
404.758	18.53
404.965	18.53
405.171	18.6
405.378	18.68
405.584	18.77
405.791	18.77
405.997	18.77
406.204	18.98
406.41	19.02
406.617	19.48
406.823	19.71
407.029	19.69
407.236	19.81
407.442	19.91
407.649	20.08
407.855	19.95
408.061	19.97
408.268	20.12
408.474	20.16
408.68	19.99
408.887	19.72
409.093	19.7
409.299	19.71
409.505	19.41
409.712	19.43
409.918	19.2
410.124	19.11
410.33	19.06
410.537	19.11
410.743	19
410.949	18.97
411.155	19.09
411.361	18.98
411.567	18.99
411.773	19.16
411.98	19.04
412.186	19.02
412.392	19
412.598	18.85
412.804	18.87
413.01	18.87
413.216	18.89
413.422	18.84
413.628	18.92
413.834	18.94
414.04	18.81
414.246	18.82
414.452	18.82
414.658	18.91
414.864	18.96
415.07	18.84
415.275	18.89
415.481	18.96
415.687	18.79
415.893	18.69
416.099	18.53
416.305	18.62
416.511	18.61
416.716	18.56
416.922	18.48
417.128	18.39
417.334	18.29
417.539	18.1
417.745	17.89
417.951	17.84
418.157	17.84
418.362	17.76
418.568	17.62
418.774	17.54
418.979	17.4
419.185	17.33
419.391	17.25
419.596	17.19
419.802	17.2
420.008	17.23
420.213	17.22
420.419	17.14
420.624	17.2
420.83	17.21
421.035	17.17
421.241	17.21
421.446	17.08
421.652	17.14
421.857	17.1
422.063	17.07
422.268	17.02
422.474	16.94
422.679	16.91
422.885	16.94
423.09	16.92
423.295	16.85
423.501	16.87
423.706	16.91
423.911	16.87
424.117	16.85
424.322	16.94
424.527	16.9
424.733	16.92
424.938	16.96
425.143	16.88
425.349	16.85
425.554	16.89
425.759	16.97
425.964	17.06
426.169	17.1
426.375	17.17
426.58	17.2
426.785	17.46
426.99	17.52
427.195	17.64
427.4	17.88
427.605	18.01
427.811	18.24
428.016	18.23
428.221	18.14
428.426	18.26
428.631	18.36
428.836	18.3
429.041	18.31
429.246	18.41
429.451	18.52
429.656	18.51
429.861	18.57
430.066	18.43
430.271	18.4
430.476	18.52
430.681	18.43
430.886	18.43
431.09	18.41
431.295	18.32
431.5	18.3
431.705	18.09
431.91	17.99
432.115	17.8
432.32	17.74
432.524	17.65
432.729	17.68
432.934	17.65
433.139	17.65
433.343	17.74
433.548	17.68
433.753	17.63
433.958	17.68
434.162	17.65
434.367	17.74
434.572	17.87
434.776	17.88
434.981	17.85
435.186	17.86
435.39	17.83
435.595	17.82
435.799	17.94
436.004	17.96
436.209	17.99
436.413	18.03
436.618	18.04
436.822	17.92
437.027	18.02
437.231	18.07
437.436	18.16
437.64	18.18
437.845	18.14
438.049	18.05
438.253	18.09
438.458	18.07
438.662	18.01
438.867	18.05
439.071	18.08
439.275	18
439.48	17.88
439.684	17.84
439.888	17.74
440.093	17.72
440.297	17.74
440.501	17.59
440.706	17.58
440.91	17.57
441.114	17.47
441.318	17.38
441.523	17.41
441.727	17.48
441.931	17.45
442.135	17.44
442.339	17.43
442.543	17.41
442.748	17.48
442.952	17.43
443.156	17.48
443.36	17.51
443.564	17.58
443.768	17.56
443.972	17.54
444.176	17.61
444.38	17.65
444.584	17.54
444.788	17.44
444.992	17.47
445.196	17.41
445.4	17.37
445.604	17.3
445.808	17.29
446.012	17.32
446.216	17.24
446.42	17.13
446.624	17.14
446.828	17.25
447.032	17.3
447.235	17.33
447.439	17.43
447.643	17.45
447.847	17.57
448.051	17.61
448.254	17.64
448.458	17.64
448.662	17.68
448.866	17.66
449.069	17.64
449.273	17.72
449.477	17.76
449.681	17.71
449.884	17.72
450.088	17.67
450.292	17.67
450.495	17.7
450.699	17.81
450.902	17.8
451.106	17.81
451.31	17.87
451.513	17.73
451.717	17.63
451.92	17.68
452.124	17.75
452.327	17.89
452.531	17.82
452.734	17.65
452.938	17.69
