Data from 2938764__Reflection_03.txt Node
Date: Fri Mar 13 16:28:07 EDT 2015
User: robert
Spectrometer: USB4E03002
Autoset integration time: false
Trigger mode: 4
Integration Time (sec): 1.000000E-1
Scans to average: 10
Electric dark correction enabled: false
Nonlinearity correction enabled: false
Boxcar width: 5
Stray light correction enabled: false
XAxis mode: Wavelengths
Stop averaging: false
Number of Pixels in Spectrum: 3648
>>>>>Begin Spectral Data<<<<<
177.575	-450
177.794	-2069.23
178.014	-246.15
178.233	-115.58
178.452	-56.88
178.672	-67.63
178.891	15.68
179.11	15.79
179.33	43.5
179.549	-15.11
179.768	18.03
179.987	29.77
180.207	20.12
180.426	-34.41
180.645	-154.44
180.864	-985.71
181.084	287.64
181.303	458.62
181.522	107.52
181.741	334.25
181.96	465.96
182.179	229.2
182.398	272.31
182.618	201.09
182.837	142.2
183.056	177.44
183.275	195.06
183.494	136.13
183.713	97.5
183.932	89.84
184.151	36.56
184.37	35.64
184.589	49.39
184.808	41.05
185.027	47.85
185.246	30.78
185.465	20.51
185.684	23.51
185.903	3.64
186.122	3.89
186.341	-27.98
186.56	38.3
186.779	161.26
186.998	31.58
187.216	-18.18
187.435	-6.35
187.654	640
187.873	14
188.092	2183.33
188.311	224.51
188.53	100
188.748	121.24
188.967	143.5
189.186	67.37
189.405	72.71
189.623	87.5
189.842	126.05
190.061	260.78
190.28	154.28
190.498	91.01
190.717	71.07
190.936	184.32
191.154	215.72
191.373	199.56
191.592	214.39
191.81	165.55
192.029	275.33
192.248	331.62
192.466	121.41
192.685	108.44
192.904	133.63
193.122	149.85
193.341	152.8
193.559	131.96
193.778	272.86
193.996	1022.22
194.215	-951.22
194.433	1668.97
194.652	-778.87
194.87	-292.93
195.089	-2700
195.307	1135.71
195.526	-2317.65
195.744	570.3
195.963	330.62
196.181	178.01
196.399	136.99
196.618	124.37
196.836	80.3
197.055	39.66
197.273	53.69
197.491	109.24
197.71	87.92
197.928	99.6
198.146	100.31
198.365	84.38
198.583	92.45
198.801	78.03
199.019	93.17
199.238	111.84
199.456	115.53
199.674	114.16
199.892	106.67
200.111	120.24
200.329	116.85
200.547	103.1
200.765	101.08
200.983	120.43
201.202	156.9
201.42	141.27
201.638	108.85
201.856	84.41
202.074	59.71
202.292	100.29
202.51	86.88
202.728	73.64
202.946	87.33
203.165	105.83
203.383	102.86
203.601	96.37
203.819	87.71
204.037	56.03
204.255	129.65
204.473	142.55
204.691	75.16
204.909	63.59
205.127	80.3
205.345	68.45
205.562	61.81
205.78	56.76
205.998	71.52
206.216	130.8
206.434	114.39
206.652	77.17
206.87	146.02
207.088	148.31
207.306	517.46
207.523	234.78
207.741	321.21
207.959	246.07
208.177	345.45
208.395	151.76
208.612	73.96
208.83	87.65
209.048	119.52
209.266	85.04
209.483	78.02
209.701	69.22
209.919	107.59
210.136	103.5
210.354	138.92
210.572	118.36
210.79	120.78
211.007	132.08
211.225	114.67
211.442	124.83
211.66	130.95
211.878	107.61
212.095	103.55
212.313	76.93
212.53	74.5
212.748	46.31
212.966	49.76
213.183	48.81
213.401	56.59
213.618	53.34
213.836	46.95
214.053	42.74
214.271	50.1
214.488	63.1
214.705	77.36
214.923	79.13
215.14	71.92
215.358	46.1
215.575	44.95
215.793	67.05
216.01	62.86
216.227	42
216.445	43.85
216.662	39.85
216.879	32.33
217.097	28.32
217.314	15.06
217.531	20.92
217.749	24.44
217.966	19.9
218.183	12.79
218.4	21.92
218.618	10.75
218.835	15.7
219.052	18.62
219.269	31.45
219.487	33.9
219.704	45.22
219.921	59.52
220.138	64.85
220.355	66.76
220.572	53.37
220.79	51.56
221.007	64.65
221.224	63.08
221.441	61.6
221.658	48.84
221.875	54.24
222.092	52.44
222.309	53.68
222.526	68.03
222.743	59.08
222.96	55.15
223.177	51.92
223.394	46.25
223.611	42.41
223.828	39.31
224.045	41.07
224.262	31.52
224.479	27.59
224.696	20.03
224.913	9.28
225.13	12.43
225.347	17.44
225.564	15.38
225.781	11.09
225.997	8.22
226.214	8.69
226.431	11.63
226.648	12.25
226.865	13.42
227.082	13.57
227.298	11.32
227.515	9.96
227.732	8.06
227.949	7
228.165	7.56
228.382	6.94
228.599	6.97
228.816	6.72
229.032	6.86
229.249	5.79
229.466	5.94
229.682	6.86
229.899	7.17
230.116	6.22
230.332	7.21
230.549	7.42
230.765	7.87
230.982	7.36
231.199	7.6
231.415	8.4
231.632	9.64
231.848	9.3
232.065	9.87
232.281	10.88
232.498	12.17
232.714	11.49
232.931	10.4
233.147	11.19
233.364	10.13
233.58	6.84
233.797	4.5
234.013	4.36
234.23	2.43
234.446	1.79
234.662	1.55
234.879	2.55
235.095	1.81
235.312	2.32
235.528	0.67
235.744	2.06
235.961	4.64
236.177	5.47
236.393	5.71
236.61	7.1
236.826	8.04
237.042	8.12
237.258	8.01
237.475	11.37
237.691	11.32
237.907	11.42
238.123	11.37
238.339	10.33
238.556	11.13
238.772	10.17
238.988	10.24
239.204	10.03
239.42	9.2
239.636	7.12
239.853	4.45
240.069	4.89
240.285	5.77
240.501	5.49
240.717	6.4
240.933	6.37
241.149	6.19
241.365	6.12
241.581	5.42
241.797	5.67
242.013	6.25
242.229	6.06
242.445	5.46
242.661	5.73
242.877	6.07
243.093	5.44
243.309	5.09
243.525	4.89
243.741	5.44
243.957	5.94
244.173	5.63
244.388	5.57
244.604	6.34
244.82	7.08
245.036	6.79
245.252	6.12
245.468	5.76
245.683	6.22
245.899	6.61
246.115	6.29
246.331	6.21
246.547	6.1
246.762	5.94
246.978	6.17
247.194	5.92
247.409	5.88
247.625	5.84
247.841	6.14
248.057	5.59
248.272	5.12
248.488	4.85
248.703	4.74
248.919	4.67
249.135	4.36
249.35	3.81
249.566	3.97
249.782	3.39
249.997	3.17
250.213	3.44
250.428	4.21
250.644	5.73
250.859	5.66
251.075	4.98
251.29	5.05
251.506	5.69
251.721	5.66
251.937	5.58
252.152	6.24
252.368	6.35
252.583	5.99
252.798	6.2
253.014	5.35
253.229	5.81
253.445	6.16
253.66	6.95
253.875	6.5
254.091	6.55
254.306	6.56
254.521	6.53
254.737	6.48
254.952	5.48
255.167	4.72
255.383	4.88
255.598	4.72
255.813	4.38
256.028	4.36
256.244	4.25
256.459	4.08
256.674	4
256.889	4.29
257.104	4.67
257.32	5.24
257.535	4.93
257.75	4.21
257.965	3.66
258.18	3.89
258.395	4.04
258.61	4.01
258.826	4
259.041	3.75
259.256	3.55
259.471	3.49
259.686	3.58
259.901	4.04
260.116	4.23
260.331	4.1
260.546	4.07
260.761	3.84
260.976	3.92
261.191	3.81
261.406	4.21
261.621	4.21
261.836	4.28
262.05	3.99
262.265	3.3
262.48	3.12
262.695	3.61
262.91	3.79
263.125	3.37
263.34	3.87
263.555	3.77
263.769	3.82
263.984	3.54
264.199	3.1
264.414	3.8
264.629	4.18
264.843	4.2
265.058	4.48
265.273	4.76
265.488	5.14
265.702	4.75
265.917	5.18
266.132	5.07
266.346	5.63
266.561	5.81
266.776	5.5
266.99	5.34
267.205	5.44
267.42	4.83
267.634	4.71
267.849	4.35
268.063	4.65
268.278	4.22
268.492	4.28
268.707	3.91
268.922	3.6
269.136	3.85
269.351	3.9
269.565	3.72
269.78	3.91
269.994	3.54
270.209	3.82
270.423	3.66
270.637	3.78
270.852	3.45
271.066	3.39
271.281	3.56
271.495	3.31
271.709	3.16
271.924	3.13
272.138	3.17
272.353	3.07
272.567	2.97
272.781	3.05
272.996	2.81
273.21	3.1
273.424	3.04
273.638	2.99
273.853	2.84
274.067	3.17
274.281	3.61
274.495	3.64
274.71	3.41
274.924	3.21
275.138	2.7
275.352	2.63
275.566	2.11
275.781	2.22
275.995	2.13
276.209	2.39
276.423	2.12
276.637	2.04
276.851	2.31
277.065	2.65
277.279	2.53
277.493	2.43
277.707	3.03
277.921	2.99
278.135	2.94
278.349	2.9
278.563	3.07
278.777	3.23
278.991	3.02
279.205	2.59
279.419	2.48
279.633	2.99
279.847	3.45
280.061	3.57
280.275	3.64
280.489	3.65
280.703	3.93
280.917	3.58
281.131	3.31
281.344	3.14
281.558	3.14
281.772	3.45
281.986	3.03
282.2	3.07
282.414	2.67
282.627	2.83
282.841	2.98
283.055	2.64
283.269	2.56
283.482	2.64
283.696	2.83
283.91	2.75
284.123	2.51
284.337	2.62
284.551	2.56
284.764	2.64
284.978	2.85
285.192	2.63
285.405	2.85
285.619	2.98
285.833	2.77
286.046	2.81
286.26	2.61
286.473	2.52
286.687	2.52
286.9	2.56
287.114	2.52
287.327	2.08
287.541	2.06
287.754	2.12
287.968	2.05
288.181	2.43
288.395	2.1
288.608	2.86
288.822	3.05
289.035	2.83
289.248	2.7
289.462	2.83
289.675	2.76
289.889	2.94
290.102	2.56
290.315	2.69
290.529	2.52
290.742	2.69
290.955	2.2
291.169	2.08
291.382	2.4
291.595	2.04
291.808	2.14
292.022	2.32
292.235	2.14
292.448	2.62
292.661	2.41
292.875	2.38
293.088	2.38
293.301	2.41
293.514	2.62
293.727	2.53
293.94	2.59
294.153	2.79
294.367	2.65
294.58	2.76
294.793	2.49
295.006	2.56
295.219	2.54
295.432	2.65
295.645	2.69
295.858	2.67
296.071	2.64
296.284	3.01
296.497	2.96
296.71	3.24
296.923	3.24
297.136	3.53
297.349	3.71
297.562	3.82
297.775	3.79
297.988	3.9
298.201	3.94
298.414	4.17
298.626	4.36
298.839	4.16
299.052	3.84
299.265	3.79
299.478	3.53
299.691	3.68
299.903	3.66
300.116	3.62
300.329	3.55
300.542	3.42
300.755	3.04
300.967	2.78
301.18	3.05
301.393	3.58
301.605	3.62
301.818	3.43
302.031	3.19
302.243	3.19
302.456	3.32
302.669	3.58
302.881	3.76
303.094	4.05
303.307	3.92
303.519	3.84
303.732	3.62
303.944	3.75
304.157	4.01
304.37	4.06
304.582	4.03
304.795	3.98
305.007	4.13
305.22	4.09
305.432	3.76
305.645	4.01
305.857	4.29
306.069	4.27
306.282	4.32
306.494	4.69
306.707	4.66
306.919	4.58
307.132	4.59
307.344	4.53
307.556	4.85
307.769	5.59
307.981	5.29
308.193	4.87
308.406	4.85
308.618	4.75
308.83	4.65
309.043	4.36
309.255	4.62
309.467	4.48
309.679	4.31
309.892	4.24
310.104	4.04
310.316	4.37
310.528	4.52
310.74	4.57
310.953	4.69
311.165	4.65
311.377	4.9
311.589	4.75
311.801	4.98
312.013	4.82
312.225	4.97
312.437	5.29
312.649	5.34
312.862	5.34
313.074	5.33
313.286	5.43
313.498	5.54
313.71	5.29
313.922	5.46
314.134	5.12
314.346	5.28
314.558	5.19
314.77	5.16
314.982	4.6
315.193	4.45
315.405	4.44
315.617	4.19
315.829	3.95
316.041	4.6
316.253	4.35
316.465	4.95
316.677	5.05
316.888	5.27
317.1	5.06
317.312	5.56
317.524	5.54
317.736	5.47
317.947	5.6
318.159	5.82
318.371	5.64
318.583	6.29
318.794	5.91
319.006	6.26
319.218	5.91
319.43	5.62
319.641	5.5
319.853	6.05
320.064	6.6
320.276	7.14
320.488	7.18
320.699	7.06
320.911	6.93
321.123	6.96
321.334	6.81
321.546	7.1
321.757	7.8
321.969	8.14
322.18	8.23
322.392	7.92
322.603	7.32
322.815	7.53
323.026	7.22
323.238	6.84
323.449	7.16
323.661	7.1
323.872	7.54
324.083	7.05
324.295	6.9
324.506	6.73
324.718	6.73
324.929	6.93
325.14	6.9
325.352	7.92
325.563	7.91
325.774	8.16
325.986	8.17
326.197	7.91
326.408	7.88
326.62	7.87
326.831	8.04
327.042	8.34
327.253	8.39
327.464	8.47
327.676	8.16
327.887	8.75
328.098	8.71
328.309	9.01
328.52	8.9
328.732	9.29
328.943	9.56
329.154	9.27
329.365	9.64
329.576	10.19
329.787	10.5
329.998	10.73
330.209	10.61
330.42	10.67
330.631	10.64
330.842	10.81
331.053	11.02
331.264	11.08
331.475	11.68
331.686	11.36
331.897	11.33
332.108	11.23
332.319	10.99
332.53	11.08
332.741	10.95
332.952	11.05
333.163	11
333.374	10.93
333.585	11.11
333.795	11.23
334.006	11.51
334.217	11.49
334.428	11.63
334.639	11.78
334.849	11.55
335.06	11.61
335.271	11.88
335.482	11.98
335.692	12.01
335.903	12.04
336.114	11.83
336.325	11.84
336.535	11.46
336.746	11.08
336.957	11.04
337.167	11.42
337.378	11.72
337.589	11.56
337.799	11.34
338.01	11.23
338.22	11
338.431	10.86
338.642	10.51
338.852	11.14
339.063	11.48
339.273	11.61
339.484	11.4
339.694	11.15
339.905	11.04
340.115	11.1
340.326	11.01
340.536	11.17
340.746	11.5
340.957	11.85
341.167	11.46
341.378	11.52
341.588	11.33
341.799	11.42
342.009	11.52
342.219	11.67
342.43	11.67
342.64	11.7
342.85	11.63
343.061	11.35
343.271	10.9
343.481	10.86
343.691	10.82
343.902	10.86
344.112	10.86
344.322	11.04
344.532	10.93
344.743	11.06
344.953	11.12
345.163	10.98
345.373	11.09
345.583	11.51
345.793	11.43
346.004	11.28
346.214	11.26
346.424	11.24
346.634	11.04
346.844	11.04
347.054	10.85
347.264	10.67
347.474	10.73
347.684	10.65
347.894	10.1
348.104	10.16
348.314	10.1
348.524	9.8
348.734	9.81
348.944	9.65
349.154	9.68
349.364	9.95
349.574	10.11
349.784	10.19
349.994	10.07
350.204	10.36
350.413	10.07
350.623	10.18
350.833	10.43
351.043	10.67
351.253	10.69
351.463	10.13
351.672	9.93
351.882	9.82
352.092	9.64
352.302	9.81
352.511	9.73
352.721	9.92
352.931	9.94
353.141	9.95
353.35	9.74
353.56	9.84
353.77	10.08
353.979	10.27
354.189	10.38
354.399	10.76
354.608	11.03
354.818	11.08
355.027	11.22
355.237	11.2
355.447	11.04
355.656	11.13
355.866	11.26
356.075	11.43
356.285	11.4
356.494	11.36
356.704	10.99
356.913	10.68
357.123	10.59
357.332	10.29
357.542	10.23
357.751	10.46
357.96	10.2
358.17	9.89
358.379	10.08
358.589	9.85
358.798	9.9
359.007	9.97
359.217	9.84
359.426	10.03
359.635	10.05
359.845	10.07
360.054	9.91
360.263	9.75
360.472	9.68
360.682	9.49
360.891	9.46
361.1	9.25
361.309	9.31
361.519	9.59
361.728	9.35
361.937	9.44
362.146	9.22
362.355	9.18
362.564	9.34
362.774	9.45
362.983	9.41
363.192	9.63
363.401	9.71
363.61	9.58
363.819	9.49
364.028	9.42
364.237	9.4
364.446	9.7
364.655	9.57
364.864	9.51
365.073	9.32
365.282	9.29
365.491	8.98
365.7	9.02
365.909	9.23
366.118	9.14
366.327	9.18
366.536	9.25
366.745	8.99
366.954	9.23
367.162	9.45
367.371	9.56
367.58	9.67
367.789	9.99
367.998	10.11
368.207	9.97
368.415	9.72
368.624	9.83
368.833	9.73
369.042	9.86
369.25	9.65
369.459	9.44
369.668	9.47
369.877	9.39
370.085	9.1
370.294	8.91
370.503	9.01
370.711	9.09
370.92	8.87
371.129	9.16
371.337	9.04
371.546	8.97
371.754	8.98
371.963	8.94
372.171	8.91
372.38	8.86
372.589	8.94
372.797	8.8
373.006	8.73
373.214	8.91
373.423	8.91
373.631	9.03
373.84	9.11
374.048	9.05
374.256	9.04
374.465	8.78
374.673	8.85
374.882	8.76
375.09	8.79
375.298	8.71
375.507	8.64
375.715	8.29
375.923	8.37
376.132	8.36
376.34	8.43
376.548	8.55
376.757	8.45
376.965	8.58
377.173	8.34
377.381	8.38
377.59	8.4
377.798	8.7
378.006	8.68
378.214	8.46
378.423	8.42
378.631	8.39
378.839	8.46
379.047	8.73
379.255	8.91
379.463	9.2
379.671	9.16
379.879	9.09
380.088	8.75
380.296	8.8
380.504	8.63
380.712	8.84
380.92	8.9
381.128	8.72
381.336	8.67
381.544	8.39
381.752	8.24
381.96	8.14
382.168	8.24
382.376	8.25
382.584	8.22
382.791	8.22
382.999	8.03
383.207	8.14
383.415	7.97
383.623	7.94
383.831	7.78
384.039	8.05
384.247	8.14
384.454	8.02
384.662	7.93
384.87	7.85
385.078	7.84
385.285	7.62
385.493	7.43
385.701	7.25
385.909	7.07
386.116	7.21
386.324	7.06
386.532	6.89
386.739	7.08
386.947	7.19
387.155	7.03
387.362	7.12
387.57	7.17
387.778	7.17
387.985	7.36
388.193	7.47
388.4	7.4
388.608	7.16
388.816	7.1
389.023	7.04
389.231	7.04
389.438	7.19
389.646	7.06
389.853	6.94
390.061	7.13
390.268	7.03
390.475	7.13
390.683	7.22
390.89	7.21
391.098	7.33
391.305	7.15
391.512	7.24
391.72	7.24
391.927	7.38
392.135	7.47
392.342	7.18
392.549	7.23
392.756	7.09
392.964	6.96
393.171	7.03
393.378	6.9
393.586	7.05
393.793	6.79
394	7
394.207	7.01
394.414	7.13
394.622	7.1
394.829	7.17
395.036	7.21
395.243	7.24
395.45	7
395.657	7.13
395.864	7.08
396.072	7.02
396.279	6.85
396.486	6.79
396.693	6.67
396.9	6.79
397.107	6.75
397.314	6.81
397.521	6.46
397.728	6.73
397.935	6.5
398.142	6.52
398.349	6.61
398.556	6.37
398.763	6.56
398.97	6.58
399.177	6.48
399.383	6.46
399.59	6.46
399.797	6.73
400.004	6.6
400.211	6.58
400.418	6.48
400.625	6.51
400.831	6.65
401.038	6.16
401.245	6.17
401.452	6.21
401.658	6.25
401.865	6.01
402.072	6.03
402.279	6.08
402.485	6.1
402.692	6.38
402.899	6.28
403.105	6.27
403.312	6.49
403.519	6.36
403.725	6.35
403.932	6.33
404.138	6.43
404.345	6.31
404.552	6.37
404.758	6.4
404.965	6.09
405.171	6
405.378	5.88
405.584	5.92
405.791	5.96
405.997	5.82
406.204	5.73
406.41	5.69
406.617	5.63
406.823	5.54
407.029	5.61
407.236	5.61
407.442	5.7
407.649	5.99
407.855	5.88
408.061	6.05
408.268	6.24
408.474	6.23
408.68	6.34
408.887	6.51
409.093	6.59
409.299	6.67
409.505	6.71
409.712	6.7
409.918	6.5
410.124	6.56
410.33	6.24
410.537	5.97
410.743	6.05
410.949	6.04
411.155	5.95
411.361	5.92
411.567	5.72
411.773	5.8
411.98	5.97
412.186	6.07
412.392	6.14
412.598	6.09
412.804	6.24
413.01	6.17
413.216	6.12
413.422	6.35
413.628	6.31
413.834	6.4
414.04	6.31
414.246	6.17
414.452	6.07
414.658	5.8
414.864	5.85
415.07	5.81
415.275	5.87
415.481	5.84
415.687	5.72
415.893	5.67
416.099	5.65
416.305	5.52
416.511	5.41
416.716	5.38
416.922	5.5
417.128	5.52
417.334	5.57
417.539	5.54
417.745	5.66
417.951	5.58
418.157	5.49
418.362	5.55
418.568	5.71
418.774	5.79
418.979	5.74
419.185	5.74
419.391	5.76
419.596	5.7
419.802	5.67
420.008	5.63
420.213	5.56
420.419	5.61
420.624	5.5
420.83	5.42
421.035	5.37
421.241	5.33
421.446	5.33
421.652	5.37
421.857	5.37
422.063	5.35
422.268	5.28
422.474	5.33
422.679	5.3
422.885	5.15
423.09	5.09
423.295	4.99
423.501	5.04
423.706	5.07
423.911	5
424.117	5.01
424.322	4.99
424.527	4.98
424.733	4.94
424.938	4.96
425.143	5.11
425.349	5.2
425.554	5.3
425.759	5.3
425.964	5.27
426.169	5.33
426.375	5.33
426.58	5.33
426.785	5.37
426.99	5.53
427.195	5.56
427.4	5.57
427.605	5.48
427.811	5.5
428.016	5.53
428.221	5.5
428.426	5.45
428.631	5.44
428.836	5.42
429.041	5.41
429.246	5.33
429.451	5.24
429.656	5.27
429.861	5.29
430.066	5.31
430.271	5.29
430.476	5.3
430.681	5.32
430.886	5.39
431.09	5.46
431.295	5.45
431.5	5.44
431.705	5.53
431.91	5.45
432.115	5.44
432.32	5.41
432.524	5.32
432.729	5.31
432.934	5.32
433.139	5.28
433.343	5.09
433.548	5.07
433.753	4.99
433.958	5.04
434.162	5.13
434.367	5.19
434.572	5.09
434.776	5.25
434.981	5.24
435.186	5.21
435.39	5.28
435.595	5.48
435.799	5.37
436.004	5.44
436.209	5.33
436.413	5.19
436.618	5.16
436.822	5.23
437.027	5.27
437.231	5.27
437.436	5.31
437.64	5.15
437.845	5.14
438.049	5.21
438.253	5.26
438.458	5.35
438.662	5.48
438.867	5.47
439.071	5.5
439.275	5.36
439.48	5.42
439.684	5.48
439.888	5.52
440.093	5.49
440.297	5.52
440.501	5.48
440.706	5.41
440.91	5.37
441.114	5.37
441.318	5.42
441.523	5.45
441.727	5.41
441.931	5.31
442.135	5.36
442.339	5.37
442.543	5.32
442.748	5.34
442.952	5.38
443.156	5.43
443.36	5.46
443.564	5.47
443.768	5.52
443.972	5.54
444.176	5.66
444.38	5.65
444.584	5.64
444.788	5.58
444.992	5.56
445.196	5.52
445.4	5.52
445.604	5.5
445.808	5.49
446.012	5.51
446.216	5.47
446.42	5.45
446.624	5.46
446.828	5.48
447.032	5.55
447.235	5.53
447.439	5.56
447.643	5.56
447.847	5.61
448.051	5.59
448.254	5.53
448.458	5.53
448.662	5.5
448.866	5.41
449.069	5.46
449.273	5.51
449.477	5.56
449.681	5.47
449.884	5.42
450.088	5.25
450.292	5.17
450.495	5.14
450.699	5.16
450.902	5.16
451.106	5.23
451.31	5.2
451.513	5.2
451.717	5.2
451.92	5.33
452.124	5.42
452.327	5.49
452.531	5.6
452.734	5.61
452.938	5.58
453.141	5.59
453.345	5.54
453.548	5.49
453.752	5.45
453.955	5.38
454.158	5.33
454.362	5.24
454.565	5.18
454.769	5.12
454.972	5.13
455.175	5.16
455.379	5.11
455.582	5.11
455.785	5.14
455.988	5.19
456.192	5.15
456.395	5.13
456.598	5.17
456.801	5.26
457.005	5.34
457.208	5.36
457.411	5.32
457.614	5.37
457.817	5.46
458.021	5.42
458.224	5.36
458.427	5.41
458.63	5.43
458.833	5.47
459.036	5.49
459.239	5.47
459.442	5.38
459.645	5.46
459.848	5.39
460.051	5.32
460.254	5.31
460.457	5.34
460.66	5.42
460.863	5.4
461.066	5.33
461.269	5.3
461.472	5.32
461.675	5.49
461.878	5.44
462.081	5.57
462.284	5.66
462.486	5.69
462.689	5.72
462.892	5.61
463.095	5.67
463.298	5.79
463.5	5.7
463.703	5.63
463.906	5.47
464.109	5.45
464.311	5.41
464.514	5.33
464.717	5.36
464.92	5.3
465.122	5.38
465.325	5.37
465.528	5.32
465.73	5.4
465.933	5.39
466.135	5.58
466.338	5.59
466.541	5.64
466.743	5.7
466.946	5.7
467.148	5.73
467.351	5.68
467.553	5.56
467.756	5.62
467.958	5.69
468.161	5.62
468.363	5.55
468.566	5.5
468.768	5.45
468.971	5.45
469.173	5.47
469.375	5.38
