Data from 2938799__Reflection_01.txt Node
Date: Thu Mar 12 22:58:37 EDT 2015
User: robert
Spectrometer: USB4E03002
Autoset integration time: false
Trigger mode: 4
Integration Time (sec): 1.000000E-1
Scans to average: 10
Electric dark correction enabled: false
Nonlinearity correction enabled: false
Boxcar width: 5
Stray light correction enabled: false
XAxis mode: Wavelengths
Stop averaging: false
Number of Pixels in Spectrum: 3648
>>>>>Begin Spectral Data<<<<<
177.575	515.89
177.794	1283.33
178.014	442.31
178.233	582
178.452	347.34
178.672	352.54
178.891	442.42
179.11	417.47
179.33	402.89
179.549	410.26
179.768	347.33
179.987	310.83
180.207	297.61
180.426	328.06
180.645	330.89
180.864	308.45
181.084	335.04
181.303	234.73
181.522	214.06
181.741	174.4
181.96	186.39
182.179	191.71
182.398	192.89
182.618	177.76
182.837	179.08
183.056	189.15
183.275	192.9
183.494	183.07
183.713	182.74
183.932	188.34
184.151	228.63
184.37	197.54
184.589	192.02
184.808	202.98
185.027	211.3
185.246	200.57
185.465	174.53
185.684	189.52
185.903	193.42
186.122	199.71
186.341	208.91
186.56	194.73
186.779	190.8
186.998	203.11
187.216	186.75
187.435	178.06
187.654	179.78
187.873	195.35
188.092	185.32
188.311	203.01
188.53	196.81
188.748	190.16
188.967	201.73
189.186	221.69
189.405	216.55
189.623	230.45
189.842	226.02
190.061	207.77
190.28	211.94
190.498	203.08
190.717	175.18
190.936	170.4
191.154	154.56
191.373	149.55
191.592	139.05
191.81	142.9
192.029	138.27
192.248	134.81
192.466	136.2
192.685	124.31
192.904	133.63
193.122	142.14
193.341	156.68
193.559	187.35
193.778	180.39
193.996	193.92
194.215	173.21
194.433	189.02
194.652	231.77
194.87	269.2
195.089	307.39
195.307	264.12
195.526	225.76
195.744	230.36
195.963	203.45
196.181	221.79
196.399	226.72
196.618	218.19
196.836	201.46
197.055	175.96
197.273	170.69
197.491	158.38
197.71	176.84
197.928	198.24
198.146	176.37
198.365	155.95
198.583	156.93
198.801	145.28
199.019	172.14
199.238	165.57
199.456	181.28
199.674	195.43
199.892	187.28
200.111	174.25
200.329	180.17
200.547	216.52
200.765	249.39
200.983	214.11
201.202	202.15
201.42	174.14
201.638	183.02
201.856	166.12
202.074	152.43
202.292	144.78
202.51	131.26
202.728	131.1
202.946	110.47
203.165	107.75
203.383	124.86
203.601	137.47
203.819	140.39
204.037	148.3
204.255	163.27
204.473	145.66
204.691	164.19
204.909	167.04
205.127	159.97
205.345	168.43
205.562	153.3
205.78	140.7
205.998	148.84
206.216	144.73
206.434	157.23
206.652	148.89
206.87	156.71
207.088	142.62
207.306	152.85
207.523	147.23
207.741	141.95
207.959	156.16
208.177	157.51
208.395	144.25
208.612	150.68
208.83	132.81
209.048	137.17
209.266	133.97
209.483	149.69
209.701	138.85
209.919	145.78
210.136	147.07
210.354	143.98
210.572	139.36
210.79	148.08
211.007	148.11
211.225	145.02
211.442	133.88
211.66	137.64
211.878	126.62
212.095	121.55
212.313	113.05
212.53	115.37
212.748	116.33
212.966	119.49
213.183	111.22
213.401	116.43
213.618	121.97
213.836	130.33
214.053	128.08
214.271	134.09
214.488	141.72
214.705	146.88
214.923	152.85
215.14	148.73
215.358	154.03
215.575	172.61
215.793	156.78
216.01	143.25
216.227	132.93
216.445	143.41
216.662	151.66
216.879	139.62
217.097	136.69
217.314	115.23
217.531	113.28
217.749	115.15
217.966	111.94
218.183	114.32
218.4	115.32
218.618	124.33
218.835	112.51
219.052	109.29
219.269	114.07
219.487	114.02
219.704	121.87
219.921	120.06
220.138	111.83
220.355	107.64
220.572	106.8
220.79	106.41
221.007	98.27
221.224	96.52
221.441	91.81
221.658	88.87
221.875	84.19
222.092	78.96
222.309	85.52
222.526	85.44
222.743	87.18
222.96	84.96
223.177	81.71
223.394	82.14
223.611	84.49
223.828	82.25
224.045	83.94
224.262	84.98
224.479	82.39
224.696	73.37
224.913	70.37
225.13	67.26
225.347	61.09
225.564	56.27
225.781	54.9
225.997	50.86
226.214	48.63
226.431	43.54
226.648	36.98
226.865	34.5
227.082	31.41
227.298	28.94
227.515	25.28
227.732	24.48
227.949	23.83
228.165	22.07
228.382	20.29
228.599	19.73
228.816	18.65
229.032	18.17
229.249	17.76
229.466	17.01
229.682	16.14
229.899	16.69
230.116	16.27
230.332	15.96
230.549	15.54
230.765	16.18
230.982	16.26
231.199	16.85
231.415	17.81
231.632	18.17
231.848	19.5
232.065	20.04
232.281	20.33
232.498	20.63
232.714	21.82
232.931	23.03
233.147	21.73
233.364	21.3
233.58	20.57
233.797	21.79
234.013	22.35
234.23	21.77
234.446	22.73
234.662	21.09
234.879	22.62
235.095	22.73
235.312	21.79
235.528	24.3
235.744	25.35
235.961	26.93
236.177	25.86
236.393	26.14
236.61	26.9
236.826	27.06
237.042	27.64
237.258	26.41
237.475	25.03
237.691	26.32
237.907	24.87
238.123	24.44
238.339	22.99
238.556	23.74
238.772	23.25
238.988	22.24
239.204	23.19
239.42	23.56
239.636	22.12
239.853	22.17
240.069	20.99
240.285	19.89
240.501	18.05
240.717	17.64
240.933	16.13
241.149	14.51
241.365	14
241.581	12.72
241.797	12.38
242.013	12.31
242.229	12.59
242.445	12.55
242.661	12.82
242.877	12.77
243.093	13
243.309	13.78
243.525	13.86
243.741	14.37
243.957	14.95
244.173	14.43
244.388	15.61
244.604	14.75
244.82	14.47
245.036	13.79
245.252	13.85
245.468	12.45
245.683	11.99
245.899	12.39
246.115	11.97
246.331	11.42
246.547	11.38
246.762	10.42
246.978	10.28
247.194	9.85
247.409	9.75
247.625	9.73
247.841	9.96
248.057	9.86
248.272	9.32
248.488	9.43
248.703	9.52
248.919	9.68
249.135	10.34
249.35	10.84
249.566	12.04
249.782	12.43
249.997	13.4
250.213	13.96
250.428	14.23
250.644	14.89
250.859	14.31
251.075	13.82
251.29	13.56
251.506	13.2
251.721	12.96
251.937	11.99
252.152	11.71
252.368	10.73
252.583	11.07
252.798	11.08
253.014	11.54
253.229	12.37
253.445	13.45
253.66	13.92
253.875	13.43
254.091	13.56
254.306	14.84
254.521	15.14
254.737	16.39
254.952	14.96
255.167	14.81
255.383	14.11
255.598	13.18
255.813	12.22
256.028	12
256.244	13.18
256.459	13.46
256.674	12.45
256.889	12.91
257.104	12.14
257.32	12.12
257.535	11.49
257.75	11.74
257.965	11.74
258.18	11.4
258.395	11.07
258.61	10.39
258.826	9.46
259.041	9.17
259.256	8.49
259.471	8.25
259.686	8.12
259.901	8.07
260.116	7.62
260.331	7.34
260.546	7.18
260.761	7.19
260.976	7.09
261.191	7.33
261.406	7.35
261.621	7.75
261.836	8.38
262.05	8.65
262.265	8.66
262.48	9.18
262.695	9.62
262.91	10.41
263.125	11.04
263.34	11.67
263.555	12.35
263.769	12.39
263.984	12.36
264.199	11.57
264.414	11.85
264.629	12.98
264.843	13.37
265.058	13.19
265.273	12.22
265.488	11.87
265.702	11.68
265.917	11.54
266.132	11.91
266.346	12.01
266.561	11.94
266.776	12.16
266.99	11.4
267.205	10.95
267.42	10.36
267.634	10.61
267.849	10.09
268.063	9.86
268.278	9.4
268.492	9.08
268.707	9.14
268.922	9.59
269.136	9.11
269.351	9.43
269.565	9.47
269.78	9.72
269.994	9.71
270.209	9.71
270.423	9.45
270.637	8.99
270.852	8.79
271.066	8.38
271.281	7.76
271.495	7.76
271.709	7.67
271.924	7.31
272.138	7.47
272.353	7.33
272.567	7.22
272.781	7.43
272.996	7.7
273.21	7.82
273.424	8.15
273.638	8.55
273.853	8.39
274.067	8.42
274.281	8.84
274.495	8.71
274.71	9
274.924	9.64
275.138	9.53
275.352	9.78
275.566	9.96
275.781	9.66
275.995	9.66
276.209	10
276.423	9.91
276.637	10.01
276.851	10.13
277.065	9.92
277.279	9.69
277.493	10.03
277.707	10
277.921	10.55
278.135	10.63
278.349	10.35
278.563	10.38
278.777	10.66
278.991	10.12
279.205	9.9
279.419	9.94
279.633	9.62
279.847	9.65
280.061	9.59
280.275	8.92
280.489	8.74
280.703	8.52
280.917	8.2
281.131	7.89
281.344	8.03
281.558	8.19
281.772	7.75
281.986	7.43
282.2	7.22
282.414	7.09
282.627	7.14
282.841	7.28
283.055	7.34
283.269	7.41
283.482	7.56
283.696	7.51
283.91	7.28
284.123	7.74
284.337	8.19
284.551	7.92
284.764	8.13
284.978	8.1
285.192	7.81
285.405	8.04
285.619	7.88
285.833	7.65
286.046	7.8
286.26	7.95
286.473	7.87
286.687	7.78
286.9	7.89
287.114	7.7
287.327	7.82
287.541	7.82
287.754	8.12
287.968	8.49
288.181	8.42
288.395	8.34
288.608	8.36
288.822	8.39
289.035	8.35
289.248	8.55
289.462	8.52
289.675	8.14
289.889	8.13
290.102	7.82
290.315	7.54
290.529	7.79
290.742	7.94
290.955	8.09
291.169	7.95
291.382	8.1
291.595	8.25
291.808	8.84
292.022	9.44
292.235	9.89
292.448	9.66
292.661	9.72
292.875	9.53
293.088	9.77
293.301	9.62
293.514	9.83
293.727	9.91
293.94	9.76
294.153	9.01
294.367	8.65
294.58	8.35
294.793	8.67
295.006	9.34
295.219	9.24
295.432	8.95
295.645	8.94
295.858	8.96
296.071	8.7
296.284	8.65
296.497	8.77
296.71	8.99
296.923	9.1
297.136	8.76
297.349	8.27
297.562	8.3
297.775	8.25
297.988	8.13
298.201	8.08
298.414	8.22
298.626	8.03
298.839	8
299.052	7.95
299.265	8.1
299.478	8.45
299.691	8.53
299.903	8.84
300.116	9
300.329	9.41
300.542	9.53
300.755	9.34
300.967	9.99
301.18	10.38
301.393	10.4
301.605	10.17
301.818	10.25
302.031	10.17
302.243	10.27
302.456	10.76
302.669	10.85
302.881	10.8
303.094	11.07
303.307	10.81
303.519	10.81
303.732	10.8
303.944	11.11
304.157	11.51
304.37	11.73
304.582	11.96
304.795	11.47
305.007	11.56
305.22	11.78
305.432	11.76
305.645	11.74
305.857	11.64
306.069	11.83
306.282	11.7
306.494	11.26
306.707	11.24
306.919	11.08
307.132	11.41
307.344	11.27
307.556	11.05
307.769	11.28
307.981	11.24
308.193	11.24
308.406	11.1
308.618	10.91
308.83	10.73
309.043	10.75
309.255	10.8
309.467	10.56
309.679	10.53
309.892	10.5
310.104	10.27
310.316	10.18
310.528	10.21
310.74	9.98
310.953	10.13
311.165	10.44
311.377	10.47
311.589	10.34
311.801	10.44
312.013	10.57
312.225	10.7
312.437	11.07
312.649	11.57
312.862	11.67
313.074	12.33
313.286	12.94
313.498	12.76
313.71	12.96
313.922	13.09
314.134	13.06
314.346	13.25
314.558	13.48
314.77	13.43
314.982	12.95
315.193	12.79
315.405	12.36
315.617	11.84
315.829	11.93
316.041	12.08
316.253	11.86
316.465	12.24
316.677	12.33
316.888	12.32
317.1	12.17
317.312	12.6
317.524	12.76
317.736	12.85
317.947	12.8
318.159	13.35
318.371	13.12
318.583	13.69
318.794	13.44
319.006	13.31
319.218	13.42
319.43	13.55
319.641	13.43
319.853	13.39
320.064	13.38
320.276	13.79
320.488	13.68
320.699	14.13
320.911	13.73
321.123	13.45
321.334	13.87
321.546	14.26
321.757	14.52
321.969	14.88
322.18	15.37
322.392	15.84
322.603	15.69
322.815	15.49
323.026	14.89
323.238	14.91
323.449	15.18
323.661	14.33
323.872	14.01
324.083	13.7
324.295	13.46
324.506	13.15
324.718	12.82
324.929	12.88
325.14	13.02
325.352	13.46
325.563	13.57
325.774	13.92
325.986	14.18
326.197	14.25
326.408	14.65
326.62	14.61
326.831	14.94
327.042	15.27
327.253	15.5
327.464	15.66
327.676	15.54
327.887	15.78
328.098	16.01
328.309	16.32
328.52	16.53
328.732	16.57
328.943	17.09
329.154	17.31
329.365	17.33
329.576	17.32
329.787	17.25
329.998	17.94
330.209	18.02
330.42	17.96
330.631	18.23
330.842	17.96
331.053	17.81
331.264	17.45
331.475	17.21
331.686	17.4
331.897	17.26
332.108	17.46
332.319	17.2
332.53	17.15
332.741	16.97
332.952	16.78
333.163	16.93
333.374	17.4
333.585	17.47
333.795	17.76
334.006	17.71
334.217	18.14
334.428	18.18
334.639	18.22
334.849	18.27
335.06	18.54
335.271	18.46
335.482	18.62
335.692	18.25
335.903	18.39
336.114	18.08
336.325	17.82
336.535	17.71
336.746	17.87
336.957	17.54
337.167	17.92
337.378	17.69
337.589	17.6
337.799	17.71
338.01	17.93
338.22	17.81
338.431	17.93
338.642	18.09
338.852	18.17
339.063	17.68
339.273	17.99
339.484	17.58
339.694	17.82
339.905	17.88
340.115	17.42
340.326	17.32
340.536	17.06
340.746	17.11
340.957	17.11
341.167	17.04
341.378	17.3
341.588	17.26
341.799	16.8
342.009	16.47
342.219	16.47
342.43	16.58
342.64	16.38
342.85	16.96
343.061	16.73
343.271	16.84
343.481	16.72
343.691	16.4
343.902	16.38
344.112	16.74
344.322	16.85
344.532	16.55
344.743	16.64
344.953	16.43
345.163	16.04
345.373	15.98
345.583	15.61
345.793	15.62
346.004	15.62
346.214	15.54
346.424	15.67
346.634	15.74
346.844	16.11
347.054	16.1
347.264	16.54
347.474	16.51
347.684	16.43
347.894	16.55
348.104	16.39
348.314	16.76
348.524	16.64
348.734	16.71
348.944	16.52
349.154	16.33
349.364	16.32
349.574	15.76
349.784	15.78
349.994	16.12
350.204	16.4
350.413	16.27
350.623	15.9
350.833	15.83
351.043	15.8
351.253	15.98
351.463	16.08
351.672	15.97
351.882	16.24
352.092	15.95
352.302	15.67
352.511	15.45
352.721	15.79
352.931	15.92
353.141	15.92
353.35	15.7
353.56	15.55
353.77	15.61
353.979	15.45
354.189	15.53
354.399	15.67
354.608	15.86
354.818	15.91
355.027	15.6
355.237	15.58
355.447	15.38
355.656	15.36
355.866	15.21
356.075	14.97
356.285	14.94
356.494	14.73
356.704	14.91
356.913	14.67
357.123	14.6
357.332	14.4
357.542	14.38
357.751	14.51
357.96	14.25
358.17	14.25
358.379	14.25
358.589	14.26
358.798	14.33
359.007	14.16
359.217	14.2
359.426	14.03
359.635	14.2
359.845	14.07
360.054	14.01
360.263	14.24
360.472	14.37
360.682	14.33
360.891	14.34
361.1	14.27
361.309	14.34
361.519	14.31
361.728	14.27
361.937	14.28
362.146	14.34
362.355	14.4
362.564	14.39
362.774	14.41
362.983	14.42
363.192	14.53
363.401	14.37
363.61	14.24
363.819	14.46
364.028	14.47
364.237	14.14
364.446	13.87
364.655	13.92
364.864	13.75
365.073	13.5
365.282	13.58
365.491	13.35
365.7	13.53
365.909	13.77
366.118	13.5
366.327	13.69
366.536	13.71
366.745	14.13
366.954	14.05
367.162	14.21
367.371	14.11
367.58	14.22
367.789	14.54
367.998	14.64
368.207	14.31
368.415	14.5
368.624	14.28
368.833	14.59
369.042	14.12
369.25	14.19
369.459	14.15
369.668	14.38
369.877	13.95
370.085	13.73
370.294	13.59
370.503	13.73
370.711	13.54
370.92	13.63
371.129	13.61
371.337	13.79
371.546	13.53
371.754	13.56
371.963	13.37
372.171	13.54
372.38	13.51
372.589	13.53
372.797	13.35
373.006	13.21
373.214	13.13
373.423	12.9
373.631	12.95
373.84	13.04
374.048	12.91
374.256	12.78
374.465	12.92
374.673	12.75
374.882	12.56
375.09	12.59
375.298	12.63
375.507	12.6
375.715	12.78
375.923	12.76
376.132	12.72
376.34	12.55
376.548	12.65
376.757	12.44
376.965	12.48
377.173	12.5
377.381	12.33
377.59	12.12
377.798	11.99
378.006	11.83
378.214	11.65
378.423	11.45
378.631	11.48
378.839	11.33
379.047	11.23
379.255	11.29
379.463	11.38
379.671	11.45
379.879	11.53
380.088	11.63
380.296	11.67
380.504	11.69
380.712	11.78
380.92	11.63
381.128	11.62
381.336	11.69
381.544	11.48
381.752	11.42
381.96	11.29
382.168	11.21
382.376	11.21
382.584	11.15
382.791	11.12
382.999	10.91
383.207	10.97
383.415	10.93
383.623	10.87
383.831	10.71
384.039	10.72
384.247	10.79
384.454	11.03
384.662	10.89
384.87	10.94
385.078	10.89
385.285	11.01
385.493	11.17
385.701	11.06
385.909	10.93
386.116	11.06
386.324	10.97
386.532	10.78
386.739	10.61
386.947	10.5
387.155	10.33
387.362	10.38
387.57	10.34
387.778	10.09
387.985	10.13
388.193	10.21
388.4	10.11
388.608	10.12
388.816	10.26
389.023	10.32
389.231	10.33
389.438	10.52
389.646	10.17
389.853	10.09
390.061	10.05
390.268	9.92
390.475	9.66
390.683	9.63
390.89	9.52
391.098	9.42
391.305	9.28
391.512	9.24
391.72	9.06
391.927	8.96
392.135	9.05
392.342	9.06
392.549	9.04
392.756	9.11
392.964	8.94
393.171	9.13
393.378	9.05
393.586	8.99
393.793	8.73
394	8.56
394.207	8.63
394.414	8.61
394.622	8.48
394.829	8.65
395.036	8.75
395.243	8.92
395.45	8.65
395.657	8.58
395.864	8.48
396.072	8.82
396.279	8.97
396.486	9.15
396.693	9.2
396.9	9.16
397.107	9
397.314	8.76
397.521	8.69
397.728	8.58
397.935	8.69
398.142	8.61
398.349	8.47
398.556	8.4
398.763	8.32
398.97	8.11
399.177	8.11
399.383	8.1
399.59	8.07
399.797	8.11
400.004	8.15
400.211	8.07
400.418	8.19
400.625	8.14
400.831	8
401.038	7.98
401.245	7.83
401.452	7.92
401.658	7.85
401.865	7.98
402.072	7.87
402.279	7.89
402.485	7.84
402.692	7.66
402.899	7.6
403.105	7.61
403.312	7.54
403.519	7.54
403.725	7.45
403.932	7.39
404.138	7.27
404.345	7.22
404.552	7.18
404.758	7.16
404.965	7.27
405.171	7.32
405.378	7.37
405.584	7.35
405.791	7.36
405.997	7.3
406.204	7.35
406.41	7.37
406.617	7.5
406.823	7.53
407.029	7.61
407.236	7.67
407.442	7.57
407.649	7.68
407.855	7.54
408.061	7.78
408.268	7.81
408.474	7.92
408.68	7.82
408.887	7.52
409.093	7.52
409.299	7.39
409.505	7.27
409.712	7.31
409.918	7.06
410.124	7.24
410.33	7
410.537	6.89
410.743	6.76
410.949	6.8
411.155	7.06
411.361	6.82
411.567	6.91
411.773	6.84
411.98	6.86
412.186	6.92
412.392	6.82
412.598	6.85
412.804	6.86
413.01	6.77
413.216	6.73
413.422	6.63
413.628	6.81
413.834	6.87
414.04	6.98
414.246	6.91
414.452	6.9
414.658	6.94
414.864	6.9
415.07	6.96
415.275	6.98
415.481	6.94
415.687	6.81
415.893	6.72
416.099	6.58
416.305	6.52
416.511	6.45
416.716	6.29
416.922	6.27
417.128	6.24
417.334	6.18
417.539	6.13
417.745	6.06
417.951	6.1
418.157	6.14
418.362	6.08
418.568	5.99
418.774	6.04
418.979	6.06
419.185	6.03
419.391	5.96
419.596	5.88
419.802	5.84
420.008	5.85
420.213	5.79
420.419	5.68
420.624	5.7
420.83	5.65
421.035	5.58
421.241	5.52
421.446	5.44
421.652	5.38
421.857	5.31
422.063	5.33
422.268	5.32
422.474	5.32
422.679	5.37
422.885	5.32
423.09	5.31
423.295	5.3
423.501	5.35
423.706	5.33
423.911	5.37
424.117	5.5
424.322	5.44
424.527	5.34
424.733	5.33
424.938	5.29
425.143	5.32
425.349	5.34
425.554	5.31
425.759	5.27
425.964	5.24
426.169	5.3
426.375	5.25
426.58	5.25
426.785	5.27
426.99	5.32
427.195	5.33
427.4	5.35
427.605	5.4
427.811	5.46
428.016	5.5
428.221	5.59
428.426	5.57
428.631	5.63
428.836	5.69
429.041	5.89
429.246	5.75
429.451	5.74
429.656	5.61
429.861	5.63
430.066	5.76
430.271	5.66
430.476	5.53
430.681	5.51
430.886	5.42
431.09	5.4
431.295	5.25
431.5	5.35
431.705	5.3
431.91	5.41
432.115	5.28
432.32	5.2
432.524	5.25
432.729	5.39
432.934	5.31
433.139	5.26
433.343	5.16
433.548	5.14
433.753	5.04
433.958	5.09
434.162	5.04
434.367	5.06
434.572	5.02
434.776	4.91
434.981	4.91
435.186	4.96
435.39	5.05
435.595	5.11
435.799	5.12
436.004	5.2
436.209	5.19
436.413	5.17
436.618	5.26
436.822	5.28
437.027	5.32
437.231	5.19
437.436	5.14
437.64	5.11
437.845	5.14
438.049	5.23
438.253	5.15
438.458	5.15
438.662	5.2
438.867	5.19
439.071	5.11
439.275	5.06
439.48	5.13
439.684	5.13
439.888	5.17
440.093	5.13
440.297	5.09
440.501	5.1
440.706	5.08
440.91	5.01
441.114	4.86
441.318	4.9
441.523	4.96
441.727	4.97
441.931	4.96
442.135	4.93
442.339	4.96
442.543	4.89
442.748	4.85
442.952	4.9
443.156	4.95
443.36	5.08
443.564	5.13
443.768	5.1
443.972	5.12
444.176	5.24
444.38	5.15
444.584	5.08
444.788	5.06
444.992	5.09
445.196	4.99
445.4	4.94
445.604	4.88
445.808	4.76
446.012	4.75
446.216	4.67
446.42	4.6
446.624	4.57
446.828	4.63
447.032	4.64
447.235	4.67
447.439	4.73
447.643	4.74
447.847	4.81
448.051	4.84
448.254	4.82
448.458	4.83
448.662	4.77
448.866	4.75
449.069	4.72
449.273	4.76
449.477	4.74
449.681	4.68
449.884	4.76
450.088	4.74
450.292	4.82
450.495	4.87
450.699	4.9
450.902	5
451.106	5.02
451.31	5.11
451.513	5.12
451.717	5.01
451.92	5.06
452.124	5.04
452.327	4.95
452.531	4.9
452.734	4.86
452.938	4.85
453.141	4.76
453.345	4.74
453.548	4.61
453.752	4.55
453.955	4.7
454.158	4.61
454.362	4.52
454.565	4.51
454.769	4.49
454.972	4.62
455.175	4.68
455.379	4.75
455.582	4.95
455.785	4.88
455.988	4.87
456.192	4.76
456.395	4.79
456.598	4.82
456.801	4.94
457.005	4.93
457.208	4.87
457.411	4.86
457.614	4.73
457.817	4.56
458.021	4.57
458.224	4.63
458.427	4.68
458.63	4.68
458.833	4.61
459.036	4.55
459.239	4.55
459.442	4.49
459.645	4.4
459.848	4.45
460.051	4.5
460.254	4.55
460.457	4.49
460.66	4.45
460.863	4.45
461.066	4.48
