Data from 2938715__Reflection_03.txt Node
Date: Tue Mar 17 19:01:55 EDT 2015
User: robert
Spectrometer: USB4E03002
Autoset integration time: false
Trigger mode: 4
Integration Time (sec): 1.000000E-1
Scans to average: 10
Electric dark correction enabled: false
Nonlinearity correction enabled: false
Boxcar width: 5
Stray light correction enabled: false
XAxis mode: Wavelengths
Stop averaging: false
Number of Pixels in Spectrum: 3648
>>>>>Begin Spectral Data<<<<<
177.575	39.58
177.794	48.56
178.014	15.71
178.233	-23.35
178.452	-0.84
178.672	-91.19
178.891	-238.27
179.11	-316.39
179.33	-380
179.549	301.98
179.768	564.06
179.987	118.41
180.207	107.33
180.426	77.46
180.645	86.06
180.864	53.36
181.084	-12.79
181.303	-39.53
181.522	-23.4
181.741	8.06
181.96	4.04
182.179	-5.19
182.398	-52.7
182.618	-139.71
182.837	-193.58
183.056	-117.6
183.275	-38.56
183.494	-164.86
183.713	-126.09
183.932	-116.87
184.151	-147.13
184.37	-166.06
184.589	-463.64
184.808	406.78
185.027	-68.18
185.246	-56.92
185.465	-24.78
185.684	-136.36
185.903	-39.29
186.122	-21.5
186.341	-10.57
186.56	-263
186.779	-120.63
186.998	-49.42
187.216	-11.99
187.435	-25.25
187.654	68.65
187.873	42.74
188.092	292.31
188.311	-403.57
188.53	-264.58
188.748	-650
188.967	208.26
189.186	264.53
189.405	513.04
189.623	278.63
189.842	269.92
190.061	123.23
190.28	165.95
190.498	85.76
190.717	107.38
190.936	127.47
191.154	174.1
191.373	678
191.592	687.18
191.81	-390.24
192.029	-121.59
192.248	529.41
192.466	-50
192.685	490
192.904	-336.67
193.122	31.44
193.341	17.27
193.559	6.51
193.778	105.77
193.996	14.29
194.215	43.33
194.433	56.85
194.652	69.77
194.87	40.8
195.089	36.71
195.307	38.8
195.526	18.26
195.744	19.06
195.963	11.48
196.181	-23.24
196.399	-59.56
196.618	-166.17
196.836	-340.68
197.055	-10500
197.273	-1208.57
197.491	-11233.33
197.71	243.13
197.928	57100
198.146	-276
198.365	1610.81
198.583	-6042.86
198.801	-456.06
199.019	-437.78
199.238	-890.63
199.456	-18.44
199.674	65.33
199.892	-11.01
200.111	8.26
200.329	-42.25
200.547	-60.53
200.765	56.04
200.983	262.5
201.202	-400
201.42	444.44
201.638	148.8
201.856	-529.17
202.074	169.03
202.292	94.57
202.51	189.29
202.728	60.05
202.946	85.54
203.165	126.3
203.383	67.95
203.601	64.78
203.819	63.01
204.037	86.52
204.255	66.22
204.473	85.27
204.691	86.58
204.909	85.14
205.127	114.25
205.345	58.08
205.562	20.75
205.78	65.63
205.998	51.19
206.216	54.05
206.434	27.04
206.652	20.56
206.87	-41.67
207.088	27.04
207.306	6.08
207.523	-887.5
207.741	-77.05
207.959	-64.86
208.177	-11.33
208.395	-3.47
208.612	17.85
208.83	-123.33
209.048	770.59
209.266	-1174.19
209.483	1328.57
209.701	-277.48
209.919	-50.11
210.136	-73.5
210.354	-134.05
210.572	-166.57
210.79	-125.07
211.007	-203.52
211.225	-82.86
211.442	-44.1
211.66	-6.35
211.878	-31.96
212.095	-56.75
212.313	-52.93
212.53	-68.86
212.748	-15.09
212.966	-14.19
213.183	-57.96
213.401	-41.61
213.618	-67.6
213.836	-68.19
214.053	-121.84
214.271	-106.92
214.488	-23.76
214.705	-18
214.923	-6.17
215.14	-10.99
215.358	-67.04
215.575	-3.6
215.793	-29.03
216.01	9.21
216.227	-24.6
216.445	31.43
216.662	26.97
216.879	12.42
217.097	0.47
217.314	-4.03
217.531	11.35
217.749	42.16
217.966	22.18
218.183	24.48
218.4	28.6
218.618	20.75
218.835	17.28
219.052	19.89
219.269	13.9
219.487	2.8
219.704	-1
219.921	-2.71
220.138	-9.75
220.355	-17.91
220.572	-26.84
220.79	-21.82
221.007	-12.46
221.224	-22.5
221.441	-21.38
221.658	-17.11
221.875	2.81
222.092	7.98
222.309	9.79
222.526	4.85
222.743	11.04
222.96	11.79
223.177	9.56
223.394	7.88
223.611	13.85
223.828	13.15
224.045	10.76
224.262	-1.26
224.479	-2.27
224.696	-5.31
224.913	-0.07
225.13	0.51
225.347	-6.83
225.564	-6.95
225.781	-12.59
225.997	-13.37
226.214	-14.12
226.431	-12.78
226.648	-8.34
226.865	-5.32
227.082	-5.33
227.298	-3.82
227.515	-4.11
227.732	-0.86
227.949	-0.02
228.165	2.19
228.382	2
228.599	1.97
228.816	2.63
229.032	2.68
229.249	2.51
229.466	2.2
229.682	2.02
229.899	2.46
230.116	1.55
230.332	1.65
230.549	1.68
230.765	2.2
230.982	2
231.199	2.32
231.415	3.21
231.632	2.52
231.848	2.82
232.065	1.79
232.281	1.37
232.498	1.57
232.714	1.36
232.931	0.84
233.147	-0.62
233.364	1.5
233.58	1.01
233.797	0.66
234.013	1.46
234.23	0.61
234.446	2.15
234.662	2.4
234.879	3.67
235.095	4.1
235.312	4.24
235.528	3.6
235.744	4.24
235.961	4.5
236.177	2.83
236.393	4.29
236.61	6.52
236.826	5.28
237.042	5.68
237.258	5
237.475	5.28
237.691	5.12
237.907	6.54
238.123	3.38
238.339	3.45
238.556	6.26
238.772	4.73
238.988	4.35
239.204	3.68
239.42	3.91
239.636	3.49
239.853	3.15
240.069	3.12
240.285	2.97
240.501	4.25
240.717	3.62
240.933	3.19
241.149	3.34
241.365	3.27
241.581	4.42
241.797	4.44
242.013	4.63
242.229	4.73
242.445	4.76
242.661	4.5
242.877	4.45
243.093	4.74
243.309	4.44
243.525	3.96
243.741	4.08
243.957	3.47
244.173	3
244.388	3.13
244.604	3.29
244.82	2.77
245.036	3.11
245.252	3.23
245.468	3.11
245.683	2.87
245.899	3.35
246.115	2.97
246.331	3.18
246.547	3.2
246.762	2.83
246.978	3.2
247.194	3.3
247.409	3.21
247.625	3.12
247.841	2.94
248.057	3.02
248.272	2.8
248.488	2.73
248.703	2.84
248.919	2.83
249.135	2.99
249.35	2.33
249.566	2.89
249.782	3.44
249.997	3.4
250.213	3.12
250.428	2.94
250.644	2.62
250.859	3.39
251.075	3.43
251.29	3.34
251.506	3.58
251.721	3.21
251.937	2.59
252.152	2.3
252.368	2.04
252.583	2.28
252.798	1.73
253.014	2.01
253.229	1.61
253.445	0.58
253.66	0.08
253.875	-0.68
254.091	-0.58
254.306	-0.88
254.521	-1.57
254.737	-1.67
254.952	-1.46
255.167	-0.41
255.383	0.12
255.598	0.89
255.813	1.52
256.028	1.52
256.244	1.84
256.459	1.63
256.674	0.56
256.889	0.73
257.104	0.88
257.32	1.04
257.535	0.95
257.75	0.98
257.965	0.66
258.18	1.57
258.395	2.22
258.61	2.42
258.826	2.68
259.041	3.09
259.256	3.18
259.471	3.21
259.686	3.25
259.901	3.27
260.116	3.45
260.331	3.74
260.546	3.3
260.761	3.37
260.976	3.5
261.191	3.35
261.406	3.56
261.621	3.83
261.836	3.97
262.05	3.99
262.265	4.03
262.48	3.54
262.695	3.15
262.91	3.56
263.125	2.59
263.34	1.99
263.555	2.05
263.769	1.9
263.984	0.71
264.199	0.12
264.414	-0.56
264.629	-0.21
264.843	0.13
265.058	0.18
265.273	0.12
265.488	0.24
265.702	0.59
265.917	0.44
266.132	0.58
266.346	0.99
266.561	1.58
266.776	1.98
266.99	1.63
267.205	1.74
267.42	1.57
267.634	1.33
267.849	1.63
268.063	1.65
268.278	1.7
268.492	1.5
268.707	1.42
268.922	1.25
269.136	0.94
269.351	1.06
269.565	1.05
269.78	1.1
269.994	0.92
270.209	0.88
270.423	0.52
270.637	1.1
270.852	1.02
271.066	1.36
271.281	1.63
271.495	2.02
271.709	1.95
271.924	1.64
272.138	1.64
272.353	1.97
272.567	2.05
272.781	2.23
272.996	2.12
273.21	2.34
273.424	2.03
273.638	1.79
273.853	1.64
274.067	1.66
274.281	1.66
274.495	1.56
274.71	1.07
274.924	1.24
275.138	1.06
275.352	0.79
275.566	0.39
275.781	0.74
275.995	0.59
276.209	0.63
276.423	0.78
276.637	1.08
276.851	1.22
277.065	1.73
277.279	1.45
277.493	2.35
277.707	2.88
277.921	2.88
278.135	2.65
278.349	2.94
278.563	2.19
278.777	1.93
278.991	2.01
279.205	1.61
279.419	1.4
279.633	1.42
279.847	0.76
280.061	0.18
280.275	0.26
280.489	0.77
280.703	0.87
280.917	1.36
281.131	1.6
281.344	1.38
281.558	1.6
281.772	1.8
281.986	2.03
282.2	2.05
282.414	2.36
282.627	2.59
282.841	2.4
283.055	2.16
283.269	2.48
283.482	2.54
283.696	2.84
283.91	2.88
284.123	2.74
284.337	2.63
284.551	2.69
284.764	2.36
284.978	2.35
285.192	2.34
285.405	2.62
285.619	2.41
285.833	2.27
286.046	1.98
286.26	2.01
286.473	2.08
286.687	2.08
286.9	2.08
287.114	2.33
287.327	2.24
287.541	2.43
287.754	2.19
287.968	2.1
288.181	2.21
288.395	2.65
288.608	3.16
288.822	3.08
289.035	3.59
289.248	3.67
289.462	3.52
289.675	3.68
289.889	3.54
290.102	3.45
290.315	3.58
290.529	3.34
290.742	3.04
290.955	2.89
291.169	3.04
291.382	2.5
291.595	2.41
291.808	2.25
292.022	2.11
292.235	2.28
292.448	2.35
292.661	2.45
292.875	2.71
293.088	2.9
293.301	3.27
293.514	3.46
293.727	3.69
293.94	3.58
294.153	3.94
294.367	3.74
294.58	3.51
294.793	3.76
295.006	3.65
295.219	3.86
295.432	3.73
295.645	3.37
295.858	3.21
296.071	3.39
296.284	3.76
296.497	3.82
296.71	3.96
296.923	3.91
297.136	3.9
297.349	4.16
297.562	4.11
297.775	4.2
297.988	4.32
298.201	4.49
298.414	4.63
298.626	4.63
298.839	4.63
299.052	5.16
299.265	5.29
299.478	5.6
299.691	5.48
299.903	5.46
300.116	5.49
300.329	5.69
300.542	5.33
300.755	5.07
300.967	5.11
301.18	5.2
301.393	4.74
301.605	4.88
301.818	4.57
302.031	4.98
302.243	5.14
302.456	5.39
302.669	5.05
302.881	5.57
303.094	5.9
303.307	5.89
303.519	5.93
303.732	6.27
303.944	6.31
304.157	6.52
304.37	6.55
304.582	6.57
304.795	6.42
305.007	6.73
305.22	6.77
305.432	6.57
305.645	6.8
305.857	7
306.069	6.97
306.282	7.27
306.494	7.34
306.707	7.25
306.919	7.28
307.132	7.52
307.344	7.38
307.556	7.5
307.769	7.62
307.981	7.26
308.193	6.9
308.406	7.2
308.618	6.91
308.83	7.05
309.043	6.72
309.255	7.1
309.467	6.8
309.679	6.8
309.892	6.64
310.104	6.82
310.316	6.86
310.528	7.11
310.74	7.01
310.953	7.1
311.165	6.97
311.377	7.15
311.589	7.01
311.801	7.15
312.013	7.51
312.225	7.53
312.437	7.47
312.649	7.59
312.862	7.47
313.074	7.51
313.286	7.47
313.498	7.54
313.71	7.44
313.922	6.96
314.134	7.08
314.346	6.7
314.558	6.82
314.77	6.66
314.982	6.91
315.193	6.94
315.405	6.71
315.617	6.9
315.829	6.59
316.041	6.65
316.253	6.98
316.465	7.15
316.677	7.48
316.888	7.6
317.1	7.66
317.312	7.23
317.524	7.23
317.736	7.33
317.947	7.57
318.159	8.01
318.371	8.08
318.583	8.19
318.794	8.09
319.006	7.55
319.218	7.15
319.43	7.32
319.641	7.58
319.853	7.59
320.064	7.69
320.276	7.8
320.488	7.98
320.699	7.84
320.911	7.66
321.123	7.96
321.334	8.47
321.546	8.87
321.757	8.99
321.969	8.86
322.18	8.86
322.392	8.54
322.603	7.92
322.815	7.77
323.026	8.07
323.238	8.49
323.449	8.24
323.661	8.22
323.872	8.14
324.083	7.37
324.295	7.64
324.506	7.84
324.718	8.12
324.929	8.64
325.14	8.82
325.352	9.04
325.563	8.91
325.774	8.69
325.986	8.9
326.197	8.94
326.408	9.4
326.62	9.37
326.831	9.68
327.042	9.58
327.253	9.74
327.464	9.59
327.676	9.62
327.887	9.88
328.098	10.12
328.309	10.22
328.52	10.13
328.732	10.74
328.943	10.73
329.154	10.24
329.365	10.54
329.576	10.33
329.787	10.42
329.998	10.3
330.209	10.16
330.42	10.59
330.631	10.5
330.842	10.64
331.053	10.38
331.264	10.26
331.475	10.64
331.686	10.61
331.897	10.44
332.108	10.75
332.319	11.35
332.53	11.22
332.741	10.86
332.952	10.84
333.163	11.02
333.374	10.83
333.585	11.19
333.795	11.26
334.006	11.07
334.217	10.82
334.428	10.28
334.639	9.89
334.849	9.74
335.06	9.89
335.271	9.7
335.482	9.88
335.692	9.71
335.903	9.43
336.114	9.16
336.325	9.49
336.535	9.93
336.746	10.3
336.957	10.14
337.167	10.52
337.378	10.27
337.589	10.07
337.799	9.92
338.01	9.99
338.22	10.26
338.431	10.24
338.642	10.15
338.852	10.25
339.063	10.06
339.273	10.16
339.484	10.36
339.694	10.44
339.905	10.65
340.115	10.51
340.326	10.67
340.536	10.61
340.746	10.79
340.957	11.01
341.167	10.68
341.378	10.61
341.588	10.55
341.799	10.41
342.009	10.47
342.219	10.42
342.43	10.49
342.64	10.63
342.85	10.41
343.061	10.33
343.271	9.81
343.481	10.14
343.691	10.21
343.902	10.18
344.112	9.72
344.322	9.67
344.532	9.59
344.743	9.66
344.953	9.23
345.163	9.39
345.373	9.28
345.583	9.5
345.793	9.28
346.004	9.57
346.214	9.42
346.424	9.68
346.634	9.7
346.844	9.74
347.054	9.56
347.264	9.91
347.474	9.93
347.684	10.07
347.894	10.14
348.104	10.05
348.314	9.87
348.524	9.7
348.734	9.52
348.944	9.65
349.154	9.71
349.364	9.7
349.574	9.66
349.784	9.56
349.994	9.67
350.204	9.78
350.413	10.02
350.623	9.82
350.833	9.98
351.043	9.89
351.253	9.88
351.463	9.63
351.672	9.87
351.882	9.7
352.092	9.97
352.302	9.98
352.511	9.73
352.721	9.61
352.931	9.69
353.141	9.81
353.35	9.91
353.56	9.83
353.77	9.98
353.979	10.15
354.189	10.25
354.399	9.97
354.608	9.9
354.818	9.9
355.027	9.68
355.237	9.76
355.447	9.73
355.656	9.63
355.866	9.52
356.075	9.68
356.285	9.57
356.494	9.79
356.704	9.88
356.913	9.93
357.123	9.91
357.332	9.98
357.542	9.85
357.751	9.74
357.96	9.93
358.17	10.03
358.379	9.97
358.589	9.92
358.798	9.79
359.007	9.66
359.217	9.4
359.426	9.46
359.635	9.41
359.845	9.4
360.054	9.61
360.263	9.44
360.472	9.29
360.682	9.36
360.891	9.3
361.1	9.1
361.309	9.17
361.519	9.36
361.728	9.33
361.937	9.34
362.146	9.45
362.355	9.35
362.564	9.42
362.774	9.47
362.983	9.34
363.192	9.31
363.401	9.4
363.61	9.32
363.819	9.3
364.028	9.45
364.237	9.31
364.446	9.13
364.655	9.1
364.864	9.01
365.073	9.01
365.282	9.07
365.491	8.95
365.7	8.91
365.909	8.7
366.118	8.51
366.327	8.32
366.536	8.36
366.745	8.31
366.954	8.17
367.162	8.28
367.371	8.15
367.58	8.06
367.789	8.08
367.998	8.04
368.207	8.33
368.415	8.37
368.624	8.33
368.833	8.38
369.042	8.37
369.25	8.47
369.459	8.47
369.668	8.59
369.877	8.63
370.085	8.55
370.294	8.51
370.503	8.43
370.711	8.43
370.92	8.65
371.129	8.44
371.337	8.25
371.546	8.11
371.754	7.88
371.963	7.91
372.171	7.67
372.38	7.74
372.589	7.56
372.797	7.29
373.006	6.99
373.214	6.69
373.423	6.85
373.631	6.85
373.84	6.68
374.048	6.59
374.256	6.53
374.465	6.79
374.673	6.57
374.882	6.59
375.09	6.63
375.298	6.68
375.507	6.55
375.715	6.48
375.923	6.62
376.132	6.79
376.34	6.74
376.548	6.64
376.757	6.48
376.965	6.5
377.173	6.65
377.381	6.6
377.59	6.61
377.798	6.38
378.006	6.4
378.214	6.08
378.423	6.04
378.631	6.11
378.839	6.05
379.047	6.02
379.255	6.07
379.463	5.79
379.671	5.87
379.879	5.72
380.088	6.06
380.296	6.02
380.504	6.08
380.712	5.85
380.92	5.69
381.128	5.65
381.336	5.52
381.544	5.38
381.752	5.55
381.96	5.4
382.168	5.5
382.376	5.24
382.584	5.04
382.791	5.05
382.999	5.04
383.207	4.87
383.415	4.79
383.623	4.56
383.831	4.29
384.039	4.16
384.247	4.18
384.454	4.3
384.662	4.48
384.87	4.6
385.078	4.68
385.285	4.69
385.493	4.86
385.701	4.82
385.909	4.94
386.116	5.17
386.324	5.26
386.532	5.14
386.739	4.8
386.947	4.74
387.155	4.58
387.362	4.53
387.57	4.51
387.778	4.49
387.985	4.62
388.193	4.66
388.4	4.53
388.608	4.42
388.816	4.45
389.023	4.55
389.231	4.35
389.438	4.35
389.646	4.46
389.853	4.26
390.061	4.24
390.268	4.05
390.475	3.91
390.683	3.93
390.89	3.97
391.098	4.08
391.305	4.08
391.512	4.13
391.72	4.2
391.927	3.93
392.135	4.11
392.342	4.21
392.549	4.3
392.756	4.36
392.964	4.33
393.171	4.19
393.378	4.1
393.586	4.18
393.793	4.16
394	4.06
394.207	4.23
394.414	4.24
394.622	4.18
394.829	4.14
395.036	4.17
395.243	4.12
395.45	4.12
395.657	4.12
395.864	3.94
396.072	3.83
396.279	3.74
396.486	3.54
396.693	3.64
396.9	3.43
397.107	3.4
397.314	3.33
397.521	3.32
397.728	3.32
397.935	3.25
398.142	3.27
398.349	3.41
398.556	3.48
398.763	3.47
398.97	3.26
399.177	3.24
399.383	3.04
399.59	3.09
399.797	3.2
400.004	3.17
400.211	3.06
400.418	3.2
400.625	3.17
400.831	3.05
401.038	3.17
401.245	3.19
401.452	3.25
401.658	3.43
401.865	3.34
402.072	3.29
402.279	3.36
402.485	3.38
402.692	3.1
402.899	2.96
403.105	3.16
403.312	3.01
403.519	2.9
403.725	2.83
403.932	2.84
404.138	2.77
404.345	2.76
404.552	2.63
404.758	2.7
404.965	2.8
405.171	2.88
405.378	2.92
405.584	3.1
405.791	3.06
405.997	3.21
406.204	3.18
406.41	3.04
406.617	2.96
406.823	3.06
407.029	2.91
407.236	2.98
407.442	3.1
407.649	3.13
407.855	3.01
408.061	3.11
408.268	3.07
408.474	3.11
408.68	3.34
408.887	3.58
409.093	3.45
409.299	3.49
409.505	3.32
409.712	3.09
409.918	2.92
410.124	2.93
410.33	3
410.537	2.93
410.743	2.93
410.949	2.97
411.155	2.68
411.361	2.77
411.567	2.73
411.773	2.82
411.98	2.87
412.186	2.78
412.392	2.85
412.598	2.75
412.804	2.8
413.01	2.7
413.216	2.66
413.422	2.88
413.628	2.88
413.834	3.12
414.04	3.18
414.246	3.15
414.452	3.2
414.658	3.16
414.864	3.25
415.07	3.16
415.275	3.16
415.481	3
415.687	2.93
415.893	2.89
416.099	2.74
416.305	2.71
416.511	2.72
416.716	2.67
416.922	2.64
417.128	2.61
417.334	2.7
417.539	2.69
417.745	2.83
417.951	2.68
418.157	2.73
418.362	2.75
418.568	2.73
418.774	2.75
418.979	2.8
419.185	2.79
419.391	2.82
419.596	2.82
419.802	2.86
420.008	2.81
420.213	2.88
420.419	2.77
420.624	2.78
420.83	2.82
421.035	2.8
421.241	2.75
421.446	2.75
421.652	2.69
421.857	2.6
422.063	2.59
422.268	2.57
422.474	2.58
422.679	2.63
422.885	2.57
423.09	2.53
423.295	2.54
423.501	2.51
423.706	2.55
423.911	2.58
424.117	2.63
424.322	2.61
424.527	2.63
424.733	2.62
424.938	2.59
425.143	2.6
425.349	2.6
425.554	2.64
425.759	2.69
425.964	2.63
426.169	2.59
426.375	2.6
426.58	2.59
426.785	2.58
426.99	2.57
427.195	2.6
427.4	2.6
427.605	2.53
427.811	2.54
428.016	2.51
428.221	2.49
428.426	2.48
428.631	2.46
428.836	2.44
429.041	2.43
429.246	2.51
429.451	2.56
429.656	2.49
429.861	2.51
430.066	2.31
430.271	2.37
430.476	2.32
430.681	2.38
430.886	2.35
431.09	2.35
431.295	2.44
431.5	2.3
431.705	2.27
431.91	2.34
432.115	2.43
432.32	2.47
432.524	2.44
432.729	2.49
432.934	2.44
433.139	2.4
433.343	2.42
433.548	2.39
433.753	2.4
433.958	2.46
434.162	2.41
434.367	2.37
434.572	2.4
434.776	2.38
434.981	2.37
435.186	2.43
435.39	2.5
435.595	2.38
435.799	2.42
436.004	2.51
436.209	2.51
436.413	2.59
436.618	2.52
436.822	2.55
437.027	2.55
437.231	2.56
437.436	2.52
437.64	2.34
437.845	2.43
438.049	2.35
438.253	2.32
438.458	2.27
438.662	2.28
438.867	2.39
439.071	2.3
439.275	2.33
439.48	2.41
439.684	2.44
439.888	2.55
440.093	2.54
440.297	2.48
440.501	2.48
440.706	2.5
440.91	2.49
441.114	2.44
441.318	2.47
441.523	2.42
441.727	2.4
441.931	2.28
442.135	2.29
442.339	2.28
442.543	2.31
442.748	2.21
442.952	2.23
443.156	2.16
443.36	2.1
443.564	2.19
443.768	2.21
443.972	2.16
444.176	2.25
444.38	2.22
444.584	2.16
444.788	2.3
444.992	2.39
445.196	2.36
445.4	2.39
445.604	2.42
445.808	2.35
446.012	2.4
446.216	2.41
446.42	2.41
446.624	2.39
446.828	2.45
447.032	2.31
447.235	2.24
447.439	2.22
447.643	2.29
447.847	2.27
448.051	2.25
448.254	2.19
448.458	2.16
448.662	2.15
448.866	2.16
449.069	2.12
449.273	2.15
449.477	2.24
449.681	2.25
449.884	2.25
450.088	2.22
450.292	2.29
450.495	2.28
450.699	2.2
450.902	2.19
451.106	2.2
451.31	2.14
451.513	2.14
451.717	2.11
451.92	2.09
452.124	2.06
452.327	2.11
452.531	2.01
452.734	2
452.938	2.08
453.141	2.05
453.345	2.07
453.548	2.12
453.752	2.18
453.955	2.17
454.158	2.23
454.362	2.13
454.565	2.03
454.769	2.07
454.972	2.13
455.175	2.13
455.379	2.14
455.582	2.21
455.785	2.25
455.988	2.23
456.192	2.24
456.395	2.17
456.598	2.23
456.801	2.34
457.005	2.37
457.208	2.29
457.411	2.27
457.614	2.35
457.817	2.34
458.021	2.37
458.224	2.39
458.427	2.3
458.63	2.35
458.833	2.3
459.036	2.29
459.239	2.27
459.442	2.29
459.645	2.2
459.848	2.11
460.051	2.02
460.254	2.04
460.457	2.01
460.66	2.01
460.863	2.03
461.066	2.04
461.269	2.08
461.472	2.1
461.675	2.14
461.878	2.29
462.081	2.38
462.284	2.42
462.486	2.44
462.689	2.47
462.892	2.63
463.095	2.56
463.298	2.62
463.5	2.47
463.703	2.54
463.906	2.6
464.109	2.6
464.311	2.62
464.514	2.53
464.717	2.54
464.92	2.52
465.122	2.42
465.325	2.49
465.528	2.55
465.73	2.59
465.933	2.55
466.135	2.44
466.338	2.4
466.541	2.4
466.743	2.49
466.946	2.29
467.148	2.26
467.351	2.25
467.553	2.33
467.756	2.26
467.958	2.28
468.161	2.33
468.363	2.35
468.566	2.27
468.768	2.15
468.971	2.12
469.173	2.19
469.375	2.22
469.578	2.27
469.78	2.08
