Data from 2938749__Reflection_03.txt Node
Date: Sat Mar 14 14:47:48 EDT 2015
User: robert
Spectrometer: USB4E03002
Autoset integration time: false
Trigger mode: 4
Integration Time (sec): 1.000000E-1
Scans to average: 10
Electric dark correction enabled: false
Nonlinearity correction enabled: false
Boxcar width: 5
Stray light correction enabled: false
XAxis mode: Wavelengths
Stop averaging: false
Number of Pixels in Spectrum: 3648
>>>>>Begin Spectral Data<<<<<
177.575	-33.17
177.794	-16.83
178.014	-5.37
178.233	-48.02
178.452	-71.9
178.672	-6275
178.891	152.24
179.11	130.3
179.33	91.84
179.549	78.21
179.768	86.8
179.987	81.59
180.207	73.61
180.426	33.42
180.645	12.97
180.864	-9.55
181.084	-73.95
181.303	-125.42
181.522	-91.03
181.741	-89.05
181.96	-130.23
182.179	-107.14
182.398	-79.9
182.618	-37.21
182.837	46.61
183.056	-19.63
183.275	123.81
183.494	110.18
183.713	209.55
183.932	157.8
184.151	112.96
184.37	91.82
184.589	96.46
184.808	91.12
185.027	109.28
185.246	96.07
185.465	134.49
185.684	95.11
185.903	141.19
186.122	119.01
186.341	117.93
186.56	144.81
186.779	171.09
186.998	187.73
187.216	1631.82
187.435	263.27
187.654	1030
187.873	611.9
188.092	587.04
188.311	203.07
188.53	825.58
188.748	-1059.37
188.967	-1339.13
189.186	-254.05
189.405	777.78
189.623	241.98
189.842	227.8
190.061	198.68
190.28	171.49
190.498	148.76
190.717	143
190.936	31.08
191.154	117.05
191.373	133.55
191.592	118.38
191.81	194.66
192.029	172.61
192.248	198.07
192.466	200.5
192.685	192.93
192.904	408.67
193.122	281.75
193.341	-7937.5
193.559	-467.05
193.778	-87.68
193.996	-52.83
194.215	-79.65
194.433	-93.39
194.652	-67.71
194.87	-49.16
195.089	-69.79
195.307	-56.3
195.526	-75
195.744	-393.94
195.963	876.47
196.181	297
196.399	175.12
196.618	113
196.836	90.32
197.055	87.05
197.273	96.9
197.491	80.85
197.71	67.36
197.928	73.84
198.146	57.07
198.365	17.6
198.583	29.48
198.801	28.02
199.019	47.22
199.238	75.65
199.456	97.4
199.674	19.35
199.892	67.55
200.111	54.85
200.329	39.21
200.547	38.77
200.765	61.71
200.983	81.29
201.202	83.33
201.42	104.16
201.638	66.8
201.856	76.34
202.074	112.34
202.292	76.3
202.51	128.3
202.728	127.64
202.946	152.66
203.165	141.18
203.383	-21.37
203.601	65.7
203.819	-1.33
204.037	10.43
204.255	3.75
204.473	7.97
204.691	32.02
204.909	20.1
205.127	18.36
205.345	28.4
205.562	34.86
205.78	31.44
205.998	27.28
206.216	37.82
206.434	42.88
206.652	62.04
206.87	57.43
207.088	42.83
207.306	56.93
207.523	77.26
207.741	106.55
207.959	90.63
208.177	18.62
208.395	-11.07
208.612	-15.74
208.83	-20.77
209.048	-17.92
209.266	-21.34
209.483	-0.86
209.701	7.82
209.919	8.47
210.136	-14.42
210.354	11.69
210.572	70.82
210.79	96.58
211.007	162.66
211.225	224.29
211.442	155.68
211.66	102.89
211.878	64.59
212.095	-140.53
212.313	-134.22
212.53	-76.31
212.748	-60.1
212.966	-65.91
213.183	-94.8
213.401	-109.36
213.618	-103.49
213.836	-124.73
214.053	-215.87
214.271	-373.03
214.488	-95.13
214.705	-68.42
214.923	-148.19
215.14	-100.47
215.358	-96.72
215.575	-15.56
215.793	7.95
216.01	19.96
216.227	71.23
216.445	85.62
216.662	61.87
216.879	68.97
217.097	44.46
217.314	36.2
217.531	44.21
217.749	57.81
217.966	48.24
218.183	43.73
218.4	37.17
218.618	32.37
218.835	49.21
219.052	51.51
219.269	43.86
219.487	36.62
219.704	38.29
219.921	29.38
220.138	37.16
220.355	37.85
220.572	31.88
220.79	26.7
221.007	28.12
221.224	18.45
221.441	17.85
221.658	21.17
221.875	29.22
222.092	30.8
222.309	25.75
222.526	15.76
222.743	12.04
222.96	8.56
223.177	13.64
223.394	10.97
223.611	5.84
223.828	2.33
224.045	5.12
224.262	3.76
224.479	2.12
224.696	4.1
224.913	3.33
225.13	4.25
225.347	11.54
225.564	13.6
225.781	18.77
225.997	20.9
226.214	22.97
226.431	21.31
226.648	17.93
226.865	18.18
227.082	18.8
227.298	16.98
227.515	16.84
227.732	15.65
227.949	15
228.165	13.7
228.382	13.03
228.599	12.55
228.816	11.8
229.032	13.15
229.249	11.98
229.466	12.37
229.682	12.38
229.899	12.18
230.116	12.05
230.332	12.21
230.549	11.52
230.765	10.76
230.982	11.29
231.199	11.59
231.415	11.33
231.632	12.54
231.848	10.76
232.065	12.14
232.281	12.58
232.498	12.8
232.714	13.26
232.931	13.56
233.147	13.14
233.364	11.19
233.58	10.06
233.797	9.66
234.013	10
234.23	10.34
234.446	9.88
234.662	8.6
234.879	7.33
235.095	7.28
235.312	8.3
235.528	10.05
235.744	10.39
235.961	11.73
236.177	12.54
236.393	12.72
236.61	15.05
236.826	13.02
237.042	14.32
237.258	14.71
237.475	15.98
237.691	16.16
237.907	14.52
238.123	15.32
238.339	15.63
238.556	15.77
238.772	14.74
238.988	13.13
239.204	14.37
239.42	13.12
239.636	13.64
239.853	13.16
240.069	12.12
240.285	12.51
240.501	12.44
240.717	10.94
240.933	8.81
241.149	8.58
241.365	8.51
241.581	8.81
241.797	9.14
242.013	9.01
242.229	8.96
242.445	9.44
242.661	9.31
242.877	8.94
243.093	9.58
243.309	9.89
243.525	9.64
243.741	9.25
243.957	9.15
244.173	8.68
244.388	8.8
244.604	8.89
244.82	8.67
245.036	8.89
245.252	8.93
245.468	8.75
245.683	8.76
245.899	9.26
246.115	9.28
246.331	8.93
246.547	9.35
246.762	9.11
246.978	8.89
247.194	8.66
247.409	8.47
247.625	8.34
247.841	8.04
248.057	7.93
248.272	7.97
248.488	7.92
248.703	8.18
248.919	7.91
249.135	8.03
249.35	7.5
249.566	7.45
249.782	7.44
249.997	7.57
250.213	7.58
250.428	7.76
250.644	7.12
250.859	6.91
251.075	6.64
251.29	6.27
251.506	5.68
251.721	6.2
251.937	5.84
252.152	6.16
252.368	5.63
252.583	5.44
252.798	5.31
253.014	5.27
253.229	5.26
253.445	4.79
253.66	4.63
253.875	4.95
254.091	4.75
254.306	5.04
254.521	4.92
254.737	5.22
254.952	6.75
255.167	6.86
255.383	7.8
255.598	7.26
255.813	7.27
256.028	7.04
256.244	7.28
256.459	7.02
256.674	7.27
256.889	7.47
257.104	7.1
257.32	6.12
257.535	5.68
257.75	5.04
257.965	6.22
258.18	5.76
258.395	5.56
258.61	5.04
258.826	4.99
259.041	5.1
259.256	4.9
259.471	5.43
259.686	5.52
259.901	5.64
260.116	5.81
260.331	5.73
260.546	5.87
260.761	6.25
260.976	6.73
261.191	6.71
261.406	6.63
261.621	6.82
261.836	6.54
262.05	6.85
262.265	7.14
262.48	7.27
262.695	7.13
262.91	7.66
263.125	7.58
263.34	7.02
263.555	7.4
263.769	7.52
263.984	7.55
264.199	7.04
264.414	6.61
264.629	6.5
264.843	6.26
265.058	5.78
265.273	5.22
265.488	5
265.702	4.89
265.917	5.02
266.132	5.2
266.346	5.33
266.561	5.72
266.776	6.1
266.99	6.07
267.205	6.31
267.42	6.12
267.634	6.07
267.849	6.08
268.063	6.27
268.278	5.72
268.492	5.31
268.707	5.23
268.922	5.22
269.136	4.86
269.351	4.71
269.565	3.98
269.78	4.5
269.994	4.74
270.209	4.72
270.423	4.71
270.637	5.03
270.852	4.98
271.066	4.94
271.281	5.07
271.495	5.1
271.709	5.02
271.924	5.37
272.138	4.97
272.353	4.99
272.567	5.16
272.781	5.09
272.996	5.09
273.21	4.77
273.424	4.4
273.638	4.26
273.853	4.02
274.067	4.37
274.281	4.28
274.495	4.81
274.71	4.89
274.924	4.32
275.138	4.26
275.352	4.27
275.566	4.77
275.781	5.35
275.995	5.54
276.209	5.7
276.423	5.38
276.637	5.43
276.851	5
277.065	4.93
277.279	4.78
277.493	5.37
277.707	5.57
277.921	5.46
278.135	4.95
278.349	5.16
278.563	5
278.777	5.11
278.991	5.12
279.205	5.55
279.419	5.25
279.633	5.28
279.847	4.6
280.061	4.34
280.275	4.05
280.489	3.57
280.703	3.47
280.917	3.45
281.131	3.41
281.344	3.66
281.558	3.49
281.772	3.65
281.986	3.79
282.2	3.83
282.414	3.94
282.627	4.24
282.841	4.74
283.055	4.66
283.269	5.22
283.482	5.21
283.696	5.05
283.91	5.24
284.123	5.24
284.337	5.52
284.551	5.35
284.764	5.31
284.978	5.32
285.192	5.57
285.405	5.56
285.619	5.18
285.833	5.38
286.046	5.18
286.26	5.12
286.473	4.93
286.687	4.95
286.9	5.45
287.114	5.34
287.327	5.56
287.541	5.43
287.754	5.4
287.968	5.2
288.181	4.96
288.395	5.04
288.608	5.05
288.822	5.8
289.035	5.6
289.248	5.26
289.462	5.29
289.675	5.45
289.889	5.15
290.102	5.18
290.315	5.78
290.529	5.82
290.742	5.99
290.955	5.61
291.169	5.29
291.382	5.67
291.595	5.64
291.808	5.93
292.022	5.89
292.235	6.33
292.448	6.3
292.661	5.81
292.875	5.96
293.088	6.02
293.301	6.5
293.514	6.35
293.727	6.25
293.94	6.13
294.153	5.69
294.367	5.51
294.58	5.18
294.793	5.2
295.006	5.71
295.219	5.64
295.432	5.62
295.645	5.65
295.858	5.43
296.071	5.21
296.284	5.37
296.497	5.6
296.71	5.4
296.923	5.62
297.136	5.59
297.349	5.26
297.562	5.28
297.775	5.23
297.988	4.99
298.201	5.34
298.414	5.17
298.626	5.13
298.839	5.02
299.052	5.14
299.265	5.21
299.478	5.37
299.691	5.35
299.903	5.47
300.116	5.39
300.329	5.55
300.542	5.85
300.755	6.25
300.967	6.48
301.18	6.7
301.393	6.45
301.605	6.35
301.818	6.39
302.031	6.1
302.243	5.7
302.456	5.69
302.669	5.29
302.881	4.54
303.094	4.35
303.307	4.5
303.519	4.23
303.732	4.66
303.944	4.72
304.157	4.7
304.37	5.23
304.582	5.53
304.795	5.83
305.007	6.42
305.22	6.43
305.432	6.6
305.645	6.36
305.857	6.85
306.069	6.56
306.282	6.68
306.494	6.4
306.707	6.52
306.919	6.51
307.132	6.34
307.344	6.3
307.556	6.4
307.769	6.61
307.981	6.76
308.193	6.94
308.406	6.97
308.618	6.51
308.83	6.81
309.043	6.88
309.255	7.28
309.467	7.51
309.679	7.49
309.892	7.69
310.104	7.32
310.316	7.38
310.528	7.24
310.74	7.38
310.953	7.67
311.165	7.56
311.377	7.36
311.589	7.29
311.801	7.24
312.013	7.31
312.225	7.48
312.437	7.65
312.649	7.86
312.862	7.67
313.074	7.66
313.286	7.69
313.498	7.73
313.71	7.86
313.922	8.12
314.134	7.76
314.346	7.86
314.558	7.91
314.77	7.96
314.982	7.62
315.193	8.01
315.405	8.06
315.617	8.05
315.829	8.21
316.041	8.53
316.253	8.01
316.465	8.13
316.677	8.35
316.888	8.29
317.1	8.39
317.312	8.45
317.524	8.01
317.736	8.41
317.947	9
318.159	9.23
318.371	8.97
318.583	9.14
318.794	9.67
319.006	9.39
319.218	9.26
319.43	9.24
319.641	9.35
319.853	9.21
320.064	9.32
320.276	9.04
320.488	9.11
320.699	9.32
320.911	9.44
321.123	8.96
321.334	9.21
321.546	9.63
321.757	10.15
321.969	9.86
322.18	10.69
322.392	10.52
322.603	10.64
322.815	10.69
323.026	10.15
323.238	9.82
323.449	10.08
323.661	10.18
323.872	9.85
324.083	9.61
324.295	10.11
324.506	9.74
324.718	9.95
324.929	9.97
325.14	10.27
325.352	11.1
325.563	11.45
325.774	11.92
325.986	12.11
326.197	12.48
326.408	12.78
326.62	12.82
326.831	13.11
327.042	13.25
327.253	13.28
327.464	13.11
327.676	13.31
327.887	13.34
328.098	13.42
328.309	13.5
328.52	13.62
328.732	13.62
328.943	13.53
329.154	13.8
329.365	13.67
329.576	14
329.787	13.79
329.998	13.57
330.209	14.3
330.42	13.96
330.631	13.5
330.842	13.75
331.053	14.18
331.264	14.62
331.475	14.8
331.686	15.1
331.897	15.25
332.108	15.22
332.319	15.5
332.53	15.27
332.741	15.39
332.952	15.82
333.163	15.67
333.374	15.84
333.585	15.89
333.795	15.97
334.006	16.11
334.217	16
334.428	16.53
334.639	16.51
334.849	16.09
335.06	16.09
335.271	16.08
335.482	16.19
335.692	16.33
335.903	16.3
336.114	16.23
336.325	15.83
336.535	15.82
336.746	15.9
336.957	16.19
337.167	16.77
337.378	16.8
337.589	16.83
337.799	16.58
338.01	16.14
338.22	16.19
338.431	16.14
338.642	16.13
338.852	16.33
339.063	16.07
339.273	15.89
339.484	15.78
339.694	16.27
339.905	16.13
340.115	16.43
340.326	16.37
340.536	16.58
340.746	16.59
340.957	16.51
341.167	16.11
341.378	16.41
341.588	16.2
341.799	15.82
342.009	15.34
342.219	15.5
342.43	15.12
342.64	15.38
342.85	15.02
343.061	15.13
343.271	15.4
343.481	15.65
343.691	15.5
343.902	15.45
344.112	15.75
344.322	15.59
344.532	15.75
344.743	15.86
344.953	15.49
345.163	15.49
345.373	15.27
345.583	15.17
345.793	15.09
346.004	15.39
346.214	15.4
346.424	15.17
346.634	15.53
346.844	15.63
347.054	16.1
347.264	16.23
347.474	16.3
347.684	16.52
347.894	16.35
348.104	16.56
348.314	16.41
348.524	16.69
348.734	16.8
348.944	16.66
349.154	16.04
349.364	15.45
349.574	15.64
349.784	15.59
349.994	15.24
350.204	15.51
350.413	15.22
350.623	14.59
350.833	14.39
351.043	14.45
351.253	14.68
351.463	14.99
351.672	15.33
351.882	15.15
352.092	15.37
352.302	15.62
352.511	15.31
352.721	15.15
352.931	15.23
353.141	14.82
353.35	14.75
353.56	14.59
353.77	14.55
353.979	14.38
354.189	14.55
354.399	14.42
354.608	14.34
354.818	14.6
355.027	14.88
355.237	15.07
355.447	15.31
355.656	15.35
355.866	14.94
356.075	14.96
356.285	14.76
356.494	14.55
356.704	14.4
356.913	14.25
357.123	14.17
357.332	14.02
357.542	13.94
357.751	13.75
357.96	13.62
358.17	13.83
358.379	13.75
358.589	14.11
358.798	14.18
359.007	14.21
359.217	14.15
359.426	13.84
359.635	14.13
359.845	13.78
360.054	13.94
360.263	13.93
360.472	13.82
360.682	13.63
360.891	13.43
361.1	13.57
361.309	13.47
361.519	13.62
361.728	13.94
361.937	13.8
362.146	13.91
362.355	13.84
362.564	13.85
362.774	13.9
362.983	14.08
363.192	14.12
363.401	13.83
363.61	13.81
363.819	13.85
364.028	13.79
364.237	13.63
364.446	13.9
364.655	13.82
364.864	13.88
365.073	14.01
365.282	14.09
365.491	14.2
365.7	14.22
365.909	14.42
366.118	14.29
366.327	14.34
366.536	14.4
366.745	14.34
366.954	14.52
367.162	14.46
367.371	14.45
367.58	14.27
367.789	13.84
367.998	13.75
368.207	13.86
368.415	13.84
368.624	13.62
368.833	13.68
369.042	13.61
369.25	13.62
369.459	13.74
369.668	13.65
369.877	13.4
370.085	13.54
370.294	13.41
370.503	13.01
370.711	12.8
370.92	12.69
371.129	12.59
371.337	12.57
371.546	12.36
371.754	12
371.963	11.95
372.171	12.04
372.38	11.91
372.589	12.19
372.797	12.29
373.006	12.35
373.214	12.25
373.423	12.23
373.631	12.05
373.84	11.76
374.048	11.84
374.256	11.67
374.465	11.66
374.673	11.8
374.882	11.84
375.09	11.65
375.298	11.76
375.507	11.87
375.715	11.77
375.923	11.77
376.132	12.06
376.34	11.91
376.548	12.03
376.757	12.02
376.965	11.81
377.173	11.46
377.381	11.69
377.59	11.51
377.798	11.38
378.006	11.48
378.214	11.52
378.423	11.35
378.631	11.35
378.839	11.15
379.047	11.14
379.255	11.08
379.463	11.22
379.671	10.86
379.879	10.75
380.088	10.67
380.296	10.57
380.504	10.66
380.712	10.71
380.92	10.46
381.128	10.47
381.336	10.5
381.544	10.58
381.752	10.28
381.96	10.36
382.168	10.52
382.376	10.66
382.584	10.28
382.791	10.15
382.999	10.02
383.207	10.26
383.415	10.16
383.623	10.29
383.831	10.44
384.039	10.36
384.247	10.39
384.454	10.27
384.662	10.18
384.87	10.21
385.078	10.1
385.285	10.09
385.493	9.94
385.701	9.88
385.909	9.62
386.116	9.44
386.324	9.7
386.532	9.53
386.739	9.36
386.947	9.31
387.155	9.34
387.362	9.45
387.57	9.5
387.778	9.43
387.985	9.54
388.193	9.44
388.4	9.33
388.608	9.24
388.816	9.17
389.023	9.42
389.231	9.35
389.438	9.25
389.646	9.22
389.853	8.99
390.061	9.13
390.268	9.06
390.475	8.98
390.683	9.17
390.89	9.29
391.098	9.47
391.305	9.14
391.512	9.07
391.72	9.19
391.927	8.96
392.135	9.06
392.342	8.94
392.549	8.95
392.756	9.02
392.964	8.95
393.171	8.84
393.378	8.73
393.586	8.9
393.793	8.78
394	8.51
394.207	8.59
394.414	8.53
394.622	8.51
394.829	8.44
395.036	8.34
395.243	8.23
395.45	7.97
395.657	7.89
395.864	7.71
396.072	7.67
396.279	7.86
396.486	7.59
396.693	7.44
396.9	7.4
397.107	7.18
397.314	7.13
397.521	7.08
397.728	7.17
397.935	7.12
398.142	7
398.349	7.08
398.556	7.1
398.763	7.19
398.97	7.18
399.177	7.19
399.383	7.2
399.59	6.84
399.797	6.95
400.004	6.86
400.211	6.78
400.418	6.91
400.625	6.72
400.831	6.63
401.038	6.52
401.245	6.55
401.452	6.34
401.658	6.42
401.865	6.58
402.072	6.44
402.279	6.43
402.485	6.51
402.692	6.61
402.899	6.75
403.105	6.73
403.312	6.75
403.519	6.81
403.725	6.92
403.932	6.96
404.138	6.96
404.345	6.92
404.552	7.05
404.758	7.1
404.965	7.01
405.171	7.03
405.378	6.97
405.584	7.06
405.791	7.09
405.997	7.21
406.204	7.11
406.41	7.22
406.617	7.16
406.823	7.17
407.029	7.06
407.236	6.99
407.442	6.97
407.649	6.94
407.855	6.89
408.061	6.81
408.268	6.74
408.474	6.8
408.68	6.7
408.887	6.87
409.093	6.84
409.299	6.79
409.505	6.85
409.712	6.79
409.918	6.79
410.124	6.86
410.33	6.72
410.537	6.59
410.743	6.59
410.949	6.74
411.155	6.58
411.361	6.48
411.567	6.62
411.773	6.46
411.98	6.49
412.186	6.36
412.392	6.22
412.598	6.32
412.804	6.41
413.01	6.29
413.216	6.25
413.422	6.27
413.628	6.34
413.834	6.26
414.04	6.22
414.246	6.16
414.452	6.18
414.658	6.16
414.864	6.04
415.07	6.02
415.275	6.08
415.481	5.92
415.687	5.84
415.893	5.74
416.099	5.67
416.305	5.77
416.511	5.7
416.716	5.73
416.922	5.71
417.128	5.74
417.334	5.78
417.539	5.72
417.745	5.78
417.951	5.82
418.157	5.73
418.362	5.75
418.568	5.67
418.774	5.71
418.979	5.77
419.185	5.76
419.391	5.78
419.596	5.73
419.802	5.71
420.008	5.64
420.213	6.16
420.419	6.13
420.624	6.07
420.83	6.1
421.035	6.13
421.241	6.05
421.446	6.05
421.652	6
421.857	6.05
422.063	6.03
422.268	6.12
422.474	5.6
422.679	5.62
422.885	5.59
423.09	5.52
423.295	5.48
423.501	5.45
423.706	5.47
423.911	5.42
424.117	5.29
424.322	5.29
424.527	5.2
424.733	5.14
424.938	5.13
425.143	5.1
425.349	5.1
425.554	5.05
425.759	5.12
425.964	5.02
426.169	5.04
426.375	5.07
426.58	5.11
426.785	5.1
426.99	5.13
427.195	5.14
427.4	5.18
427.605	5.34
427.811	5.4
428.016	5.32
428.221	5.47
428.426	5.49
428.631	5.31
428.836	5.34
429.041	5.3
429.246	5.35
429.451	5.32
429.656	5.37
429.861	5.25
430.066	5.19
430.271	5.35
430.476	5.19
430.681	5.15
430.886	5.42
431.09	5.49
431.295	5.53
431.5	5.51
431.705	5.47
431.91	5.51
432.115	5.52
432.32	5.53
432.524	5.4
432.729	5.42
432.934	5.41
433.139	5.29
433.343	5.18
433.548	5.22
433.753	5.18
433.958	5.25
434.162	5.13
434.367	5.21
434.572	5.1
434.776	5.17
434.981	5.2
435.186	5.28
435.39	5.39
435.595	5.26
435.799	5.22
436.004	5.38
436.209	5.3
436.413	5.45
436.618	5.19
436.822	5.22
437.027	5.17
437.231	5.2
437.436	5.18
437.64	5.05
437.845	5.07
438.049	5.08
438.253	4.91
438.458	4.93
438.662	4.8
438.867	4.83
439.071	4.82
439.275	4.77
439.48	4.74
439.684	4.78
439.888	4.83
440.093	4.91
440.297	4.91
440.501	4.93
440.706	4.95
440.91	4.9
441.114	5.03
441.318	5.01
441.523	5.06
441.727	5.01
441.931	4.92
442.135	5.05
442.339	5
442.543	5.01
442.748	5.06
442.952	5.13
443.156	5.2
443.36	5.18
443.564	5.25
443.768	5.24
443.972	5.26
444.176	5.22
444.38	5.05
444.584	5.06
444.788	5.04
444.992	4.97
445.196	4.9
445.4	4.84
445.604	4.82
445.808	4.72
446.012	4.77
446.216	4.77
446.42	4.79
446.624	4.73
446.828	4.71
447.032	4.68
447.235	4.7
447.439	4.72
447.643	4.77
447.847	4.79
448.051	4.83
448.254	4.76
448.458	4.79
448.662	4.77
448.866	4.79
449.069	4.76
449.273	4.77
449.477	4.82
449.681	4.79
449.884	4.74
450.088	4.67
450.292	4.74
450.495	4.84
450.699	4.75
450.902	4.75
451.106	4.82
451.31	4.78
451.513	4.78
451.717	4.64
451.92	4.45
452.124	4.42
452.327	4.41
452.531	4.41
452.734	4.32
452.938	4.33
453.141	4.34
453.345	4.28
453.548	4.31
453.752	4.21
453.955	4.24
454.158	4.45
454.362	4.58
454.565	4.58
454.769	4.57
454.972	4.54
455.175	4.67
455.379	4.69
455.582	4.71
455.785	4.76
455.988	4.88
456.192	4.84
456.395	4.82
456.598	4.75
456.801	4.8
457.005	4.77
457.208	4.76
457.411	4.62
457.614	4.65
457.817	4.69
458.021	4.64
458.224	4.69
458.427	4.72
458.63	4.65
458.833	4.65
459.036	4.63
459.239	4.65
459.442	4.63
459.645	4.59
459.848	4.58
460.051	4.59
460.254	4.6
460.457	4.58
460.66	4.64
460.863	4.7
461.066	4.69
461.269	4.71
461.472	4.68
461.675	4.74
461.878	4.84
462.081	4.84
462.284	4.79
462.486	4.8
462.689	4.8
462.892	4.7
463.095	4.73
463.298	4.93
463.5	4.95
463.703	4.95
463.906	4.94
464.109	5.11
464.311	5.1
464.514	5.08
464.717	5.16
464.92	5.18
465.122	5.21
465.325	5.27
465.528	5.19
465.73	5.14
465.933	5.15
466.135	5.25
466.338	5.16
466.541	5.22
