Data from 2938801__Reflection_03.txt Node
Date: Thu Mar 12 22:46:13 EDT 2015
User: robert
Spectrometer: USB4E03002
Autoset integration time: false
Trigger mode: 4
Integration Time (sec): 1.000000E-1
Scans to average: 10
Electric dark correction enabled: false
Nonlinearity correction enabled: false
Boxcar width: 5
Stray light correction enabled: false
XAxis mode: Wavelengths
Stop averaging: false
Number of Pixels in Spectrum: 3648
>>>>>Begin Spectral Data<<<<<
177.575	665.42
177.794	1486.11
178.014	519.87
178.233	598
178.452	283.78
178.672	280.15
178.891	325.56
179.11	276.46
179.33	289.33
179.549	307.46
179.768	248.93
179.987	210.23
180.207	224.75
180.426	222.88
180.645	215.76
180.864	241.63
181.084	271.83
181.303	182.58
181.522	157.63
181.741	124.85
181.96	127.82
182.179	129.04
182.398	137.37
182.618	121.85
182.837	121.16
183.056	133.95
183.275	121.78
183.494	115.4
183.713	114.95
183.932	118.99
184.151	120.67
184.37	105.75
184.589	112.01
184.808	105.32
185.027	112.46
185.246	118.76
185.465	106.21
185.684	129.27
185.903	123.82
186.122	127.33
186.341	145.86
186.56	143.28
186.779	153.55
186.998	160.1
187.216	161.84
187.435	152.68
187.654	145.99
187.873	163.08
188.092	147.36
188.311	158.06
188.53	154.44
188.748	137.09
188.967	144.65
189.186	142.75
189.405	139.55
189.623	138.61
189.842	135.59
190.061	134.7
190.28	130.13
190.498	123.73
190.717	121.31
190.936	117.98
191.154	114.14
191.373	108.45
191.592	106.29
191.81	109.42
192.029	103.57
192.248	99.78
192.466	96.42
192.685	86.11
192.904	91.18
193.122	91.84
193.341	102.41
193.559	127.19
193.778	140.07
193.996	146.36
194.215	135.34
194.433	167.06
194.652	205.29
194.87	223.62
195.089	259.38
195.307	226.97
195.526	207.47
195.744	207.77
195.963	178.83
196.181	180.86
196.399	185.71
196.618	173.96
196.836	156.63
197.055	144.04
197.273	147.15
197.491	128.71
197.71	146.87
197.928	162.35
198.146	162.81
198.365	135.16
198.583	134.25
198.801	128.04
199.019	161.11
199.238	150.5
199.456	142.35
199.674	137.39
199.892	147.96
200.111	138.19
200.329	133.49
200.547	148.87
200.765	183.06
200.983	167.58
201.202	161.47
201.42	137.68
201.638	143.48
201.856	151.05
202.074	158.28
202.292	150.37
202.51	129.17
202.728	136.73
202.946	112.73
203.165	112.21
203.383	117.17
203.601	119.56
203.819	118.93
204.037	124.11
204.255	152.2
204.473	135.59
204.691	137.31
204.909	143.54
205.127	126.95
205.345	131.88
205.562	120.27
205.78	112.95
205.998	124.11
206.216	120.67
206.434	121.07
206.652	103.92
206.87	104.66
207.088	97.18
207.306	104.01
207.523	103.74
207.741	102.64
207.959	114.69
208.177	120.32
208.395	100.69
208.612	105.98
208.83	97.05
209.048	96.98
209.266	97.92
209.483	110.57
209.701	107.41
209.919	107.89
210.136	118.38
210.354	110.16
210.572	105.89
210.79	113.89
211.007	109.17
211.225	113.96
211.442	109.96
211.66	111.38
211.878	107
212.095	102.16
212.313	99.86
212.53	92.41
212.748	89.17
212.966	91.3
213.183	85.14
213.401	89.47
213.618	91.16
213.836	92.52
214.053	92.88
214.271	91.17
214.488	102.69
214.705	107.58
214.923	110.48
215.14	118.99
215.358	128.6
215.575	143.65
215.793	135.66
216.01	119.14
216.227	113.48
216.445	110.64
216.662	121.66
216.879	107.03
217.097	114.54
217.314	98.66
217.531	92.81
217.749	91.77
217.966	89.08
218.183	86.24
218.4	87.39
218.618	93.52
218.835	92.91
219.052	91.46
219.269	87.47
219.487	82.9
219.704	88.64
219.921	87.78
220.138	77.32
220.355	75.9
220.572	78.16
220.79	82.17
221.007	73.78
221.224	74.3
221.441	70.19
221.658	70.98
221.875	63.24
222.092	63.67
222.309	65.4
222.526	67.87
222.743	65.63
222.96	60.51
223.177	58.2
223.394	58.85
223.611	57.84
223.828	58.15
224.045	54.59
224.262	52.68
224.479	50.37
224.696	47.35
224.913	43.6
225.13	45.51
225.347	43.85
225.564	40.02
225.781	37.8
225.997	36.13
226.214	32.39
226.431	31.62
226.648	29.52
226.865	26.1
227.082	25.05
227.298	22.07
227.515	18.62
227.732	17.77
227.949	17.75
228.165	16.12
228.382	14.05
228.599	13.6
228.816	13.02
229.032	13.41
229.249	12.53
229.466	11.55
229.682	11.29
229.899	11.41
230.116	10.93
230.332	10.68
230.549	11.34
230.765	12.7
230.982	14.09
231.199	13.93
231.415	13.93
231.632	17.02
231.848	18.04
232.065	19.12
232.281	19.59
232.498	19.32
232.714	18.83
232.931	19.6
233.147	18.88
233.364	18.36
233.58	18.47
233.797	17.43
234.013	15.82
234.23	15.07
234.446	16.05
234.662	15.67
234.879	16.28
235.095	17.26
235.312	16.97
235.528	17.8
235.744	18.36
235.961	18.65
236.177	20.71
236.393	21.29
236.61	22.73
236.826	22.64
237.042	22.52
237.258	23.55
237.475	21.75
237.691	21.83
237.907	21.07
238.123	19.66
238.339	18.64
238.556	17.54
238.772	16.86
238.988	15.75
239.204	15.72
239.42	16.03
239.636	15.31
239.853	15.31
240.069	14.94
240.285	14.33
240.501	13.6
240.717	13.35
240.933	12.85
241.149	11.71
241.365	11.04
241.581	11.15
241.797	11.07
242.013	11.72
242.229	11.94
242.445	11.91
242.661	11.85
242.877	11.78
243.093	12.17
243.309	12.86
243.525	13.17
243.741	13.67
243.957	13.81
244.173	13.42
244.388	13.03
244.604	12.91
244.82	12.58
245.036	12.47
245.252	12.47
245.468	11.42
245.683	10.74
245.899	10.82
246.115	10.62
246.331	10.09
246.547	10.27
246.762	9.91
246.978	9.64
247.194	9.43
247.409	9.32
247.625	9.12
247.841	9.28
248.057	9.14
248.272	8.84
248.488	8.81
248.703	8.95
248.919	8.8
249.135	9.25
249.35	9.83
249.566	10.46
249.782	10.83
249.997	11.69
250.213	12.03
250.428	12.6
250.644	12.9
250.859	12.55
251.075	12.57
251.29	12.32
251.506	11.62
251.721	10.93
251.937	10.29
252.152	10.5
252.368	10.09
252.583	10.42
252.798	10.32
253.014	10.47
253.229	11.01
253.445	11.29
253.66	11.86
253.875	12.05
254.091	12.24
254.306	12.8
254.521	11.68
254.737	11.06
254.952	10.57
255.167	10.36
255.383	10.76
255.598	10.15
255.813	9.69
256.028	9.66
256.244	9.9
256.459	10.48
256.674	10.13
256.889	10.94
257.104	11.72
257.32	11.71
257.535	10.78
257.75	10.66
257.965	10.67
258.18	9.91
258.395	9.43
258.61	8.7
258.826	8.23
259.041	8.06
259.256	7.57
259.471	7.27
259.686	7.01
259.901	7.26
260.116	6.92
260.331	6.94
260.546	7.22
260.761	7.28
260.976	7.57
261.191	7.5
261.406	7.56
261.621	8.14
261.836	8.46
262.05	8.76
262.265	8.72
262.48	9.37
262.695	9.38
262.91	9.16
263.125	9.66
263.34	10.34
263.555	11.04
263.769	11.12
263.984	10.43
264.199	10.11
264.414	10.23
264.629	10.42
264.843	10.69
265.058	10.41
265.273	9.92
265.488	10.01
265.702	9.17
265.917	9.09
266.132	9.06
266.346	9.18
266.561	9.37
266.776	9.51
266.99	8.8
267.205	8.53
267.42	8.27
267.634	8.29
267.849	7.98
268.063	8.18
268.278	8.05
268.492	8.19
268.707	8.56
268.922	8.71
269.136	8.36
269.351	9.22
269.565	9
269.78	9.01
269.994	9.53
270.209	9.48
270.423	8.79
270.637	8.5
270.852	8.19
271.066	7.87
271.281	7.41
271.495	7.42
271.709	7.3
271.924	6.86
272.138	7.26
272.353	6.93
272.567	6.61
272.781	7.11
272.996	7.11
273.21	7.35
273.424	7.21
273.638	7.78
273.853	7.83
274.067	7.82
274.281	8.34
274.495	8.29
274.71	8.71
274.924	8.97
275.138	8.28
275.352	8.23
275.566	7.99
275.781	8.05
275.995	7.67
276.209	7.74
276.423	7.66
276.637	7.72
276.851	7.62
277.065	7.47
277.279	7.53
277.493	8.21
277.707	8.42
277.921	8.73
278.135	9.03
278.349	8.93
278.563	8.91
278.777	8.7
278.991	8.45
279.205	8.48
279.419	8.38
279.633	8.33
279.847	8.39
280.061	8.47
280.275	8.13
280.489	7.85
280.703	7.94
280.917	7.87
281.131	7.98
281.344	7.81
281.558	7.5
281.772	7.56
281.986	7.06
282.2	6.6
282.414	6.56
282.627	6.68
282.841	6.95
283.055	7.01
283.269	6.9
283.482	6.86
283.696	7.12
283.91	7.22
284.123	7.21
284.337	7.57
284.551	7.57
284.764	7.78
284.978	7.65
285.192	7.22
285.405	7.09
285.619	6.95
285.833	6.99
286.046	6.94
286.26	6.92
286.473	6.96
286.687	6.99
286.9	7.12
287.114	6.54
287.327	7.03
287.541	7.07
287.754	7.24
287.968	7.72
288.181	7.66
288.395	7.82
288.608	7.95
288.822	7.68
289.035	7.68
289.248	7.94
289.462	8
289.675	7.45
289.889	7.42
290.102	7
290.315	6.81
290.529	6.91
290.742	6.78
290.955	6.81
291.169	7.01
291.382	7.32
291.595	7.14
291.808	7.5
292.022	7.85
292.235	8.41
292.448	8.39
292.661	8.18
292.875	8.06
293.088	8.08
293.301	8.11
293.514	7.96
293.727	7.64
293.94	7.94
294.153	7.78
294.367	7.53
294.58	7.1
294.793	7.49
295.006	7.87
295.219	7.92
295.432	7.87
295.645	7.74
295.858	7.89
296.071	7.87
296.284	7.67
296.497	7.46
296.71	7.62
296.923	7.73
297.136	7.54
297.349	7.16
297.562	7.16
297.775	7.14
297.988	7.14
298.201	7.04
298.414	7.1
298.626	6.86
298.839	7.07
299.052	6.99
299.265	6.82
299.478	7.17
299.691	7.42
299.903	7.53
300.116	7.62
300.329	7.78
300.542	7.89
300.755	7.74
300.967	8.28
301.18	8.4
301.393	8.57
301.605	8.69
301.818	8.64
302.031	8.7
302.243	8.84
302.456	8.96
302.669	8.99
302.881	9.13
303.094	9.07
303.307	9.02
303.519	8.93
303.732	8.83
303.944	8.98
304.157	9.15
304.37	9.23
304.582	9.05
304.795	8.9
305.007	9.08
305.22	9.1
305.432	9.43
305.645	9.34
305.857	9.56
306.069	9.66
306.282	9.58
306.494	9.05
306.707	8.99
306.919	9.19
307.132	9.39
307.344	8.98
307.556	8.75
307.769	8.95
307.981	8.89
308.193	8.74
308.406	8.38
308.618	8.63
308.83	8.71
309.043	8.69
309.255	8.6
309.467	8.56
309.679	8.78
309.892	8.79
310.104	8.4
310.316	8.37
310.528	8.49
310.74	8.51
310.953	8.37
311.165	8.53
311.377	8.49
311.589	8.39
311.801	8.5
312.013	8.39
312.225	8.5
312.437	8.98
312.649	9.08
312.862	9
313.074	9.12
313.286	9.67
313.498	9.57
313.71	9.82
313.922	10
314.134	9.74
314.346	9.93
314.558	10.26
314.77	9.85
314.982	9.58
315.193	9.91
315.405	10.14
315.617	9.82
315.829	9.7
316.041	9.85
316.253	9.42
316.465	9.69
316.677	9.68
316.888	9.55
317.1	9.74
317.312	10.32
317.524	9.98
317.736	9.92
317.947	9.79
318.159	10.28
318.371	10.1
318.583	10.8
318.794	11
319.006	11.33
319.218	11.1
319.43	11.32
319.641	11.49
319.853	11.77
320.064	11.74
320.276	12.14
320.488	12.05
320.699	12.45
320.911	12.21
321.123	12.12
321.334	12
321.546	12.36
321.757	11.86
321.969	11.74
322.18	11.51
322.392	11.91
322.603	11.69
322.815	11.99
323.026	11.44
323.238	11.27
323.449	11.2
323.661	10.83
323.872	10.76
324.083	10.98
324.295	11.07
324.506	11.11
324.718	11.1
324.929	11.25
325.14	11.18
325.352	11.25
325.563	11.57
325.774	12.15
325.986	12.56
326.197	12.74
326.408	13.01
326.62	12.86
326.831	13.13
327.042	13.38
327.253	13.41
327.464	13.48
327.676	13.87
327.887	13.83
328.098	13.6
328.309	13.9
328.52	13.91
328.732	13.95
328.943	14.33
329.154	14.57
329.365	14.54
329.576	14.9
329.787	15.28
329.998	15.57
330.209	15.74
330.42	16.17
330.631	16.05
330.842	16.23
331.053	16.79
331.264	16.44
331.475	16.41
331.686	16.6
331.897	16.39
332.108	16.22
332.319	16.26
332.53	16.58
332.741	16.23
332.952	16.24
333.163	16.38
333.374	16.13
333.585	16.31
333.795	16.63
334.006	16.59
334.217	16.82
334.428	16.81
334.639	16.66
334.849	16.85
335.06	17.05
335.271	17.23
335.482	16.99
335.692	16.94
335.903	17.05
336.114	16.69
336.325	16.84
336.535	16.93
336.746	17.09
336.957	17.06
337.167	16.93
337.378	16.96
337.589	16.86
337.799	17.17
338.01	17.19
338.22	17.02
338.431	17.06
338.642	16.88
338.852	16.5
339.063	16.37
339.273	16.61
339.484	16.49
339.694	16.19
339.905	16.17
340.115	15.88
340.326	15.97
340.536	16.11
340.746	15.94
340.957	15.86
341.167	15.9
341.378	16.1
341.588	16
341.799	15.77
342.009	15.73
342.219	15.7
342.43	15.86
342.64	15.7
342.85	15.78
343.061	16.08
343.271	16.25
343.481	16.46
343.691	16.1
343.902	16.07
344.112	16.25
344.322	16.31
344.532	16.39
344.743	16.52
344.953	16.23
345.163	15.95
345.373	15.79
345.583	15.55
345.793	15.35
346.004	15.27
346.214	15.36
346.424	15.19
346.634	15.24
346.844	15.28
347.054	14.91
347.264	15.19
347.474	15.13
347.684	15.04
347.894	15.26
348.104	15.3
348.314	15.57
348.524	15.3
348.734	15.82
348.944	15.67
349.154	15.21
349.364	15.45
349.574	15.31
349.784	15.45
349.994	15.68
350.204	15.63
350.413	15.68
350.623	15.44
350.833	15.5
351.043	15.38
351.253	15.34
351.463	15.69
351.672	15.48
351.882	15.42
352.092	15.43
352.302	15.35
352.511	15.4
352.721	15.49
352.931	15.66
353.141	15.54
353.35	15.18
353.56	15.13
353.77	14.71
353.979	14.76
354.189	14.89
354.399	14.69
354.608	14.78
354.818	14.59
355.027	14.33
355.237	14.07
355.447	14.14
355.656	14.35
355.866	14.29
356.075	14.47
356.285	14.5
356.494	14.37
356.704	14.61
356.913	14.46
357.123	14.53
357.332	14.33
357.542	14.39
357.751	14.3
357.96	13.91
358.17	13.98
358.379	13.88
358.589	13.59
358.798	13.54
359.007	13.32
359.217	13.1
359.426	12.91
359.635	13.04
359.845	13.17
360.054	13.08
360.263	13.21
360.472	13.27
360.682	13.29
360.891	13.49
361.1	13.55
361.309	13.67
361.519	13.84
361.728	13.88
361.937	13.96
362.146	13.82
362.355	14.04
362.564	14.33
362.774	14.39
362.983	14.42
363.192	14.44
363.401	14.34
363.61	14.3
363.819	14.01
364.028	14
364.237	13.71
364.446	13.65
364.655	13.54
364.864	13.39
365.073	13.47
365.282	13.53
365.491	13.44
365.7	13.47
365.909	13.46
366.118	13.9
366.327	14.02
366.536	14.12
366.745	14.24
366.954	14.26
367.162	14.23
367.371	13.9
367.58	13.91
367.789	14.15
367.998	14.1
368.207	14.06
368.415	14.06
368.624	13.97
368.833	14.1
369.042	14.03
369.25	13.87
369.459	13.8
369.668	14.02
369.877	13.89
370.085	13.61
370.294	13.77
370.503	13.8
370.711	13.5
370.92	13.28
371.129	13.5
371.337	13.51
371.546	13.54
371.754	13.64
371.963	13.31
372.171	13.29
372.38	13.33
372.589	13.2
372.797	13.14
373.006	13.17
373.214	13.31
373.423	12.95
373.631	13.15
373.84	13.15
374.048	12.83
374.256	12.98
374.465	13.02
374.673	12.94
374.882	12.89
375.09	12.92
375.298	12.93
375.507	13.06
375.715	13.12
375.923	13.09
376.132	12.89
376.34	12.92
376.548	12.96
376.757	13.04
376.965	13.05
377.173	13.09
377.381	12.98
377.59	12.6
377.798	12.37
378.006	12.29
378.214	12.14
378.423	12.11
378.631	12.03
378.839	11.86
379.047	11.66
379.255	11.64
379.463	11.74
379.671	11.7
379.879	11.96
380.088	12.3
380.296	12.43
380.504	12.41
380.712	12.33
380.92	12.32
381.128	12.34
381.336	12.56
381.544	12.44
381.752	12.36
381.96	12.48
382.168	12.58
382.376	12.14
382.584	12.1
382.791	12.04
382.999	12.19
383.207	12.2
383.415	12.07
383.623	12.06
383.831	12.11
384.039	12.07
384.247	12.18
384.454	12.1
384.662	12.11
384.87	12.22
385.078	12.33
385.285	12.4
385.493	12.55
385.701	12.81
385.909	12.53
386.116	12.52
386.324	12.62
386.532	12.53
386.739	12.54
386.947	12.68
387.155	12.54
387.362	12.5
387.57	12.38
387.778	12.23
387.985	12.15
388.193	12.34
388.4	12.4
388.608	12.32
388.816	12.23
389.023	12.21
389.231	12.2
389.438	12.15
389.646	12.07
389.853	12.1
390.061	12.04
390.268	11.94
390.475	11.81
390.683	11.73
390.89	11.7
391.098	11.56
391.305	11.54
391.512	11.51
391.72	11.46
391.927	11.28
392.135	11.35
392.342	11.21
392.549	11.26
392.756	11.05
392.964	10.98
393.171	11.06
393.378	10.98
393.586	10.91
393.793	10.73
394	10.69
394.207	10.76
394.414	10.61
394.622	10.8
394.829	10.83
395.036	11.1
395.243	11.32
395.45	11.34
395.657	11.33
395.864	11.36
396.072	11.64
396.279	11.81
396.486	11.85
396.693	12.04
396.9	12
397.107	11.81
397.314	11.79
397.521	11.64
397.728	11.43
397.935	11.72
398.142	11.93
398.349	11.65
398.556	11.55
398.763	11.69
398.97	11.58
399.177	11.55
399.383	11.64
399.59	11.56
399.797	11.75
400.004	11.64
400.211	11.51
400.418	11.3
400.625	11.5
400.831	11.49
401.038	11.55
401.245	11.39
401.452	11.45
401.658	11.41
401.865	11.42
402.072	11.12
402.279	11.27
402.485	11.28
402.692	11.17
402.899	11.12
403.105	11.16
403.312	10.86
403.519	11.02
403.725	10.88
403.932	10.74
404.138	10.86
404.345	10.77
404.552	10.76
404.758	10.71
404.965	10.81
405.171	10.8
405.378	10.87
405.584	10.86
405.791	10.74
405.997	10.86
406.204	11.04
406.41	10.87
406.617	11.06
406.823	11.07
407.029	11.24
407.236	11.26
407.442	11.13
407.649	11.02
407.855	11.11
408.061	11.33
408.268	11.25
408.474	11.39
408.68	11.43
408.887	11.15
409.093	11.24
409.299	11.02
409.505	10.91
409.712	11
409.918	10.86
410.124	11
410.33	10.91
410.537	10.76
410.743	10.64
410.949	10.58
411.155	10.73
411.361	10.52
411.567	10.63
411.773	10.62
411.98	10.7
412.186	10.75
412.392	10.69
412.598	10.69
412.804	10.88
413.01	10.84
413.216	10.96
413.422	11.03
413.628	11.21
413.834	11.25
414.04	11.33
414.246	11.15
414.452	11.22
414.658	11.13
414.864	10.98
415.07	10.91
415.275	10.98
415.481	10.89
415.687	10.77
415.893	10.77
416.099	10.8
416.305	10.74
416.511	10.81
416.716	10.67
416.922	10.63
417.128	10.81
417.334	10.93
417.539	10.81
417.745	10.73
417.951	10.79
418.157	10.69
418.362	10.59
418.568	10.56
418.774	10.52
418.979	10.45
419.185	10.52
419.391	10.37
419.596	10.29
419.802	10.3
420.008	10.36
420.213	10.4
420.419	10.44
420.624	10.43
420.83	10.46
421.035	10.45
421.241	10.54
421.446	10.47
421.652	10.43
421.857	10.41
422.063	10.41
422.268	10.42
422.474	10.37
422.679	10.34
422.885	10.3
423.09	10.35
423.295	10.37
423.501	10.43
423.706	10.46
423.911	10.54
424.117	10.59
424.322	10.57
424.527	10.45
424.733	10.41
424.938	10.37
425.143	10.39
425.349	10.36
425.554	10.39
425.759	10.36
425.964	10.36
426.169	10.38
426.375	10.31
426.58	10.35
426.785	10.48
426.99	10.58
427.195	10.57
427.4	10.63
427.605	10.63
427.811	10.58
428.016	10.62
428.221	10.57
428.426	10.59
428.631	10.63
428.836	10.6
429.041	10.7
429.246	10.68
429.451	10.81
429.656	10.77
429.861	10.88
430.066	10.98
430.271	10.8
430.476	10.83
430.681	10.77
430.886	10.82
431.09	10.89
431.295	10.7
431.5	10.67
431.705	10.64
431.91	10.57
432.115	10.36
432.32	10.35
432.524	10.48
432.729	10.57
432.934	10.53
433.139	10.48
433.343	10.42
433.548	10.56
433.753	10.53
433.958	10.55
434.162	10.64
434.367	10.72
434.572	10.71
434.776	10.67
434.981	10.63
435.186	10.75
435.39	10.8
435.595	10.78
435.799	10.7
436.004	10.72
436.209	10.69
436.413	10.65
436.618	10.7
436.822	10.67
437.027	10.66
437.231	10.63
437.436	10.62
437.64	10.69
437.845	10.68
438.049	10.71
438.253	10.77
438.458	10.78
438.662	10.79
438.867	10.78
439.071	10.87
439.275	10.74
439.48	10.65
439.684	10.57
439.888	10.51
440.093	10.47
440.297	10.45
440.501	10.43
440.706	10.41
440.91	10.42
441.114	10.36
441.318	10.27
441.523	10.4
441.727	10.51
441.931	10.55
442.135	10.53
442.339	10.59
442.543	10.52
442.748	10.51
442.952	10.65
443.156	10.64
443.36	10.6
443.564	10.62
443.768	10.66
443.972	10.66
444.176	10.71
444.38	10.67
444.584	10.69
444.788	10.73
444.992	10.68
445.196	10.53
445.4	10.57
445.604	10.56
445.808	10.52
446.012	10.46
446.216	10.36
446.42	10.3
446.624	10.28
446.828	10.28
447.032	10.29
447.235	10.32
447.439	10.34
447.643	10.25
447.847	10.35
448.051	10.32
448.254	10.3
448.458	10.38
448.662	10.34
448.866	10.35
449.069	10.33
449.273	10.32
449.477	10.37
449.681	10.34
449.884	10.46
450.088	10.45
450.292	10.47
450.495	10.45
450.699	10.46
450.902	10.53
451.106	10.6
451.31	10.68
451.513	10.65
451.717	10.53
451.92	10.61
452.124	10.54
452.327	10.52
452.531	10.65
452.734	10.66
452.938	10.72
453.141	10.63
453.345	10.59
453.548	10.54
453.752	10.61
453.955	10.71
454.158	10.68
454.362	10.63
454.565	10.57
454.769	10.42
454.972	10.55
455.175	10.53
455.379	10.67
455.582	10.77
455.785	10.71
455.988	10.7
456.192	10.62
456.395	10.7
456.598	10.73
456.801	10.82
457.005	10.86
457.208	10.76
457.411	10.76
457.614	10.62
457.817	10.41
458.021	10.44
458.224	10.44
458.427	10.38
458.63	10.39
