Data from 2938761__Reflection_01.txt Node
Date: Fri Mar 13 17:06:22 EDT 2015
User: robert
Spectrometer: USB4E03002
Autoset integration time: false
Trigger mode: 4
Integration Time (sec): 1.000000E-1
Scans to average: 10
Electric dark correction enabled: false
Nonlinearity correction enabled: false
Boxcar width: 5
Stray light correction enabled: false
XAxis mode: Wavelengths
Stop averaging: false
Number of Pixels in Spectrum: 3648
>>>>>Begin Spectral Data<<<<<
177.575	-1189.58
177.794	-5453.85
178.014	-962.82
178.233	-518.18
178.452	-397.25
178.672	-335.25
178.891	-210.28
179.11	-167.81
179.33	-217.52
179.549	-376.89
179.768	-269.05
179.987	-329.77
180.207	-247.99
180.426	-260.13
180.645	-1071.11
180.864	-4880.95
181.084	1170.79
181.303	1089.66
181.522	355.31
181.741	577.4
181.96	915.96
182.179	484.96
182.398	420.25
182.618	394.89
182.837	282.57
183.056	308.64
183.275	235.19
183.494	187.18
183.713	177.35
183.932	155.52
184.151	141.11
184.37	148.34
184.589	112.55
184.808	147.16
185.027	149.83
185.246	140.31
185.465	154.37
185.684	210.24
185.903	327.33
186.122	340.15
186.341	561.01
186.56	2551.06
186.779	1080.18
186.998	-609.47
187.216	-1530.3
187.435	838.89
187.654	-6733.33
187.873	-622.67
188.092	15666.67
188.311	859.8
188.53	331.33
188.748	341.5
188.967	307.91
189.186	303.59
189.405	201.63
189.623	229.34
189.842	297.32
190.061	501.96
190.28	321.56
190.498	388.36
190.717	343.8
190.936	488.11
191.154	428.38
191.373	376.99
191.592	306.06
191.81	319.75
192.029	576.67
192.248	771.79
192.466	249.86
192.685	224.3
192.904	276.4
193.122	275.38
193.341	333.64
193.559	718.56
193.778	1140
193.996	3340.74
194.215	-2451.22
194.433	3565.52
194.652	-1314.08
194.87	-515.76
195.089	-5326.32
195.307	2098.21
195.526	-6500
195.744	1318.81
195.963	672.25
196.181	502.75
196.399	459.83
196.618	402.24
196.836	407.76
197.055	348.52
197.273	296.31
197.491	333.95
197.71	255.7
197.928	229.11
198.146	226.75
198.365	204.82
198.583	217.24
198.801	174.93
199.019	189.69
199.238	190.98
199.456	170.83
199.674	181.01
199.892	188.5
200.111	200.3
200.329	204.72
200.547	254.56
200.765	348.11
200.983	402.74
201.202	431.61
201.42	395.5
201.638	276.54
201.856	395.59
202.074	281.06
202.292	372.78
202.51	286.88
202.728	316.85
202.946	233.85
203.165	211.06
203.383	183.47
203.601	173.93
203.819	225.21
204.037	267.59
204.255	273.41
204.473	335.56
204.691	214.32
204.909	196.05
205.127	194.7
205.345	182.98
205.562	204.17
205.78	211.05
205.998	261.37
206.216	357.79
206.434	298.56
206.652	236.72
206.87	392.92
207.088	326.97
207.306	1238.1
207.523	617.39
207.741	733.33
207.959	495.29
208.177	619.01
208.395	228.82
208.612	129.78
208.83	147.3
209.048	187.36
209.266	184.55
209.483	217.95
209.701	202.04
209.919	223.28
210.136	186.88
210.354	238.1
210.572	233.48
210.79	255.41
211.007	281.05
211.225	255.36
211.442	284.62
211.66	231.88
211.878	171.16
212.095	186.67
212.313	156.55
212.53	163.68
212.748	134.7
212.966	131.29
213.183	160.98
213.401	185.37
213.618	150.78
213.836	132.74
214.053	147.13
214.271	231.14
214.488	244.19
214.705	316.71
214.923	334.35
215.14	397.95
215.358	378.25
215.575	238.49
215.793	184.03
216.01	230.89
216.227	267.98
216.445	212.94
216.662	173.6
216.879	147.2
217.097	131.21
217.314	112.85
217.531	96.5
217.749	90.53
217.966	90.57
218.183	87.89
218.4	71.25
218.618	65.49
218.835	58.13
219.052	64.8
219.269	62.55
219.487	71.84
219.704	70.91
219.921	69.3
220.138	71.59
220.355	66.86
220.572	57.37
220.79	70.61
221.007	61.74
221.224	73.31
221.441	59.12
221.658	56.85
221.875	50.72
222.092	50.41
222.309	65.63
222.526	65.06
222.743	65.05
222.96	68.08
223.177	61.01
223.394	64.73
223.611	63.94
223.828	66.92
224.045	73.83
224.262	66.26
224.479	61.9
224.696	49.26
224.913	45.74
225.13	45.55
225.347	41.2
225.564	39.21
225.781	31.34
225.997	25.47
226.214	23.65
226.431	21.52
226.648	18.93
226.865	18.36
227.082	19.31
227.298	17.25
227.515	14.32
227.732	12.92
227.949	11.29
228.165	11.61
228.382	11.55
228.599	10.65
228.816	9.84
229.032	10.79
229.249	10.36
229.466	10.05
229.682	10.63
229.899	11.48
230.116	11.5
230.332	12.51
230.549	12.4
230.765	12.34
230.982	12.41
231.199	13.2
231.415	13.64
231.632	14.56
231.848	14.22
232.065	15.4
232.281	16.48
232.498	16.56
232.714	16.09
232.931	16.89
233.147	17.7
233.364	16.43
233.58	15.56
233.797	14.94
234.013	14.86
234.23	14.52
234.446	14.22
234.662	13.79
234.879	13.31
235.095	13.72
235.312	13.85
235.528	13.53
235.744	14.8
235.961	15.82
236.177	16.01
236.393	16.81
236.61	15.72
236.826	14.45
237.042	13.51
237.258	14.16
237.475	15.11
237.691	13.97
237.907	12.55
238.123	12.83
238.339	12.4
238.556	12.75
238.772	11.49
238.988	12
239.204	12.89
239.42	10.85
239.636	9.6
239.853	7.78
240.069	7.38
240.285	7.85
240.501	7.47
240.717	7.94
240.933	7.51
241.149	6.34
241.365	6.26
241.581	5.35
241.797	5.5
242.013	6.33
242.229	6.31
242.445	6.07
242.661	6.19
242.877	6.13
243.093	5.34
243.309	4.91
243.525	5.4
243.741	6.7
243.957	7.3
244.173	7.71
244.388	7.46
244.604	7.61
244.82	8.74
245.036	8.72
245.252	8.81
245.468	8.71
245.683	8.39
245.899	8
246.115	6.95
246.331	6.74
246.547	6.62
246.762	6.15
246.978	6.4
247.194	5.86
247.409	5.71
247.625	5.8
247.841	6.21
248.057	6.05
248.272	6.08
248.488	6.07
248.703	6.2
248.919	6.11
249.135	6.44
249.35	6.23
249.566	6.76
249.782	6.47
249.997	5.8
250.213	5.67
250.428	6.47
250.644	7.38
250.859	7.11
251.075	6.75
251.29	7.13
251.506	6.94
251.721	6.85
251.937	6.97
252.152	7.43
252.368	7.64
252.583	7.08
252.798	7.09
253.014	6.98
253.229	8.45
253.445	8.56
253.66	9.3
253.875	9.76
254.091	9.92
254.306	10.16
254.521	10.14
254.737	10.81
254.952	10.32
255.167	10.33
255.383	9.85
255.598	8.14
255.813	7.97
256.028	8.46
256.244	7.96
256.459	8.05
256.674	7.21
256.889	7.33
257.104	7.95
257.32	8.58
257.535	7.7
257.75	7.3
257.965	6.88
258.18	6.9
258.395	5.96
258.61	5.84
258.826	5.82
259.041	5.46
259.256	5.38
259.471	4.94
259.686	4.85
259.901	5.01
260.116	5.15
260.331	5.02
260.546	4.84
260.761	4.89
260.976	4.86
261.191	4.74
261.406	5.33
261.621	5.43
261.836	5.3
262.05	5.38
262.265	5.37
262.48	5.28
262.695	6.05
262.91	6.96
263.125	6.9
263.34	7.88
263.555	8
263.769	8.12
263.984	8.15
264.199	8.41
264.414	8.09
264.629	8.47
264.843	8.51
265.058	8.3
265.273	7.57
265.488	7.32
265.702	6.24
265.917	6.59
266.132	6.15
266.346	6.11
266.561	5.89
266.776	6.01
266.99	5.63
267.205	5.41
267.42	5.21
267.634	5.27
267.849	5.39
268.063	5.99
268.278	5.57
268.492	5.06
268.707	4.84
268.922	5.12
269.136	5.49
269.351	5.61
269.565	5.46
269.78	5.55
269.994	5.52
270.209	5.69
270.423	5.65
270.637	5.73
270.852	5.92
271.066	5.79
271.281	5.7
271.495	5.37
271.709	5.14
271.924	4.9
272.138	4.74
272.353	4.38
272.567	4.2
272.781	3.91
272.996	3.75
273.21	4.22
273.424	4.11
273.638	3.88
273.853	4.09
274.067	4.23
274.281	4.83
274.495	4.63
274.71	4.55
274.924	4.53
275.138	4.83
275.352	4.88
275.566	4.28
275.781	4.66
275.995	4.83
276.209	4.73
276.423	4.72
276.637	4.49
276.851	4.89
277.065	5.19
277.279	4.91
277.493	4.29
277.707	4.38
277.921	4.54
278.135	4.49
278.349	4.24
278.563	4.41
278.777	4.72
278.991	5.08
279.205	5.14
279.419	4.7
279.633	5.56
279.847	6.13
280.061	6.13
280.275	5.84
280.489	5.76
280.703	6.39
280.917	6.11
281.131	5.87
281.344	5.47
281.558	5.17
281.772	5.47
281.986	4.85
282.2	4.61
282.414	4.53
282.627	4.75
282.841	4.56
283.055	4.34
283.269	4.3
283.482	3.91
283.696	4.02
283.91	4.06
284.123	4.04
284.337	4.18
284.551	4.21
284.764	4.24
284.978	4.18
285.192	4.38
285.405	4.32
285.619	4.32
285.833	4.62
286.046	4.55
286.26	4.28
286.473	4.15
286.687	4.35
286.9	4.36
287.114	4.48
287.327	4.35
287.541	4.01
287.754	3.91
287.968	3.82
288.181	3.67
288.395	3.48
288.608	3.99
288.822	4.23
289.035	4.01
289.248	3.72
289.462	3.48
289.675	3.49
289.889	3.9
290.102	3.59
290.315	3.73
290.529	3.88
290.742	4.12
290.955	4.05
291.169	4.09
291.382	3.94
291.595	3.91
291.808	4.04
292.022	3.95
292.235	3.73
292.448	4.31
292.661	4.07
292.875	4.1
293.088	4.03
293.301	3.97
293.514	4.07
293.727	4.14
293.94	4.15
294.153	4.35
294.367	4.19
294.58	4.13
294.793	3.74
295.006	3.73
295.219	3.53
295.432	3.51
295.645	3.41
295.858	3.15
296.071	2.87
296.284	3.14
296.497	3.37
296.71	3.52
296.923	3.73
297.136	3.94
297.349	4.3
297.562	4.45
297.775	4.48
297.988	4.7
298.201	4.75
298.414	5.12
298.626	5.16
298.839	4.93
299.052	4.87
299.265	4.71
299.478	4.49
299.691	4.39
299.903	4.38
300.116	4.32
300.329	4.15
300.542	4.14
300.755	4.11
300.967	3.94
301.18	3.91
301.393	4.27
301.605	4.32
301.818	4.22
302.031	4.1
302.243	4.19
302.456	4.31
302.669	4.1
302.881	4.36
303.094	4.1
303.307	4.09
303.519	3.83
303.732	3.83
303.944	3.86
304.157	4.35
304.37	4.29
304.582	4.05
304.795	3.97
305.007	4.24
305.22	4.22
305.432	4.17
305.645	4.3
305.857	4.83
306.069	4.93
306.282	4.91
306.494	5.01
306.707	5.16
306.919	5.45
307.132	5.23
307.344	5.22
307.556	5.08
307.769	5.47
307.981	5.31
308.193	4.8
308.406	4.64
308.618	4.84
308.83	4.45
309.043	3.89
309.255	3.78
309.467	3.94
309.679	3.79
309.892	4.1
310.104	4.09
310.316	4.37
310.528	4.35
310.74	4.57
310.953	4.56
311.165	4.74
311.377	5.17
311.589	5
311.801	5.06
312.013	4.95
312.225	4.78
312.437	4.92
312.649	5.05
312.862	5.36
313.074	5.28
313.286	5.29
313.498	5.23
313.71	5.23
313.922	5.68
314.134	5.45
314.346	5.9
314.558	5.49
314.77	5.63
314.982	5.05
315.193	4.67
315.405	4.41
315.617	4.21
315.829	4.23
316.041	4.28
316.253	3.97
316.465	4.39
316.677	4.44
316.888	4.94
317.1	4.72
317.312	4.95
317.524	5.1
317.736	4.84
317.947	5.14
318.159	5.54
318.371	5.45
318.583	5.98
318.794	6.02
319.006	6.11
319.218	5.52
319.43	5.57
319.641	5.57
319.853	6.03
320.064	6.68
320.276	6.98
320.488	6.34
320.699	6.26
320.911	5.98
321.123	6.17
321.334	5.84
321.546	6.52
321.757	6.96
321.969	7.11
322.18	6.85
322.392	6.54
322.603	5.98
322.815	6.5
323.026	6.49
323.238	6.22
323.449	6.13
323.661	6.31
323.872	6.34
324.083	5.94
324.295	5.98
324.506	5.87
324.718	5.88
324.929	6.17
325.14	6.26
325.352	6.35
325.563	6.54
325.774	6.75
325.986	6.75
326.197	6.69
326.408	6.68
326.62	6.79
326.831	6.95
327.042	7.41
327.253	7.3
327.464	7.28
327.676	7.62
327.887	7.77
328.098	7.55
328.309	7.56
328.52	7.51
328.732	7.41
328.943	7.39
329.154	7.23
329.365	6.99
329.576	7.33
329.787	7.21
329.998	6.82
330.209	6.64
330.42	6.74
330.631	6.95
330.842	7.2
331.053	7.19
331.264	7.23
331.475	7.48
331.686	7.66
331.897	7.44
332.108	7.45
332.319	7.71
332.53	7.64
332.741	7.48
332.952	7.39
333.163	7.14
333.374	7.39
333.585	7.36
333.795	7.79
334.006	7.63
334.217	8.03
334.428	8.16
334.639	7.98
334.849	7.83
335.06	8.03
335.271	8.04
335.482	8.38
335.692	8.14
335.903	8.38
336.114	8.18
336.325	8.54
336.535	8.22
336.746	8.21
336.957	8.62
337.167	8.86
337.378	9.05
337.589	9.29
337.799	9.23
338.01	9.44
338.22	9.17
338.431	8.98
338.642	8.46
338.852	8.55
339.063	8.24
339.273	8.39
339.484	8.15
339.694	7.96
339.905	7.72
340.115	7.61
340.326	7.43
340.536	7.3
340.746	7.7
340.957	7.9
341.167	7.98
341.378	8.3
341.588	7.86
341.799	7.98
342.009	7.84
342.219	7.91
342.43	7.85
342.64	8.17
342.85	8.35
343.061	8.1
343.271	8.05
343.481	7.59
343.691	7.46
343.902	7.38
344.112	7.4
344.322	7.33
344.532	7.14
344.743	7.08
344.953	6.82
345.163	6.78
345.373	6.69
345.583	6.72
345.793	6.74
346.004	6.71
346.214	6.57
346.424	6.75
346.634	6.95
346.844	7.2
347.054	7.51
347.264	7.72
347.474	7.66
347.684	7.73
347.894	7.61
348.104	7.81
348.314	7.89
348.524	8.11
348.734	7.72
348.944	7.66
349.154	7.43
349.364	7.25
349.574	6.99
349.784	7.05
349.994	6.67
350.204	6.9
350.413	6.43
350.623	6.33
350.833	6
351.043	6.45
351.253	6.19
351.463	5.99
351.672	5.94
351.882	6.05
352.092	5.88
352.302	6.26
352.511	6.06
352.721	6.04
352.931	6.05
353.141	6.37
353.35	6.26
353.56	6.4
353.77	6.66
353.979	6.69
354.189	6.72
354.399	6.93
354.608	6.89
354.818	7.06
355.027	7.35
355.237	7.5
355.447	7.38
355.656	7.36
355.866	7.34
356.075	7.09
356.285	6.97
356.494	7.01
356.704	6.87
356.913	6.71
357.123	6.63
357.332	6.55
357.542	6.4
357.751	6.52
357.96	6.56
358.17	6.54
358.379	6.81
358.589	6.84
358.798	6.84
359.007	6.74
359.217	6.89
359.426	6.68
359.635	6.88
359.845	6.93
360.054	6.81
360.263	6.48
360.472	6.47
360.682	6.31
360.891	6.17
361.1	6.08
361.309	6.19
361.519	6.13
361.728	6.16
361.937	6.11
362.146	5.98
362.355	5.96
362.564	6.28
362.774	6.39
362.983	6.37
363.192	6.51
363.401	6.6
363.61	6.48
363.819	6.58
364.028	6.42
364.237	6.37
364.446	6.35
364.655	6.13
364.864	5.85
365.073	5.56
365.282	5.71
365.491	5.7
365.7	5.79
365.909	6.09
366.118	5.89
366.327	6.03
366.536	6.09
366.745	6.07
366.954	6.13
367.162	6.24
367.371	6.38
367.58	6.44
367.789	6.37
367.998	6.3
368.207	6.11
368.415	5.98
368.624	6.01
368.833	5.8
369.042	5.77
369.25	6.11
369.459	6.11
369.668	5.99
369.877	5.7
370.085	5.98
370.294	5.8
370.503	5.9
370.711	5.9
370.92	5.75
371.129	6.15
371.337	6.13
371.546	5.94
371.754	5.79
371.963	5.84
372.171	5.89
372.38	5.56
372.589	5.72
372.797	5.75
373.006	5.75
373.214	6.02
373.423	5.89
373.631	6.02
373.84	6.01
374.048	6.32
374.256	6.4
374.465	6.31
374.673	6.51
374.882	6.42
375.09	6.2
375.298	6.2
375.507	6.18
375.715	6.14
375.923	6.07
376.132	6.13
376.34	5.87
376.548	5.89
376.757	5.77
376.965	5.56
377.173	5.44
377.381	5.47
377.59	5.58
377.798	5.73
378.006	5.54
378.214	5.42
378.423	5.24
378.631	5.33
378.839	5.34
379.047	5.52
379.255	5.74
379.463	5.74
379.671	5.63
379.879	5.52
380.088	5.3
380.296	5.38
380.504	5.32
380.712	5.55
380.92	5.34
381.128	5.16
381.336	5.1
381.544	5.16
381.752	5.19
381.96	5.31
382.168	5.27
382.376	5.12
382.584	5.09
382.791	5.28
382.999	5.16
383.207	5.65
383.415	5.66
383.623	5.75
383.831	5.42
384.039	5.61
384.247	5.56
384.454	5.78
384.662	5.85
384.87	5.74
385.078	5.63
385.285	5.59
385.493	5.46
385.701	5.34
385.909	5.21
386.116	5.28
386.324	4.99
386.532	4.97
386.739	4.83
386.947	4.98
387.155	5.1
387.362	5.23
387.57	5.11
387.778	4.81
387.985	5.03
388.193	4.94
388.4	4.89
388.608	4.92
388.816	4.95
389.023	5.03
389.231	4.9
389.438	4.89
389.646	4.7
389.853	4.57
390.061	4.75
390.268	4.48
390.475	4.73
390.683	4.72
390.89	4.73
391.098	4.52
391.305	4.26
391.512	4.18
391.72	4.28
391.927	4.36
392.135	4.42
392.342	4.3
392.549	4.46
392.756	4.12
392.964	4.26
393.171	4.21
393.378	4.42
393.586	4.47
393.793	4.45
394	4.46
394.207	4.49
394.414	4.65
394.622	4.61
394.829	4.65
395.036	4.87
395.243	4.7
395.45	4.79
395.657	4.75
395.864	4.86
396.072	4.88
396.279	4.69
396.486	4.71
396.693	4.67
396.9	4.67
397.107	4.7
397.314	4.78
397.521	4.67
397.728	4.73
397.935	4.82
398.142	4.88
398.349	4.91
398.556	4.78
398.763	4.78
398.97	4.69
399.177	4.84
399.383	4.64
399.59	4.57
399.797	4.66
400.004	4.65
400.211	4.36
400.418	4.36
400.625	4.26
400.831	4.42
401.038	4.27
401.245	4.38
401.452	4.26
401.658	4.41
401.865	4.38
402.072	4.49
402.279	4.33
402.485	4.41
402.692	4.38
402.899	4.46
403.105	4.34
403.312	4.36
403.519	4.36
403.725	4.28
403.932	4.26
404.138	4.19
404.345	4.08
404.552	4.11
404.758	4.21
404.965	4.08
405.171	3.9
405.378	3.98
405.584	4.1
405.791	4.02
405.997	4.16
406.204	3.97
406.41	3.96
406.617	4.07
406.823	4.19
407.029	4.09
407.236	4.12
407.442	4.16
407.649	4.24
407.855	4.04
408.061	4.07
408.268	4.01
408.474	4.13
408.68	4.06
408.887	4.01
409.093	3.89
409.299	3.99
409.505	4.03
409.712	4.3
409.918	4.22
410.124	4.35
410.33	4.17
410.537	4.06
410.743	4.09
410.949	4.2
411.155	4.17
411.361	4.22
411.567	3.95
411.773	4.13
411.98	4
412.186	3.97
412.392	3.85
412.598	3.96
412.804	4.06
413.01	4.09
413.216	4.08
413.422	4.04
413.628	4.03
413.834	4.28
414.04	4.06
414.246	3.91
414.452	3.97
414.658	3.89
414.864	3.79
415.07	3.85
415.275	3.9
415.481	3.97
415.687	3.95
415.893	3.84
416.099	3.76
416.305	3.64
416.511	3.72
416.716	3.53
416.922	3.66
417.128	3.76
417.334	3.67
417.539	3.53
417.745	3.54
417.951	3.54
418.157	3.54
418.362	3.51
418.568	3.68
418.774	3.66
418.979	3.66
419.185	3.6
419.391	3.48
419.596	3.42
419.802	3.46
420.008	3.38
420.213	3.33
420.419	3.3
420.624	3.24
420.83	3.18
421.035	3.14
421.241	3.14
421.446	3.13
421.652	3.25
421.857	3.26
422.063	3.26
422.268	3.27
422.474	3.3
422.679	3.31
422.885	3.24
423.09	3.21
423.295	3.15
423.501	3.11
423.706	3.15
423.911	3.09
424.117	3.1
424.322	3.08
424.527	3.07
424.733	2.98
424.938	3.01
425.143	3.12
425.349	3.17
425.554	3.22
425.759	3.25
425.964	3.23
426.169	3.33
426.375	3.3
426.58	3.25
426.785	3.29
426.99	3.47
427.195	3.45
427.4	3.54
427.605	3.5
427.811	3.48
428.016	3.6
428.221	3.54
428.426	3.4
428.631	3.44
428.836	3.49
429.041	3.53
429.246	3.5
429.451	3.55
429.656	3.43
429.861	3.42
430.066	3.61
430.271	3.48
430.476	3.53
430.681	3.48
430.886	3.41
431.09	3.43
431.295	3.31
431.5	3.24
431.705	3.21
431.91	3.23
432.115	3.19
432.32	3.05
432.524	3.07
432.729	3.05
432.934	3.19
433.139	3.26
433.343	3.06
433.548	3.13
433.753	3.08
433.958	3.12
434.162	3.14
434.367	3.2
434.572	3.19
434.776	3.33
434.981	3.42
435.186	3.41
435.39	3.46
435.595	3.62
435.799	3.49
436.004	3.57
436.209	3.53
436.413	3.5
436.618	3.42
436.822	3.49
437.027	3.5
437.231	3.46
437.436	3.45
437.64	3.38
437.845	3.39
438.049	3.44
438.253	3.4
438.458	3.38
438.662	3.38
438.867	3.42
439.071	3.38
439.275	3.22
439.48	3.17
439.684	3.18
439.888	3.21
440.093	3.21
440.297	3.21
440.501	3.26
440.706	3.22
440.91	3.2
441.114	3.21
441.318	3.22
441.523	3.3
441.727	3.34
441.931	3.32
442.135	3.31
442.339	3.26
442.543	3.21
442.748	3.18
442.952	3.28
443.156	3.33
443.36	3.37
443.564	3.4
443.768	3.36
443.972	3.46
444.176	3.47
444.38	3.46
444.584	3.51
444.788	3.45
444.992	3.46
445.196	3.33
445.4	3.29
445.604	3.25
445.808	3.2
446.012	3.21
446.216	3.06
446.42	3.04
446.624	3.04
446.828	2.97
447.032	3.06
447.235	3.02
447.439	3.07
447.643	3.08
447.847	3.08
448.051	3.23
448.254	3.25
448.458	3.28
448.662	3.29
448.866	3.24
449.069	3.32
449.273	3.31
449.477	3.35
449.681	3.47
449.884	3.5
450.088	3.44
450.292	3.34
450.495	3.29
450.699	3.36
450.902	3.36
451.106	3.47
451.31	3.47
451.513	3.49
451.717	3.49
451.92	3.37
452.124	3.34
452.327	3.36
452.531	3.3
452.734	3.25
452.938	3.26
453.141	3.24
453.345	3.24
453.548	3.2
453.752	3.17
453.955	3.15
454.158	3.17
454.362	3.1
454.565	3.14
454.769	3.21
454.972	3.29
455.175	3.29
455.379	3.3
455.582	3.28
455.785	3.33
455.988	3.43
456.192	3.35
456.395	3.37
456.598	3.43
456.801	3.44
457.005	3.51
457.208	3.59
457.411	3.59
457.614	3.51
457.817	3.43
458.021	3.36
458.224	3.25
458.427	3.27
458.63	3.23
458.833	3.24
459.036	3.23
459.239	3.16
459.442	2.98
459.645	2.95
459.848	2.97
460.051	2.98
460.254	3.01
460.457	3.05
460.66	3.12
460.863	3.22
461.066	3.19
461.269	3.2
461.472	3.21
461.675	3.35
461.878	3.41
462.081	3.45
462.284	3.54
462.486	3.51
462.689	3.62
462.892	3.6
463.095	3.61
463.298	3.68
463.5	3.62
463.703	3.64
463.906	3.62
464.109	3.48
464.311	3.52
464.514	3.48
464.717	3.5
464.92	3.35
465.122	3.36
465.325	3.37
465.528	3.33
465.73	3.32
465.933	3.28
466.135	3.24
466.338	3.3
466.541	3.27
466.743	3.36
466.946	3.51
467.148	3.54
467.351	3.52
467.553	3.33
467.756	3.37
467.958	3.39
468.161	3.39
468.363	3.45
468.566	3.41
