Data from 2938725__Reflection_01.txt Node
Date: Sun Mar 15 20:13:26 EDT 2015
User: robert
Spectrometer: USB4E03002
Autoset integration time: false
Trigger mode: 4
Integration Time (sec): 1.000000E-1
Scans to average: 10
Electric dark correction enabled: false
Nonlinearity correction enabled: false
Boxcar width: 5
Stray light correction enabled: false
XAxis mode: Wavelengths
Stop averaging: false
Number of Pixels in Spectrum: 3648
>>>>>Begin Spectral Data<<<<<
177.575	214.65
177.794	422.08
178.014	192.54
178.233	145.25
178.452	346.36
178.672	289.29
178.891	85.66
179.11	45.16
179.33	-90.91
179.549	-151.92
179.768	451.61
179.987	125.42
180.207	-560
180.426	89.08
180.645	75.1
180.864	-788.89
181.084	113.95
181.303	66.15
181.522	82.95
181.741	23.48
181.96	23.61
182.179	36.84
182.398	55.37
182.618	60.19
182.837	3.47
183.056	28.75
183.275	20.72
183.494	13.71
183.713	13.36
183.932	15.57
184.151	48.84
184.37	35
184.589	53.6
184.808	54.99
185.027	58.3
185.246	83.52
185.465	73.61
185.684	94.64
185.903	101.33
186.122	91.23
186.341	100.29
186.56	89.19
186.779	88.37
186.998	60.37
187.216	88.17
187.435	78.29
187.654	46.37
187.873	28.42
188.092	3.47
188.311	-123.87
188.53	-15.98
188.748	48.58
188.967	16.13
189.186	52.75
189.405	107.55
189.623	38.1
189.842	73.3
190.061	97.26
190.28	87.73
190.498	67.27
190.717	98.79
190.936	111.75
191.154	41.74
191.373	38.07
191.592	23.42
191.81	-7.93
192.029	-1.7
192.248	-13.51
192.466	-61.26
192.685	-189.41
192.904	0
193.122	-861.54
193.341	-221.77
193.559	-78.17
193.778	-114.49
193.996	-37.19
194.215	-24.27
194.433	-67.7
194.652	1447.06
194.87	-575.56
195.089	-55.51
195.307	-21.93
195.526	-5.58
195.744	-29.52
195.963	-23.01
196.181	-27.9
196.399	-30.4
196.618	-38.92
196.836	-16.56
197.055	-10.32
197.273	-3.44
197.491	-27.21
197.71	-23.1
197.928	-13.7
198.146	-9.92
198.365	-14.15
198.583	-28.73
198.801	-26.16
199.019	29.08
199.238	64.14
199.456	16.89
199.674	-20.89
199.892	-31.56
200.111	-42.51
200.329	-65.93
200.547	-31.21
200.765	-16.22
200.983	-5.29
201.202	-0.98
201.42	9.46
201.638	5.97
201.856	35.47
202.074	46.11
202.292	48.64
202.51	60.45
202.728	62.51
202.946	55.61
203.165	49.7
203.383	53.27
203.601	56.79
203.819	48.43
204.037	42.38
204.255	46.64
204.473	43.26
204.691	45.39
204.909	39.2
205.127	35.14
205.345	16.34
205.562	-3.04
205.78	-3.86
205.998	15.6
206.216	12.44
206.434	-4.16
206.652	-28.32
206.87	-24.52
207.088	-7.1
207.306	-1.16
207.523	-8.96
207.741	-38.53
207.959	-14.74
208.177	-87.85
208.395	-169.03
208.612	-96.14
208.83	-97.74
209.048	-106.73
209.266	-102.09
209.483	-151.52
209.701	-197.25
209.919	-193.82
210.136	-32.13
210.354	-74
210.572	-14.9
210.79	-10.85
211.007	-4.41
211.225	-6.51
211.442	-10.84
211.66	-6.94
211.878	4.16
212.095	16.15
212.313	5.17
212.53	3.9
212.748	24.9
212.966	21.05
213.183	24.49
213.401	-9.19
213.618	-0.3
213.836	28.93
214.053	17.49
214.271	5.18
214.488	18.85
214.705	33.12
214.923	42.94
215.14	43.59
215.358	36.76
215.575	44.67
215.793	65.05
216.01	57.9
216.227	44.28
216.445	28.84
216.662	26.96
216.879	15.07
217.097	12.84
217.314	6
217.531	10.02
217.749	24.91
217.966	23.94
218.183	9.45
218.4	26.79
218.618	26.56
218.835	38.79
219.052	44.08
219.269	35.81
219.487	33.8
219.704	38.86
219.921	37.43
220.138	36.26
220.355	42.73
220.572	40.64
220.79	19.44
221.007	22.32
221.224	30.53
221.441	33.66
221.658	37.17
221.875	33.21
222.092	28.07
222.309	11.37
222.526	3.64
222.743	-5.76
222.96	-4.82
223.177	2.63
223.394	-2.31
223.611	-5.97
223.828	-13.4
224.045	-18.84
224.262	-19.08
224.479	-17.14
224.696	-2.98
224.913	-4.02
225.13	0
225.347	2.67
225.564	8.92
225.781	10.05
225.997	11.63
226.214	15.07
226.431	15.73
226.648	13.02
226.865	11.21
227.082	10.75
227.298	11.26
227.515	9.24
227.732	8.78
227.949	6.7
228.165	7.17
228.382	6.54
228.599	5.24
228.816	6.06
229.032	6.11
229.249	5.07
229.466	4.2
229.682	4.88
229.899	4.62
230.116	3.28
230.332	2.71
230.549	1.51
230.765	1.87
230.982	1.82
231.199	0.45
231.415	0.84
231.632	1.24
231.848	0.69
232.065	0.56
232.281	0.49
232.498	3.07
232.714	2.29
232.931	4.59
233.147	3.54
233.364	2.18
233.58	2.94
233.797	2.25
234.013	2.38
234.23	5.35
234.446	3.81
234.662	4.45
234.879	4.71
235.095	8.11
235.312	8.45
235.528	8.51
235.744	10.01
235.961	9.41
236.177	7.89
236.393	8.09
236.61	5.9
236.826	9.03
237.042	7.92
237.258	7.02
237.475	4.25
237.691	4.39
237.907	4.3
238.123	5.08
238.339	5.3
238.556	6.95
238.772	7.89
238.988	7.79
239.204	5.14
239.42	7.69
239.636	7.88
239.853	9.37
240.069	9.24
240.285	9.29
240.501	8.53
240.717	8.68
240.933	7.27
241.149	7.04
241.365	7.72
241.581	7.43
241.797	6.35
242.013	5.75
242.229	4.15
242.445	3.4
242.661	3.56
242.877	3.27
243.093	2.61
243.309	3.3
243.525	3.08
243.741	2.72
243.957	2.64
244.173	2.91
244.388	2.83
244.604	4.01
244.82	4.67
245.036	4.52
245.252	4.59
245.468	5.01
245.683	4.88
245.899	5.24
246.115	5.47
246.331	5.44
246.547	5.66
246.762	6.22
246.978	5.97
247.194	5.9
247.409	5.89
247.625	5.92
247.841	5.95
248.057	6.02
248.272	5.7
248.488	5.39
248.703	5.46
248.919	5.75
249.135	5.32
249.35	5.49
249.566	5.62
249.782	5.58
249.997	4.91
250.213	4.19
250.428	4.4
250.644	4.49
250.859	4.54
251.075	4.75
251.29	3.32
251.506	3.36
251.721	3.52
251.937	3.13
252.152	3.17
252.368	3.69
252.583	3.78
252.798	3.28
253.014	3.43
253.229	3.2
253.445	3.11
253.66	3.23
253.875	2.62
254.091	2.79
254.306	3.33
254.521	2.48
254.737	3.79
254.952	4.47
255.167	5.5
255.383	4.49
255.598	3.97
255.813	3.3
256.028	3.3
256.244	4.58
256.459	3.25
256.674	2.9
256.889	3.27
257.104	2.21
257.32	2
257.535	1.49
257.75	1.95
257.965	2.93
258.18	3.2
258.395	2.82
258.61	2.84
258.826	3.16
259.041	2.96
259.256	3.19
259.471	3.45
259.686	3.58
259.901	3.7
260.116	4
260.331	3.68
260.546	3.7
260.761	3.84
260.976	3.75
261.191	3.99
261.406	3.83
261.621	3.73
261.836	3.6
262.05	3.71
262.265	3.51
262.48	2.87
262.695	2.95
262.91	2.66
263.125	3.24
263.34	2.99
263.555	2.36
263.769	2.99
263.984	2.49
264.199	2.17
264.414	1.34
264.629	1.47
264.843	1.69
265.058	1.39
265.273	1.64
265.488	1.07
265.702	1.05
265.917	1.79
266.132	1.86
266.346	2.71
266.561	3.05
266.776	3.56
266.99	3.47
267.205	3.3
267.42	3.38
267.634	3.16
267.849	2.98
268.063	2.9
268.278	2.74
268.492	2.89
268.707	2.81
268.922	2.61
269.136	2.1
269.351	2.44
269.565	2.85
269.78	2.72
269.994	2.45
270.209	2.52
270.423	2.11
270.637	1.43
270.852	1.29
271.066	1
271.281	1.26
271.495	1.76
271.709	1.55
271.924	1.41
272.138	1.58
272.353	2
272.567	2.31
272.781	2.59
272.996	2.99
273.21	3.18
273.424	3.46
273.638	3.06
273.853	2.57
274.067	2.52
274.281	2.93
274.495	2.66
274.71	3.06
274.924	2.62
275.138	3.21
275.352	3.16
275.566	3.55
275.781	3.31
275.995	3.65
276.209	3.78
276.423	4.08
276.637	3.87
276.851	3.68
277.065	3.16
277.279	3.6
277.493	3.42
277.707	3.4
277.921	2.73
278.135	2.81
278.349	2.64
278.563	2.73
278.777	2.24
278.991	1.9
279.205	2.91
279.419	2.72
279.633	2.81
279.847	2.43
280.061	2.33
280.275	2.34
280.489	2.68
280.703	2.69
280.917	2.78
281.131	3.29
281.344	3.67
281.558	3.54
281.772	3.6
281.986	3.42
282.2	3.38
282.414	3.74
282.627	3.79
282.841	2.98
283.055	2.71
283.269	2.99
283.482	2.77
283.696	2.43
283.91	2.11
284.123	2.09
284.337	2.09
284.551	2.52
284.764	2.28
284.978	2.27
285.192	2.66
285.405	2.71
285.619	2.58
285.833	2.31
286.046	2.29
286.26	2.02
286.473	2.22
286.687	2.42
286.9	2.28
287.114	2.42
287.327	2.31
287.541	2.26
287.754	2.23
287.968	2.42
288.181	2.69
288.395	2.89
288.608	3.15
288.822	3.01
289.035	3.13
289.248	3.02
289.462	2.94
289.675	2.82
289.889	2.87
290.102	3.02
290.315	2.63
290.529	2.44
290.742	2.01
290.955	2.14
291.169	2.14
291.382	1.97
291.595	1.97
291.808	1.66
292.022	1.59
292.235	1.61
292.448	1.75
292.661	1.93
292.875	2.14
293.088	2.85
293.301	3.17
293.514	3.39
293.727	3.02
293.94	2.93
294.153	3.27
294.367	3.82
294.58	3.69
294.793	3.04
295.006	2.9
295.219	2.83
295.432	2.76
295.645	2.35
295.858	2.29
296.071	2.53
296.284	2.43
296.497	2.69
296.71	2.44
296.923	2.6
297.136	2.86
297.349	3.04
297.562	3.06
297.775	3.06
297.988	3.19
298.201	3.08
298.414	3.21
298.626	3.96
298.839	3.71
299.052	3.9
299.265	3.89
299.478	4.2
299.691	4.03
299.903	3.69
300.116	3.74
300.329	4.22
300.542	4.21
300.755	4.27
300.967	3.7
301.18	3.66
301.393	3.7
301.605	3.8
301.818	3.89
302.031	4.11
302.243	4.34
302.456	4.08
302.669	3.8
302.881	3.7
303.094	3.29
303.307	3.09
303.519	2.93
303.732	2.89
303.944	2.61
304.157	2.5
304.37	2.55
304.582	2.84
304.795	3.17
305.007	3.36
305.22	3.77
305.432	3.83
305.645	4.07
305.857	4.42
306.069	4.37
306.282	4.68
306.494	5.23
306.707	4.73
306.919	4.68
307.132	4.55
307.344	4.42
307.556	4.12
307.769	4.46
307.981	4.46
308.193	4.83
308.406	4.85
308.618	4.7
308.83	4.12
309.043	4.55
309.255	4.79
309.467	4.75
309.679	4.72
309.892	4.84
310.104	4.83
310.316	4.55
310.528	4.29
310.74	4.29
310.953	4.54
311.165	4.46
311.377	4.48
311.589	4.41
311.801	4.57
312.013	4.42
312.225	4.5
312.437	4.35
312.649	4.71
312.862	4.86
313.074	5.11
313.286	5.15
313.498	5.44
313.71	5.43
313.922	5.51
314.134	5.68
314.346	5.75
314.558	5.58
314.77	5.41
314.982	5.02
315.193	4.77
315.405	4.65
315.617	4.59
315.829	4.77
316.041	5.08
316.253	4.76
316.465	4.67
316.677	4.53
316.888	4.85
317.1	5.44
317.312	5.71
317.524	6.4
317.736	6.53
317.947	6.33
318.159	6.81
318.371	6.46
318.583	7.11
318.794	6.71
319.006	6.8
319.218	7.2
319.43	7.31
319.641	7.5
319.853	7.15
320.064	7.33
320.276	7.54
320.488	7.04
320.699	6.93
320.911	7.26
321.123	7.68
321.334	7.56
321.546	7.18
321.757	7.64
321.969	7.5
322.18	7.58
322.392	7.6
322.603	7.97
322.815	8.18
323.026	8.73
323.238	8.62
323.449	8.93
323.661	9.55
323.872	9.87
324.083	9.75
324.295	10.16
324.506	10.43
324.718	10.55
324.929	11.08
325.14	11.6
325.352	12.05
325.563	12.11
325.774	12.44
325.986	12.79
326.197	13.23
326.408	13.37
326.62	13.7
326.831	14.03
327.042	14.78
327.253	15.16
327.464	15.21
327.676	15.38
327.887	15.86
328.098	16.13
328.309	16.79
328.52	17
328.732	17.46
328.943	17.81
329.154	18.16
329.365	18.15
329.576	17.86
329.787	17.99
329.998	18.29
330.209	18.44
330.42	18.89
330.631	18.66
330.842	18.85
331.053	19.26
331.264	19.74
331.475	20.01
331.686	20.44
331.897	21.29
332.108	22.04
332.319	22.23
332.53	22.53
332.741	22.62
332.952	23.29
333.163	23.69
333.374	23.57
333.585	23.44
333.795	23.86
334.006	24.01
334.217	23.82
334.428	24.14
334.639	24.4
334.849	24.44
335.06	24.66
335.271	24.71
335.482	24.64
335.692	24.91
335.903	25.1
336.114	25.28
336.325	24.97
336.535	24.85
336.746	24.15
336.957	24.32
337.167	24.98
337.378	24.88
337.589	24.74
337.799	24.8
338.01	24.63
338.22	24.64
338.431	24.6
338.642	24.78
338.852	24.96
339.063	25.67
339.273	25.77
339.484	25.44
339.694	25.52
339.905	25.56
340.115	25.6
340.326	25.84
340.536	26.14
340.746	26.02
340.957	26.28
341.167	26.51
341.378	26.33
341.588	26.13
341.799	26.27
342.009	26.54
342.219	26.36
342.43	26.61
342.64	27.01
342.85	27.18
343.061	27.24
343.271	27.36
343.481	27.26
343.691	27.07
343.902	26.97
344.112	26.72
344.322	26.48
344.532	26.42
344.743	26.19
344.953	25.81
345.163	25.56
345.373	25.39
345.583	24.93
345.793	24.92
346.004	25.16
346.214	25.46
346.424	25.71
346.634	25.5
346.844	25.79
347.054	26.03
347.264	25.93
347.474	25.84
347.684	25.83
347.894	26.25
348.104	26.19
348.314	25.93
348.524	25.78
348.734	25.36
348.944	25.41
349.154	25.28
349.364	25.16
349.574	25.2
349.784	25.12
349.994	25.23
350.204	24.89
350.413	24.79
350.623	24.9
350.833	24.94
351.043	25
351.253	25.31
351.463	25.38
351.672	25.33
351.882	25.13
352.092	25.12
352.302	25.19
352.511	25.25
352.721	25.33
352.931	25.16
353.141	25.01
353.35	25.1
353.56	24.78
353.77	24.45
353.979	24.22
354.189	24.58
354.399	24.41
354.608	24.23
354.818	24.41
355.027	24.27
355.237	24.43
355.447	24.41
355.656	24.11
355.866	24.33
356.075	24.28
356.285	24.47
356.494	24.21
356.704	24.36
356.913	24.27
357.123	24.09
357.332	24.17
357.542	24.12
357.751	23.97
357.96	24.02
358.17	23.86
358.379	23.82
358.589	23.54
358.798	23.74
359.007	23.65
359.217	23.33
359.426	23.15
359.635	23.19
359.845	23.13
360.054	23.39
360.263	23.36
360.472	23.32
360.682	23.34
360.891	23.48
361.1	23.12
361.309	22.92
361.519	23.26
361.728	23.48
361.937	23.35
362.146	23.29
362.355	23.12
362.564	23.28
362.774	23.35
362.983	23.61
363.192	23.62
363.401	23.95
363.61	24.19
363.819	24.16
364.028	24.03
364.237	23.79
364.446	23.65
364.655	23.81
364.864	23.42
365.073	23.34
365.282	23.15
365.491	22.83
365.7	22.72
365.909	22.54
366.118	22.32
366.327	22.12
366.536	22.39
366.745	22.47
366.954	22.11
367.162	22.15
367.371	22.05
367.58	22.09
367.789	22.36
367.998	22.19
368.207	22.44
368.415	22.61
368.624	22.87
368.833	23.01
369.042	23.11
369.25	23.01
369.459	22.96
369.668	22.83
369.877	22.74
370.085	22.68
370.294	22.81
370.503	22.52
370.711	22.26
370.92	22
371.129	21.69
371.337	21.6
371.546	21.63
371.754	21.95
371.963	22.04
372.171	21.98
372.38	21.89
372.589	21.97
372.797	22.05
373.006	22.02
373.214	22.32
373.423	22.3
373.631	22.18
373.84	22.25
374.048	21.9
374.256	21.7
374.465	21.64
374.673	21.64
374.882	21.34
375.09	21.26
375.298	21.3
375.507	20.94
375.715	21.13
375.923	21.23
376.132	21.31
376.34	21.41
376.548	21.57
376.757	21.64
376.965	21.63
377.173	21.66
377.381	21.8
377.59	21.77
377.798	21.84
378.006	21.79
378.214	21.61
378.423	21.52
378.631	21.34
378.839	21.18
379.047	20.91
379.255	20.96
379.463	20.77
379.671	20.75
379.879	20.66
380.088	20.56
380.296	20.29
380.504	20.15
380.712	20.41
380.92	20.37
381.128	20.37
381.336	20.24
381.544	19.97
381.752	20.29
381.96	19.97
382.168	19.84
382.376	19.94
382.584	19.92
382.791	20.34
382.999	19.84
383.207	19.95
383.415	19.99
383.623	20.25
383.831	20.53
384.039	20.47
384.247	20.8
384.454	20.85
384.662	20.77
384.87	20.66
385.078	20.33
385.285	20.45
385.493	20.45
385.701	20.42
385.909	20.11
386.116	19.91
386.324	19.86
386.532	19.4
386.739	19.37
386.947	19.32
387.155	19.4
387.362	19.51
387.57	19.38
387.778	19.2
387.985	19.02
388.193	19.32
388.4	19.24
388.608	19.06
388.816	19.22
389.023	19.38
389.231	19.32
389.438	19.4
389.646	19.32
389.853	19.28
390.061	19.41
390.268	19.53
390.475	19.34
390.683	19.34
390.89	19.44
391.098	19.26
391.305	19.27
391.512	19.13
391.72	19.01
391.927	18.93
392.135	18.91
392.342	18.8
392.549	18.57
392.756	18.72
392.964	18.73
393.171	18.45
393.378	18.62
393.586	18.67
393.793	18.76
394	18.83
394.207	18.86
394.414	18.86
394.622	18.75
394.829	18.81
395.036	18.79
395.243	18.65
395.45	18.85
395.657	18.96
395.864	18.74
396.072	18.67
396.279	18.66
396.486	18.73
396.693	18.88
396.9	19.08
397.107	19
397.314	18.93
397.521	18.93
397.728	18.77
397.935	18.51
398.142	18.43
398.349	18.47
398.556	18.47
398.763	18.34
398.97	18.35
399.177	18.3
399.383	18.36
399.59	18.23
399.797	18.42
400.004	18.4
400.211	18.31
400.418	18.3
400.625	18.3
400.831	18.22
401.038	18.16
401.245	17.93
401.452	17.83
401.658	17.76
401.865	17.86
402.072	17.66
402.279	17.56
402.485	17.56
402.692	17.64
402.899	17.69
403.105	17.83
403.312	17.9
403.519	17.9
403.725	17.95
403.932	18
404.138	17.98
404.345	17.93
404.552	18.15
404.758	17.99
404.965	18.2
405.171	18.09
405.378	17.85
405.584	17.9
405.791	17.82
405.997	17.9
406.204	17.9
406.41	17.94
406.617	18.05
406.823	18.02
407.029	18.22
407.236	17.97
407.442	17.98
407.649	18.13
407.855	18.11
408.061	18.33
408.268	18.32
408.474	18.31
408.68	18.22
408.887	18.15
409.093	18
409.299	18.18
409.505	18.13
409.712	18.17
409.918	18.12
410.124	18.01
410.33	17.76
410.537	17.45
410.743	17.57
410.949	17.26
411.155	17.18
411.361	17.08
411.567	17.02
411.773	17.08
411.98	17.1
412.186	17.04
412.392	17.11
412.598	17.31
412.804	17.61
413.01	17.55
413.216	17.84
413.422	17.89
413.628	18.29
413.834	18.17
414.04	18.16
414.246	18
414.452	18.07
414.658	17.99
414.864	17.98
415.07	17.98
415.275	18.14
415.481	18.06
415.687	18.07
415.893	17.88
416.099	17.95
416.305	18.04
416.511	18.11
416.716	18.21
416.922	18.32
417.128	18.23
417.334	18.24
417.539	18.12
417.745	18.09
417.951	18.05
418.157	17.98
418.362	17.97
418.568	17.85
418.774	17.83
418.979	17.69
419.185	17.68
419.391	17.71
419.596	17.65
419.802	17.65
420.008	17.78
420.213	17.86
420.419	17.92
420.624	17.99
420.83	17.98
421.035	17.93
421.241	17.99
421.446	17.97
421.652	17.95
421.857	17.98
422.063	18.01
422.268	17.92
422.474	17.92
422.679	17.84
422.885	17.76
423.09	17.78
423.295	17.8
423.501	17.75
423.706	17.72
423.911	17.73
424.117	17.73
424.322	17.66
424.527	17.76
424.733	17.81
424.938	17.89
425.143	17.91
425.349	17.93
425.554	17.95
425.759	18.02
425.964	18.01
426.169	18.07
426.375	18.03
426.58	18.05
426.785	18.05
426.99	17.96
427.195	17.89
427.4	17.86
427.605	17.9
427.811	18.05
428.016	17.94
428.221	17.97
428.426	17.88
428.631	17.97
428.836	18.09
429.041	18.19
429.246	18.1
429.451	18.27
429.656	18.25
429.861	18.23
430.066	18.12
430.271	18.23
430.476	18.29
430.681	18.32
430.886	18.21
431.09	18.21
431.295	18.2
431.5	18.24
431.705	18.08
431.91	18.15
432.115	18.17
432.32	18.16
432.524	18.18
432.729	18.26
432.934	18.33
433.139	18.35
433.343	18.26
433.548	18.15
433.753	18.15
433.958	18.17
434.162	18.25
434.367	18.25
434.572	18.37
434.776	18.43
434.981	18.28
435.186	18.23
435.39	18.21
435.595	18.26
435.799	18.24
436.004	18.3
436.209	18.34
436.413	18.38
436.618	18.35
436.822	18.24
437.027	18.1
437.231	18.21
437.436	18.21
437.64	18.32
437.845	18.35
438.049	18.4
438.253	18.45
438.458	18.51
438.662	18.43
438.867	18.47
439.071	18.45
439.275	18.48
439.48	18.39
439.684	18.46
439.888	18.5
440.093	18.45
440.297	18.38
440.501	18.36
440.706	18.29
440.91	18.31
441.114	18.3
441.318	18.3
441.523	18.37
441.727	18.54
441.931	18.57
442.135	18.39
442.339	18.46
442.543	18.5
442.748	18.51
442.952	18.57
443.156	18.61
443.36	18.64
443.564	18.7
443.768	18.69
443.972	18.65
444.176	18.67
444.38	18.79
444.584	18.8
444.788	18.88
444.992	18.86
445.196	18.89
445.4	18.96
445.604	18.88
445.808	18.86
446.012	18.83
446.216	18.79
446.42	18.78
446.624	18.78
446.828	18.72
447.032	18.64
447.235	18.6
447.439	18.54
447.643	18.49
447.847	18.53
448.051	18.51
448.254	18.44
448.458	18.41
448.662	18.36
448.866	18.3
449.069	18.25
449.273	18.3
449.477	18.27
449.681	18.27
449.884	18.23
450.088	18.24
450.292	18.18
450.495	18.28
450.699	18.3
450.902	18.22
451.106	18.27
451.31	18.39
451.513	18.27
451.717	18.33
451.92	18.29
452.124	18.2
452.327	18.17
452.531	18.27
452.734	18.27
452.938	18.27
453.141	18.37
453.345	18.42
453.548	18.37
453.752	18.55
453.955	18.59
454.158	18.57
454.362	18.65
454.565	18.73
454.769	18.61
454.972	18.54
455.175	18.48
455.379	18.43
455.582	18.32
455.785	18.41
455.988	18.35
456.192	18.3
456.395	18.28
456.598	18.29
456.801	18.26
457.005	18.44
457.208	18.5
457.411	18.56
457.614	18.59
457.817	18.59
458.021	18.53
458.224	18.51
458.427	18.54
458.63	18.57
458.833	18.57
459.036	18.61
459.239	18.46
459.442	18.41
459.645	18.44
459.848	18.42
460.051	18.45
460.254	18.4
460.457	18.42
460.66	18.4
460.863	18.36
461.066	18.36
461.269	18.32
461.472	18.39
461.675	18.41
461.878	18.41
462.081	18.46
462.284	18.48
