Data from 2938796__Reflection_02.txt Node
Date: Fri Mar 13 10:36:15 EDT 2015
User: robert
Spectrometer: USB4E03002
Autoset integration time: false
Trigger mode: 4
Integration Time (sec): 1.000000E-1
Scans to average: 10
Electric dark correction enabled: false
Nonlinearity correction enabled: false
Boxcar width: 5
Stray light correction enabled: false
XAxis mode: Wavelengths
Stop averaging: false
Number of Pixels in Spectrum: 3648
>>>>>Begin Spectral Data<<<<<
177.575	79.57
177.794	143.97
178.014	180.65
178.233	264.23
178.452	292.63
178.672	373.43
178.891	491.6
179.11	561.84
179.33	824.73
179.549	662.45
179.768	1140.97
179.987	2052.7
180.207	673.04
180.426	7150
180.645	536.5
180.864	432.54
181.084	383.87
181.303	381.28
181.522	339.81
181.741	278.77
181.96	333.05
182.179	349
182.398	587.72
182.618	7946.67
182.837	363.48
183.056	502.22
183.275	432.61
183.494	491.36
183.713	368.71
183.932	845.28
184.151	811.11
184.37	470.85
184.589	888.57
184.808	285.76
185.027	295.1
185.246	338.22
185.465	234.57
185.684	361
185.903	299.79
186.122	335.58
186.341	309.14
186.56	296.52
186.779	310.75
186.998	353.08
187.216	446.11
187.435	450.4
187.654	1309.23
187.873	3941.67
188.092	3342.55
188.311	23185.71
188.53	-1342.48
188.748	-1680.95
188.967	-947.02
189.186	-3413.64
189.405	965.27
189.623	786.1
189.842	561.82
190.061	562.54
190.28	667.36
190.498	1694.9
190.717	742.66
190.936	968.42
191.154	830.34
191.373	689.78
191.592	1129.2
191.81	1241.32
192.029	1218.27
192.248	2450
192.466	855.41
192.685	800
192.904	672.92
193.122	1425.58
193.341	544.18
193.559	2738
193.778	-3440
193.996	8681.25
194.215	6614.29
194.433	-2688.33
194.652	-10006.25
194.87	-2159.72
195.089	6854.17
195.307	1032.72
195.526	2176.71
195.744	974.51
195.963	462.62
196.181	367.1
196.399	366
196.618	531.54
196.836	470.7
197.055	430.96
197.273	285.58
197.491	476.75
197.71	550.81
197.928	413.81
198.146	529.11
198.365	496.33
198.583	543.62
198.801	313.23
199.019	236.6
199.238	193.68
199.456	248.32
199.674	435.96
199.892	259.79
200.111	255.31
200.329	251.58
200.547	227.04
200.765	269.54
200.983	204.43
201.202	249.23
201.42	215.44
201.638	219.54
201.856	232.06
202.074	185.45
202.292	191.39
202.51	199.41
202.728	217.67
202.946	243.64
203.165	233.51
203.383	256.82
203.601	283.75
203.819	443.81
204.037	453.24
204.255	473.59
204.473	591.95
204.691	415.28
204.909	596.64
205.127	713.04
205.345	847.7
205.562	1454.32
205.78	1676.25
205.998	695.91
206.216	491.03
206.434	401.55
206.652	260.16
206.87	267.8
207.088	340.05
207.306	278.6
207.523	230.47
207.741	243.64
207.959	275.75
208.177	269.46
208.395	360.47
208.612	380.13
208.83	491.56
209.048	1784.62
209.266	418.39
209.483	591.22
209.701	415.56
209.919	547.83
210.136	303.28
210.354	272.38
210.572	245.08
210.79	267.03
211.007	295.25
211.225	371.43
211.442	313.32
211.66	339.36
211.878	229.21
212.095	217.72
212.313	202.75
212.53	206.91
212.748	207.97
212.966	266.47
213.183	243.52
213.401	156.15
213.618	171.01
213.836	218.72
214.053	317.46
214.271	899.26
214.488	-573.37
214.705	-343.8
214.923	-238.56
215.14	-382.07
215.358	-540
215.575	-2464
215.793	-231.52
216.01	-534.96
216.227	-2804.55
216.445	330.92
216.662	182.84
216.879	166.94
217.097	160.24
217.314	164.16
217.531	157.97
217.749	163.18
217.966	169.17
218.183	174.05
218.4	135.6
218.618	122.35
218.835	134.37
219.052	145.09
219.269	142.16
219.487	129.34
219.704	139.19
219.921	152.23
220.138	152.89
220.355	145.58
220.572	127.25
220.79	128.35
221.007	123.62
221.224	120.12
221.441	99.38
221.658	86.15
221.875	84.86
222.092	75.57
222.309	68.18
222.526	65.59
222.743	62.96
222.96	60.17
223.177	59
223.394	61.88
223.611	58.9
223.828	57.3
224.045	59.05
224.262	55.24
224.479	55.99
224.696	56.92
224.913	54.19
225.13	56.01
225.347	51.38
225.564	51.87
225.781	48.39
225.997	43.21
226.214	38.13
226.431	35.04
226.648	32.06
226.865	25.13
227.082	20.59
227.298	16.88
227.515	14.96
227.732	14.31
227.949	11.97
228.165	10.84
228.382	10.51
228.599	10.48
228.816	10.82
229.032	10.31
229.249	11.07
229.466	11.8
229.682	11.69
229.899	11.62
230.116	11.73
230.332	12.01
230.549	11.93
230.765	12.89
230.982	13.28
231.199	12.7
231.415	14.24
231.632	14.7
231.848	14.72
232.065	16.13
232.281	16.2
232.498	15.77
232.714	16.89
232.931	18.06
233.147	16.63
233.364	17.02
233.58	17.62
233.797	16.68
234.013	17.15
234.23	17.42
234.446	16.28
234.662	15.48
234.879	15.55
235.095	15.85
235.312	16.55
235.528	18.87
235.744	18.3
235.961	17.85
236.177	19.2
236.393	18.5
236.61	16.72
236.826	17.5
237.042	18.36
237.258	19.44
237.475	19.06
237.691	16.07
237.907	14.78
238.123	16.12
238.339	17.5
238.556	16.99
238.772	18.75
238.988	19.8
239.204	19.14
239.42	18.6
239.636	18.92
239.853	18.31
240.069	19.32
240.285	19.03
240.501	17.16
240.717	15.35
240.933	14.85
241.149	13.18
241.365	12.33
241.581	11.62
241.797	11.39
242.013	9.92
242.229	9.39
242.445	8.94
242.661	8.2
242.877	8.47
243.093	8.65
243.309	7.9
243.525	8.22
243.741	8.89
243.957	9.84
244.173	9.48
244.388	10.04
244.604	10.5
244.82	10.89
245.036	10.9
245.252	10.22
245.468	9.44
245.683	9.32
245.899	9.21
246.115	8.36
246.331	7.96
246.547	8.09
246.762	8.09
246.978	7.97
247.194	7.54
247.409	7.29
247.625	7.31
247.841	7.49
248.057	7.73
248.272	7.23
248.488	6.98
248.703	6.88
248.919	7.01
249.135	7.36
249.35	7.24
249.566	7.59
249.782	8.51
249.997	9.33
250.213	9.3
250.428	9.81
250.644	10.93
250.859	12.58
251.075	12.62
251.29	11.99
251.506	10.82
251.721	10.78
251.937	10.74
252.152	10.09
252.368	9.55
252.583	9.84
252.798	9.77
253.014	9.78
253.229	8.97
253.445	9.59
253.66	10.33
253.875	11.37
254.091	11.99
254.306	12
254.521	12.09
254.737	11.95
254.952	11.99
255.167	10.87
255.383	10.97
255.598	10.74
255.813	9.83
256.028	9.59
256.244	10.24
256.459	9.32
256.674	8.94
256.889	9.46
257.104	10.33
257.32	10
257.535	9.99
257.75	9
257.965	9.01
258.18	8.07
258.395	7.28
258.61	6.09
258.826	5.88
259.041	6.23
259.256	6.04
259.471	5.39
259.686	5.07
259.901	4.92
260.116	5.16
260.331	4.96
260.546	4.93
260.761	5.24
260.976	5.42
261.191	5.82
261.406	5.76
261.621	5.76
261.836	6.16
262.05	6.61
262.265	6.88
262.48	6.76
262.695	6.71
262.91	7.04
263.125	6.61
263.34	6.89
263.555	6.69
263.769	6.82
263.984	6.82
264.199	6.97
264.414	7.19
264.629	6.95
264.843	7.29
265.058	7.95
265.273	8.09
265.488	8.82
265.702	8.73
265.917	8.12
266.132	7.33
266.346	7.11
266.561	6.93
266.776	6.6
266.99	6.56
267.205	6.02
267.42	5.8
267.634	5.55
267.849	5.44
268.063	5.59
268.278	5.77
268.492	6.06
268.707	6.5
268.922	6.66
269.136	6.44
269.351	6.51
269.565	6.48
269.78	6.64
269.994	7.1
270.209	6.84
270.423	6.77
270.637	7.11
270.852	6.69
271.066	6.62
271.281	6.56
271.495	6.68
271.709	6.51
271.924	6.64
272.138	6.29
272.353	6.36
272.567	6.43
272.781	6.6
272.996	6.28
273.21	6.47
273.424	6.35
273.638	5.97
273.853	5.83
274.067	5.99
274.281	5.93
274.495	6.25
274.71	6.02
274.924	5.56
275.138	5.52
275.352	5.75
275.566	5.92
275.781	5.92
275.995	6.48
276.209	6.77
276.423	7.01
276.637	7.29
276.851	7.33
277.065	7.21
277.279	7.45
277.493	7.01
277.707	6.89
277.921	6.76
278.135	6.92
278.349	6.83
278.563	6.76
278.777	6.72
278.991	6.52
279.205	6.28
279.419	6.21
279.633	6.21
279.847	6.44
280.061	6.14
280.275	6.18
280.489	6.12
280.703	5.76
280.917	5.77
281.131	5.55
281.344	5.4
281.558	5.64
281.772	5.52
281.986	5.82
282.2	5.7
282.414	6.04
282.627	5.83
282.841	5.61
283.055	5.86
283.269	5.92
283.482	6.19
283.696	6.17
283.91	6.17
284.123	6.27
284.337	6
284.551	5.98
284.764	5.87
284.978	6
285.192	5.85
285.405	5.6
285.619	5.28
285.833	4.97
286.046	5.08
286.26	4.94
286.473	4.52
286.687	4.62
286.9	4.7
287.114	4.56
287.327	4.75
287.541	5.01
287.754	5.1
287.968	5.38
288.181	5.48
288.395	5.46
288.608	5.58
288.822	5.87
289.035	5.66
289.248	5.58
289.462	5.74
289.675	5.63
289.889	5.19
290.102	5.35
290.315	5.39
290.529	5.43
290.742	5.3
290.955	5
291.169	5.49
291.382	5.77
291.595	5.78
291.808	5.63
292.022	5.27
292.235	5.82
292.448	5.65
292.661	5.8
292.875	5.64
293.088	5.94
293.301	6.08
293.514	6.05
293.727	5.54
293.94	5.2
294.153	5.5
294.367	5.71
294.58	5.51
294.793	5.55
295.006	5.43
295.219	5.52
295.432	5.49
295.645	5.7
295.858	5.19
296.071	5.58
296.284	5.97
296.497	5.99
296.71	5.88
296.923	5.77
297.136	5.9
297.349	5.85
297.562	5.86
297.775	5.8
297.988	5.7
298.201	5.99
298.414	5.74
298.626	5.8
298.839	5.74
299.052	5.74
299.265	6.08
299.478	5.81
299.691	6.1
299.903	6.4
300.116	6.7
300.329	7
300.542	7.13
300.755	7.33
300.967	7.14
301.18	7.15
301.393	7.38
301.605	7.32
301.818	7.67
302.031	7.6
302.243	7.84
302.456	7.75
302.669	7.87
302.881	7.83
303.094	8.05
303.307	8.37
303.519	7.93
303.732	7.9
303.944	7.86
304.157	7.83
304.37	7.79
304.582	7.23
304.795	6.92
305.007	6.71
305.22	6.87
305.432	6.45
305.645	6.4
305.857	7.01
306.069	6.9
306.282	6.65
306.494	6.56
306.707	6.29
306.919	6.64
307.132	6.94
307.344	6.93
307.556	6.81
307.769	7.48
307.981	7.6
308.193	7.55
308.406	7.42
308.618	7.75
308.83	7.75
309.043	7.63
309.255	7.59
309.467	7.87
309.679	7.97
309.892	7.93
310.104	7.46
310.316	7.27
310.528	7.37
310.74	7.75
310.953	7.51
311.165	7.64
311.377	7.99
311.589	8.02
311.801	7.57
312.013	7.53
312.225	7.62
312.437	8.03
312.649	8.24
312.862	8.16
313.074	8.13
313.286	8.74
313.498	8.83
313.71	8.92
313.922	8.75
314.134	9.25
314.346	9.33
314.558	9.49
314.77	9.29
314.982	8.95
315.193	9.01
315.405	9.11
315.617	8.42
315.829	8.55
316.041	7.89
316.253	8.11
316.465	8.02
316.677	7.68
316.888	7.4
317.1	7.4
317.312	7.82
317.524	7.74
317.736	7.62
317.947	8.06
318.159	8.35
318.371	8.94
318.583	9.28
318.794	9.23
319.006	9.39
319.218	9.53
319.43	9.09
319.641	9.24
319.853	9.03
320.064	9.39
320.276	9.59
320.488	9.16
320.699	9.02
320.911	8.85
321.123	8.69
321.334	8.65
321.546	8.59
321.757	9.07
321.969	9.37
322.18	9.84
322.392	9.27
322.603	9.25
322.815	9.27
323.026	9.28
323.238	8.98
323.449	9.14
323.661	9.23
323.872	9.4
324.083	9.33
324.295	8.57
324.506	8.49
324.718	8.69
324.929	8.77
325.14	8.93
325.352	9.2
325.563	9.33
325.774	9.19
325.986	9.17
326.197	9.46
326.408	9.62
326.62	9.94
326.831	9.87
327.042	9.97
327.253	9.85
327.464	9.38
327.676	9.08
327.887	8.92
328.098	8.89
328.309	9.38
328.52	9.3
328.732	9.3
328.943	8.97
329.154	9.03
329.365	9.11
329.576	9.19
329.787	9.66
329.998	10.07
330.209	10.25
330.42	10.62
330.631	10.56
330.842	10.27
331.053	10.01
331.264	10.3
331.475	10.95
331.686	11.22
331.897	11.21
332.108	11.17
332.319	11.33
332.53	11.55
332.741	11.37
332.952	10.96
333.163	10.82
333.374	11.2
333.585	11.1
333.795	10.49
334.006	10.13
334.217	9.88
334.428	9.79
334.639	9.6
334.849	9.59
335.06	9.64
335.271	10.12
335.482	10.26
335.692	10.1
335.903	10.39
336.114	10.6
336.325	10.64
336.535	11.06
336.746	11.23
336.957	10.87
337.167	10.71
337.378	10.56
337.589	10.35
337.799	10.28
338.01	10.3
338.22	9.83
338.431	9.18
338.642	8.99
338.852	8.84
339.063	8.66
339.273	8.45
339.484	8.56
339.694	8.76
339.905	8.97
340.115	8.88
340.326	8.41
340.536	8.82
340.746	9.3
340.957	9.27
341.167	8.93
341.378	8.88
341.588	9.01
341.799	8.92
342.009	8.78
342.219	8.48
342.43	8.57
342.64	8.66
342.85	8.29
343.061	8.13
343.271	8.27
343.481	8.47
343.691	8.58
343.902	8.77
344.112	8.44
344.322	8.37
344.532	8.48
344.743	8.45
344.953	8.9
345.163	9.33
345.373	9.17
345.583	8.89
345.793	8.72
346.004	8.77
346.214	8.88
346.424	9.1
346.634	9.41
346.844	9.09
347.054	8.96
347.264	8.62
347.474	8.89
347.684	9.06
347.894	9.25
348.104	9.12
348.314	8.91
348.524	8.8
348.734	8.8
348.944	8.17
349.154	8.22
349.364	8.5
349.574	8.34
349.784	7.71
349.994	7.64
350.204	7.84
350.413	8.18
350.623	8.06
350.833	8.02
351.043	8.01
351.253	8.56
351.463	8.61
351.672	8.55
351.882	8.61
352.092	8.62
352.302	8.61
352.511	8.75
352.721	8.61
352.931	8.71
353.141	8.74
353.35	8.85
353.56	8.38
353.77	8.13
353.979	8.11
354.189	8.33
354.399	8.45
354.608	8.61
354.818	8.45
355.027	8.33
355.237	8.26
355.447	8.14
355.656	8.41
355.866	8.71
356.075	8.73
356.285	8.46
356.494	8.56
356.704	8.69
356.913	8.69
357.123	8.72
357.332	8.61
357.542	8.75
357.751	8.83
357.96	8.91
358.17	8.84
358.379	8.75
358.589	8.93
358.798	8.48
359.007	8.44
359.217	8.32
359.426	8.25
359.635	8.15
359.845	8.26
360.054	7.93
360.263	7.37
360.472	7.27
360.682	7.4
360.891	7.25
361.1	7.34
361.309	6.91
361.519	7.05
361.728	7
361.937	6.97
362.146	6.57
362.355	6.9
362.564	7.24
362.774	7.35
362.983	7.35
363.192	7.31
363.401	7.58
363.61	7.88
363.819	7.7
364.028	7.74
364.237	7.83
364.446	7.88
364.655	7.76
364.864	7.41
365.073	7.27
365.282	7.38
365.491	7.41
365.7	7.17
365.909	7.26
366.118	7.37
366.327	7.19
366.536	7.46
366.745	7.64
366.954	7.57
367.162	7.84
367.371	7.81
367.58	7.6
367.789	7.64
367.998	7.49
368.207	7.37
368.415	7.03
368.624	7.14
368.833	6.72
369.042	6.58
369.25	6.69
369.459	6.72
369.668	6.68
369.877	6.85
370.085	7.05
370.294	7.32
370.503	7.21
370.711	7.35
370.92	7.24
371.129	7.52
371.337	7.62
371.546	7.53
371.754	7.34
371.963	7.39
372.171	7.54
372.38	7.2
372.589	7.11
372.797	7.24
373.006	7.31
373.214	7.36
373.423	7.37
373.631	7.31
373.84	7.31
374.048	7.04
374.256	7.1
374.465	6.74
374.673	6.95
374.882	6.89
375.09	6.88
375.298	6.8
375.507	6.75
375.715	6.74
375.923	6.82
376.132	6.76
376.34	6.83
376.548	6.69
376.757	6.72
376.965	6.7
377.173	6.45
377.381	6.41
377.59	6.51
377.798	6.42
378.006	6.27
378.214	6.13
378.423	6.25
378.631	6.3
378.839	6.34
379.047	6.41
379.255	6.41
379.463	6.52
379.671	6.52
379.879	6.5
380.088	6.68
380.296	6.63
380.504	6.58
380.712	6.67
380.92	6.84
381.128	6.79
381.336	6.6
381.544	6.4
381.752	6.63
381.96	6.43
382.168	6.08
382.376	6.14
382.584	6.03
382.791	6.15
382.999	5.75
383.207	5.45
383.415	5.49
383.623	5.59
383.831	5.74
384.039	5.65
384.247	6
384.454	6.16
384.662	6.03
384.87	6.24
385.078	6.24
385.285	6.43
385.493	6.53
385.701	6.6
385.909	6.6
386.116	6.56
386.324	6.37
386.532	6.21
386.739	6.26
386.947	6.22
387.155	6.19
387.362	6.02
387.57	5.88
387.778	5.67
387.985	5.5
388.193	5.57
388.4	5.63
388.608	5.76
388.816	5.62
389.023	5.67
389.231	5.66
389.438	5.62
389.646	5.66
389.853	5.7
390.061	5.94
390.268	5.94
390.475	5.91
390.683	6.22
390.89	6.24
391.098	6.39
391.305	6.21
391.512	6.24
391.72	6.08
391.927	6.14
392.135	6.28
392.342	6.32
392.549	6.24
392.756	6.08
392.964	5.51
393.171	5.36
393.378	5.22
393.586	5.3
393.793	5.31
394	5.47
394.207	5.43
394.414	5.22
394.622	5.18
394.829	5.24
395.036	5.37
395.243	5.6
395.45	5.69
395.657	5.65
395.864	5.49
396.072	5.34
396.279	5.32
396.486	5.41
396.693	5.39
396.9	5.3
397.107	5.26
397.314	5.3
397.521	5.29
397.728	5.38
397.935	5.61
398.142	5.77
398.349	5.75
398.556	5.72
398.763	5.73
398.97	5.82
399.177	5.84
399.383	5.9
399.59	5.76
399.797	5.74
400.004	5.49
400.211	5.22
400.418	5.2
400.625	5.3
400.831	5.45
401.038	5.31
401.245	5.33
401.452	4.99
401.658	4.94
401.865	4.79
402.072	4.77
402.279	4.88
402.485	4.93
402.692	5.01
402.899	4.97
403.105	4.91
403.312	4.91
403.519	4.93
403.725	5.04
403.932	4.95
404.138	4.99
404.345	5.11
404.552	5.11
404.758	5.05
404.965	5.07
405.171	5.12
405.378	4.99
405.584	4.98
405.791	4.89
405.997	5.04
406.204	5.29
406.41	5.37
406.617	5.28
406.823	5.3
407.029	5.37
407.236	5.27
407.442	5.19
407.649	5.23
407.855	5.2
408.061	5.21
408.268	5.23
408.474	5.14
408.68	5.13
408.887	5.24
409.093	5.18
409.299	5.08
409.505	4.92
409.712	5.11
409.918	5.05
410.124	4.97
410.33	5.03
410.537	4.99
410.743	5.03
410.949	5.06
411.155	4.88
411.361	4.82
411.567	5
411.773	5.04
411.98	4.88
412.186	5.18
412.392	5.41
412.598	5.31
412.804	5.37
413.01	5.32
413.216	5.27
413.422	5.33
413.628	5.53
413.834	5.48
414.04	5.44
414.246	5.45
414.452	5.23
414.658	5.12
414.864	5.31
415.07	5.19
415.275	5.18
415.481	5.23
415.687	5.2
415.893	5.04
416.099	5.11
416.305	5.15
416.511	5.04
416.716	5.03
416.922	4.97
417.128	4.82
417.334	4.86
417.539	4.82
417.745	4.71
417.951	4.67
418.157	4.7
418.362	4.6
418.568	4.61
418.774	4.62
418.979	4.56
419.185	4.58
419.391	4.54
419.596	4.59
419.802	4.57
420.008	4.57
420.213	4.07
420.419	4.03
420.624	4.03
420.83	4.05
421.035	4.04
421.241	4.04
421.446	4.02
421.652	4.03
421.857	3.95
422.063	3.93
422.268	3.98
422.474	4.4
422.679	4.48
422.885	4.49
423.09	4.44
423.295	4.4
423.501	4.45
423.706	4.49
423.911	4.53
424.117	4.57
424.322	4.56
424.527	4.57
424.733	4.55
424.938	4.51
425.143	4.47
425.349	4.54
425.554	4.63
425.759	4.58
425.964	4.57
426.169	4.51
426.375	4.52
426.58	4.58
426.785	4.58
426.99	4.64
427.195	4.64
427.4	4.7
427.605	4.68
427.811	4.61
428.016	4.68
428.221	4.66
428.426	4.8
428.631	4.82
428.836	4.85
429.041	4.87
429.246	4.9
429.451	4.91
429.656	4.92
429.861	4.86
430.066	4.85
430.271	4.68
430.476	4.68
430.681	4.64
430.886	4.59
431.09	4.6
431.295	4.53
431.5	4.51
431.705	4.48
431.91	4.51
432.115	4.64
432.32	4.72
432.524	4.91
432.729	5
432.934	5.03
433.139	4.97
433.343	4.93
433.548	4.84
433.753	4.85
433.958	4.77
434.162	4.68
434.367	4.55
434.572	4.47
434.776	4.3
434.981	4.21
435.186	4.08
435.39	4.19
435.595	4.24
435.799	4.36
436.004	4.34
436.209	4.36
436.413	4.37
436.618	4.43
436.822	4.49
437.027	4.65
437.231	4.73
437.436	4.73
437.64	4.66
437.845	4.56
438.049	4.59
438.253	4.63
438.458	4.68
438.662	4.79
438.867	4.75
439.071	4.74
439.275	4.74
439.48	4.71
439.684	4.76
439.888	4.69
440.093	4.7
440.297	4.64
440.501	4.56
440.706	4.59
440.91	4.57
441.114	4.61
441.318	4.6
441.523	4.56
441.727	4.59
441.931	4.57
442.135	4.65
442.339	4.67
442.543	4.8
442.748	4.84
442.952	4.86
443.156	4.79
443.36	4.83
443.564	4.84
443.768	4.82
443.972	4.82
444.176	4.86
444.38	4.8
444.584	4.82
444.788	4.73
444.992	4.79
445.196	4.78
445.4	4.73
445.604	4.64
445.808	4.68
446.012	4.64
446.216	4.53
446.42	4.47
446.624	4.5
446.828	4.46
447.032	4.42
447.235	4.36
447.439	4.3
447.643	4.37
447.847	4.39
448.051	4.32
448.254	4.32
448.458	4.43
448.662	4.49
448.866	4.52
449.069	4.57
449.273	4.61
449.477	4.65
449.681	4.62
449.884	4.65
450.088	4.66
450.292	4.66
450.495	4.7
450.699	4.63
450.902	4.49
451.106	4.47
451.31	4.47
451.513	4.4
451.717	4.36
451.92	4.47
452.124	4.4
452.327	4.42
452.531	4.45
452.734	4.49
452.938	4.48
453.141	4.48
453.345	4.46
453.548	4.45
453.752	4.59
453.955	4.68
454.158	4.55
454.362	4.51
454.565	4.51
454.769	4.54
454.972	4.59
455.175	4.51
455.379	4.62
455.582	4.63
455.785	4.64
455.988	4.58
456.192	4.59
456.395	4.76
456.598	4.81
456.801	4.79
457.005	4.8
457.208	4.77
457.411	4.86
457.614	4.78
457.817	4.7
458.021	4.66
458.224	4.61
458.427	4.58
458.63	4.53
458.833	4.54
459.036	4.5
459.239	4.51
459.442	4.55
459.645	4.51
459.848	4.5
460.051	4.48
460.254	4.53
460.457	4.62
460.66	4.6
460.863	4.6
461.066	4.66
461.269	4.73
461.472	4.76
461.675	4.74
461.878	4.88
462.081	4.99
462.284	5.13
462.486	5.03
462.689	5.02
462.892	5.06
463.095	5.09
463.298	4.97
463.5	4.9
463.703	4.85
463.906	4.74
464.109	4.63
464.311	4.55
464.514	4.55
464.717	4.59
464.92	4.56
465.122	4.62
465.325	4.59
465.528	4.66
465.73	4.75
465.933	4.82
466.135	4.9
466.338	4.89
466.541	4.85
466.743	4.79
466.946	4.8
467.148	4.8
467.351	4.76
467.553	4.78
467.756	4.83
467.958	4.92
