Data from 2938802__Reflection_01.txt Node
Date: Thu Mar 12 22:37:20 EDT 2015
User: robert
Spectrometer: USB4E03002
Autoset integration time: false
Trigger mode: 4
Integration Time (sec): 1.000000E-1
Scans to average: 10
Electric dark correction enabled: false
Nonlinearity correction enabled: false
Boxcar width: 5
Stray light correction enabled: false
XAxis mode: Wavelengths
Stop averaging: false
Number of Pixels in Spectrum: 3648
>>>>>Begin Spectral Data<<<<<
177.575	60.75
177.794	-44.44
178.014	14.1
178.233	-26
178.452	21.54
178.672	24.94
178.891	10.39
179.11	-14.94
179.33	4
179.549	7.69
179.768	36.12
179.987	36.24
180.207	46.11
180.426	56.26
180.645	57.25
180.864	70.42
181.084	76.76
181.303	59.1
181.522	66.79
181.741	58.26
181.96	70.67
182.179	62.67
182.398	70.23
182.618	66.17
182.837	60.89
183.056	69.82
183.275	63.86
183.494	61.93
183.713	75.31
183.932	73.52
184.151	75.91
184.37	67.73
184.589	65.32
184.808	70.16
185.027	87.38
185.246	92.55
185.465	79.3
185.684	89.3
185.903	84.48
186.122	80.97
186.341	80.7
186.56	83.96
186.779	89.18
186.998	96.01
187.216	87.26
187.435	69.53
187.654	75.32
187.873	80.6
188.092	72.76
188.311	86.72
188.53	83.18
188.748	79.69
188.967	75.66
189.186	67.6
189.405	66
189.623	63.36
189.842	71.91
190.061	65.63
190.28	62.58
190.498	63.79
190.717	54.73
190.936	54.37
191.154	55.63
191.373	53.21
191.592	56.92
191.81	59.83
192.029	60.84
192.248	56.19
192.466	45.61
192.685	46.03
192.904	45.81
193.122	47.31
193.341	49.64
193.559	60.59
193.778	64.9
193.996	47.16
194.215	44.42
194.433	53.74
194.652	58.72
194.87	76.93
195.089	81.39
195.307	87.27
195.526	79.07
195.744	80.99
195.963	68.64
196.181	66.24
196.399	90.86
196.618	78.3
196.836	77.62
197.055	79.1
197.273	67.43
197.491	74.66
197.71	69.72
197.928	79.66
198.146	67.09
198.365	59.89
198.583	67.38
198.801	62.53
199.019	69.01
199.238	73.76
199.456	70.5
199.674	76.9
199.892	67.9
200.111	70.42
200.329	71.09
200.547	82.7
200.765	93
200.983	86.91
201.202	75
201.42	79.95
201.638	77.16
201.856	78.11
202.074	79.07
202.292	80.94
202.51	73.3
202.728	74.15
202.946	72.96
203.165	73.73
203.383	68.82
203.601	76.53
203.819	82.74
204.037	72.98
204.255	75.73
204.473	70.87
204.691	62.1
204.909	59.37
205.127	56.32
205.345	55.75
205.562	60.14
205.78	69.28
205.998	66.37
206.216	57.56
206.434	69.76
206.652	67.37
206.87	72.48
207.088	74.54
207.306	79.65
207.523	73.03
207.741	70.35
207.959	76.09
208.177	62.88
208.395	62.98
208.612	70.3
208.83	61.29
209.048	66.75
209.266	63.42
209.483	65.66
209.701	59.87
209.919	66.42
210.136	61.94
210.354	59.53
210.572	64.08
210.79	59.94
211.007	52.78
211.225	54.29
211.442	50.05
211.66	55.17
211.878	51.22
212.095	50.99
212.313	51.28
212.53	52.47
212.748	45.63
212.966	46.53
213.183	40.75
213.401	48.61
213.618	48.48
213.836	48.43
214.053	42.42
214.271	39.61
214.488	47.03
214.705	48.41
214.923	48.8
215.14	45.13
215.358	43.37
215.575	58.06
215.793	50.33
216.01	46.32
216.227	46.22
216.445	47.65
216.662	54.76
216.879	52.29
217.097	40.15
217.314	33.93
217.531	45.3
217.749	45.79
217.966	43.07
218.183	33.04
218.4	36.34
218.618	37.81
218.835	40.87
219.052	37.19
219.269	35.52
219.487	39.78
219.704	46.39
219.921	43.62
220.138	37.46
220.355	40.06
220.572	48.6
220.79	43.81
221.007	37.51
221.224	37.55
221.441	36.65
221.658	34.22
221.875	31.83
222.092	26.36
222.309	24.98
222.526	30.66
222.743	28.46
222.96	27.64
223.177	26.18
223.394	31
223.611	29.31
223.828	31.26
224.045	32.65
224.262	34.87
224.479	35.78
224.696	36.74
224.913	33.12
225.13	31.36
225.347	26.02
225.564	26.83
225.781	25.04
225.997	22.75
226.214	19.96
226.431	16.38
226.648	12.56
226.865	12.18
227.082	11.1
227.298	8.97
227.515	7.92
227.732	8.39
227.949	7.87
228.165	6.63
228.382	5.79
228.599	5.74
228.816	6.27
229.032	6.23
229.249	5.69
229.466	4.48
229.682	4.56
229.899	4.95
230.116	4.19
230.332	4.03
230.549	3.97
230.765	5.56
230.982	6.96
231.199	7.14
231.415	8.39
231.632	10.09
231.848	11.63
232.065	12.34
232.281	11.82
232.498	12.43
232.714	12.8
232.931	13.77
233.147	11.38
233.364	9.07
233.58	8.52
233.797	7.99
234.013	6.63
234.23	6.46
234.446	7.39
234.662	7.96
234.879	8.24
235.095	7.65
235.312	6.6
235.528	7.73
235.744	9.19
235.961	9.4
236.177	8.88
236.393	8.57
236.61	8.53
236.826	8.49
237.042	7.91
237.258	8.12
237.475	8.76
237.691	9.72
237.907	9.22
238.123	7.65
238.339	7.3
238.556	8.35
238.772	7.93
238.988	8.35
239.204	7.73
239.42	7.23
239.636	6.72
239.853	7.16
240.069	6.42
240.285	5.57
240.501	4.16
240.717	4.66
240.933	3.83
241.149	3.89
241.365	3.03
241.581	3.09
241.797	2.98
242.013	3.47
242.229	3.63
242.445	3.82
242.661	4.05
242.877	4.58
243.093	4.69
243.309	5.03
243.525	5.02
243.741	5.24
243.957	5.31
244.173	5.7
244.388	5.55
244.604	4.65
244.82	4.05
245.036	3.77
245.252	4.08
245.468	3.03
245.683	2.91
245.899	3.44
246.115	3.55
246.331	3.58
246.547	3.8
246.762	3.69
246.978	3.8
247.194	3.78
247.409	3.94
247.625	3.96
247.841	3.95
248.057	3.89
248.272	3.61
248.488	3.68
248.703	3.92
248.919	3.82
249.135	4.34
249.35	4.63
249.566	5.36
249.782	5.37
249.997	5.68
250.213	6.5
250.428	6.86
250.644	6.72
250.859	6.49
251.075	6.03
251.29	5.29
251.506	4.58
251.721	4.34
251.937	3.71
252.152	3.72
252.368	3.55
252.583	3.24
252.798	2.96
253.014	3.05
253.229	2.96
253.445	3.41
253.66	3.54
253.875	2.86
254.091	2.58
254.306	3.22
254.521	2.67
254.737	2.73
254.952	2.83
255.167	2.87
255.383	2.48
255.598	2.88
255.813	2.15
256.028	2.65
256.244	3.56
256.459	4.07
256.674	4.39
256.889	4.81
257.104	4.84
257.32	4.84
257.535	4.87
257.75	5.85
257.965	6.32
258.18	6.06
258.395	5.67
258.61	5.06
258.826	4.78
259.041	4.21
259.256	4.1
259.471	4.11
259.686	4.27
259.901	4.27
260.116	3.6
260.331	3.23
260.546	3.18
260.761	3.34
260.976	3.7
261.191	3.73
261.406	3.81
261.621	4.13
261.836	3.99
262.05	3.82
262.265	3.48
262.48	4.1
262.695	4.44
262.91	4.65
263.125	4.93
263.34	4.92
263.555	5.01
263.769	4.61
263.984	4.3
264.199	4.49
264.414	4.55
264.629	5.35
264.843	5.89
265.058	5.31
265.273	4.73
265.488	4.28
265.702	3.96
265.917	3.76
266.132	4.25
266.346	4.17
266.561	3.89
266.776	4.16
266.99	3.55
267.205	3.16
267.42	3.12
267.634	3.72
267.849	3.67
268.063	3.82
268.278	3.95
268.492	3.96
268.707	3.81
268.922	3.9
269.136	3.3
269.351	3.97
269.565	3.91
269.78	4.19
269.994	3.98
270.209	3.98
270.423	3.47
270.637	3.19
270.852	2.87
271.066	2.94
271.281	2.97
271.495	3.09
271.709	3.09
271.924	3.01
272.138	2.76
272.353	2.51
272.567	2.61
272.781	3.03
272.996	3.31
273.21	3.53
273.424	3.35
273.638	3.38
273.853	3.27
274.067	2.75
274.281	2.8
274.495	2.93
274.71	2.9
274.924	2.72
275.138	2.55
275.352	2.34
275.566	2.5
275.781	2.61
275.995	2.37
276.209	2.69
276.423	3.09
276.637	3.21
276.851	3.41
277.065	3.77
277.279	4.32
277.493	4.09
277.707	3.99
277.921	3.94
278.135	4.24
278.349	4.42
278.563	4.2
278.777	4.18
278.991	3.68
279.205	3.42
279.419	3.61
279.633	3.03
279.847	3.16
280.061	3.46
280.275	3.38
280.489	3.51
280.703	3.33
280.917	3.23
281.131	3.05
281.344	3.2
281.558	3.25
281.772	2.71
281.986	2.34
282.2	2.38
282.414	2.57
282.627	2.58
282.841	2.33
283.055	2.34
283.269	2.56
283.482	2.55
283.696	2.64
283.91	2.58
284.123	2.99
284.337	3.53
284.551	3.39
284.764	3.37
284.978	3.42
285.192	3.26
285.405	3.36
285.619	3.28
285.833	3.31
286.046	3.6
286.26	3.85
286.473	3.79
286.687	3.88
286.9	3.74
287.114	3.49
287.327	3.81
287.541	3.78
287.754	4.01
287.968	3.88
288.181	3.71
288.395	3.39
288.608	3.59
288.822	3.48
289.035	3.25
289.248	3.76
289.462	3.74
289.675	3.26
289.889	3.15
290.102	2.72
290.315	2.92
290.529	3.23
290.742	3.36
290.955	3.14
291.169	3.13
291.382	3.33
291.595	3.29
291.808	3.36
292.022	3.39
292.235	3.88
292.448	4.07
292.661	3.83
292.875	3.74
293.088	3.93
293.301	3.97
293.514	3.98
293.727	3.73
293.94	3.89
294.153	3.77
294.367	3.8
294.58	3.55
294.793	3.87
295.006	4.22
295.219	4.16
295.432	3.73
295.645	3.72
295.858	3.61
296.071	3.78
296.284	3.6
296.497	3.65
296.71	3.76
296.923	3.93
297.136	3.52
297.349	3.28
297.562	3.32
297.775	3.39
297.988	3.24
298.201	3.32
298.414	3.19
298.626	2.87
298.839	2.91
299.052	2.81
299.265	2.92
299.478	3.32
299.691	3.33
299.903	3.15
300.116	3.32
300.329	3.46
300.542	3.68
300.755	3.8
300.967	4.48
301.18	4.54
301.393	4.66
301.605	4.23
301.818	4.31
302.031	4.19
302.243	4.53
302.456	4.77
302.669	4.75
302.881	4.65
303.094	4.5
303.307	4.23
303.519	4.02
303.732	3.74
303.944	3.95
304.157	3.91
304.37	4.12
304.582	3.99
304.795	3.73
305.007	3.98
305.22	4
305.432	4.05
305.645	4.08
305.857	4.26
306.069	4.7
306.282	4.63
306.494	4.53
306.707	4.47
306.919	4.66
307.132	4.46
307.344	4.19
307.556	4.02
307.769	4.41
307.981	4.4
308.193	4.33
308.406	4.03
308.618	3.96
308.83	3.94
309.043	4.08
309.255	4.17
309.467	4.69
309.679	4.8
309.892	4.99
310.104	4.83
310.316	4.82
310.528	5.05
310.74	5.1
310.953	5.19
311.165	5.45
311.377	5.51
311.589	5.18
311.801	4.87
312.013	4.7
312.225	4.68
312.437	4.99
312.649	4.93
312.862	4.63
313.074	4.74
313.286	5.26
313.498	5.08
313.71	5.33
313.922	5.65
314.134	5.71
314.346	5.98
314.558	6.26
314.77	5.96
314.982	5.81
315.193	5.87
315.405	5.86
315.617	5.4
315.829	5.37
316.041	5.13
316.253	4.71
316.465	5.14
316.677	5.15
316.888	5.2
317.1	4.89
317.312	5.16
317.524	5.03
317.736	5.11
317.947	4.95
318.159	5.04
318.371	4.86
318.583	5.44
318.794	5.14
319.006	5.19
319.218	5.32
319.43	5.66
319.641	5.97
319.853	6.32
320.064	6.46
320.276	6.77
320.488	6.86
320.699	7.52
320.911	7.15
321.123	7.19
321.334	7.55
321.546	7.58
321.757	7.47
321.969	7.63
322.18	7.61
322.392	8.03
322.603	8.6
322.815	9.23
323.026	8.93
323.238	9.42
323.449	9.51
323.661	9.23
323.872	9.43
324.083	9.69
324.295	9.37
324.506	9.66
324.718	9.56
324.929	9.82
325.14	9.65
325.352	10.19
325.563	10.45
325.774	11.11
325.986	11.79
326.197	11.93
326.408	12.41
326.62	12.82
326.831	13.4
327.042	13.8
327.253	13.75
327.464	14.07
327.676	14.2
327.887	14.54
328.098	14.61
328.309	14.74
328.52	14.84
328.732	15.14
328.943	15.65
329.154	16.08
329.365	16.64
329.576	17.38
329.787	17.56
329.998	18.36
330.209	18.25
330.42	18.55
330.631	18.75
330.842	19
331.053	19.68
331.264	20.04
331.475	20.12
331.686	20.21
331.897	20.35
332.108	20.74
332.319	20.93
332.53	21.6
332.741	21.69
332.952	22.33
333.163	22.97
333.374	22.79
333.585	23.06
333.795	23.75
334.006	23.99
334.217	24.17
334.428	24.48
334.639	24.46
334.849	24.7
335.06	25.07
335.271	25.02
335.482	25.22
335.692	25.33
335.903	25.62
336.114	25.39
336.325	25.54
336.535	25.47
336.746	25.61
336.957	25.32
337.167	25.53
337.378	25.5
337.589	25.42
337.799	25.59
338.01	26.06
338.22	25.85
338.431	25.91
338.642	25.76
338.852	25.95
339.063	25.89
339.273	26.21
339.484	26.12
339.694	26.45
339.905	26.43
340.115	26.17
340.326	25.7
340.536	25.99
340.746	25.88
340.957	25.94
341.167	25.97
341.378	26.03
341.588	26.13
341.799	25.91
342.009	25.33
342.219	25.71
342.43	25.78
342.64	26.09
342.85	26.18
343.061	26.32
343.271	26.52
343.481	26.44
343.691	26.42
343.902	26.52
344.112	26.89
344.322	27.52
344.532	27.07
344.743	27.29
344.953	27.15
345.163	26.9
345.373	26.97
345.583	26.78
345.793	26.59
346.004	26.32
346.214	26.25
346.424	26.03
346.634	25.72
346.844	26.15
347.054	25.99
347.264	26.09
347.474	26.12
347.684	25.85
347.894	26.16
348.104	26.21
348.314	26.4
348.524	26.18
348.734	26.31
348.944	26.45
349.154	25.9
349.364	25.9
349.574	25.44
349.784	25.03
349.994	25.15
350.204	24.98
350.413	25.18
350.623	25.14
350.833	25.24
351.043	25.33
351.253	25.24
351.463	25.5
351.672	25.23
351.882	25.55
352.092	25.89
352.302	25.73
352.511	25.66
352.721	25.79
352.931	25.98
353.141	26.04
353.35	25.87
353.56	25.9
353.77	25.99
353.979	26.01
354.189	25.92
354.399	26.01
354.608	26.09
354.818	26.03
355.027	25.82
355.237	25.68
355.447	25.53
355.656	25.59
355.866	25.43
356.075	25.31
356.285	25.44
356.494	25.51
356.704	25.2
356.913	24.95
357.123	25.17
357.332	25.03
357.542	25
357.751	25.11
357.96	24.92
358.17	24.89
358.379	24.7
358.589	24.49
358.798	24.48
359.007	24.68
359.217	24.74
359.426	24.44
359.635	24.5
359.845	24.32
360.054	24.17
360.263	24.25
360.472	24.24
360.682	24.35
360.891	24.31
361.1	24.17
361.309	24.12
361.519	24.06
361.728	24.19
361.937	24.2
362.146	24.33
362.355	24.54
362.564	24.62
362.774	24.76
362.983	24.79
363.192	24.98
363.401	24.79
363.61	24.66
363.819	24.9
364.028	24.73
364.237	24.61
364.446	24.53
364.655	24.33
364.864	24.13
365.073	23.96
365.282	23.87
365.491	23.8
365.7	24
365.909	24.16
366.118	24.21
366.327	24.2
366.536	24.31
366.745	24.35
366.954	24.21
367.162	24.4
367.371	24.17
367.58	24.25
367.789	24.24
367.998	24.34
368.207	24.47
368.415	24.38
368.624	24.47
368.833	24.47
369.042	24.28
369.25	24.46
369.459	24.39
369.668	24.8
369.877	24.66
370.085	24.52
370.294	24.45
370.503	24.29
370.711	24.26
370.92	24.15
371.129	24.14
371.337	24.29
371.546	24.26
371.754	24.18
371.963	23.99
372.171	24.01
372.38	24.09
372.589	24.15
372.797	24.04
373.006	23.72
373.214	23.73
373.423	23.68
373.631	23.67
373.84	23.55
374.048	23.4
374.256	23.49
374.465	23.52
374.673	23.46
374.882	23.39
375.09	23.49
375.298	23.65
375.507	23.51
375.715	23.49
375.923	23.41
376.132	23.4
376.34	23.46
376.548	23.29
376.757	23.28
376.965	23.16
377.173	23.15
377.381	23.22
377.59	23.08
377.798	23.09
378.006	23.05
378.214	23.07
378.423	22.84
378.631	22.78
378.839	22.65
379.047	22.55
379.255	22.72
379.463	22.64
379.671	22.5
379.879	22.69
380.088	22.87
380.296	22.94
380.504	22.95
380.712	23.03
380.92	22.92
381.128	23.1
381.336	23.21
381.544	23.09
381.752	23.24
381.96	23.19
382.168	23.28
382.376	23.18
382.584	23.18
382.791	23.11
382.999	23.25
383.207	23.27
383.415	23.14
383.623	23.15
383.831	23.12
384.039	23.17
384.247	23.18
384.454	23.11
384.662	23.02
384.87	23
385.078	22.93
385.285	22.83
385.493	22.89
385.701	23.01
385.909	22.89
386.116	22.75
386.324	22.72
386.532	22.66
386.739	22.56
386.947	22.63
387.155	22.71
387.362	22.7
387.57	22.8
387.778	22.9
387.985	22.93
388.193	23.16
388.4	23.17
388.608	23.09
388.816	23.08
389.023	23.2
389.231	23.21
389.438	22.98
389.646	22.91
389.853	22.84
390.061	22.79
390.268	22.75
390.475	22.55
390.683	22.63
390.89	22.72
391.098	22.72
391.305	22.72
391.512	22.66
391.72	22.7
391.927	22.78
392.135	22.83
392.342	22.77
392.549	22.62
392.756	22.54
392.964	22.5
393.171	22.5
393.378	22.37
393.586	22.28
393.793	22.27
394	22.28
394.207	22.32
394.414	22.28
394.622	22.36
394.829	22.56
395.036	22.63
395.243	22.77
395.45	22.77
395.657	22.96
395.864	23.05
396.072	23.25
396.279	23.34
396.486	23.43
396.693	23.5
396.9	23.37
397.107	23.16
397.314	23.17
397.521	22.93
397.728	22.78
397.935	22.7
398.142	22.47
398.349	22.26
398.556	22.24
398.763	22.28
398.97	22.19
399.177	22.23
399.383	22.38
399.59	22.4
399.797	22.69
400.004	22.63
400.211	22.65
400.418	22.88
400.625	22.79
400.831	22.72
401.038	22.55
401.245	22.39
401.452	22.33
401.658	22.16
401.865	22.03
402.072	21.87
402.279	21.96
402.485	21.9
402.692	21.69
402.899	21.75
403.105	21.77
403.312	21.76
403.519	21.93
403.725	21.99
403.932	22.21
404.138	22.29
404.345	22.44
404.552	22.44
404.758	22.41
404.965	22.48
405.171	22.5
405.378	22.4
405.584	22.38
405.791	22.34
405.997	22.22
406.204	22.07
406.41	22.12
406.617	21.98
406.823	21.98
407.029	22.09
407.236	22.04
407.442	21.99
407.649	22.07
407.855	22.14
408.061	22.14
408.268	22.16
408.474	22.32
408.68	22.29
408.887	22.21
409.093	22.21
409.299	22.19
409.505	22.17
409.712	22.22
409.918	22.38
410.124	22.37
410.33	22.55
410.537	22.52
410.743	22.41
410.949	22.33
411.155	22.53
411.361	22.44
411.567	22.51
411.773	22.51
411.98	22.55
412.186	22.37
412.392	22.4
412.598	22.16
412.804	22.29
413.01	22.27
413.216	22.26
413.422	22.05
413.628	22.27
413.834	22.19
414.04	22.25
414.246	22.1
414.452	22.21
414.658	22.16
414.864	22.17
415.07	22.02
415.275	22.06
415.481	22.03
415.687	22.06
415.893	21.9
416.099	21.98
416.305	22.09
416.511	22.16
416.716	22.04
416.922	22.13
417.128	22.23
417.334	22.28
417.539	22.24
417.745	22.27
417.951	22.34
418.157	22.35
418.362	22.23
418.568	22.16
418.774	22.12
418.979	22.1
419.185	22.03
419.391	21.91
419.596	21.92
419.802	21.92
420.008	21.86
420.213	21.28
420.419	21.28
420.624	21.29
420.83	21.29
421.035	21.36
421.241	21.36
421.446	21.34
421.652	21.27
421.857	21.23
422.063	21.18
422.268	21.29
422.474	21.8
422.679	21.79
422.885	21.8
423.09	21.72
423.295	21.62
423.501	21.69
423.706	21.74
423.911	21.87
424.117	21.96
424.322	22
424.527	21.88
424.733	21.88
424.938	21.87
425.143	21.87
425.349	22
425.554	22.06
425.759	22.11
425.964	22.1
426.169	22.14
426.375	22.08
426.58	22.14
426.785	22.2
426.99	22.2
427.195	22.24
427.4	22.27
427.605	22.2
427.811	22.23
428.016	22.09
428.221	22.12
428.426	22.01
428.631	22.07
428.836	22.08
429.041	22.24
429.246	22.21
429.451	22.08
429.656	21.98
429.861	21.91
430.066	21.92
430.271	21.92
430.476	21.86
430.681	21.92
430.886	21.86
431.09	21.87
431.295	21.82
431.5	21.86
431.705	21.95
431.91	22.09
432.115	22.12
432.32	22.19
432.524	22.24
432.729	22.22
432.934	22.13
433.139	22.16
433.343	22.07
433.548	22.02
433.753	21.96
433.958	22.03
434.162	21.95
434.367	21.98
434.572	21.85
434.776	21.82
434.981	21.89
435.186	21.99
435.39	21.97
435.595	21.99
435.799	22.04
436.004	22.1
436.209	22.09
436.413	22.05
436.618	21.99
436.822	22.06
437.027	22.01
437.231	21.98
437.436	22
437.64	22
437.845	22.03
438.049	22.09
438.253	22.22
438.458	22.27
438.662	22.39
438.867	22.51
439.071	22.58
439.275	22.55
439.48	22.53
439.684	22.5
439.888	22.59
440.093	22.52
440.297	22.47
440.501	22.36
440.706	22.32
440.91	22.27
441.114	22.21
441.318	22.22
441.523	22.25
441.727	22.3
441.931	22.34
442.135	22.21
442.339	22.33
442.543	22.26
442.748	22.24
442.952	22.22
443.156	22.24
443.36	22.27
443.564	22.18
443.768	22.24
443.972	22.19
444.176	22.19
444.38	22.29
444.584	22.28
444.788	22.27
444.992	22.29
445.196	22.3
445.4	22.33
445.604	22.38
445.808	22.34
446.012	22.33
446.216	22.32
446.42	22.27
446.624	22.21
446.828	22.23
447.032	22.26
447.235	22.23
447.439	22.24
447.643	22.19
447.847	22.13
448.051	22.04
448.254	22.01
448.458	22.09
448.662	22.08
448.866	22.06
449.069	21.95
449.273	21.98
449.477	22.04
449.681	21.98
449.884	21.99
450.088	22.03
450.292	22.08
450.495	22.04
450.699	21.96
450.902	22.07
451.106	22.12
451.31	22.23
451.513	22.17
451.717	22.08
451.92	22.15
452.124	22.19
452.327	22.14
452.531	22.22
452.734	22.25
452.938	22.25
453.141	22.11
453.345	22.06
453.548	22.04
453.752	22.05
453.955	22.22
454.158	22.13
454.362	22.07
454.565	22.06
454.769	21.97
454.972	22.04
455.175	22.09
455.379	22.22
455.582	22.31
455.785	22.26
455.988	22.24
456.192	22.22
456.395	22.36
456.598	22.45
456.801	22.57
457.005	22.65
457.208	22.67
457.411	22.56
457.614	22.5
457.817	22.29
458.021	22.26
458.224	22.25
458.427	22.14
458.63	22.09
458.833	22.08
459.036	22.07
459.239	22.14
459.442	22.07
459.645	22.09
459.848	22.13
460.051	22.23
460.254	22.37
460.457	22.41
460.66	22.46
460.863	22.47
461.066	22.39
461.269	22.36
461.472	22.34
461.675	22.33
461.878	22.31
462.081	22.31
462.284	22.32
462.486	22.18
462.689	22.18
462.892	22.19
463.095	22.15
