Data from 2938800__Reflection_01.txt Node
Date: Thu Mar 12 22:52:50 EDT 2015
User: robert
Spectrometer: USB4E03002
Autoset integration time: false
Trigger mode: 4
Integration Time (sec): 1.000000E-1
Scans to average: 10
Electric dark correction enabled: false
Nonlinearity correction enabled: false
Boxcar width: 5
Stray light correction enabled: false
XAxis mode: Wavelengths
Stop averaging: false
Number of Pixels in Spectrum: 3648
>>>>>Begin Spectral Data<<<<<
177.575	390.65
177.794	1219.44
178.014	393.59
178.233	467.33
178.452	275.8
178.672	269.25
178.891	353.09
179.11	329.37
179.33	337.56
179.549	364.57
179.768	274.56
179.987	245.26
180.207	215.95
180.426	256.83
180.645	291.58
180.864	277.46
181.084	327.82
181.303	218.85
181.522	197.87
181.741	162.28
181.96	166.29
182.179	178.52
182.398	177.68
182.618	180.36
182.837	168.65
183.056	167.98
183.275	166.04
183.494	146.4
183.713	153.36
183.932	146.65
184.151	153.33
184.37	141.46
184.589	132.54
184.808	129.52
185.027	126.33
185.246	129.32
185.465	105.59
185.684	118.56
185.903	116.38
186.122	113.27
186.341	141.09
186.56	148.99
186.779	148.45
186.998	148.84
187.216	149.46
187.435	149.66
187.654	144.77
187.873	161.05
188.092	156.53
188.311	172.18
188.53	172.91
188.748	155.12
188.967	149.01
189.186	153.2
189.405	160.09
189.623	159.14
189.842	145.26
190.061	139.36
190.28	147.36
190.498	131.43
190.717	121.23
190.936	125.42
191.154	123.57
191.373	124.99
191.592	112.37
191.81	117.37
192.029	114.65
192.248	117.57
192.466	115.53
192.685	109.83
192.904	125.95
193.122	133.27
193.341	135.94
193.559	153.18
193.778	155.82
193.996	172.08
194.215	163
194.433	188.73
194.652	223.35
194.87	262.43
195.089	293.06
195.307	250.23
195.526	221.77
195.744	228.47
195.963	202.3
196.181	236.02
196.399	252.19
196.618	220.59
196.836	202.75
197.055	188.99
197.273	177.68
197.491	162.77
197.71	170.66
197.928	199.24
198.146	173.04
198.365	157.26
198.583	144.11
198.801	137.47
199.019	166.41
199.238	156.47
199.456	145.44
199.674	166.37
199.892	153.92
200.111	150.33
200.329	141.11
200.547	183.57
200.765	210.95
200.983	188.45
201.202	174.59
201.42	154.69
201.638	166.47
201.856	174.44
202.074	155.88
202.292	153.13
202.51	139.12
202.728	148.42
202.946	130.46
203.165	134.36
203.383	149.04
203.601	163.76
203.819	174.62
204.037	184.63
204.255	194.06
204.473	186.32
204.691	208.68
204.909	211.79
205.127	201.83
205.345	196.27
205.562	168.28
205.78	158.48
205.998	161.74
206.216	146.51
206.434	151.62
206.652	136.33
206.87	135.85
207.088	122.75
207.306	136.86
207.523	132.05
207.741	137.51
207.959	155.04
208.177	150.69
208.395	140.16
208.612	153.92
208.83	136.87
209.048	145.17
209.266	139.37
209.483	151.64
209.701	134.97
209.919	131.62
210.136	134.02
210.354	121.28
210.572	122.63
210.79	121.85
211.007	118.67
211.225	119.79
211.442	116.23
211.66	121.3
211.878	105.95
212.095	106.95
212.313	105.55
212.53	106.22
212.748	114.38
212.966	111.69
213.183	112.74
213.401	113.75
213.618	112.03
213.836	111.61
214.053	114.5
214.271	123.81
214.488	125.86
214.705	125.24
214.923	132.86
215.14	134.57
215.358	144.77
215.575	157.7
215.793	139.74
216.01	135.34
216.227	125.5
216.445	125.52
216.662	142.46
216.879	131.32
217.097	146.77
217.314	116.23
217.531	106.76
217.749	105.62
217.966	102.88
218.183	112.5
218.4	108.02
218.618	113.76
218.835	104.56
219.052	99.06
219.269	98.56
219.487	86.92
219.704	91.85
219.921	93
220.138	87.97
220.355	83.38
220.572	82.72
220.79	81.7
221.007	79.47
221.224	78.94
221.441	75.77
221.658	72.87
221.875	66.94
222.092	63.64
222.309	60.86
222.526	61.08
222.743	60.16
222.96	60.42
223.177	57.73
223.394	54.58
223.611	54.24
223.828	54.47
224.045	54.88
224.262	56.74
224.479	52.44
224.696	47.4
224.913	46.3
225.13	44.4
225.347	38.89
225.564	38.61
225.781	37.58
225.997	35.67
226.214	32.1
226.431	29.43
226.648	26.28
226.865	27.09
227.082	26.64
227.298	21.72
227.515	20.58
227.732	19.71
227.949	17.76
228.165	16.79
228.382	15.52
228.599	14.77
228.816	14.17
229.032	13.22
229.249	12.42
229.466	11.7
229.682	12.23
229.899	11.76
230.116	11.47
230.332	11.66
230.549	11.15
230.765	12.2
230.982	12.84
231.199	13.11
231.415	14.83
231.632	16.26
231.848	17.93
232.065	19.79
232.281	20.82
232.498	20.61
232.714	21.06
232.931	23.29
233.147	21.79
233.364	21.25
233.58	22.49
233.797	22.74
234.013	21.48
234.23	20.36
234.446	19.4
234.662	19.34
234.879	20.73
235.095	21.06
235.312	19.91
235.528	21.07
235.744	22.05
235.961	21.18
236.177	20.9
236.393	21.25
236.61	21.65
236.826	22.18
237.042	22.64
237.258	22.13
237.475	22.33
237.691	22.81
237.907	22.88
238.123	22.58
238.339	22.04
238.556	21.47
238.772	20.7
238.988	20.94
239.204	20.47
239.42	20.14
239.636	19.53
239.853	18.99
240.069	17.85
240.285	16.59
240.501	15.26
240.717	14.39
240.933	13.54
241.149	12.63
241.365	11.77
241.581	11.59
241.797	11.01
242.013	11.17
242.229	10.86
242.445	10.52
242.661	10.51
242.877	10.44
243.093	10.45
243.309	10.88
243.525	10.86
243.741	11.01
243.957	11.07
244.173	11.09
244.388	11.09
244.604	10.75
244.82	11.32
245.036	11.02
245.252	11.25
245.468	10.59
245.683	10.06
245.899	10.28
246.115	9.74
246.331	9.25
246.547	9.13
246.762	8.46
246.978	8.24
247.194	7.88
247.409	7.91
247.625	7.86
247.841	7.94
248.057	7.59
248.272	7.3
248.488	7.47
248.703	7.86
248.919	7.96
249.135	8.64
249.35	9.19
249.566	10.27
249.782	10.43
249.997	11.09
250.213	11.82
250.428	13.06
250.644	14.01
250.859	14.2
251.075	13.94
251.29	13.36
251.506	13.03
251.721	12.78
251.937	11.92
252.152	12.31
252.368	11.53
252.583	11.18
252.798	11.14
253.014	10.67
253.229	10.59
253.445	10.31
253.66	10.58
253.875	10.36
254.091	10.72
254.306	11.65
254.521	11.05
254.737	11.33
254.952	11.14
255.167	10.94
255.383	10.9
255.598	10.62
255.813	10.77
256.028	11.32
256.244	11.63
256.459	12.08
256.674	11.5
256.889	11.53
257.104	11.3
257.32	11.4
257.535	10.82
257.75	10.81
257.965	10.73
258.18	10.26
258.395	9.47
258.61	8.77
258.826	8.02
259.041	7.49
259.256	7.08
259.471	6.99
259.686	6.8
259.901	6.88
260.116	6.55
260.331	6.41
260.546	6.53
260.761	6.67
260.976	6.86
261.191	6.92
261.406	6.99
261.621	7.4
261.836	7.67
262.05	8.05
262.265	7.94
262.48	8.58
262.695	8.69
262.91	8.45
263.125	8.71
263.34	9.24
263.555	9.68
263.769	9.81
263.984	9.19
264.199	8.69
264.414	8.51
264.629	9.06
264.843	9.08
265.058	9.6
265.273	9.08
265.488	9.26
265.702	8.75
265.917	8.7
266.132	8.73
266.346	8.94
266.561	9.02
266.776	9.28
266.99	8.83
267.205	8.3
267.42	7.72
267.634	8.35
267.849	8.02
268.063	8.07
268.278	7.92
268.492	8.44
268.707	8.8
268.922	9.17
269.136	8.53
269.351	8.57
269.565	8.53
269.78	8.98
269.994	8.51
270.209	8.58
270.423	8.4
270.637	8.02
270.852	7.29
271.066	6.98
271.281	6.45
271.495	6.82
271.709	6.86
271.924	6.99
272.138	6.66
272.353	6.8
272.567	6.73
272.781	6.86
272.996	7.07
273.21	7.48
273.424	7.64
273.638	8.15
273.853	7.99
274.067	8.03
274.281	8.24
274.495	8.43
274.71	8.5
274.924	8.58
275.138	8.34
275.352	8.51
275.566	8.41
275.781	8.25
275.995	8.19
276.209	8.39
276.423	8.87
276.637	8.77
276.851	8.68
277.065	8.72
277.279	8.52
277.493	8.69
277.707	8.33
277.921	8.53
278.135	8.86
278.349	8.76
278.563	8.77
278.777	8.22
278.991	8.1
279.205	8.52
279.419	8.27
279.633	8.38
279.847	8.55
280.061	8.69
280.275	8.47
280.489	7.93
280.703	7.71
280.917	7.61
281.131	7.61
281.344	7.51
281.558	7.1
281.772	6.76
281.986	6.54
282.2	6.34
282.414	6.24
282.627	6.35
282.841	6.88
283.055	6.88
283.269	6.97
283.482	6.92
283.696	6.87
283.91	6.97
284.123	7.43
284.337	7.4
284.551	7.27
284.764	7.33
284.978	7.25
285.192	6.6
285.405	6.58
285.619	6.25
285.833	6.24
286.046	6.28
286.26	6.27
286.473	6.22
286.687	6.11
286.9	6.07
287.114	5.96
287.327	5.95
287.541	6.16
287.754	6.28
287.968	6.37
288.181	6.33
288.395	6.23
288.608	5.98
288.822	6.13
289.035	6.22
289.248	6.55
289.462	6.63
289.675	6.4
289.889	6.29
290.102	5.96
290.315	6.18
290.529	6.33
290.742	6.48
290.955	6.73
291.169	6.62
291.382	7.08
291.595	6.89
291.808	7.11
292.022	7.15
292.235	7.78
292.448	8.1
292.661	7.64
292.875	7.39
293.088	7.44
293.301	7.72
293.514	7.38
293.727	6.91
293.94	7.1
294.153	6.91
294.367	7.1
294.58	6.44
294.793	6.48
295.006	6.86
295.219	6.97
295.432	7.07
295.645	6.79
295.858	6.79
296.071	6.76
296.284	6.63
296.497	6.35
296.71	6.35
296.923	6.57
297.136	6.33
297.349	6.19
297.562	6.17
297.775	5.91
297.988	5.59
298.201	5.68
298.414	5.64
298.626	5.42
298.839	5.66
299.052	5.53
299.265	5.45
299.478	5.5
299.691	5.4
299.903	5.3
300.116	5.32
300.329	5.84
300.542	6.13
300.755	6.25
300.967	6.69
301.18	6.94
301.393	7.04
301.605	7.2
301.818	7.56
302.031	7.87
302.243	8.17
302.456	8.71
302.669	8.93
302.881	8.79
303.094	8.68
303.307	8.4
303.519	8.06
303.732	7.82
303.944	7.91
304.157	8.04
304.37	7.94
304.582	8.07
304.795	7.6
305.007	7.48
305.22	7.52
305.432	7.59
305.645	7.75
305.857	7.99
306.069	8.32
306.282	8.29
306.494	8.08
306.707	8.12
306.919	7.76
307.132	7.95
307.344	7.74
307.556	7.42
307.769	7.61
307.981	7.1
308.193	6.86
308.406	6.68
308.618	6.82
308.83	6.75
309.043	6.61
309.255	6.57
309.467	6.68
309.679	6.64
309.892	6.86
310.104	6.59
310.316	6.85
310.528	6.96
310.74	6.9
310.953	6.62
311.165	6.62
311.377	6.84
311.589	6.8
311.801	6.56
312.013	6.57
312.225	6.48
312.437	6.98
312.649	7.05
312.862	6.93
313.074	7.27
313.286	7.63
313.498	7.66
313.71	7.73
313.922	7.97
314.134	8.3
314.346	8.37
314.558	8.77
314.77	8.5
314.982	8.61
315.193	8.89
315.405	8.67
315.617	8.46
315.829	8.31
316.041	8.31
316.253	8.23
316.465	8.36
316.677	8.43
316.888	8.5
317.1	8.61
317.312	8.6
317.524	8.46
317.736	8.26
317.947	8.42
318.159	9.12
318.371	9.16
318.583	9.44
318.794	9.29
319.006	9.47
319.218	9.62
319.43	9.73
319.641	10.26
319.853	10.36
320.064	10.97
320.276	11.19
320.488	10.95
320.699	11.59
320.911	11.21
321.123	11.32
321.334	11.41
321.546	11.62
321.757	12.04
321.969	11.89
322.18	12.36
322.392	12.48
322.603	12.36
322.815	12.65
323.026	11.91
323.238	12.22
323.449	12.31
323.661	12.12
323.872	12
324.083	11.76
324.295	11.91
324.506	11.85
324.718	11.89
324.929	12.41
325.14	12.34
325.352	12.7
325.563	13.31
325.774	13.64
325.986	14.22
326.197	14.38
326.408	14.66
326.62	14.99
326.831	15.35
327.042	15.61
327.253	15.77
327.464	16.02
327.676	16.37
327.887	16.71
328.098	17
328.309	17.34
328.52	17.55
328.732	17.65
328.943	17.84
329.154	18.08
329.365	18.43
329.576	18.6
329.787	19.25
329.998	19.68
330.209	19.81
330.42	20.11
330.631	20.17
330.842	20.18
331.053	20.74
331.264	21.02
331.475	21.3
331.686	21.25
331.897	21.26
332.108	21.1
332.319	21.22
332.53	21.03
332.741	20.86
332.952	20.64
333.163	21.07
333.374	21.3
333.585	21.36
333.795	21.56
334.006	22.06
334.217	22.51
334.428	22.69
334.639	22.45
334.849	22.67
335.06	22.9
335.271	23.34
335.482	23.41
335.692	23.24
335.903	23.27
336.114	23.31
336.325	23.21
336.535	23.1
336.746	23.18
336.957	23.17
337.167	23.48
337.378	23.57
337.589	23.34
337.799	23.51
338.01	23.74
338.22	23.6
338.431	23.34
338.642	23.37
338.852	23.19
339.063	22.86
339.273	23.32
339.484	22.98
339.694	22.94
339.905	23.31
340.115	22.85
340.326	22.53
340.536	22.91
340.746	23.01
340.957	22.71
341.167	22.77
341.378	22.96
341.588	22.88
341.799	22.78
342.009	22.46
342.219	22.25
342.43	22.4
342.64	22.43
342.85	22.1
343.061	22.03
343.271	22.46
343.481	22.3
343.691	22.19
343.902	22.07
344.112	22.24
344.322	22.48
344.532	22.43
344.743	22.47
344.953	22.32
345.163	22.32
345.373	22.36
345.583	21.79
345.793	21.94
346.004	21.84
346.214	21.85
346.424	21.67
346.634	21.8
346.844	22.14
347.054	22.23
347.264	22.75
347.474	22.94
347.684	22.84
347.894	23.26
348.104	23.19
348.314	23.59
348.524	23.34
348.734	23.63
348.944	23.54
349.154	23.02
349.364	22.87
349.574	22.56
349.784	22.27
349.994	22.41
350.204	22.22
350.413	22.41
350.623	21.99
350.833	22.01
351.043	21.93
351.253	22.09
351.463	22.33
351.672	22.26
351.882	22.26
352.092	22.22
352.302	22.1
352.511	22.19
352.721	22.07
352.931	22.27
353.141	22.27
353.35	22.09
353.56	21.56
353.77	21.37
353.979	21.5
354.189	21.63
354.399	21.7
354.608	21.71
354.818	21.5
355.027	21.49
355.237	21.34
355.447	21.33
355.656	21.41
355.866	21.57
356.075	21.65
356.285	21.44
356.494	21.12
356.704	21.06
356.913	20.95
357.123	20.96
357.332	20.64
357.542	20.49
357.751	20.58
357.96	20.28
358.17	20.27
358.379	19.91
358.589	19.84
358.798	20.07
359.007	20.1
359.217	19.98
359.426	19.88
359.635	20.13
359.845	20.29
360.054	20.11
360.263	20.31
360.472	20.16
360.682	20.42
360.891	20.42
361.1	20.19
361.309	20.05
361.519	20.11
361.728	20.21
361.937	19.98
362.146	19.88
362.355	20.03
362.564	19.99
362.774	20.1
362.983	20.06
363.192	20.2
363.401	20.07
363.61	20.16
363.819	20.29
364.028	20.12
364.237	20.33
364.446	20.38
364.655	20.26
364.864	20.26
365.073	20.22
365.282	20.17
365.491	19.79
365.7	19.98
365.909	20.07
366.118	20.06
366.327	20.21
366.536	20.1
366.745	20.15
366.954	20.16
367.162	20.26
367.371	20.25
367.58	20.27
367.789	20.64
367.998	20.62
368.207	20.68
368.415	20.73
368.624	20.69
368.833	20.57
369.042	20.33
369.25	20.35
369.459	20.39
369.668	20.39
369.877	20.3
370.085	20.21
370.294	20.05
370.503	19.91
370.711	19.62
370.92	19.39
371.129	19.63
371.337	19.85
371.546	19.86
371.754	19.62
371.963	19.56
372.171	19.59
372.38	19.51
372.589	19.77
372.797	19.63
373.006	19.59
373.214	19.79
373.423	19.43
373.631	19.33
373.84	19.27
374.048	19.28
374.256	19.22
374.465	19.25
374.673	19.32
374.882	19.24
375.09	19.29
375.298	19.3
375.507	19.4
375.715	19.67
375.923	19.7
376.132	19.49
376.34	19.38
376.548	19.26
376.757	19.11
376.965	19.16
377.173	19.09
377.381	18.87
377.59	18.75
377.798	18.54
378.006	18.34
378.214	18.36
378.423	18.43
378.631	18.47
378.839	18.6
379.047	18.67
379.255	18.55
379.463	18.57
379.671	18.83
379.879	18.93
380.088	19.17
380.296	19.28
380.504	18.99
380.712	18.93
380.92	18.86
381.128	18.73
381.336	18.82
381.544	18.56
381.752	18.48
381.96	18.36
382.168	18.18
382.376	18.08
382.584	17.99
382.791	18.08
382.999	18.01
383.207	18.09
383.415	18.06
383.623	18.05
383.831	18.12
384.039	18.13
384.247	18.16
384.454	18.27
384.662	18.08
384.87	18.05
385.078	18.05
385.285	18.11
385.493	18.33
385.701	18.47
385.909	18.21
386.116	18.18
386.324	18.36
386.532	18.45
386.739	18.63
386.947	18.63
387.155	18.94
387.362	19.1
387.57	19.12
387.778	18.83
387.985	18.76
388.193	19.06
388.4	19.04
388.608	19.05
388.816	18.83
389.023	18.7
389.231	18.65
389.438	18.34
389.646	18.1
389.853	17.84
390.061	17.78
390.268	17.77
390.475	17.4
390.683	17.37
390.89	17.13
391.098	17.26
391.305	17.22
391.512	17.31
391.72	17.43
391.927	17.29
392.135	17.43
392.342	17.45
392.549	17.42
392.756	17.35
392.964	17.33
393.171	17.35
393.378	17.01
393.586	16.98
393.793	16.79
394	16.7
394.207	16.82
394.414	17.05
394.622	17.05
394.829	17.21
395.036	17.33
395.243	17.5
395.45	17.67
395.657	17.98
395.864	18.06
396.072	18.28
396.279	18.25
396.486	18.29
396.693	18.27
396.9	18.24
397.107	18.05
397.314	18.08
397.521	17.99
397.728	17.72
397.935	17.82
398.142	17.71
398.349	17.62
398.556	17.62
398.763	17.63
398.97	17.43
399.177	17.44
399.383	17.45
399.59	17.41
399.797	17.47
400.004	17.5
400.211	17.42
400.418	17.45
400.625	17.49
400.831	17.5
401.038	17.56
401.245	17.31
401.452	17.46
401.658	17.44
401.865	17.52
402.072	17.42
402.279	17.33
402.485	17.2
402.692	17.12
402.899	17.12
403.105	17.12
403.312	17
403.519	17.24
403.725	17.08
403.932	17.13
404.138	17.14
404.345	17.19
404.552	17.25
404.758	17.35
404.965	17.43
405.171	17.35
405.378	17.33
405.584	17.33
405.791	17.32
405.997	17.38
406.204	17.46
406.41	17.45
406.617	17.51
406.823	17.47
407.029	17.46
407.236	17.46
407.442	17.55
407.649	17.48
407.855	17.5
408.061	17.45
408.268	17.24
408.474	17.31
408.68	17.27
408.887	17.12
409.093	17.19
409.299	17.13
409.505	17.07
409.712	17
409.918	17.07
410.124	17.14
410.33	17.12
410.537	17.03
410.743	16.99
410.949	17.01
411.155	17.13
411.361	16.91
411.567	16.99
411.773	17.03
411.98	17.05
412.186	17.08
412.392	17.09
412.598	17.04
412.804	17.16
413.01	16.97
413.216	16.96
413.422	16.87
413.628	17.1
413.834	17.1
414.04	17.22
414.246	17.13
414.452	16.99
414.658	16.96
414.864	17.16
415.07	17.32
415.275	17.36
415.481	17.29
415.687	17.26
415.893	17.29
416.099	17.12
416.305	17.05
416.511	16.97
416.716	16.93
416.922	16.97
417.128	16.74
417.334	16.74
417.539	16.75
417.745	16.69
417.951	16.61
418.157	16.5
418.362	16.57
418.568	16.48
418.774	16.5
418.979	16.53
419.185	16.47
419.391	16.52
419.596	16.36
419.802	16.29
420.008	16.36
420.213	15.75
420.419	15.79
420.624	15.7
420.83	15.68
421.035	15.65
421.241	15.65
421.446	15.6
421.652	15.44
421.857	15.48
422.063	15.47
422.268	15.43
422.474	16.03
422.679	16.01
422.885	16.05
423.09	16.07
423.295	16.09
423.501	16.13
423.706	16.14
423.911	16.27
424.117	16.25
424.322	16.3
424.527	16.23
424.733	16.2
424.938	16.18
425.143	16.21
425.349	16.27
425.554	16.31
425.759	16.31
425.964	16.39
426.169	16.46
426.375	16.54
426.58	16.54
426.785	16.61
426.99	16.69
427.195	16.8
427.4	16.86
427.605	16.88
427.811	16.91
428.016	16.83
428.221	16.78
428.426	16.82
428.631	16.82
428.836	16.87
429.041	16.99
429.246	16.91
429.451	16.88
429.656	16.8
429.861	16.71
430.066	16.88
430.271	16.8
430.476	16.81
430.681	16.77
430.886	16.76
431.09	16.8
431.295	16.7
431.5	16.8
431.705	16.73
431.91	16.68
432.115	16.67
432.32	16.53
432.524	16.63
432.729	16.65
432.934	16.59
433.139	16.63
433.343	16.52
433.548	16.46
433.753	16.52
433.958	16.66
434.162	16.72
434.367	16.73
434.572	16.76
434.776	16.72
434.981	16.72
435.186	16.75
435.39	16.82
435.595	16.79
435.799	16.84
436.004	16.63
436.209	16.53
436.413	16.5
436.618	16.56
436.822	16.56
437.027	16.63
437.231	16.54
437.436	16.47
437.64	16.38
437.845	16.43
438.049	16.52
438.253	16.62
438.458	16.64
438.662	16.63
438.867	16.63
439.071	16.58
439.275	16.54
439.48	16.59
439.684	16.6
439.888	16.59
440.093	16.55
440.297	16.53
440.501	16.52
440.706	16.52
440.91	16.55
441.114	16.5
441.318	16.53
441.523	16.54
441.727	16.5
441.931	16.54
442.135	16.52
442.339	16.58
442.543	16.51
442.748	16.46
442.952	16.47
443.156	16.43
443.36	16.48
443.564	16.48
443.768	16.49
443.972	16.56
444.176	16.57
444.38	16.57
444.584	16.51
444.788	16.52
444.992	16.54
445.196	16.44
445.4	16.44
445.604	16.41
445.808	16.33
446.012	16.28
446.216	16.18
446.42	16.18
446.624	16.16
446.828	16.18
447.032	16.18
447.235	16.1
447.439	16.17
447.643	16.19
447.847	16.15
448.051	16.18
448.254	16.21
448.458	16.25
448.662	16.23
448.866	16.19
449.069	16.14
449.273	16.1
449.477	16.22
449.681	16.2
449.884	16.26
450.088	16.38
450.292	16.46
450.495	16.43
450.699	16.42
450.902	16.46
451.106	16.53
451.31	16.63
451.513	16.71
451.717	16.66
451.92	16.66
452.124	16.61
452.327	16.58
452.531	16.52
452.734	16.59
452.938	16.69
453.141	16.66
453.345	16.69
453.548	16.67
453.752	16.68
453.955	16.81
454.158	16.76
454.362	16.73
454.565	16.65
454.769	16.65
454.972	16.7
455.175	16.76
455.379	16.72
455.582	16.83
455.785	16.78
455.988	16.75
456.192	16.65
456.395	16.72
456.598	16.73
456.801	16.84
457.005	16.85
457.208	16.83
457.411	16.72
457.614	16.7
457.817	16.52
458.021	16.49
