Data from 2938762__Reflection_03.txt Node
Date: Fri Mar 13 16:53:12 EDT 2015
User: robert
Spectrometer: USB4E03002
Autoset integration time: false
Trigger mode: 4
Integration Time (sec): 1.000000E-1
Scans to average: 10
Electric dark correction enabled: false
Nonlinearity correction enabled: false
Boxcar width: 5
Stray light correction enabled: false
XAxis mode: Wavelengths
Stop averaging: false
Number of Pixels in Spectrum: 3648
>>>>>Begin Spectral Data<<<<<
177.575	-1306.25
177.794	-5823.08
178.014	-996.15
178.233	-483.77
178.452	-377.98
178.672	-306.12
178.891	-147.04
179.11	-95.95
179.33	-129.31
179.549	-256.44
179.768	-214.63
179.987	-291.22
180.207	-231.27
180.426	-242.12
180.645	-1044.44
180.864	-4604.76
181.084	1206.74
181.303	1266.67
181.522	511.95
181.741	782.19
181.96	1265.96
182.179	578.76
182.398	483.06
182.618	436.86
182.837	298.17
183.056	355.71
183.275	336.11
183.494	232.14
183.713	216.89
183.932	149.04
184.151	142.25
184.37	125.41
184.589	107.19
184.808	122.8
185.027	117.46
185.246	122.02
185.465	115.41
185.684	145.64
185.903	211.39
186.122	242.34
186.341	486.7
186.56	1842.55
186.779	778.38
186.998	-386.84
187.216	-1184.85
187.435	643.65
187.654	-4813.33
187.873	-473.33
188.092	13316.67
188.311	851.96
188.53	306.67
188.748	311.11
188.967	331.07
189.186	316.77
189.405	235.44
189.623	303.06
189.842	367.82
190.061	618.95
190.28	409.67
190.498	548.15
190.717	474.38
190.936	638.38
191.154	556.33
191.373	512.83
191.592	515.91
191.81	467.23
192.029	688
192.248	1015.38
192.466	359.15
192.685	322.51
192.904	370.5
193.122	349.85
193.341	531.78
193.559	1010.31
193.778	1308.57
193.996	3207.41
194.215	-2631.71
194.433	3741.38
194.652	-1374.65
194.87	-481.52
195.089	-5078.95
195.307	2010.71
195.526	-6058.82
195.744	1041.58
195.963	500
196.181	396.91
196.399	383.53
196.618	330.53
196.836	333.43
197.055	303.45
197.273	273.98
197.491	328.64
197.71	259.06
197.928	230.59
198.146	239.66
198.365	239.27
198.583	242.17
198.801	192.68
199.019	214.06
199.238	231.36
199.456	207.03
199.674	214.38
199.892	231.15
200.111	249.24
200.329	262.52
200.547	294.16
200.765	370.81
200.983	399.39
201.202	444.25
201.42	404.5
201.638	329.42
201.856	461.36
202.074	324.94
202.292	377.36
202.51	292.26
202.728	349.73
202.946	243.75
203.165	236.47
203.383	235.93
203.601	217.99
203.819	282.71
204.037	289.45
204.255	315.53
204.473	396.35
204.691	272.42
204.909	214.83
205.127	195.45
205.345	265.2
205.562	277.31
205.78	261.52
205.998	318.1
206.216	417.65
206.434	324.22
206.652	288.34
206.87	493.36
207.088	431.84
207.306	1909.52
207.523	1116.52
207.741	934.09
207.959	743.46
208.177	1033.88
208.395	420.29
208.612	223.6
208.83	256
209.048	267.66
209.266	243.09
209.483	257.88
209.701	215.99
209.919	224.83
210.136	199.13
210.354	229.56
210.572	223.49
210.79	237.33
211.007	252.35
211.225	240.22
211.442	290.38
211.66	248.99
211.878	196.08
212.095	114.79
212.313	102.02
212.53	105.22
212.748	93.25
212.966	94.48
213.183	114.42
213.401	132.15
213.618	99.29
213.836	75.69
214.053	71.31
214.271	91.1
214.488	273.8
214.705	337.2
214.923	335.37
215.14	380.82
215.358	366.23
215.575	238.28
215.793	173.29
216.01	191.61
216.227	212.68
216.445	204.85
216.662	158.25
216.879	139.12
217.097	119.72
217.314	98.34
217.531	94.95
217.749	89.55
217.966	88.12
218.183	104.91
218.4	111.3
218.618	103.53
218.835	89.29
219.052	107.99
219.269	107.03
219.487	105.02
219.704	115.48
219.921	114.41
220.138	119.93
220.355	119.5
220.572	99.44
220.79	101.4
221.007	101.99
221.224	98.35
221.441	84.72
221.658	77.2
221.875	78.66
222.092	72.32
222.309	78.86
222.526	77.87
222.743	74.41
222.96	70.89
223.177	64.69
223.394	61.31
223.611	59.39
223.828	60.86
224.045	69.54
224.262	61.43
224.479	60.2
224.696	51.92
224.913	50.13
225.13	46.33
225.347	42.94
225.564	40.72
225.781	36.38
225.997	35.77
226.214	29.72
226.431	24.81
226.648	23.84
226.865	23.01
227.082	21.86
227.298	17.16
227.515	14.6
227.732	12.75
227.949	11.39
228.165	10.61
228.382	9.01
228.599	8.57
228.816	7.81
229.032	7.94
229.249	6.8
229.466	6.37
229.682	7.58
229.899	8.06
230.116	8.08
230.332	8.26
230.549	8.96
230.765	9.65
230.982	9.76
231.199	10.74
231.415	11.41
231.632	12.5
231.848	13.47
232.065	13.59
232.281	14.76
232.498	14.69
232.714	14.17
232.931	14.06
233.147	14.6
233.364	15.25
233.58	14.45
233.797	12.7
234.013	13.12
234.23	10.78
234.446	10.17
234.662	8.85
234.879	8.8
235.095	9.66
235.312	10.22
235.528	8.63
235.744	8.27
235.961	9.11
236.177	9.47
236.393	9.28
236.61	10.35
236.826	11.81
237.042	13.67
237.258	13.46
237.475	15.78
237.691	15.45
237.907	16.12
238.123	16.26
238.339	15.32
238.556	16.73
238.772	15.44
238.988	16.13
239.204	14.25
239.42	12.91
239.636	13.32
239.853	9.86
240.069	8.81
240.285	8.88
240.501	8.38
240.717	8.23
240.933	8.22
241.149	7.82
241.365	6.34
241.581	5.46
241.797	4.74
242.013	4.89
242.229	4.89
242.445	4.76
242.661	4.75
242.877	5.05
243.093	4.57
243.309	3.38
243.525	3.72
243.741	5.37
243.957	6.52
244.173	7.91
244.388	8.32
244.604	8.46
244.82	8.79
245.036	8.44
245.252	7.85
245.468	7.78
245.683	7.9
245.899	7.41
246.115	6.43
246.331	5.92
246.547	5.35
246.762	4.63
246.978	4.94
247.194	4.65
247.409	4.63
247.625	4.36
247.841	4.61
248.057	4.69
248.272	4.49
248.488	4.34
248.703	4.37
248.919	4.66
249.135	4.82
249.35	4.98
249.566	5.7
249.782	5.4
249.997	5.87
250.213	6.24
250.428	6.52
250.644	7.93
250.859	8.27
251.075	7.92
251.29	7.58
251.506	8.16
251.721	7.24
251.937	6.78
252.152	7.3
252.368	7.28
252.583	7.03
252.798	6.95
253.014	6.36
253.229	6.72
253.445	7.15
253.66	8.03
253.875	7.64
254.091	7.76
254.306	8.68
254.521	9.48
254.737	9.92
254.952	9.37
255.167	9.5
255.383	9.35
255.598	8.49
255.813	7.67
256.028	7.1
256.244	6.6
256.459	6.67
256.674	5.4
256.889	4.87
257.104	5.33
257.32	5.24
257.535	4.71
257.75	4.32
257.965	4.25
258.18	4.66
258.395	4.49
258.61	4.53
258.826	4.66
259.041	4.24
259.256	4.13
259.471	3.95
259.686	4.02
259.901	3.88
260.116	4.07
260.331	3.93
260.546	3.74
260.761	3.65
260.976	3.6
261.191	3.52
261.406	4.36
261.621	4.56
261.836	4.5
262.05	4.62
262.265	5.38
262.48	5.19
262.695	5.68
262.91	6.55
263.125	6.54
263.34	7.37
263.555	7.41
263.769	7.32
263.984	6.82
264.199	6.56
264.414	7.14
264.629	6.76
264.843	7.06
265.058	6.95
265.273	6.42
265.488	6.21
265.702	5.71
265.917	5.77
266.132	5.66
266.346	5.98
266.561	5.77
266.776	5.33
266.99	5.47
267.205	5.26
267.42	5.1
267.634	5.43
267.849	5.46
268.063	5.25
268.278	5.03
268.492	4.72
268.707	4.67
268.922	5.38
269.136	5.49
269.351	5.23
269.565	4.88
269.78	5.3
269.994	4.96
270.209	4.86
270.423	5.27
270.637	5.43
270.852	5.26
271.066	4.95
271.281	4.45
271.495	4.18
271.709	4.05
271.924	3.91
272.138	3.68
272.353	3.31
272.567	3.46
272.781	3.36
272.996	3.04
273.21	3.37
273.424	3.25
273.638	3.29
273.853	3.12
274.067	3.38
274.281	4.04
274.495	4.06
274.71	4.14
274.924	3.5
275.138	3.66
275.352	4.22
275.566	3.62
275.781	3.8
275.995	3.83
276.209	4.43
276.423	4.46
276.637	4.24
276.851	4.15
277.065	4.1
277.279	4.26
277.493	3.62
277.707	3.74
277.921	3.81
278.135	4.3
278.349	4.16
278.563	4.27
278.777	4.49
278.991	4.79
279.205	4.94
279.419	4.8
279.633	5.6
279.847	5.91
280.061	5.48
280.275	5.24
280.489	4.85
280.703	5.2
280.917	4.92
281.131	4.5
281.344	3.9
281.558	3.5
281.772	3.9
281.986	3.55
282.2	3.47
282.414	3.44
282.627	3.72
282.841	3.83
283.055	3.71
283.269	3.55
283.482	3.32
283.696	3.6
283.91	3.75
284.123	3.55
284.337	3.56
284.551	3.5
284.764	3.55
284.978	3.55
285.192	3.22
285.405	3.13
285.619	3.06
285.833	3.16
286.046	3.16
286.26	3.03
286.473	3.08
286.687	3.17
286.9	3.27
287.114	3.21
287.327	3.16
287.541	3.24
287.754	3.42
287.968	3.67
288.181	3.87
288.395	3.53
288.608	3.77
288.822	3.87
289.035	3.6
289.248	3.4
289.462	3.62
289.675	3.36
289.889	3.44
290.102	3
290.315	2.78
290.529	2.7
290.742	3.01
290.955	2.89
291.169	2.79
291.382	2.89
291.595	2.82
291.808	2.96
292.022	3.25
292.235	3.42
292.448	3.64
292.661	3.67
292.875	3.91
293.088	3.94
293.301	3.73
293.514	3.86
293.727	3.64
293.94	3.72
294.153	3.5
294.367	3.32
294.58	3.2
294.793	3.14
295.006	3.09
295.219	2.55
295.432	2.38
295.645	2.67
295.858	2.55
296.071	2.56
296.284	2.54
296.497	2.81
296.71	2.97
296.923	3.12
297.136	3.39
297.349	3.62
297.562	3.79
297.775	3.71
297.988	3.69
298.201	3.77
298.414	4.06
298.626	4.3
298.839	4.09
299.052	3.93
299.265	3.9
299.478	3.92
299.691	3.81
299.903	3.97
300.116	4.15
300.329	4.37
300.542	4.1
300.755	3.9
300.967	3.56
301.18	3.62
301.393	4.04
301.605	3.86
301.818	3.34
302.031	3.29
302.243	3.17
302.456	3.33
302.669	3.02
302.881	3.23
303.094	3.16
303.307	3.44
303.519	3.19
303.732	3
303.944	3.34
304.157	3.84
304.37	3.87
304.582	4.09
304.795	4.08
305.007	4.4
305.22	4.64
305.432	4.57
305.645	4.76
305.857	5.07
306.069	5.24
306.282	5.02
306.494	5.04
306.707	5.26
306.919	5.06
307.132	4.86
307.344	4.86
307.556	4.59
307.769	5.17
307.981	4.89
308.193	4.4
308.406	4.19
308.618	4.32
308.83	3.95
309.043	3.56
309.255	3.66
309.467	3.39
309.679	3.16
309.892	3.15
310.104	2.8
310.316	3.06
310.528	3.09
310.74	3.21
310.953	3.23
311.165	3.49
311.377	3.69
311.589	3.67
311.801	4.02
312.013	4.21
312.225	4.71
312.437	5.07
312.649	4.86
312.862	5.2
313.074	5.25
313.286	5.22
313.498	5.13
313.71	5.35
313.922	5.28
314.134	5.01
314.346	5.05
314.558	4.85
314.77	4.77
314.982	4.79
315.193	4.56
315.405	4.24
315.617	4.04
315.829	4
316.041	3.87
316.253	3.69
316.465	4.22
316.677	4.22
316.888	4.2
317.1	4.24
317.312	4.52
317.524	4.59
317.736	4.77
317.947	5.17
318.159	5.6
318.371	5.51
318.583	5.88
318.794	6.05
319.006	6.4
319.218	6.27
319.43	6.04
319.641	5.84
319.853	6.31
320.064	6.88
320.276	7.57
320.488	7.16
320.699	7.18
320.911	7.37
321.123	7.46
321.334	7.38
321.546	7.56
321.757	8.18
321.969	8.51
322.18	8.4
322.392	8.12
322.603	7.65
322.815	8.16
323.026	8.14
323.238	8.06
323.449	8.16
323.661	8.44
323.872	8.46
324.083	8.32
324.295	8.48
324.506	8.68
324.718	8.67
324.929	8.47
325.14	8.58
325.352	8.96
325.563	9.26
325.774	9.61
325.986	9.47
326.197	9.88
326.408	9.94
326.62	10.16
326.831	10.43
327.042	11.25
327.253	11.6
327.464	11.63
327.676	12.07
327.887	12.36
328.098	12.6
328.309	13.08
328.52	13.5
328.732	14.04
328.943	14.69
329.154	14.81
329.365	14.81
329.576	15.67
329.787	16.55
329.998	16.96
330.209	17.24
330.42	17.43
330.631	17.77
330.842	17.8
331.053	18.18
331.264	18.15
331.475	18.38
331.686	18.59
331.897	18.79
332.108	18.43
332.319	18.34
332.53	18.49
332.741	18.61
332.952	18.75
333.163	18.91
333.374	19
333.585	19.23
333.795	19.75
334.006	19.97
334.217	20.1
334.428	20.82
334.639	21.29
334.849	21.6
335.06	21.9
335.271	22.05
335.482	22.39
335.692	22.68
335.903	22.78
336.114	22.85
336.325	23.14
336.535	23.13
336.746	23.1
336.957	22.94
337.167	23.17
337.378	23.34
337.589	23.54
337.799	23.44
338.01	23.5
338.22	23.62
338.431	23.45
338.642	23.49
338.852	23.73
339.063	23.89
339.273	23.98
339.484	23.94
339.694	23.99
339.905	23.97
340.115	24.27
340.326	24.05
340.536	24.05
340.746	24.48
340.957	24.55
341.167	24.51
341.378	24.44
341.588	24.54
341.799	24.78
342.009	24.5
342.219	24.65
342.43	24.35
342.64	24.58
342.85	24.73
343.061	24.61
343.271	24.35
343.481	24.46
343.691	24.47
343.902	24.35
344.112	24.11
344.322	24.24
344.532	24.07
344.743	24.15
344.953	24.01
345.163	23.9
345.373	23.88
345.583	24.07
345.793	23.86
346.004	23.73
346.214	23.95
346.424	23.99
346.634	23.85
346.844	24.03
347.054	23.99
347.264	24.01
347.474	23.96
347.684	23.89
347.894	23.63
348.104	23.78
348.314	23.99
348.524	23.72
348.734	23.6
348.944	23.73
349.154	23.43
349.364	23.5
349.574	23.43
349.784	23.39
349.994	23.48
350.204	23.54
350.413	23.24
350.623	23.04
350.833	23.32
351.043	23.64
351.253	23.5
351.463	23.49
351.672	23.46
351.882	23.25
352.092	23.06
352.302	22.96
352.511	23
352.721	23.09
352.931	22.89
353.141	22.81
353.35	22.62
353.56	22.65
353.77	22.63
353.979	22.47
354.189	22.77
354.399	23.08
354.608	23.05
354.818	22.98
355.027	23.06
355.237	23.32
355.447	23.34
355.656	22.95
355.866	22.99
356.075	22.9
356.285	23
356.494	22.86
356.704	22.65
356.913	22.52
357.123	22.62
357.332	22.39
357.542	22.16
357.751	22.08
357.96	22.45
358.17	22.55
358.379	22.64
358.589	22.61
358.798	22.5
359.007	22.45
359.217	22.48
359.426	22.19
359.635	22.26
359.845	22.23
360.054	22.22
360.263	21.94
360.472	21.68
360.682	21.48
360.891	21.47
361.1	21.59
361.309	21.76
361.519	21.57
361.728	21.68
361.937	21.62
362.146	21.52
362.355	21.41
362.564	21.49
362.774	21.64
362.983	21.66
363.192	21.56
363.401	21.37
363.61	21.15
363.819	21.28
364.028	21.21
364.237	21.15
364.446	21.27
364.655	21.23
364.864	21.28
365.073	21.12
365.282	21.28
365.491	21.5
365.7	21.65
365.909	21.83
366.118	21.85
366.327	21.93
366.536	22.03
366.745	21.97
366.954	21.97
367.162	22.01
367.371	21.97
367.58	22.17
367.789	21.99
367.998	22.06
368.207	21.98
368.415	22.03
368.624	22
368.833	21.9
369.042	21.92
369.25	22.14
369.459	21.94
369.668	21.95
369.877	21.56
370.085	21.46
370.294	21.37
370.503	21.39
370.711	21.38
370.92	21.21
371.129	21.42
371.337	21.46
371.546	21.33
371.754	21.33
371.963	21.46
372.171	21.45
372.38	21.54
372.589	21.57
372.797	21.41
373.006	21.31
373.214	21.43
373.423	21.44
373.631	21.42
373.84	21.34
374.048	21.46
374.256	21.47
374.465	21.52
374.673	21.61
374.882	21.59
375.09	21.83
375.298	21.86
375.507	21.89
375.715	21.59
375.923	21.61
376.132	21.52
376.34	21.41
376.548	21.38
376.757	21.36
376.965	21.37
377.173	21.11
377.381	21
377.59	21
377.798	21.26
378.006	21.28
378.214	21.35
378.423	21.47
378.631	21.31
378.839	21.32
379.047	21.28
379.255	21.2
379.463	21.26
379.671	21.15
379.879	21.15
380.088	20.78
380.296	20.92
380.504	20.82
380.712	21.06
380.92	21.12
381.128	21.01
381.336	20.98
381.544	21.04
381.752	21.21
381.96	21.45
382.168	21.5
382.376	21.45
382.584	21.55
382.791	21.57
382.999	21.31
383.207	21.59
383.415	21.56
383.623	21.77
383.831	21.51
384.039	21.65
384.247	21.44
384.454	21.35
384.662	21.44
384.87	21.23
385.078	21.13
385.285	21.11
385.493	20.97
385.701	20.89
385.909	20.75
386.116	20.95
386.324	20.78
386.532	20.63
386.739	20.71
386.947	20.71
387.155	20.51
387.362	20.57
387.57	20.47
387.778	20.38
387.985	20.58
388.193	20.63
388.4	20.61
388.608	20.56
388.816	20.63
389.023	20.54
389.231	20.66
389.438	20.72
389.646	20.54
389.853	20.52
390.061	20.49
390.268	20.46
390.475	20.4
390.683	20.29
390.89	20.34
391.098	20.4
391.305	20.41
391.512	20.35
391.72	20.58
391.927	20.68
392.135	20.66
392.342	20.65
392.549	20.49
392.756	20.41
392.964	20.41
393.171	20.35
393.378	20.33
393.586	20.4
393.793	20.37
394	20.38
394.207	20.51
394.414	20.65
394.622	20.59
394.829	20.78
395.036	20.86
395.243	20.95
395.45	20.95
395.657	20.96
395.864	20.95
396.072	20.92
396.279	20.76
396.486	20.61
396.693	20.46
396.9	20.63
397.107	20.55
397.314	20.65
397.521	20.45
397.728	20.65
397.935	20.53
398.142	20.55
398.349	20.72
398.556	20.56
398.763	20.75
398.97	20.86
399.177	20.92
399.383	20.99
399.59	20.97
399.797	21.17
400.004	21.1
400.211	21.13
400.418	21.16
400.625	20.91
400.831	21.21
401.038	21.05
401.245	21.18
401.452	21.08
401.658	21
401.865	21.11
402.072	21.09
402.279	21.12
402.485	21.14
402.692	21.27
402.899	21.54
403.105	21.54
403.312	21.54
403.519	21.48
403.725	21.45
403.932	21.47
404.138	21.34
404.345	21.2
404.552	21.2
404.758	21.28
404.965	21.02
405.171	20.79
405.378	20.65
405.584	20.72
405.791	20.48
405.997	20.54
406.204	20.55
406.41	20.51
406.617	20.68
406.823	20.56
407.029	20.63
407.236	20.75
407.442	20.85
407.649	21.15
407.855	21.17
408.061	21.5
408.268	21.52
408.474	21.32
408.68	21.46
408.887	21.6
409.093	21.64
409.299	21.59
409.505	21.56
409.712	21.52
409.918	21.41
410.124	21.44
410.33	21.42
410.537	21.17
410.743	21.46
410.949	21.29
411.155	21.19
411.361	21.15
411.567	21.09
411.773	21.14
411.98	21.18
412.186	21.15
412.392	21.21
412.598	20.92
412.804	21.27
413.01	21.2
413.216	21.4
413.422	21.32
413.628	21.45
413.834	21.52
414.04	21.42
414.246	21.43
414.452	21.34
414.658	21.18
414.864	21.3
415.07	21.22
415.275	21.32
415.481	21.44
415.687	21.4
415.893	21.41
416.099	21.45
416.305	21.39
416.511	21.43
416.716	21.39
416.922	21.42
417.128	21.41
417.334	21.38
417.539	21.25
417.745	21.11
417.951	21.12
418.157	21.02
418.362	21
418.568	21.11
418.774	21.13
418.979	21.15
419.185	21.16
419.391	21.08
419.596	20.98
419.802	20.92
420.008	20.88
420.213	21.44
420.419	21.48
420.624	21.44
420.83	21.37
421.035	21.35
421.241	21.29
421.446	21.26
421.652	21.36
421.857	21.43
422.063	21.56
422.268	21.61
422.474	21.08
422.679	21.01
422.885	20.99
423.09	20.99
423.295	20.93
423.501	20.97
423.706	21.09
423.911	21.06
424.117	21.03
424.322	20.98
424.527	21.01
424.733	21.02
424.938	21.12
425.143	21.12
425.349	21.16
425.554	21.19
425.759	21.25
425.964	21.17
426.169	21.28
426.375	21.34
426.58	21.4
426.785	21.45
426.99	21.58
427.195	21.57
427.4	21.66
427.605	21.58
427.811	21.52
428.016	21.59
428.221	21.6
428.426	21.65
428.631	21.59
428.836	21.6
429.041	21.58
429.246	21.55
429.451	21.51
429.656	21.44
429.861	21.57
430.066	21.74
430.271	21.73
430.476	21.72
430.681	21.54
430.886	21.59
431.09	21.63
431.295	21.59
431.5	21.54
431.705	21.6
431.91	21.68
432.115	21.74
432.32	21.7
432.524	21.61
432.729	21.6
432.934	21.67
433.139	21.7
433.343	21.57
433.548	21.67
433.753	21.73
433.958	21.77
434.162	21.78
434.367	21.83
434.572	21.75
434.776	21.91
434.981	22
435.186	22.09
435.39	22.24
435.595	22.36
435.799	22.24
436.004	22.17
436.209	22.16
436.413	22.14
436.618	22.06
436.822	22.16
437.027	22.22
437.231	22.16
437.436	22.16
437.64	22.03
437.845	22.05
438.049	22.06
438.253	22.14
438.458	22.23
438.662	22.21
438.867	22.17
439.071	22.13
439.275	22
439.48	22.02
439.684	21.96
439.888	21.91
440.093	21.88
440.297	21.86
440.501	21.87
440.706	21.75
440.91	21.77
441.114	21.84
441.318	21.84
441.523	21.83
441.727	21.79
441.931	21.85
442.135	21.97
442.339	22
442.543	22.05
442.748	22.04
442.952	22.18
443.156	22.25
443.36	22.3
443.564	22.36
443.768	22.42
443.972	22.49
444.176	22.5
444.38	22.4
444.584	22.37
444.788	22.29
444.992	22.3
445.196	22.27
445.4	22.21
445.604	22.09
445.808	22.08
446.012	22.09
446.216	22.04
446.42	22.03
446.624	22.08
446.828	22.09
447.032	22.17
447.235	22.2
447.439	22.11
447.643	22.15
447.847	22.19
448.051	22.28
448.254	22.35
448.458	22.46
448.662	22.48
448.866	22.47
449.069	22.54
449.273	22.55
449.477	22.5
449.681	22.68
449.884	22.72
450.088	22.72
450.292	22.7
450.495	22.58
450.699	22.54
450.902	22.6
451.106	22.64
451.31	22.63
451.513	22.69
451.717	22.77
451.92	22.72
452.124	22.61
452.327	22.65
452.531	22.67
452.734	22.7
452.938	22.69
453.141	22.62
453.345	22.61
453.548	22.61
453.752	22.54
453.955	22.49
454.158	22.47
454.362	22.48
454.565	22.5
454.769	22.46
454.972	22.58
455.175	22.58
455.379	22.65
455.582	22.74
455.785	22.82
455.988	22.87
456.192	22.9
456.395	22.83
456.598	22.9
456.801	22.9
457.005	22.89
457.208	22.88
457.411	22.84
457.614	22.78
457.817	22.68
458.021	22.55
458.224	22.52
458.427	22.45
458.63	22.49
458.833	22.48
459.036	22.46
459.239	22.5
459.442	22.37
459.645	22.4
