Data from 2938739__Reflection_01.txt Node
Date: Sun Mar 15 12:38:02 EDT 2015
User: robert
Spectrometer: USB4E03002
Autoset integration time: false
Trigger mode: 4
Integration Time (sec): 1.000000E-1
Scans to average: 10
Electric dark correction enabled: false
Nonlinearity correction enabled: false
Boxcar width: 5
Stray light correction enabled: false
XAxis mode: Wavelengths
Stop averaging: false
Number of Pixels in Spectrum: 3648
>>>>>Begin Spectral Data<<<<<
177.575	-118.06
177.794	-279.14
178.014	-538.75
178.233	-1033.33
178.452	977.46
178.672	436.17
178.891	274.92
179.11	185
179.33	165.63
179.549	145.22
179.768	133.57
179.987	121.32
180.207	141.02
180.426	168.54
180.645	159.69
180.864	153.85
181.084	168.31
181.303	157.8
181.522	152.98
181.741	125.47
181.96	163.38
182.179	178.92
182.398	189.78
182.618	198.31
182.837	188.81
183.056	184.68
183.275	163.24
183.494	156.54
183.713	142.65
183.932	134.3
184.151	146.46
184.37	135.7
184.589	132.62
184.808	132.09
185.027	127.8
185.246	105.11
185.465	105.32
185.684	104.35
185.903	112.1
186.122	123.94
186.341	143.9
186.56	141.53
186.779	140.44
186.998	129.87
187.216	141.3
187.435	121.79
187.654	126.47
187.873	145.07
188.092	171.87
188.311	152.24
188.53	146.98
188.748	130.37
188.967	125.16
189.186	131.6
189.405	128.37
189.623	119.07
189.842	132.7
190.061	122.18
190.28	113.68
190.498	115.59
190.717	117.96
190.936	112.35
191.154	110.35
191.373	111.29
191.592	103.18
191.81	102.29
192.029	99.17
192.248	95.4
192.466	109.61
192.685	103.17
192.904	93.07
193.122	91.51
193.341	103.95
193.559	123.63
193.778	124.55
193.996	119.85
194.215	126.24
194.433	116.98
194.652	115.44
194.87	109.21
195.089	110.67
195.307	110.15
195.526	117.11
195.744	101.47
195.963	100.63
196.181	101.68
196.399	107.79
196.618	104.78
196.836	105.45
197.055	103.24
197.273	106.82
197.491	114.02
197.71	118.4
197.928	125.55
198.146	136.75
198.365	115.79
198.583	113.79
198.801	93.95
199.019	106.45
199.238	112.97
199.456	122.66
199.674	104.32
199.892	101.36
200.111	106.75
200.329	95.32
200.547	95.13
200.765	100.31
200.983	101.23
201.202	114.49
201.42	114.97
201.638	99.44
201.856	102.11
202.074	114.62
202.292	111.37
202.51	109.11
202.728	106.99
202.946	118
203.165	119.24
203.383	113.97
203.601	98.03
203.819	88.87
204.037	99.93
204.255	86.24
204.473	89.97
204.691	95.74
204.909	88.14
205.127	90.47
205.345	88
205.562	85.79
205.78	93.32
205.998	102.09
206.216	98.75
206.434	103.78
206.652	113.12
206.87	102.8
207.088	95.64
207.306	104.66
207.523	101.25
207.741	93.23
207.959	88.45
208.177	86.59
208.395	90.94
208.612	101.3
208.83	102.89
209.048	102.14
209.266	112.87
209.483	123.86
209.701	117.33
209.919	134.47
210.136	135.2
210.354	132.18
210.572	137.94
210.79	123.12
211.007	119.88
211.225	118.19
211.442	108.58
211.66	92.2
211.878	93.02
212.095	85.93
212.313	81.17
212.53	75.9
212.748	79.69
212.966	70.26
213.183	69.87
213.401	67.43
213.618	62.91
213.836	67.61
214.053	75.54
214.271	75.19
214.488	74.84
214.705	69.39
214.923	70.71
215.14	74.49
215.358	71.34
215.575	78.3
215.793	78.56
216.01	78.92
216.227	82.18
216.445	76.45
216.662	75.5
216.879	79.85
217.097	78.24
217.314	82.15
217.531	78.77
217.749	78.09
217.966	79.9
218.183	80.19
218.4	81.17
218.618	75.78
218.835	73
219.052	66.81
219.269	63.43
219.487	68.25
219.704	68.4
219.921	70.31
220.138	75.86
220.355	68.87
220.572	71.87
220.79	67.86
221.007	73.25
221.224	73.7
221.441	70.55
221.658	68.75
221.875	65.87
222.092	62.33
222.309	55.66
222.526	52.17
222.743	44.22
222.96	36.06
223.177	36.68
223.394	32.05
223.611	32.09
223.828	35.27
224.045	32.49
224.262	33.08
224.479	33.76
224.696	31.76
224.913	29.94
225.13	31.31
225.347	34.55
225.564	35.65
225.781	33.29
225.997	33.09
226.214	29.08
226.431	28
226.648	24.63
226.865	20.91
227.082	20.19
227.298	16.04
227.515	15.06
227.732	12.37
227.949	10.35
228.165	9.96
228.382	8.31
228.599	8.32
228.816	8.66
229.032	9.12
229.249	8.31
229.466	7.38
229.682	8.81
229.899	9.39
230.116	9.3
230.332	8.89
230.549	9.15
230.765	10.11
230.982	9.49
231.199	8.34
231.415	8.01
231.632	9.32
231.848	9.68
232.065	8.55
232.281	7.05
232.498	7.21
232.714	9.6
232.931	10.42
233.147	9.54
233.364	8.95
233.58	10.33
233.797	10.67
234.013	10.34
234.23	11.57
234.446	11.25
234.662	11.64
234.879	11.53
235.095	10.39
235.312	9.58
235.528	9.59
235.744	10.52
235.961	11.54
236.177	10.84
236.393	11.05
236.61	9.4
236.826	9.1
237.042	9.73
237.258	10.08
237.475	10.07
237.691	10.18
237.907	10.12
238.123	10.72
238.339	8.53
238.556	8.28
238.772	8.55
238.988	10.28
239.204	11.64
239.42	12.22
239.636	12.02
239.853	11.95
240.069	11.46
240.285	10.57
240.501	10.29
240.717	10.21
240.933	9.79
241.149	10.16
241.365	9.08
241.581	8.28
241.797	6.97
242.013	6.95
242.229	6.53
242.445	6.23
242.661	6.17
242.877	6.56
243.093	6.05
243.309	6.15
243.525	5.85
243.741	6.4
243.957	6.99
244.173	7.66
244.388	7.24
244.604	7.38
244.82	8.13
245.036	8.25
245.252	7.06
245.468	7.66
245.683	7.57
245.899	6.64
246.115	6.32
246.331	5.96
246.547	5.96
246.762	5.92
246.978	5.84
247.194	5.35
247.409	5.35
247.625	5.59
247.841	5.5
248.057	5.47
248.272	5.43
248.488	5.33
248.703	5.6
248.919	5.44
249.135	5.39
249.35	5.4
249.566	5.84
249.782	6.38
249.997	6.17
250.213	6.15
250.428	5.78
250.644	6.71
250.859	7.42
251.075	6.67
251.29	6.26
251.506	6.62
251.721	6.96
251.937	7
252.152	6.53
252.368	6.77
252.583	6.78
252.798	7.04
253.014	6.64
253.229	5.98
253.445	6.28
253.66	7.1
253.875	8.03
254.091	7.8
254.306	7.93
254.521	8.12
254.737	8.1
254.952	8.74
255.167	8.74
255.383	9.12
255.598	9.01
255.813	8.95
256.028	8.78
256.244	7.53
256.459	7.94
256.674	7.82
256.889	7.06
257.104	6.85
257.32	5.81
257.535	5.58
257.75	4.83
257.965	4.84
258.18	4.79
258.395	4.52
258.61	4.72
258.826	4.48
259.041	4.38
259.256	4.69
259.471	4.57
259.686	4.47
259.901	4.19
260.116	4.46
260.331	4.6
260.546	4.63
260.761	4.83
260.976	4.81
261.191	4.7
261.406	4.4
261.621	4.14
261.836	3.97
262.05	4.28
262.265	4.87
262.48	5.13
262.695	4.91
262.91	4.65
263.125	4.56
263.34	4.18
263.555	5.11
263.769	6.12
263.984	6.9
264.199	7.47
264.414	7.81
264.629	8.13
264.843	7.49
265.058	7.5
265.273	7.53
265.488	7
265.702	7.06
265.917	5.72
266.132	5.05
266.346	4.36
266.561	4.52
266.776	4.44
266.99	4.52
267.205	5.11
267.42	5.2
267.634	5.28
267.849	5.52
268.063	5.76
268.278	6.47
268.492	6.43
268.707	6.7
268.922	6.51
269.136	6.47
269.351	6.35
269.565	5.97
269.78	5.38
269.994	5.51
270.209	5.64
270.423	5.25
270.637	4.77
270.852	5.25
271.066	5.05
271.281	4.81
271.495	4.95
271.709	4.87
271.924	4.51
272.138	4.66
272.353	4.31
272.567	4.39
272.781	4.41
272.996	4.26
273.21	4.26
273.424	4.4
273.638	4.15
273.853	3.97
274.067	3.69
274.281	4.2
274.495	4.93
274.71	5.16
274.924	4.79
275.138	5.12
275.352	5.22
275.566	4.97
275.781	4.91
275.995	5.19
276.209	4.98
276.423	4.99
276.637	4.34
276.851	4.3
277.065	4.09
277.279	4.56
277.493	4.22
277.707	4.52
277.921	4.38
278.135	4.67
278.349	4.79
278.563	5.06
278.777	4.94
278.991	5.46
279.205	5.44
279.419	5.71
279.633	5.74
279.847	5.8
280.061	5.74
280.275	5.81
280.489	6.08
280.703	6
280.917	5.56
281.131	5.47
281.344	5.42
281.558	5.01
281.772	5.09
281.986	4.84
282.2	4.52
282.414	4.3
282.627	4.08
282.841	3.3
283.055	3.32
283.269	3.7
283.482	3.56
283.696	3.43
283.91	3.41
284.123	2.9
284.337	2.63
284.551	2.86
284.764	3.07
284.978	3.32
285.192	3.18
285.405	3.26
285.619	3.13
285.833	3.61
286.046	3.56
286.26	3.59
286.473	3.84
286.687	3.95
286.9	4.04
287.114	3.89
287.327	3.78
287.541	4.32
287.754	4.59
287.968	4.51
288.181	4.41
288.395	4.56
288.608	4.65
288.822	4.56
289.035	4.54
289.248	4.36
289.462	4.79
289.675	4.69
289.889	4.6
290.102	4.67
290.315	4.97
290.529	4.99
290.742	4.87
290.955	4.82
291.169	4.7
291.382	4.75
291.595	4.73
291.808	4.69
292.022	4.76
292.235	4.45
292.448	3.8
292.661	3.69
292.875	3.71
293.088	4.02
293.301	3.98
293.514	4.16
293.727	4.47
293.94	4.48
294.153	4.33
294.367	4.24
294.58	4.68
294.793	5.36
295.006	5.22
295.219	4.96
295.432	4.74
295.645	4.85
295.858	4.97
296.071	4.86
296.284	5.04
296.497	4.96
296.71	4.96
296.923	4.92
297.136	4.94
297.349	4.79
297.562	4.99
297.775	5.2
297.988	5.16
298.201	5.33
298.414	5.17
298.626	5.18
298.839	5.36
299.052	5.45
299.265	5.39
299.478	4.98
299.691	5.01
299.903	4.65
300.116	4.54
300.329	4.68
300.542	4.52
300.755	5.05
300.967	5.42
301.18	5.7
301.393	6.06
301.605	5.89
301.818	5.92
302.031	6.23
302.243	6.46
302.456	6.73
302.669	6.79
302.881	6.82
303.094	6.64
303.307	6.57
303.519	6.69
303.732	6.5
303.944	6.74
304.157	6.76
304.37	6.83
304.582	7.13
304.795	6.89
305.007	7.12
305.22	7.4
305.432	7.34
305.645	7.27
305.857	6.7
306.069	7.1
306.282	7.06
306.494	7.24
306.707	6.84
306.919	6.59
307.132	6.73
307.344	6.47
307.556	6.44
307.769	6.45
307.981	6.29
308.193	6.33
308.406	6.01
308.618	6.05
308.83	6.03
309.043	6.28
309.255	6.1
309.467	6.05
309.679	5.91
309.892	5.94
310.104	5.88
310.316	5.92
310.528	5.94
310.74	5.95
310.953	6.05
311.165	5.79
311.377	6.08
311.589	6.38
311.801	6.47
312.013	6.4
312.225	6.47
312.437	6.58
312.649	6.86
312.862	7.02
313.074	6.75
313.286	7.02
313.498	7.45
313.71	7.15
313.922	7.12
314.134	6.84
314.346	7.11
314.558	7.06
314.77	6.67
314.982	6.68
315.193	6.49
315.405	6.83
315.617	6.82
315.829	6.78
316.041	7.22
316.253	7.28
316.465	7.51
316.677	7.42
316.888	7.15
317.1	7.56
317.312	7.44
317.524	8
317.736	8.25
317.947	8.2
318.159	8.31
318.371	8.12
318.583	7.91
318.794	7.91
319.006	8.24
319.218	8.37
319.43	8.28
319.641	8.66
319.853	8.5
320.064	8.68
320.276	8.56
320.488	8.85
320.699	9.08
320.911	9.43
321.123	9.7
321.334	9.57
321.546	9.54
321.757	9.68
321.969	9.42
322.18	9.39
322.392	8.88
322.603	9.23
322.815	9.08
323.026	8.9
323.238	8.95
323.449	8.81
323.661	8.81
323.872	9.22
324.083	9.53
324.295	9.06
324.506	8.96
324.718	9.07
324.929	8.73
325.14	8.68
325.352	8.64
325.563	8.47
325.774	8.27
325.986	8.13
326.197	7.68
326.408	7.32
326.62	7.69
326.831	8.05
327.042	8.07
327.253	8.13
327.464	8.61
327.676	9.01
327.887	9.01
328.098	9.15
328.309	9.7
328.52	9.75
328.732	9.85
328.943	10.08
329.154	10.17
329.365	10.18
329.576	10.13
329.787	9.63
329.998	9.77
330.209	10.26
330.42	10.62
330.631	10.4
330.842	10.53
331.053	10.99
331.264	10.73
331.475	10.9
331.686	10.87
331.897	11.13
332.108	11.27
332.319	11.15
332.53	11.03
332.741	10.66
332.952	10.68
333.163	10.8
333.374	10.49
333.585	10.39
333.795	10.06
334.006	10.46
334.217	10.4
334.428	10.28
334.639	10.09
334.849	9.75
335.06	9.98
335.271	9.9
335.482	9.65
335.692	9.88
335.903	10.04
336.114	9.9
336.325	9.7
336.535	9.9
336.746	10
336.957	9.82
337.167	10.07
337.378	10.2
337.589	9.94
337.799	10.21
338.01	9.82
338.22	9.77
338.431	10.06
338.642	9.94
338.852	9.81
339.063	9.69
339.273	9.81
339.484	9.97
339.694	9.68
339.905	10.19
340.115	10.02
340.326	10.07
340.536	10.44
340.746	9.89
340.957	9.89
341.167	9.89
341.378	9.92
341.588	9.91
341.799	9.72
342.009	9.76
342.219	9.47
342.43	9.66
342.64	9.79
342.85	9.69
343.061	9.82
343.271	10.09
343.481	9.94
343.691	9.79
343.902	9.96
344.112	9.87
344.322	9.99
344.532	9.81
344.743	9.61
344.953	9.26
345.163	8.91
345.373	8.65
345.583	8.12
345.793	8.15
346.004	8.44
346.214	8.18
346.424	8.24
346.634	8.18
346.844	8.37
347.054	8.23
347.264	8.55
347.474	8.8
347.684	9.28
347.894	9.61
348.104	9.73
348.314	9.52
348.524	9.46
348.734	9.21
348.944	9.19
349.154	9.07
349.364	9.4
349.574	9.19
349.784	9.03
349.994	9.08
350.204	8.9
350.413	8.87
350.623	9.29
350.833	9.42
351.043	9.41
351.253	9.67
351.463	9.32
351.672	9.47
351.882	9.32
352.092	9.06
352.302	8.65
352.511	9.04
352.721	8.61
352.931	7.93
353.141	7.82
353.35	8.12
353.56	7.84
353.77	8
353.979	7.71
354.189	7.94
354.399	8.33
354.608	8.3
354.818	8.01
355.027	8.49
355.237	8.6
355.447	8.75
355.656	8.47
355.866	8.37
356.075	8.41
356.285	8.39
356.494	8.61
356.704	8.77
356.913	8.95
357.123	8.92
357.332	8.76
357.542	8.7
357.751	8.47
357.96	8.91
358.17	8.92
358.379	8.91
358.589	8.93
358.798	8.62
359.007	8.36
359.217	8.49
359.426	8.42
359.635	8.43
359.845	8.47
360.054	8.57
360.263	8.24
360.472	8.04
360.682	8.04
360.891	7.9
361.1	7.85
361.309	7.72
361.519	7.61
361.728	7.62
361.937	7.42
362.146	7.5
362.355	7.51
362.564	7.54
362.774	7.72
362.983	7.78
363.192	7.91
363.401	8.13
363.61	8.08
363.819	8.09
364.028	8.13
364.237	8.24
364.446	8.28
364.655	8.15
364.864	8.14
365.073	8.15
365.282	8.29
365.491	8.34
365.7	8.17
365.909	8.3
366.118	8.45
366.327	8.35
366.536	8.39
366.745	8.43
366.954	8.58
367.162	8.37
367.371	8.5
367.58	8.36
367.789	8.17
367.998	8.27
368.207	8.27
368.415	8.02
368.624	8.16
368.833	8.15
369.042	7.89
369.25	7.83
369.459	7.98
369.668	7.68
369.877	7.66
370.085	7.87
370.294	7.78
370.503	7.76
370.711	7.85
370.92	7.87
371.129	7.6
371.337	7.63
371.546	7.46
371.754	7.56
371.963	7.66
372.171	7.73
372.38	7.48
372.589	7.35
372.797	7.29
373.006	6.91
373.214	6.87
373.423	7.31
373.631	7.45
373.84	7.32
374.048	7.23
374.256	7.25
374.465	7.14
374.673	7.18
374.882	7.35
375.09	7.32
375.298	7.42
375.507	7.06
375.715	6.73
375.923	6.51
376.132	6.66
376.34	6.45
376.548	6.4
376.757	6.41
376.965	6.38
377.173	6.3
377.381	6.47
377.59	6.71
377.798	7.08
378.006	7.05
378.214	6.87
378.423	6.84
378.631	6.88
378.839	6.83
379.047	6.62
379.255	6.57
379.463	6.51
379.671	6.34
379.879	6.21
380.088	6
380.296	6.13
380.504	6.28
380.712	6.15
380.92	6.3
381.128	6.32
381.336	6.36
381.544	6.32
381.752	6.62
381.96	6.64
382.168	6.64
382.376	6.51
382.584	6.47
382.791	6.41
382.999	6.5
383.207	6.47
383.415	6.43
383.623	6.58
383.831	6.68
384.039	6.29
384.247	6.35
384.454	6.35
384.662	6.48
384.87	6.43
385.078	6.38
385.285	6.53
385.493	6.54
385.701	6.68
385.909	6.55
386.116	6.56
386.324	6.63
386.532	6.62
386.739	6.36
386.947	6.35
387.155	6.46
387.362	6.64
387.57	6.38
387.778	6.15
387.985	5.88
388.193	5.88
388.4	5.75
388.608	6.02
388.816	5.83
389.023	6.22
389.231	6.14
389.438	5.98
389.646	6.08
389.853	6.19
390.061	6.13
390.268	6.25
390.475	6.21
390.683	6.27
390.89	5.88
391.098	5.65
391.305	5.36
391.512	5.38
391.72	5.49
391.927	5.56
392.135	5.61
392.342	5.79
392.549	5.97
392.756	6.11
392.964	5.94
393.171	5.99
393.378	6.17
393.586	6.11
393.793	6.19
394	6.13
394.207	5.86
394.414	5.96
394.622	5.82
394.829	5.63
395.036	5.53
395.243	5.47
395.45	5.53
395.657	5.75
395.864	5.89
396.072	5.93
396.279	5.93
396.486	6.03
396.693	5.99
396.9	6.06
397.107	6.09
397.314	6.29
397.521	6.27
397.728	6.18
397.935	6.1
398.142	5.93
398.349	5.75
398.556	5.8
398.763	5.73
398.97	5.64
399.177	5.57
399.383	5.45
399.59	5.3
399.797	5.62
400.004	5.67
400.211	5.52
400.418	5.63
400.625	5.61
400.831	5.45
401.038	5.43
401.245	5.41
401.452	5.44
401.658	5.49
401.865	5.52
402.072	5.65
402.279	5.62
402.485	5.48
402.692	5.58
402.899	5.58
403.105	5.66
403.312	5.72
403.519	5.72
403.725	5.66
403.932	5.67
404.138	5.55
404.345	5.33
404.552	5.41
404.758	5.53
404.965	5.45
405.171	5.65
405.378	5.51
405.584	5.38
405.791	5.3
405.997	5.56
406.204	5.77
406.41	5.81
406.617	5.77
406.823	5.78
407.029	5.66
407.236	5.74
407.442	5.57
407.649	5.61
407.855	5.63
408.061	5.62
408.268	5.47
408.474	5.13
408.68	5.11
408.887	5.13
409.093	5.04
409.299	5.29
409.505	5.21
409.712	5.08
409.918	4.98
410.124	5.01
410.33	5.19
410.537	5.17
410.743	5.31
410.949	5.4
411.155	5.49
411.361	5.49
411.567	5.32
411.773	5.44
411.98	5.59
412.186	5.77
412.392	5.88
412.598	5.83
412.804	5.85
413.01	5.8
413.216	5.76
413.422	5.71
413.628	5.94
413.834	6.15
414.04	6.17
414.246	6.15
414.452	6.33
414.658	6.44
414.864	6.39
415.07	6.2
415.275	6.29
415.481	6.24
415.687	6.11
415.893	5.92
416.099	5.85
416.305	5.76
416.511	5.84
416.716	5.78
416.922	5.61
417.128	5.58
417.334	5.65
417.539	5.49
417.745	5.53
417.951	5.6
418.157	5.59
418.362	5.49
418.568	5.41
418.774	5.35
418.979	5.18
419.185	5.23
419.391	5.14
419.596	5.17
419.802	5.2
420.008	5.12
420.213	5.21
420.419	5.17
420.624	5.3
420.83	5.29
421.035	5.22
421.241	5.33
421.446	5.27
421.652	5.3
421.857	5.28
422.063	5.27
422.268	5.29
422.474	5.22
422.679	5.17
422.885	5.04
423.09	5.14
423.295	5.17
423.501	5.11
423.706	5.17
423.911	5.19
424.117	5.26
424.322	5.31
424.527	5.37
424.733	5.4
424.938	5.49
425.143	5.61
425.349	5.61
425.554	5.74
425.759	5.83
425.964	5.78
426.169	5.83
426.375	5.7
426.58	5.66
426.785	5.68
426.99	5.72
427.195	5.75
427.4	5.63
427.605	5.57
427.811	5.49
428.016	5.49
428.221	5.46
428.426	5.54
428.631	5.6
428.836	5.65
429.041	5.54
429.246	5.43
429.451	5.49
429.656	5.65
429.861	5.65
430.066	5.57
430.271	5.55
430.476	5.65
430.681	5.57
430.886	5.67
431.09	5.74
431.295	5.9
431.5	5.88
431.705	5.89
431.91	5.85
432.115	5.89
432.32	6.09
432.524	6.11
432.729	6.16
432.934	6.08
433.139	6.03
433.343	6.04
433.548	6.02
433.753	6.1
433.958	6.05
434.162	6.04
434.367	5.97
434.572	5.89
434.776	5.72
434.981	5.66
435.186	5.74
435.39	5.74
435.595	5.65
435.799	5.71
436.004	5.7
436.209	5.64
436.413	5.63
436.618	5.84
436.822	5.77
437.027	5.88
437.231	5.95
437.436	5.97
437.64	6.06
437.845	6.13
438.049	5.96
438.253	6.02
438.458	6.07
438.662	6.1
438.867	5.94
439.071	5.92
439.275	6.07
439.48	6.06
439.684	6.12
439.888	6.06
440.093	6.07
440.297	6.14
440.501	6.12
440.706	6.07
440.91	6.08
441.114	6.08
441.318	6.18
441.523	6.15
441.727	6.21
441.931	6.18
442.135	6.22
442.339	6.24
442.543	6.22
442.748	6.25
442.952	6.25
443.156	6.25
443.36	6.38
443.564	6.36
443.768	6.34
443.972	6.33
444.176	6.19
444.38	6.22
444.584	6.17
444.788	6.21
444.992	6.13
445.196	6.15
445.4	6.15
445.604	6.11
445.808	6.13
446.012	6.16
446.216	6.12
446.42	6.1
446.624	6.05
446.828	6.08
447.032	6.13
447.235	6.08
447.439	6.11
447.643	6.06
447.847	6.1
448.051	6.07
448.254	5.92
448.458	5.93
448.662	6.02
448.866	6.07
449.069	5.99
449.273	5.96
449.477	6.05
449.681	6.03
449.884	6.05
450.088	5.96
450.292	6.07
450.495	6.18
450.699	6.04
450.902	6.1
451.106	6.12
451.31	6.1
451.513	6.07
451.717	5.99
451.92	6.12
452.124	6.12
452.327	6.15
452.531	6.07
452.734	6.05
452.938	6.19
453.141	6.14
453.345	6.16
453.548	6.2
453.752	6.31
453.955	6.45
454.158	6.42
454.362	6.47
454.565	6.55
454.769	6.54
454.972	6.66
455.175	6.66
455.379	6.66
455.582	6.67
455.785	6.65
455.988	6.53
456.192	6.43
456.395	6.41
456.598	6.46
456.801	6.53
457.005	6.5
457.208	6.41
457.411	6.37
457.614	6.46
457.817	6.28
458.021	6.27
458.224	6.24
458.427	6.28
458.63	6.27
458.833	6.24
459.036	6.03
459.239	6
459.442	6
459.645	6.07
459.848	6.01
460.051	6.1
460.254	6.15
460.457	6.19
460.66	6.25
460.863	6.23
461.066	6.22
461.269	6.33
461.472	6.34
461.675	6.43
461.878	6.33
462.081	6.39
462.284	6.38
462.486	6.44
462.689	6.39
462.892	6.25
463.095	6.36
463.298	6.34
463.5	6.31
463.703	6.35
463.906	6.24
464.109	6.32
464.311	6.33
464.514	6.33
464.717	6.32
464.92	6.26
465.122	6.25
465.325	6.24
465.528	6.28
465.73	6.28
465.933	6.17
466.135	6.23
466.338	6.21
466.541	6.16
466.743	6.13
466.946	6.1
467.148	6.04
467.351	6.02
467.553	6.01
467.756	5.99
467.958	6.1
468.161	6.31
468.363	6.37
468.566	6.42
468.768	6.46
468.971	6.56
469.173	6.45
469.375	6.56
469.578	6.7
469.78	6.68
469.983	6.76
