Data from 2938805__Reflection_02.txt Node
Date: Thu Mar 12 22:17:20 EDT 2015
User: robert
Spectrometer: USB4E03002
Autoset integration time: false
Trigger mode: 4
Integration Time (sec): 1.000000E-1
Scans to average: 10
Electric dark correction enabled: false
Nonlinearity correction enabled: false
Boxcar width: 5
Stray light correction enabled: false
XAxis mode: Wavelengths
Stop averaging: false
Number of Pixels in Spectrum: 3648
>>>>>Begin Spectral Data<<<<<
177.575	-652.17
177.794	-1806.06
178.014	-746.51
178.233	-1213.64
178.452	-825.64
178.672	-907.09
178.891	12900
179.11	903.73
179.33	804.35
179.549	514.2
179.768	1303.33
179.987	610.55
180.207	1007.79
180.426	1021.34
180.645	682.38
180.864	316.35
181.084	264.86
181.303	267.56
181.522	324.83
181.741	235.82
181.96	318.86
182.179	304.04
182.398	528.76
182.618	794.49
182.837	972.92
183.056	-3612.5
183.275	-205.63
183.494	-279.33
183.713	-301.9
183.932	-317.14
184.151	-214.08
184.37	-333.56
184.589	-506.22
184.808	-431.88
185.027	815.44
185.246	446.09
185.465	352.48
185.684	261.49
185.903	256.11
186.122	324.61
186.341	878.51
186.56	493.61
186.779	277.84
186.998	335.31
187.216	335.09
187.435	705.66
187.654	583.7
187.873	464.21
188.092	505.68
188.311	346.98
188.53	430.4
188.748	323.88
188.967	297.75
189.186	429.32
189.405	415.37
189.623	423.28
189.842	466.15
190.061	744.71
190.28	-3210.87
190.498	-8964.71
190.717	-1919.44
190.936	1455.21
191.154	1179.37
191.373	771.73
191.592	478.14
191.81	516.48
192.029	386.98
192.248	400.68
192.466	299.02
192.685	263.4
192.904	307.14
193.122	471.28
193.341	532.77
193.559	291.29
193.778	5618.18
193.996	-265.06
194.215	-485.53
194.433	-615.45
194.652	-788.24
194.87	-328.24
195.089	-720.26
195.307	-1512.5
195.526	-26033.33
195.744	-1113.64
195.963	-898.84
196.181	-1152.59
196.399	-1726.67
196.618	-570.5
196.836	-331.73
197.055	-464.65
197.273	-3563.41
197.491	1991.94
197.71	625.39
197.928	757.85
198.146	284.94
198.365	212.84
198.583	170.13
198.801	142.6
199.019	110.51
199.238	107.47
199.456	113.74
199.674	131.03
199.892	152.73
200.111	253.25
200.329	243.55
200.547	257.29
200.765	338.93
200.983	639.67
201.202	2202.86
201.42	1125.88
201.638	1286.49
201.856	284.21
202.074	244.02
202.292	268
202.51	220.15
202.728	248.17
202.946	293.02
203.165	250.49
203.383	272.21
203.601	238.03
203.819	283.52
204.037	268.62
204.255	563.28
204.473	843.23
204.691	450.8
204.909	296.36
205.127	253.72
205.345	207.95
205.562	256.08
205.78	206.35
205.998	214.9
206.216	224.14
206.434	231.03
206.652	206.35
206.87	208.7
207.088	218.67
207.306	164.14
207.523	210.05
207.741	208.45
207.959	153.04
208.177	153.14
208.395	123.96
208.612	123.05
208.83	134.13
209.048	116.41
209.266	115.42
209.483	117.5
209.701	167.64
209.919	141.61
210.136	142.48
210.354	164.42
210.572	143.68
210.79	143.09
211.007	111.54
211.225	91.99
211.442	104.37
211.66	107.94
211.878	107.91
212.095	96.17
212.313	106.16
212.53	110.13
212.748	93.41
212.966	99.48
213.183	97.26
213.401	104.27
213.618	116.68
213.836	120.58
214.053	113.29
214.271	110.63
214.488	104.08
214.705	96.97
214.923	104.59
215.14	126.44
215.358	117.59
215.575	142.04
215.793	118.75
216.01	108.84
216.227	97.2
216.445	94.64
216.662	102.63
216.879	119
217.097	119.37
217.314	97.49
217.531	100.23
217.749	110.43
217.966	111.84
218.183	116.99
218.4	107.02
218.618	96.56
218.835	101.9
219.052	94.44
219.269	95.36
219.487	96.58
219.704	102.32
219.921	92.02
220.138	88.62
220.355	77.63
220.572	82.66
220.79	80.74
221.007	85.59
221.224	88.76
221.441	86.64
221.658	77.37
221.875	71.78
222.092	69.57
222.309	70.21
222.526	64.94
222.743	66.53
222.96	61.86
223.177	58.82
223.394	60.18
223.611	55.09
223.828	54.77
224.045	51.81
224.262	48.94
224.479	50.62
224.696	42.86
224.913	42.43
225.13	37.46
225.347	35.78
225.564	31.83
225.781	27.58
225.997	25.88
226.214	20.89
226.431	19.01
226.648	18.12
226.865	14.7
227.082	16.46
227.298	13.26
227.515	12.48
227.732	10.17
227.949	10.63
228.165	9.85
228.382	9.8
228.599	9.98
228.816	10.49
229.032	9.78
229.249	10.7
229.466	10.25
229.682	11.05
229.899	10.89
230.116	11.28
230.332	11.65
230.549	12.06
230.765	13.24
230.982	14.07
231.199	13.84
231.415	14.42
231.632	14.53
231.848	15.51
232.065	16.65
232.281	18.25
232.498	18.09
232.714	16.66
232.931	17.8
233.147	16.46
233.364	16.22
233.58	17.1
233.797	17.02
234.013	15.37
234.23	13.93
234.446	14.32
234.662	15.17
234.879	16.74
235.095	17.38
235.312	17.7
235.528	18.37
235.744	17.56
235.961	16.22
236.177	15.6
236.393	16.28
236.61	16.43
236.826	15.63
237.042	15.94
237.258	14.4
237.475	15.68
237.691	16.02
237.907	15.38
238.123	16.28
238.339	16.53
238.556	18.14
238.772	17.88
238.988	19.61
239.204	18.49
239.42	17.88
239.636	18.7
239.853	16.95
240.069	15.07
240.285	14.9
240.501	14.24
240.717	13.62
240.933	12.34
241.149	12.5
241.365	11.44
241.581	10.76
241.797	10.52
242.013	10.08
242.229	10.04
242.445	9.97
242.661	9.68
242.877	9.53
243.093	9.92
243.309	10.1
243.525	9.71
243.741	9.83
243.957	10.53
244.173	10.18
244.388	10.26
244.604	10.76
244.82	11.1
245.036	11.35
245.252	10.81
245.468	10.05
245.683	9.48
245.899	9.28
246.115	8.86
246.331	8.37
246.547	8.22
246.762	8.22
246.978	7.72
247.194	7.38
247.409	7.1
247.625	7.22
247.841	7.29
248.057	7.51
248.272	7.51
248.488	7.63
248.703	7.86
248.919	7.58
249.135	7.43
249.35	7.94
249.566	8.47
249.782	8.4
249.997	8.33
250.213	8.28
250.428	7.64
250.644	7.97
250.859	8.36
251.075	8.35
251.29	8.82
251.506	8.79
251.721	9.21
251.937	9.15
252.152	9.61
252.368	9.49
252.583	10.17
252.798	10.28
253.014	9.76
253.229	9.51
253.445	9.76
253.66	9.77
253.875	9.57
254.091	9.15
254.306	9.59
254.521	9.07
254.737	9.56
254.952	8.38
255.167	9.42
255.383	10.74
255.598	11.16
255.813	10.61
256.028	11.1
256.244	11.83
256.459	12.26
256.674	11.88
256.889	11.13
257.104	11.23
257.32	11.29
257.535	10.61
257.75	9.12
257.965	8.17
258.18	7.81
258.395	7.52
258.61	6.61
258.826	5.92
259.041	5.75
259.256	5.85
259.471	5.24
259.686	5.1
259.901	4.95
260.116	5.28
260.331	5.64
260.546	5.55
260.761	5.46
260.976	5.86
261.191	5.93
261.406	5.81
261.621	5.99
261.836	6.08
262.05	5.86
262.265	5.93
262.48	5.96
262.695	5.41
262.91	5.77
263.125	5.9
263.34	5.63
263.555	5.92
263.769	5.96
263.984	6.32
264.199	6.73
264.414	7.41
264.629	7.52
264.843	7.71
265.058	7.96
265.273	8.03
265.488	8.18
265.702	7.96
265.917	7.74
266.132	7.61
266.346	7.37
266.561	7.34
266.776	7.52
266.99	7.66
267.205	7.44
267.42	7.69
267.634	7.38
267.849	7.15
268.063	7.09
268.278	7.23
268.492	7.59
268.707	7.46
268.922	7.68
269.136	7.36
269.351	7.2
269.565	6.94
269.78	6.41
269.994	6.9
270.209	7.24
270.423	7.48
270.637	7.25
270.852	7.02
271.066	6.76
271.281	6.36
271.495	6.4
271.709	6.46
271.924	6.63
272.138	6.75
272.353	6.34
272.567	6.1
272.781	5.65
272.996	5.87
273.21	5.57
273.424	5.7
273.638	6.06
273.853	5.87
274.067	5.35
274.281	5.51
274.495	5.25
274.71	5.33
274.924	5.45
275.138	5.71
275.352	5.62
275.566	5.4
275.781	5.25
275.995	5.31
276.209	5.54
276.423	6.2
276.637	5.85
276.851	6
277.065	5.79
277.279	5.8
277.493	5.85
277.707	5.88
277.921	6.32
278.135	6.62
278.349	6.67
278.563	6.98
278.777	7.16
278.991	6.69
279.205	7
279.419	7.11
279.633	7.08
279.847	7.11
280.061	7.07
280.275	7.14
280.489	7.31
280.703	7.43
280.917	6.76
281.131	6.53
281.344	7.14
281.558	6.74
281.772	6.91
281.986	6.65
282.2	6.65
282.414	6.66
282.627	6.51
282.841	6.24
283.055	5.56
283.269	5.79
283.482	5.51
283.696	5.33
283.91	5.46
284.123	5.22
284.337	5.18
284.551	5.34
284.764	5.05
284.978	4.84
285.192	4.63
285.405	4.93
285.619	4.66
285.833	4.8
286.046	4.75
286.26	4.58
286.473	4.69
286.687	4.8
286.9	4.55
287.114	4.75
287.327	5.12
287.541	5.36
287.754	5.34
287.968	5.78
288.181	6.01
288.395	5.96
288.608	6.12
288.822	6.08
289.035	5.8
289.248	5.94
289.462	5.77
289.675	5.93
289.889	5.81
290.102	5.64
290.315	5.51
290.529	5.23
290.742	5.35
290.955	5.34
291.169	5.4
291.382	5.69
291.595	5.74
291.808	6.05
292.022	5.62
292.235	5.99
292.448	6.35
292.661	6.38
292.875	6.66
293.088	6.64
293.301	6.66
293.514	6.56
293.727	6.28
293.94	6.02
294.153	5.79
294.367	5.86
294.58	5.74
294.793	5.7
295.006	5.68
295.219	5.49
295.432	5.67
295.645	5.7
295.858	5.69
296.071	5.88
296.284	5.81
296.497	5.77
296.71	5.71
296.923	5.41
297.136	5.34
297.349	5.36
297.562	5.48
297.775	5.24
297.988	5.46
298.201	5.47
298.414	5.46
298.626	5.8
298.839	5.93
299.052	5.97
299.265	6.5
299.478	6.38
299.691	6.47
299.903	6.34
300.116	6.59
300.329	6.39
300.542	6.63
300.755	6.61
300.967	6.37
301.18	6.51
301.393	6.78
301.605	6.27
301.818	6.41
302.031	6.66
302.243	6.95
302.456	7.34
302.669	7.23
302.881	7.37
303.094	7.52
303.307	7.62
303.519	7.37
303.732	7.2
303.944	7.27
304.157	7.17
304.37	7.07
304.582	7.1
304.795	6.72
305.007	7.1
305.22	6.62
305.432	6.44
305.645	6.65
305.857	6.79
306.069	7.21
306.282	7.52
306.494	7.6
306.707	7.55
306.919	7.71
307.132	7.27
307.344	6.84
307.556	7.4
307.769	7.45
307.981	7.32
308.193	7.45
308.406	7.34
308.618	7.28
308.83	7.46
309.043	7.52
309.255	7.37
309.467	7.75
309.679	8.22
309.892	8.11
310.104	8.15
310.316	8.3
310.528	8.24
310.74	8.08
310.953	8.25
311.165	8.06
311.377	8.12
311.589	8.09
311.801	7.84
312.013	7.63
312.225	7.63
312.437	7.83
312.649	7.6
312.862	7.65
313.074	8.02
313.286	7.82
313.498	8.15
313.71	8.05
313.922	7.99
314.134	8.3
314.346	8.1
314.558	8.15
314.77	8.18
314.982	8.06
315.193	8.06
315.405	7.87
315.617	8.11
315.829	8.12
316.041	8.46
316.253	8.92
316.465	9.13
316.677	9.63
316.888	9.74
317.1	9.61
317.312	9.5
317.524	9.93
317.736	9.97
317.947	10.4
318.159	10.46
318.371	10.21
318.583	9.79
318.794	10.12
319.006	10.1
319.218	10.23
319.43	10.59
319.641	11.47
319.853	11.26
320.064	11.45
320.276	11.28
320.488	11.17
320.699	11.59
320.911	12.08
321.123	11.73
321.334	11.98
321.546	12
321.757	11.6
321.969	11.37
322.18	11.48
322.392	11.56
322.603	11.2
322.815	11.35
323.026	10.82
323.238	10.91
323.449	11.04
323.661	10.59
323.872	10.53
324.083	10.5
324.295	10.05
324.506	9.53
324.718	9.55
324.929	9.76
325.14	10.08
325.352	10.18
325.563	9.82
325.774	10.04
325.986	9.95
326.197	9.96
326.408	10.16
326.62	10.86
326.831	11.13
327.042	11
327.253	11.13
327.464	11.21
327.676	11.62
327.887	12
328.098	12.12
328.309	12.35
328.52	12.58
328.732	12.67
328.943	12.49
329.154	12.71
329.365	13.35
329.576	13.08
329.787	12.94
329.998	13.07
330.209	13.31
330.42	13.54
330.631	13.82
330.842	13.92
331.053	14.02
331.264	13.86
331.475	14.52
331.686	14.09
331.897	14.4
332.108	14.19
332.319	14.24
332.53	14.01
332.741	13.74
332.952	13.87
333.163	14.07
333.374	14.31
333.585	14.38
333.795	13.93
334.006	13.64
334.217	13.41
334.428	13.65
334.639	12.96
334.849	12.82
335.06	12.68
335.271	12.69
335.482	12.29
335.692	12.44
335.903	12.49
336.114	12.34
336.325	12.65
336.535	12.62
336.746	12.91
336.957	13.44
337.167	13.49
337.378	13.66
337.589	13.53
337.799	13.52
338.01	13.2
338.22	13.28
338.431	13.63
338.642	13.49
338.852	13.52
339.063	13.33
339.273	13.06
339.484	13.07
339.694	12.69
339.905	12.72
340.115	12.73
340.326	12.91
340.536	13
340.746	12.71
340.957	12.79
341.167	13.08
341.378	12.88
341.588	13.03
341.799	12.88
342.009	12.86
342.219	13.03
342.43	13.02
342.64	12.74
342.85	12.78
343.061	12.77
343.271	12.89
343.481	12.73
343.691	13
343.902	12.74
344.112	12.89
344.322	13.16
344.532	12.98
344.743	12.9
344.953	12.97
345.163	12.94
345.373	12.92
345.583	12.6
345.793	12.38
346.004	12.27
346.214	12.3
346.424	12.16
346.634	12.1
346.844	11.98
347.054	11.99
347.264	12.04
347.474	11.73
347.684	11.73
347.894	11.97
348.104	12.17
348.314	11.97
348.524	12.09
348.734	12.16
348.944	11.94
349.154	12.05
349.364	12.1
349.574	12.08
349.784	12.51
349.994	12.44
350.204	12.52
350.413	12.63
350.623	13.01
350.833	12.88
351.043	12.99
351.253	13.1
351.463	12.86
351.672	12.88
351.882	12.81
352.092	12.53
352.302	12.56
352.511	12.07
352.721	11.72
352.931	11.55
353.141	11.86
353.35	11.94
353.56	11.83
353.77	12.01
353.979	11.9
354.189	11.96
354.399	11.95
354.608	11.94
354.818	12.31
355.027	12.27
355.237	12.21
355.447	11.76
355.656	11.58
355.866	11.7
356.075	11.54
356.285	11.56
356.494	11.37
356.704	11.4
356.913	11.43
357.123	11.25
357.332	11.2
357.542	11.05
357.751	11.24
357.96	11.33
358.17	11.06
358.379	11.34
358.589	11.43
358.798	11.55
359.007	11.53
359.217	11.47
359.426	11.38
359.635	11.59
359.845	11.8
360.054	11.69
360.263	11.46
360.472	11.54
360.682	11.39
360.891	11.05
361.1	11.01
361.309	11
361.519	11.1
361.728	11.17
361.937	11.01
362.146	10.78
362.355	10.89
362.564	11.06
362.774	11.2
362.983	11.02
363.192	11.34
363.401	11.31
363.61	11.1
363.819	10.85
364.028	10.94
364.237	11.04
364.446	11.19
364.655	11.06
364.864	10.94
365.073	10.79
365.282	10.96
365.491	10.76
365.7	10.74
365.909	10.82
366.118	10.99
366.327	11.01
366.536	11.32
366.745	11.2
366.954	11.26
367.162	11.15
367.371	11.17
367.58	11.24
367.789	11.45
367.998	11.35
368.207	11.41
368.415	11.41
368.624	11.34
368.833	11.12
369.042	11.32
369.25	11.42
369.459	11.32
369.668	11.04
369.877	10.98
370.085	10.71
370.294	10.74
370.503	10.71
370.711	10.75
370.92	10.7
371.129	10.51
371.337	10.37
371.546	10.21
371.754	10.19
371.963	10.24
372.171	10.32
372.38	10.31
372.589	10.54
372.797	10.67
373.006	10.59
373.214	10.56
373.423	10.48
373.631	10.32
373.84	10.48
374.048	10.67
374.256	10.92
374.465	10.79
374.673	10.71
374.882	10.49
375.09	10.21
375.298	10.01
375.507	9.9
375.715	10.01
375.923	10.05
376.132	9.83
376.34	9.67
376.548	9.44
376.757	9.31
376.965	9.29
377.173	9.1
377.381	9.25
377.59	9.3
377.798	9.37
378.006	9.32
378.214	9.4
378.423	9.5
378.631	9.43
378.839	9.47
379.047	9.47
379.255	9.72
379.463	9.71
379.671	9.45
379.879	9.46
380.088	9.46
380.296	9.42
380.504	9.23
380.712	8.99
380.92	9.15
381.128	9.19
381.336	9.3
381.544	8.95
381.752	9.22
381.96	9.27
382.168	9.29
382.376	9.24
382.584	8.92
382.791	8.89
382.999	9.17
383.207	9.21
383.415	9.23
383.623	9.14
383.831	9.24
384.039	9.02
384.247	9.14
384.454	8.99
384.662	8.92
384.87	8.95
385.078	9.04
385.285	8.75
385.493	8.8
385.701	8.72
385.909	8.78
386.116	8.61
386.324	8.59
386.532	8.42
386.739	8.53
386.947	8.48
387.155	8.62
387.362	8.63
387.57	8.83
387.778	8.73
387.985	8.7
388.193	8.59
388.4	8.8
388.608	8.99
388.816	9.06
389.023	9
389.231	9.09
389.438	9.03
389.646	8.77
389.853	8.64
390.061	8.67
390.268	8.62
390.475	8.53
390.683	8.5
390.89	8.27
391.098	7.94
391.305	7.92
391.512	7.84
391.72	7.91
391.927	7.88
392.135	7.81
392.342	7.68
392.549	7.69
392.756	7.6
392.964	7.53
393.171	7.64
393.378	7.83
393.586	7.74
393.793	7.78
394	7.6
394.207	7.81
394.414	7.7
394.622	7.76
394.829	7.72
395.036	7.73
395.243	7.69
395.45	7.47
395.657	7.44
395.864	7.51
396.072	7.23
396.279	7.44
396.486	7.43
396.693	7.49
396.9	7.38
397.107	7.28
397.314	7.4
397.521	7.35
397.728	7.59
397.935	7.62
398.142	7.53
398.349	7.56
398.556	7.56
398.763	7.4
398.97	7.51
399.177	7.46
399.383	7.65
399.59	7.65
399.797	7.61
400.004	7.51
400.211	7.45
400.418	7.58
400.625	7.75
400.831	7.66
401.038	7.77
401.245	7.86
401.452	7.98
401.658	7.79
401.865	7.78
402.072	7.94
402.279	7.87
402.485	7.79
402.692	7.71
402.899	7.68
403.105	7.63
403.312	7.57
403.519	7.48
403.725	7.17
403.932	7.31
404.138	7.18
404.345	7.14
404.552	7.03
404.758	7.13
404.965	7.1
405.171	7.03
405.378	7.04
405.584	6.93
405.791	6.84
405.997	6.95
406.204	6.83
406.41	6.88
406.617	6.98
406.823	7.15
407.029	7.15
407.236	7.16
407.442	7.32
407.649	7.37
407.855	7.49
408.061	7.44
408.268	7.58
408.474	7.63
408.68	7.56
408.887	7.31
409.093	7.25
409.299	7.25
409.505	7.16
409.712	7.02
409.918	6.87
410.124	6.83
410.33	7.06
410.537	6.95
410.743	6.84
410.949	6.88
411.155	6.96
411.361	6.97
411.567	6.93
411.773	6.98
411.98	6.96
412.186	6.97
412.392	7
412.598	7.03
412.804	7.04
413.01	7.04
413.216	7.09
413.422	7.05
413.628	6.92
413.834	6.88
414.04	6.91
414.246	6.87
414.452	6.9
414.658	6.84
414.864	6.82
415.07	6.95
415.275	7.03
415.481	7.09
415.687	7.13
415.893	7.26
416.099	7.27
416.305	7.11
416.511	7.24
416.716	7.22
416.922	7.17
417.128	6.91
417.334	6.82
417.539	6.75
417.745	6.56
417.951	6.44
418.157	6.32
418.362	6.3
418.568	6.29
418.774	6.2
418.979	6.21
419.185	6.18
419.391	6.29
419.596	6.25
419.802	6.28
420.008	6.36
420.213	6.89
420.419	6.94
420.624	6.85
420.83	6.93
421.035	6.9
421.241	6.93
421.446	6.96
421.652	6.89
421.857	6.96
422.063	6.89
422.268	6.82
422.474	6.38
422.679	6.41
422.885	6.47
423.09	6.46
423.295	6.42
423.501	6.41
423.706	6.4
423.911	6.42
424.117	6.36
424.322	6.44
424.527	6.56
424.733	6.49
424.938	6.43
425.143	6.52
425.349	6.51
425.554	6.57
425.759	6.52
425.964	6.52
426.169	6.56
426.375	6.58
426.58	6.56
426.785	6.51
426.99	6.67
427.195	6.72
427.4	6.55
427.605	6.61
427.811	6.67
428.016	6.72
428.221	6.7
428.426	6.57
428.631	6.68
428.836	6.63
429.041	6.55
429.246	6.43
429.451	6.39
429.656	6.44
429.861	6.44
430.066	6.36
430.271	6.43
430.476	6.59
430.681	6.63
430.886	6.52
431.09	6.55
431.295	6.66
431.5	6.73
431.705	6.77
431.91	6.81
432.115	6.74
432.32	6.84
432.524	6.74
432.729	6.63
432.934	6.65
433.139	6.61
433.343	6.64
433.548	6.51
433.753	6.45
433.958	6.38
434.162	6.39
434.367	6.45
434.572	6.45
434.776	6.49
434.981	6.59
435.186	6.58
435.39	6.65
435.595	6.6
435.799	6.68
436.004	6.67
436.209	6.7
436.413	6.74
436.618	6.79
436.822	6.66
437.027	6.6
437.231	6.6
437.436	6.66
437.64	6.57
437.845	6.59
438.049	6.58
438.253	6.55
438.458	6.65
438.662	6.58
438.867	6.45
439.071	6.45
439.275	6.46
439.48	6.39
439.684	6.33
439.888	6.4
440.093	6.44
440.297	6.46
440.501	6.45
440.706	6.39
440.91	6.4
441.114	6.41
441.318	6.51
441.523	6.47
441.727	6.43
441.931	6.56
442.135	6.54
442.339	6.53
442.543	6.55
442.748	6.58
442.952	6.61
443.156	6.6
443.36	6.62
443.564	6.6
443.768	6.62
443.972	6.57
444.176	6.4
444.38	6.4
444.584	6.3
444.788	6.24
444.992	6.25
445.196	6.23
445.4	6.24
445.604	6.25
445.808	6.29
446.012	6.3
446.216	6.36
446.42	6.4
446.624	6.43
446.828	6.4
447.032	6.45
447.235	6.47
447.439	6.43
447.643	6.41
447.847	6.41
448.051	6.38
448.254	6.42
448.458	6.41
448.662	6.39
448.866	6.29
449.069	6.41
449.273	6.31
449.477	6.45
449.681	6.46
449.884	6.56
450.088	6.57
450.292	6.6
450.495	6.61
450.699	6.62
450.902	6.62
451.106	6.72
451.31	6.67
451.513	6.75
451.717	6.49
451.92	6.55
452.124	6.5
452.327	6.49
452.531	6.4
452.734	6.52
452.938	6.48
453.141	6.57
453.345	6.55
453.548	6.62
453.752	6.58
453.955	6.71
454.158	6.62
454.362	6.62
454.565	6.57
454.769	6.58
454.972	6.43
455.175	6.42
455.379	6.34
455.582	6.31
455.785	6.38
455.988	6.54
456.192	6.5
456.395	6.63
456.598	6.7
456.801	6.72
457.005	6.68
457.208	6.72
457.411	6.78
457.614	6.72
457.817	6.73
458.021	6.57
458.224	6.51
458.427	6.52
458.63	6.36
458.833	6.29
459.036	6.32
459.239	6.34
459.442	6.35
459.645	6.37
459.848	6.43
460.051	6.45
460.254	6.51
460.457	6.46
460.66	6.46
460.863	6.56
461.066	6.6
461.269	6.62
461.472	6.69
461.675	6.7
461.878	6.73
462.081	6.74
462.284	6.7
462.486	6.76
462.689	6.78
462.892	6.72
463.095	6.76
463.298	6.73
463.5	6.62
463.703	6.51
463.906	6.63
464.109	6.54
464.311	6.57
