Data from 2938797__Reflection_02.txt Node
Date: Thu Mar 12 23:12:57 EDT 2015
User: robert
Spectrometer: USB4E03002
Autoset integration time: false
Trigger mode: 4
Integration Time (sec): 1.000000E-1
Scans to average: 10
Electric dark correction enabled: false
Nonlinearity correction enabled: false
Boxcar width: 5
Stray light correction enabled: false
XAxis mode: Wavelengths
Stop averaging: false
Number of Pixels in Spectrum: 3648
>>>>>Begin Spectral Data<<<<<
177.575	75.47
177.794	88.97
178.014	157.72
178.233	201.84
178.452	252.41
178.672	169.01
178.891	262.39
179.11	324.07
179.33	385.38
179.549	-510
179.768	-461.86
179.987	-1294.87
180.207	538.71
180.426	315.66
180.645	198.14
180.864	161.86
181.084	223.77
181.303	202.34
181.522	194.02
181.741	242.42
181.96	154.32
182.179	96.46
182.398	96.17
182.618	135.77
182.837	153.19
183.056	246.05
183.275	325.49
183.494	186.05
183.713	198.34
183.932	206.78
184.151	103.64
184.37	221.82
184.589	-2100
184.808	-81.68
185.027	44.79
185.246	156.12
185.465	-781.82
185.684	254.55
185.903	1104.35
186.122	-400
186.341	4.26
186.56	59.72
186.779	74.26
186.998	56.71
187.216	71.74
187.435	84.15
187.654	104.35
187.873	139.72
188.092	118.34
188.311	170.99
188.53	345.65
188.748	944
188.967	240.37
189.186	2738.46
189.405	-261.95
189.623	4812.5
189.842	2680.95
190.061	-536.13
190.28	-517.71
190.498	-594.12
190.717	-298.21
190.936	-2537.5
191.154	1125.93
191.373	529.81
191.592	-6685.71
191.81	-909.26
192.029	1804.17
192.248	490
192.466	111.11
192.685	248.65
192.904	287.18
193.122	72.41
193.341	149
193.559	70.36
193.778	91.28
193.996	89.22
194.215	113.74
194.433	116.7
194.652	125.1
194.87	243.04
195.089	160.19
195.307	153.1
195.526	163.93
195.744	188.35
195.963	2766.67
196.181	-64.39
196.399	-108.47
196.618	-3.7
196.836	52.67
197.055	48.4
197.273	102.94
197.491	49.65
197.71	71.87
197.928	52.13
198.146	41.55
198.365	-23.83
198.583	42.14
198.801	56.56
199.019	9.13
199.238	18.52
199.456	-482.35
199.674	22.67
199.892	-61.26
200.111	51.85
200.329	5866.67
200.547	-99.4
200.765	-271.79
200.983	757.89
201.202	-366.67
201.42	84.83
201.638	12.82
201.856	-31.09
202.074	-95.83
202.292	-91.67
202.51	-94.67
202.728	-295.62
202.946	-79.74
203.165	-49.87
203.383	-54.67
203.601	-80.9
203.819	-157.87
204.037	-275.9
204.255	-41.76
204.473	14.31
204.691	31.57
204.909	38.14
205.127	29.03
205.345	-90.58
205.562	-677.08
205.78	0
205.998	-114.22
206.216	-77.05
206.434	-24.7
206.652	-64.59
206.87	-127.66
207.088	-72.28
207.306	-55.35
207.523	-29.49
207.741	-4.66
207.959	19.01
208.177	25.31
208.395	15.68
208.612	36.02
208.83	33.67
209.048	60.62
209.266	46.01
209.483	29.95
209.701	16.04
209.919	-2.16
210.136	-15.6
210.354	-64.55
210.572	-151.29
210.79	-138.3
211.007	-219.08
211.225	-461.78
211.442	-266.35
211.66	-162.42
211.878	-229.73
212.095	421.27
212.313	590.61
212.53	974.65
212.748	934.31
212.966	-1256.32
213.183	-808.13
213.401	-494.69
213.618	-594.8
213.836	-1286.9
214.053	-1632.81
214.271	-349.79
214.488	-9.64
214.705	-10.93
214.923	-7.25
215.14	-9.81
215.358	-24.19
215.575	-32.76
215.793	-29.23
216.01	-38.78
216.227	-25
216.445	-8.49
216.662	-19.65
216.879	-21.58
217.097	-8.63
217.314	15.5
217.531	-3.84
217.749	-1.42
217.966	-5.68
218.183	-16.05
218.4	-0.09
218.618	-12.64
218.835	-13.05
219.052	-23.49
219.269	-18.34
219.487	-27.92
219.704	-46.72
219.921	-28.04
220.138	-38.88
220.355	-38.31
220.572	-36.01
220.79	-44.64
221.007	-47.61
221.224	-46.25
221.441	-29.32
221.658	-22.61
221.875	-16.06
222.092	-18.76
222.309	-18.93
222.526	-15.78
222.743	-10.49
222.96	-4.71
223.177	-3
223.394	-0.9
223.611	5.55
223.828	0.55
224.045	1.1
224.262	-3.36
224.479	0.62
224.696	1.45
224.913	2.06
225.13	4.28
225.347	1.25
225.564	1.31
225.781	2.24
225.997	-0.14
226.214	3.8
226.431	0.44
226.648	2.35
226.865	5.43
227.082	4.83
227.298	8.32
227.515	7.32
227.732	8.97
227.949	9.14
228.165	9.47
228.382	9.19
228.599	8.76
228.816	9.49
229.032	9.97
229.249	9.13
229.466	9.54
229.682	9.27
229.899	9.76
230.116	9.7
230.332	9.67
230.549	10.46
230.765	10.71
230.982	10.94
231.199	10.79
231.415	10.44
231.632	9.53
231.848	8.9
232.065	5.94
232.281	4.68
232.498	3.44
232.714	2.61
232.931	0.77
233.147	-0.52
233.364	-2.3
233.58	-1.91
233.797	-1.46
234.013	-0.5
234.23	1.03
234.446	1.94
234.662	2.19
234.879	1.49
235.095	1.58
235.312	1.86
235.528	1.78
235.744	3.84
235.961	3.23
236.177	2.16
236.393	2.63
236.61	-0.23
236.826	0.9
237.042	-0.04
237.258	0.5
237.475	0.59
237.691	-0.09
237.907	-0.09
238.123	-2.93
238.339	-3.09
238.556	-2.61
238.772	-3.47
238.988	-2.52
239.204	-1.87
239.42	0.72
239.636	-0.49
239.853	0.59
240.069	0.84
240.285	1.85
240.501	2.73
240.717	2.92
240.933	3.16
241.149	4.25
241.365	5.02
241.581	4.36
241.797	3.73
242.013	4.61
242.229	4.44
242.445	4.64
242.661	5.33
242.877	5.42
243.093	5.41
243.309	5.21
243.525	4.26
243.741	4.4
243.957	4.67
244.173	4.6
244.388	4.64
244.604	4.71
244.82	4.08
245.036	3.27
245.252	3.88
245.468	4.68
245.683	4.54
245.899	4.96
246.115	4.87
246.331	4.76
246.547	4.89
246.762	4.96
246.978	5.01
247.194	5.13
247.409	5.07
247.625	4.8
247.841	4.29
248.057	4.62
248.272	4.55
248.488	4.22
248.703	4.48
248.919	4.59
249.135	4.74
249.35	4.57
249.566	4.92
249.782	5.22
249.997	5.29
250.213	5.9
250.428	5.74
250.644	5.89
250.859	6.73
251.075	6.43
251.29	6.73
251.506	6.14
251.721	6.51
251.937	6.51
252.152	6.23
252.368	6.04
252.583	5.79
252.798	5.32
253.014	5.69
253.229	5.51
253.445	5.28
253.66	3.75
253.875	3.54
254.091	2.84
254.306	2.42
254.521	1.48
254.737	2.04
254.952	2.08
255.167	2.44
255.383	1.14
255.598	0.06
255.813	-0.54
256.028	0.3
256.244	0.28
256.459	1.24
256.674	0.03
256.889	1.19
257.104	0.89
257.32	1.42
257.535	1.7
257.75	2.64
257.965	3.55
258.18	4.51
258.395	4.48
258.61	4.87
258.826	4.5
259.041	4.76
259.256	4.62
259.471	4.58
259.686	4.5
259.901	4.4
260.116	4.22
260.331	4.18
260.546	3.81
260.761	3.82
260.976	3.78
261.191	3.63
261.406	3.66
261.621	3.73
261.836	3.75
262.05	3.25
262.265	3.38
262.48	3.63
262.695	3.34
262.91	3.28
263.125	3.08
263.34	2.14
263.555	2.29
263.769	2.01
263.984	2
264.199	1.53
264.414	1.54
264.629	1.26
264.843	0.59
265.058	0.53
265.273	1.57
265.488	1.71
265.702	2.29
265.917	1.84
266.132	2.17
266.346	1.78
266.561	2.3
266.776	3.05
266.99	3.31
267.205	3.04
267.42	3.07
267.634	2.3
267.849	2.58
268.063	2.37
268.278	2.88
268.492	2.82
268.707	2.86
268.922	2.98
269.136	2.4
269.351	1.96
269.565	2.32
269.78	2.45
269.994	3.12
270.209	3
270.423	3.31
270.637	3.45
270.852	3.29
271.066	3.16
271.281	3.12
271.495	3.45
271.709	3.2
271.924	3.27
272.138	3.29
272.353	3.19
272.567	3.25
272.781	3.28
272.996	3.05
273.21	3.41
273.424	3.42
273.638	3.53
273.853	3.51
274.067	4.1
274.281	4.31
274.495	4.14
274.71	4.14
274.924	4.12
275.138	3.73
275.352	3.52
275.566	3.45
275.781	4.08
275.995	3.64
276.209	3.28
276.423	3.05
276.637	3.01
276.851	3.2
277.065	2.94
277.279	2.83
277.493	3.35
277.707	3.36
277.921	2.95
278.135	2.34
278.349	2.29
278.563	2.09
278.777	2.06
278.991	2.15
279.205	2.16
279.419	2.18
279.633	2.61
279.847	2.47
280.061	2.9
280.275	2.8
280.489	2.53
280.703	2.94
280.917	3.23
281.131	2.91
281.344	2.95
281.558	2.86
281.772	2.78
281.986	2.7
282.2	2.47
282.414	2.33
282.627	2.66
282.841	3.16
283.055	3.12
283.269	3.29
283.482	3.26
283.696	3.01
283.91	2.82
284.123	3.01
284.337	2.71
284.551	3.39
284.764	3.44
284.978	3.23
285.192	3.08
285.405	3.16
285.619	3.17
285.833	3.58
286.046	3.62
286.26	3.98
286.473	3.93
286.687	4.04
286.9	3.54
287.114	3.4
287.327	3.6
287.541	3.58
287.754	3.34
287.968	2.99
288.181	2.82
288.395	2.92
288.608	2.87
288.822	3.24
289.035	3.06
289.248	3.05
289.462	3.12
289.675	3.18
289.889	3.31
290.102	3.35
290.315	3.34
290.529	3.7
290.742	3.68
290.955	3.51
291.169	3.25
291.382	3.35
291.595	3.5
291.808	3.45
292.022	2.97
292.235	2.99
292.448	2.94
292.661	3.14
292.875	2.79
293.088	2.7
293.301	3
293.514	3.06
293.727	3.19
293.94	3.31
294.153	3.42
294.367	3.45
294.58	3.23
294.793	3.84
295.006	4.07
295.219	3.99
295.432	4.2
295.645	4.07
295.858	4.04
296.071	4.32
296.284	3.93
296.497	4.28
296.71	4.51
296.923	4.61
297.136	4.03
297.349	3.86
297.562	4.03
297.775	3.82
297.988	3.75
298.201	3.77
298.414	3.48
298.626	3.72
298.839	3.39
299.052	3.48
299.265	3.61
299.478	3.88
299.691	4.17
299.903	3.61
300.116	3.56
300.329	3.51
300.542	3.17
300.755	2.99
300.967	3.1
301.18	3.22
301.393	3.05
301.605	2.91
301.818	2.83
302.031	2.94
302.243	3.51
302.456	3.95
302.669	3.92
302.881	4.51
303.094	4.75
303.307	4.82
303.519	4.86
303.732	4.89
303.944	5.04
304.157	5.31
304.37	4.99
304.582	5.3
304.795	5.08
305.007	5.07
305.22	4.59
305.432	4.44
305.645	4.68
305.857	4.45
306.069	4.7
306.282	4.55
306.494	4.23
306.707	4.31
306.919	3.76
307.132	3.78
307.344	4.25
307.556	4.62
307.769	4.87
307.981	4.59
308.193	4.73
308.406	4.59
308.618	4.92
308.83	4.88
309.043	4.96
309.255	4.83
309.467	4.92
309.679	4.8
309.892	4.85
310.104	5.03
310.316	5.13
310.528	4.87
310.74	4.57
310.953	4.41
311.165	4.54
311.377	4.49
311.589	5.03
311.801	4.73
312.013	4.84
312.225	4.8
312.437	4.75
312.649	4.46
312.862	4.84
313.074	5.24
313.286	5.23
313.498	5.29
313.71	5.3
313.922	4.75
314.134	4.98
314.346	4.88
314.558	4.97
314.77	5.15
314.982	5.31
315.193	5.28
315.405	4.99
315.617	4.81
315.829	4.68
316.041	4.71
316.253	4.9
316.465	4.79
316.677	4.7
316.888	4.9
317.1	4.91
317.312	4.78
317.524	4.88
317.736	4.95
317.947	5.43
318.159	5.32
318.371	5.23
318.583	5.37
318.794	5.8
319.006	5.87
319.218	5.58
319.43	5.13
319.641	5.32
319.853	4.95
320.064	5.48
320.276	5.82
320.488	6.01
320.699	6.44
320.911	6.71
321.123	6.57
321.334	6.26
321.546	6.35
321.757	6.47
321.969	6.51
322.18	6.72
322.392	6.61
322.603	6.15
322.815	6.14
323.026	5.8
323.238	5.53
323.449	5.32
323.661	5.85
323.872	5.88
324.083	5.92
324.295	5.99
324.506	5.85
324.718	5.57
324.929	5.3
325.14	5.35
325.352	5.26
325.563	5.32
325.774	5.69
325.986	5.63
326.197	5.67
326.408	5.79
326.62	5.82
326.831	6.14
327.042	6.48
327.253	6.74
327.464	6.88
327.676	7.2
327.887	7.32
328.098	7.36
328.309	7.07
328.52	7.19
328.732	7.1
328.943	7.41
329.154	7.06
329.365	6.83
329.576	6.53
329.787	6.34
329.998	6.03
330.209	5.95
330.42	6.08
330.631	6.3
330.842	6.2
331.053	6.05
331.264	6.05
331.475	6.16
331.686	6.5
331.897	6.7
332.108	6.67
332.319	6.89
332.53	6.74
332.741	6.46
332.952	6.73
333.163	6.4
333.374	6.7
333.585	6.56
333.795	6.64
334.006	6.53
334.217	6.77
334.428	6.94
334.639	6.89
334.849	6.86
335.06	6.95
335.271	6.87
335.482	7.08
335.692	6.96
335.903	6.93
336.114	6.75
336.325	6.66
336.535	6.42
336.746	6.27
336.957	6.23
337.167	6.38
337.378	6.38
337.589	6.29
337.799	6.09
338.01	6.26
338.22	6.22
338.431	6.49
338.642	6.5
338.852	6.75
339.063	6.75
339.273	6.59
339.484	6.78
339.694	6.84
339.905	6.63
340.115	6.98
340.326	6.6
340.536	6.52
340.746	6.74
340.957	6.67
341.167	6.45
341.378	6.6
341.588	6.88
341.799	6.74
342.009	6.65
342.219	6.44
342.43	6.09
342.64	6.3
342.85	6.27
343.061	6.06
343.271	6.17
343.481	5.98
343.691	5.87
343.902	5.65
344.112	5.54
344.322	5.66
344.532	5.74
344.743	6.03
344.953	6.21
345.163	6.17
345.373	6.04
345.583	5.9
345.793	6.01
346.004	6.12
346.214	6.21
346.424	6.55
346.634	6.33
346.844	6.26
347.054	6.32
347.264	6.09
347.474	6.39
347.684	6.23
347.894	6.31
348.104	6.54
348.314	6.39
348.524	6.14
348.734	5.88
348.944	5.98
349.154	5.91
349.364	5.64
349.574	5.48
349.784	5.39
349.994	5.43
350.204	5.59
350.413	5.14
350.623	5.06
350.833	5.32
351.043	5.44
351.253	5.35
351.463	5.79
351.672	5.86
351.882	5.75
352.092	5.54
352.302	5.46
352.511	5.27
352.721	5.54
352.931	5.57
353.141	5.62
353.35	5.43
353.56	5.47
353.77	5.04
353.979	4.94
354.189	5.29
354.399	5.77
354.608	6.05
354.818	6.26
355.027	6.3
355.237	6.23
355.447	6.03
355.656	6.17
355.866	6.1
356.075	6.43
356.285	6.57
356.494	6.62
356.704	6.17
356.913	6.05
357.123	5.96
357.332	6.01
357.542	6.04
357.751	6.13
357.96	5.99
358.17	6.02
358.379	5.99
358.589	5.8
358.798	5.51
359.007	5.48
359.217	5.68
359.426	5.57
359.635	5.63
359.845	5.95
360.054	5.81
360.263	5.74
360.472	5.64
360.682	5.71
360.891	5.82
361.1	5.89
361.309	6.03
361.519	5.85
361.728	5.87
361.937	5.86
362.146	5.79
362.355	5.82
362.564	5.82
362.774	5.8
362.983	5.76
363.192	5.73
363.401	5.87
363.61	5.74
363.819	5.88
364.028	5.8
364.237	5.62
364.446	5.36
364.655	5.31
364.864	5.39
365.073	5.65
365.282	5.51
365.491	5.6
365.7	5.47
365.909	5.4
366.118	5.36
366.327	5.46
366.536	5.61
366.745	5.82
366.954	5.77
367.162	5.8
367.371	5.48
367.58	5.48
367.789	5.34
367.998	5.26
368.207	5.14
368.415	5.57
368.624	5.5
368.833	5.53
369.042	5.23
369.25	5.28
369.459	5.18
369.668	5.42
369.877	5.57
370.085	5.75
370.294	5.78
370.503	5.85
370.711	5.6
370.92	5.64
371.129	5.59
371.337	5.77
371.546	5.7
371.754	5.78
371.963	5.64
372.171	5.46
372.38	5.39
372.589	5.28
372.797	5.38
373.006	4.92
373.214	4.79
373.423	4.52
373.631	4.49
373.84	4.59
374.048	4.57
374.256	4.54
374.465	4.78
374.673	4.63
374.882	4.59
375.09	4.47
375.298	4.69
375.507	4.6
375.715	4.67
375.923	4.73
376.132	4.85
376.34	4.79
376.548	4.77
376.757	4.42
376.965	4.36
377.173	4.56
377.381	4.72
377.59	4.65
377.798	4.72
378.006	4.7
378.214	4.69
378.423	4.44
378.631	4.32
378.839	4.38
379.047	4.61
379.255	4.47
379.463	4.47
379.671	4.19
379.879	4.19
380.088	3.95
380.296	3.98
380.504	3.88
380.712	4.13
380.92	3.98
381.128	3.95
381.336	3.79
381.544	3.83
381.752	3.64
381.96	3.99
382.168	3.82
382.376	4.08
382.584	4.06
382.791	3.91
382.999	3.69
383.207	3.84
383.415	3.98
383.623	3.88
383.831	4.09
384.039	4.19
384.247	4.05
384.454	4.21
384.662	3.93
384.87	3.94
385.078	4.06
385.285	4.25
385.493	4.27
385.701	4.16
385.909	4.28
386.116	4.03
386.324	3.89
386.532	3.9
386.739	3.88
386.947	4.26
387.155	4.27
387.362	4.39
387.57	4.21
387.778	4.22
387.985	4.38
388.193	4.36
388.4	4.45
388.608	4.37
388.816	4.19
389.023	4.12
389.231	3.69
389.438	3.71
389.646	3.67
389.853	3.52
390.061	3.23
390.268	2.95
390.475	3.02
390.683	3
390.89	3.05
391.098	3.11
391.305	3.06
391.512	3.09
391.72	3.1
391.927	3.16
392.135	3.35
392.342	3.51
392.549	3.55
392.756	3.49
392.964	3.41
393.171	3.46
393.378	3.35
393.586	3.37
393.793	3.55
394	3.44
394.207	3.43
394.414	3.63
394.622	3.53
394.829	3.7
395.036	3.61
395.243	3.76
395.45	3.75
395.657	3.95
395.864	3.98
396.072	3.76
396.279	3.76
396.486	3.53
396.693	3.35
396.9	3.64
397.107	3.49
397.314	3.46
397.521	3.51
397.728	3.32
397.935	3.06
398.142	2.92
398.349	3.08
398.556	3.07
398.763	3.04
398.97	2.89
399.177	2.78
399.383	2.67
399.59	2.65
399.797	2.42
400.004	2.65
400.211	2.66
400.418	2.61
400.625	2.39
400.831	2.48
401.038	2.27
401.245	2.38
401.452	2.15
401.658	2.27
401.865	2.45
402.072	2.72
402.279	2.54
402.485	2.55
402.692	2.6
402.899	2.74
403.105	2.62
403.312	2.73
403.519	2.78
403.725	2.88
403.932	2.79
404.138	2.72
404.345	2.5
404.552	2.6
404.758	2.67
404.965	2.81
405.171	2.81
405.378	2.72
405.584	2.77
405.791	2.8
405.997	2.73
406.204	2.86
406.41	2.71
406.617	2.91
406.823	2.97
407.029	3.11
407.236	3.1
407.442	2.97
407.649	3.07
407.855	3.25
408.061	3.09
408.268	3.14
408.474	3.12
408.68	3.27
408.887	3.07
409.093	3
409.299	2.83
409.505	2.75
409.712	3
409.918	3.03
410.124	2.84
410.33	2.89
410.537	3
410.743	2.81
410.949	2.86
411.155	3.05
411.361	2.89
411.567	2.87
411.773	2.85
411.98	2.85
412.186	2.84
412.392	2.84
412.598	2.7
412.804	2.63
413.01	2.66
413.216	2.43
413.422	2.41
413.628	2.53
413.834	2.81
414.04	2.88
414.246	2.77
414.452	2.64
414.658	2.55
414.864	2.66
415.07	2.7
415.275	2.79
415.481	2.92
415.687	2.87
415.893	2.87
416.099	2.72
416.305	2.74
416.511	2.74
416.716	2.78
416.922	2.85
417.128	2.82
417.334	2.76
417.539	2.72
417.745	2.66
417.951	2.57
418.157	2.59
418.362	2.58
418.568	2.56
418.774	2.56
418.979	2.53
419.185	2.54
419.391	2.45
419.596	2.5
419.802	2.56
420.008	2.64
420.213	3.31
420.419	3.33
420.624	3.25
420.83	3.25
421.035	3.3
421.241	3.41
421.446	3.39
421.652	3.49
421.857	3.42
422.063	3.37
422.268	3.26
422.474	2.67
422.679	2.63
422.885	2.66
423.09	2.67
423.295	2.57
423.501	2.54
423.706	2.56
423.911	2.5
424.117	2.58
424.322	2.6
424.527	2.61
424.733	2.59
424.938	2.52
425.143	2.54
425.349	2.48
425.554	2.55
425.759	2.51
425.964	2.47
426.169	2.49
426.375	2.55
426.58	2.46
426.785	2.45
426.99	2.49
427.195	2.58
427.4	2.59
427.605	2.61
427.811	2.57
428.016	2.54
428.221	2.62
428.426	2.61
428.631	2.32
428.836	2.54
429.041	2.63
429.246	2.7
429.451	2.75
429.656	2.72
429.861	2.73
430.066	2.77
430.271	2.88
430.476	2.81
430.681	2.75
430.886	2.9
431.09	2.72
431.295	2.71
431.5	2.7
431.705	2.59
431.91	2.72
432.115	2.69
432.32	2.66
432.524	2.58
432.729	2.64
432.934	2.68
433.139	2.73
433.343	2.78
433.548	2.79
433.753	2.71
433.958	2.73
434.162	2.59
434.367	2.58
434.572	2.61
434.776	2.72
434.981	2.84
435.186	2.83
435.39	2.73
435.595	2.78
435.799	2.85
436.004	2.85
436.209	2.92
436.413	2.89
436.618	2.94
436.822	2.95
437.027	2.87
437.231	2.65
437.436	2.72
437.64	2.75
437.845	2.63
438.049	2.53
438.253	2.46
438.458	2.28
438.662	2.35
438.867	2.32
439.071	2.22
439.275	2.26
439.48	2.29
439.684	2.24
439.888	2.24
440.093	2.24
440.297	2.23
440.501	2.24
440.706	2.33
440.91	2.34
441.114	2.34
441.318	2.37
441.523	2.31
441.727	2.35
441.931	2.46
442.135	2.43
442.339	2.5
442.543	2.59
442.748	2.73
442.952	2.79
443.156	2.74
443.36	2.75
443.564	2.81
443.768	2.79
443.972	2.71
444.176	2.57
444.38	2.64
444.584	2.6
444.788	2.45
444.992	2.33
445.196	2.32
445.4	2.37
445.604	2.39
445.808	2.35
446.012	2.32
446.216	2.35
446.42	2.37
446.624	2.37
446.828	2.36
447.032	2.37
447.235	2.36
447.439	2.38
447.643	2.33
447.847	2.27
448.051	2.31
448.254	2.29
448.458	2.34
448.662	2.43
448.866	2.41
449.069	2.37
449.273	2.39
449.477	2.49
449.681	2.34
449.884	2.33
450.088	2.3
450.292	2.37
450.495	2.53
450.699	2.48
450.902	2.35
451.106	2.35
451.31	2.32
451.513	2.35
451.717	2.28
451.92	2.39
452.124	2.45
452.327	2.58
452.531	2.46
452.734	2.35
452.938	2.42
453.141	2.46
453.345	2.59
453.548	2.71
453.752	2.75
453.955	2.68
454.158	2.68
454.362	2.59
454.565	2.58
454.769	2.5
454.972	2.43
455.175	2.42
455.379	2.43
455.582	2.21
455.785	2.21
455.988	2.17
456.192	2.28
456.395	2.29
456.598	2.3
456.801	2.33
457.005	2.41
457.208	2.5
457.411	2.42
457.614	2.41
457.817	2.54
458.021	2.54
458.224	2.55
458.427	2.49
458.63	2.5
458.833	2.54
459.036	2.45
459.239	2.47
459.442	2.49
459.645	2.49
459.848	2.53
460.051	2.46
460.254	2.45
460.457	2.43
460.66	2.44
460.863	2.42
461.066	2.42
461.269	2.48
461.472	2.55
461.675	2.54
461.878	2.49
462.081	2.45
462.284	2.52
462.486	2.55
462.689	2.56
462.892	2.56
463.095	2.48
463.298	2.45
463.5	2.47
463.703	2.31
463.906	2.32
464.109	2.36
464.311	2.36
464.514	2.41
464.717	2.38
464.92	2.39
465.122	2.44
465.325	2.55
465.528	2.61
465.73	2.5
465.933	2.61
466.135	2.64
466.338	2.62
466.541	2.59
466.743	2.5
466.946	2.42
467.148	2.37
467.351	2.35
467.553	2.3
467.756	2.31
467.958	2.47
468.161	2.5
468.363	2.49
468.566	2.47
468.768	2.53
468.971	2.56
469.173	2.68
469.375	2.72
469.578	2.61
469.78	2.65
469.983	2.59
