Data from 2938827__Reflection_02.txt Node
Date: Thu Mar 12 13:26:13 EDT 2015
User: robert
Spectrometer: USB4E03002
Autoset integration time: false
Trigger mode: 4
Integration Time (sec): 1.000000E-1
Scans to average: 10
Electric dark correction enabled: false
Nonlinearity correction enabled: false
Boxcar width: 5
Stray light correction enabled: false
XAxis mode: Wavelengths
Stop averaging: false
Number of Pixels in Spectrum: 3648
>>>>>Begin Spectral Data<<<<<
177.575	-715.44
177.794	-1752
178.014	-4076.74
178.233	-1640
178.452	-1477.85
178.672	-1532.91
178.891	-2106.56
179.11	-3337.8
179.33	4891.67
179.549	-3014.71
179.768	-2482.54
179.987	2778.81
180.207	1578.92
180.426	1837.72
180.645	1517.97
180.864	717.51
181.084	532.86
181.303	605.1
181.522	506.04
181.741	615.06
181.96	515.81
182.179	483.42
182.398	460.17
182.618	624.59
182.837	686.68
183.056	688.65
183.275	1140.37
183.494	2417.14
183.713	1428.05
183.932	4084.34
184.151	-3218.81
184.37	-4451.39
184.589	-1840.59
184.808	-1885.38
185.027	-7785.37
185.246	3921.69
185.465	2787.07
185.684	1840.35
185.903	1480.62
186.122	1391.42
186.341	829.57
186.56	453.35
186.779	560.62
186.998	502.47
187.216	485.78
187.435	574.49
187.654	584.12
187.873	490.94
188.092	487.21
188.311	501.8
188.53	452.19
188.748	534.29
188.967	677.34
189.186	538.65
189.405	548.84
189.623	690.73
189.842	535.96
190.061	585.81
190.28	581.79
190.498	473.68
190.717	494.28
190.936	675.82
191.154	755.23
191.373	862.56
191.592	708.75
191.81	734.18
192.029	605.79
192.248	1006.85
192.466	1323.46
192.685	2862.9
192.904	-8666.67
193.122	-19817.65
193.341	7275.56
193.559	3564.21
193.778	25976.92
193.996	-2947.9
194.215	-1598.7
194.433	-855.69
194.652	-1014.61
194.87	-1577.68
195.089	-1250.53
195.307	-1030.56
195.526	-807.33
195.744	-790.91
195.963	-811.42
196.181	-975
196.399	-1071.3
196.618	-2077.4
196.836	-2546.21
197.055	-1860.8
197.273	-1069.82
197.491	-1675
197.71	-2371.24
197.928	-2058.38
198.146	-3406.73
198.365	-3178.57
198.583	-38988.89
198.801	9591.43
199.019	3697.78
199.238	1523.39
199.456	1136.4
199.674	1066.21
199.892	961.59
200.111	1611.7
200.329	649.69
200.547	554.72
200.765	588.43
200.983	617.97
201.202	620.12
201.42	1061.76
201.638	2000.61
201.856	2381.38
202.074	1305.53
202.292	1354.24
202.51	860.52
202.728	1811.9
202.946	1889.87
203.165	1634.92
203.383	1600
203.601	1165.43
203.819	608.98
204.037	577.97
204.255	537.5
204.473	467.96
204.691	516.77
204.909	556.37
205.127	582.86
205.345	1058.75
205.562	1126.81
205.78	1489.72
205.998	1284.52
206.216	3009.17
206.434	2523.53
206.652	-3203.92
206.87	-2848.72
207.088	-2072.05
207.306	-2198.73
207.523	-3605
207.741	-8079.55
207.959	5496.88
208.177	2107.1
208.395	1668.1
208.612	1271.93
208.83	1334.48
209.048	659.67
209.266	692.16
209.483	575.37
209.701	411.25
209.919	354.21
210.136	334.6
210.354	338.22
210.572	374.82
210.79	578.06
211.007	478.62
211.225	474.52
211.442	414.91
211.66	417.33
211.878	422.18
212.095	510.76
212.313	568.66
212.53	544.88
212.748	476.2
212.966	535.62
213.183	404.55
213.401	450.26
213.618	411.5
213.836	506.68
214.053	586.49
214.271	661.83
214.488	825
214.705	768.01
214.923	739.61
215.14	1031.65
215.358	551.31
215.575	626.76
215.793	511.66
216.01	507.33
216.227	448.4
216.445	391.58
216.662	352.9
216.879	336.15
217.097	319.88
217.314	305.06
217.531	325.49
217.749	380.15
217.966	302.16
218.183	291.89
218.4	278.02
218.618	274.51
218.835	242.59
219.052	250.45
219.269	245.9
219.487	252.55
219.704	230.43
219.921	208.32
220.138	205.65
220.355	214.06
220.572	221.88
220.79	201.5
221.007	188.17
221.224	209.58
221.441	202.25
221.658	193.98
221.875	186.18
222.092	176.79
222.309	173.24
222.526	168.37
222.743	162.8
222.96	156.44
223.177	168.19
223.394	158.38
223.611	145.88
223.828	137
224.045	127.19
224.262	115.68
224.479	107.47
224.696	102.06
224.913	95.58
225.13	94.83
225.347	90.83
225.564	83.12
225.781	80.98
225.997	77.58
226.214	72.12
226.431	65.22
226.648	62.58
226.865	60.73
227.082	54.38
227.298	47.18
227.515	39.65
227.732	34.57
227.949	31.38
228.165	28.47
228.382	26.04
228.599	24.26
228.816	23.65
229.032	21.76
229.249	20.6
229.466	20.1
229.682	19.74
229.899	20.93
230.116	21.73
230.332	22.26
230.549	23.36
230.765	25.31
230.982	26.63
231.199	28.1
231.415	30.1
231.632	31.47
231.848	32.14
232.065	32.96
232.281	34.89
232.498	35.87
232.714	38.02
232.931	37.22
233.147	35.96
233.364	36.41
233.58	35.66
233.797	34.92
234.013	34.3
234.23	34.73
234.446	35.44
234.662	33.46
234.879	32.67
235.095	31.6
235.312	32.16
235.528	32.95
235.744	33.54
235.961	34.2
236.177	35.52
236.393	35.46
236.61	36.67
236.826	36.71
237.042	37.84
237.258	38.05
237.475	39.2
237.691	39.42
237.907	37.94
238.123	36.23
238.339	37.6
238.556	36.78
238.772	37.05
238.988	34.53
239.204	33.62
239.42	32.2
239.636	31.85
239.853	28.97
240.069	27.07
240.285	26.15
240.501	24.91
240.717	22.34
240.933	21.28
241.149	20.03
241.365	18.9
241.581	17.89
241.797	16.82
242.013	15.64
242.229	14.85
242.445	15.35
242.661	14.99
242.877	15.65
243.093	15.82
243.309	15.69
243.525	15.19
243.741	16.02
243.957	16.84
244.173	17.01
244.388	17.52
244.604	18.23
244.82	17.54
245.036	17.2
245.252	15.81
245.468	14.96
245.683	14.37
245.899	14.06
246.115	13.16
246.331	12.61
246.547	11.88
246.762	11.5
246.978	11.24
247.194	10.88
247.409	10.41
247.625	10.36
247.841	10.11
248.057	10.12
248.272	10.5
248.488	11.13
248.703	10.79
248.919	11.34
249.135	11.78
249.35	12.12
249.566	12.75
249.782	13.77
249.997	14.34
250.213	15.26
250.428	16.05
250.644	15.43
250.859	15.62
251.075	16.06
251.29	16.13
251.506	16.33
251.721	16.28
251.937	16.51
252.152	16.79
252.368	16.32
252.583	17.07
252.798	16.35
253.014	16.86
253.229	17.03
253.445	18.19
253.66	19.17
253.875	20.28
254.091	21.53
254.306	21.86
254.521	22.44
254.737	23.27
254.952	22.96
255.167	24.58
255.383	24.37
255.598	23.75
255.813	22.64
256.028	21.8
256.244	20.63
256.459	20.04
256.674	18.9
256.889	17.8
257.104	17.37
257.32	16.38
257.535	14.98
257.75	14.52
257.965	13.93
258.18	13.46
258.395	12.44
258.61	11.53
258.826	10.28
259.041	9.92
259.256	9.61
259.471	9.08
259.686	8.65
259.901	8.3
260.116	7.98
260.331	7.89
260.546	7.72
260.761	7.54
260.976	7.55
261.191	7.78
261.406	8.09
261.621	8.52
261.836	8.94
262.05	9.61
262.265	10.4
262.48	11.45
262.695	11.9
262.91	12.86
263.125	13.94
263.34	14.1
263.555	14.75
263.769	14.73
263.984	14.36
264.199	14.23
264.414	14.26
264.629	14.6
264.843	14.09
265.058	13.77
265.273	13.14
265.488	12.84
265.702	12.88
265.917	12.43
266.132	12.54
266.346	13.03
266.561	12.92
266.776	12.66
266.99	11.97
267.205	11.96
267.42	11.67
267.634	11.33
267.849	11.3
268.063	11.28
268.278	11.25
268.492	11.09
268.707	10.5
268.922	10.33
269.136	10.15
269.351	10.27
269.565	9.72
269.78	9.85
269.994	10.08
270.209	10.04
270.423	10.03
270.637	10.26
270.852	10.33
271.066	10.38
271.281	10.8
271.495	10.83
271.709	10.65
271.924	10.92
272.138	10.56
272.353	10.28
272.567	10.14
272.781	10.13
272.996	9.93
273.21	9.96
273.424	10.03
273.638	9.84
273.853	9.96
274.067	9.88
274.281	10.13
274.495	10.88
274.71	11.17
274.924	11.29
275.138	11.67
275.352	11.73
275.566	12.04
275.781	12.03
275.995	11.97
276.209	12.5
276.423	13.25
276.637	12.6
276.851	12.1
277.065	12.02
277.279	12.17
277.493	11.81
277.707	12.11
277.921	11.69
278.135	11.77
278.349	11.79
278.563	11.49
278.777	11.04
278.991	11.37
279.205	11.68
279.419	11.53
279.633	11.35
279.847	11.27
280.061	10.92
280.275	11.1
280.489	10.7
280.703	10.63
280.917	9.91
281.131	9.99
281.344	10.11
281.558	9.82
281.772	9.88
281.986	9.72
282.2	9.82
282.414	9.91
282.627	9.74
282.841	9.92
283.055	9.93
283.269	10.32
283.482	10.39
283.696	9.85
283.91	9.54
284.123	9.33
284.337	9.36
284.551	9.05
284.764	8.84
284.978	8.57
285.192	8.34
285.405	8.41
285.619	8.47
285.833	8.24
286.046	8.48
286.26	8.66
286.473	8.89
286.687	9.04
286.9	8.83
287.114	9.11
287.327	9.2
287.541	9.51
287.754	9.42
287.968	9.39
288.181	9.3
288.395	9.23
288.608	9.4
288.822	9.27
289.035	9.42
289.248	9.56
289.462	9.28
289.675	9.15
289.889	9.08
290.102	9.06
290.315	8.94
290.529	8.96
290.742	9.08
290.955	9.26
291.169	9.22
291.382	9.21
291.595	9.94
291.808	10.08
292.022	10.47
292.235	10.48
292.448	10.8
292.661	10.91
292.875	11.5
293.088	11.6
293.301	11.55
293.514	11.76
293.727	11.55
293.94	10.85
294.153	10.78
294.367	10.52
294.58	10.46
294.793	10.39
295.006	9.96
295.219	9.62
295.432	9.81
295.645	9.71
295.858	9.21
296.071	9.16
296.284	9.17
296.497	8.99
296.71	9.01
296.923	8.94
297.136	8.82
297.349	9.09
297.562	9.03
297.775	8.98
297.988	8.95
298.201	9.42
298.414	9.59
298.626	9.73
298.839	10.01
299.052	10.52
299.265	10.87
299.478	11.1
299.691	11.4
299.903	11.79
300.116	12.05
300.329	12.24
300.542	12.16
300.755	12.37
300.967	12.67
301.18	12.76
301.393	12.64
301.605	12.74
301.818	12.79
302.031	12.71
302.243	12.86
302.456	12.9
302.669	13.27
302.881	13.44
303.094	13.23
303.307	13.03
303.519	13.01
303.732	13.01
303.944	12.79
304.157	12.9
304.37	13.2
304.582	13.02
304.795	13.05
305.007	12.74
305.22	13.13
305.432	13.37
305.645	13.93
305.857	14.4
306.069	14.62
306.282	14.88
306.494	15.01
306.707	14.91
306.919	15.05
307.132	14.87
307.344	15.01
307.556	14.98
307.769	15.26
307.981	14.79
308.193	14.62
308.406	14.34
308.618	14.32
308.83	13.94
309.043	13.93
309.255	13.51
309.467	13.28
309.679	13.49
309.892	13.02
310.104	12.75
310.316	12.75
310.528	12.53
310.74	12.37
310.953	12.12
311.165	12.22
311.377	12.29
311.589	12.72
311.801	12.81
312.013	12.49
312.225	12.99
312.437	13.06
312.649	13.3
312.862	13.72
313.074	14.33
313.286	14.68
313.498	14.52
313.71	14.71
313.922	14.85
314.134	15.15
314.346	15.3
314.558	14.78
314.77	15.03
314.982	15.48
315.193	15.4
315.405	15.22
315.617	15.69
315.829	16.08
316.041	15.54
316.253	15.17
316.465	15.45
316.677	15.7
316.888	16.23
317.1	16.06
317.312	15.64
317.524	15.66
317.736	15.97
317.947	16.29
318.159	16.56
318.371	16.9
318.583	17.2
318.794	17.1
319.006	17.2
319.218	17.03
319.43	17.39
319.641	17.28
319.853	17.21
320.064	17.41
320.276	16.9
320.488	17.25
320.699	17.86
320.911	18.14
321.123	17.95
321.334	18.1
321.546	18.18
321.757	18.78
321.969	18.93
322.18	19.45
322.392	19.13
322.603	19.14
322.815	18.47
323.026	17.93
323.238	17.66
323.449	17.63
323.661	17.4
323.872	17.26
324.083	16.83
324.295	17
324.506	16.59
324.718	16.31
324.929	16.21
325.14	16.82
325.352	16.71
325.563	16.59
325.774	16.71
325.986	16.73
326.197	16.9
326.408	16.7
326.62	16.61
326.831	16.69
327.042	16.77
327.253	16.77
327.464	16.43
327.676	16.17
327.887	16.42
328.098	16.3
328.309	16.39
328.52	16.56
328.732	16.29
328.943	16.25
329.154	16
329.365	16.01
329.576	15.98
329.787	16
329.998	16.31
330.209	16.39
330.42	16.57
330.631	16.75
330.842	16.83
331.053	17.2
331.264	17.35
331.475	17.42
331.686	17.4
331.897	17.49
332.108	17.64
332.319	18.13
332.53	17.84
332.741	17.8
332.952	17.62
333.163	16.83
333.374	16.46
333.585	16.42
333.795	16.53
334.006	16.65
334.217	16.49
334.428	16.26
334.639	16.26
334.849	16.57
335.06	16.36
335.271	16.39
335.482	16.92
335.692	17.12
335.903	16.91
336.114	16.66
336.325	16.91
336.535	16.71
336.746	16.76
336.957	16.11
337.167	16.28
337.378	16.52
337.589	16.58
337.799	16.43
338.01	16.54
338.22	16.44
338.431	16.75
338.642	16.29
338.852	16.66
339.063	16.73
339.273	16.89
339.484	16.59
339.694	16.57
339.905	16.04
340.115	16.24
340.326	16.17
340.536	16.19
340.746	15.69
340.957	15.93
341.167	16.02
341.378	16.04
341.588	16.11
341.799	16.13
342.009	15.88
342.219	15.76
342.43	15.73
342.64	15.78
342.85	16
343.061	16.5
343.271	16.42
343.481	16.18
343.691	15.79
343.902	15.7
344.112	15.67
344.322	15.6
344.532	15.82
344.743	15.54
344.953	15.37
345.163	15.27
345.373	15.02
345.583	14.89
345.793	14.93
346.004	15.45
346.214	15.48
346.424	15.37
346.634	15.52
346.844	15.54
347.054	15.11
347.264	15.33
347.474	15.39
347.684	15.59
347.894	15.73
348.104	15.59
348.314	14.94
348.524	14.79
348.734	15.03
348.944	15.18
349.154	14.91
349.364	15.23
349.574	14.95
349.784	14.62
349.994	14.71
350.204	14.67
350.413	14.78
350.623	15
350.833	15.22
351.043	15
351.253	14.77
351.463	15.31
351.672	15.5
351.882	15.77
352.092	15.97
352.302	15.84
352.511	15.97
352.721	15.54
352.931	15.21
353.141	14.99
353.35	14.71
353.56	14.78
353.77	14.3
353.979	14.1
354.189	13.55
354.399	13.39
354.608	13.1
354.818	13.09
355.027	13.44
355.237	13.54
355.447	13.61
355.656	13.79
355.866	13.4
356.075	13.3
356.285	13.37
356.494	13.45
356.704	13.34
356.913	13.31
357.123	12.96
357.332	12.85
357.542	13.18
357.751	13.02
357.96	13.03
358.17	13.32
358.379	13.44
358.589	13.47
358.798	13.26
359.007	13.27
359.217	13.16
359.426	13.18
359.635	13.16
359.845	12.76
360.054	12.63
360.263	12.19
360.472	12
360.682	12.03
360.891	11.85
361.1	11.93
361.309	11.92
361.519	11.95
361.728	11.74
361.937	11.75
362.146	11.74
362.355	12.01
362.564	12.16
362.774	12.44
362.983	12.3
363.192	12.23
363.401	12.38
363.61	12.32
363.819	12.46
364.028	12.81
364.237	12.82
364.446	12.69
364.655	12.45
364.864	12.48
365.073	12.16
365.282	12.22
365.491	12.37
365.7	12.3
365.909	12.68
366.118	12.55
366.327	12.38
366.536	12.23
366.745	12.49
366.954	12.6
367.162	12.7
367.371	12.67
367.58	12.98
367.789	13.05
367.998	13
368.207	12.9
368.415	13.26
368.624	13.2
368.833	13.2
369.042	13.01
369.25	12.97
369.459	13.01
369.668	12.85
369.877	12.71
370.085	12.67
370.294	12.65
370.503	12.27
370.711	11.9
370.92	12.08
371.129	11.83
371.337	11.82
371.546	11.76
371.754	11.55
371.963	11.62
372.171	11.62
372.38	11.43
372.589	11.46
372.797	11.44
373.006	11.48
373.214	11.21
373.423	11.62
373.631	11.62
373.84	11.43
374.048	11.62
374.256	11.54
374.465	11.23
374.673	11.34
374.882	11.36
375.09	11.67
375.298	11.55
375.507	11.46
375.715	11.12
375.923	11.03
376.132	11.01
376.34	10.85
376.548	10.87
376.757	10.81
376.965	10.61
377.173	10.51
377.381	10.2
377.59	10.28
377.798	10.46
378.006	10.46
378.214	10.55
378.423	10.64
378.631	10.8
378.839	10.79
379.047	10.8
379.255	10.89
379.463	10.79
379.671	10.7
379.879	10.42
380.088	10.25
380.296	10.59
380.504	10.58
380.712	10.56
380.92	10.37
381.128	10.5
381.336	10.68
381.544	10.59
381.752	10.63
381.96	10.91
382.168	11.12
382.376	11.37
382.584	10.99
382.791	10.95
382.999	10.87
383.207	10.72
383.415	10.44
383.623	10.26
383.831	10.4
384.039	10.24
384.247	10.14
384.454	9.94
384.662	9.62
384.87	9.61
385.078	9.49
385.285	9.26
385.493	9.39
385.701	9.31
385.909	9.19
386.116	9.26
386.324	9.27
386.532	9.24
386.739	9.23
386.947	9.31
387.155	9.23
387.362	9.26
387.57	9.6
387.778	9.43
387.985	9.75
388.193	9.71
388.4	9.41
388.608	9.6
388.816	9.52
389.023	9.54
389.231	9.47
389.438	9.65
389.646	9.62
389.853	9.24
390.061	9.23
390.268	9.15
390.475	9.17
390.683	9.22
390.89	8.99
391.098	9.02
391.305	8.96
391.512	8.83
391.72	8.61
391.927	8.59
392.135	8.65
392.342	8.62
392.549	8.56
392.756	8.57
392.964	8.41
393.171	8.39
393.378	8.2
393.586	8.04
393.793	8.05
394	7.94
394.207	7.9
394.414	7.93
394.622	7.9
394.829	8.03
395.036	8.12
395.243	8.21
395.45	8.23
395.657	8.45
395.864	8.7
396.072	8.75
396.279	8.9
396.486	9.03
396.693	9.09
396.9	8.91
397.107	8.58
397.314	8.56
397.521	8.65
397.728	8.64
397.935	8.61
398.142	8.44
398.349	8.48
398.556	8.48
398.763	8.34
398.97	8.25
399.177	8.42
399.383	8.37
399.59	8.26
399.797	8.31
400.004	8.27
400.211	8.24
400.418	8.21
400.625	8.34
400.831	8.47
401.038	8.51
401.245	8.61
401.452	8.49
401.658	8.71
401.865	8.83
402.072	8.69
402.279	8.72
402.485	8.64
402.692	8.55
402.899	8.39
403.105	8.35
403.312	8.36
403.519	8.12
403.725	8.17
403.932	8.01
404.138	7.67
404.345	7.57
404.552	7.58
404.758	7.56
404.965	7.66
405.171	7.61
405.378	7.45
405.584	7.29
405.791	7.32
405.997	7.34
406.204	7.42
406.41	7.55
406.617	7.66
406.823	7.61
407.029	7.64
407.236	7.63
407.442	7.6
407.649	7.79
407.855	7.78
408.061	7.81
408.268	7.71
408.474	7.52
408.68	7.51
408.887	7.44
409.093	7.5
409.299	7.34
409.505	7.17
409.712	7.05
409.918	6.99
410.124	7.11
410.33	7.07
410.537	7.25
410.743	7.45
410.949	7.4
411.155	7.54
411.361	7.57
411.567	7.76
411.773	7.75
411.98	7.89
412.186	7.7
412.392	7.72
412.598	7.9
412.804	7.96
413.01	7.96
413.216	8.14
413.422	8.02
413.628	7.85
413.834	7.8
414.04	7.93
414.246	7.85
414.452	7.83
414.658	7.71
414.864	7.52
415.07	7.37
415.275	7.3
415.481	7.13
415.687	7.08
415.893	7.05
416.099	6.9
416.305	6.85
416.511	6.94
416.716	6.78
416.922	6.87
417.128	6.78
417.334	6.66
417.539	6.62
417.745	6.46
417.951	6.28
418.157	6.18
418.362	6.11
418.568	6.09
418.774	5.87
418.979	5.84
419.185	5.66
419.391	5.66
419.596	5.7
419.802	5.63
420.008	5.71
420.213	6.39
420.419	6.46
420.624	6.53
420.83	6.43
421.035	6.51
421.241	6.57
421.446	6.58
421.652	6.62
421.857	6.45
422.063	6.38
422.268	6.39
422.474	5.72
422.679	5.57
422.885	5.53
423.09	5.57
423.295	5.56
423.501	5.47
423.706	5.46
423.911	5.37
424.117	5.47
424.322	5.49
424.527	5.45
424.733	5.56
424.938	5.68
425.143	5.66
425.349	5.61
425.554	5.55
425.759	5.68
425.964	5.74
426.169	5.84
426.375	5.95
426.58	6.06
426.785	6.09
426.99	6.08
427.195	6.07
427.4	6.05
427.605	6.28
427.811	6.43
428.016	6.53
428.221	6.54
428.426	6.49
428.631	6.3
428.836	6.27
429.041	6.27
429.246	6.35
429.451	6.43
429.656	6.53
429.861	6.39
430.066	6.28
430.271	6.1
430.476	6.02
430.681	5.99
430.886	6.08
431.09	6.16
431.295	6.15
431.5	6.1
431.705	5.99
431.91	5.95
432.115	6
432.32	5.95
432.524	5.86
432.729	5.98
432.934	5.97
433.139	5.98
433.343	6.04
433.548	6.05
433.753	5.98
433.958	6.03
434.162	6.01
434.367	6.02
434.572	6.16
434.776	6.29
434.981	6.26
435.186	6.25
435.39	6.28
435.595	6.16
435.799	6.3
436.004	6.27
436.209	6.33
436.413	6.27
436.618	6.24
436.822	6.16
437.027	6.14
437.231	6.1
437.436	6.12
437.64	6.05
437.845	6.03
438.049	5.94
438.253	6
438.458	5.93
438.662	5.89
438.867	5.87
439.071	5.74
439.275	5.81
439.48	5.78
439.684	5.82
439.888	5.76
440.093	5.66
440.297	5.59
440.501	5.54
440.706	5.56
440.91	5.59
441.114	5.56
441.318	5.71
441.523	5.68
441.727	5.76
441.931	5.7
442.135	5.75
442.339	5.84
442.543	5.89
442.748	6.02
442.952	6.04
443.156	6.03
443.36	6.1
443.564	6.06
443.768	6.05
443.972	5.97
444.176	6.03
444.38	6
444.584	5.92
444.788	5.87
444.992	5.78
445.196	5.66
445.4	5.52
445.604	5.46
445.808	5.38
446.012	5.37
446.216	5.36
446.42	5.29
446.624	5.3
446.828	5.34
447.032	5.26
447.235	5.2
447.439	5.26
447.643	5.4
447.847	5.48
448.051	5.5
448.254	5.49
448.458	5.51
448.662	5.55
448.866	5.59
449.069	5.49
449.273	5.65
449.477	5.76
449.681	5.75
449.884	5.74
450.088	5.75
450.292	5.69
450.495	5.66
450.699	5.76
450.902	5.75
451.106	5.72
451.31	5.88
451.513	5.88
451.717	5.85
451.92	5.9
452.124	5.9
452.327	5.8
452.531	6.05
452.734	6.04
452.938	5.87
453.141	5.9
453.345	5.94
453.548	5.96
453.752	5.98
453.955	6.03
454.158	5.93
454.362	5.94
454.565	6.05
454.769	5.92
454.972	5.97
455.175	6.07
455.379	6.12
455.582	6.18
455.785	6.01
455.988	6.02
456.192	5.85
456.395	5.92
456.598	5.95
456.801	5.96
457.005	6.05
457.208	6.11
457.411	6.07
457.614	5.97
457.817	5.89
458.021	5.9
458.224	5.81
458.427	5.8
458.63	5.76
458.833	5.64
