Data from 2938724__Reflection_01.txt Node
Date: Sun Mar 15 20:20:00 EDT 2015
User: robert
Spectrometer: USB4E03002
Autoset integration time: false
Trigger mode: 4
Integration Time (sec): 1.000000E-1
Scans to average: 10
Electric dark correction enabled: false
Nonlinearity correction enabled: false
Boxcar width: 5
Stray light correction enabled: false
XAxis mode: Wavelengths
Stop averaging: false
Number of Pixels in Spectrum: 3648
>>>>>Begin Spectral Data<<<<<
177.575	-6.7
177.794	48.92
178.014	27.37
178.233	30.55
178.452	54.94
178.672	52.24
178.891	62.46
179.11	92.65
179.33	98.37
179.549	184.62
179.768	134.91
179.987	176.77
180.207	730.77
180.426	285.71
180.645	-67.86
180.864	59.24
181.084	-9.68
181.303	189.47
181.522	87.77
181.741	233.01
181.96	44.55
182.179	-62.5
182.398	87.39
182.618	91.01
182.837	77.38
183.056	71.29
183.275	86.38
183.494	51.51
183.713	73.17
183.932	70.86
184.151	58.85
184.37	65.15
184.589	98.44
184.808	60.13
185.027	76.81
185.246	70.34
185.465	53.53
185.684	23.18
185.903	4.12
186.122	-24.1
186.341	8.41
186.56	9.18
186.779	41.71
186.998	34.44
187.216	62.5
187.435	43.01
187.654	47.03
187.873	57.45
188.092	108.91
188.311	127.66
188.53	384.94
188.748	-4363.64
188.967	-885.71
189.186	710.71
189.405	159.83
189.623	311.63
189.842	-24.46
190.061	-34.3
190.28	15.74
190.498	26.65
190.717	-48.26
190.936	-196.61
191.154	220.39
191.373	339.58
191.592	-824.39
191.81	-116.42
192.029	-294.05
192.248	-46.82
192.466	-92.57
192.685	-317.39
192.904	-63.08
193.122	-23.01
193.341	19.34
193.559	58.33
193.778	89.78
193.996	185.71
194.215	44.64
194.433	-553.12
194.652	23.29
194.87	50.28
195.089	60.19
195.307	53.46
195.526	29.98
195.744	32.51
195.963	35.51
196.181	48.59
196.399	59.93
196.618	62.03
196.836	80.81
197.055	67.79
197.273	17.49
197.491	-22.02
197.71	-83.13
197.928	1000
198.146	92.08
198.365	19.29
198.583	56.85
198.801	-32.24
199.019	21.26
199.238	-31.11
199.456	-808.11
199.674	637.93
199.892	5744.44
200.111	-736.51
200.329	-1694.12
200.547	681.25
200.765	148.51
200.983	90
201.202	32.26
201.42	79.47
201.638	51.84
201.856	-41.63
202.074	-30.43
202.292	-19.88
202.51	9.32
202.728	43.21
202.946	56.55
203.165	58.13
203.383	87.6
203.601	200
203.819	55.56
204.037	54.3
204.255	68.62
204.473	127.78
204.691	168.14
204.909	217.11
205.127	181.78
205.345	148.06
205.562	300
205.78	133.26
205.998	119.14
206.216	122.99
206.434	192.23
206.652	216.58
206.87	165.2
207.088	159.3
207.306	180.29
207.523	195.4
207.741	213.08
207.959	143.04
208.177	115.35
208.395	75.95
208.612	128.1
208.83	75.77
209.048	42.21
209.266	40.12
209.483	13.98
209.701	-119.4
209.919	-207.89
210.136	-42.96
210.354	123.81
210.572	146.11
210.79	129.11
211.007	127.4
211.225	104.64
211.442	53.99
211.66	72.81
211.878	78.56
212.095	82.53
212.313	88.26
212.53	78.36
212.748	54.99
212.966	64.26
213.183	63.11
213.401	60.46
213.618	80
213.836	100.88
214.053	117.52
214.271	104.95
214.488	138.55
214.705	106.82
214.923	109.21
215.14	112.29
215.358	184.3
215.575	211.88
215.793	257.45
216.01	229.11
216.227	277.23
216.445	200.57
216.662	229.96
216.879	124.63
217.097	130.45
217.314	158.46
217.531	176.7
217.749	134.89
217.966	108.08
218.183	74.23
218.4	60.3
218.618	72.24
218.835	68.5
219.052	77.64
219.269	84.57
219.487	88.92
219.704	78.79
219.921	56.64
220.138	48.46
220.355	52.64
220.572	56.8
220.79	49.54
221.007	41.55
221.224	35.88
221.441	19.46
221.658	24.33
221.875	17.47
222.092	7.39
222.309	22.2
222.526	21.15
222.743	19.37
222.96	12.98
223.177	14.46
223.394	9.6
223.611	14.12
223.828	13.94
224.045	9.45
224.262	10.33
224.479	11.14
224.696	12.72
224.913	14.49
225.13	15.84
225.347	8.96
225.564	9.35
225.781	5.7
225.997	0.48
226.214	1.15
226.431	1.74
226.648	4.71
226.865	3.14
227.082	-2.53
227.298	-5.94
227.515	-4.81
227.732	0.03
227.949	-0.08
228.165	1.15
228.382	2.64
228.599	1.78
228.816	1.78
229.032	0.31
229.249	0.2
229.466	1.47
229.682	1.92
229.899	1.36
230.116	1.35
230.332	0.8
230.549	1.19
230.765	-0.95
230.982	-0.08
231.199	-1.49
231.415	-0.83
231.632	-1.82
231.848	-3.73
232.065	-3.86
232.281	-2.84
232.498	-4.89
232.714	-4.24
232.931	-5.76
233.147	-2.57
233.364	-3.92
233.58	-4.35
233.797	-5.05
234.013	-3.11
234.23	-2.06
234.446	0.83
234.662	-1.05
234.879	-0.46
235.095	-1.5
235.312	1.42
235.528	0.41
235.744	1.5
235.961	3.75
236.177	3.13
236.393	4.42
236.61	3.8
236.826	0.63
237.042	2.2
237.258	4.2
237.475	3.74
237.691	1.36
237.907	1.54
238.123	-1.14
238.339	-2.69
238.556	0.95
238.772	-2.19
238.988	-1.49
239.204	-1.41
239.42	1.19
239.636	-0.61
239.853	4.16
240.069	4.02
240.285	2.66
240.501	3.63
240.717	4.5
240.933	2.23
241.149	3.11
241.365	3.08
241.581	3.35
241.797	2.24
242.013	2.78
242.229	1.92
242.445	1.77
242.661	1.56
242.877	1.2
243.093	1.06
243.309	1.66
243.525	1.57
243.741	1.64
243.957	2.92
244.173	2.82
244.388	2.16
244.604	2.22
244.82	1.88
245.036	2.56
245.252	2.92
245.468	2.54
245.683	1.83
245.899	1.06
246.115	0.76
246.331	0.04
246.547	0.14
246.762	-0.04
246.978	-0.3
247.194	-0.1
247.409	-0.17
247.625	0.16
247.841	0.35
248.057	0.69
248.272	0.7
248.488	1.42
248.703	1.18
248.919	1.36
249.135	1.52
249.35	1.33
249.566	1.18
249.782	1.84
249.997	1.09
250.213	0.44
250.428	-0.32
250.644	0.29
250.859	-0.58
251.075	-0.08
251.29	0.26
251.506	0.93
251.721	1.31
251.937	1.57
252.152	1.31
252.368	0.95
252.583	1.55
252.798	1.87
253.014	1.56
253.229	1.46
253.445	1.53
253.66	0.57
253.875	-0.05
254.091	-0.09
254.306	0.15
254.521	-0.05
254.737	2.1
254.952	1.66
255.167	1.19
255.383	1.47
255.598	-0.07
255.813	-0.22
256.028	-0.75
256.244	0.22
256.459	0.9
256.674	1.27
256.889	1.08
257.104	-0.24
257.32	-0.31
257.535	0.59
257.75	0.27
257.965	1.4
258.18	1.66
258.395	1.63
258.61	1.2
258.826	0.91
259.041	0.4
259.256	0.3
259.471	0.54
259.686	0.37
259.901	0.07
260.116	0.59
260.331	0.59
260.546	0.54
260.761	0.58
260.976	0.58
261.191	0.66
261.406	1.04
261.621	1.24
261.836	1.12
262.05	1.55
262.265	2.46
262.48	2.24
262.695	1.7
262.91	1.85
263.125	1.99
263.34	2.57
263.555	2.2
263.769	2.78
263.984	2.79
264.199	2.73
264.414	1.79
264.629	0.22
264.843	0.09
265.058	0.89
265.273	0.65
265.488	0.39
265.702	-0.52
265.917	-0.09
266.132	-0.89
266.346	-0.27
266.561	-0.2
266.776	0.78
266.99	1.28
267.205	0.93
267.42	1.19
267.634	1.1
267.849	1.85
268.063	2.19
268.278	2.07
268.492	2.38
268.707	2.05
268.922	2.16
269.136	2.46
269.351	2.3
269.565	2.56
269.78	1.89
269.994	2.71
270.209	2.16
270.423	2.14
270.637	2.26
270.852	2.09
271.066	2.24
271.281	2.31
271.495	1.96
271.709	1.9
271.924	1.78
272.138	1.56
272.353	0.79
272.567	1.25
272.781	0.88
272.996	0.57
273.21	0.38
273.424	0.23
273.638	-0.32
273.853	-0.08
274.067	0.04
274.281	0.78
274.495	1.19
274.71	1.39
274.924	0.6
275.138	1.19
275.352	1.51
275.566	1.17
275.781	0.43
275.995	0.83
276.209	0.43
276.423	0.23
276.637	-0.36
276.851	-0.6
277.065	-0.16
277.279	-0.01
277.493	0.07
277.707	0.12
277.921	0.59
278.135	1.39
278.349	1.58
278.563	1.68
278.777	1.54
278.991	2.05
279.205	1.91
279.419	2.63
279.633	3
279.847	2.32
280.061	2.13
280.275	1.92
280.489	1.66
280.703	1.43
280.917	1.45
281.131	1.36
281.344	0.84
281.558	1.16
281.772	0.2
281.986	-0.07
282.2	0.63
282.414	0.91
282.627	0.81
282.841	0.85
283.055	0.55
283.269	0.82
283.482	1.1
283.696	1.33
283.91	1.29
284.123	1.24
284.337	1.77
284.551	1.52
284.764	1.06
284.978	1.35
285.192	1.39
285.405	2.03
285.619	1.78
285.833	1.72
286.046	1.25
286.26	1.11
286.473	1.02
286.687	0.56
286.9	0.37
287.114	0.29
287.327	0.15
287.541	0.32
287.754	-0.11
287.968	-0.15
288.181	0.11
288.395	0.5
288.608	0.2
288.822	0.59
289.035	0.52
289.248	0.37
289.462	0.76
289.675	0.76
289.889	0.58
290.102	0.59
290.315	0.65
290.529	0.52
290.742	0.93
290.955	1.35
291.169	1.53
291.382	1.55
291.595	2.18
291.808	1.98
292.022	1.67
292.235	1.56
292.448	1.13
292.661	1.15
292.875	1.07
293.088	0.58
293.301	0.9
293.514	0.39
293.727	0.73
293.94	0.48
294.153	0.62
294.367	1.66
294.58	1.9
294.793	2.47
295.006	2.3
295.219	2.32
295.432	2.34
295.645	2.14
295.858	2.41
296.071	2.31
296.284	2.1
296.497	2.32
296.71	1.84
296.923	1.64
297.136	1.28
297.349	1.23
297.562	1.27
297.775	1.24
297.988	1.36
298.201	1.15
298.414	1.38
298.626	1.38
298.839	1.14
299.052	1.31
299.265	1.14
299.478	1.34
299.691	1.55
299.903	1.67
300.116	1.62
300.329	1.14
300.542	1.24
300.755	1.08
300.967	0.96
301.18	0.71
301.393	0.53
301.605	0.97
301.818	0.88
302.031	0.56
302.243	0.45
302.456	0.45
302.669	0.92
302.881	0.6
303.094	0.47
303.307	0.82
303.519	1.47
303.732	1.56
303.944	1.15
304.157	1.37
304.37	1.3
304.582	1.15
304.795	1.06
305.007	0.89
305.22	1.23
305.432	1.32
305.645	1.33
305.857	0.85
306.069	0.7
306.282	1.05
306.494	1.17
306.707	1.51
306.919	1.68
307.132	1.64
307.344	2.06
307.556	1.91
307.769	1.28
307.981	1.47
308.193	1.61
308.406	1.53
308.618	1.67
308.83	1.43
309.043	1
309.255	1.37
309.467	1.84
309.679	1.74
309.892	2.2
310.104	2.69
310.316	2.54
310.528	2.51
310.74	2.64
310.953	2.28
311.165	2.27
311.377	2.59
311.589	2.26
311.801	2.11
312.013	1.9
312.225	1.58
312.437	1.57
312.649	1.83
312.862	1.8
313.074	1.69
313.286	2.01
313.498	2.12
313.71	2.26
313.922	2.34
314.134	2.25
314.346	1.94
314.558	2.12
314.77	2.12
314.982	1.61
315.193	1.72
315.405	1.65
315.617	1.49
315.829	1.37
316.041	1.22
316.253	1.16
316.465	0.96
316.677	1.28
316.888	1.16
317.1	0.58
317.312	0.87
317.524	0.88
317.736	1.16
317.947	1.63
318.159	1.85
318.371	2.11
318.583	2
318.794	2.72
319.006	3.16
319.218	2.99
319.43	3.27
319.641	3.35
319.853	3.38
320.064	3.65
320.276	3.25
320.488	3.18
320.699	3.18
320.911	2.99
321.123	2.76
321.334	2.1
321.546	1.87
321.757	2.41
321.969	2.75
322.18	2.66
322.392	2.38
322.603	2.46
322.815	3.27
323.026	3.5
323.238	4.14
323.449	4.17
323.661	4.74
323.872	5.25
324.083	5.04
324.295	4.92
324.506	5.02
324.718	5.04
324.929	5.13
325.14	4.78
325.352	4.56
325.563	4.29
325.774	4.3
325.986	4.29
326.197	4.15
326.408	4.11
326.62	4.29
326.831	4.37
327.042	4.74
327.253	4.78
327.464	4.69
327.676	4.89
327.887	5.57
328.098	6.11
328.309	6.46
328.52	6.44
328.732	6.37
328.943	6.13
329.154	6.41
329.365	5.95
329.576	6.48
329.787	6.6
329.998	6.72
330.209	6.29
330.42	5.95
330.631	5.76
330.842	6.08
331.053	6.59
331.264	7.07
331.475	6.98
331.686	7.34
331.897	7.07
332.108	6.89
332.319	7.11
332.53	7.05
332.741	7.2
332.952	7.09
333.163	7.2
333.374	7.2
333.585	6.76
333.795	7.1
334.006	7.21
334.217	6.82
334.428	6.98
334.639	6.84
334.849	6.91
335.06	6.58
335.271	6.41
335.482	6.26
335.692	6.43
335.903	6.39
336.114	6.18
336.325	6.07
336.535	6.26
336.746	6.74
336.957	6.83
337.167	6.92
337.378	7.51
337.589	7.47
337.799	7.79
338.01	7.37
338.22	7.69
338.431	7.72
338.642	7.99
338.852	8.07
339.063	7.97
339.273	7.96
339.484	7.94
339.694	7.34
339.905	7.43
340.115	7.49
340.326	7.59
340.536	7.5
340.746	7.28
340.957	6.97
341.167	7.09
341.378	6.83
341.588	6.59
341.799	6.53
342.009	6.71
342.219	6.79
342.43	6.43
342.64	6.62
342.85	6.9
343.061	7.03
343.271	7.55
343.481	7.54
343.691	7.49
343.902	7.63
344.112	7.71
344.322	7.55
344.532	7.36
344.743	7.22
344.953	7.48
345.163	7.47
345.373	7.37
345.583	6.87
345.793	6.94
346.004	7.21
346.214	6.86
346.424	6.83
346.634	7.19
346.844	7.97
347.054	8.32
347.264	8.12
347.474	7.68
347.684	7.73
347.894	7.95
348.104	8.22
348.314	8.12
348.524	8.28
348.734	8.18
348.944	7.66
349.154	7.14
349.364	6.83
349.574	6.75
349.784	6.78
349.994	6.77
350.204	7
350.413	6.8
350.623	6.82
350.833	7.15
351.043	7.3
351.253	7.62
351.463	7.68
351.672	7.79
351.882	7.95
352.092	8.51
352.302	8.62
352.511	8.21
352.721	8.09
352.931	8.05
353.141	7.95
353.35	8
353.56	8.16
353.77	7.91
353.979	7.99
354.189	7.85
354.399	7.55
354.608	7.39
354.818	7.55
355.027	7.41
355.237	7.22
355.447	7.14
355.656	7.04
355.866	6.85
356.075	7.14
356.285	7.12
356.494	6.9
356.704	6.97
356.913	7
357.123	6.98
357.332	7.15
357.542	7.3
357.751	7.49
357.96	7.43
358.17	7.41
358.379	7.42
358.589	7.36
358.798	7.47
359.007	7.17
359.217	7.07
359.426	6.92
359.635	6.87
359.845	6.89
360.054	6.67
360.263	6.77
360.472	6.85
360.682	6.7
360.891	6.65
361.1	6.85
361.309	6.85
361.519	7.05
361.728	7.07
361.937	7.21
362.146	6.99
362.355	7.11
362.564	7.21
362.774	7.11
362.983	7.3
363.192	7.47
363.401	7.11
363.61	7.11
363.819	6.9
364.028	6.85
364.237	6.78
364.446	7.02
364.655	6.89
364.864	6.69
365.073	6.77
365.282	6.49
365.491	6.43
365.7	6.6
365.909	6.77
366.118	6.79
366.327	6.87
366.536	6.71
366.745	6.6
366.954	6.71
367.162	6.66
367.371	6.48
367.58	6.64
367.789	6.77
367.998	6.68
368.207	6.89
368.415	6.97
368.624	7.01
368.833	7.03
369.042	7.15
369.25	7.16
369.459	7.11
369.668	7.23
369.877	7.06
370.085	7.03
370.294	7.44
370.503	7.05
370.711	7.09
370.92	6.93
371.129	6.73
371.337	6.63
371.546	6.42
371.754	6.43
371.963	6.29
372.171	6.45
372.38	6.32
372.589	6.21
372.797	6.53
373.006	6.5
373.214	6.54
373.423	6.84
373.631	6.78
373.84	6.97
374.048	7.14
374.256	7.26
374.465	7.04
374.673	7.13
374.882	6.96
375.09	6.74
375.298	6.65
375.507	6.72
375.715	6.84
375.923	6.92
376.132	6.88
376.34	6.67
376.548	6.8
376.757	6.94
376.965	6.84
377.173	6.82
377.381	6.72
377.59	6.69
377.798	6.79
378.006	6.5
378.214	6.47
378.423	6.29
378.631	6.44
378.839	6.14
379.047	6.06
379.255	6.17
379.463	6.2
379.671	6.29
379.879	6.32
380.088	6.3
380.296	6.33
380.504	6.45
380.712	6.49
380.92	6.49
381.128	6.76
381.336	7.01
381.544	6.8
381.752	7.01
381.96	6.82
382.168	7.04
382.376	6.54
382.584	6.88
382.791	6.83
382.999	7.02
383.207	7.08
383.415	6.86
383.623	6.47
383.831	6.63
384.039	6.37
384.247	6.73
384.454	6.66
384.662	6.97
384.87	6.9
385.078	6.93
385.285	6.86
385.493	6.87
385.701	7.14
385.909	7.14
386.116	6.99
386.324	7.19
386.532	7.05
386.739	7.06
386.947	7.07
387.155	6.93
387.362	7.18
387.57	7.14
387.778	6.97
387.985	6.93
388.193	6.92
388.4	7.11
388.608	6.86
388.816	7.07
389.023	7.15
389.231	7.22
389.438	7.19
389.646	6.67
389.853	6.77
390.061	6.63
390.268	6.62
390.475	6.77
390.683	6.73
390.89	6.69
391.098	6.62
391.305	6.44
391.512	6.57
391.72	6.65
391.927	6.64
392.135	6.55
392.342	6.77
392.549	6.76
392.756	6.72
392.964	6.61
393.171	6.72
393.378	6.58
393.586	6.59
393.793	6.4
394	6.28
394.207	6.23
394.414	6.4
394.622	6.48
394.829	6.45
395.036	6.58
395.243	6.46
395.45	6.35
395.657	6.5
395.864	6.57
396.072	6.76
396.279	6.68
396.486	6.84
396.693	6.67
396.9	6.47
397.107	6.54
397.314	6.3
397.521	6.28
397.728	6.53
397.935	6.29
398.142	6.33
398.349	6.02
398.556	6.05
398.763	6.04
398.97	5.9
399.177	5.84
399.383	5.64
399.59	5.74
399.797	5.89
400.004	5.82
400.211	5.95
400.418	5.98
400.625	6.01
400.831	5.98
401.038	6.02
401.245	6.38
401.452	6.42
401.658	6.53
401.865	6.61
402.072	6.71
402.279	6.76
402.485	6.62
402.692	6.54
402.899	6.88
403.105	7.15
403.312	7.31
403.519	7.35
403.725	7.4
403.932	7.51
404.138	7.55
404.345	7.62
404.552	7.52
404.758	7.62
404.965	7.69
405.171	7.61
405.378	7.52
405.584	7.35
405.791	7.1
405.997	7.05
406.204	6.97
406.41	6.89
406.617	6.78
406.823	6.8
407.029	6.87
407.236	6.92
407.442	6.74
407.649	6.66
407.855	6.72
408.061	6.85
408.268	6.89
408.474	6.88
408.68	6.8
408.887	6.87
409.093	6.87
409.299	6.77
409.505	6.63
409.712	6.67
409.918	6.77
410.124	6.69
410.33	6.49
410.537	6.47
410.743	6.47
410.949	6.6
411.155	6.63
411.361	6.73
411.567	6.82
411.773	6.84
411.98	6.8
412.186	6.73
412.392	6.89
412.598	7.05
412.804	7.06
413.01	7.18
413.216	7.24
413.422	7.2
413.628	7.01
413.834	6.99
414.04	6.92
414.246	7.02
414.452	7.11
414.658	7.13
414.864	7.18
415.07	7.26
415.275	7.13
415.481	6.98
415.687	6.8
415.893	6.83
416.099	6.87
416.305	6.91
416.511	6.86
416.716	6.75
416.922	6.74
417.128	6.56
417.334	6.62
417.539	6.58
417.745	6.54
417.951	6.6
418.157	6.7
418.362	6.7
418.568	6.63
418.774	6.64
418.979	6.67
419.185	6.56
419.391	6.64
419.596	6.61
419.802	6.65
420.008	6.8
420.213	6.92
420.419	6.85
420.624	6.83
420.83	6.86
421.035	6.82
421.241	6.87
421.446	6.89
421.652	6.93
421.857	6.91
422.063	6.84
422.268	6.67
422.474	6.61
422.679	6.65
422.885	6.62
423.09	6.69
423.295	6.69
423.501	6.65
423.706	6.68
423.911	6.63
424.117	6.58
424.322	6.63
424.527	6.63
424.733	6.57
424.938	6.48
425.143	6.45
425.349	6.44
425.554	6.5
425.759	6.53
425.964	6.5
426.169	6.5
426.375	6.51
426.58	6.54
426.785	6.53
426.99	6.54
427.195	6.6
427.4	6.63
427.605	6.65
427.811	6.53
428.016	6.4
428.221	6.62
428.426	6.56
428.631	6.65
428.836	6.59
429.041	6.83
429.246	6.9
429.451	6.83
429.656	6.94
429.861	6.85
430.066	6.93
430.271	7.01
430.476	6.8
430.681	6.76
430.886	6.68
431.09	6.81
431.295	6.68
431.5	6.7
431.705	6.76
431.91	6.64
432.115	6.6
432.32	6.56
432.524	6.68
432.729	6.69
432.934	6.67
433.139	6.66
433.343	6.69
433.548	6.88
433.753	7.05
433.958	7.39
434.162	7.74
434.367	8.06
434.572	8.4
434.776	8.53
434.981	8.73
435.186	9.09
435.39	9.37
435.595	9.48
435.799	9.43
436.004	9.25
436.209	8.97
436.413	8.73
436.618	8.6
436.822	8.42
437.027	8.09
437.231	7.94
437.436	7.79
437.64	7.59
437.845	7.47
438.049	7.27
438.253	7.26
438.458	7.22
438.662	7.18
438.867	7
439.071	6.91
439.275	7.04
439.48	7.04
439.684	6.99
439.888	6.99
440.093	6.96
440.297	6.97
440.501	7
440.706	6.99
440.91	6.98
441.114	7.03
441.318	7
441.523	7.08
441.727	7.08
441.931	7.12
442.135	7.17
442.339	7.25
442.543	7.33
442.748	7.29
442.952	7.32
443.156	7.24
443.36	7.21
443.564	7.24
443.768	7.19
443.972	7.14
444.176	7.13
444.38	7.13
444.584	7.07
444.788	7.01
444.992	7.02
445.196	7.08
445.4	7.2
445.604	7.21
445.808	7.16
446.012	7.1
446.216	7.14
446.42	7.05
446.624	6.99
446.828	6.96
447.032	7.01
447.235	7.08
447.439	7.02
447.643	6.99
447.847	6.99
448.051	7.07
448.254	7.07
448.458	7.05
448.662	7.14
448.866	7.19
449.069	7.24
449.273	7.22
449.477	7.12
449.681	7.13
449.884	7.07
450.088	7.04
450.292	7.07
450.495	7.12
450.699	7.14
450.902	7.18
451.106	7.17
451.31	7.13
451.513	7.13
451.717	7.13
451.92	7.19
452.124	7.17
452.327	7.15
452.531	6.95
452.734	6.95
452.938	7.01
453.141	7.01
453.345	6.94
453.548	6.84
453.752	6.78
453.955	6.78
454.158	6.72
454.362	6.77
454.565	6.81
454.769	6.95
454.972	6.97
455.175	6.96
455.379	6.86
455.582	6.84
455.785	6.96
455.988	7.02
456.192	7.03
456.395	7.18
456.598	7.01
456.801	6.98
457.005	6.93
457.208	6.98
457.411	6.92
457.614	6.95
457.817	7.07
458.021	7.12
458.224	7.11
458.427	7.11
458.63	6.93
458.833	7
459.036	7.07
459.239	7.09
459.442	6.93
459.645	6.93
459.848	6.88
460.051	6.76
460.254	6.68
460.457	6.7
460.66	6.72
460.863	6.82
461.066	6.8
461.269	6.79
461.472	6.82
461.675	6.9
461.878	6.86
462.081	6.93
462.284	6.97
462.486	6.99
462.689	6.87
462.892	6.86
463.095	6.81
463.298	6.87
463.5	7
463.703	6.98
463.906	7.03
464.109	7.07
464.311	7.18
464.514	7.3
464.717	7.4
464.92	7.66
465.122	7.68
465.325	7.75
465.528	7.67
465.73	7.44
465.933	7.5
466.135	7.51
466.338	7.56
466.541	7.52
466.743	7.49
466.946	7.49
467.148	7.36
467.351	7.42
467.553	7.39
467.756	7.44
467.958	7.5
468.161	7.27
468.363	7.18
468.566	7.16
468.768	7.06
468.971	6.96
469.173	6.9
469.375	6.93
469.578	6.81
469.78	6.72
469.983	6.73
470.185	6.66
470.387	6.78
470.59	6.88
470.792	6.81
