Data from 2938722__Reflection_03.txt Node
Date: Tue Mar 17 10:37:14 EDT 2015
User: robert
Spectrometer: USB4E03002
Autoset integration time: false
Trigger mode: 4
Integration Time (sec): 1.000000E-1
Scans to average: 10
Electric dark correction enabled: false
Nonlinearity correction enabled: false
Boxcar width: 5
Stray light correction enabled: false
XAxis mode: Wavelengths
Stop averaging: false
Number of Pixels in Spectrum: 3648
>>>>>Begin Spectral Data<<<<<
177.575	352.13
177.794	634.48
178.014	1121.21
178.233	-442.66
178.452	-340.24
178.672	-1111.76
178.891	-321.71
179.11	-220.87
179.33	-81.86
179.549	-530.56
179.768	-137.3
179.987	-390.24
180.207	-157.84
180.426	2025
180.645	264.59
180.864	471.43
181.084	1650
181.303	-1723.64
181.522	-585.29
181.741	2328.26
181.96	-633.13
182.179	-619.13
182.398	-654.45
182.618	-9214.29
182.837	-1721.54
183.056	990.48
183.275	509.9
183.494	1026.03
183.713	272
183.932	270.39
184.151	405.44
184.37	135.33
184.589	92.49
184.808	61.51
185.027	93.46
185.246	116.22
185.465	79.94
185.684	57.14
185.903	74.69
186.122	40.05
186.341	25.34
186.56	44.55
186.779	90.05
186.998	99.23
187.216	-108.85
187.435	-529.41
187.654	212.77
187.873	635.56
188.092	1035.48
188.311	-1825
188.53	-550.62
188.748	-160.48
188.967	-134.14
189.186	-252.24
189.405	-995.45
189.623	596
189.842	240
190.061	272.83
190.28	390.6
190.498	348.99
190.717	300.74
190.936	207.54
191.154	188.55
191.373	149.64
191.592	132.93
191.81	140.33
192.029	143.46
192.248	131.84
192.466	125.13
192.685	128.6
192.904	142.95
193.122	162.15
193.341	191.74
193.559	212.2
193.778	407.95
193.996	395.45
194.215	465.54
194.433	290.44
194.652	383.33
194.87	592.95
195.089	336.69
195.307	219.1
195.526	235
195.744	256.84
195.963	280
196.181	314.72
196.399	307.69
196.618	281.66
196.836	647.87
197.055	468.46
197.273	283.57
197.491	433.33
197.71	2891.67
197.928	860
198.146	1161.9
198.365	373.1
198.583	551.41
198.801	395.33
199.019	637.7
199.238	324.3
199.456	271.54
199.674	688.04
199.892	302.47
200.111	432.96
200.329	429.67
200.547	202.62
200.765	220.9
200.983	172.41
201.202	190.83
201.42	169.62
201.638	136.01
201.856	136.36
202.074	108.94
202.292	268.48
202.51	214.61
202.728	300
202.946	-896.3
203.165	-4140
203.383	13900
203.601	602.3
203.819	1669.23
204.037	-5000
204.255	-635.96
204.473	997.3
204.691	301.38
204.909	233.1
205.127	201.42
205.345	126.53
205.562	312.43
205.78	290.7
205.998	575.28
206.216	433.98
206.434	2382.35
206.652	508.54
206.87	-721.95
207.088	1438.24
207.306	355.62
207.523	-5036.36
207.741	-5530
207.959	381.94
208.177	226.9
208.395	166.35
208.612	251.14
208.83	138.41
209.048	204.03
209.266	331.19
209.483	316.67
209.701	507.02
209.919	117.28
210.136	143.97
210.354	160.11
210.572	151.45
210.79	241.79
211.007	174.13
211.225	339.91
211.442	202.84
211.66	150.83
211.878	178.69
212.095	157.01
212.313	171.5
212.53	124.07
212.748	106.35
212.966	110.8
213.183	112.26
213.401	108.77
213.618	102.17
213.836	99.61
214.053	102.95
214.271	80.45
214.488	95.05
214.705	68.11
214.923	92.25
215.14	179.7
215.358	148.29
215.575	141.77
215.793	133.33
216.01	58.31
216.227	39.66
216.445	22.88
216.662	54.17
216.879	58.26
217.097	61.67
217.314	83.33
217.531	75.38
217.749	64.79
217.966	80.48
218.183	74.94
218.4	117.37
218.618	109.04
218.835	129.97
219.052	101.36
219.269	90.16
219.487	100.88
219.704	87.43
219.921	96.35
220.138	114.05
220.355	60.23
220.572	65.16
220.79	38.24
221.007	42.98
221.224	23.16
221.441	42.21
221.658	45.51
221.875	50.52
222.092	43.52
222.309	38.21
222.526	33.76
222.743	46.24
222.96	45.67
223.177	49.67
223.394	48.71
223.611	48.41
223.828	47.86
224.045	44.81
224.262	39.14
224.479	41.39
224.696	37.83
224.913	33.73
225.13	26.53
225.347	21.67
225.564	21.36
225.781	21.56
225.997	21.47
226.214	19.65
226.431	16.46
226.648	15.78
226.865	11.08
227.082	11.65
227.298	9.94
227.515	11.02
227.732	9.28
227.949	7.92
228.165	7.42
228.382	6.14
228.599	5.39
228.816	6.05
229.032	4.46
229.249	4.75
229.466	4.88
229.682	5.25
229.899	5.24
230.116	6.24
230.332	6.54
230.549	6.04
230.765	7.66
230.982	7.07
231.199	7.56
231.415	9.12
231.632	7.65
231.848	7.22
232.065	8.18
232.281	6.28
232.498	6.05
232.714	8.37
232.931	8.49
233.147	6.22
233.364	8.73
233.58	7.59
233.797	8.63
234.013	9.69
234.23	9.51
234.446	8.94
234.662	9.12
234.879	6.98
235.095	5.02
235.312	5.42
235.528	6.2
235.744	3.85
235.961	4.05
236.177	2.4
236.393	4.74
236.61	4.96
236.826	5.46
237.042	6.13
237.258	7.76
237.475	6.99
237.691	5.41
237.907	3.94
238.123	4.43
238.339	4.02
238.556	5.52
238.772	4.7
238.988	2.72
239.204	2.4
239.42	2.72
239.636	2.96
239.853	2.37
240.069	3.2
240.285	4.3
240.501	3.13
240.717	2.58
240.933	2.61
241.149	2
241.365	2.98
241.581	3.84
241.797	3.73
242.013	3.78
242.229	3.97
242.445	4.24
242.661	4.4
242.877	5.57
243.093	6.18
243.309	5.5
243.525	5.78
243.741	6.09
243.957	6.02
244.173	5.97
244.388	5.57
244.604	5.8
244.82	5.56
245.036	5.01
245.252	5.01
245.468	5.06
245.683	5.69
245.899	5.48
246.115	5.54
246.331	5
246.547	5.28
246.762	5.35
246.978	5.37
247.194	5.56
247.409	6.03
247.625	5.71
247.841	5.39
248.057	5.17
248.272	5.24
248.488	4.89
248.703	4.79
248.919	4.54
249.135	4.32
249.35	3.94
249.566	3.02
249.782	1.61
249.997	1.81
250.213	1.55
250.428	1.08
250.644	0.94
250.859	1.25
251.075	2.03
251.29	2.43
251.506	3.3
251.721	4.09
251.937	4.63
252.152	5.41
252.368	4.8
252.583	5.42
252.798	5.66
253.014	5.28
253.229	5.91
253.445	5
253.66	5.41
253.875	5.1
254.091	4.41
254.306	4.22
254.521	3.36
254.737	3.48
254.952	2.67
255.167	3.61
255.383	4.33
255.598	3.04
255.813	3.37
256.028	3.41
256.244	3.61
256.459	3.74
256.674	4.03
256.889	3.88
257.104	4.75
257.32	4.6
257.535	4.09
257.75	3.55
257.965	4.17
258.18	4.48
258.395	4.38
258.61	4.35
258.826	4.34
259.041	4.3
259.256	4.82
259.471	4.4
259.686	4.32
259.901	4.33
260.116	4.75
260.331	4.59
260.546	4.6
260.761	4.39
260.976	4.2
261.191	4.49
261.406	4.28
261.621	4.01
261.836	4.18
262.05	4.51
262.265	4.07
262.48	3.74
262.695	3.59
262.91	3.71
263.125	3.47
263.34	3.45
263.555	3.3
263.769	3.66
263.984	3.12
264.199	3.44
264.414	3.48
264.629	4.31
264.843	4.21
265.058	4.4
265.273	4.57
265.488	5.16
265.702	5.32
265.917	4.61
266.132	4.93
266.346	5.59
266.561	5.1
266.776	5.3
266.99	4.73
267.205	4.39
267.42	4.32
267.634	3.61
267.849	3.32
268.063	3.05
268.278	3.47
268.492	2.9
268.707	2.72
268.922	2.9
269.136	3.04
269.351	3.45
269.565	4.07
269.78	3.28
269.994	3.57
270.209	3.38
270.423	3.85
270.637	3.42
270.852	3.63
271.066	3.91
271.281	3.86
271.495	3.76
271.709	3.73
271.924	3.7
272.138	4
272.353	3.85
272.567	4.33
272.781	4.1
272.996	4.52
273.21	4.25
273.424	4.42
273.638	4.16
273.853	3.61
274.067	3.88
274.281	3.49
274.495	3.45
274.71	3.44
274.924	2.84
275.138	2.59
275.352	2.4
275.566	2.6
275.781	1.78
275.995	1.73
276.209	1.57
276.423	1.25
276.637	1.81
276.851	2.51
277.065	3.13
277.279	3
277.493	3.16
277.707	3.19
277.921	3.12
278.135	2.94
278.349	3.37
278.563	3.61
278.777	3.71
278.991	3.58
279.205	3.4
279.419	3
279.633	3.29
279.847	3.65
280.061	3.49
280.275	4.21
280.489	4.65
280.703	4.3
280.917	4.62
281.131	4.74
281.344	4.58
281.558	4.44
281.772	4.8
281.986	4.61
282.2	4.31
282.414	4.41
282.627	4.44
282.841	4.44
283.055	4.36
283.269	4.15
283.482	3.91
283.696	3.79
283.91	3.52
284.123	3.39
284.337	3.41
284.551	3.38
284.764	3.37
284.978	3.04
285.192	3.04
285.405	3.24
285.619	3.47
285.833	3.51
286.046	3.48
286.26	3.64
286.473	3.57
286.687	4.06
286.9	4.13
287.114	4.25
287.327	4.43
287.541	4.02
287.754	4.02
287.968	3.56
288.181	3.64
288.395	4.12
288.608	4.38
288.822	4.6
289.035	4.26
289.248	4.41
289.462	4.2
289.675	3.87
289.889	4.42
290.102	4.23
290.315	4.37
290.529	4.29
290.742	3.92
290.955	3.65
291.169	3.28
291.382	3.31
291.595	3.53
291.808	3.5
292.022	3.64
292.235	3.53
292.448	3.99
292.661	4.33
292.875	4.83
293.088	5.26
293.301	5.23
293.514	5.58
293.727	5.58
293.94	5.48
294.153	5.5
294.367	5.66
294.58	5.66
294.793	5.6
295.006	5.75
295.219	5.48
295.432	5.28
295.645	5.24
295.858	5.42
296.071	5.26
296.284	5.09
296.497	5.2
296.71	5.29
296.923	5.36
297.136	5.45
297.349	5.11
297.562	5.04
297.775	5.15
297.988	5.24
298.201	5.06
298.414	5.11
298.626	5.05
298.839	5.24
299.052	5.14
299.265	5.19
299.478	5.08
299.691	5.53
299.903	5.78
300.116	5.66
300.329	5.53
300.542	5.68
300.755	6
300.967	6.21
301.18	6
301.393	6.03
301.605	5.66
301.818	5.61
302.031	5.42
302.243	5.4
302.456	5.72
302.669	6.41
302.881	6.43
303.094	6.56
303.307	6.65
303.519	6.39
303.732	6.62
303.944	6.8
304.157	6.96
304.37	7.32
304.582	7.48
304.795	7.22
305.007	6.82
305.22	7.11
305.432	6.97
305.645	7.07
305.857	8.03
306.069	7.86
306.282	8.02
306.494	7.84
306.707	7.72
306.919	7.6
307.132	7.38
307.344	7.58
307.556	7.52
307.769	7.38
307.981	7.13
308.193	6.62
308.406	6.5
308.618	6.12
308.83	6.31
309.043	6.27
309.255	6.33
309.467	6.68
309.679	6.57
309.892	6.01
310.104	6.16
310.316	6.49
310.528	6.39
310.74	6.53
310.953	7.02
311.165	7
311.377	7.03
311.589	7.2
311.801	7.32
312.013	7.23
312.225	7.67
312.437	7.88
312.649	7.58
312.862	7.73
313.074	7.55
313.286	7.43
313.498	7.78
313.71	7.65
313.922	7.61
314.134	7.4
314.346	7.66
314.558	7.71
314.77	7.75
314.982	8.02
315.193	7.96
315.405	8.38
315.617	8.46
315.829	8.28
316.041	8.43
316.253	8.57
316.465	8.84
316.677	8.51
316.888	8.63
317.1	8.3
317.312	8.58
317.524	8.8
317.736	8.58
317.947	8.82
318.159	9.06
318.371	9.24
318.583	8.91
318.794	9.19
319.006	9.68
319.218	9.84
319.43	9.86
319.641	9.45
319.853	9.59
320.064	9.5
320.276	9.47
320.488	9.01
320.699	8.77
320.911	8.97
321.123	8.98
321.334	8.74
321.546	8.51
321.757	8.49
321.969	9
322.18	8.7
322.392	8.93
322.603	8.44
322.815	8.39
323.026	8.41
323.238	8.5
323.449	7.92
323.661	8.07
323.872	7.93
324.083	7.94
324.295	7.93
324.506	8.2
324.718	8.25
324.929	8.84
325.14	9.05
325.352	9.29
325.563	8.99
325.774	9.14
325.986	9.2
326.197	9.37
326.408	9.45
326.62	9.31
326.831	9.3
327.042	9.27
327.253	9.11
327.464	8.9
327.676	8.77
327.887	8.87
328.098	9.17
328.309	9
328.52	8.86
328.732	9.07
328.943	9.05
329.154	9.35
329.365	9.94
329.576	10.12
329.787	10.29
329.998	10.24
330.209	10.41
330.42	10.46
330.631	10.57
330.842	10.69
331.053	10.34
331.264	10.9
331.475	10.87
331.686	10.53
331.897	10.57
332.108	10.83
332.319	10.77
332.53	10.64
332.741	10.33
332.952	10.46
333.163	9.89
333.374	10.26
333.585	9.65
333.795	9.5
334.006	8.9
334.217	8.72
334.428	8.82
334.639	8.93
334.849	8.91
335.06	8.88
335.271	8.68
335.482	9.14
335.692	9.04
335.903	9.08
336.114	8.78
336.325	9.34
336.535	9.28
336.746	9.08
336.957	8.9
337.167	9.15
337.378	9.24
337.589	9.54
337.799	9.81
338.01	9.87
338.22	9.91
338.431	10.45
338.642	10.35
338.852	10.77
339.063	10.82
339.273	11.16
339.484	10.82
339.694	10.7
339.905	10.57
340.115	10.5
340.326	10.49
340.536	10.85
340.746	10.39
340.957	10.65
341.167	10.26
341.378	10.07
341.588	10.27
341.799	10.53
342.009	10.66
342.219	10.78
342.43	10.51
342.64	10.34
342.85	9.76
343.061	9.92
343.271	9.38
343.481	9.18
343.691	9.48
343.902	9.3
344.112	9.28
344.322	9.22
344.532	8.79
344.743	8.95
344.953	9.13
345.163	9.4
345.373	9.28
345.583	9.66
345.793	10.03
346.004	9.74
346.214	9.58
346.424	9.65
346.634	9.81
346.844	10.04
347.054	9.85
347.264	9.84
347.474	9.74
347.684	9.7
347.894	9.49
348.104	9
348.314	9.35
348.524	9.59
348.734	9.47
348.944	9.13
349.154	9.01
349.364	9.21
349.574	8.88
349.784	8.98
349.994	9.33
350.204	9.56
350.413	9.7
350.623	9.34
350.833	9.03
351.043	8.84
351.253	9.36
351.463	9.6
351.672	9.37
351.882	9.75
352.092	9.87
352.302	9.46
352.511	9.28
352.721	9.24
352.931	9.51
353.141	9.47
353.35	9.27
353.56	9.07
353.77	9.05
353.979	9.22
354.189	9.03
354.399	8.85
354.608	8.85
354.818	8.87
355.027	9.11
355.237	8.94
355.447	9.19
355.656	9.35
355.866	9.27
356.075	9.31
356.285	9.19
356.494	9.18
356.704	9.07
356.913	9.06
357.123	9.07
357.332	8.69
357.542	8.43
357.751	8.24
357.96	8.17
358.17	8.06
358.379	7.82
358.589	7.87
358.798	7.89
359.007	7.88
359.217	7.94
359.426	7.68
359.635	7.96
359.845	8.27
360.054	8.42
360.263	8.44
360.472	8.49
360.682	8.4
360.891	8.43
361.1	8.41
361.309	8.39
361.519	8.32
361.728	8.49
361.937	8.57
362.146	8.54
362.355	8.34
362.564	8.38
362.774	8.37
362.983	8.53
363.192	8.67
363.401	8.57
363.61	8.53
363.819	8.61
364.028	8.45
364.237	8.28
364.446	8.09
364.655	8.26
364.864	8.3
365.073	8.19
365.282	8.26
365.491	8.11
365.7	8
365.909	8.21
366.118	8.12
366.327	8.3
366.536	8.14
366.745	8.38
366.954	8.47
367.162	8.17
367.371	8.14
367.58	8.11
367.789	7.89
367.998	7.8
368.207	7.89
368.415	7.94
368.624	7.94
368.833	8.07
369.042	7.93
369.25	7.64
369.459	8.04
369.668	8.12
369.877	7.94
370.085	8.14
370.294	8.46
370.503	8.42
370.711	8.29
370.92	8.31
371.129	8.3
371.337	8.25
371.546	8.26
371.754	8.08
371.963	8.06
372.171	8.04
372.38	7.93
372.589	7.92
372.797	7.64
373.006	7.7
373.214	7.59
373.423	7.45
373.631	7.31
373.84	7.54
374.048	7.72
374.256	7.74
374.465	8
374.673	8.22
374.882	8.13
375.09	8.12
375.298	8.11
375.507	8.08
375.715	8.08
375.923	8.19
376.132	8.16
376.34	8.04
376.548	7.87
376.757	7.66
376.965	7.38
377.173	7.11
377.381	7.24
377.59	7.44
377.798	7.55
378.006	7.59
378.214	7.54
378.423	7.47
378.631	7.4
378.839	7.56
379.047	7.52
379.255	7.5
379.463	7.98
379.671	7.96
379.879	7.7
380.088	7.58
380.296	7.56
380.504	7.62
380.712	7.57
380.92	7.47
381.128	7.53
381.336	7.62
381.544	7.61
381.752	7.29
381.96	7.41
382.168	7.31
382.376	7.29
382.584	7.34
382.791	7.18
382.999	7.1
383.207	7.08
383.415	6.96
383.623	6.89
383.831	6.77
384.039	6.8
384.247	6.33
384.454	6.34
384.662	6.3
384.87	6.31
385.078	6.2
385.285	6.24
385.493	6.37
385.701	6.32
385.909	6.36
386.116	6.52
386.324	6.51
386.532	6.58
386.739	6.53
386.947	6.42
387.155	6.45
387.362	6.56
387.57	6.41
387.778	6.51
387.985	6.43
388.193	6.26
388.4	6.23
388.608	6.45
388.816	6.46
389.023	6.44
389.231	6.46
389.438	6.18
389.646	6.14
389.853	6.2
390.061	5.91
390.268	5.93
390.475	5.91
390.683	6.12
390.89	5.67
391.098	5.63
391.305	5.75
391.512	5.76
391.72	5.86
391.927	5.79
392.135	5.91
392.342	5.85
392.549	5.86
392.756	6.03
392.964	5.92
393.171	6.11
393.378	6.03
393.586	6.05
393.793	5.89
394	5.83
394.207	5.9
394.414	5.73
394.622	5.8
394.829	5.75
395.036	5.63
395.243	5.48
395.45	5.41
395.657	5.6
395.864	5.49
396.072	5.71
396.279	5.94
396.486	5.92
396.693	5.96
396.9	5.99
397.107	6
397.314	5.67
397.521	5.54
397.728	5.49
397.935	5.45
398.142	5.32
398.349	5.17
398.556	4.92
398.763	5.02
398.97	4.99
399.177	4.93
399.383	4.89
399.59	5.07
399.797	5.12
400.004	5.22
400.211	5.1
400.418	5.28
400.625	5.39
400.831	5.53
401.038	5.32
401.245	5.3
401.452	5.32
401.658	5.24
401.865	5.29
402.072	5.48
402.279	5.37
402.485	5.4
402.692	5.44
402.899	5.31
403.105	5.31
403.312	5.38
403.519	5.39
403.725	5.37
403.932	5.57
404.138	5.49
404.345	5.31
404.552	5.29
404.758	5.27
404.965	5.07
405.171	5.24
405.378	5.11
405.584	5.08
405.791	5.04
405.997	5.16
406.204	4.95
406.41	5.1
406.617	5.16
406.823	5.19
407.029	5.12
407.236	5.2
407.442	5.2
407.649	5.23
407.855	5.27
408.061	5.21
408.268	5.12
408.474	5.21
408.68	5.06
408.887	4.94
409.093	5.02
409.299	5.07
409.505	5.03
409.712	4.84
409.918	4.81
410.124	4.73
410.33	4.76
410.537	4.67
410.743	4.5
410.949	4.53
411.155	4.6
411.361	4.56
411.567	4.69
411.773	4.79
411.98	4.72
412.186	4.83
412.392	4.9
412.598	4.79
412.804	4.88
413.01	5.01
413.216	5.17
413.422	5.07
413.628	5.08
413.834	4.92
414.04	4.9
414.246	4.84
414.452	4.79
414.658	4.75
414.864	4.78
415.07	4.75
415.275	4.81
415.481	4.69
415.687	4.9
415.893	4.84
416.099	4.84
416.305	4.93
416.511	4.94
416.716	4.91
416.922	4.94
417.128	4.9
417.334	4.87
417.539	4.8
417.745	4.81
417.951	4.58
418.157	4.7
418.362	4.69
418.568	4.62
418.774	4.68
418.979	4.6
419.185	4.48
419.391	4.49
419.596	4.42
419.802	4.3
420.008	4.27
420.213	4.42
420.419	4.34
420.624	4.25
420.83	4.21
421.035	4.13
421.241	4.17
421.446	4.22
421.652	4.22
421.857	4.27
422.063	4.35
422.268	4.4
422.474	4.32
422.679	4.22
422.885	4.32
423.09	4.3
423.295	4.33
423.501	4.34
423.706	4.35
423.911	4.39
424.117	4.36
424.322	4.43
424.527	4.41
424.733	4.44
424.938	4.48
425.143	4.42
425.349	4.48
425.554	4.51
425.759	4.52
425.964	4.54
426.169	4.52
426.375	4.53
426.58	4.52
426.785	4.46
426.99	4.45
427.195	4.54
427.4	4.62
427.605	4.45
427.811	4.43
428.016	4.4
428.221	4.35
428.426	4.39
428.631	4.38
428.836	4.38
429.041	4.45
429.246	4.48
429.451	4.52
429.656	4.48
429.861	4.61
430.066	4.62
430.271	4.66
430.476	4.66
430.681	4.56
430.886	4.63
431.09	4.51
431.295	4.49
431.5	4.48
431.705	4.47
431.91	4.44
432.115	4.39
432.32	4.46
432.524	4.39
432.729	4.34
432.934	4.34
433.139	4.27
433.343	4.32
433.548	4.37
433.753	4.32
433.958	4.28
434.162	4.38
434.367	4.49
434.572	4.4
434.776	4.42
434.981	4.49
435.186	4.62
435.39	4.73
435.595	4.7
435.799	4.69
436.004	4.59
436.209	4.57
436.413	4.47
436.618	4.48
436.822	4.42
437.027	4.47
437.231	4.46
437.436	4.4
437.64	4.39
437.845	4.44
438.049	4.31
438.253	4.38
438.458	4.32
438.662	4.35
438.867	4.35
439.071	4.45
439.275	4.47
439.48	4.43
439.684	4.41
439.888	4.25
440.093	4.28
440.297	4.26
440.501	4.28
440.706	4.3
440.91	4.3
441.114	4.23
441.318	4.2
441.523	4.12
441.727	4.18
441.931	4.16
442.135	4.26
442.339	4.21
442.543	4.33
442.748	4.33
442.952	4.34
443.156	4.29
443.36	4.24
443.564	4.18
443.768	4.18
443.972	4.23
444.176	4.21
444.38	4.22
444.584	4.23
444.788	4.18
444.992	4.22
445.196	4.28
445.4	4.36
445.604	4.39
445.808	4.43
446.012	4.49
446.216	4.44
446.42	4.46
446.624	4.52
446.828	4.53
447.032	4.47
447.235	4.43
447.439	4.4
447.643	4.4
447.847	4.45
448.051	4.44
448.254	4.4
448.458	4.38
448.662	4.35
448.866	4.33
449.069	4.38
449.273	4.46
449.477	4.44
449.681	4.45
449.884	4.39
450.088	4.34
450.292	4.43
450.495	4.4
450.699	4.32
450.902	4.4
451.106	4.31
451.31	4.22
451.513	4.26
451.717	4.37
451.92	4.34
452.124	4.25
452.327	4.21
452.531	4.1
452.734	4.16
452.938	4.2
453.141	4.26
453.345	4.29
453.548	4.3
453.752	4.22
453.955	4.18
454.158	4.19
454.362	4.2
454.565	4.25
454.769	4.22
454.972	4.25
455.175	4.3
455.379	4.14
455.582	4.23
455.785	4.16
455.988	4.26
456.192	4.14
456.395	4.13
456.598	4.18
456.801	4.19
457.005	4.28
457.208	4.28
457.411	4.18
457.614	4.22
457.817	4.18
458.021	4.2
458.224	4.18
458.427	4.3
458.63	4.31
458.833	4.35
459.036	4.29
459.239	4.2
459.442	4.11
459.645	4.12
459.848	4.13
460.051	4.08
460.254	4.13
460.457	4.04
460.66	3.98
460.863	3.97
461.066	3.91
461.269	3.99
461.472	4.04
461.675	4.07
461.878	4.09
462.081	4.06
462.284	4.15
462.486	4.15
462.689	4.17
462.892	4.24
463.095	4.23
463.298	4.3
463.5	4.18
463.703	4.21
463.906	4.3
464.109	4.3
464.311	4.28
464.514	4.21
464.717	4.06
464.92	4.14
465.122	4.12
465.325	4.15
465.528	4.16
465.73	4.23
465.933	4.2
466.135	4.17
466.338	4.24
466.541	4.34
466.743	4.32
466.946	4.41
467.148	4.37
467.351	4.33
467.553	4.22
467.756	4.21
467.958	4.11
468.161	4.21
468.363	4.16
468.566	4.16
468.768	4.01
468.971	4.08
469.173	4.2
469.375	4.25
469.578	4.3
469.78	4.46
469.983	4.47
470.185	4.46
