Data from 2938725__Reflection_02.txt Node
Date: Sun Mar 15 20:13:46 EDT 2015
User: robert
Spectrometer: USB4E03002
Autoset integration time: false
Trigger mode: 4
Integration Time (sec): 1.000000E-1
Scans to average: 10
Electric dark correction enabled: false
Nonlinearity correction enabled: false
Boxcar width: 5
Stray light correction enabled: false
XAxis mode: Wavelengths
Stop averaging: false
Number of Pixels in Spectrum: 3648
>>>>>Begin Spectral Data<<<<<
177.575	45.96
177.794	-125.97
178.014	9.65
178.233	-11.48
178.452	-140.91
178.672	-133.04
178.891	39.07
179.11	0.92
179.33	-70.45
179.549	-229.81
179.768	1038.71
179.987	401.69
180.207	1960
180.426	69.87
180.645	26.53
180.864	1177.78
181.084	-159.3
181.303	48.31
181.522	-9.68
181.741	-100.4
181.96	-75.41
182.179	-95.95
182.398	-35.37
182.618	-48.58
182.837	-55.33
183.056	-22.2
183.275	-6.71
183.494	-1.17
183.713	-14.24
183.932	-5.5
184.151	7.95
184.37	-6.21
184.589	-6.24
184.808	-9.98
185.027	-5.45
185.246	12
185.465	10.57
185.684	10.72
185.903	24.86
186.122	33.58
186.341	18.51
186.56	30.73
186.779	28.04
186.998	32.59
187.216	67.61
187.435	44.41
187.654	43.53
187.873	-3.28
188.092	-6.94
188.311	-148.39
188.53	-108.2
188.748	1.99
188.967	-15.67
189.186	41.74
189.405	10.94
189.623	10.25
189.842	39.14
190.061	48.26
190.28	70.48
190.498	51.15
190.717	56.94
190.936	62.39
191.154	25.92
191.373	30.78
191.592	-4.2
191.81	-27.44
192.029	-108.52
192.248	-74.13
192.466	-212.57
192.685	-667.06
192.904	0
193.122	-1207.69
193.341	-279.03
193.559	-183.8
193.778	-537.68
193.996	-77.5
194.215	-3.47
194.433	-6.21
194.652	611.76
194.87	-248.89
195.089	22.44
195.307	64.97
195.526	32.85
195.744	15.48
195.963	9.25
196.181	17.04
196.399	31.12
196.618	-6.45
196.836	1.08
197.055	13.27
197.273	18.36
197.491	-23.26
197.71	-55.43
197.928	-27.04
198.146	-28.51
198.365	-4.31
198.583	-41.19
198.801	-65.89
199.019	-39.22
199.238	-12.66
199.456	-38.79
199.674	-41.78
199.892	-5.33
200.111	32.82
200.329	-14.29
200.547	13.95
200.765	22.78
200.983	98.56
201.202	65.69
201.42	69.22
201.638	43.49
201.856	52.09
202.074	75.89
202.292	76.17
202.51	62.47
202.728	78.48
202.946	57.4
203.165	59
203.383	49.27
203.601	45.22
203.819	38.61
204.037	46.39
204.255	36.39
204.473	11.02
204.691	-29.89
204.909	-52.34
205.127	-45.55
205.345	-63.91
205.562	-90.87
205.78	-59.51
205.998	-38.22
206.216	-48.04
206.434	-69.38
206.652	-60.45
206.87	-37.96
207.088	-13.94
207.306	-9.78
207.523	-16.54
207.741	-21.19
207.959	-22.91
208.177	-104.17
208.395	-161.5
208.612	-79.61
208.83	-67.42
209.048	-13
209.266	23.56
209.483	65.45
209.701	53.3
209.919	59.55
210.136	51.93
210.354	24.74
210.572	36.08
210.79	32.55
211.007	35.63
211.225	16.67
211.442	15.07
211.66	-1.01
211.878	-8.8
212.095	6.09
212.313	15.76
212.53	2.82
212.748	6.42
212.966	21.97
213.183	29.36
213.401	13.31
213.618	30.75
213.836	38.69
214.053	45.14
214.271	33.83
214.488	31.67
214.705	31.6
214.923	36.37
215.14	62.02
215.358	51.36
215.575	39.56
215.793	41.64
216.01	43.07
216.227	29.87
216.445	3.91
216.662	0.31
216.879	-16.32
217.097	-31.92
217.314	-20.15
217.531	-48.82
217.749	-32.34
217.966	-26.96
218.183	-12.67
218.4	-3.85
218.618	-10.55
218.835	-3.32
219.052	2.74
219.269	3.79
219.487	12.44
219.704	27.28
219.921	30.06
220.138	27.85
220.355	37.88
220.572	30.69
220.79	16.62
221.007	10.53
221.224	24.36
221.441	27.38
221.658	41.32
221.875	29.64
222.092	8.23
222.309	-1.32
222.526	-13.3
222.743	-27.45
222.96	-27.19
223.177	-17.75
223.394	-16.01
223.611	-17.59
223.828	-23.52
224.045	-26.58
224.262	-24.46
224.479	-14.56
224.696	-8.76
224.913	-7.57
225.13	-4.49
225.347	-1.19
225.564	4.81
225.781	9.94
225.997	11.47
226.214	15.02
226.431	13.68
226.648	11.25
226.865	8.73
227.082	9.3
227.298	10.08
227.515	9.63
227.732	8.25
227.949	6.24
228.165	6.57
228.382	6.61
228.599	5.59
228.816	5.55
229.032	6.17
229.249	5.72
229.466	4.16
229.682	3.97
229.899	3.51
230.116	3.99
230.332	3.6
230.549	3.33
230.765	2.89
230.982	3.03
231.199	2.27
231.415	3.77
231.632	3.68
231.848	4.66
232.065	4.17
232.281	5.53
232.498	6.21
232.714	4.74
232.931	4.46
233.147	4.16
233.364	2.81
233.58	4.93
233.797	5.23
234.013	4.6
234.23	6.04
234.446	6.91
234.662	5.74
234.879	5.18
235.095	8.07
235.312	6.15
235.528	5.7
235.744	7.43
235.961	5.23
236.177	1.23
236.393	1.25
236.61	0.88
236.826	2.29
237.042	2.22
237.258	-0.07
237.475	-0.18
237.691	1.89
237.907	1.39
238.123	1.26
238.339	1.56
238.556	3.49
238.772	3.61
238.988	4.21
239.204	3.98
239.42	4.5
239.636	5.91
239.853	4.25
240.069	3.41
240.285	4.15
240.501	4.01
240.717	4.58
240.933	3.95
241.149	4.04
241.365	4.35
241.581	3.59
241.797	3.9
242.013	4.01
242.229	3.67
242.445	3.6
242.661	3.42
242.877	3.38
243.093	3.28
243.309	3.85
243.525	4.41
243.741	4.31
243.957	4.01
244.173	3.95
244.388	4.04
244.604	5.27
244.82	5.61
245.036	5.96
245.252	6.56
245.468	6.08
245.683	5.71
245.899	5.83
246.115	5.77
246.331	6.19
246.547	6.32
246.762	6.37
246.978	6.03
247.194	6.12
247.409	6.2
247.625	5.95
247.841	6.09
248.057	6.12
248.272	5.91
248.488	5.68
248.703	5.49
248.919	5.39
249.135	4.91
249.35	5.15
249.566	4.61
249.782	3.94
249.997	3.24
250.213	3.09
250.428	3.76
250.644	3.03
250.859	3.39
251.075	3.67
251.29	3.13
251.506	3.39
251.721	2.87
251.937	3.11
252.152	3.06
252.368	3.42
252.583	3.18
252.798	1.94
253.014	2.22
253.229	2.65
253.445	2.54
253.66	2.61
253.875	2.38
254.091	2.83
254.306	3.2
254.521	4.11
254.737	4.17
254.952	5.17
255.167	6.63
255.383	6.24
255.598	5.04
255.813	4.97
256.028	4.46
256.244	4.22
256.459	3.22
256.674	2.37
256.889	1.38
257.104	1.19
257.32	0.79
257.535	0.72
257.75	1.59
257.965	1.99
258.18	1.73
258.395	2.04
258.61	2.4
258.826	2.57
259.041	3.02
259.256	3.5
259.471	3.76
259.686	3.77
259.901	3.65
260.116	3.76
260.331	3.69
260.546	3.9
260.761	3.96
260.976	3.87
261.191	4
261.406	3.42
261.621	3.3
261.836	2.94
262.05	2.55
262.265	2.24
262.48	1.64
262.695	1.42
262.91	0.73
263.125	1.22
263.34	1.22
263.555	0.87
263.769	1.69
263.984	1.9
264.199	1.58
264.414	1.93
264.629	2.75
264.843	2.91
265.058	2.65
265.273	2.76
265.488	2.02
265.702	1.85
265.917	2.52
266.132	2.66
266.346	2.4
266.561	2.71
266.776	2.39
266.99	2.05
267.205	2.04
267.42	1.93
267.634	2.18
267.849	1.49
268.063	1.34
268.278	1.41
268.492	0.86
268.707	1.15
268.922	0.94
269.136	1.39
269.351	1.83
269.565	2.07
269.78	1.73
269.994	1.71
270.209	2.52
270.423	2.45
270.637	2.02
270.852	2.36
271.066	2.1
271.281	2.51
271.495	2.62
271.709	2
271.924	1.76
272.138	2.35
272.353	2.52
272.567	2.35
272.781	2.63
272.996	2.61
273.21	3.01
273.424	3.11
273.638	3.02
273.853	2.41
274.067	2.57
274.281	2.42
274.495	2.22
274.71	2.29
274.924	1.85
275.138	2.32
275.352	2.35
275.566	2.05
275.781	1.68
275.995	1.48
276.209	1.05
276.423	1.02
276.637	1.31
276.851	0.93
277.065	0.59
277.279	0.95
277.493	0.58
277.707	0.34
277.921	0.01
278.135	0.15
278.349	0.56
278.563	1.14
278.777	1.16
278.991	1.05
279.205	2.16
279.419	1.97
279.633	2.23
279.847	2.4
280.061	2.49
280.275	2.51
280.489	2.97
280.703	2.97
280.917	3.26
281.131	3.6
281.344	3.93
281.558	3.92
281.772	4.09
281.986	4.32
282.2	4.44
282.414	4.7
282.627	5.05
282.841	4.73
283.055	4.22
283.269	4.22
283.482	3.93
283.696	3.49
283.91	2.85
284.123	2.9
284.337	2.4
284.551	2.18
284.764	2
284.978	1.65
285.192	1.46
285.405	1.49
285.619	1.37
285.833	1.51
286.046	1.74
286.26	1.76
286.473	1.8
286.687	2.26
286.9	2.11
287.114	2.31
287.327	2.48
287.541	2.44
287.754	2.76
287.968	3.02
288.181	2.81
288.395	2.85
288.608	2.92
288.822	2.98
289.035	2.77
289.248	2.72
289.462	2.61
289.675	2.53
289.889	2.79
290.102	2.7
290.315	2.42
290.529	2.53
290.742	2.46
290.955	2.73
291.169	2.62
291.382	2.56
291.595	2.44
291.808	2.31
292.022	1.98
292.235	2.24
292.448	2.57
292.661	2.48
292.875	2.73
293.088	3
293.301	3.24
293.514	3.7
293.727	3.69
293.94	3.81
294.153	3.92
294.367	4.23
294.58	3.81
294.793	3.55
295.006	4.01
295.219	3.91
295.432	3.47
295.645	3.16
295.858	2.63
296.071	2.81
296.284	2.67
296.497	2.91
296.71	2.76
296.923	2.87
297.136	2.76
297.349	2.9
297.562	2.81
297.775	2.97
297.988	2.72
298.201	2.85
298.414	2.72
298.626	3.09
298.839	2.77
299.052	2.99
299.265	3.05
299.478	3.45
299.691	3
299.903	2.78
300.116	3.22
300.329	3.8
300.542	4.03
300.755	4.12
300.967	4.19
301.18	4.03
301.393	4.15
301.605	4.42
301.818	4.07
302.031	4.17
302.243	4.46
302.456	4
302.669	3.66
302.881	3.84
303.094	3.43
303.307	3.32
303.519	3.71
303.732	3.61
303.944	3.26
304.157	3.21
304.37	3.36
304.582	3.74
304.795	4
305.007	4.5
305.22	4.61
305.432	4.79
305.645	4.82
305.857	4.54
306.069	4.47
306.282	4.87
306.494	5.31
306.707	5.25
306.919	4.75
307.132	4.2
307.344	4.08
307.556	3.48
307.769	3.9
307.981	3.76
308.193	4.09
308.406	4.38
308.618	4.06
308.83	3.98
309.043	4.1
309.255	4.62
309.467	4.92
309.679	4.48
309.892	4.73
310.104	4.8
310.316	4.67
310.528	4.75
310.74	4.62
310.953	4.69
311.165	4.62
311.377	4.45
311.589	4.28
311.801	4
312.013	4.23
312.225	4.46
312.437	4.04
312.649	4.37
312.862	4.55
313.074	4.28
313.286	4.63
313.498	4.53
313.71	4.57
313.922	4.46
314.134	5.33
314.346	5.58
314.558	5.28
314.77	5.22
314.982	5.28
315.193	4.82
315.405	5.11
315.617	4.35
315.829	4.39
316.041	4.66
316.253	4.47
316.465	4.09
316.677	3.63
316.888	3.83
317.1	4.44
317.312	4.4
317.524	4.82
317.736	5.01
317.947	5.08
318.159	5.3
318.371	5.48
318.583	6.05
318.794	5.65
319.006	5.88
319.218	5.63
319.43	5.53
319.641	5.39
319.853	5.39
320.064	5.73
320.276	5.96
320.488	6.2
320.699	5.47
320.911	5.16
321.123	5.69
321.334	5.29
321.546	5.51
321.757	5.85
321.969	5.8
322.18	5.58
322.392	5.22
322.603	5.31
322.815	5.2
323.026	5.57
323.238	5.54
323.449	5.98
323.661	6.65
323.872	6.71
324.083	6.27
324.295	6.59
324.506	6.63
324.718	6.68
324.929	7.02
325.14	7.18
325.352	7.44
325.563	7.57
325.774	7.27
325.986	7.23
326.197	7.25
326.408	7.21
326.62	7.27
326.831	7.5
327.042	7.7
327.253	7.85
327.464	7.49
327.676	7.42
327.887	7.82
328.098	7.53
328.309	7.64
328.52	7.79
328.732	8.3
328.943	8.25
329.154	8.25
329.365	8.31
329.576	8.01
329.787	8.55
329.998	8.73
330.209	8.57
330.42	9.07
330.631	8.78
330.842	9.18
331.053	9.3
331.264	9.68
331.475	9.95
331.686	10.01
331.897	10.12
332.108	9.68
332.319	9.42
332.53	9.49
332.741	9.25
332.952	9.59
333.163	8.99
333.374	8.46
333.585	8.33
333.795	8.13
334.006	8.05
334.217	7.73
334.428	8.27
334.639	8.56
334.849	8.21
335.06	8.34
335.271	8.42
335.482	8.66
335.692	8.76
335.903	8.41
336.114	8.71
336.325	8.53
336.535	8.76
336.746	8.01
336.957	8.3
337.167	8.82
337.378	8.64
337.589	8.61
337.799	8.64
338.01	8.83
338.22	9.15
338.431	8.72
338.642	8.64
338.852	8.65
339.063	9.09
339.273	8.91
339.484	8.47
339.694	8.76
339.905	8.52
340.115	8.4
340.326	8.41
340.536	8.27
340.746	8.5
340.957	8.62
341.167	8.7
341.378	8.41
341.588	8.39
341.799	8.51
342.009	8.42
342.219	8.51
342.43	8.69
342.64	8.99
342.85	9.09
343.061	8.89
343.271	8.91
343.481	8.71
343.691	8.73
343.902	8.25
344.112	8.05
344.322	8.01
344.532	7.86
344.743	7.65
344.953	7.08
345.163	6.85
345.373	6.88
345.583	6.66
345.793	6.85
346.004	7.12
346.214	7.46
346.424	7.75
346.634	7.8
346.844	8.06
347.054	7.99
347.264	8.35
347.474	8.2
347.684	8.09
347.894	8.25
348.104	8.21
348.314	7.83
348.524	7.69
348.734	7.3
348.944	6.9
349.154	6.96
349.364	7.06
349.574	7.31
349.784	7.76
349.994	7.48
350.204	7.51
350.413	7.41
350.623	7.8
350.833	7.92
351.043	7.86
351.253	8.23
351.463	8.15
351.672	8.28
351.882	7.85
352.092	7.62
352.302	8.18
352.511	8.02
352.721	8.11
352.931	7.98
353.141	8.13
353.35	8.38
353.56	8.25
353.77	8.39
353.979	8.43
354.189	8.39
354.399	8.28
354.608	8.04
354.818	8.4
355.027	8.69
355.237	8.77
355.447	8.7
355.656	8.87
355.866	8.77
356.075	8.6
356.285	8.54
356.494	8.55
356.704	8.58
356.913	8.42
357.123	8.09
357.332	7.92
357.542	7.87
357.751	7.7
357.96	7.55
358.17	7.51
358.379	7.27
358.589	7.17
358.798	7.35
359.007	7.59
359.217	7.62
359.426	7.79
359.635	7.46
359.845	7.17
360.054	7.3
360.263	7.31
360.472	7.64
360.682	7.83
360.891	7.71
361.1	7.42
361.309	7.17
361.519	7.24
361.728	7.38
361.937	7.67
362.146	7.61
362.355	7.53
362.564	7.61
362.774	7.55
362.983	7.48
363.192	7.75
363.401	8.15
363.61	8.33
363.819	8.38
364.028	8.46
364.237	8.21
364.446	8.37
364.655	8.78
364.864	8.6
365.073	8.42
365.282	8.23
365.491	7.63
365.7	7.47
365.909	7.33
366.118	7.39
366.327	6.94
366.536	7.25
366.745	7.32
366.954	6.9
367.162	6.94
367.371	6.98
367.58	7.44
367.789	7.6
367.998	7.39
368.207	7.45
368.415	7.34
368.624	7.51
368.833	7.2
369.042	7.45
369.25	7.36
369.459	7.33
369.668	7.11
369.877	6.99
370.085	7.45
370.294	7.47
370.503	7.52
370.711	7.16
370.92	7.22
371.129	7.27
371.337	6.92
371.546	7.02
371.754	7.16
371.963	7.1
372.171	6.98
372.38	6.8
372.589	6.77
372.797	6.6
373.006	6.88
373.214	6.79
373.423	7.05
373.631	7
373.84	6.61
374.048	6.18
374.256	6.42
374.465	6.36
374.673	6.32
374.882	6.48
375.09	6.82
375.298	6.88
375.507	6.81
375.715	6.84
375.923	7.31
376.132	7.68
376.34	7.74
376.548	7.47
376.757	7.45
376.965	7.64
377.173	7.28
377.381	7.06
377.59	6.91
377.798	6.99
378.006	6.66
378.214	6.37
378.423	6.33
378.631	6.28
378.839	6.33
379.047	6.37
379.255	6.19
379.463	6.27
379.671	6.38
379.879	6.29
380.088	5.99
380.296	6.17
380.504	6.25
380.712	6.29
380.92	6.26
381.128	6.41
381.336	6.22
381.544	6.21
381.752	6.37
381.96	6.1
382.168	6.32
382.376	6.51
382.584	6.37
382.791	6.13
382.999	5.95
383.207	6.2
383.415	5.94
383.623	5.97
383.831	5.95
384.039	5.96
384.247	6.02
384.454	6.02
384.662	5.9
384.87	5.92
385.078	5.99
385.285	5.87
385.493	5.75
385.701	6
385.909	5.85
386.116	5.74
386.324	5.68
386.532	5.65
386.739	5.51
386.947	5.58
387.155	5.39
387.362	5.36
387.57	5.59
387.778	5.55
387.985	5.41
388.193	5.59
388.4	5.44
388.608	5.28
388.816	5.22
389.023	5.41
389.231	5.23
389.438	5.41
389.646	5.55
389.853	5.4
390.061	5.41
390.268	5.58
390.475	5.58
390.683	5.66
390.89	5.72
391.098	5.69
391.305	5.44
391.512	5.43
391.72	5.3
391.927	5.12
392.135	5.05
392.342	4.84
392.549	4.67
392.756	4.6
392.964	4.7
393.171	4.64
393.378	4.57
393.586	4.71
393.793	4.67
394	4.6
394.207	4.51
394.414	4.6
394.622	4.74
394.829	4.66
395.036	4.52
395.243	4.43
395.45	4.45
395.657	4.5
395.864	4.38
396.072	4.48
396.279	4.37
396.486	4.35
396.693	4.27
396.9	4.36
397.107	4.31
397.314	4.68
397.521	4.64
397.728	4.51
397.935	4.66
398.142	4.62
398.349	4.7
398.556	4.77
398.763	4.82
398.97	5
399.177	5.01
399.383	4.85
399.59	4.43
399.797	4.51
400.004	4.62
400.211	4.38
400.418	4.23
400.625	4.09
400.831	4.21
401.038	4.18
401.245	3.98
401.452	3.74
401.658	4.01
401.865	4.01
402.072	3.83
402.279	3.78
402.485	3.78
402.692	3.99
402.899	4.08
403.105	4.19
403.312	4.39
403.519	4.3
403.725	4.58
403.932	4.56
404.138	4.83
404.345	4.98
404.552	5.05
404.758	5.13
404.965	5.12
405.171	5.11
405.378	4.88
405.584	4.91
405.791	5.19
405.997	4.89
406.204	4.9
406.41	4.82
406.617	4.75
406.823	4.8
407.029	4.75
407.236	4.82
407.442	4.75
407.649	4.83
407.855	4.69
408.061	4.61
408.268	4.9
408.474	4.93
408.68	4.78
408.887	4.62
409.093	4.46
409.299	4.58
409.505	4.55
409.712	4.5
409.918	4.49
410.124	4.49
410.33	4.36
410.537	4.06
410.743	4.02
410.949	3.77
411.155	3.75
411.361	3.81
411.567	3.8
411.773	3.85
411.98	3.89
412.186	3.78
412.392	3.76
412.598	3.63
412.804	3.99
413.01	4.13
413.216	4.46
413.422	4.61
413.628	4.67
413.834	4.81
414.04	4.68
414.246	4.52
414.452	4.55
414.658	4.52
414.864	4.44
415.07	4.28
415.275	4.18
415.481	4.02
415.687	3.96
415.893	3.9
416.099	3.7
416.305	3.72
416.511	3.89
416.716	3.87
416.922	3.98
417.128	4.05
417.334	4.14
417.539	4.2
417.745	4.24
417.951	4.28
418.157	4.16
418.362	4.09
418.568	3.99
418.774	3.9
418.979	3.88
419.185	3.85
419.391	3.84
419.596	3.72
419.802	3.68
420.008	3.75
420.213	3.83
420.419	3.96
420.624	4.03
420.83	4.06
421.035	4.07
421.241	4.2
421.446	4.12
421.652	4.2
421.857	4.19
422.063	4.24
422.268	4.25
422.474	4.25
422.679	4.13
422.885	4.2
423.09	4.19
423.295	4.21
423.501	4.14
423.706	4.1
423.911	3.98
424.117	4.08
424.322	3.93
424.527	3.92
424.733	3.86
424.938	3.93
425.143	3.81
425.349	3.8
425.554	3.75
425.759	3.78
425.964	3.83
426.169	3.94
426.375	3.86
426.58	3.93
426.785	3.98
426.99	4
427.195	4.11
427.4	4.25
427.605	4.37
427.811	4.44
428.016	4.22
428.221	4.17
428.426	4.06
428.631	4.01
428.836	4.01
429.041	3.87
429.246	3.82
429.451	3.8
429.656	3.65
429.861	3.58
430.066	3.68
430.271	3.81
430.476	3.94
430.681	3.96
430.886	4.03
431.09	4.17
431.295	4.17
431.5	4.11
431.705	3.99
431.91	4.07
432.115	4.06
432.32	4.08
432.524	4.18
432.729	4.21
432.934	4.34
433.139	4.37
433.343	4.25
433.548	4.19
433.753	4.27
433.958	4.37
434.162	4.36
434.367	4.27
434.572	4.19
434.776	4.25
434.981	4.11
435.186	3.9
435.39	3.94
435.595	3.96
435.799	4.08
436.004	3.99
436.209	3.86
436.413	3.94
436.618	4.11
436.822	4.01
437.027	3.87
437.231	3.87
437.436	4.01
437.64	3.87
437.845	3.86
438.049	3.87
438.253	3.92
438.458	3.97
438.662	3.89
438.867	3.92
439.071	4.04
439.275	4.03
439.48	3.97
439.684	3.99
439.888	4.06
440.093	4.06
440.297	4.1
440.501	4.03
440.706	4
440.91	4
441.114	3.89
441.318	3.84
441.523	3.87
441.727	4.05
441.931	4.01
442.135	3.96
442.339	4.02
442.543	3.93
442.748	4.08
442.952	4.2
443.156	4.24
443.36	4.3
443.564	4.27
443.768	4.3
443.972	4.32
444.176	4.23
444.38	4.24
444.584	4.22
444.788	4.29
444.992	4.21
445.196	4.14
445.4	4.13
445.604	4.01
445.808	4.09
446.012	3.98
446.216	3.95
446.42	4.06
446.624	4.03
446.828	3.91
447.032	3.86
447.235	3.82
447.439	3.82
447.643	3.77
447.847	3.91
448.051	3.88
448.254	3.9
448.458	3.87
448.662	3.74
448.866	3.7
449.069	3.78
449.273	3.83
449.477	3.81
449.681	3.81
449.884	3.88
450.088	3.84
450.292	3.76
450.495	3.79
450.699	3.71
450.902	3.83
451.106	3.92
451.31	3.96
451.513	3.88
451.717	4.01
451.92	3.9
452.124	3.85
452.327	3.77
452.531	3.8
452.734	3.84
452.938	3.86
453.141	3.78
453.345	3.71
453.548	3.6
453.752	3.68
453.955	3.51
454.158	3.63
454.362	3.68
454.565	3.83
454.769	3.82
454.972	3.8
455.175	3.77
455.379	3.77
455.582	3.8
455.785	3.93
455.988	3.93
456.192	3.97
456.395	3.89
456.598	3.76
456.801	3.77
457.005	3.94
457.208	4.06
457.411	4.23
457.614	4.23
457.817	4.13
458.021	4.04
458.224	3.98
458.427	3.94
458.63	3.96
458.833	4
459.036	3.98
459.239	3.81
459.442	3.77
459.645	3.76
459.848	3.82
460.051	3.85
460.254	3.84
460.457	3.85
460.66	3.92
460.863	3.9
461.066	3.9
461.269	3.88
461.472	3.97
461.675	3.95
461.878	3.84
462.081	3.79
462.284	3.85
462.486	3.92
462.689	3.96
462.892	3.94
463.095	3.96
463.298	3.9
463.5	3.84
463.703	3.8
463.906	3.79
464.109	3.86
464.311	3.96
464.514	3.97
464.717	3.97
464.92	3.92
465.122	3.84
465.325	3.89
465.528	4.01
465.73	4.07
465.933	4.12
466.135	4.01
466.338	3.94
466.541	3.93
466.743	3.88
466.946	3.82
467.148	3.8
467.351	3.95
467.553	3.94
467.756	3.76
467.958	3.77
468.161	3.83
468.363	3.93
468.566	3.92
468.768	3.94
468.971	3.94
469.173	3.94
469.375	3.91
469.578	3.67
469.78	3.6
469.983	3.68
470.185	3.64
470.387	3.51
470.59	3.49
470.792	3.49
470.994	3.4
471.196	3.41
471.399	3.36
471.601	3.46
471.803	3.64
472.005	3.77
