Data from 2938840__Reflection_01.txt Node
Date: Wed Mar 11 15:44:00 EDT 2015
User: robert
Spectrometer: USB4E03002
Autoset integration time: false
Trigger mode: 4
Integration Time (sec): 1.000000E-1
Scans to average: 10
Electric dark correction enabled: false
Nonlinearity correction enabled: false
Boxcar width: 5
Stray light correction enabled: false
XAxis mode: Wavelengths
Stop averaging: false
Number of Pixels in Spectrum: 3648
>>>>>Begin Spectral Data<<<<<
177.575	915.56
177.794	323.33
178.014	376.76
178.233	425
178.452	1074.19
178.672	1309.37
178.891	1507.69
179.11	-6228.57
179.33	-294.21
179.549	-270.56
179.768	-442.38
179.987	-396.7
180.207	-470.51
180.426	-340.64
180.645	-413.97
180.864	-507.97
181.084	-307.32
181.303	-140.87
181.522	-87.56
181.741	-747.5
181.96	387.84
182.179	421.28
182.398	548
182.618	-124.49
182.837	-275.25
183.056	-217.01
183.275	-137.04
183.494	-109.93
183.713	-592.54
183.932	-278.64
184.151	-174.44
184.37	9375
184.589	1252.5
184.808	324.8
185.027	268.84
185.246	237
185.465	136.8
185.684	120.9
185.903	95.85
186.122	166.32
186.341	195.08
186.56	94.27
186.779	145.27
186.998	131.62
187.216	136.78
187.435	130.18
187.654	181.5
187.873	85.1
188.092	85.39
188.311	150.4
188.53	93.26
188.748	129.87
188.967	273.02
189.186	-95.62
189.405	-33.73
189.623	-10.27
189.842	-68.56
190.061	-361.54
190.28	-191.61
190.498	-69.93
190.717	-56.03
190.936	5.28
191.154	18.27
191.373	-34.81
191.592	230.86
191.81	210.71
192.029	114.57
192.248	155.7
192.466	90
192.685	78.11
192.904	100.2
193.122	83.19
193.341	110.8
193.559	96.48
193.778	81.82
193.996	103.42
194.215	114.8
194.433	102.1
194.652	124.43
194.87	203.9
195.089	151.91
195.307	50
195.526	119.84
195.744	450
195.963	-494.74
196.181	150.33
196.399	58.27
196.618	50.93
196.836	79.6
197.055	64.47
197.273	61.24
197.491	77.67
197.71	77.99
197.928	62.5
198.146	6.76
198.365	53.74
198.583	68.93
198.801	51.57
199.019	82.21
199.238	-0.84
199.456	-10.37
199.674	-386.79
199.892	205.63
200.111	164.31
200.329	202.93
200.547	170.77
200.765	105.17
200.983	92.06
201.202	92.75
201.42	81.74
201.638	51.77
201.856	56.02
202.074	49.53
202.292	81.07
202.51	119.81
202.728	108.55
202.946	239.16
203.165	363.64
203.383	258.29
203.601	411.97
203.819	223.16
204.037	249.21
204.255	593.68
204.473	270.52
204.691	282.5
204.909	124.62
205.127	112.52
205.345	84.54
205.562	81.08
205.78	84.93
205.998	85.27
206.216	97.95
206.434	70.58
206.652	69.41
206.87	70.13
207.088	37.73
207.306	33.92
207.523	44.28
207.741	101.3
207.959	-140.68
208.177	-2.54
208.395	63.23
208.612	53.95
208.83	24.32
209.048	78.87
209.266	113.81
209.483	58.45
209.701	27.5
209.919	-1.33
210.136	52.63
210.354	-168.57
210.572	35.14
210.79	106.03
211.007	90.91
211.225	214.29
211.442	246.32
211.66	158.57
211.878	154.13
212.095	602.35
212.313	395.65
212.53	431.88
212.748	440.55
212.966	286.34
213.183	234.26
213.401	206.54
213.618	225.17
213.836	206.58
214.053	178.08
214.271	172.09
214.488	33.63
214.705	55.28
214.923	68.18
215.14	60.77
215.358	61.05
215.575	57.18
215.793	49.75
216.01	52.38
216.227	36.26
216.445	29.96
216.662	34.88
216.879	42.13
217.097	44.73
217.314	45.08
217.531	56.97
217.749	59.76
217.966	48.48
218.183	47.3
218.4	42.33
218.618	44.8
218.835	42.59
219.052	46.97
219.269	38.72
219.487	35.84
219.704	30.84
219.921	20.26
220.138	19.56
220.355	20.44
220.572	15.47
220.79	16.43
221.007	18.38
221.224	27.33
221.441	15.92
221.658	23.18
221.875	21.71
222.092	24.01
222.309	23.62
222.526	20.91
222.743	16.88
222.96	21.64
223.177	24.83
223.394	23.9
223.611	20.15
223.828	22.48
224.045	21.06
224.262	20.21
224.479	17.79
224.696	19.21
224.913	15.78
225.13	14
225.347	8.73
225.564	2.29
225.781	-0.36
225.997	2.01
226.214	3.85
226.431	1.51
226.648	2.88
226.865	3.09
227.082	3.07
227.298	2.36
227.515	3.87
227.732	4.74
227.949	5.17
228.165	5.55
228.382	4.94
228.599	5.33
228.816	5.2
229.032	3.95
229.249	2.98
229.466	2.95
229.682	2.64
229.899	2.62
230.116	2.39
230.332	2.94
230.549	3.23
230.765	3.01
230.982	0.41
231.199	-0.36
231.415	-0.22
231.632	-0.52
231.848	-1.78
232.065	-0.28
232.281	0.35
232.498	0.11
232.714	-0.26
232.931	-1.11
233.147	-1.75
233.364	0.75
233.58	1.89
233.797	3.07
234.013	4.32
234.23	4.91
234.446	2.8
234.662	-0.14
234.879	-0.83
235.095	-0.98
235.312	-1.59
235.528	-0.02
235.744	-0.94
235.961	-0.69
236.177	-1.98
236.393	-1.83
236.61	-1.58
236.826	0.16
237.042	2.01
237.258	1.5
237.475	0.36
237.691	-0.66
237.907	-2.26
238.123	-0.47
238.339	-1.2
238.556	0.94
238.772	2.61
238.988	2.39
239.204	3.36
239.42	2.62
239.636	3.38
239.853	4.86
240.069	6.29
240.285	6.23
240.501	4.83
240.717	5.74
240.933	6.32
241.149	4.8
241.365	5.69
241.581	5.76
241.797	6.4
242.013	7.15
242.229	6.65
242.445	6.38
242.661	6.19
242.877	6.8
243.093	6.05
243.309	5.28
243.525	5.69
243.741	5.14
243.957	4.54
244.173	4.37
244.388	3.91
244.604	3.74
244.82	3.8
245.036	4.24
245.252	4.3
245.468	4.6
245.683	5.05
245.899	5.6
246.115	5.47
246.331	5.41
246.547	5.51
246.762	5.5
246.978	5.74
247.194	5.58
247.409	5.51
247.625	5.64
247.841	5.83
248.057	5.75
248.272	5.74
248.488	5.78
248.703	5.78
248.919	5.67
249.135	5.2
249.35	4.93
249.566	5.33
249.782	5.19
249.997	4.57
250.213	4.36
250.428	3.98
250.644	3.29
250.859	3.52
251.075	3.99
251.29	3.83
251.506	3.94
251.721	3.88
251.937	3.26
252.152	2.96
252.368	2.83
252.583	2.96
252.798	2.68
253.014	2.49
253.229	1.8
253.445	1.79
253.66	1.77
253.875	2.37
254.091	3.03
254.306	3.45
254.521	3.56
254.737	4.38
254.952	4.09
255.167	4.99
255.383	6.51
255.598	6.49
255.813	6.24
256.028	5.7
256.244	4.89
256.459	3.82
256.674	3.99
256.889	5.05
257.104	3.58
257.32	3.94
257.535	3.52
257.75	2.86
257.965	3.45
258.18	3.41
258.395	3.94
258.61	4.15
258.826	4.38
259.041	4.21
259.256	3.96
259.471	4.33
259.686	4.24
259.901	4.15
260.116	4.11
260.331	4.07
260.546	3.93
260.761	3.74
260.976	3.59
261.191	3.68
261.406	3.59
261.621	3.68
261.836	3.55
262.05	3.56
262.265	3.54
262.48	3.36
262.695	2.98
262.91	2.86
263.125	2.3
263.34	2.34
263.555	1.7
263.769	1.7
263.984	1.61
264.199	1.35
264.414	0.81
264.629	1.29
264.843	1.59
265.058	2.14
265.273	2.93
265.488	3.54
265.702	3.43
265.917	3.87
266.132	4.22
266.346	4.01
266.561	4.38
266.776	4.67
266.99	4.59
267.205	4.29
267.42	4.22
267.634	3.8
267.849	4.1
268.063	4.07
268.278	4.42
268.492	3.84
268.707	3.61
268.922	3.64
269.136	3.44
269.351	3.58
269.565	3.5
269.78	3.17
269.994	3.02
270.209	2.79
270.423	2.9
270.637	2.7
270.852	3.15
271.066	2.9
271.281	2.95
271.495	2.9
271.709	2.76
271.924	3.21
272.138	3.36
272.353	3.34
272.567	3.51
272.781	3.67
272.996	3.36
273.21	3
273.424	3.12
273.638	2.89
273.853	3.15
274.067	3.03
274.281	2.95
274.495	2.8
274.71	2.68
274.924	2.19
275.138	1.91
275.352	1.79
275.566	1.99
275.781	2.72
275.995	2.84
276.209	3.07
276.423	3.23
276.637	3.06
276.851	3.02
277.065	3.57
277.279	3.49
277.493	3.7
277.707	3.65
277.921	3.64
278.135	2.84
278.349	3.03
278.563	2.79
278.777	2.57
278.991	2.72
279.205	2.99
279.419	2.48
279.633	2.76
279.847	2.45
280.061	2.64
280.275	2.66
280.489	3.2
280.703	2.87
280.917	3.02
281.131	2.98
281.344	2.87
281.558	2.61
281.772	3.08
281.986	3.26
282.2	3.4
282.414	3.56
282.627	3.45
282.841	3.33
283.055	3.44
283.269	3.15
283.482	3.27
283.696	3.29
283.91	3.65
284.123	3.76
284.337	3.6
284.551	3.32
284.764	3.55
284.978	3.49
285.192	3.46
285.405	3.32
285.619	3.53
285.833	3.43
286.046	3.42
286.26	3.37
286.473	3.01
286.687	3.1
286.9	3.36
287.114	3.38
287.327	3.69
287.541	3.57
287.754	3.79
287.968	3.67
288.181	3.73
288.395	3.97
288.608	3.76
288.822	3.63
289.035	3.23
289.248	3.23
289.462	2.79
289.675	2.84
289.889	3.19
290.102	3.13
290.315	3.18
290.529	3.59
290.742	3.46
290.955	3.77
291.169	4.14
291.382	4.8
291.595	4.91
291.808	4.99
292.022	4.78
292.235	4.85
292.448	4.76
292.661	4.83
292.875	4.72
293.088	4.68
293.301	4.88
293.514	4.43
293.727	3.99
293.94	4.12
294.153	4.34
294.367	4.36
294.58	4.1
294.793	4.31
295.006	4.33
295.219	4.2
295.432	4.23
295.645	4.1
295.858	4.56
296.071	4.82
296.284	4.7
296.497	4.6
296.71	4.79
296.923	4.83
297.136	4.8
297.349	4.79
297.562	4.85
297.775	4.73
297.988	4.75
298.201	4.76
298.414	4.7
298.626	4.79
298.839	4.83
299.052	4.54
299.265	4.29
299.478	4.37
299.691	4.34
299.903	4.46
300.116	4.67
300.329	4.74
300.542	4.66
300.755	4.71
300.967	4.78
301.18	4.87
301.393	5.03
301.605	5.38
301.818	5.3
302.031	5.07
302.243	4.86
302.456	4.92
302.669	4.82
302.881	4.95
303.094	4.93
303.307	5.28
303.519	5.28
303.732	5.47
303.944	5.71
304.157	6.11
304.37	6.21
304.582	6.22
304.795	6.23
305.007	6.3
305.22	5.97
305.432	6
305.645	5.86
305.857	6.01
306.069	6.18
306.282	5.77
306.494	5.38
306.707	5.67
306.919	5.58
307.132	5.52
307.344	5.45
307.556	5.82
307.769	6.06
307.981	5.91
308.193	5.84
308.406	5.73
308.618	5.79
308.83	6.25
309.043	6.08
309.255	6.16
309.467	6.24
309.679	6.29
309.892	6.19
310.104	6.04
310.316	6.06
310.528	6.08
310.74	6.16
310.953	6.2
311.165	5.93
311.377	6.14
311.589	6.21
311.801	6.16
312.013	6.1
312.225	6.2
312.437	5.94
312.649	6.02
312.862	5.88
313.074	5.76
313.286	5.92
313.498	5.79
313.71	5.78
313.922	5.75
314.134	5.88
314.346	5.94
314.558	5.57
314.77	6.15
314.982	6.39
315.193	6.67
315.405	6.35
315.617	6.34
315.829	6.38
316.041	6.19
316.253	6.41
316.465	6.51
316.677	6.85
316.888	6.93
317.1	6.88
317.312	6.21
317.524	5.82
317.736	6.05
317.947	6.22
318.159	6.36
318.371	6.61
318.583	6.5
318.794	6.37
319.006	6.08
319.218	6.52
319.43	6.35
319.641	6.97
319.853	7.46
320.064	7.59
320.276	7.3
320.488	7.29
320.699	6.99
320.911	6.98
321.123	6.89
321.334	6.79
321.546	6.76
321.757	7.3
321.969	7.23
322.18	7.45
322.392	7.76
322.603	8.07
322.815	8.45
323.026	9.06
323.238	9.25
323.449	9.64
323.661	9.4
323.872	9.31
324.083	9
324.295	9.21
324.506	8.92
324.718	8.55
324.929	8.72
325.14	8.95
325.352	8.57
325.563	8.9
325.774	8.51
325.986	9.06
326.197	9.42
326.408	9.89
326.62	9.96
326.831	10.43
327.042	11.14
327.253	11.28
327.464	11.15
327.676	11.45
327.887	11.61
328.098	12.15
328.309	12.53
328.52	12.7
328.732	12.27
328.943	12.37
329.154	12.47
329.365	12.19
329.576	12.28
329.787	12.41
329.998	12.59
330.209	12.64
330.42	12.72
330.631	12.6
330.842	12.66
331.053	12.99
331.264	13.4
331.475	13.58
331.686	14.32
331.897	14.35
332.108	14.74
332.319	14.83
332.53	14.74
332.741	15.18
332.952	15.36
333.163	15.34
333.374	15.44
333.585	15.11
333.795	14.94
334.006	14.93
334.217	15.04
334.428	14.9
334.639	14.98
334.849	14.81
335.06	14.44
335.271	14.26
335.482	14.75
335.692	14.58
335.903	15.02
336.114	15.04
336.325	14.75
336.535	14.72
336.746	14.95
336.957	15.01
337.167	15.18
337.378	15.37
337.589	15.49
337.799	15.31
338.01	15.32
338.22	14.8
338.431	14.85
338.642	14.81
338.852	14.82
339.063	14.54
339.273	14.49
339.484	14.5
339.694	14.37
339.905	14.26
340.115	13.83
340.326	14.19
340.536	14.4
340.746	14.35
340.957	14.48
341.167	14.46
341.378	14.46
341.588	14.57
341.799	14.99
342.009	15.24
342.219	15.29
342.43	15.55
342.64	15.48
342.85	15.26
343.061	15.34
343.271	15.17
343.481	15.26
343.691	15.08
343.902	14.97
344.112	14.37
344.322	14.27
344.532	14.26
344.743	14.31
344.953	14.03
345.163	14.35
345.373	14.09
345.583	14.03
345.793	14.16
346.004	14.45
346.214	14.28
346.424	14.41
346.634	14.24
346.844	14.44
347.054	14.28
347.264	14.38
347.474	14.14
347.684	14.47
347.894	14.52
348.104	14.5
348.314	14.25
348.524	14.6
348.734	14.67
348.944	14.81
349.154	14.79
349.364	14.94
349.574	15
349.784	15.13
349.994	15.05
350.204	15.15
350.413	14.97
350.623	15.11
350.833	14.73
351.043	14.52
351.253	14.26
351.463	14.3
351.672	14.12
351.882	14.22
352.092	14.31
352.302	14.3
352.511	14.37
352.721	14.08
352.931	13.97
353.141	14.07
353.35	14.3
353.56	14.34
353.77	14.21
353.979	14.26
354.189	14.01
354.399	14.05
354.608	13.95
354.818	13.93
355.027	14.19
355.237	14.26
355.447	14.19
355.656	13.85
355.866	13.92
356.075	14.07
356.285	14.29
356.494	14.35
356.704	14.24
356.913	14.31
357.123	14
357.332	14.19
357.542	13.98
357.751	14.36
357.96	14.61
358.17	14.55
358.379	14.37
358.589	14.03
358.798	14.03
359.007	13.91
359.217	13.9
359.426	14.21
359.635	14
359.845	14.01
360.054	13.84
360.263	13.76
360.472	13.65
360.682	13.7
360.891	13.75
361.1	13.93
361.309	13.9
361.519	13.82
361.728	13.56
361.937	13.48
362.146	13.65
362.355	13.67
362.564	13.54
362.774	13.84
362.983	13.81
363.192	13.88
363.401	13.72
363.61	13.85
363.819	13.89
364.028	13.99
364.237	13.94
364.446	13.68
364.655	13.57
364.864	13.81
365.073	13.38
365.282	13.31
365.491	13.09
365.7	12.97
365.909	12.86
366.118	12.97
366.327	12.99
366.536	13.12
366.745	13.31
366.954	13.16
367.162	13.16
367.371	13.12
367.58	13.13
367.789	13.35
367.998	13.48
368.207	13.61
368.415	13.55
368.624	13.29
368.833	13.33
369.042	13.15
369.25	12.98
369.459	12.83
369.668	12.81
369.877	12.66
370.085	12.26
370.294	12.14
370.503	11.98
370.711	11.71
370.92	12.05
371.129	11.67
371.337	11.71
371.546	11.76
371.754	11.6
371.963	11.72
372.171	11.62
372.38	11.7
372.589	11.63
372.797	11.54
373.006	11.38
373.214	11.21
373.423	11.21
373.631	10.94
373.84	10.74
374.048	10.86
374.256	10.81
374.465	10.94
374.673	11.04
374.882	10.89
375.09	10.54
375.298	10.63
375.507	10.44
375.715	10.35
375.923	10.46
376.132	10.68
376.34	10.52
376.548	10.36
376.757	10.15
376.965	9.93
377.173	9.91
377.381	10.11
377.59	10.14
377.798	10.13
378.006	10.16
378.214	10.11
378.423	9.93
378.631	9.87
378.839	9.87
379.047	9.94
379.255	10.02
379.463	9.92
379.671	9.58
379.879	9.35
380.088	9.42
380.296	9.45
380.504	9.41
380.712	9.46
380.92	9.52
381.128	9.59
381.336	9.37
381.544	9.14
381.752	9.33
381.96	9.52
382.168	9.6
382.376	9.45
382.584	9.41
382.791	9.27
382.999	9.21
383.207	9
383.415	8.93
383.623	9.03
383.831	8.88
384.039	8.79
384.247	8.75
384.454	8.74
384.662	8.6
384.87	8.62
385.078	8.45
385.285	8.28
385.493	8.4
385.701	8.34
385.909	8.21
386.116	8.4
386.324	8.35
386.532	8.13
386.739	8.03
386.947	8.05
387.155	7.87
387.362	8.12
387.57	8.18
387.778	8.17
387.985	8.1
388.193	8.14
388.4	7.9
388.608	7.82
388.816	7.86
389.023	7.8
389.231	7.84
389.438	7.81
389.646	7.73
389.853	7.7
390.061	7.6
390.268	7.47
390.475	7.31
390.683	7.47
390.89	7.59
391.098	7.45
391.305	7.64
391.512	7.78
391.72	7.87
391.927	7.74
392.135	7.71
392.342	7.77
392.549	7.87
392.756	7.74
392.964	7.64
393.171	7.49
393.378	7.7
393.586	7.45
393.793	7.15
394	7
394.207	7.12
394.414	7.12
394.622	6.89
394.829	6.88
395.036	7.06
395.243	7.08
395.45	7.03
395.657	6.72
395.864	6.69
396.072	6.8
396.279	6.87
396.486	6.74
396.693	6.71
396.9	6.92
397.107	6.77
397.314	6.86
397.521	6.94
397.728	6.88
397.935	7.1
398.142	7.02
398.349	6.9
398.556	6.96
398.763	7.02
398.97	6.98
399.177	6.73
399.383	6.78
399.59	6.46
399.797	6.42
400.004	6.33
400.211	6.38
400.418	6.49
400.625	6.33
400.831	6.21
401.038	6.22
401.245	6.1
401.452	6.24
401.658	6.18
401.865	6.33
402.072	6.18
402.279	6.22
402.485	5.9
402.692	5.91
402.899	6.01
403.105	6
403.312	5.91
403.519	5.84
403.725	5.74
403.932	5.67
404.138	5.68
404.345	5.67
404.552	5.73
404.758	5.8
404.965	5.76
405.171	5.83
405.378	5.93
405.584	5.82
405.791	5.79
405.997	5.67
406.204	5.77
406.41	5.64
406.617	5.77
406.823	5.65
407.029	5.83
407.236	5.7
407.442	5.61
407.649	5.47
407.855	5.55
408.061	5.45
408.268	5.48
408.474	5.39
408.68	5.3
408.887	5.12
409.093	5.08
409.299	5
409.505	5.09
409.712	5.08
409.918	5.11
410.124	5.14
410.33	5.32
410.537	5.27
410.743	5.23
410.949	5.41
411.155	5.48
411.361	5.51
411.567	5.53
411.773	5.57
411.98	5.77
412.186	5.93
412.392	5.85
412.598	5.88
412.804	5.88
413.01	5.76
413.216	5.82
413.422	5.8
413.628	5.76
413.834	5.66
414.04	5.53
414.246	5.37
414.452	5.2
414.658	5.19
414.864	5.16
415.07	5.22
415.275	5.29
415.481	5.3
415.687	5.36
415.893	5.53
416.099	5.56
416.305	5.62
416.511	5.54
416.716	5.49
416.922	5.63
417.128	5.69
417.334	5.79
417.539	5.91
417.745	5.83
417.951	5.76
418.157	5.71
418.362	5.76
418.568	5.71
418.774	5.82
418.979	5.83
419.185	5.65
419.391	5.65
419.596	5.64
419.802	5.56
420.008	5.52
420.213	5.61
420.419	5.58
420.624	5.55
420.83	5.56
421.035	5.54
421.241	5.51
421.446	5.56
421.652	5.53
421.857	5.45
422.063	5.4
422.268	5.37
422.474	5.32
422.679	5.31
422.885	5.3
423.09	5.33
423.295	5.3
423.501	5.35
423.706	5.42
423.911	5.37
424.117	5.42
424.322	5.46
424.527	5.48
424.733	5.45
424.938	5.46
425.143	5.41
425.349	5.41
425.554	5.29
425.759	5.25
425.964	5.21
426.169	5.27
426.375	5.16
426.58	5.19
426.785	5.2
426.99	5.15
427.195	5.2
427.4	5.2
427.605	5.18
427.811	5.34
428.016	5.35
428.221	5.24
428.426	5.09
428.631	5.19
428.836	5.1
429.041	5.06
429.246	5.09
429.451	4.93
429.656	4.96
429.861	5.02
430.066	5.14
430.271	5.16
430.476	5.12
430.681	5.31
430.886	5.26
431.09	5.4
431.295	5.36
431.5	5.44
431.705	5.44
431.91	5.39
432.115	5.22
432.32	5.12
432.524	5.05
432.729	5.21
432.934	5.29
433.139	5.38
433.343	5.3
433.548	5.25
433.753	5.25
433.958	5.3
434.162	5.44
434.367	5.54
434.572	5.46
434.776	5.46
434.981	5.39
435.186	5.18
435.39	5.11
435.595	5.12
435.799	5.26
436.004	5.25
436.209	5.29
436.413	5.26
436.618	5.17
436.822	5.3
437.027	5.35
437.231	5.28
437.436	5.29
437.64	5.45
437.845	5.36
438.049	5.45
438.253	5.43
438.458	5.47
438.662	5.38
438.867	5.41
439.071	5.4
439.275	5.38
439.48	5.45
439.684	5.56
439.888	5.46
440.093	5.57
440.297	5.5
440.501	5.49
440.706	5.37
440.91	5.35
441.114	5.33
441.318	5.35
441.523	5.38
441.727	5.27
441.931	5.17
442.135	5.17
442.339	5.05
442.543	5.07
442.748	5.06
442.952	5.18
443.156	5.21
443.36	5.24
443.564	5.21
443.768	5.23
443.972	5.34
444.176	5.42
444.38	5.41
444.584	5.48
444.788	5.41
444.992	5.42
445.196	5.34
445.4	5.38
445.604	5.45
445.808	5.44
446.012	5.44
446.216	5.47
446.42	5.4
446.624	5.37
446.828	5.37
447.032	5.38
447.235	5.41
447.439	5.4
447.643	5.33
447.847	5.29
448.051	5.3
448.254	5.3
448.458	5.28
448.662	5.32
448.866	5.39
449.069	5.34
449.273	5.37
449.477	5.39
449.681	5.41
449.884	5.42
450.088	5.39
450.292	5.34
450.495	5.27
450.699	5.22
450.902	5.24
451.106	5.16
451.31	5.18
451.513	5.16
451.717	5.01
451.92	4.97
452.124	5.07
452.327	5
452.531	5.05
452.734	5.02
452.938	4.99
453.141	4.92
453.345	4.9
453.548	4.89
453.752	4.89
453.955	4.94
454.158	5
454.362	5.01
454.565	5.1
454.769	5.13
454.972	5.11
455.175	5.16
455.379	5.2
455.582	5.21
455.785	5.18
455.988	5.16
456.192	5.22
456.395	5.23
456.598	5.03
456.801	4.98
457.005	5.02
457.208	5.01
457.411	5.05
457.614	4.97
457.817	4.96
458.021	5.04
458.224	5.05
458.427	4.97
458.63	4.95
458.833	5.03
459.036	5.02
459.239	4.96
459.442	4.96
459.645	4.9
459.848	4.98
460.051	4.94
460.254	4.93
460.457	4.93
460.66	4.96
460.863	4.95
461.066	4.93
461.269	4.96
461.472	4.92
461.675	4.94
461.878	4.88
462.081	4.8
462.284	4.87
462.486	4.78
462.689	4.82
462.892	4.86
463.095	4.87
463.298	4.86
463.5	4.92
463.703	4.94
463.906	5.02
464.109	5.13
464.311	5.27
464.514	5.23
464.717	5.32
464.92	5.19
465.122	5.18
465.325	5.27
465.528	5.31
465.73	5.29
465.933	5.3
466.135	5.23
466.338	5.27
466.541	5.18
466.743	5.17
466.946	5.16
467.148	5.21
467.351	5.15
467.553	5.12
