Data from 2938839__Reflection_03.txt Node
Date: Wed Mar 11 15:54:37 EDT 2015
User: robert
Spectrometer: USB4E03002
Autoset integration time: false
Trigger mode: 4
Integration Time (sec): 1.000000E-1
Scans to average: 10
Electric dark correction enabled: false
Nonlinearity correction enabled: false
Boxcar width: 5
Stray light correction enabled: false
XAxis mode: Wavelengths
Stop averaging: false
Number of Pixels in Spectrum: 3648
>>>>>Begin Spectral Data<<<<<
177.575	-324.44
177.794	9.33
178.014	21.83
178.233	16.18
178.452	-98.39
178.672	-45.31
178.891	-38.46
179.11	1285.71
179.33	105.02
179.549	51.61
179.768	-10.6
179.987	-4.95
180.207	13.46
180.426	38.81
180.645	82.12
180.864	94.93
181.084	213.82
181.303	175.65
181.522	105.99
181.741	500
181.96	-366.22
182.179	-470.21
182.398	-278
182.618	208.84
182.837	123.76
183.056	109.52
183.275	75.31
183.494	51.1
183.713	-125.37
183.932	48.54
184.151	55.64
184.37	-1900
184.589	-410
184.808	-139.2
185.027	-126.81
185.246	-350
185.465	-233.6
185.684	-241.79
185.903	-20.42
186.122	-107.37
186.341	-33.88
186.56	22.06
186.779	125.37
186.998	182.05
187.216	164.88
187.435	175.64
187.654	170.93
187.873	166.23
188.092	121.41
188.311	117.74
188.53	103.63
188.748	78.99
188.967	84.92
189.186	196.35
189.405	169.08
189.623	143.78
189.842	272.93
190.061	1642.31
190.28	423.78
190.498	203.99
190.717	211.28
190.936	177.71
191.154	183.06
191.373	291.16
191.592	-476.54
191.81	-295.54
192.029	-165.83
192.248	-142.28
192.466	-522.22
192.685	-83.5
192.904	-25.56
193.122	-38.51
193.341	-44.84
193.559	-60.47
193.778	-69.46
193.996	-64.1
194.215	-50.84
194.433	-27.92
194.652	-105.46
194.87	-100.49
195.089	-270.23
195.307	-5150
195.526	-447.62
195.744	-1204.35
195.963	2000
196.181	-215.69
196.399	-270.87
196.618	-145.83
196.836	-23.85
197.055	15.57
197.273	9.62
197.491	-6.11
197.71	8.67
197.928	5.25
198.146	-22.64
198.365	4.28
198.583	-26.21
198.801	-52.47
199.019	-95.19
199.238	357.14
199.456	314.81
199.674	766.04
199.892	-104.23
200.111	-22.75
200.329	-29.29
200.547	7.92
200.765	-38.91
200.983	-4.72
201.202	22.14
201.42	-2.39
201.638	-5.31
201.856	1.72
202.074	-8.73
202.292	-27.47
202.51	-5.75
202.728	-63.57
202.946	-194.41
203.165	-189.26
203.383	-84.57
203.601	-23.94
203.819	75.79
204.037	106.35
204.255	248.42
204.473	155.6
204.691	147.92
204.909	70.68
205.127	92.27
205.345	73.59
205.562	73.86
205.78	70.71
205.998	66.27
206.216	66.61
206.434	48.74
206.652	40.16
206.87	42.65
207.088	35.36
207.306	1.05
207.523	-7.96
207.741	87.66
207.959	-169.49
208.177	29.44
208.395	32.3
208.612	36.18
208.83	54.73
209.048	-31.69
209.266	51.46
209.483	55.25
209.701	-1.25
209.919	47.33
210.136	32.75
210.354	-205.71
210.572	27.03
210.79	-81.9
211.007	-65.24
211.225	-29.41
211.442	-64.21
211.66	7.17
211.878	27.83
212.095	439.44
212.313	367.03
212.53	364.73
212.748	308.76
212.966	199.07
213.183	188.01
213.401	171.2
213.618	181.24
213.836	186.84
214.053	160.55
214.271	153.37
214.488	13.04
214.705	13.92
214.923	24.55
215.14	20.55
215.358	17.34
215.575	-3
215.793	-5.38
216.01	6.98
216.227	-9.12
216.445	-43.23
216.662	-19.69
216.879	0
217.097	-7.3
217.314	1.54
217.531	11.78
217.749	26.93
217.966	23.4
218.183	15.35
218.4	10.39
218.618	11.01
218.835	8.9
219.052	-1.38
219.269	3.95
219.487	8.83
219.704	-1.15
219.921	-1.18
220.138	-21.63
220.355	-13.12
220.572	-5.56
220.79	-5.87
221.007	6.52
221.224	10.34
221.441	-3.36
221.658	-8.76
221.875	-14.06
222.092	-13.75
222.309	-19.14
222.526	-11
222.743	-13.72
222.96	-23.75
223.177	-19.07
223.394	-21.88
223.611	-23.7
223.828	-12.77
224.045	-18.03
224.262	-12.63
224.479	-15.4
224.696	-7.65
224.913	-6.95
225.13	-9.33
225.347	-6.34
225.564	-9.89
225.781	-12.43
225.997	-9.34
226.214	-7.53
226.431	-6.69
226.648	-8.21
226.865	-4.38
227.082	-5.95
227.298	-5.41
227.515	-3.51
227.732	-2.23
227.949	-1.36
228.165	-0.9
228.382	-1.13
228.599	0.39
228.816	1.2
229.032	1.44
229.249	1.58
229.466	1.98
229.682	2.35
229.899	2.01
230.116	1.29
230.332	1.56
230.549	1.46
230.765	2.28
230.982	-0.48
231.199	-1.7
231.415	-1.75
231.632	-3.25
231.848	-5.84
232.065	-6.49
232.281	-6.15
232.498	-6.22
232.714	-6.23
232.931	-3.96
233.147	-5.78
233.364	-3.63
233.58	-3.32
233.797	-1.84
234.013	-1.22
234.23	1.06
234.446	0.52
234.662	-0.45
234.879	-0.73
235.095	-0.7
235.312	-2.71
235.528	-1.28
235.744	-1.34
235.961	-0.76
236.177	-1.83
236.393	-0.81
236.61	-0.96
236.826	0.06
237.042	0.39
237.258	0.8
237.475	-0.32
237.691	-0.79
237.907	-0.18
238.123	1.36
238.339	1.53
238.556	1.26
238.772	1.91
238.988	3.24
239.204	2.24
239.42	2.4
239.636	3.09
239.853	4.45
240.069	4.86
240.285	4.25
240.501	1.77
240.717	2.79
240.933	3.52
241.149	2.33
241.365	2.21
241.581	3.06
241.797	3.33
242.013	3.7
242.229	3.21
242.445	3.36
242.661	3.2
242.877	4.63
243.093	3.49
243.309	3.2
243.525	3.27
243.741	2.87
243.957	2.77
244.173	2.66
244.388	2.24
244.604	2.66
244.82	2.95
245.036	3.41
245.252	2.83
245.468	3.05
245.683	3.53
245.899	4.5
246.115	4.44
246.331	4.31
246.547	4.64
246.762	4.86
246.978	4.82
247.194	4.41
247.409	4.59
247.625	4.77
247.841	4.84
248.057	4.78
248.272	4.45
248.488	4.57
248.703	4.43
248.919	4.25
249.135	3.65
249.35	3.43
249.566	3.58
249.782	2.76
249.997	1.81
250.213	1.93
250.428	1.64
250.644	1.14
250.859	1.69
251.075	1.24
251.29	1.05
251.506	1.52
251.721	1.65
251.937	1.6
252.152	1.46
252.368	1.54
252.583	1.73
252.798	1.15
253.014	1.72
253.229	1.06
253.445	1.98
253.66	1.38
253.875	1.1
254.091	1.44
254.306	1.51
254.521	1.67
254.737	1.73
254.952	1.61
255.167	2.29
255.383	2.07
255.598	0.93
255.813	0.42
256.028	0.82
256.244	0.86
256.459	-0.01
256.674	-0.21
256.889	-0.1
257.104	0
257.32	0.42
257.535	0.89
257.75	0.63
257.965	2.1
258.18	2.29
258.395	2.87
258.61	3.4
258.826	3.72
259.041	4
259.256	4.17
259.471	4.14
259.686	3.97
259.901	3.71
260.116	3.8
260.331	3.47
260.546	3.49
260.761	3.33
260.976	3.03
261.191	2.8
261.406	2.54
261.621	2.57
261.836	2.5
262.05	2.64
262.265	2.52
262.48	2.8
262.695	2.71
262.91	2.3
263.125	2.31
263.34	1.98
263.555	2.07
263.769	2.5
263.984	2.26
264.199	2.31
264.414	2.42
264.629	2.7
264.843	2.63
265.058	2.66
265.273	3.41
265.488	3.28
265.702	3.33
265.917	3.48
266.132	3.2
266.346	3.37
266.561	3.92
266.776	3.62
266.99	3.54
267.205	3.33
267.42	3.6
267.634	3.17
267.849	3.61
268.063	3.71
268.278	3.85
268.492	3.71
268.707	3.54
268.922	3.08
269.136	2.82
269.351	3.07
269.565	3.18
269.78	2.78
269.994	2.66
270.209	2.59
270.423	2.43
270.637	2.12
270.852	2.31
271.066	2.07
271.281	2.07
271.495	2.21
271.709	2.08
271.924	2.11
272.138	2.55
272.353	2.6
272.567	2.53
272.781	2.96
272.996	3.13
273.21	2.79
273.424	3
273.638	2.9
273.853	3.1
274.067	3.22
274.281	3.22
274.495	2.84
274.71	2.24
274.924	2.16
275.138	1.57
275.352	1.29
275.566	1.34
275.781	1.42
275.995	1.65
276.209	1.65
276.423	1.62
276.637	1.34
276.851	1.26
277.065	2.1
277.279	1.45
277.493	1.65
277.707	1.52
277.921	1.97
278.135	1.43
278.349	1.21
278.563	1.21
278.777	0.69
278.991	0.92
279.205	1.05
279.419	0.58
279.633	1.2
279.847	1.32
280.061	1.81
280.275	1.54
280.489	2.1
280.703	1.98
280.917	2.15
281.131	2.6
281.344	2.5
281.558	2.41
281.772	2.87
281.986	3.07
282.2	3.17
282.414	2.73
282.627	2.9
282.841	2.81
283.055	2.91
283.269	2.69
283.482	2.64
283.696	2.82
283.91	2.99
284.123	2.91
284.337	2.63
284.551	2.55
284.764	2.73
284.978	2.44
285.192	2.28
285.405	2.31
285.619	2.22
285.833	2.1
286.046	1.99
286.26	2.2
286.473	1.96
286.687	1.85
286.9	1.82
287.114	1.82
287.327	2.17
287.541	2.01
287.754	2.25
287.968	2.47
288.181	2.71
288.395	2.56
288.608	2.08
288.822	2.11
289.035	2.03
289.248	2.07
289.462	2.22
289.675	2.27
289.889	2.88
290.102	2.59
290.315	2.48
290.529	2.62
290.742	2.69
290.955	3.07
291.169	3.37
291.382	3.65
291.595	3.86
291.808	3.74
292.022	3.66
292.235	3.65
292.448	3.77
292.661	3.79
292.875	3.77
293.088	3.88
293.301	3.96
293.514	3.62
293.727	3.41
293.94	3.37
294.153	3.36
294.367	3.08
294.58	2.88
294.793	2.98
295.006	2.87
295.219	2.67
295.432	2.66
295.645	2.5
295.858	2.66
296.071	2.94
296.284	3.04
296.497	3.18
296.71	3.28
296.923	3.19
297.136	3.04
297.349	2.99
297.562	3.19
297.775	3.33
297.988	3.4
298.201	3.62
298.414	3.48
298.626	3.07
298.839	2.91
299.052	3.01
299.265	2.87
299.478	3
299.691	3.23
299.903	3.19
300.116	3.32
300.329	3.36
300.542	3.09
300.755	3.43
300.967	4.02
301.18	4.33
301.393	4.48
301.605	4.8
301.818	4.61
302.031	4.37
302.243	4.5
302.456	3.92
302.669	4.03
302.881	4.24
303.094	3.78
303.307	3.51
303.519	3.27
303.732	3.07
303.944	3.01
304.157	3.57
304.37	3.75
304.582	3.47
304.795	3.87
305.007	3.5
305.22	3.15
305.432	3.46
305.645	3.76
305.857	4.11
306.069	4.37
306.282	4.41
306.494	3.99
306.707	4.09
306.919	4.32
307.132	4.48
307.344	4.83
307.556	5.08
307.769	5.22
307.981	4.9
308.193	4.42
308.406	4.42
308.618	4.43
308.83	4.85
309.043	4.62
309.255	4.5
309.467	4.36
309.679	4.24
309.892	4.1
310.104	3.71
310.316	3.76
310.528	3.82
310.74	3.83
310.953	3.67
311.165	3.19
311.377	3.42
311.589	3.44
311.801	3.21
312.013	3.18
312.225	3.61
312.437	3.76
312.649	4.03
312.862	4.24
313.074	4.25
313.286	4.29
313.498	4.29
313.71	4.43
313.922	4.18
314.134	4.61
314.346	4.78
314.558	4.31
314.77	4.51
314.982	4.47
315.193	4.48
315.405	4.19
315.617	4.31
315.829	4.71
316.041	4.35
316.253	4.61
316.465	4.52
316.677	4.41
316.888	4.57
317.1	4.44
317.312	3.95
317.524	3.94
317.736	3.65
317.947	4.21
318.159	4.06
318.371	4.32
318.583	4.36
318.794	4.09
319.006	4.11
319.218	4.08
319.43	4.14
319.641	4.66
319.853	4.76
320.064	5.19
320.276	4.78
320.488	4.74
320.699	4.39
320.911	4.4
321.123	4.37
321.334	4.26
321.546	4.04
321.757	4.44
321.969	4.51
322.18	4.74
322.392	4.88
322.603	5.01
322.815	5.67
323.026	6.21
323.238	6.63
323.449	7.16
323.661	7.36
323.872	7.78
324.083	7.84
324.295	8.27
324.506	8.46
324.718	8.71
324.929	8.99
325.14	9.14
325.352	9.14
325.563	9.31
325.774	9.23
325.986	9.75
326.197	10.04
326.408	10.21
326.62	10.11
326.831	10.49
327.042	10.8
327.253	10.98
327.464	11.22
327.676	11.47
327.887	11.72
328.098	12.37
328.309	12.33
328.52	12.7
328.732	13.07
328.943	13.35
329.154	13.59
329.365	14
329.576	14.23
329.787	14.19
329.998	14.75
330.209	14.94
330.42	15.03
330.631	15.33
330.842	15.44
331.053	15.76
331.264	16.17
331.475	16.14
331.686	16.47
331.897	16.95
332.108	17.55
332.319	17.83
332.53	18.18
332.741	18.41
332.952	18.6
333.163	18.72
333.374	18.82
333.585	18.87
333.795	18.71
334.006	18.69
334.217	18.5
334.428	18.59
334.639	18.71
334.849	18.56
335.06	18.54
335.271	18.72
335.482	18.89
335.692	18.64
335.903	18.87
336.114	19.43
336.325	19.8
336.535	19.81
336.746	19.72
336.957	19.51
337.167	19.94
337.378	20.09
337.589	20.01
337.799	19.99
338.01	19.89
338.22	19.24
338.431	18.98
338.642	18.68
338.852	18.72
339.063	18.6
339.273	18.68
339.484	18.2
339.694	18.51
339.905	18.71
340.115	18.68
340.326	19.15
340.536	19.9
340.746	20.02
340.957	20.09
341.167	20.64
341.378	20.88
341.588	20.92
341.799	21.47
342.009	21.25
342.219	21.24
342.43	21.55
342.64	21.58
342.85	21.43
343.061	21.35
343.271	21.1
343.481	20.7
343.691	20.66
343.902	20.69
344.112	20.32
344.322	20.25
344.532	20.15
344.743	19.98
344.953	19.72
345.163	19.77
345.373	19.79
345.583	19.82
345.793	19.91
346.004	19.95
346.214	19.79
346.424	19.79
346.634	19.88
346.844	20.13
347.054	20.06
347.264	20.27
347.474	19.94
347.684	19.79
347.894	19.74
348.104	19.76
348.314	19.61
348.524	19.86
348.734	19.79
348.944	19.73
349.154	19.66
349.364	19.78
349.574	19.6
349.784	19.83
349.994	20.26
350.204	20.36
350.413	20.38
350.623	20.46
350.833	20.26
351.043	20.04
351.253	19.92
351.463	19.9
351.672	19.86
351.882	19.73
352.092	19.72
352.302	19.7
352.511	19.59
352.721	19.57
352.931	19.61
353.141	19.49
353.35	19.84
353.56	19.93
353.77	19.87
353.979	19.81
354.189	19.84
354.399	19.64
354.608	19.35
354.818	19.61
355.027	19.6
355.237	19.53
355.447	19.57
355.656	19.37
355.866	19.36
356.075	19.53
356.285	19.41
356.494	19.49
356.704	19.6
356.913	19.42
357.123	18.99
357.332	18.95
357.542	18.79
357.751	19.04
357.96	18.75
358.17	18.6
358.379	18.3
358.589	18.15
358.798	18.38
359.007	18.33
359.217	18.5
359.426	18.61
359.635	18.58
359.845	18.63
360.054	18.53
360.263	18.73
360.472	18.74
360.682	18.76
360.891	19
361.1	18.84
361.309	18.81
361.519	18.68
361.728	18.63
361.937	18.69
362.146	18.7
362.355	18.77
362.564	18.96
362.774	19.01
362.983	19.08
363.192	18.94
363.401	18.96
363.61	19.17
363.819	19.28
364.028	19.47
364.237	19.35
364.446	19.16
364.655	18.74
364.864	18.6
365.073	18.42
365.282	18.24
365.491	18.37
365.7	18.16
365.909	17.87
366.118	17.91
366.327	17.79
366.536	17.69
366.745	17.74
366.954	18.03
367.162	18.07
367.371	18.16
367.58	18.3
367.789	18.04
367.998	18.3
368.207	18.56
368.415	18.37
368.624	18.19
368.833	18.45
369.042	18.54
369.25	18.31
369.459	18.23
369.668	18.21
369.877	18.11
370.085	18.17
370.294	17.88
370.503	17.87
370.711	17.98
370.92	18.23
371.129	18.05
371.337	18.02
371.546	18.08
371.754	17.95
371.963	18.01
372.171	17.99
372.38	18.01
372.589	18.18
372.797	18.11
373.006	18.03
373.214	18.04
373.423	17.75
373.631	17.55
373.84	17.57
374.048	17.58
374.256	17.65
374.465	17.69
374.673	17.68
374.882	17.56
375.09	17.59
375.298	17.7
375.507	17.45
375.715	17.64
375.923	18.01
376.132	18.03
376.34	18.04
376.548	17.81
376.757	17.86
376.965	17.93
377.173	18.03
377.381	18.01
377.59	18.03
377.798	18.06
378.006	18.04
378.214	17.94
378.423	17.87
378.631	18.06
378.839	18.23
379.047	18.12
379.255	18.2
379.463	18.15
379.671	17.98
379.879	17.82
380.088	18.13
380.296	18.23
380.504	18.13
380.712	18.14
380.92	18.01
381.128	17.89
381.336	17.95
381.544	17.73
381.752	17.98
381.96	18.15
382.168	18.32
382.376	18.31
382.584	18.47
382.791	18.46
382.999	18.55
383.207	18.62
383.415	18.62
383.623	18.58
383.831	18.46
384.039	18.15
384.247	18.1
384.454	18.08
384.662	17.78
384.87	17.52
385.078	17.46
385.285	17.33
385.493	17.31
385.701	17.49
385.909	17.34
386.116	17.68
386.324	17.65
386.532	17.51
386.739	17.41
386.947	17.52
387.155	17.61
387.362	17.68
387.57	17.87
387.778	17.73
387.985	17.62
388.193	17.89
388.4	17.6
388.608	17.55
388.816	17.63
389.023	17.77
389.231	17.94
389.438	17.81
389.646	18.05
389.853	17.91
390.061	17.99
390.268	18
390.475	17.88
390.683	18.03
390.89	18.22
391.098	18.16
391.305	18.15
391.512	18.16
391.72	18.32
391.927	18.09
392.135	18.2
392.342	18.43
392.549	18.43
392.756	18.44
392.964	18.46
393.171	18.42
393.378	18.46
393.586	18.46
393.793	18.34
394	18.26
394.207	18.49
394.414	18.46
394.622	18.17
394.829	18.29
395.036	18.24
395.243	18.28
395.45	18.26
395.657	18.29
395.864	18.19
396.072	18.37
396.279	18.54
396.486	18.5
396.693	18.68
396.9	18.81
397.107	18.67
397.314	18.89
397.521	18.91
397.728	18.88
397.935	18.93
398.142	18.93
398.349	18.92
398.556	18.87
398.763	18.83
398.97	18.68
399.177	18.66
399.383	18.8
399.59	18.65
399.797	18.62
400.004	18.62
400.211	18.69
400.418	18.74
400.625	18.59
400.831	18.64
401.038	18.68
401.245	18.85
401.452	18.87
401.658	18.69
401.865	18.91
402.072	18.92
402.279	19.06
402.485	18.96
402.692	18.98
402.899	18.89
403.105	18.81
403.312	18.71
403.519	18.58
403.725	18.57
403.932	18.69
404.138	18.42
404.345	18.45
404.552	18.37
404.758	18.4
404.965	18.57
405.171	18.73
405.378	18.89
405.584	18.88
405.791	18.84
405.997	18.85
406.204	18.94
406.41	18.94
406.617	18.98
406.823	19.04
407.029	19.17
407.236	19.04
407.442	19.11
407.649	18.88
407.855	18.93
408.061	18.97
408.268	18.98
408.474	18.89
408.68	18.93
408.887	18.94
409.093	18.97
409.299	19.11
409.505	19.06
409.712	19.1
409.918	19.24
410.124	19.39
410.33	19.53
410.537	19.55
410.743	19.5
410.949	19.65
411.155	19.64
411.361	19.59
411.567	19.34
411.773	19.46
411.98	19.49
412.186	19.61
412.392	19.47
412.598	19.32
412.804	19.41
413.01	19.57
413.216	19.75
413.422	19.77
413.628	19.99
413.834	20.11
414.04	20.07
414.246	20.07
414.452	20.01
414.658	20.12
414.864	20.32
415.07	20.28
415.275	20.28
415.481	20.35
415.687	20.45
415.893	20.36
416.099	20.36
416.305	20.47
416.511	20.36
416.716	20.42
416.922	20.57
417.128	20.53
417.334	20.67
417.539	20.68
417.745	20.56
417.951	20.52
418.157	20.64
418.362	20.7
418.568	20.66
418.774	20.86
418.979	20.85
419.185	20.79
419.391	20.84
419.596	20.77
419.802	20.8
420.008	20.87
420.213	20.6
420.419	20.62
420.624	20.65
420.83	20.75
421.035	20.76
421.241	20.91
421.446	20.94
421.652	20.9
421.857	20.97
422.063	20.96
422.268	20.96
422.474	21.25
422.679	21.23
422.885	21.3
423.09	21.31
423.295	21.27
423.501	21.13
423.706	21.19
423.911	21.31
424.117	21.34
424.322	21.43
424.527	21.47
424.733	21.51
424.938	21.5
425.143	21.41
425.349	21.41
425.554	21.37
425.759	21.42
425.964	21.36
426.169	21.38
426.375	21.32
426.58	21.32
426.785	21.35
426.99	21.4
427.195	21.42
427.4	21.44
427.605	21.45
427.811	21.5
428.016	21.58
428.221	21.61
428.426	21.5
428.631	21.58
428.836	21.53
429.041	21.5
429.246	21.51
429.451	21.53
429.656	21.61
429.861	21.64
430.066	21.69
430.271	21.73
430.476	21.74
430.681	21.81
430.886	21.81
431.09	21.95
431.295	21.98
431.5	22.05
431.705	22.17
431.91	22.12
432.115	22.11
432.32	22.15
432.524	22.15
432.729	22.17
432.934	22.33
433.139	22.36
433.343	22.31
433.548	22.27
433.753	22.17
433.958	22.11
434.162	22.19
434.367	22.24
434.572	22.18
434.776	22.2
434.981	22.2
435.186	22.04
435.39	22.06
435.595	22.11
435.799	22.15
436.004	22.2
436.209	22.2
436.413	22.23
436.618	22.15
436.822	22.15
437.027	22.12
437.231	22.07
437.436	22.03
437.64	22.09
437.845	21.98
438.049	22.04
438.253	22.1
438.458	22.14
438.662	22.13
438.867	22.19
439.071	22.29
439.275	22.32
439.48	22.46
439.684	22.58
439.888	22.6
440.093	22.72
440.297	22.75
440.501	22.68
440.706	22.67
440.91	22.69
441.114	22.69
441.318	22.67
441.523	22.68
441.727	22.55
441.931	22.52
442.135	22.44
442.339	22.31
442.543	22.32
442.748	22.45
442.952	22.49
443.156	22.55
443.36	22.55
443.564	22.63
443.768	22.59
443.972	22.74
444.176	22.75
444.38	22.79
444.584	22.95
444.788	22.95
444.992	22.91
445.196	22.9
445.4	22.82
445.604	22.87
445.808	22.85
446.012	22.87
446.216	22.91
446.42	22.87
446.624	22.84
446.828	22.76
447.032	22.75
447.235	22.76
447.439	22.84
447.643	22.89
447.847	22.81
448.051	22.86
448.254	22.84
448.458	22.83
448.662	22.93
448.866	22.97
449.069	22.96
449.273	22.97
449.477	22.99
449.681	22.92
449.884	22.9
450.088	23
450.292	22.97
450.495	22.96
450.699	22.92
450.902	22.88
451.106	22.86
451.31	22.92
451.513	22.9
451.717	22.81
451.92	22.8
452.124	22.82
452.327	22.73
452.531	22.65
452.734	22.64
452.938	22.63
453.141	22.69
453.345	22.71
453.548	22.66
453.752	22.67
453.955	22.75
454.158	22.74
454.362	22.73
454.565	22.81
454.769	22.93
454.972	22.96
455.175	22.97
455.379	22.85
455.582	22.81
455.785	22.79
455.988	22.79
456.192	22.66
456.395	22.69
456.598	22.56
456.801	22.53
457.005	22.54
457.208	22.49
457.411	22.58
457.614	22.64
457.817	22.67
458.021	22.75
458.224	22.68
458.427	22.82
458.63	22.9
458.833	23
459.036	23.01
459.239	23
459.442	22.95
459.645	22.88
459.848	22.91
460.051	22.83
460.254	22.84
460.457	22.87
460.66	22.85
460.863	22.74
