Data from 2938795__Reflection_03.txt Node
Date: Fri Mar 13 10:42:51 EDT 2015
User: robert
Spectrometer: USB4E03002
Autoset integration time: false
Trigger mode: 4
Integration Time (sec): 1.000000E-1
Scans to average: 10
Electric dark correction enabled: false
Nonlinearity correction enabled: false
Boxcar width: 5
Stray light correction enabled: false
XAxis mode: Wavelengths
Stop averaging: false
Number of Pixels in Spectrum: 3648
>>>>>Begin Spectral Data<<<<<
177.575	401.55
177.794	531.6
178.014	537.1
178.233	780.29
178.452	784.94
178.672	969.23
178.891	1168
179.11	1337.72
179.33	1788.71
179.549	1384.49
179.768	2390.28
179.987	4468.92
180.207	1423.04
180.426	17061.11
180.645	1171.53
180.864	971.6
181.084	875.27
181.303	846.92
181.522	672.12
181.741	559.48
181.96	727.51
182.179	833.08
182.398	1394.74
182.618	20900
182.837	803.1
183.056	1255.93
183.275	1189.49
183.494	1480.45
183.713	1076.13
183.932	2939.62
184.151	2763.89
184.37	1525.13
184.589	2942.86
184.808	924.71
185.027	908.93
185.246	1210.42
185.465	825.53
185.684	934.31
185.903	705.54
186.122	726.51
186.341	622.18
186.56	599.08
186.779	596.59
186.998	656.05
187.216	814.51
187.435	842.74
187.654	2390.77
187.873	6647.92
188.092	6640.43
188.311	43628.57
188.53	-2643.36
188.748	-3623.81
188.967	-1909.27
189.186	-6779.55
189.405	1859.28
189.623	1434.98
189.842	971.52
190.061	978.83
190.28	1239.26
190.498	2940.82
190.717	1286.7
190.936	1796.71
191.154	1505.62
191.373	1232
191.592	1997.08
191.81	2283.47
192.029	2503.85
192.248	5389.58
192.466	1798.09
192.685	1652.83
192.904	1371.35
193.122	3100
193.341	1183.13
193.559	5786
193.778	-7500
193.996	18881.25
194.215	14638.1
194.433	-5280
194.652	-19362.5
194.87	-4323.61
195.089	14204.17
195.307	2209.26
195.526	4816.44
195.744	2249.02
195.963	1078.5
196.181	931.88
196.399	986.29
196.618	1329.62
196.836	1256.04
197.055	1218.86
197.273	820.67
197.491	1396.05
197.71	1710.81
197.928	1270.9
198.146	1589.2
198.365	1527.98
198.583	1629.26
198.801	986.13
199.019	804.12
199.238	751.29
199.456	883.24
199.674	1497.54
199.892	822.68
200.111	753.38
200.329	718.73
200.547	596.3
200.765	642.65
200.983	533.56
201.202	616.99
201.42	534.56
201.638	543.16
201.856	599.13
202.074	470.35
202.292	483.38
202.51	493.97
202.728	528.08
202.946	608
203.165	579.21
203.383	600.35
203.601	728.75
203.819	1154.18
204.037	1085.67
204.255	1112.68
204.473	1410.17
204.691	976.94
204.909	1471.43
205.127	1702.9
205.345	1948.28
205.562	4065.43
205.78	4126.25
205.998	1529.09
206.216	1054.17
206.434	872.94
206.652	527.81
206.87	580.92
207.088	878.2
207.306	752.7
207.523	602.87
207.741	687.88
207.959	694.83
208.177	723.01
208.395	1072.76
208.612	1112.46
208.83	1448.95
209.048	6646.15
209.266	1537.67
209.483	1727.32
209.701	1081.27
209.919	1415.22
210.136	723.19
210.354	582.16
210.572	519.82
210.79	562.52
211.007	606.28
211.225	749.89
211.442	562.99
211.66	612.94
211.878	418.44
212.095	416.73
212.313	418.54
212.53	451.88
212.748	493.68
212.966	647.59
213.183	570.81
213.401	386.33
213.618	432.35
213.836	557.17
214.053	801.06
214.271	2218.52
214.488	-1650.89
214.705	-1128.93
214.923	-857.84
215.14	-1408.15
215.358	-2220.87
215.575	-10664
215.793	-976.26
216.01	-2199.19
216.227	-12268.18
216.445	1408.7
216.662	997.76
216.879	588.37
217.097	459.63
217.314	422.52
217.531	418.96
217.749	444.07
217.966	434.92
218.183	414.76
218.4	313.68
218.618	280.79
218.835	299.06
219.052	288.25
219.269	298.76
219.487	295.6
219.704	302.05
219.921	319.21
220.138	297.91
220.355	287.12
220.572	262.59
220.79	265.07
221.007	269.85
221.224	244.88
221.441	211.3
221.658	183.01
221.875	169.41
222.092	159.58
222.309	157.31
222.526	146.58
222.743	152.93
222.96	148.24
223.177	142.7
223.394	134.1
223.611	143.68
223.828	148.26
224.045	146.41
224.262	140.85
224.479	135.63
224.696	120.75
224.913	121.27
225.13	108
225.347	105.09
225.564	103.57
225.781	97.36
225.997	87.96
226.214	81.3
226.431	71.36
226.648	68.64
226.865	61.55
227.082	55.66
227.298	48.43
227.515	43.89
227.732	39
227.949	34.87
228.165	32.49
228.382	28.79
228.599	26.67
228.816	25.04
229.032	23.26
229.249	22.95
229.466	22.87
229.682	22.62
229.899	22.53
230.116	22.97
230.332	23.48
230.549	24.28
230.765	26.44
230.982	26.95
231.199	29.11
231.415	30.5
231.632	31.73
231.848	32.41
232.065	34.31
232.281	35.27
232.498	35.35
232.714	37.45
232.931	37.48
233.147	37.49
233.364	38.49
233.58	38.71
233.797	39
234.013	39.23
234.23	38.5
234.446	37.19
234.662	36.43
234.879	36.97
235.095	36.19
235.312	35.91
235.528	36.19
235.744	35.62
235.961	36.99
236.177	36.97
236.393	37.49
236.61	38.15
236.826	39
237.042	39.96
237.258	40.89
237.475	42.07
237.691	41.5
237.907	41.24
238.123	42.61
238.339	42.3
238.556	42.97
238.772	41.21
238.988	38.72
239.204	37.34
239.42	35.93
239.636	33.74
239.853	32.31
240.069	32.04
240.285	30.41
240.501	27.55
240.717	24.92
240.933	23.27
241.149	22.23
241.365	21.9
241.581	20.44
241.797	19.12
242.013	17.61
242.229	16.62
242.445	16.08
242.661	15.87
242.877	16.2
243.093	16.1
243.309	15.45
243.525	15.79
243.741	16.55
243.957	17.78
244.173	18.39
244.388	20.11
244.604	20.4
244.82	20.48
245.036	19.92
245.252	19.39
245.468	18.8
245.683	18.64
245.899	17.97
246.115	16.35
246.331	15.34
246.547	14.83
246.762	14.19
246.978	13.73
247.194	13.3
247.409	12.84
247.625	12.48
247.841	12.46
248.057	12.56
248.272	12.25
248.488	12.03
248.703	12.04
248.919	12.5
249.135	12.9
249.35	13.51
249.566	14.33
249.782	15.53
249.997	16.91
250.213	17.12
250.428	17.91
250.644	19.17
250.859	21.22
251.075	21.59
251.29	20.86
251.506	19.79
251.721	19.5
251.937	19.25
252.152	19.27
252.368	18.94
252.583	19.37
252.798	19.22
253.014	19.42
253.229	19.61
253.445	20.59
253.66	21.85
253.875	23.55
254.091	24.43
254.306	25.12
254.521	25.31
254.737	25.8
254.952	25.43
255.167	24.91
255.383	24.04
255.598	23.66
255.813	21.93
256.028	21.97
256.244	20.93
256.459	20.57
256.674	19.79
256.889	19.07
257.104	18.45
257.32	18.69
257.535	18.38
257.75	17.56
257.965	16.13
258.18	15.55
258.395	13.9
258.61	12.83
258.826	11.55
259.041	11.09
259.256	10.77
259.471	10.29
259.686	9.59
259.901	9.01
260.116	8.79
260.331	8.71
260.546	8.52
260.761	8.66
260.976	8.94
261.191	9.63
261.406	10.14
261.621	10.54
261.836	10.93
262.05	11.79
262.265	12.87
262.48	13.61
262.695	14.05
262.91	14.69
263.125	15.09
263.34	15.62
263.555	15.63
263.769	15.9
263.984	16.08
264.199	16.34
264.414	16.78
264.629	16.47
264.843	16.41
265.058	16.49
265.273	16
265.488	15.53
265.702	15.37
265.917	15.13
266.132	14.14
266.346	13.64
266.561	12.93
266.776	12.62
266.99	12.09
267.205	11.67
267.42	11.85
267.634	11.75
267.849	12.15
268.063	12.32
268.278	12.11
268.492	12.53
268.707	12.91
268.922	13.58
269.136	13.15
269.351	13.43
269.565	13.14
269.78	13
269.994	13.22
270.209	13.15
270.423	12.82
270.637	12.69
270.852	11.94
271.066	11.59
271.281	11.2
271.495	11.25
271.709	11.06
271.924	11.16
272.138	10.83
272.353	10.9
272.567	10.65
272.781	10.49
272.996	10.13
273.21	10.52
273.424	10.73
273.638	10.85
273.853	11.1
274.067	11.32
274.281	11.76
274.495	12.02
274.71	12.37
274.924	12.26
275.138	12.31
275.352	13.19
275.566	13.09
275.781	12.78
275.995	13.14
276.209	13.02
276.423	12.68
276.637	12.48
276.851	12.49
277.065	11.93
277.279	12.12
277.493	12.21
277.707	11.96
277.921	12.11
278.135	12.39
278.349	12.27
278.563	12.16
278.777	12.79
278.991	12.41
279.205	12.51
279.419	12.44
279.633	12.39
279.847	12.05
280.061	11.95
280.275	11.92
280.489	11.65
280.703	11.2
280.917	11.12
281.131	10.59
281.344	10.97
281.558	10.63
281.772	10.52
281.986	10.4
282.2	10.67
282.414	10.6
282.627	10.23
282.841	10.45
283.055	10.63
283.269	10.48
283.482	10.37
283.696	9.96
283.91	10.4
284.123	10.37
284.337	10.62
284.551	10.1
284.764	10.08
284.978	10.36
285.192	9.89
285.405	9.75
285.619	9.63
285.833	9.77
286.046	10.03
286.26	9.84
286.473	9.61
286.687	9.35
286.9	9.55
287.114	9.57
287.327	9.61
287.541	9.91
287.754	9.92
287.968	10.16
288.181	10.12
288.395	9.9
288.608	9.77
288.822	9.99
289.035	9.89
289.248	9.83
289.462	9.86
289.675	9.85
289.889	9.5
290.102	9.61
290.315	9.69
290.529	9.76
290.742	9.85
290.955	9.68
291.169	10.06
291.382	10.16
291.595	10.43
291.808	10.66
292.022	10.33
292.235	10.57
292.448	10.28
292.661	10.59
292.875	10.72
293.088	10.83
293.301	11.27
293.514	11.14
293.727	11.05
293.94	10.8
294.153	10.73
294.367	10.76
294.58	10.71
294.793	10.87
295.006	10.82
295.219	10.78
295.432	10.98
295.645	10.82
295.858	10.41
296.071	10.58
296.284	10.66
296.497	10.54
296.71	10.49
296.923	10.54
297.136	10.53
297.349	10.27
297.562	10.11
297.775	10.19
297.988	10.38
298.201	10.91
298.414	11.07
298.626	11.13
298.839	11.31
299.052	11.49
299.265	11.89
299.478	12.15
299.691	12.23
299.903	12.56
300.116	12.8
300.329	12.78
300.542	12.77
300.755	12.66
300.967	12.7
301.18	12.63
301.393	12.9
301.605	12.56
301.818	12.59
302.031	12.99
302.243	13.1
302.456	13.01
302.669	13.25
302.881	13.23
303.094	13.3
303.307	13.44
303.519	13.37
303.732	13.49
303.944	13.63
304.157	13.77
304.37	13.81
304.582	13.71
304.795	13.58
305.007	13.44
305.22	13.32
305.432	13.3
305.645	13.4
305.857	13.78
306.069	13.87
306.282	14.26
306.494	14.33
306.707	14.14
306.919	14.51
307.132	14.4
307.344	14.36
307.556	14.61
307.769	15.08
307.981	15.04
308.193	14.65
308.406	14.14
308.618	13.89
308.83	13.52
309.043	13.17
309.255	13.02
309.467	12.99
309.679	13.03
309.892	12.81
310.104	12.17
310.316	12.31
310.528	12.63
310.74	12.95
310.953	12.9
311.165	12.99
311.377	13.32
311.589	13.37
311.801	13.29
312.013	13.11
312.225	13.28
312.437	13.48
312.649	13.5
312.862	13.7
313.074	13.6
313.286	13.97
313.498	14.03
313.71	14
313.922	13.74
314.134	14.16
314.346	14.62
314.558	14.94
314.77	15.24
314.982	15.11
315.193	14.93
315.405	15.21
315.617	14.86
315.829	15.59
316.041	15.77
316.253	16.02
316.465	15.99
316.677	16.06
316.888	15.83
317.1	15.66
317.312	15.81
317.524	15.92
317.736	15.97
317.947	16.3
318.159	16.15
318.371	16.1
318.583	16.48
318.794	16.56
319.006	16.44
319.218	16.68
319.43	16.86
319.641	17.46
319.853	17.32
320.064	17.61
320.276	17.33
320.488	17.33
320.699	17.31
320.911	17.2
321.123	17.33
321.334	17.33
321.546	17.3
321.757	17.4
321.969	17.12
322.18	17.25
322.392	17.17
322.603	17.27
322.815	17.1
323.026	17.2
323.238	16.91
323.449	16.42
323.661	16.35
323.872	16.47
324.083	16.56
324.295	16.22
324.506	16.06
324.718	16.09
324.929	16.21
325.14	16.28
325.352	16.53
325.563	16.8
325.774	16.96
325.986	16.96
326.197	17.22
326.408	17.09
326.62	17.2
326.831	17.47
327.042	17.2
327.253	17.28
327.464	16.95
327.676	16.71
327.887	16.52
328.098	16.38
328.309	17
328.52	16.84
328.732	17.06
328.943	17.17
329.154	16.94
329.365	17.42
329.576	17.36
329.787	17.9
329.998	18.09
330.209	18.29
330.42	18.5
330.631	18.33
330.842	18.19
331.053	18.21
331.264	18.38
331.475	18.76
331.686	18.75
331.897	18.94
332.108	18.97
332.319	19.02
332.53	19.15
332.741	19.01
332.952	18.89
333.163	18.55
333.374	18.7
333.585	18.64
333.795	18.37
334.006	18.27
334.217	17.81
334.428	17.75
334.639	17.93
334.849	17.75
335.06	17.61
335.271	17.58
335.482	17.75
335.692	17.56
335.903	17.52
336.114	17.54
336.325	17.45
336.535	17.85
336.746	18.12
336.957	17.68
337.167	17.52
337.378	17.71
337.589	17.69
337.799	17.73
338.01	17.51
338.22	17.34
338.431	17.01
338.642	16.93
338.852	16.82
339.063	16.33
339.273	16.21
339.484	16.52
339.694	16.62
339.905	16.85
340.115	16.75
340.326	16.55
340.536	16.61
340.746	16.75
340.957	16.59
341.167	16.29
341.378	16.5
341.588	16.72
341.799	16.94
342.009	16.86
342.219	16.49
342.43	16.32
342.64	16.58
342.85	16.31
343.061	16.32
343.271	16.32
343.481	16.63
343.691	16.18
343.902	16.02
344.112	15.48
344.322	15.28
344.532	15.22
344.743	15.18
344.953	15.07
345.163	15.16
345.373	14.81
345.583	14.59
345.793	14.35
346.004	14.58
346.214	14.73
346.424	15.14
346.634	15.47
346.844	15.55
347.054	15.72
347.264	15.75
347.474	16.05
347.684	16.3
347.894	16.47
348.104	16.47
348.314	16.35
348.524	16.33
348.734	15.78
348.944	15.33
349.154	14.97
349.364	15
349.574	14.76
349.784	14.53
349.994	14.67
350.204	14.76
350.413	14.87
350.623	14.9
350.833	14.91
351.043	15.05
351.253	15.36
351.463	15.68
351.672	15.61
351.882	15.84
352.092	15.78
352.302	15.65
352.511	15.48
352.721	15.34
352.931	15.08
353.141	15.07
353.35	15.03
353.56	14.67
353.77	14.31
353.979	14.23
354.189	14.11
354.399	14.16
354.608	14.27
354.818	14.49
355.027	14.28
355.237	14.4
355.447	14.13
355.656	14.21
355.866	14.46
356.075	14.47
356.285	14.24
356.494	14.27
356.704	14.15
356.913	14.06
357.123	13.88
357.332	14.12
357.542	14.14
357.751	14.23
357.96	14.06
358.17	14.03
358.379	13.83
358.589	14
358.798	13.86
359.007	13.85
359.217	13.74
359.426	13.64
359.635	13.3
359.845	13.27
360.054	13.14
360.263	13.11
360.472	13.04
360.682	13.1
360.891	12.92
361.1	12.88
361.309	12.53
361.519	12.56
361.728	12.39
361.937	12.41
362.146	12.22
362.355	12.2
362.564	12.21
362.774	12.11
362.983	12.22
363.192	12.19
363.401	12.36
363.61	12.81
363.819	12.8
364.028	12.96
364.237	12.94
364.446	13.02
364.655	12.96
364.864	13.03
365.073	13.05
365.282	13.14
365.491	13.14
365.7	12.95
365.909	12.89
366.118	12.78
366.327	12.88
366.536	13.04
366.745	13.12
366.954	13.44
367.162	13.36
367.371	13.34
367.58	13.37
367.789	13.37
367.998	13.39
368.207	13.21
368.415	13.11
368.624	13
368.833	13.01
369.042	13.01
369.25	12.74
369.459	12.99
369.668	12.71
369.877	12.66
370.085	12.86
370.294	12.82
370.503	12.69
370.711	12.68
370.92	12.71
371.129	12.73
371.337	12.66
371.546	12.72
371.754	12.38
371.963	12.62
372.171	12.69
372.38	12.32
372.589	12.47
372.797	12.78
373.006	12.84
373.214	12.83
373.423	12.37
373.631	12.27
373.84	12.11
374.048	12.04
374.256	12.06
374.465	11.8
374.673	12.03
374.882	11.92
375.09	11.66
375.298	11.56
375.507	11.39
375.715	11.5
375.923	11.56
376.132	11.55
376.34	11.51
376.548	11.46
376.757	11.53
376.965	11.52
377.173	11.35
377.381	11.12
377.59	11.16
377.798	11.19
378.006	11.33
378.214	11.2
378.423	11.3
378.631	11.1
378.839	11.07
379.047	11.01
379.255	11
379.463	11.11
379.671	11.44
379.879	11.62
380.088	11.87
380.296	11.73
380.504	11.73
380.712	11.77
380.92	11.94
381.128	11.78
381.336	11.62
381.544	11.41
381.752	11.28
381.96	10.91
382.168	10.42
382.376	10.22
382.584	10.43
382.791	10.31
382.999	10.11
383.207	10.04
383.415	10.12
383.623	10.07
383.831	10.05
384.039	9.86
384.247	9.98
384.454	10.34
384.662	10.12
384.87	9.88
385.078	10.02
385.285	9.98
385.493	10.09
385.701	10.01
385.909	10.14
386.116	10.27
386.324	10.34
386.532	10.32
386.739	10.16
386.947	10.08
387.155	10.23
387.362	10.08
387.57	10.12
387.778	9.89
387.985	9.77
388.193	9.73
388.4	9.43
388.608	9.59
388.816	9.53
389.023	9.78
389.231	9.84
389.438	9.52
389.646	9.53
389.853	9.42
390.061	9.51
390.268	9.48
390.475	9.37
390.683	9.73
390.89	9.6
391.098	9.75
391.305	9.37
391.512	9.39
391.72	9.44
391.927	9.37
392.135	9.45
392.342	9.53
392.549	9.47
392.756	9.45
392.964	9.1
393.171	9.05
393.378	8.91
393.586	8.94
393.793	8.9
394	8.77
394.207	8.73
394.414	8.66
394.622	8.42
394.829	8.4
395.036	8.36
395.243	8.45
395.45	8.42
395.657	8.35
395.864	8.31
396.072	8.26
396.279	8.37
396.486	8.47
396.693	8.39
396.9	8.62
397.107	8.6
397.314	8.53
397.521	8.41
397.728	8.46
397.935	8.53
398.142	8.49
398.349	8.51
398.556	8.56
398.763	8.48
398.97	8.39
399.177	8.14
399.383	8.26
399.59	8.38
399.797	8.47
400.004	8.39
400.211	8.21
400.418	8.34
400.625	8.31
400.831	8.39
401.038	8.4
401.245	8.49
401.452	8.42
401.658	8.35
401.865	8.18
402.072	8.2
402.279	8.24
402.485	8.28
402.692	8.12
402.899	8.03
403.105	7.94
403.312	7.78
403.519	7.78
403.725	7.84
403.932	7.84
404.138	7.89
404.345	7.8
404.552	7.68
404.758	7.61
404.965	7.69
405.171	7.72
405.378	7.64
405.584	7.69
405.791	7.56
405.997	7.68
406.204	7.77
406.41	7.55
406.617	7.64
406.823	7.72
407.029	7.89
407.236	7.97
407.442	7.97
407.649	8.07
407.855	8.01
408.061	8.15
408.268	7.96
408.474	8
408.68	8.09
408.887	8.03
409.093	7.9
409.299	7.6
409.505	7.23
409.712	7.2
409.918	6.95
410.124	6.96
410.33	6.8
410.537	6.73
410.743	6.67
410.949	6.72
411.155	6.71
411.361	6.85
411.567	7.04
411.773	7.23
411.98	7.22
412.186	7.43
412.392	7.52
412.598	7.61
412.804	7.82
413.01	7.74
413.216	7.78
413.422	7.72
413.628	7.69
413.834	7.62
414.04	7.56
414.246	7.61
414.452	7.36
414.658	7.36
414.864	7.45
415.07	7.3
415.275	7.17
415.481	7.2
415.687	7.08
415.893	6.92
416.099	6.87
416.305	6.89
416.511	6.68
416.716	6.78
416.922	6.56
417.128	6.45
417.334	6.56
417.539	6.52
417.745	6.36
417.951	6.35
418.157	6.28
418.362	6.19
418.568	6.12
418.774	6.17
418.979	6.11
419.185	6.15
419.391	6.11
419.596	5.98
419.802	5.96
420.008	5.92
420.213	6
420.419	5.99
420.624	6.01
420.83	5.93
421.035	5.85
421.241	5.85
421.446	5.79
421.652	5.75
421.857	5.66
422.063	5.6
422.268	5.57
422.474	5.46
422.679	5.49
422.885	5.49
423.09	5.48
423.295	5.43
423.501	5.44
423.706	5.46
423.911	5.42
424.117	5.51
424.322	5.53
424.527	5.54
424.733	5.55
424.938	5.47
425.143	5.47
425.349	5.51
425.554	5.65
425.759	5.63
425.964	5.66
426.169	5.67
426.375	5.67
426.58	5.76
426.785	5.81
426.99	5.9
427.195	6.01
427.4	6.1
427.605	6.15
427.811	6.17
428.016	6.15
428.221	6.07
428.426	6.13
428.631	6.26
428.836	6.34
429.041	6.39
429.246	6.35
429.451	6.31
429.656	6.31
429.861	6.43
430.066	6.37
430.271	6.35
430.476	6.39
430.681	6.45
430.886	6.28
431.09	6.16
431.295	6.07
431.5	6.09
431.705	6.14
431.91	6.16
432.115	6.12
432.32	6.15
432.524	6.14
432.729	6.2
432.934	6.13
433.139	6.12
433.343	6.16
433.548	6.14
433.753	6.11
433.958	6
434.162	5.9
434.367	5.82
434.572	5.69
434.776	5.66
434.981	5.55
435.186	5.55
435.39	5.65
435.595	5.72
435.799	5.73
436.004	5.81
436.209	5.87
436.413	5.86
436.618	5.83
436.822	5.87
437.027	6
437.231	6.07
437.436	6.08
437.64	5.97
437.845	5.81
438.049	5.88
438.253	5.74
438.458	5.69
438.662	5.73
438.867	5.77
439.071	5.76
439.275	5.68
439.48	5.64
439.684	5.65
439.888	5.61
440.093	5.6
440.297	5.51
440.501	5.5
440.706	5.55
440.91	5.57
441.114	5.52
441.318	5.56
441.523	5.57
441.727	5.55
441.931	5.51
442.135	5.51
442.339	5.52
442.543	5.59
442.748	5.58
442.952	5.59
443.156	5.55
443.36	5.56
443.564	5.55
443.768	5.58
443.972	5.61
444.176	5.64
444.38	5.72
444.584	5.74
444.788	5.77
444.992	5.8
445.196	5.74
445.4	5.61
445.604	5.59
445.808	5.57
446.012	5.54
446.216	5.5
446.42	5.45
446.624	5.38
446.828	5.33
447.032	5.21
447.235	5.15
447.439	5.15
447.643	5.25
447.847	5.3
448.051	5.28
448.254	5.27
448.458	5.34
448.662	5.42
448.866	5.42
449.069	5.47
449.273	5.54
449.477	5.67
449.681	5.69
449.884	5.76
450.088	5.74
450.292	5.76
450.495	5.8
450.699	5.73
450.902	5.67
451.106	5.8
451.31	5.78
451.513	5.8
451.717	5.67
451.92	5.71
452.124	5.64
452.327	5.67
452.531	5.61
452.734	5.58
452.938	5.56
453.141	5.53
453.345	5.42
453.548	5.44
453.752	5.44
453.955	5.52
454.158	5.39
454.362	5.31
454.565	5.29
454.769	5.42
454.972	5.45
455.175	5.49
455.379	5.61
455.582	5.57
455.785	5.56
455.988	5.63
456.192	5.66
456.395	5.86
456.598	5.95
456.801	5.89
457.005	5.88
457.208	5.92
457.411	5.87
457.614	5.74
457.817	5.66
