Data from 2938780__Reflection_01.txt Node
Date: Fri Mar 13 13:00:39 EDT 2015
User: robert
Spectrometer: USB4E03002
Autoset integration time: false
Trigger mode: 4
Integration Time (sec): 1.000000E-1
Scans to average: 10
Electric dark correction enabled: false
Nonlinearity correction enabled: false
Boxcar width: 5
Stray light correction enabled: false
XAxis mode: Wavelengths
Stop averaging: false
Number of Pixels in Spectrum: 3648
>>>>>Begin Spectral Data<<<<<
177.575	101.15
177.794	104.45
178.014	107.58
178.233	105.6
178.452	108.36
178.672	101.53
178.891	98.07
179.11	91.57
179.33	93.96
179.549	90.72
179.768	94.64
179.987	99.13
180.207	95.78
180.426	90.2
180.645	91.67
180.864	90.95
181.084	92
181.303	92.48
181.522	95.46
181.741	92.13
181.96	96.33
182.179	91.8
182.398	86.71
182.618	85.08
182.837	87.02
183.056	84.57
183.275	80.53
183.494	78.71
183.713	78.34
183.932	80.4
184.151	79.8
184.37	77.44
184.589	80.23
184.808	81.04
185.027	80.18
185.246	83.45
185.465	84.01
185.684	90.46
185.903	93.7
186.122	93.58
186.341	89.99
186.56	87.41
186.779	88.05
186.998	86.44
187.216	90.91
187.435	95.95
187.654	88.46
187.873	86.25
188.092	84.58
188.311	83.82
188.53	85.66
188.748	84.56
188.967	89.22
189.186	88.61
189.405	90.89
189.623	89.72
189.842	88.87
190.061	93.35
190.28	99.13
190.498	97.27
190.717	100.94
190.936	99.38
191.154	105.26
191.373	102.13
191.592	100.38
191.81	101.67
192.029	100.03
192.248	99.87
192.466	96.23
192.685	91.45
192.904	93.56
193.122	90.43
193.341	94.21
193.559	90.97
193.778	92.87
193.996	94.51
194.215	90.9
194.433	92.22
194.652	91.24
194.87	93.15
195.089	94.64
195.307	90.68
195.526	90.86
195.744	86.86
195.963	86.93
196.181	86.83
196.399	84.25
196.618	85.49
196.836	85.51
197.055	85.76
197.273	86.36
197.491	85.39
197.71	93.94
197.928	94.34
198.146	93.71
198.365	98.08
198.583	96.99
198.801	97.8
199.019	97.94
199.238	98.43
199.456	104.05
199.674	100.51
199.892	100.76
200.111	93.4
200.329	100.06
200.547	97.73
200.765	96.51
200.983	97.79
201.202	101.79
201.42	105
201.638	101.83
201.856	94.16
202.074	98.42
202.292	94.09
202.51	93.82
202.728	88.89
202.946	91.21
203.165	90.53
203.383	92.28
203.601	87.9
203.819	88.24
204.037	86.01
204.255	84.94
204.473	83.32
204.691	85.69
204.909	87.31
205.127	87.95
205.345	88.85
205.562	83.28
205.78	76.01
205.998	75.13
206.216	72.04
206.434	74.38
206.652	80.05
206.87	77.5
207.088	77.51
207.306	80.16
207.523	80.5
207.741	82.55
207.959	84.24
208.177	88.65
208.395	92.43
208.612	90.47
208.83	89.53
209.048	85.17
209.266	85.57
209.483	85.09
209.701	84.12
209.919	80.42
210.136	81.42
210.354	79.08
210.572	78.73
210.79	76.94
211.007	78.6
211.225	79.06
211.442	78.17
211.66	81.27
211.878	87.17
212.095	89.51
212.313	92.17
212.53	87.9
212.748	89.72
212.966	88.35
213.183	89.23
213.401	88.57
213.618	86.5
213.836	88.12
214.053	86.12
214.271	79.08
214.488	74.27
214.705	74.99
214.923	73.83
215.14	73.11
215.358	72.05
215.575	69.8
215.793	72.46
216.01	72.98
216.227	73.12
216.445	71.39
216.662	73.62
216.879	74.66
217.097	70.52
217.314	68.18
217.531	67.46
217.749	70.41
217.966	73.06
218.183	71.12
218.4	69.95
218.618	70.38
218.835	65.21
219.052	65.25
219.269	64.54
219.487	65.47
219.704	70.04
219.921	70.63
220.138	68.88
220.355	62.2
220.572	58.81
220.79	59.36
221.007	61.42
221.224	63.56
221.441	62.61
221.658	64.32
221.875	63.23
222.092	59.67
222.309	58.59
222.526	57.45
222.743	59.95
222.96	60.02
223.177	58.89
223.394	52.27
223.611	50.27
223.828	50.4
224.045	48.9
224.262	44.91
224.479	42.85
224.696	44.07
224.913	44.23
225.13	44.09
225.347	43.53
225.564	42.25
225.781	41.14
225.997	40.15
226.214	37.32
226.431	32.99
226.648	32.9
226.865	31.97
227.082	27.3
227.298	22.69
227.515	18.92
227.732	16.63
227.949	16.04
228.165	15.74
228.382	14.84
228.599	14.37
228.816	13.88
229.032	12.31
229.249	11.39
229.466	11.48
229.682	11.81
229.899	12.77
230.116	12.82
230.332	12.52
230.549	12.25
230.765	12.91
230.982	12.76
231.199	13.85
231.415	16.22
231.632	17.64
231.848	17.78
232.065	19.04
232.281	19.29
232.498	19.48
232.714	19.03
232.931	20.28
233.147	20.66
233.364	21.14
233.58	20.34
233.797	19.99
234.013	19.92
234.23	20.09
234.446	19.89
234.662	19.02
234.879	19.06
235.095	19.07
235.312	18.48
235.528	19.17
235.744	18.05
235.961	18.3
236.177	18.02
236.393	18.24
236.61	19.49
236.826	19.3
237.042	20.37
237.258	20.37
237.475	21.94
237.691	23.15
237.907	22.8
238.123	23.87
238.339	24.13
238.556	24.76
238.772	23.27
238.988	22.59
239.204	22.23
239.42	20.95
239.636	21.05
239.853	19.73
240.069	17.96
240.285	16.92
240.501	15.52
240.717	14.35
240.933	13.04
241.149	12.31
241.365	11.01
241.581	9.83
241.797	9.17
242.013	8.15
242.229	7.62
242.445	7.3
242.661	6.97
242.877	6.82
243.093	6.62
243.309	6.65
243.525	6.71
243.741	6.78
243.957	7.2
244.173	8
244.388	8.48
244.604	8.6
244.82	8.74
245.036	8.52
245.252	7.85
245.468	7.53
245.683	6.49
245.899	5.9
246.115	5.69
246.331	4.98
246.547	4.54
246.762	3.89
246.978	3.64
247.194	3.26
247.409	2.87
247.625	2.76
247.841	2.27
248.057	2.66
248.272	2.83
248.488	2.76
248.703	3.11
248.919	3.28
249.135	3.84
249.35	4.55
249.566	5.29
249.782	6.21
249.997	7.25
250.213	8.24
250.428	8.57
250.644	9.38
250.859	9.76
251.075	9.6
251.29	10.32
251.506	9.69
251.721	9.59
251.937	9.16
252.152	8.93
252.368	8.97
252.583	9.27
252.798	9.18
253.014	9.25
253.229	9.42
253.445	9.93
253.66	9.26
253.875	10.41
254.091	10.89
254.306	11.56
254.521	13.25
254.737	14.06
254.952	14
255.167	14.12
255.383	13.33
255.598	12.96
255.813	12.26
256.028	12.65
256.244	12.18
256.459	12.54
256.674	12.08
256.889	10.22
257.104	9.6
257.32	9.44
257.535	8.82
257.75	8.55
257.965	8.05
258.18	7.54
258.395	6.47
258.61	5.49
258.826	4.28
259.041	4.15
259.256	3.79
259.471	3.04
259.686	2.87
259.901	2.6
260.116	2.36
260.331	2.05
260.546	2.1
260.761	2.3
260.976	2.72
261.191	2.61
261.406	2.35
261.621	3.15
261.836	3.81
262.05	3.93
262.265	4.25
262.48	5.13
262.695	6.01
262.91	6.54
263.125	6.88
263.34	6.87
263.555	8
263.769	9.25
263.984	8.42
264.199	8.37
264.414	8.69
264.629	9.12
264.843	8.99
265.058	8.91
265.273	8.77
265.488	8.32
265.702	8.15
265.917	7.77
266.132	6.95
266.346	6.95
266.561	7.29
266.776	7.01
266.99	6.93
267.205	6.77
267.42	6.63
267.634	6.11
267.849	6.11
268.063	6.26
268.278	6.04
268.492	6.3
268.707	6.14
268.922	5.53
269.136	5.89
269.351	5.52
269.565	5.08
269.78	4.68
269.994	4.74
270.209	4.72
270.423	4.06
270.637	4.19
270.852	3.99
271.066	4.06
271.281	4.26
271.495	3.87
271.709	4.19
271.924	4.15
272.138	4.53
272.353	4.83
272.567	4.93
272.781	5.52
272.996	5.35
273.21	5.37
273.424	5.26
273.638	5.22
273.853	5.61
274.067	5.54
274.281	5.87
274.495	5.99
274.71	6.01
274.924	6.37
275.138	6.43
275.352	6.22
275.566	6.44
275.781	6.77
275.995	7.05
276.209	6.88
276.423	6.82
276.637	7.01
276.851	7.04
277.065	6.7
277.279	6.32
277.493	5.69
277.707	6.31
277.921	5.99
278.135	5.53
278.349	5.11
278.563	4.96
278.777	5.25
278.991	4.98
279.205	4.98
279.419	5.3
279.633	5.06
279.847	5.27
280.061	5.28
280.275	4.84
280.489	5.17
280.703	5.32
280.917	5.2
281.131	4.93
281.344	4.59
281.558	4.19
281.772	4.45
281.986	4.72
282.2	4.97
282.414	4.77
282.627	5.02
282.841	5.03
283.055	5.07
283.269	5
283.482	4.98
283.696	4.96
283.91	5.03
284.123	4.22
284.337	3.71
284.551	3.37
284.764	3.22
284.978	2.91
285.192	2.83
285.405	2.71
285.619	2.52
285.833	2.54
286.046	2.73
286.26	2.8
286.473	3.1
286.687	3.24
286.9	3.49
287.114	3.31
287.327	3.6
287.541	3.66
287.754	3.47
287.968	4.14
288.181	4.14
288.395	4.09
288.608	3.99
288.822	4.11
289.035	4.12
289.248	3.79
289.462	3.82
289.675	3.63
289.889	3.52
290.102	3.58
290.315	3.02
290.529	2.8
290.742	2.79
290.955	2.77
291.169	2.86
291.382	2.82
291.595	3.08
291.808	3.41
292.022	3.85
292.235	3.98
292.448	4.24
292.661	4.39
292.875	4.87
293.088	4.82
293.301	4.9
293.514	4.65
293.727	4.51
293.94	4.49
294.153	4.22
294.367	4.04
294.58	3.83
294.793	3.48
295.006	3.48
295.219	2.93
295.432	3.04
295.645	2.86
295.858	2.67
296.071	2.69
296.284	2.49
296.497	2.23
296.71	2.06
296.923	2.06
297.136	2.31
297.349	2.14
297.562	2.39
297.775	2.1
297.988	2.14
298.201	2.38
298.414	2.39
298.626	2.38
298.839	2.47
299.052	2.38
299.265	2.69
299.478	2.46
299.691	2.79
299.903	2.91
300.116	3.41
300.329	3.48
300.542	3.34
300.755	3.49
300.967	3.73
301.18	4.09
301.393	4.51
301.605	4.29
301.818	4.31
302.031	4.47
302.243	4.21
302.456	4.05
302.669	4.2
302.881	4.43
303.094	4.61
303.307	4.39
303.519	4.22
303.732	4.14
303.944	4.03
304.157	3.97
304.37	3.42
304.582	3.74
304.795	3.94
305.007	4.02
305.22	3.93
305.432	3.75
305.645	3.92
305.857	4.33
306.069	4.42
306.282	4.24
306.494	4.33
306.707	4.78
306.919	4.52
307.132	4.15
307.344	3.85
307.556	3.76
307.769	3.96
307.981	3.94
308.193	3.44
308.406	3.27
308.618	3.39
308.83	3.61
309.043	3.35
309.255	3.1
309.467	3.07
309.679	2.9
309.892	3.02
310.104	2.76
310.316	2.84
310.528	2.84
310.74	2.93
310.953	2.59
311.165	2.56
311.377	2.6
311.589	2.96
311.801	2.79
312.013	2.91
312.225	2.61
312.437	2.5
312.649	2.32
312.862	2.63
313.074	2.65
313.286	3.27
313.498	3.36
313.71	3.29
313.922	3.14
314.134	3.8
314.346	4.14
314.558	4.4
314.77	4.83
314.982	5.19
315.193	5.19
315.405	5.17
315.617	5.09
315.829	5
316.041	5.41
316.253	5.56
316.465	5.22
316.677	4.96
316.888	5.23
317.1	5.49
317.312	5.3
317.524	5.42
317.736	5.7
317.947	6.17
318.159	6.45
318.371	6.18
318.583	6.05
318.794	6.26
319.006	6.35
319.218	6.25
319.43	6.09
319.641	6.29
319.853	5.9
320.064	5.93
320.276	5.45
320.488	5.35
320.699	5.61
320.911	5.96
321.123	6.01
321.334	6.02
321.546	5.85
321.757	6.18
321.969	6.19
322.18	6.65
322.392	6.08
322.603	6.49
322.815	6.09
323.026	6.1
323.238	5.85
323.449	5.38
323.661	5.53
323.872	5.5
324.083	5
324.295	4.47
324.506	4.24
324.718	4.37
324.929	4.18
325.14	4.24
325.352	4.08
325.563	4.33
325.774	4.71
325.986	4.46
326.197	4.58
326.408	4.59
326.62	4.75
326.831	4.78
327.042	4.82
327.253	4.94
327.464	5.13
327.676	5.01
327.887	4.84
328.098	4.75
328.309	4.85
328.52	4.65
328.732	4.57
328.943	4.77
329.154	5.03
329.365	5.41
329.576	5.41
329.787	5.29
329.998	5.81
330.209	5.53
330.42	5.86
330.631	5.68
330.842	5.94
331.053	6.43
331.264	6.21
331.475	6.16
331.686	5.89
331.897	5.8
332.108	5.93
332.319	5.65
332.53	5.8
332.741	5.49
332.952	5.9
333.163	5.97
333.374	5.69
333.585	5.83
333.795	5.81
334.006	5.41
334.217	5.23
334.428	5.15
334.639	5.24
334.849	4.93
335.06	5.01
335.271	4.98
335.482	5
335.692	4.74
335.903	4.78
336.114	4.44
336.325	4.67
336.535	4.79
336.746	4.61
336.957	4.69
337.167	5.27
337.378	5.29
337.589	5.14
337.799	4.83
338.01	5.3
338.22	5.17
338.431	5.15
338.642	5.21
338.852	5.06
339.063	5.47
339.273	5.43
339.484	5.08
339.694	4.94
339.905	5.12
340.115	5.26
340.326	5.09
340.536	5.19
340.746	5.3
340.957	5.32
341.167	5.49
341.378	5.47
341.588	5.39
341.799	5.4
342.009	5.47
342.219	5.25
342.43	5.16
342.64	5.45
342.85	5.36
343.061	5.47
343.271	5.66
343.481	5.66
343.691	5.37
343.902	5.28
344.112	5.5
344.322	5.36
344.532	5.52
344.743	5.43
344.953	5.1
345.163	5
345.373	4.73
345.583	4.62
345.793	4.61
346.004	4.81
346.214	4.95
346.424	4.93
346.634	5.15
346.844	5.35
347.054	5.5
347.264	5.51
347.474	5.68
347.684	5.98
347.894	6.01
348.104	5.91
348.314	5.84
348.524	5.83
348.734	5.85
348.944	5.95
349.154	5.57
349.364	5.7
349.574	5.79
349.784	5.99
349.994	5.86
350.204	6.1
350.413	6.39
350.623	6.33
350.833	6.4
351.043	6.28
351.253	6.28
351.463	6.25
351.672	6.41
351.882	6.25
352.092	6.05
352.302	6.33
352.511	6.14
352.721	6.03
352.931	5.97
353.141	5.97
353.35	5.86
353.56	5.56
353.77	5.85
353.979	5.73
354.189	6.1
354.399	6.1
354.608	5.96
354.818	5.64
355.027	5.63
355.237	5.79
355.447	5.71
355.656	5.7
355.866	5.79
356.075	5.76
356.285	5.79
356.494	5.47
356.704	5.44
356.913	5.35
357.123	5.68
357.332	5.63
357.542	5.59
357.751	5.53
357.96	5.66
358.17	5.73
358.379	5.63
358.589	5.72
358.798	5.9
359.007	6
359.217	6.14
359.426	5.8
359.635	5.67
359.845	5.57
360.054	5.55
360.263	5.21
360.472	5.18
360.682	4.99
360.891	4.87
361.1	4.4
361.309	4.21
361.519	4.13
361.728	4.2
361.937	4.19
362.146	4.26
362.355	4.41
362.564	4.82
362.774	4.79
362.983	4.82
363.192	4.76
363.401	5.14
363.61	5.37
363.819	5.67
364.028	5.92
364.237	6.19
364.446	6.39
364.655	6.52
364.864	6.39
365.073	6.53
365.282	6.77
365.491	6.93
365.7	7.05
365.909	7.05
366.118	7.26
366.327	7.42
366.536	7.53
366.745	7.35
366.954	7.24
367.162	7.48
367.371	7.48
367.58	7.81
367.789	7.75
367.998	7.87
368.207	7.97
368.415	7.83
368.624	7.94
368.833	8.01
369.042	8.3
369.25	8.74
369.459	8.9
369.668	9
369.877	8.81
370.085	8.8
370.294	8.86
370.503	9.18
370.711	8.97
370.92	8.58
371.129	8.5
371.337	8.28
371.546	7.97
371.754	7.81
371.963	7.7
372.171	7.52
372.38	7.73
372.589	7.62
372.797	7.3
373.006	7.48
373.214	7.5
373.423	7.3
373.631	7.23
373.84	7.22
374.048	7.13
374.256	7.27
374.465	7.48
374.673	7.35
374.882	7.54
375.09	7.98
375.298	7.67
375.507	7.87
375.715	8.06
375.923	8.17
376.132	8.09
376.34	8.09
376.548	7.94
376.757	7.85
376.965	7.94
377.173	7.78
377.381	7.32
377.59	7.59
377.798	7.54
378.006	7.45
378.214	7.45
378.423	7.64
378.631	7.55
378.839	7.79
379.047	7.8
379.255	7.88
379.463	8.02
379.671	8.11
379.879	8.09
380.088	8.06
380.296	8.12
380.504	8.21
380.712	7.89
380.92	7.88
381.128	7.85
381.336	7.87
381.544	7.62
381.752	7.25
381.96	7.2
382.168	6.87
382.376	7.08
382.584	6.97
382.791	7
382.999	6.94
383.207	6.96
383.415	6.92
383.623	6.96
383.831	6.99
384.039	7.27
384.247	7.44
384.454	7.72
384.662	7.58
384.87	7.57
385.078	7.48
385.285	7.55
385.493	7.68
385.701	7.53
385.909	7.44
386.116	7.58
386.324	7.37
386.532	7.3
386.739	7.33
386.947	7.49
387.155	7.72
387.362	7.88
387.57	7.98
387.778	8.07
387.985	8.33
388.193	8.62
388.4	8.85
388.608	9.46
388.816	9.72
389.023	10.12
389.231	10.23
389.438	10.31
389.646	10.53
389.853	10.73
390.061	10.7
390.268	10.8
390.475	10.61
390.683	10.4
390.89	9.91
391.098	9.72
391.305	9.29
391.512	9.05
391.72	8.79
391.927	8.45
392.135	8.32
392.342	8.36
392.549	8.29
392.756	8.16
392.964	8.09
393.171	8.32
393.378	8.44
393.586	8.54
393.793	8.57
394	8.8
394.207	9.13
394.414	9.27
394.622	9.31
394.829	9.36
395.036	9.63
395.243	9.72
395.45	9.82
395.657	9.9
395.864	10.15
396.072	10.47
396.279	10.74
396.486	10.83
396.693	11.15
396.9	11.67
397.107	12.14
397.314	12.72
397.521	13.26
397.728	13.74
397.935	14.11
398.142	14.55
398.349	15.12
398.556	15.55
398.763	15.95
398.97	16.35
399.177	16.6
399.383	16.91
399.59	17.21
399.797	17.64
400.004	18.07
400.211	18.74
400.418	19.18
400.625	19.32
400.831	19.56
401.038	20.09
401.245	20.4
401.452	20.66
401.658	20.83
401.865	20.9
402.072	21.02
402.279	20.83
402.485	20.59
402.692	20.48
402.899	20.61
403.105	20.54
403.312	20.29
403.519	19.93
403.725	19.88
403.932	19.62
404.138	19.48
404.345	19.38
404.552	19.48
404.758	19.54
404.965	19.44
405.171	19.54
405.378	19.54
405.584	19.68
405.791	20.07
405.997	20.25
406.204	20.89
406.41	21.31
406.617	21.74
406.823	22.31
407.029	22.7
407.236	23.34
407.442	23.77
407.649	24.59
407.855	25.09
408.061	25.55
408.268	25.88
408.474	26.19
408.68	26.36
408.887	26.49
409.093	26.3
409.299	26.66
409.505	26.81
409.712	26.87
409.918	26.8
410.124	27.02
410.33	27.16
410.537	27.51
410.743	27.65
410.949	28.2
411.155	28.67
411.361	29.33
411.567	29.58
411.773	29.97
411.98	30.27
412.186	30.78
412.392	31.13
412.598	31.71
412.804	32.05
413.01	32.37
413.216	32.53
413.422	32.62
413.628	32.67
413.834	32.62
414.04	32.63
414.246	32.66
414.452	32.3
414.658	32.06
414.864	31.52
415.07	31.17
415.275	30.6
415.481	30.26
415.687	29.68
415.893	29.02
416.099	28.38
416.305	27.71
416.511	27.06
416.716	26.37
416.922	25.58
417.128	24.94
417.334	24.15
417.539	23.55
417.745	22.74
417.951	22.19
418.157	21.55
418.362	21.1
418.568	20.48
418.774	19.81
418.979	19.38
419.185	18.93
419.391	18.44
419.596	17.96
419.802	17.54
420.008	17.23
420.213	17.56
420.419	17.34
420.624	17.01
420.83	16.9
421.035	16.77
421.241	16.62
421.446	16.54
421.652	16.47
421.857	16.41
422.063	16.45
422.268	16.4
422.474	15.73
422.679	15.63
422.885	15.59
423.09	15.43
423.295	15.37
423.501	15.3
423.706	15.26
423.911	15.26
424.117	15.33
424.322	15.3
424.527	15.36
424.733	15.46
424.938	15.66
425.143	15.83
425.349	16.11
425.554	16.33
425.759	16.8
425.964	17.23
426.169	17.76
426.375	18.25
426.58	18.92
426.785	19.45
426.99	20.06
427.195	20.72
427.4	21.37
427.605	21.9
427.811	22.54
428.016	22.84
428.221	23.15
428.426	23.08
428.631	23.14
428.836	23.03
429.041	22.95
429.246	22.83
429.451	22.62
429.656	22.47
429.861	22.45
430.066	22.32
430.271	22.28
430.476	22.3
430.681	22.68
430.886	22.8
431.09	23.05
431.295	23.29
431.5	23.45
431.705	23.21
431.91	23.25
432.115	23.12
432.32	23.04
432.524	22.89
432.729	22.82
432.934	22.49
433.139	22.55
433.343	22.68
433.548	22.85
433.753	23.17
433.958	23.9
434.162	24.54
434.367	25.32
434.572	26.2
434.776	27.12
434.981	27.98
435.186	28.95
435.39	29.73
435.595	30.23
435.799	30.46
436.004	30.62
436.209	30.51
436.413	30.12
436.618	29.62
436.822	28.95
437.027	28.2
437.231	27.44
437.436	26.65
437.64	25.73
437.845	24.95
438.049	24.38
438.253	23.71
438.458	23.12
438.662	22.52
438.867	22.04
439.071	21.54
439.275	21.09
439.48	20.63
439.684	20.32
439.888	20.11
440.093	19.91
440.297	19.74
440.501	19.72
440.706	19.78
440.91	19.96
441.114	20.06
441.318	20.35
441.523	20.74
441.727	21.27
441.931	21.69
442.135	22.28
442.339	22.73
442.543	23.27
442.748	23.64
442.952	23.99
443.156	24.22
443.36	24.36
443.564	24.34
443.768	24.19
443.972	23.8
444.176	23.42
444.38	22.79
444.584	22.26
444.788	21.53
444.992	20.99
445.196	20.32
445.4	19.73
445.604	19.29
445.808	18.97
446.012	18.56
446.216	18.37
446.42	18.25
446.624	18.21
446.828	18.2
447.032	18.35
447.235	18.56
447.439	18.92
447.643	19.36
447.847	19.82
448.051	20.27
448.254	20.99
448.458	21.62
448.662	22.34
448.866	23.07
449.069	23.91
449.273	24.69
449.477	25.41
449.681	26.08
449.884	26.82
450.088	27.47
450.292	27.98
450.495	28.31
450.699	28.56
450.902	28.57
451.106	28.6
451.31	28.62
451.513	28.6
451.717	28.32
451.92	28.15
452.124	27.93
452.327	27.68
452.531	27.51
452.734	27.34
452.938	27.42
453.141	27.61
453.345	27.85
453.548	27.9
453.752	28.1
453.955	28.43
454.158	28.7
454.362	28.93
454.565	29.29
454.769	29.73
454.972	30.09
455.175	30.31
455.379	30.5
455.582	30.65
455.785	30.95
455.988	31.09
456.192	31.25
456.395	31.34
456.598	31.32
456.801	31.21
457.005	30.86
457.208	30.62
457.411	29.97
457.614	29.37
457.817	28.45
458.021	27.42
458.224	26.38
458.427	25.31
458.63	24.28
458.833	23.42
459.036	22.51
459.239	21.88
459.442	21.18
459.645	20.81
459.848	20.48
460.051	20.47
460.254	20.64
460.457	21.04
460.66	21.53
460.863	22.16
461.066	22.88
461.269	23.76
461.472	24.65
461.675	25.72
461.878	26.85
462.081	28.02
462.284	28.99
462.486	29.85
462.689	30.5
462.892	31.2
463.095	31.86
463.298	32.49
463.5	32.92
463.703	33.14
463.906	33.3
464.109	33.38
464.311	33.39
464.514	33.38
464.717	33.45
464.92	33.56
465.122	33.5
465.325	33.47
465.528	33.31
465.73	33.22
465.933	33.1
466.135	33.19
466.338	33.04
