Data from 2938759__Reflection_05.txt Node
Date: Fri Mar 13 18:28:18 EDT 2015
User: robert
Spectrometer: USB4E03002
Autoset integration time: false
Trigger mode: 4
Integration Time (sec): 1.000000E-1
Scans to average: 10
Electric dark correction enabled: false
Nonlinearity correction enabled: false
Boxcar width: 5
Stray light correction enabled: false
XAxis mode: Wavelengths
Stop averaging: false
Number of Pixels in Spectrum: 3648
>>>>>Begin Spectral Data<<<<<
177.575	-110.23
177.794	-678.57
178.014	43.1
178.233	151.35
178.452	1900
178.672	31.21
178.891	9.68
179.11	51.69
179.33	37.4
179.549	53.01
179.768	68.06
179.987	76.88
180.207	127.27
180.426	133.74
180.645	531.67
180.864	-106.67
181.084	-95.69
181.303	-73.83
181.522	-71.65
181.741	-57.86
181.96	-43.41
182.179	-32.19
182.398	-23.85
182.618	-38.84
182.837	-100.78
183.056	-169.07
183.275	-258.15
183.494	-71.15
183.713	-560.32
183.932	-725
184.151	40500
184.37	132.19
184.589	143.53
184.808	135.03
185.027	134.38
185.246	103.37
185.465	140.73
185.684	114.12
185.903	145.05
186.122	298.2
186.341	132.56
186.56	-69.23
186.779	-33.33
186.998	-15.29
187.216	11.82
187.435	15.79
187.654	36.49
187.873	22.77
188.092	23.55
188.311	35.35
188.53	39.79
188.748	8.98
188.967	-26.1
189.186	84.71
189.405	5.88
189.623	42.59
189.842	67.58
190.061	125.26
190.28	74.86
190.498	80.05
190.717	144.01
190.936	102.4
191.154	109.81
191.373	65.76
191.592	127.98
191.81	-1093.75
192.029	-502.5
192.248	-53.5
192.466	24.59
192.685	52.04
192.904	113.02
193.122	489.36
193.341	878.95
193.559	1269.23
193.778	-636.36
193.996	-14.47
194.215	-40.11
194.433	-71.96
194.652	11.11
194.87	-1800
195.089	129.27
195.307	-183.87
195.526	16.32
195.744	-4.36
195.963	41.37
196.181	59.44
196.399	82.3
196.618	74.4
196.836	122.97
197.055	153.44
197.273	116.75
197.491	166.38
197.71	131.71
197.928	241.14
198.146	171.15
198.365	173.74
198.583	98.96
198.801	8.84
199.019	-24.82
199.238	-105.33
199.456	-100.87
199.674	-53.61
199.892	-81.68
200.111	-102.44
200.329	-36.2
200.547	-22.34
200.765	5.77
200.983	46.99
201.202	21.29
201.42	33.72
201.638	46.15
201.856	46.24
202.074	80.71
202.292	54.3
202.51	1.04
202.728	-54.42
202.946	-76.85
203.165	-106.42
203.383	-523.71
203.601	-758.7
203.819	-99.74
204.037	-92.14
204.255	-51.28
204.473	-135.59
204.691	-116.55
204.909	-45.88
205.127	-31.01
205.345	25.8
205.562	14.34
205.78	-18.36
205.998	48.72
206.216	17.05
206.434	15.85
206.652	-11.01
206.87	44.82
207.088	52.52
207.306	31.23
207.523	17.8
207.741	19.77
207.959	36.88
208.177	38.74
208.395	32.81
208.612	8.68
208.83	0.54
209.048	52.2
209.266	28.47
209.483	20.8
209.701	53.94
209.919	44.49
210.136	14.81
210.354	-1.7
210.572	14.22
210.79	15.34
211.007	19.48
211.225	14.15
211.442	-9.98
211.66	4.75
211.878	-13.29
212.095	-17.14
212.313	-37.84
212.53	4.42
212.748	-35.45
212.966	-9
213.183	-35.03
213.401	7.65
213.618	21.06
213.836	-5.88
214.053	-114.29
214.271	-13.41
214.488	13.56
214.705	-20.24
214.923	-10.86
215.14	-2.21
215.358	-3.61
215.575	5.39
215.793	-19.81
216.01	-20.18
216.227	3.67
216.445	15.06
216.662	7.36
216.879	8.14
217.097	11.09
217.314	-1.07
217.531	6.71
217.749	-19.32
217.966	-12.86
218.183	10.63
218.4	19.06
218.618	17.58
218.835	30.17
219.052	25.46
219.269	7.09
219.487	16.67
219.704	26.56
219.921	33.97
220.138	28.91
220.355	27.17
220.572	26.84
220.79	18.2
221.007	6.74
221.224	-10.36
221.441	-6.72
221.658	3.71
221.875	-0.1
222.092	2.45
222.309	-3.52
222.526	-6.24
222.743	-8.44
222.96	-7.83
223.177	-10.9
223.394	-9.13
223.611	-5.82
223.828	-4.46
224.045	-16.03
224.262	-11.04
224.479	-12.56
224.696	-9.8
224.913	-7.61
225.13	-9.05
225.347	-12.72
225.564	-8.78
225.781	-8.31
225.997	-4.3
226.214	-0.45
226.431	3.83
226.648	2.32
226.865	0.05
227.082	-1.01
227.298	0.78
227.515	2.47
227.732	3.21
227.949	3.33
228.165	4.94
228.382	5.25
228.599	4.94
228.816	5.08
229.032	5.09
229.249	4.71
229.466	5.38
229.682	6.1
229.899	6.21
230.116	5.98
230.332	5.47
230.549	5.09
230.765	3.81
230.982	3.3
231.199	2.92
231.415	3.29
231.632	2.88
231.848	2.53
232.065	0.88
232.281	0.69
232.498	-0.36
232.714	0.6
232.931	0.02
233.147	0.57
233.364	0.81
233.58	0.57
233.797	-1.37
234.013	-0.4
234.23	-1.84
234.446	-0.4
234.662	-0.93
234.879	0.01
235.095	1.15
235.312	2.76
235.528	3.11
235.744	2.87
235.961	3.24
236.177	5.55
236.393	6.49
236.61	7.13
236.826	6.75
237.042	8.09
237.258	8.88
237.475	8.4
237.691	5.87
237.907	4.33
238.123	3.46
238.339	2.97
238.556	2.42
238.772	0.78
238.988	0.32
239.204	1.3
239.42	0.64
239.636	0.54
239.853	1.6
240.069	2.82
240.285	4.3
240.501	4.27
240.717	3.9
240.933	3.81
241.149	4.75
241.365	4.75
241.581	4.48
241.797	4.37
242.013	4.41
242.229	3.59
242.445	3.2
242.661	2.58
242.877	2.55
243.093	2.85
243.309	2.88
243.525	2.36
243.741	2.31
243.957	1.91
244.173	2.08
244.388	2.47
244.604	2.38
244.82	2.74
245.036	3.4
245.252	3.01
245.468	3.4
245.683	3.49
245.899	3.88
246.115	3.83
246.331	3.53
246.547	3.39
246.762	3.18
246.978	3.35
247.194	3.26
247.409	3.17
247.625	3.29
247.841	2.75
248.057	2.69
248.272	2.68
248.488	2.49
248.703	2.41
248.919	2.3
249.135	2.16
249.35	2.16
249.566	2.12
249.782	2.33
249.997	2.85
250.213	3.3
250.428	3.12
250.644	2.67
250.859	3.52
251.075	3.55
251.29	3.69
251.506	3.42
251.721	3.38
251.937	4.34
252.152	4.59
252.368	4.4
252.583	4.56
252.798	4.89
253.014	5.25
253.229	4.85
253.445	5.63
253.66	5.42
253.875	5.41
254.091	5.89
254.306	5.72
254.521	4.67
254.737	4.18
254.952	3.7
255.167	3.43
255.383	3.09
255.598	2.95
255.813	2.07
256.028	1.72
256.244	1.99
256.459	1.97
256.674	1.22
256.889	1.38
257.104	2.12
257.32	2.19
257.535	1.54
257.75	1.63
257.965	1.68
258.18	1.7
258.395	2.04
258.61	2.13
258.826	1.58
259.041	1.68
259.256	1.67
259.471	1.42
259.686	1.3
259.901	1.59
260.116	1.49
260.331	1.38
260.546	1.61
260.761	1.66
260.976	1.43
261.191	1.63
261.406	1.64
261.621	1.59
261.836	1.54
262.05	1.93
262.265	1.63
262.48	1.56
262.695	1.76
262.91	1.34
263.125	1.09
263.34	1.55
263.555	1.65
263.769	1.45
263.984	1.89
264.199	1.91
264.414	1.58
264.629	1.51
264.843	1.62
265.058	2.4
265.273	2.67
265.488	2.59
265.702	2.53
265.917	2.61
266.132	2.67
266.346	2.49
266.561	2.34
266.776	2.89
266.99	3.18
267.205	2.84
267.42	1.85
267.634	2.28
267.849	2.45
268.063	2.13
268.278	2.18
268.492	2.08
268.707	2.26
268.922	2.57
269.136	1.77
269.351	1.6
269.565	1.75
269.78	2.08
269.994	2.08
270.209	1.96
270.423	2.15
270.637	1.78
270.852	1.97
271.066	1.83
271.281	1.65
271.495	1.76
271.709	1.64
271.924	1.53
272.138	1.6
272.353	1.36
272.567	1.37
272.781	1.53
272.996	1.58
273.21	1.33
273.424	1.6
273.638	1.71
273.853	2.2
274.067	2.24
274.281	2.37
274.495	2.03
274.71	2.11
274.924	2.35
275.138	2.65
275.352	2.57
275.566	2.82
275.781	2.64
275.995	2.49
276.209	2.44
276.423	2.18
276.637	2.56
276.851	3.51
277.065	3.46
277.279	2.9
277.493	2.8
277.707	2.77
277.921	2.5
278.135	2.47
278.349	2.9
278.563	2.86
278.777	3.21
278.991	2.49
279.205	2.11
279.419	1.95
279.633	2.71
279.847	2.3
280.061	2.19
280.275	2.43
280.489	2.56
280.703	2.25
280.917	1.96
281.131	1.96
281.344	2.03
281.558	1.84
281.772	1.85
281.986	1.58
282.2	1.42
282.414	1.29
282.627	1.22
282.841	1.21
283.055	1.08
283.269	1.13
283.482	1.17
283.696	1.54
283.91	1.17
284.123	1.17
284.337	1.12
284.551	1.33
284.764	1.42
284.978	1.56
285.192	1.2
285.405	1.34
285.619	1.44
285.833	1.54
286.046	1.71
286.26	1.86
286.473	1.98
286.687	2.02
286.9	1.89
287.114	2.23
287.327	2.03
287.541	2.34
287.754	2.27
287.968	2.08
288.181	1.87
288.395	1.53
288.608	1.63
288.822	1.65
289.035	1.35
289.248	1.32
289.462	1.08
289.675	0.92
289.889	0.75
290.102	0.74
290.315	0.5
290.529	0.66
290.742	0.91
290.955	1.37
291.169	1.22
291.382	1.32
291.595	1.52
291.808	1.89
292.022	1.89
292.235	1.9
292.448	2.09
292.661	2.37
292.875	2.66
293.088	2.41
293.301	2.14
293.514	1.8
293.727	1.74
293.94	1.71
294.153	1.68
294.367	1.85
294.58	2.14
294.793	2.3
295.006	2.6
295.219	2.14
295.432	2.03
295.645	1.92
295.858	2.27
296.071	2.47
296.284	2.61
296.497	2.5
296.71	2.7
296.923	2.73
297.136	2.63
297.349	2.45
297.562	2.48
297.775	2.54
297.988	2.87
298.201	3.14
298.414	3.11
298.626	3.08
298.839	3.08
299.052	3.17
299.265	3.05
299.478	2.92
299.691	3.02
299.903	2.98
300.116	3.4
300.329	3.02
300.542	2.86
300.755	2.88
300.967	2.93
301.18	3.11
301.393	2.6
301.605	2.34
301.818	2.33
302.031	2.3
302.243	2.46
302.456	2.35
302.669	2.08
302.881	1.94
303.094	2.17
303.307	2.02
303.519	2.08
303.732	2.57
303.944	3.06
304.157	3.21
304.37	3.21
304.582	3.26
304.795	2.9
305.007	3.21
305.22	3.16
305.432	2.85
305.645	2.74
305.857	2.59
306.069	2.53
306.282	2.33
306.494	2.48
306.707	2.52
306.919	2.89
307.132	3.34
307.344	3.61
307.556	3.93
307.769	4.38
307.981	4.66
308.193	4.93
308.406	4.96
308.618	4.92
308.83	4.9
309.043	4.81
309.255	4.75
309.467	4.5
309.679	4.52
309.892	4.43
310.104	4.17
310.316	3.91
310.528	3.93
310.74	3.84
310.953	3.87
311.165	3.87
311.377	4.18
311.589	4.01
311.801	4.55
312.013	4.34
312.225	4.34
312.437	4.54
312.649	4.65
312.862	4.5
313.074	4.51
313.286	4.65
313.498	5.05
313.71	5.04
313.922	5.44
314.134	5.14
314.346	5.4
314.558	5.74
314.77	5.96
314.982	6.39
315.193	6.47
315.405	6.6
315.617	7.01
315.829	6.82
316.041	7.39
316.253	7.38
316.465	7.22
316.677	7.36
316.888	6.97
317.1	6.78
317.312	6.71
317.524	6.82
317.736	6.56
317.947	6.43
318.159	6.02
318.371	5.49
318.583	5.09
318.794	5.32
319.006	5.68
319.218	5.84
319.43	6.4
319.641	6.57
319.853	6.46
320.064	7.18
320.276	6.83
320.488	7.68
320.699	7.48
320.911	7.9
321.123	8.29
321.334	8.21
321.546	8.09
321.757	7.79
321.969	7.68
322.18	7.97
322.392	7.63
322.603	7.86
322.815	7.67
323.026	7.79
323.238	8.12
323.449	7.83
323.661	7.55
323.872	7.98
324.083	7.96
324.295	8.05
324.506	8.29
324.718	8.62
324.929	8.83
325.14	9.28
325.352	9.6
325.563	9.24
325.774	9.57
325.986	10.07
326.197	10.61
326.408	11.28
326.62	11.62
326.831	11.85
327.042	12.04
327.253	12.19
327.464	12.42
327.676	12.89
327.887	13.62
328.098	13.87
328.309	14.08
328.52	14.1
328.732	14.15
328.943	14.3
329.154	14.53
329.365	14.57
329.576	15.4
329.787	15.34
329.998	15.59
330.209	15.75
330.42	16.11
330.631	16.23
330.842	16.23
331.053	16.41
331.264	16.52
331.475	16.57
331.686	17.29
331.897	17.04
332.108	17.25
332.319	17.36
332.53	17.66
332.741	17.72
332.952	17.98
333.163	18
333.374	18.34
333.585	18.57
333.795	18.94
334.006	18.33
334.217	18.55
334.428	18.59
334.639	18.85
334.849	19.03
335.06	19.39
335.271	19.45
335.482	19.98
335.692	19.89
335.903	19.95
336.114	20
336.325	20.39
336.535	20.33
336.746	20.65
336.957	20.23
337.167	19.99
337.378	19.65
337.589	19.83
337.799	19.62
338.01	19.5
338.22	19.79
338.431	19.84
338.642	19.99
338.852	20.17
339.063	19.76
339.273	20.19
339.484	20.55
339.694	20.77
339.905	20.74
340.115	20.89
340.326	21.17
340.536	20.97
340.746	20.51
340.957	20.53
341.167	20.48
341.378	20.75
341.588	20.31
341.799	19.77
342.009	19.63
342.219	19.7
342.43	19.71
342.64	19.6
342.85	19.54
343.061	20.03
343.271	19.84
343.481	19.58
343.691	19.76
343.902	19.76
344.112	20.11
344.322	20.24
344.532	19.97
344.743	19.75
344.953	19.73
345.163	19.85
345.373	19.38
345.583	19.53
345.793	19.42
346.004	19.19
346.214	19.17
346.424	19.16
346.634	19.13
346.844	19.34
347.054	19.36
347.264	19.04
347.474	19.21
347.684	19.42
347.894	19.28
348.104	19.68
348.314	19.57
348.524	19.74
348.734	19.5
348.944	19.48
349.154	19.56
349.364	19.63
349.574	19.6
349.784	19.56
349.994	19.5
350.204	19.51
350.413	19.44
350.623	19.44
350.833	19.35
351.043	19.7
351.253	19.59
351.463	19.63
351.672	19.63
351.882	19.82
352.092	19.86
352.302	19.72
352.511	19.86
352.721	19.82
352.931	19.87
353.141	19.61
353.35	19.33
353.56	19.34
353.77	18.95
353.979	18.69
354.189	18.36
354.399	17.95
354.608	17.84
354.818	17.63
355.027	17.53
355.237	17.39
355.447	17.55
355.656	17.69
355.866	17.63
356.075	17.67
356.285	17.97
356.494	18.2
356.704	18.33
356.913	18.64
357.123	18.66
357.332	18.54
357.542	18.59
357.751	18.71
357.96	18.71
358.17	18.84
358.379	18.69
358.589	18.31
358.798	18.46
359.007	18.37
359.217	18.29
359.426	18.45
359.635	18.49
359.845	18.49
360.054	18.28
360.263	18.15
360.472	17.87
360.682	17.84
360.891	17.96
361.1	17.89
361.309	17.67
361.519	17.47
361.728	17.44
361.937	17.44
362.146	17.4
362.355	17.38
362.564	17.27
362.774	17.42
362.983	17.4
363.192	17.27
363.401	17.23
363.61	17.38
363.819	17.42
364.028	17.34
364.237	17.32
364.446	17.18
364.655	17.28
364.864	17.46
365.073	17.56
365.282	17.85
365.491	18
365.7	18.1
365.909	18.16
366.118	18.19
366.327	18.13
366.536	18.27
366.745	18.37
366.954	18.22
367.162	17.95
367.371	17.7
367.58	17.36
367.789	17.29
367.998	17.03
368.207	17.11
368.415	17.04
368.624	16.96
368.833	17.02
369.042	16.94
369.25	17.09
369.459	17.33
369.668	17.27
369.877	17.54
370.085	17.62
370.294	17.83
370.503	17.75
370.711	17.91
370.92	17.85
371.129	17.63
371.337	17.54
371.546	17.48
371.754	17.46
371.963	17.6
372.171	17.45
372.38	17.4
372.589	17.21
372.797	17.09
373.006	17.15
373.214	17.17
373.423	17.16
373.631	17.48
373.84	17.55
374.048	17.4
374.256	17.53
374.465	17.52
374.673	17.47
374.882	17.43
375.09	17.49
375.298	17.46
375.507	17.4
375.715	17.24
375.923	17.26
376.132	17.13
376.34	17.28
376.548	17.02
376.757	17.03
376.965	16.94
377.173	16.91
377.381	16.86
377.59	16.61
377.798	16.75
378.006	16.88
378.214	16.74
378.423	16.68
378.631	16.5
378.839	16.52
379.047	16.47
379.255	16.49
379.463	16.48
379.671	16.47
379.879	16.55
380.088	16.35
380.296	16.3
380.504	15.98
380.712	15.91
380.92	15.98
381.128	15.72
381.336	15.66
381.544	15.71
381.752	15.48
381.96	15.42
382.168	15.46
382.376	15.46
382.584	15.49
382.791	15.52
382.999	15.85
383.207	15.83
383.415	15.97
383.623	15.84
383.831	15.84
384.039	15.98
384.247	16.11
384.454	15.98
384.662	15.91
384.87	15.75
385.078	15.92
385.285	15.71
385.493	15.69
385.701	15.76
385.909	15.82
386.116	15.65
386.324	15.73
386.532	15.5
386.739	15.41
386.947	15.58
387.155	15.66
387.362	15.6
387.57	15.55
387.778	15.61
387.985	15.66
388.193	15.57
388.4	15.58
388.608	15.4
388.816	15.48
389.023	15.69
389.231	15.59
389.438	15.64
389.646	15.66
389.853	15.61
390.061	15.51
390.268	15.46
390.475	15.69
390.683	15.82
390.89	15.86
391.098	15.81
391.305	15.64
391.512	15.68
391.72	15.69
391.927	15.59
392.135	15.52
392.342	15.41
392.549	15.31
392.756	15.19
392.964	15.15
393.171	15.13
393.378	15.15
393.586	15.19
393.793	15.28
394	15.19
394.207	15.24
394.414	15.27
394.622	15.19
394.829	15.08
395.036	14.99
395.243	15.08
395.45	15.15
395.657	15.07
395.864	15.18
396.072	14.93
396.279	14.97
396.486	15.08
396.693	15.23
396.9	15.4
397.107	15.61
397.314	15.66
397.521	15.46
397.728	15.49
397.935	15.59
398.142	15.44
398.349	15.39
398.556	15.43
398.763	15.36
398.97	15.17
399.177	15.19
399.383	15.25
399.59	15.36
399.797	15.51
400.004	15.54
400.211	15.49
400.418	15.45
400.625	15.48
400.831	15.35
401.038	15.25
401.245	15.47
401.452	15.36
401.658	15.3
401.865	15.11
402.072	14.75
402.279	14.65
402.485	14.47
402.692	14.64
402.899	14.98
403.105	15.14
403.312	15.2
403.519	15.16
403.725	15.25
403.932	15.23
404.138	15.2
404.345	15.48
404.552	15.29
404.758	15.59
404.965	15.64
405.171	15.45
405.378	15.31
405.584	15.42
405.791	15.36
405.997	15.22
406.204	15.18
406.41	15.45
406.617	15.49
406.823	15.67
407.029	15.66
407.236	15.65
407.442	15.75
407.649	15.85
407.855	15.72
408.061	15.62
408.268	15.76
408.474	15.8
408.68	15.63
408.887	15.45
409.093	15.6
409.299	15.51
409.505	15.35
409.712	15.38
409.918	15.41
410.124	15.42
410.33	15.46
410.537	15.48
410.743	15.55
410.949	15.48
411.155	15.67
411.361	15.6
411.567	15.66
411.773	15.67
411.98	15.53
412.186	15.58
412.392	15.52
412.598	15.59
412.804	15.4
413.01	15.38
413.216	15.37
413.422	15.3
413.628	15.26
413.834	15.18
414.04	15.39
414.246	15.42
414.452	15.42
414.658	15.45
414.864	15.45
415.07	15.6
415.275	15.69
415.481	15.91
415.687	15.95
415.893	16
416.099	16.17
416.305	15.97
416.511	15.98
416.716	15.92
416.922	16.02
417.128	16.17
417.334	16.28
417.539	16.26
417.745	16.16
417.951	16.08
418.157	16.03
418.362	15.91
418.568	16.01
418.774	16
418.979	16.07
419.185	16.1
419.391	16.05
419.596	16.04
419.802	16.08
420.008	16.12
420.213	16.27
420.419	16.29
420.624	16.32
420.83	16.32
421.035	16.34
421.241	16.3
421.446	16.24
421.652	16.22
421.857	16.21
422.063	16.12
422.268	16.14
422.474	16.05
422.679	16.11
422.885	16.11
423.09	16.16
423.295	16.18
423.501	16.25
423.706	16.29
423.911	16.37
424.117	16.35
424.322	16.44
424.527	16.45
424.733	16.43
424.938	16.41
425.143	16.46
425.349	16.48
425.554	16.47
425.759	16.39
425.964	16.4
426.169	16.38
426.375	16.38
426.58	16.29
426.785	16.37
426.99	16.47
427.195	16.53
427.4	16.53
427.605	16.48
427.811	16.52
428.016	16.64
428.221	16.72
428.426	16.68
428.631	16.75
428.836	16.81
429.041	16.79
429.246	16.8
429.451	16.75
429.656	16.81
429.861	16.91
430.066	16.9
430.271	16.91
430.476	16.78
430.681	16.8
430.886	16.91
431.09	16.96
431.295	16.91
431.5	16.89
431.705	16.89
431.91	16.77
432.115	16.81
432.32	16.84
432.524	16.84
432.729	17.01
432.934	16.99
433.139	16.99
433.343	17.01
433.548	17.09
433.753	17.09
433.958	17.15
434.162	17.25
434.367	17.2
434.572	17.22
434.776	17.28
434.981	17.3
435.186	17.4
435.39	17.4
435.595	17.37
435.799	17.33
436.004	17.38
436.209	17.4
436.413	17.48
436.618	17.61
436.822	17.73
437.027	17.76
437.231	17.78
437.436	17.73
437.64	17.77
437.845	17.85
438.049	17.86
438.253	17.87
438.458	17.85
438.662	17.83
438.867	17.81
439.071	17.85
439.275	17.84
439.48	17.8
439.684	17.87
439.888	17.84
440.093	17.88
440.297	17.88
440.501	17.89
440.706	18.03
440.91	18.1
441.114	18.12
441.318	17.98
441.523	17.94
441.727	17.98
441.931	17.98
442.135	17.91
442.339	17.97
442.543	18.07
442.748	18.09
442.952	17.98
443.156	17.87
443.36	17.85
443.564	17.92
443.768	17.96
443.972	17.91
444.176	17.85
444.38	18.02
444.584	17.86
444.788	17.77
444.992	17.79
445.196	17.78
445.4	17.81
445.604	17.8
445.808	17.78
446.012	17.73
446.216	17.79
446.42	17.9
446.624	17.79
446.828	17.84
447.032	17.92
447.235	17.91
447.439	18.02
447.643	17.92
447.847	17.95
448.051	17.99
448.254	18.06
448.458	18.03
448.662	17.93
448.866	18
449.069	18.02
449.273	17.98
449.477	18.12
449.681	18.02
449.884	18.23
450.088	18.21
450.292	18.33
450.495	18.34
450.699	18.43
450.902	18.58
451.106	18.55
451.31	18.51
451.513	18.55
451.717	18.46
451.92	18.43
452.124	18.39
452.327	18.43
452.531	18.35
452.734	18.21
452.938	18.23
453.141	18.13
453.345	18.23
453.548	18.27
453.752	18.31
453.955	18.17
454.158	18.21
454.362	18.18
454.565	18.16
454.769	18.17
454.972	18.36
455.175	18.2
455.379	18.24
455.582	18.26
455.785	18.26
455.988	18.21
456.192	18.39
456.395	18.47
456.598	18.43
456.801	18.44
457.005	18.49
457.208	18.44
457.411	18.55
457.614	18.52
457.817	18.4
458.021	18.47
458.224	18.44
458.427	18.37
458.63	18.35
458.833	18.39
459.036	18.34
459.239	18.31
459.442	18.37
459.645	18.36
459.848	18.33
460.051	18.39
460.254	18.41
460.457	18.47
460.66	18.48
460.863	18.51
461.066	18.47
461.269	18.63
461.472	18.59
461.675	18.5
