Data from 2938828__Reflection_01.txt Node
Date: Thu Mar 12 13:18:36 EDT 2015
User: robert
Spectrometer: USB4E03002
Autoset integration time: false
Trigger mode: 4
Integration Time (sec): 1.000000E-1
Scans to average: 10
Electric dark correction enabled: false
Nonlinearity correction enabled: false
Boxcar width: 5
Stray light correction enabled: false
XAxis mode: Wavelengths
Stop averaging: false
Number of Pixels in Spectrum: 3648
>>>>>Begin Spectral Data<<<<<
177.575	-875.74
177.794	-1990.67
178.014	-4151.16
178.233	-1688.7
178.452	-1483.22
178.672	-1564.56
178.891	-2028.69
179.11	-3085.37
179.33	4378.33
179.549	-2473.53
179.768	-2017.46
179.987	2380.51
180.207	1390.69
180.426	1695.81
180.645	1321.2
180.864	624.26
181.084	428.45
181.303	497.7
181.522	435.39
181.741	498.48
181.96	439.6
182.179	383.68
182.398	346.94
182.618	437.46
182.837	495.99
183.056	505.41
183.275	828.75
183.494	1831.43
183.713	1045.93
183.932	2867.47
184.151	-2239.6
184.37	-3009.72
184.589	-1362.35
184.808	-1359.06
185.027	-5687.8
185.246	2591.57
185.465	1836.21
185.684	1234.5
185.903	1026.87
186.122	976.82
186.341	587.74
186.56	346.01
186.779	441.17
186.998	399.27
187.216	408.48
187.435	491.05
187.654	498.14
187.873	439.43
188.092	418.31
188.311	406.02
188.53	373.52
188.748	430.21
188.967	551.17
189.186	434.2
189.405	429.46
189.623	511.44
189.842	383.66
190.061	416.72
190.28	405.53
190.498	342.11
190.717	355.99
190.936	465.26
191.154	529.4
191.373	590.1
191.592	476.85
191.81	489.03
192.029	424.19
192.248	699.4
192.466	937.69
192.685	1866.94
192.904	-5356.41
193.122	-13182.35
193.341	4855.56
193.559	2432.63
193.778	17884.62
193.996	-1903.36
194.215	-1072.17
194.433	-545.02
194.652	-637.64
194.87	-1039.91
195.089	-873.31
195.307	-715.28
195.526	-549.78
195.744	-548.55
195.963	-546.55
196.181	-659.9
196.399	-743.77
196.618	-1374.01
196.836	-1651.72
197.055	-1272.86
197.273	-703.55
197.491	-1147.32
197.71	-1703.92
197.928	-1419.08
198.146	-2302.88
198.365	-2234.82
198.583	-25933.33
198.801	6800
199.019	2710
199.238	1138.53
199.456	837.13
199.674	781.72
199.892	651.83
200.111	1022.34
200.329	440.82
200.547	394.68
200.765	387.34
200.983	432.03
201.202	428.12
201.42	691.5
201.638	1314.72
201.856	1553.1
202.074	904.35
202.292	961.86
202.51	646.23
202.728	1338.1
202.946	1380.38
203.165	1193.65
203.383	1205.82
203.601	890.33
203.819	479.44
204.037	444.82
204.255	412.67
204.473	352.16
204.691	385.28
204.909	383.36
205.127	400.18
205.345	713.2
205.562	770.29
205.78	1005.61
205.998	851.59
206.216	2026.61
206.434	1637.5
206.652	-1996.08
206.87	-1752.99
207.088	-1241.61
207.306	-1381.53
207.523	-2325
207.741	-5311.36
207.959	3846.88
208.177	1372.78
208.395	1159.05
208.612	858.25
208.83	929.12
209.048	523.42
209.266	545.7
209.483	482.98
209.701	374.91
209.919	320.23
210.136	287.2
210.354	272.75
210.572	313.37
210.79	434.52
211.007	368.47
211.225	376.57
211.442	316.43
211.66	317.93
211.878	298.2
212.095	241.47
212.313	272.54
212.53	272.15
212.748	248.99
212.966	267.67
213.183	236.96
213.401	264.36
213.618	241.28
213.836	287.98
214.053	331.35
214.271	419.62
214.488	705.81
214.705	628.46
214.923	597.1
215.14	796.97
215.358	437.13
215.575	482.49
215.793	389.42
216.01	409.16
216.227	359.36
216.445	300.81
216.662	258.18
216.879	266.11
217.097	263.37
217.314	247.66
217.531	269.9
217.749	311.4
217.966	245.74
218.183	235.55
218.4	212.24
218.618	202.62
218.835	191.87
219.052	201.58
219.269	190.43
219.487	187.73
219.704	174.7
219.921	161.16
220.138	152.95
220.355	154.22
220.572	164.06
220.79	145.38
221.007	138.2
221.224	148.51
221.441	133.42
221.658	124.48
221.875	118.8
222.092	110.74
222.309	99.95
222.526	100.87
222.743	104.43
222.96	95.48
223.177	100.04
223.394	98.6
223.611	87.69
223.828	92.48
224.045	89.89
224.262	81.21
224.479	80.24
224.696	81.17
224.913	76.89
225.13	66.84
225.347	62.33
225.564	58.07
225.781	53.67
225.997	56.05
226.214	51.07
226.431	46.76
226.648	44.69
226.865	40.04
227.082	35.34
227.298	28.97
227.515	27.31
227.732	24.72
227.949	22.5
228.165	21.03
228.382	18.67
228.599	17.24
228.816	16.27
229.032	15.89
229.249	15.43
229.466	15.31
229.682	16.1
229.899	16.27
230.116	16.89
230.332	17.88
230.549	18.24
230.765	19.42
230.982	20.8
231.199	21.2
231.415	22.05
231.632	22.35
231.848	23.2
232.065	24.28
232.281	25.72
232.498	25.1
232.714	25.28
232.931	24.51
233.147	24.79
233.364	23.14
233.58	24.06
233.797	25.06
234.013	25.71
234.23	23.52
234.446	23.18
234.662	21.46
234.879	22.16
235.095	22.38
235.312	22.56
235.528	23.27
235.744	24.16
235.961	23.93
236.177	24.09
236.393	24.81
236.61	28.73
236.826	28.34
237.042	29.09
237.258	30.03
237.475	30.35
237.691	31.66
237.907	28.84
238.123	28.17
238.339	28.18
238.556	27.04
238.772	27.63
238.988	25.77
239.204	26.63
239.42	24.57
239.636	23.24
239.853	21.47
240.069	20.47
240.285	20.12
240.501	18.87
240.717	18.27
240.933	17.01
241.149	15.7
241.365	14.32
241.581	13.04
241.797	13.19
242.013	12.62
242.229	12.4
242.445	12.24
242.661	11.86
242.877	12.53
243.093	12.32
243.309	12.43
243.525	11.84
243.741	12.9
243.957	13.62
244.173	13.77
244.388	14.12
244.604	14.28
244.82	13.87
245.036	13.79
245.252	12.44
245.468	11.6
245.683	11.27
245.899	11.11
246.115	10.06
246.331	9.55
246.547	8.73
246.762	8.54
246.978	8.26
247.194	8
247.409	7.72
247.625	7.82
247.841	7.66
248.057	7.52
248.272	7.89
248.488	8.36
248.703	8.47
248.919	9.22
249.135	9.29
249.35	9.69
249.566	10.44
249.782	11.49
249.997	11.72
250.213	12.3
250.428	12.76
250.644	12.46
250.859	12.48
251.075	12.37
251.29	12.21
251.506	12.65
251.721	12.96
251.937	12.84
252.152	12.8
252.368	12.53
252.583	13.14
252.798	13.59
253.014	13.78
253.229	13.78
253.445	14.16
253.66	14.17
253.875	14.65
254.091	15.66
254.306	15.98
254.521	15.75
254.737	16.75
254.952	16.56
255.167	16.32
255.383	16.61
255.598	16.06
255.813	16.66
256.028	16.43
256.244	15.8
256.459	13.95
256.674	13.58
256.889	13.21
257.104	13.19
257.32	12.87
257.535	11.95
257.75	11.33
257.965	11.06
258.18	10.13
258.395	9.39
258.61	8.49
258.826	8.08
259.041	7.83
259.256	7.5
259.471	6.74
259.686	6.25
259.901	6.12
260.116	5.8
260.331	5.86
260.546	5.82
260.761	5.76
260.976	6.08
261.191	6.06
261.406	6.22
261.621	6.43
261.836	6.99
262.05	7.42
262.265	7.91
262.48	8.42
262.695	9.06
262.91	9.54
263.125	10.35
263.34	10.53
263.555	11.39
263.769	11.34
263.984	11.4
264.199	11.08
264.414	12.1
264.629	12.64
264.843	12.5
265.058	11.41
265.273	11.35
265.488	11.72
265.702	11.45
265.917	10.54
266.132	10.76
266.346	10.67
266.561	10.39
266.776	9.56
266.99	9.32
267.205	9.37
267.42	9.6
267.634	9.34
267.849	8.86
268.063	8.5
268.278	9.1
268.492	8.46
268.707	8.15
268.922	8.48
269.136	8.24
269.351	7.79
269.565	7.78
269.78	7.68
269.994	7.72
270.209	7.76
270.423	7.71
270.637	7.48
270.852	7.62
271.066	7.81
271.281	8.02
271.495	7.83
271.709	7.85
271.924	7.85
272.138	7.43
272.353	7.42
272.567	7.13
272.781	7.33
272.996	7.16
273.21	7.29
273.424	7.44
273.638	6.93
273.853	7.69
274.067	7.63
274.281	7.89
274.495	8.7
274.71	8.91
274.924	9.28
275.138	9.41
275.352	9.31
275.566	9.65
275.781	9.55
275.995	9.37
276.209	9.42
276.423	9.69
276.637	9
276.851	8.26
277.065	7.7
277.279	7.63
277.493	7.03
277.707	7.19
277.921	6.52
278.135	6.08
278.349	6.64
278.563	6.67
278.777	6.63
278.991	7.16
279.205	7.76
279.419	8.08
279.633	8.2
279.847	8.59
280.061	8.71
280.275	8.97
280.489	8.76
280.703	8.19
280.917	7.73
281.131	7.43
281.344	7.51
281.558	7.03
281.772	6.86
281.986	6.59
282.2	6.5
282.414	6.49
282.627	6.4
282.841	6.89
283.055	7.42
283.269	7.45
283.482	7.62
283.696	7.26
283.91	7.18
284.123	7.12
284.337	7.04
284.551	7.03
284.764	6.83
284.978	6.45
285.192	5.91
285.405	5.62
285.619	5.37
285.833	5.07
286.046	5.01
286.26	5.19
286.473	5.36
286.687	5.5
286.9	5.41
287.114	5.62
287.327	5.82
287.541	6.33
287.754	6.4
287.968	6.64
288.181	7.11
288.395	7.53
288.608	7.65
288.822	7.54
289.035	7.55
289.248	7.65
289.462	7.2
289.675	7.25
289.889	7.23
290.102	7.3
290.315	7.37
290.529	7.1
290.742	6.77
290.955	6.69
291.169	6.91
291.382	6.91
291.595	7.04
291.808	7.23
292.022	7.31
292.235	7.53
292.448	7.6
292.661	7.69
292.875	7.76
293.088	8.09
293.301	8.34
293.514	8.18
293.727	8.14
293.94	7.73
294.153	7.92
294.367	7.67
294.58	7.36
294.793	7.34
295.006	7.2
295.219	7.19
295.432	7.17
295.645	6.93
295.858	6.39
296.071	6.5
296.284	6.5
296.497	6.3
296.71	6.35
296.923	6.42
297.136	6.48
297.349	6.52
297.562	6.44
297.775	6.49
297.988	6.47
298.201	6.9
298.414	6.8
298.626	6.96
298.839	6.92
299.052	7.39
299.265	7.31
299.478	7.43
299.691	7.39
299.903	7.87
300.116	7.88
300.329	8.24
300.542	8.21
300.755	8.41
300.967	8.58
301.18	8.91
301.393	8.49
301.605	8.98
301.818	9.11
302.031	9.22
302.243	9.11
302.456	9.15
302.669	8.87
302.881	9.05
303.094	8.68
303.307	8.67
303.519	8.78
303.732	8.79
303.944	8.34
304.157	8.12
304.37	8.15
304.582	8.18
304.795	8.21
305.007	8.12
305.22	8.47
305.432	8.85
305.645	9.04
305.857	9.34
306.069	9.8
306.282	10.17
306.494	10.13
306.707	10.25
306.919	10.09
307.132	10.3
307.344	10.75
307.556	10.63
307.769	10.85
307.981	10.8
308.193	10.34
308.406	10.05
308.618	10
308.83	10.12
309.043	10.26
309.255	10.04
309.467	9.6
309.679	9.56
309.892	9.03
310.104	8.78
310.316	8.5
310.528	8.61
310.74	8.56
310.953	8.74
311.165	8.68
311.377	8.57
311.589	8.94
311.801	8.98
312.013	8.93
312.225	9.5
312.437	9.46
312.649	10.03
312.862	10.3
313.074	10.68
313.286	10.5
313.498	10.47
313.71	10.34
313.922	10.44
314.134	10.75
314.346	10.76
314.558	10.36
314.77	10.85
314.982	11.15
315.193	11.07
315.405	11.05
315.617	11.12
315.829	11.35
316.041	11.46
316.253	11.25
316.465	11.06
316.677	11.14
316.888	11.75
317.1	11.59
317.312	11.18
317.524	10.86
317.736	11.13
317.947	11.15
318.159	11.18
318.371	11.15
318.583	11.6
318.794	12.15
319.006	11.9
319.218	11.6
319.43	11.7
319.641	11.53
319.853	11.94
320.064	11.92
320.276	12.04
320.488	12.37
320.699	12.77
320.911	12.91
321.123	12.69
321.334	12.92
321.546	12.59
321.757	12.74
321.969	12.69
322.18	12.92
322.392	12.75
322.603	12.89
322.815	12.69
323.026	12.49
323.238	11.78
323.449	11.96
323.661	12.35
323.872	12.56
324.083	12.67
324.295	12.83
324.506	12.55
324.718	12.58
324.929	12.81
325.14	13.18
325.352	13.17
325.563	13.42
325.774	13.38
325.986	13.3
326.197	13.45
326.408	13.33
326.62	13.39
326.831	13.72
327.042	13.59
327.253	13.37
327.464	13.3
327.676	13.2
327.887	13.47
328.098	13.32
328.309	13.64
328.52	14.08
328.732	13.84
328.943	14.09
329.154	13.95
329.365	14.09
329.576	14.38
329.787	14.57
329.998	14.9
330.209	14.81
330.42	15.25
330.631	15.3
330.842	15.31
331.053	16.23
331.264	16.05
331.475	16.28
331.686	16.69
331.897	16.72
332.108	16.43
332.319	16.51
332.53	16.6
332.741	16.28
332.952	16.26
333.163	16.15
333.374	15.78
333.585	15.94
333.795	15.94
334.006	15.8
334.217	15.65
334.428	15.62
334.639	15.8
334.849	16.41
335.06	16.88
335.271	16.98
335.482	16.94
335.692	16.8
335.903	16.89
336.114	16.77
336.325	16.91
336.535	16.92
336.746	17.06
336.957	16.9
337.167	16.47
337.378	16.21
337.589	16.04
337.799	15.84
338.01	15.92
338.22	15.83
338.431	16
338.642	15.82
338.852	15.83
339.063	16.14
339.273	16.18
339.484	16.3
339.694	16.39
339.905	16.37
340.115	16.78
340.326	16.8
340.536	16.65
340.746	16.48
340.957	16.55
341.167	16.63
341.378	16.41
341.588	16.47
341.799	16.36
342.009	16.32
342.219	15.87
342.43	15.74
342.64	15.86
342.85	15.86
343.061	15.96
343.271	16.16
343.481	16.22
343.691	15.95
343.902	16.03
344.112	15.88
344.322	15.58
344.532	15.66
344.743	15.44
344.953	15.08
345.163	15.29
345.373	15.09
345.583	14.86
345.793	14.46
346.004	14.79
346.214	14.42
346.424	14.41
346.634	14.75
346.844	15.11
347.054	14.96
347.264	15.41
347.474	15.42
347.684	15.49
347.894	15.42
348.104	15.59
348.314	15.4
348.524	15.78
348.734	16.19
348.944	16.08
349.154	15.71
349.364	15.81
349.574	15.55
349.784	15.51
349.994	15.4
350.204	15.73
350.413	15.89
350.623	15.76
350.833	15.38
351.043	14.98
351.253	14.74
351.463	15.22
351.672	15.46
351.882	15.45
352.092	15.47
352.302	15.65
352.511	15.65
352.721	15.34
352.931	15.56
353.141	15.93
353.35	15.8
353.56	15.79
353.77	15.53
353.979	15.3
354.189	15.14
354.399	15.13
354.608	15.07
354.818	15.14
355.027	15.31
355.237	15.05
355.447	14.62
355.656	14.96
355.866	14.98
356.075	14.68
356.285	14.66
356.494	14.7
356.704	14.32
356.913	14.2
357.123	13.98
357.332	13.85
357.542	14.1
357.751	14.26
357.96	14.1
358.17	14.3
358.379	14.5
358.589	14.48
358.798	14.36
359.007	14.53
359.217	14.68
359.426	14.54
359.635	14.68
359.845	14.06
360.054	13.99
360.263	13.71
360.472	13.39
360.682	13.46
360.891	13.52
361.1	13.46
361.309	13.25
361.519	13.06
361.728	12.81
361.937	12.71
362.146	13.01
362.355	13.03
362.564	13.04
362.774	13.14
362.983	13.02
363.192	12.73
363.401	12.87
363.61	12.93
363.819	13.06
364.028	13.15
364.237	13.13
364.446	12.86
364.655	12.86
364.864	12.99
365.073	12.97
365.282	12.66
365.491	12.6
365.7	12.52
365.909	12.81
366.118	12.58
366.327	12.8
366.536	12.68
366.745	13.04
366.954	13.08
367.162	13.09
367.371	12.9
367.58	13.34
367.789	13.52
367.998	13.53
368.207	13.37
368.415	13.7
368.624	13.32
368.833	13.26
369.042	13.02
369.25	12.93
369.459	12.63
369.668	12.78
369.877	12.39
370.085	12.29
370.294	12.2
370.503	12.2
370.711	11.83
370.92	12.06
371.129	12.06
371.337	11.94
371.546	11.71
371.754	11.68
371.963	11.6
372.171	11.93
372.38	11.9
372.589	12.03
372.797	11.86
373.006	12.08
373.214	11.91
373.423	12.11
373.631	12.25
373.84	12.39
374.048	12.45
374.256	12.22
374.465	12.04
374.673	12.12
374.882	12.13
375.09	12.14
375.298	11.91
375.507	11.99
375.715	11.85
375.923	11.68
376.132	11.64
376.34	11.61
376.548	11.83
376.757	11.65
376.965	11.59
377.173	11.32
377.381	11.39
377.59	11.5
377.798	11.49
378.006	11.38
378.214	11.47
378.423	11.26
378.631	11.31
378.839	11.38
379.047	11.3
379.255	11.27
379.463	11.4
379.671	11.11
379.879	10.79
380.088	10.78
380.296	10.99
380.504	10.98
380.712	11.04
380.92	10.94
381.128	10.86
381.336	11.08
381.544	11.05
381.752	11.02
381.96	11.15
382.168	11.34
382.376	11.35
382.584	11.18
382.791	11.24
382.999	11.27
383.207	11.02
383.415	10.66
383.623	10.43
383.831	10.53
384.039	10.12
384.247	9.99
384.454	9.81
384.662	9.59
384.87	9.48
385.078	9.35
385.285	9.14
385.493	9.46
385.701	9.44
385.909	9.47
386.116	9.34
386.324	9.71
386.532	9.78
386.739	9.73
386.947	9.75
387.155	9.72
387.362	9.63
387.57	9.99
387.778	9.88
387.985	10.05
388.193	9.94
388.4	9.82
388.608	9.91
388.816	9.86
389.023	9.96
389.231	10.05
389.438	10.24
389.646	10.4
389.853	10
390.061	9.83
390.268	9.89
390.475	10.13
390.683	10.18
390.89	9.8
391.098	9.79
391.305	9.76
391.512	9.69
391.72	9.43
391.927	9.27
392.135	9.34
392.342	9.34
392.549	9.36
392.756	9.08
392.964	8.88
393.171	8.82
393.378	8.73
393.586	8.59
393.793	8.56
394	8.31
394.207	8.42
394.414	8.4
394.622	8.41
394.829	8.43
395.036	8.36
395.243	8.63
395.45	8.94
395.657	8.98
395.864	9.05
396.072	8.9
396.279	9.02
396.486	8.93
396.693	8.93
396.9	9.04
397.107	8.79
397.314	8.97
397.521	8.85
397.728	8.5
397.935	8.41
398.142	8.47
398.349	8.65
398.556	8.61
398.763	8.61
398.97	8.66
399.177	8.59
399.383	8.48
399.59	8.47
399.797	8.52
400.004	8.94
400.211	9.1
400.418	9.02
400.625	8.96
400.831	9.32
401.038	9.22
401.245	9.15
401.452	9.12
401.658	9.41
401.865	9.36
402.072	9.16
402.279	8.96
402.485	8.8
402.692	8.73
402.899	8.61
403.105	8.52
403.312	8.51
403.519	8.43
403.725	8.31
403.932	8.16
404.138	8.04
404.345	8.01
404.552	8.09
404.758	8.19
404.965	8.26
405.171	8.24
405.378	8.16
405.584	8.21
405.791	8.19
405.997	8.22
406.204	8.18
406.41	8.26
406.617	8.28
406.823	7.98
407.029	7.98
407.236	7.91
407.442	8.05
407.649	8.07
407.855	7.7
408.061	7.65
408.268	7.6
408.474	7.61
408.68	7.48
408.887	7.47
409.093	7.62
409.299	7.47
409.505	7.4
409.712	7.33
409.918	7.44
410.124	7.82
410.33	7.82
410.537	7.88
410.743	7.98
410.949	7.95
411.155	8.07
411.361	8
411.567	8.11
411.773	8.23
411.98	8.3
412.186	8.26
412.392	8.16
412.598	8.32
412.804	8.42
413.01	8.4
413.216	8.57
413.422	8.51
413.628	8.6
413.834	8.53
414.04	8.46
414.246	8.31
414.452	8.19
414.658	8.19
414.864	8.24
415.07	8.15
415.275	8.16
415.481	8.13
415.687	8.19
415.893	8.17
416.099	8.11
416.305	8.22
416.511	8.29
416.716	8.15
416.922	8.13
417.128	8.03
417.334	8.07
417.539	8.06
417.745	8.03
417.951	7.87
418.157	7.71
418.362	7.69
418.568	7.63
418.774	7.45
418.979	7.49
419.185	7.43
419.391	7.36
419.596	7.34
419.802	7.27
420.008	7.22
420.213	7.86
420.419	7.94
420.624	8
420.83	7.9
421.035	7.95
421.241	7.92
421.446	7.93
421.652	7.97
421.857	7.79
422.063	7.78
422.268	7.8
422.474	7.2
422.679	7.19
422.885	7.14
423.09	7.18
423.295	7.21
423.501	7.18
423.706	7.1
423.911	7.07
424.117	7.23
424.322	7.24
424.527	7.29
424.733	7.35
424.938	7.29
425.143	7.26
425.349	7.22
425.554	7.18
425.759	7.37
425.964	7.45
426.169	7.43
426.375	7.43
426.58	7.43
426.785	7.38
426.99	7.32
427.195	7.38
427.4	7.26
427.605	7.4
427.811	7.45
428.016	7.41
428.221	7.39
428.426	7.48
428.631	7.39
428.836	7.35
429.041	7.38
429.246	7.43
429.451	7.44
429.656	7.67
429.861	7.65
430.066	7.62
430.271	7.46
430.476	7.52
430.681	7.36
430.886	7.51
431.09	7.64
431.295	7.61
431.5	7.7
431.705	7.59
431.91	7.62
432.115	7.55
432.32	7.61
432.524	7.59
432.729	7.59
432.934	7.76
433.139	7.81
433.343	7.81
433.548	7.73
433.753	7.69
433.958	7.82
434.162	7.8
434.367	7.93
434.572	7.98
434.776	8.05
434.981	7.96
435.186	7.84
435.39	7.84
435.595	7.87
435.799	8.02
436.004	8.01
436.209	8.02
436.413	7.97
436.618	7.88
436.822	7.84
437.027	7.83
437.231	7.98
437.436	8.07
437.64	7.96
437.845	7.94
438.049	7.98
438.253	8.06
438.458	8.1
438.662	8.1
438.867	8.12
439.071	8.03
439.275	8.03
439.48	7.97
439.684	7.97
439.888	7.96
440.093	7.83
440.297	7.78
440.501	7.72
440.706	7.66
440.91	7.65
441.114	7.62
441.318	7.69
441.523	7.7
441.727	7.78
441.931	7.82
442.135	7.85
442.339	7.96
442.543	8.06
442.748	8.08
442.952	8.1
443.156	8.05
443.36	8.11
443.564	8.18
443.768	8.19
443.972	8.11
444.176	8.12
444.38	8.09
444.584	8.03
444.788	7.9
444.992	7.85
445.196	7.81
445.4	7.75
445.604	7.64
445.808	7.57
446.012	7.57
446.216	7.55
446.42	7.47
446.624	7.47
446.828	7.47
447.032	7.48
447.235	7.47
447.439	7.46
447.643	7.58
447.847	7.63
448.051	7.69
448.254	7.74
448.458	7.76
448.662	7.75
448.866	7.79
449.069	7.78
449.273	7.87
449.477	7.92
449.681	7.96
449.884	7.99
450.088	8.08
450.292	8.03
450.495	7.92
450.699	7.95
450.902	8.01
451.106	7.98
451.31	8.08
451.513	7.99
451.717	8
451.92	8.02
452.124	7.95
452.327	7.87
452.531	7.98
452.734	8
452.938	7.96
453.141	8.01
453.345	8.03
453.548	7.99
453.752	8.07
453.955	8.03
454.158	7.99
454.362	8.11
454.565	8.22
454.769	8.11
454.972	8.15
455.175	8.21
455.379	8.27
455.582	8.33
455.785	8.22
455.988	8.22
456.192	8.26
456.395	8.3
456.598	8.19
456.801	8.11
457.005	8.14
457.208	8.08
457.411	7.97
457.614	7.95
457.817	7.93
458.021	7.96
458.224	7.94
458.427	7.88
458.63	7.87
458.833	7.81
459.036	7.76
459.239	7.73
459.442	7.74
459.645	7.78
459.848	7.65
460.051	7.63
460.254	7.62
460.457	7.54
460.66	7.6
460.863	7.5
461.066	7.6
