Data from 2938802__Reflection_02.txt Node
Date: Thu Mar 12 22:37:36 EDT 2015
User: robert
Spectrometer: USB4E03002
Autoset integration time: false
Trigger mode: 4
Integration Time (sec): 1.000000E-1
Scans to average: 10
Electric dark correction enabled: false
Nonlinearity correction enabled: false
Boxcar width: 5
Stray light correction enabled: false
XAxis mode: Wavelengths
Stop averaging: false
Number of Pixels in Spectrum: 3648
>>>>>Begin Spectral Data<<<<<
177.575	314.95
177.794	644.44
178.014	201.28
178.233	208.67
178.452	111.97
178.672	106.05
178.891	106.46
179.11	86.84
179.33	113.33
179.549	77.86
179.768	71.53
179.987	50.53
180.207	75.88
180.426	83.17
180.645	88.14
180.864	96.71
181.084	117.78
181.303	101.76
181.522	100.74
181.741	90.03
181.96	97.05
182.179	104.18
182.398	110.12
182.618	95.58
182.837	98.59
183.056	105.85
183.275	109.68
183.494	97.48
183.713	96.97
183.932	96.38
184.151	90.63
184.37	91.22
184.589	84.04
184.808	88.87
185.027	97.09
185.246	87.96
185.465	72.12
185.684	75.37
185.903	76.54
186.122	90.7
186.341	93.2
186.56	89.02
186.779	89.41
186.998	99.44
187.216	102.53
187.435	93.67
187.654	101.55
187.873	108.07
188.092	96.92
188.311	117.96
188.53	100.09
188.748	97.95
188.967	104.93
189.186	97.21
189.405	83
189.623	70.24
189.842	76.24
190.061	77.25
190.28	88.62
190.498	88.98
190.717	73.46
190.936	77.04
191.154	73.29
191.373	71.6
191.592	69.23
191.81	70.33
192.029	67.61
192.248	62.65
192.466	52.77
192.685	37.32
192.904	43.78
193.122	41.75
193.341	35.44
193.559	43.46
193.778	50.86
193.996	44.17
194.215	48.95
194.433	72.69
194.652	82.07
194.87	86.46
195.089	117.58
195.307	122.11
195.526	108.62
195.744	119.01
195.963	108.77
196.181	120.22
196.399	131.78
196.618	127.33
196.836	103.27
197.055	91.54
197.273	83.07
197.491	68.48
197.71	59.55
197.928	68.4
198.146	66.38
198.365	62.52
198.583	54.34
198.801	50.92
199.019	50
199.238	55.01
199.456	64.95
199.674	82.53
199.892	88.23
200.111	85.95
200.329	81.85
200.547	101.22
200.765	107.91
200.983	101.28
201.202	103.47
201.42	96.35
201.638	98.54
201.856	97.9
202.074	86.19
202.292	92.05
202.51	78.57
202.728	84.32
202.946	71.28
203.165	66.76
203.383	67.24
203.601	73.99
203.819	71.5
204.037	70.06
204.255	71.99
204.473	72.87
204.691	64.61
204.909	67.37
205.127	66.11
205.345	51.79
205.562	48.51
205.78	52.33
205.998	49.84
206.216	46.7
206.434	50.25
206.652	46.5
206.87	48
207.088	47.64
207.306	48.95
207.523	50.85
207.741	63.04
207.959	77.58
208.177	73.97
208.395	63.54
208.612	70.42
208.83	72.02
209.048	80.02
209.266	78.21
209.483	91.32
209.701	90.33
209.919	86.01
210.136	88.7
210.354	82.29
210.572	85.25
210.79	92.74
211.007	93
211.225	81.01
211.442	67.6
211.66	69.13
211.878	63.36
212.095	65.21
212.313	59.63
212.53	56.14
212.748	51.87
212.966	48.33
213.183	36.5
213.401	41.21
213.618	47.02
213.836	54.5
214.053	54.3
214.271	51.8
214.488	51.28
214.705	57.7
214.923	58.74
215.14	67.85
215.358	69.25
215.575	83.31
215.793	74.41
216.01	72.02
216.227	68.45
216.445	75.26
216.662	88.94
216.879	90.78
217.097	92.46
217.314	84.64
217.531	82.3
217.749	89.35
217.966	86.5
218.183	86.18
218.4	85.84
218.618	87.66
218.835	77.01
219.052	65.49
219.269	57.14
219.487	59.29
219.704	61.46
219.921	62.28
220.138	54.15
220.355	50.81
220.572	54.45
220.79	55.23
221.007	52.45
221.224	52.7
221.441	55.41
221.658	53.93
221.875	48.69
222.092	45.68
222.309	39.61
222.526	41.18
222.743	41.31
222.96	35.66
223.177	32.79
223.394	33.85
223.611	35.33
223.828	33.42
224.045	32.59
224.262	34.74
224.479	33.46
224.696	35.76
224.913	31.74
225.13	29.1
225.347	29.35
225.564	26.52
225.781	27.23
225.997	24.22
226.214	19.01
226.431	16.32
226.648	13.88
226.865	12.57
227.082	11.24
227.298	10.08
227.515	10.5
227.732	9.33
227.949	8.88
228.165	7.33
228.382	7.03
228.599	7.44
228.816	7.42
229.032	7.39
229.249	7.08
229.466	6.47
229.682	6.57
229.899	6.57
230.116	5.71
230.332	5.52
230.549	5.89
230.765	5.96
230.982	7.33
231.199	7.72
231.415	8.04
231.632	8.79
231.848	9.39
232.065	10.03
232.281	10.42
232.498	11.53
232.714	11.77
232.931	12.4
233.147	13.45
233.364	12.34
233.58	12.59
233.797	12.25
234.013	11.59
234.23	11.16
234.446	12.15
234.662	10.46
234.879	11.54
235.095	11.99
235.312	10.24
235.528	10.03
235.744	10.93
235.961	10.77
236.177	10.82
236.393	11
236.61	11.87
236.826	11.14
237.042	12.3
237.258	11.2
237.475	11.27
237.691	12.42
237.907	11.44
238.123	10.07
238.339	9.98
238.556	10.54
238.772	11.08
238.988	11
239.204	10.9
239.42	10.88
239.636	10.75
239.853	11.27
240.069	9.98
240.285	10.03
240.501	9.64
240.717	8.65
240.933	7.78
241.149	6.3
241.365	5.64
241.581	6.25
241.797	5.61
242.013	5.86
242.229	5.51
242.445	6.04
242.661	5.81
242.877	5.49
243.093	6.22
243.309	6.6
243.525	6.83
243.741	6.82
243.957	6.56
244.173	6.66
244.388	6.7
244.604	6.11
244.82	6.08
245.036	6.06
245.252	6.1
245.468	5.07
245.683	4.74
245.899	5.32
246.115	5.28
246.331	4.96
246.547	5.23
246.762	4.72
246.978	4.72
247.194	4.54
247.409	4.47
247.625	4.73
247.841	4.81
248.057	4.67
248.272	4.41
248.488	4.33
248.703	4.11
248.919	3.5
249.135	4.01
249.35	4.34
249.566	4.4
249.782	4.44
249.997	4.06
250.213	4.55
250.428	5.37
250.644	5.58
250.859	5.88
251.075	5.65
251.29	6.28
251.506	5.77
251.721	5.66
251.937	5.36
252.152	5.29
252.368	5.05
252.583	4.22
252.798	3.75
253.014	3.59
253.229	3.45
253.445	3.91
253.66	4.18
253.875	3.91
254.091	3.22
254.306	3.76
254.521	3.52
254.737	3.87
254.952	4.19
255.167	4.73
255.383	4.73
255.598	4.94
255.813	5.04
256.028	4.92
256.244	5.63
256.459	6.6
256.674	7
256.889	7.4
257.104	7.09
257.32	7.29
257.535	6.43
257.75	6.49
257.965	6.43
258.18	5.73
258.395	5.55
258.61	4.85
258.826	4.26
259.041	3.94
259.256	3.43
259.471	3.36
259.686	3.29
259.901	3.58
260.116	3.39
260.331	3.23
260.546	3.35
260.761	3.18
260.976	3.38
261.191	3.38
261.406	3.44
261.621	3.81
261.836	4.08
262.05	4.31
262.265	4.04
262.48	4
262.695	3.93
262.91	4.14
263.125	4.59
263.34	5.07
263.555	5.61
263.769	5.03
263.984	5.04
264.199	4.82
264.414	4.91
264.629	5.29
264.843	5.85
265.058	6.13
265.273	5.77
265.488	5.56
265.702	5.15
265.917	5.13
266.132	5.81
266.346	5.38
266.561	5.45
266.776	5.53
266.99	4.87
267.205	4.77
267.42	4.42
267.634	4.52
267.849	4.25
268.063	4.15
268.278	4
268.492	3.61
268.707	3.88
268.922	4.2
269.136	3.61
269.351	4.17
269.565	3.97
269.78	4.01
269.994	3.96
270.209	3.99
270.423	3.95
270.637	4.08
270.852	3.92
271.066	4.24
271.281	3.8
271.495	4.13
271.709	4.11
271.924	3.96
272.138	3.81
272.353	3.49
272.567	3.58
272.781	3.66
272.996	3.74
273.21	3.93
273.424	3.75
273.638	4.11
273.853	3.68
274.067	3.54
274.281	4.04
274.495	4.15
274.71	4.2
274.924	4.19
275.138	3.79
275.352	3.44
275.566	3.5
275.781	3.28
275.995	3.06
276.209	3.44
276.423	3.48
276.637	3.17
276.851	3.41
277.065	3.97
277.279	4.16
277.493	4.52
277.707	4.54
277.921	4.77
278.135	4.71
278.349	4.52
278.563	4.8
278.777	4.97
278.991	4.93
279.205	4.76
279.419	4.51
279.633	4.48
279.847	4.78
280.061	5.04
280.275	4.67
280.489	4.78
280.703	4.6
280.917	4.15
281.131	3.85
281.344	3.76
281.558	3.54
281.772	3.33
281.986	2.76
282.2	2.43
282.414	2.43
282.627	2.43
282.841	2.58
283.055	2.73
283.269	2.77
283.482	2.99
283.696	3.14
283.91	3.39
284.123	3.66
284.337	4.06
284.551	3.95
284.764	4.06
284.978	3.88
285.192	3.53
285.405	3.57
285.619	3.55
285.833	3.48
286.046	3.47
286.26	3.45
286.473	3.38
286.687	3.52
286.9	3.56
287.114	3.15
287.327	3.43
287.541	3.54
287.754	3.79
287.968	4.02
288.181	3.66
288.395	3.56
288.608	3.77
288.822	3.9
289.035	3.61
289.248	3.79
289.462	3.94
289.675	3.49
289.889	3.24
290.102	2.76
290.315	2.71
290.529	3.09
290.742	3.23
290.955	3.14
291.169	3.05
291.382	3.42
291.595	3.57
291.808	3.83
292.022	3.94
292.235	4.27
292.448	4.47
292.661	4.25
292.875	4.23
293.088	4.31
293.301	4.48
293.514	4.54
293.727	4.07
293.94	4.01
294.153	3.85
294.367	4.2
294.58	4.32
294.793	4.69
295.006	5.03
295.219	5.08
295.432	4.85
295.645	4.7
295.858	4.56
296.071	4.79
296.284	4.64
296.497	4.58
296.71	4.53
296.923	4.55
297.136	4.16
297.349	3.89
297.562	3.95
297.775	4.01
297.988	4.04
298.201	4.32
298.414	4.21
298.626	4.03
298.839	4.15
299.052	4.18
299.265	4.24
299.478	4.57
299.691	4.73
299.903	4.63
300.116	4.72
300.329	4.98
300.542	4.75
300.755	4.96
300.967	5.47
301.18	5.41
301.393	5.45
301.605	5.14
301.818	5.26
302.031	5.17
302.243	5.4
302.456	5.69
302.669	5.66
302.881	5.95
303.094	5.5
303.307	5.28
303.519	5.14
303.732	4.99
303.944	5.33
304.157	5.15
304.37	5.25
304.582	5.07
304.795	5.02
305.007	5.13
305.22	4.84
305.432	5.24
305.645	5.38
305.857	5.47
306.069	5.8
306.282	5.87
306.494	5.8
306.707	5.87
306.919	5.77
307.132	5.55
307.344	5.31
307.556	5.14
307.769	5.33
307.981	5.16
308.193	5.34
308.406	4.8
308.618	4.51
308.83	4.57
309.043	4.75
309.255	4.79
309.467	4.99
309.679	5.11
309.892	5.21
310.104	5.15
310.316	5.14
310.528	5.16
310.74	5.38
310.953	5.5
311.165	5.87
311.377	5.82
311.589	6.01
311.801	5.85
312.013	5.67
312.225	5.69
312.437	5.95
312.649	6.04
312.862	6.04
313.074	6.06
313.286	6.51
313.498	6.11
313.71	6.08
313.922	6.13
314.134	6.02
314.346	6.14
314.558	6.45
314.77	6.05
314.982	5.96
315.193	5.99
315.405	6.14
315.617	5.71
315.829	5.78
316.041	5.95
316.253	5.45
316.465	5.81
316.677	5.87
316.888	5.98
317.1	5.71
317.312	5.9
317.524	5.75
317.736	5.97
317.947	5.91
318.159	6.21
318.371	6.05
318.583	6.59
318.794	6.52
319.006	7.07
319.218	7.13
319.43	7.41
319.641	7.47
319.853	7.62
320.064	7.51
320.276	7.6
320.488	7.46
320.699	7.68
320.911	7.51
321.123	7.44
321.334	7.05
321.546	7.15
321.757	7.22
321.969	7.57
322.18	7.62
322.392	7.77
322.603	8.41
322.815	8.77
323.026	8.47
323.238	8.61
323.449	8.71
323.661	8.8
323.872	8.85
324.083	8.88
324.295	9.04
324.506	9.07
324.718	9.52
324.929	9.73
325.14	9.82
325.352	10.35
325.563	10.85
325.774	11.34
325.986	11.42
326.197	11.65
326.408	12.46
326.62	12.85
326.831	13.64
327.042	13.88
327.253	14.02
327.464	14.26
327.676	14.6
327.887	14.87
328.098	15.01
328.309	15.49
328.52	15.6
328.732	15.55
328.943	15.61
329.154	15.78
329.365	16.15
329.576	16.61
329.787	17.21
329.998	17.97
330.209	18.33
330.42	18.91
330.631	19.42
330.842	19.73
331.053	20.4
331.264	21
331.475	21.35
331.686	21.56
331.897	21.41
332.108	21.59
332.319	21.64
332.53	22.03
332.741	22.15
332.952	22.4
333.163	22.87
333.374	23.01
333.585	22.99
333.795	22.88
334.006	23.06
334.217	23.62
334.428	23.62
334.639	23.66
334.849	23.87
335.06	24.14
335.271	24.04
335.482	24.25
335.692	24.34
335.903	24.57
336.114	25.19
336.325	25.42
336.535	25.71
336.746	26.02
336.957	26.01
337.167	25.89
337.378	26.07
337.589	26.18
337.799	26.38
338.01	26.45
338.22	26.58
338.431	26.29
338.642	26.42
338.852	26.29
339.063	26.08
339.273	26.55
339.484	26.4
339.694	26.02
339.905	26.19
340.115	25.86
340.326	25.92
340.536	25.78
340.746	25.7
340.957	25.55
341.167	25.41
341.378	25.68
341.588	25.31
341.799	25.09
342.009	25.23
342.219	25.14
342.43	25.49
342.64	25.46
342.85	25.55
343.061	25.75
343.271	25.72
343.481	25.78
343.691	25.66
343.902	25.76
344.112	26.25
344.322	26.71
344.532	26.63
344.743	26.83
344.953	26.72
345.163	26.46
345.373	26.68
345.583	26.68
345.793	26.42
346.004	26.15
346.214	26.19
346.424	26.05
346.634	25.52
346.844	25.79
347.054	25.36
347.264	25.57
347.474	25.72
347.684	25.17
347.894	25.34
348.104	25.47
348.314	25.81
348.524	25.7
348.734	25.8
348.944	26
349.154	25.56
349.364	25.74
349.574	25.33
349.784	25.19
349.994	25.61
350.204	25.4
350.413	25.55
350.623	25.55
350.833	25.39
351.043	25.42
351.253	25.42
351.463	25.64
351.672	25.31
351.882	25.35
352.092	25.5
352.302	25.22
352.511	25.29
352.721	25.12
352.931	25.04
353.141	24.82
353.35	24.31
353.56	24.16
353.77	24.12
353.979	24.45
354.189	24.49
354.399	24.61
354.608	24.45
354.818	24.32
355.027	24.35
355.237	24.15
355.447	24.45
355.656	24.89
355.866	24.94
356.075	25
356.285	24.8
356.494	24.82
356.704	24.76
356.913	24.83
357.123	24.91
357.332	24.79
357.542	24.96
357.751	24.97
357.96	24.78
358.17	24.69
358.379	24.42
358.589	24.4
358.798	24.57
359.007	24.56
359.217	24.66
359.426	24.46
359.635	24.45
359.845	24.27
360.054	24.26
360.263	24.28
360.472	24.31
360.682	24.37
360.891	24.29
361.1	24.17
361.309	24.16
361.519	24.06
361.728	23.97
361.937	23.96
362.146	24.03
362.355	24.02
362.564	24.12
362.774	24.07
362.983	24.11
363.192	24.1
363.401	23.85
363.61	23.74
363.819	23.85
364.028	23.9
364.237	23.85
364.446	23.79
364.655	23.73
364.864	23.6
365.073	23.66
365.282	23.62
365.491	23.72
365.7	23.98
365.909	24.04
366.118	23.93
366.327	23.98
366.536	24.05
366.745	24.14
366.954	23.94
367.162	23.84
367.371	23.65
367.58	23.66
367.789	23.55
367.998	23.46
368.207	23.32
368.415	23.23
368.624	23.35
368.833	23.39
369.042	23.36
369.25	23.5
369.459	23.91
369.668	24.15
369.877	24.12
370.085	24.03
370.294	24.13
370.503	24.21
370.711	23.99
370.92	23.76
371.129	23.72
371.337	23.65
371.546	23.68
371.754	23.32
371.963	23.09
372.171	22.98
372.38	23.05
372.589	23.07
372.797	22.91
373.006	23
373.214	23.14
373.423	22.96
373.631	23.06
373.84	22.9
374.048	22.91
374.256	23.04
374.465	23.37
374.673	23.21
374.882	23.13
375.09	23.37
375.298	23.57
375.507	23.56
375.715	23.72
375.923	23.58
376.132	23.58
376.34	23.52
376.548	23.45
376.757	23.28
376.965	23.32
377.173	23.39
377.381	23.11
377.59	22.84
377.798	22.76
378.006	22.7
378.214	22.66
378.423	22.6
378.631	22.66
378.839	22.37
379.047	22.22
379.255	22.31
379.463	22.22
379.671	22.44
379.879	22.58
380.088	22.72
380.296	22.7
380.504	22.58
380.712	22.53
380.92	22.3
381.128	22.61
381.336	22.75
381.544	22.66
381.752	22.72
381.96	22.41
382.168	22.34
382.376	22.06
382.584	22.03
382.791	22.09
382.999	21.97
383.207	21.95
383.415	21.99
383.623	21.82
383.831	21.84
384.039	21.75
384.247	21.84
384.454	22.01
384.662	21.89
384.87	21.99
385.078	22.01
385.285	22.13
385.493	22.4
385.701	22.22
385.909	22.07
386.116	22.07
386.324	22.27
386.532	22.37
386.739	22.3
386.947	22.45
387.155	22.24
387.362	22.32
387.57	22.42
387.778	22.17
387.985	22.18
388.193	22.42
388.4	22.37
388.608	22.14
388.816	22.05
389.023	22.17
389.231	22.32
389.438	22.54
389.646	22.31
389.853	22.2
390.061	22.32
390.268	22.4
390.475	22.16
390.683	22.13
390.89	22.09
391.098	22.05
391.305	21.96
391.512	21.94
391.72	21.97
391.927	21.96
392.135	22.16
392.342	22.04
392.549	21.87
392.756	21.98
392.964	22.06
393.171	22.18
393.378	22.21
393.586	22.12
393.793	21.87
394	21.78
394.207	21.95
394.414	21.83
394.622	21.81
394.829	22.04
395.036	22.12
395.243	22.18
395.45	22.26
395.657	22.14
395.864	21.98
396.072	22.31
396.279	22.23
396.486	22.1
396.693	22.03
396.9	22.02
397.107	21.88
397.314	21.75
397.521	21.53
397.728	21.21
397.935	21.47
398.142	21.58
398.349	21.34
398.556	21.29
398.763	21.52
398.97	21.53
399.177	21.51
399.383	21.48
399.59	21.56
399.797	21.73
400.004	21.74
400.211	21.5
400.418	21.43
400.625	21.58
400.831	21.58
401.038	21.38
401.245	21.19
401.452	21.29
401.658	21.27
401.865	21.22
402.072	21.09
402.279	21.2
402.485	21.23
402.692	21.13
402.899	21.09
403.105	21.27
403.312	21.11
403.519	21.22
403.725	21.3
403.932	21.32
404.138	21.41
404.345	21.43
404.552	21.41
404.758	21.38
404.965	21.54
405.171	21.46
405.378	21.26
405.584	21.37
405.791	21.4
405.997	21.28
406.204	21.4
406.41	21.33
406.617	21.4
406.823	21.47
407.029	21.53
407.236	21.63
407.442	21.63
407.649	21.78
407.855	21.74
408.061	21.83
408.268	21.65
408.474	21.65
408.68	21.71
408.887	21.47
409.093	21.3
409.299	21.33
409.505	21.11
409.712	21.08
409.918	20.99
410.124	21.06
410.33	21
410.537	21.06
410.743	20.91
410.949	20.81
411.155	20.92
411.361	20.92
411.567	20.81
411.773	20.83
411.98	20.92
412.186	20.97
412.392	20.9
412.598	20.83
412.804	20.75
413.01	20.72
413.216	20.7
413.422	20.62
413.628	20.86
413.834	20.99
414.04	21.15
414.246	21.08
414.452	20.93
414.658	21.02
414.864	20.99
415.07	21.29
415.275	21.38
415.481	21.42
415.687	21.47
415.893	21.35
416.099	21.38
416.305	21.32
416.511	21.26
416.716	21.35
416.922	21.39
417.128	21.48
417.334	21.39
417.539	21.45
417.745	21.39
417.951	21.41
418.157	21.38
418.362	21.38
418.568	21.33
418.774	21.42
418.979	21.41
419.185	21.28
419.391	21.27
419.596	21.26
419.802	21.12
420.008	21.13
420.213	20.54
420.419	20.56
420.624	20.59
420.83	20.59
421.035	20.56
421.241	20.55
421.446	20.67
421.652	20.56
421.857	20.48
422.063	20.51
422.268	20.53
422.474	21.09
422.679	21.06
422.885	20.92
423.09	20.92
423.295	20.93
423.501	21.01
423.706	20.95
423.911	21.07
424.117	21.16
424.322	21.15
424.527	21.08
424.733	20.99
424.938	20.98
425.143	20.98
425.349	20.96
425.554	20.94
425.759	20.84
425.964	20.84
426.169	20.9
426.375	20.85
426.58	20.83
426.785	20.83
426.99	20.93
427.195	20.95
427.4	21.07
427.605	21.06
427.811	21.08
428.016	21.09
428.221	21.03
428.426	20.9
428.631	20.98
428.836	21.05
429.041	21.28
429.246	21.32
429.451	21.37
429.656	21.26
429.861	21.28
430.066	21.37
430.271	21.41
430.476	21.42
430.681	21.44
430.886	21.31
431.09	21.34
431.295	21.22
431.5	21.24
431.705	21.16
431.91	21.14
432.115	21.12
432.32	21.03
432.524	21.08
432.729	21.21
432.934	21.19
433.139	21.27
433.343	21.16
433.548	21.19
433.753	21.04
433.958	21.06
434.162	21.12
434.367	21.1
434.572	21.11
434.776	20.94
434.981	20.84
435.186	20.95
435.39	20.96
435.595	21.01
435.799	20.93
436.004	20.96
436.209	20.99
436.413	20.94
436.618	21.02
436.822	20.97
437.027	21.05
437.231	21.05
437.436	21.03
437.64	21.09
437.845	21.11
438.049	21.17
438.253	21.24
438.458	21.18
438.662	21.35
438.867	21.36
439.071	21.43
439.275	21.44
439.48	21.41
439.684	21.31
439.888	21.29
440.093	21.28
440.297	21.31
440.501	21.24
440.706	21.31
440.91	21.19
441.114	21.15
441.318	21.13
441.523	21.14
441.727	21.17
441.931	21.22
442.135	21.19
442.339	21.23
442.543	21.09
442.748	21.12
442.952	21.15
443.156	21.21
443.36	21.21
443.564	21.28
443.768	21.37
443.972	21.44
444.176	21.45
444.38	21.41
444.584	21.39
444.788	21.43
444.992	21.47
445.196	21.45
445.4	21.43
445.604	21.47
445.808	21.38
446.012	21.32
446.216	21.31
446.42	21.21
446.624	21.18
446.828	21.23
447.032	21.27
447.235	21.23
447.439	21.26
447.643	21.23
447.847	21.2
448.051	21.15
448.254	21.13
448.458	21.06
448.662	21.07
448.866	21.08
449.069	20.93
449.273	20.86
449.477	20.93
449.681	20.74
449.884	20.83
450.088	20.76
450.292	20.97
450.495	20.98
450.699	20.99
450.902	21.14
451.106	21.19
451.31	21.23
451.513	21.38
451.717	21.21
451.92	21.48
452.124	21.42
452.327	21.42
452.531	21.32
452.734	21.34
452.938	21.4
453.141	21.28
453.345	21.27
453.548	21.27
453.752	21.19
453.955	21.42
454.158	21.23
454.362	21.15
454.565	21.2
454.769	21.13
454.972	21.13
455.175	21.09
455.379	21.24
455.582	21.34
455.785	21.4
455.988	21.43
456.192	21.31
456.395	21.48
456.598	21.59
456.801	21.69
457.005	21.7
457.208	21.68
457.411	21.7
457.614	21.56
457.817	21.33
458.021	21.31
458.224	21.36
458.427	21.29
458.63	21.27
458.833	21.17
459.036	21.13
459.239	21.13
459.442	21.14
459.645	21.04
459.848	21.07
460.051	21.19
460.254	21.19
460.457	21.16
460.66	21.15
460.863	21.11
461.066	21.17
461.269	21.09
461.472	21.08
461.675	21.05
461.878	21.06
