Data from 2938755__Reflection_02.txt Node
Date: Fri Mar 13 19:07:18 EDT 2015
User: robert
Spectrometer: USB4E03002
Autoset integration time: false
Trigger mode: 4
Integration Time (sec): 1.000000E-1
Scans to average: 10
Electric dark correction enabled: false
Nonlinearity correction enabled: false
Boxcar width: 5
Stray light correction enabled: false
XAxis mode: Wavelengths
Stop averaging: false
Number of Pixels in Spectrum: 3648
>>>>>Begin Spectral Data<<<<<
177.575	-390.91
177.794	-2428.57
178.014	-218.97
178.233	-171.62
178.452	20500
178.672	90.17
178.891	-51.61
179.11	-89.89
179.33	-217.07
179.549	-291.57
179.768	-80.61
179.987	-161.29
180.207	-815.91
180.426	-116.56
180.645	103.33
180.864	126.67
181.084	28.02
181.303	39.45
181.522	75.08
181.741	44.65
181.96	27.21
182.179	13.49
182.398	-1.91
182.618	-29.18
182.837	-43.6
183.056	-31.36
183.275	-50
183.494	3.85
183.713	-157.14
183.932	-435
184.151	6200
184.37	33.9
184.589	0
184.808	33.83
185.027	47.77
185.246	10.36
185.465	-31.05
185.684	3.46
185.903	47.6
186.122	54.05
186.341	-54.26
186.56	723.08
186.779	67.76
186.998	74.03
187.216	95.68
187.435	151.03
187.654	140.24
187.873	117.3
188.092	112.27
188.311	156.05
188.53	151.97
188.748	132.75
188.967	152.97
189.186	284.08
189.405	-218.95
189.623	-96.58
189.842	-129.12
190.061	-70.53
190.28	-21.97
190.498	18.39
190.717	-3.87
190.936	50.98
191.154	56.99
191.373	56.06
191.592	12.76
191.81	-325
192.029	-240
192.248	-34.39
192.466	9.02
192.685	20.69
192.904	-33.73
193.122	-572.34
193.341	-610.53
193.559	-634.62
193.778	1563.64
193.996	168.42
194.215	150.55
194.433	349.53
194.652	556.94
194.87	11100
195.089	643.9
195.307	-1303.23
195.526	-47.57
195.744	-9.69
195.963	-19.54
196.181	9.36
196.399	2.87
196.618	1.37
196.836	36.49
197.055	36.25
197.273	18.85
197.491	68.1
197.71	51.52
197.928	65.19
198.146	82.05
198.365	109.09
198.583	-122.92
198.801	29.93
199.019	51.82
199.238	27.9
199.456	35.36
199.674	58.51
199.892	-6.36
200.111	-23.69
200.329	14.94
200.547	-74.62
200.765	19.95
200.983	70.6
201.202	50.78
201.42	65.99
201.638	58.86
201.856	63.44
202.074	50.36
202.292	88.66
202.51	107.96
202.728	44.52
202.946	31.98
203.165	21.89
203.383	-69.07
203.601	-327.17
203.819	-60.61
204.037	-84.29
204.255	-47.01
204.473	-108.14
204.691	-97.84
204.909	-76.92
205.127	-50.43
205.345	6.6
205.562	6.29
205.78	-2.42
205.998	60.09
206.216	59.8
206.434	55.48
206.652	50.28
206.87	61.61
207.088	63.66
207.306	67.19
207.523	84.87
207.741	91.03
207.959	88.01
208.177	61.4
208.395	59.63
208.612	51.32
208.83	28.26
209.048	7.6
209.266	8.9
209.483	9.01
209.701	2.71
209.919	-16.07
210.136	-27.44
210.354	-67.23
210.572	-31.47
210.79	-60.06
211.007	-35.58
211.225	-65.42
211.442	-35.13
211.66	-15.96
211.878	-29.37
212.095	-19.43
212.313	-31.08
212.53	-25.5
212.748	7.73
212.966	21.34
213.183	-1.62
213.401	15.96
213.618	37.15
213.836	22.97
214.053	44.33
214.271	73.19
214.488	72.32
214.705	51.6
214.923	82.96
215.14	74.72
215.358	70.4
215.575	89.34
215.793	91.65
216.01	94.55
216.227	79.67
216.445	73.06
216.662	86.57
216.879	69.84
217.097	68.46
217.314	46.25
217.531	34.91
217.749	18.34
217.966	23.39
218.183	24.61
218.4	3.66
218.618	17.98
218.835	10.55
219.052	13.18
219.269	19.09
219.487	22.71
219.704	33.73
219.921	38.39
220.138	39.97
220.355	33.58
220.572	32.3
220.79	35.28
221.007	28.3
221.224	25.81
221.441	25.06
221.658	24.7
221.875	20.26
222.092	21.97
222.309	18.41
222.526	17.19
222.743	19.63
222.96	16.8
223.177	12.13
223.394	10.11
223.611	12.38
223.828	10.99
224.045	9.71
224.262	8.52
224.479	4.71
224.696	6.85
224.913	5.73
225.13	2.49
225.347	0.68
225.564	3.82
225.781	3.55
225.997	3.25
226.214	1.56
226.431	1.64
226.648	4.68
226.865	4.64
227.082	1.81
227.298	2.46
227.515	2.36
227.732	2.98
227.949	1.52
228.165	3.19
228.382	4.26
228.599	4.56
228.816	3.62
229.032	3.51
229.249	3.27
229.466	4.74
229.682	5.23
229.899	6.38
230.116	5.78
230.332	5.84
230.549	5.21
230.765	3.86
230.982	3.82
231.199	5.02
231.415	4.32
231.632	4.79
231.848	4.14
232.065	2.6
232.281	1.18
232.498	2.54
232.714	4.52
232.931	3.42
233.147	5.55
233.364	6.44
233.58	6.45
233.797	5.59
234.013	5.35
234.23	3.04
234.446	3.94
234.662	1.93
234.879	1.06
235.095	2.67
235.312	2.31
235.528	-0.99
235.744	-2.24
235.961	-1.76
236.177	-0.33
236.393	-0.97
236.61	1.4
236.826	1.58
237.042	4.35
237.258	4.96
237.475	4.57
237.691	4.17
237.907	4.42
238.123	3.84
238.339	2.38
238.556	3.02
238.772	2.68
238.988	0.19
239.204	1.07
239.42	1.01
239.636	1.75
239.853	1.33
240.069	3.06
240.285	4.07
240.501	4.13
240.717	3.7
240.933	3.5
241.149	3.67
241.365	3.86
241.581	3.18
241.797	3.16
242.013	2.71
242.229	2.6
242.445	2.08
242.661	1.91
242.877	1.87
243.093	2.27
243.309	1.87
243.525	2.38
243.741	2.66
243.957	3.26
244.173	3.37
244.388	3.83
244.604	3.2
244.82	3.53
245.036	3.23
245.252	2.85
245.468	2.65
245.683	2.85
245.899	2.64
246.115	2.76
246.331	2.43
246.547	2.59
246.762	2.13
246.978	2.42
247.194	2.32
247.409	2.57
247.625	2.67
247.841	2.63
248.057	2.59
248.272	2.87
248.488	2.53
248.703	2.45
248.919	1.94
249.135	2.19
249.35	1.98
249.566	1.88
249.782	2.04
249.997	2.43
250.213	2.5
250.428	2.19
250.644	1.42
250.859	2.14
251.075	2.34
251.29	2.6
251.506	2.47
251.721	2.47
251.937	2.69
252.152	2.42
252.368	2.04
252.583	2.51
252.798	3.37
253.014	3.25
253.229	3.4
253.445	3.37
253.66	4.15
253.875	4.4
254.091	5.65
254.306	5.82
254.521	5.31
254.737	5.83
254.952	5.52
255.167	5.28
255.383	5.24
255.598	5.12
255.813	5.17
256.028	3.53
256.244	3.48
256.459	2.62
256.674	2.15
256.889	2.58
257.104	2.64
257.32	2.16
257.535	1.21
257.75	1.3
257.965	0.82
258.18	0.41
258.395	0.69
258.61	0.67
258.826	0.54
259.041	0.62
259.256	0.71
259.471	0.7
259.686	0.74
259.901	0.9
260.116	0.8
260.331	0.85
260.546	1.19
260.761	1.47
260.976	1.62
261.191	1.81
261.406	1.98
261.621	1.74
261.836	1.69
262.05	1.71
262.265	1.28
262.48	1.28
262.695	1.71
262.91	1.39
263.125	0.94
263.34	0.63
263.555	0.34
263.769	0.08
263.984	0.66
264.199	0.86
264.414	1.39
264.629	1.93
264.843	2.05
265.058	1.76
265.273	2
265.488	1.69
265.702	1.4
265.917	1.44
266.132	1.86
266.346	1.4
266.561	1.48
266.776	1.53
266.99	1.74
267.205	1.68
267.42	1.25
267.634	1.35
267.849	1.6
268.063	2.07
268.278	2.01
268.492	1.72
268.707	2.03
268.922	2.03
269.136	1.4
269.351	1.57
269.565	1.35
269.78	1.66
269.994	1.79
270.209	1.49
270.423	1.47
270.637	1.44
270.852	1.28
271.066	1.33
271.281	1.14
271.495	1.5
271.709	1.45
271.924	1.71
272.138	1.41
272.353	1.63
272.567	1.85
272.781	1.66
272.996	1.46
273.21	1.56
273.424	1.48
273.638	1.43
273.853	1.62
274.067	1.29
274.281	0.85
274.495	1.27
274.71	0.97
274.924	0.83
275.138	1.1
275.352	1.54
275.566	1.84
275.781	2.09
275.995	1.96
276.209	1.76
276.423	1.63
276.637	2.56
276.851	2.85
277.065	2.86
277.279	2.73
277.493	2.76
277.707	1.92
277.921	1.93
278.135	1.72
278.349	2.26
278.563	2.43
278.777	3.05
278.991	2.32
279.205	1.87
279.419	1.45
279.633	2.19
279.847	2.11
280.061	2.49
280.275	2.42
280.489	2.49
280.703	2.25
280.917	2.17
281.131	1.9
281.344	1.98
281.558	2.12
281.772	2.17
281.986	1.94
282.2	1.87
282.414	2.07
282.627	2.17
282.841	2.12
283.055	1.92
283.269	1.72
283.482	1.46
283.696	1.64
283.91	1.07
284.123	1.29
284.337	1.08
284.551	1.06
284.764	1.08
284.978	0.9
285.192	0.65
285.405	0.71
285.619	0.96
285.833	1.21
286.046	1.27
286.26	1.59
286.473	1.41
286.687	1.52
286.9	1.66
287.114	1.6
287.327	1.64
287.541	1.98
287.754	2.14
287.968	2.09
288.181	1.86
288.395	1.78
288.608	1.81
288.822	1.97
289.035	1.62
289.248	1.59
289.462	1.49
289.675	1.26
289.889	1.27
290.102	1.17
290.315	0.81
290.529	0.98
290.742	1
290.955	1.2
291.169	1.13
291.382	1.61
291.595	1.52
291.808	1.82
292.022	2.14
292.235	2.07
292.448	2.28
292.661	2.56
292.875	2.81
293.088	2.8
293.301	2.94
293.514	2.63
293.727	2.57
293.94	2.38
294.153	2.47
294.367	2.39
294.58	2.15
294.793	2.01
295.006	1.88
295.219	1.63
295.432	1.51
295.645	1.2
295.858	1.44
296.071	1.24
296.284	1.68
296.497	1.5
296.71	1.67
296.923	1.88
297.136	2.04
297.349	2.29
297.562	2.26
297.775	2.42
297.988	2.87
298.201	3.01
298.414	3.17
298.626	3.07
298.839	3.22
299.052	3.16
299.265	3.11
299.478	2.99
299.691	2.83
299.903	3.02
300.116	3.01
300.329	2.47
300.542	2.37
300.755	2.22
300.967	2.43
301.18	2.25
301.393	1.87
301.605	1.86
301.818	1.83
302.031	1.68
302.243	1.62
302.456	1.73
302.669	1.44
302.881	1.5
303.094	1.6
303.307	1.39
303.519	1.76
303.732	2.17
303.944	2.14
304.157	2.18
304.37	2.42
304.582	2.34
304.795	2.13
305.007	2.79
305.22	2.66
305.432	2.55
305.645	2.22
305.857	2.04
306.069	2.2
306.282	2.19
306.494	2.42
306.707	2.14
306.919	2.87
307.132	3.13
307.344	2.97
307.556	3.13
307.769	3.4
307.981	3.71
308.193	3.9
308.406	3.87
308.618	3.84
308.83	3.44
309.043	3.88
309.255	3.37
309.467	3.06
309.679	3.11
309.892	3.33
310.104	3.23
310.316	2.87
310.528	3.04
310.74	2.91
310.953	2.95
311.165	3.1
311.377	3.06
311.589	3.29
311.801	3.51
312.013	3.31
312.225	3.14
312.437	3.32
312.649	3.44
312.862	3.18
313.074	3.29
313.286	3.64
313.498	3.77
313.71	3.75
313.922	3.62
314.134	3.78
314.346	4.16
314.558	4.26
314.77	4.17
314.982	4.46
315.193	4.15
315.405	4.05
315.617	4.09
315.829	3.69
316.041	4.33
316.253	4.44
316.465	4.36
316.677	4.35
316.888	4.09
317.1	4.07
317.312	4.18
317.524	4.32
317.736	4.52
317.947	4.18
318.159	4.55
318.371	4.08
318.583	4.09
318.794	4.18
319.006	4.7
319.218	4.78
319.43	5.32
319.641	5.77
319.853	6.15
320.064	6.5
320.276	6.72
320.488	7.12
320.699	6.71
320.911	6.53
321.123	6.49
321.334	6.05
321.546	5.92
321.757	5.59
321.969	4.84
322.18	4.8
322.392	4.92
322.603	4.86
322.815	4.94
323.026	5.18
323.238	6.05
323.449	5.86
323.661	5.77
323.872	6.33
324.083	6.33
324.295	6.64
324.506	6.71
324.718	6.74
324.929	7.14
325.14	7.44
325.352	7.76
325.563	7.59
325.774	8.13
325.986	8.55
326.197	8.96
326.408	9.27
326.62	9.73
326.831	10.16
327.042	10.39
327.253	10.42
327.464	11.1
327.676	11.42
327.887	11.78
328.098	11.79
328.309	12.13
328.52	12.13
328.732	12.44
328.943	12.33
329.154	12.72
329.365	12.64
329.576	13.38
329.787	13.1
329.998	13.22
330.209	13.47
330.42	14.11
330.631	14.13
330.842	14.55
331.053	14.67
331.264	15.34
331.475	14.98
331.686	15.7
331.897	15.63
332.108	15.88
332.319	16.22
332.53	16.47
332.741	16.67
332.952	16.66
333.163	16.5
333.374	16.68
333.585	16.51
333.795	17.24
334.006	16.71
334.217	16.65
334.428	16.55
334.639	16.73
334.849	16.65
335.06	16.8
335.271	17.35
335.482	17.51
335.692	17.78
335.903	17.95
336.114	18.24
336.325	18.99
336.535	19.2
336.746	19.58
336.957	19.31
337.167	19.29
337.378	19.04
337.589	19.01
337.799	18.78
338.01	18.63
338.22	18.78
338.431	18.56
338.642	18.26
338.852	18.27
339.063	18.11
339.273	18.46
339.484	18.7
339.694	18.69
339.905	18.62
340.115	18.66
340.326	18.79
340.536	18.33
340.746	17.97
340.957	18.02
341.167	18.04
341.378	18.25
341.588	17.86
341.799	17.57
342.009	17.74
342.219	17.72
342.43	18.16
342.64	18.18
342.85	18.33
343.061	18.41
343.271	18.07
343.481	18.11
343.691	17.8
343.902	18.1
344.112	18.2
344.322	18.38
344.532	18.36
344.743	18.28
344.953	18.31
345.163	18.47
345.373	18.38
345.583	18.7
345.793	18.56
346.004	18.54
346.214	18.29
346.424	18.58
346.634	18.35
346.844	18.32
347.054	18.26
347.264	18.07
347.474	18.28
347.684	18.36
347.894	18.3
348.104	18.46
348.314	18.15
348.524	18.48
348.734	18.24
348.944	18.26
349.154	18.53
349.364	18.41
349.574	18.54
349.784	18.62
349.994	18.77
350.204	18.64
350.413	18.48
350.623	18.75
350.833	18.34
351.043	18.42
351.253	18.27
351.463	18.1
351.672	18.02
351.882	17.88
352.092	17.76
352.302	17.45
352.511	17.64
352.721	17.98
352.931	17.99
353.141	18.36
353.35	18.11
353.56	18.32
353.77	18.01
353.979	18.05
354.189	17.8
354.399	17.53
354.608	17.49
354.818	17.05
355.027	16.77
355.237	16.8
355.447	16.83
355.656	17.02
355.866	16.94
356.075	17.16
356.285	17.27
356.494	17.44
356.704	17.54
356.913	17.64
357.123	17.85
357.332	17.78
357.542	17.74
357.751	17.54
357.96	17.4
358.17	17.43
358.379	17.23
358.589	17.18
358.798	17.22
359.007	17.2
359.217	17.13
359.426	17.07
359.635	17.06
359.845	17.32
360.054	17.28
360.263	17.25
360.472	17.11
360.682	17.25
360.891	17.13
361.1	17.17
361.309	17.02
361.519	16.92
361.728	16.9
361.937	16.7
362.146	16.35
362.355	16.34
362.564	16.3
362.774	16.34
362.983	16.24
363.192	16.31
363.401	16.21
363.61	16.33
363.819	16.41
364.028	16.58
364.237	16.71
364.446	16.63
364.655	16.79
364.864	16.8
365.073	16.9
365.282	16.91
365.491	16.99
365.7	17.27
365.909	17.17
366.118	17.23
366.327	17.05
366.536	17.18
366.745	17.41
366.954	17.25
367.162	17.2
367.371	16.79
367.58	16.6
367.789	16.52
367.998	16.03
368.207	15.93
368.415	15.93
368.624	15.96
368.833	15.91
369.042	15.92
369.25	16.09
369.459	16.11
369.668	16.24
369.877	16.36
370.085	16.17
370.294	16.4
370.503	16.61
370.711	16.67
370.92	16.79
371.129	16.75
371.337	16.78
371.546	16.58
371.754	16.67
371.963	16.86
372.171	16.93
372.38	16.98
372.589	16.99
372.797	16.81
373.006	16.85
373.214	16.72
373.423	16.86
373.631	17.01
373.84	16.98
374.048	16.71
374.256	16.72
374.465	16.55
374.673	16.61
374.882	16.71
375.09	16.98
375.298	17
375.507	16.92
375.715	16.73
375.923	16.53
376.132	16.55
376.34	16.65
376.548	16.55
376.757	16.64
376.965	16.72
377.173	16.58
377.381	16.43
377.59	16.34
377.798	16.38
378.006	16.52
378.214	16.45
378.423	16.32
378.631	16.46
378.839	16.43
379.047	16.41
379.255	16.3
379.463	16.25
379.671	16.12
379.879	16.16
380.088	16.2
380.296	15.93
380.504	15.97
380.712	15.87
380.92	15.9
381.128	15.96
381.336	15.9
381.544	16.02
381.752	16.06
381.96	15.96
382.168	15.91
382.376	16.01
382.584	16.25
382.791	16.22
382.999	16.52
383.207	16.38
383.415	16.14
383.623	16.22
383.831	16.01
384.039	16.06
384.247	16.23
384.454	16.03
384.662	16.01
384.87	16
385.078	15.96
385.285	15.9
385.493	15.97
385.701	16.08
385.909	16.05
386.116	16.35
386.324	16.31
386.532	16.36
386.739	16.38
386.947	16.23
387.155	16.16
387.362	16.11
387.57	16.17
387.778	16.18
387.985	16.27
388.193	16.34
388.4	15.97
388.608	15.8
388.816	15.82
389.023	16.06
389.231	15.91
389.438	16.05
389.646	16.37
389.853	16.15
390.061	16.08
390.268	16.05
390.475	16.12
390.683	16.21
390.89	16.28
391.098	16.2
391.305	16.11
391.512	16.27
391.72	16.2
391.927	15.92
392.135	15.92
392.342	15.82
392.549	15.75
392.756	15.57
392.964	15.67
393.171	15.85
393.378	15.74
393.586	15.89
393.793	15.97
394	15.96
394.207	15.99
394.414	16.07
394.622	16.13
394.829	16.31
395.036	16.28
395.243	16.33
395.45	16.18
395.657	16.23
395.864	16.02
396.072	15.84
396.279	15.84
396.486	15.85
396.693	16.07
396.9	16.11
397.107	16.08
397.314	16.22
397.521	16.07
397.728	16.19
397.935	16.24
398.142	16.26
398.349	16.39
398.556	16.25
398.763	16.31
398.97	16.18
399.177	16.04
399.383	15.97
399.59	15.89
399.797	16.16
400.004	16.02
400.211	15.92
400.418	15.81
400.625	15.58
400.831	15.79
401.038	15.67
401.245	15.76
401.452	15.91
401.658	15.87
401.865	16.01
402.072	15.59
402.279	15.59
402.485	15.72
402.692	15.9
402.899	16.13
403.105	16.26
403.312	16.53
403.519	16.49
403.725	16.6
403.932	16.72
404.138	16.56
404.345	16.97
404.552	16.97
404.758	17.04
404.965	17.09
405.171	17.09
405.378	17.01
405.584	16.97
405.791	16.98
405.997	16.84
406.204	16.82
406.41	16.92
406.617	16.89
406.823	17.01
407.029	17.03
407.236	17.11
407.442	17.02
407.649	17.03
407.855	17.04
408.061	16.87
408.268	16.98
408.474	17.09
408.68	17.19
408.887	16.91
409.093	16.87
409.299	16.86
409.505	16.68
409.712	16.76
409.918	16.85
410.124	16.69
410.33	16.97
410.537	16.99
410.743	17
410.949	16.92
411.155	17.16
411.361	17.1
411.567	17.18
411.773	17.26
411.98	17.36
412.186	17.29
412.392	17.32
412.598	17.33
412.804	17.27
413.01	17.15
413.216	17.22
413.422	17.28
413.628	17.33
413.834	17.27
414.04	17.38
414.246	17.41
414.452	17.47
414.658	17.55
414.864	17.4
415.07	17.42
415.275	17.54
415.481	17.44
415.687	17.45
415.893	17.43
416.099	17.41
416.305	17.23
416.511	17.25
416.716	17.18
416.922	17.31
417.128	17.44
417.334	17.59
417.539	17.55
417.745	17.6
417.951	17.49
418.157	17.52
418.362	17.6
418.568	17.76
418.774	17.83
418.979	17.95
419.185	17.92
419.391	17.82
419.596	17.79
419.802	17.82
420.008	17.82
420.213	17.26
420.419	17.3
420.624	17.21
420.83	17.18
421.035	17.17
421.241	17.1
421.446	17.06
421.652	17.12
421.857	17.05
422.063	17.01
422.268	17.03
422.474	17.6
422.679	17.63
422.885	17.69
423.09	17.74
423.295	17.8
423.501	17.81
423.706	17.8
423.911	17.79
424.117	17.81
424.322	17.85
424.527	17.95
424.733	17.96
424.938	17.96
425.143	18.04
425.349	18.02
425.554	17.87
425.759	17.83
425.964	17.9
426.169	17.97
426.375	18.01
426.58	18.06
426.785	18.08
426.99	18.1
427.195	18.18
427.4	18.06
427.605	18.08
427.811	18.21
428.016	18.37
428.221	18.41
428.426	18.42
428.631	18.43
428.836	18.46
429.041	18.41
429.246	18.5
429.451	18.58
429.656	18.6
429.861	18.65
430.066	18.65
430.271	18.6
430.476	18.57
430.681	18.58
430.886	18.7
431.09	18.72
431.295	18.64
431.5	18.65
431.705	18.6
431.91	18.63
432.115	18.69
432.32	18.71
432.524	18.81
432.729	18.8
432.934	18.84
433.139	18.85
433.343	18.8
433.548	19.05
433.753	19.07
433.958	19.06
434.162	19.11
434.367	19.08
434.572	19.19
434.776	19.15
434.981	19.25
435.186	19.25
435.39	19.22
435.595	19.28
435.799	19.08
436.004	19.08
436.209	19.06
436.413	19.13
436.618	19.13
436.822	19.24
437.027	19.41
437.231	19.41
437.436	19.49
437.64	19.53
437.845	19.56
438.049	19.6
438.253	19.66
438.458	19.6
438.662	19.66
438.867	19.68
439.071	19.5
439.275	19.43
439.48	19.43
439.684	19.39
439.888	19.42
440.093	19.43
440.297	19.42
440.501	19.35
440.706	19.43
440.91	19.49
441.114	19.48
441.318	19.49
441.523	19.45
441.727	19.43
441.931	19.45
442.135	19.46
442.339	19.46
442.543	19.57
442.748	19.58
442.952	19.57
443.156	19.41
443.36	19.47
443.564	19.56
443.768	19.53
443.972	19.57
444.176	19.49
444.38	19.49
444.584	19.55
444.788	19.43
444.992	19.43
445.196	19.39
445.4	19.46
445.604	19.46
445.808	19.37
446.012	19.43
446.216	19.41
446.42	19.48
446.624	19.41
446.828	19.32
447.032	19.41
447.235	19.42
447.439	19.54
447.643	19.48
447.847	19.49
448.051	19.55
448.254	19.59
448.458	19.54
448.662	19.52
448.866	19.62
449.069	19.68
449.273	19.61
449.477	19.66
449.681	19.58
449.884	19.64
450.088	19.62
450.292	19.76
450.495	19.7
450.699	19.87
450.902	19.91
451.106	19.81
451.31	19.71
451.513	19.79
451.717	19.81
451.92	19.76
452.124	19.65
452.327	19.63
452.531	19.52
452.734	19.46
452.938	19.43
453.141	19.44
453.345	19.61
453.548	19.65
453.752	19.66
453.955	19.49
454.158	19.53
454.362	19.73
454.565	19.74
454.769	19.73
454.972	19.83
455.175	19.73
455.379	19.7
455.582	19.58
455.785	19.7
455.988	19.58
456.192	19.7
456.395	19.79
456.598	19.8
456.801	19.83
457.005	19.82
457.208	19.78
457.411	19.81
457.614	19.74
457.817	19.72
458.021	19.71
458.224	19.75
458.427	19.78
458.63	19.78
458.833	19.74
459.036	19.75
459.239	19.81
459.442	19.87
459.645	19.86
459.848	19.89
460.051	19.95
460.254	19.89
460.457	19.94
460.66	19.88
460.863	19.9
461.066	19.85
461.269	19.92
461.472	19.85
461.675	19.73
461.878	19.73
462.081	19.75
