Data from 2938748__Reflection_04.txt Node
Date: Sun Mar 15 11:31:40 EDT 2015
User: robert
Spectrometer: USB4E03002
Autoset integration time: false
Trigger mode: 4
Integration Time (sec): 1.000000E-1
Scans to average: 10
Electric dark correction enabled: false
Nonlinearity correction enabled: false
Boxcar width: 5
Stray light correction enabled: false
XAxis mode: Wavelengths
Stop averaging: false
Number of Pixels in Spectrum: 3648
>>>>>Begin Spectral Data<<<<<
177.575	601.11
177.794	553.77
178.014	505.63
178.233	495.04
178.452	468.65
178.672	444.34
178.891	414.58
179.11	404.22
179.33	359.8
179.549	344.47
179.768	342.26
179.987	340
180.207	325.99
180.426	319.53
180.645	307.16
180.864	305.4
181.084	291.12
181.303	286.84
181.522	267.16
181.741	276.76
181.96	267.69
182.179	279.42
182.398	270.22
182.618	255.46
182.837	261.52
183.056	254.9
183.275	247.26
183.494	246.45
183.713	239.41
183.932	241.92
184.151	248.97
184.37	262.39
184.589	252.96
184.808	271.22
185.027	283.19
185.246	266.93
185.465	270.26
185.684	266.77
185.903	267.9
186.122	258.62
186.341	265.36
186.56	257.95
186.779	239.86
186.998	237.27
187.216	226.04
187.435	233.42
187.654	234.8
187.873	236.29
188.092	235.67
188.311	244.77
188.53	266.71
188.748	273.08
188.967	253.64
189.186	272.35
189.405	280.41
189.623	290.63
189.842	282.38
190.061	296.8
190.28	283.99
190.498	287.28
190.717	301.02
190.936	287.84
191.154	261.12
191.373	278.15
191.592	271.59
191.81	256.85
192.029	261.8
192.248	256.56
192.466	256.09
192.685	255.53
192.904	260.14
193.122	254.53
193.341	259.99
193.559	288.12
193.778	296.22
193.996	293.68
194.215	308.17
194.433	294.85
194.652	294.52
194.87	285.73
195.089	298.41
195.307	296.71
195.526	276.87
195.744	277.39
195.963	270.67
196.181	251.34
196.399	246.13
196.618	242.19
196.836	237.35
197.055	242.66
197.273	246.86
197.491	257.36
197.71	253.49
197.928	262.13
198.146	258.74
198.365	246.8
198.583	251.34
198.801	253.81
199.019	261.51
199.238	290.23
199.456	294.1
199.674	286.35
199.892	274.37
200.111	291.66
200.329	289.65
200.547	288.18
200.765	304.55
200.983	312.33
201.202	290.11
201.42	288.34
201.638	264.42
201.856	255.35
202.074	256.8
202.292	246.51
202.51	241.56
202.728	242.57
202.946	254.86
203.165	249.24
203.383	238.92
203.601	254.26
203.819	255.95
204.037	263.74
204.255	272.8
204.473	260.55
204.691	273.88
204.909	270.04
205.127	278.44
205.345	247.53
205.562	236.52
205.78	251.98
205.998	247.62
206.216	251.5
206.434	262.47
206.652	266.71
206.87	281.33
207.088	277.76
207.306	275.74
207.523	270.86
207.741	272.6
207.959	284.95
208.177	265.25
208.395	268.95
208.612	266.38
208.83	244.48
209.048	238.78
209.266	234.24
209.483	219.7
209.701	220.07
209.919	215.51
210.136	220.56
210.354	231.53
210.572	236.5
210.79	240.93
211.007	238.54
211.225	233.76
211.442	228.51
211.66	232.33
211.878	246.51
212.095	289.37
212.313	282.92
212.53	289.82
212.748	256.43
212.966	239.95
213.183	222.89
213.401	215.76
213.618	223.79
213.836	229.3
214.053	223.87
214.271	231.6
214.488	215.65
214.705	214.59
214.923	221.12
215.14	224.56
215.358	239.84
215.575	248.29
215.793	249.09
216.01	242.63
216.227	234.23
216.445	239.13
216.662	229.14
216.879	218.45
217.097	217.48
217.314	205.02
217.531	210.67
217.749	210.94
217.966	211.53
218.183	219.51
218.4	220.09
218.618	213.35
218.835	213.51
219.052	202.09
219.269	200.3
219.487	201.28
219.704	204.99
219.921	199.74
220.138	196
220.355	195.66
220.572	186.58
220.79	184.24
221.007	185.56
221.224	179.44
221.441	181.66
221.658	180.28
221.875	176.65
222.092	177.95
222.309	175.86
222.526	169.89
222.743	171.99
222.96	164.48
223.177	166.42
223.394	165.86
223.611	162.66
223.828	171.13
224.045	169.23
224.262	171.9
224.479	164.67
224.696	161.83
224.913	155.53
225.13	143.03
225.347	142.8
225.564	135.2
225.781	132.53
225.997	130.47
226.214	119.03
226.431	112.29
226.648	105.47
226.865	96.39
227.082	88.69
227.298	82.19
227.515	75.33
227.732	68.81
227.949	61.94
228.165	56.95
228.382	52.08
228.599	49.23
228.816	46.88
229.032	44.01
229.249	43.01
229.466	42.6
229.682	42.16
229.899	42.41
230.116	42.68
230.332	44.9
230.549	46.22
230.765	48.88
230.982	51
231.199	53.48
231.415	56.99
231.632	59.52
231.848	61.81
232.065	64.68
232.281	67.82
232.498	69.22
232.714	70.22
232.931	71.61
233.147	70.04
233.364	69.74
233.58	68.56
233.797	68.61
234.013	68.46
234.23	68.27
234.446	67.89
234.662	67.03
234.879	67.72
235.095	67.42
235.312	67.02
235.528	69.89
235.744	71.15
235.961	70.85
236.177	69.6
236.393	71.09
236.61	71.8
236.826	71.96
237.042	72.32
237.258	73.02
237.475	73.98
237.691	73.98
237.907	72.79
238.123	73.01
238.339	72.65
238.556	73.36
238.772	71.14
238.988	68.99
239.204	67.4
239.42	65.82
239.636	62.99
239.853	59.58
240.069	57.57
240.285	55.23
240.501	50.64
240.717	48.71
240.933	45.01
241.149	41.86
241.365	39.48
241.581	37.01
241.797	34.92
242.013	33.65
242.229	32.28
242.445	31.27
242.661	30.37
242.877	31.06
243.093	30.54
243.309	31.36
243.525	31.87
243.741	32.68
243.957	34.31
244.173	34.97
244.388	36.01
244.604	37.21
244.82	37.48
245.036	36.31
245.252	34.22
245.468	32.55
245.683	30.43
245.899	28.97
246.115	27.01
246.331	25.24
246.547	24.03
246.762	22.68
246.978	21.62
247.194	20.79
247.409	20.44
247.625	20.17
247.841	19.92
248.057	20.26
248.272	20.5
248.488	20.95
248.703	21.18
248.919	21.98
249.135	23.05
249.35	24.43
249.566	26.26
249.782	28.19
249.997	30.52
250.213	32.37
250.428	32.47
250.644	33.45
250.859	34.36
251.075	34.78
251.29	33.86
251.506	33.32
251.721	32.86
251.937	32.2
252.152	31.55
252.368	31.11
252.583	31.99
252.798	32.39
253.014	32.91
253.229	33.39
253.445	34.16
253.66	36.08
253.875	36.85
254.091	37.9
254.306	38.79
254.521	40.96
254.737	41.7
254.952	41.05
255.167	42.38
255.383	41.99
255.598	42.64
255.813	42.49
256.028	42.14
256.244	43.37
256.459	42.58
256.674	42.02
256.889	40.12
257.104	39.29
257.32	39.23
257.535	36.95
257.75	34.46
257.965	31.48
258.18	29.06
258.395	26.52
258.61	23.53
258.826	21.51
259.041	20.04
259.256	18.86
259.471	17.79
259.686	16.49
259.901	15.78
260.116	15.63
260.331	15.56
260.546	15.79
260.761	16.06
260.976	16.6
261.191	17.66
261.406	18.67
261.621	19.71
261.836	20.8
262.05	22.27
262.265	24.28
262.48	26.17
262.695	27.65
262.91	28.48
263.125	29.45
263.34	30.42
263.555	30.99
263.769	31.16
263.984	31.43
264.199	31.8
264.414	31.91
264.629	31.71
264.843	31.25
265.058	31.46
265.273	31.17
265.488	30.56
265.702	30.15
265.917	29.08
266.132	28.57
266.346	28.01
266.561	26.94
266.776	26.14
266.99	25.72
267.205	25.46
267.42	25.02
267.634	25.08
267.849	24.68
268.063	24.15
268.278	23.93
268.492	23.84
268.707	23.95
268.922	24.07
269.136	24.67
269.351	24.71
269.565	24.24
269.78	23.5
269.994	22.76
270.209	22.73
270.423	22.43
270.637	22.52
270.852	22.18
271.066	21.82
271.281	21.4
271.495	20.63
271.709	20.27
271.924	20.17
272.138	20.32
272.353	20.7
272.567	20.72
272.781	20.73
272.996	21
273.21	21.23
273.424	21.19
273.638	21.81
273.853	22.28
274.067	22.22
274.281	22.48
274.495	22.94
274.71	23.11
274.924	23.67
275.138	24.03
275.352	23.86
275.566	23.9
275.781	24.56
275.995	23.97
276.209	24.4
276.423	24.7
276.637	24.71
276.851	24.62
277.065	24.74
277.279	24.41
277.493	24.85
277.707	25.02
277.921	25.46
278.135	24.98
278.349	25.61
278.563	25.07
278.777	25.4
278.991	25.37
279.205	25.19
279.419	25.21
279.633	25.57
279.847	25.16
280.061	24.96
280.275	24.27
280.489	23.89
280.703	23.03
280.917	22.55
281.131	21.78
281.344	21.27
281.558	20.94
281.772	20.75
281.986	20.12
282.2	20.09
282.414	19.55
282.627	19.11
282.841	19.24
283.055	19.56
283.269	19.81
283.482	20.36
283.696	20.56
283.91	20.98
284.123	20.25
284.337	19.83
284.551	19.06
284.764	19.16
284.978	19.33
285.192	18.81
285.405	18.55
285.619	17.88
285.833	17.26
286.046	17.08
286.26	16.52
286.473	16.75
286.687	17.34
286.9	17.45
287.114	17.48
287.327	17.5
287.541	17.93
287.754	18.01
287.968	18.53
288.181	18.47
288.395	18.57
288.608	18.84
288.822	18.61
289.035	18.12
289.248	17.99
289.462	17.43
289.675	17.41
289.889	17.08
290.102	16.86
290.315	16.81
290.529	16.83
290.742	17.12
290.955	17.16
291.169	17.64
291.382	17.83
291.595	18.51
291.808	19.34
292.022	19.81
292.235	20.38
292.448	20.99
292.661	21.5
292.875	21.98
293.088	21.64
293.301	21.82
293.514	21.66
293.727	21.4
293.94	20.89
294.153	20.8
294.367	20.06
294.58	19.35
294.793	18.99
295.006	18.81
295.219	18.44
295.432	18.21
295.645	17.5
295.858	16.91
296.071	16.7
296.284	16.53
296.497	15.8
296.71	15.72
296.923	15.69
297.136	15.31
297.349	14.83
297.562	14.7
297.775	14.77
297.988	15.02
298.201	15.49
298.414	15.66
298.626	15.87
298.839	16.34
299.052	16.57
299.265	17.11
299.478	17.98
299.691	18.49
299.903	18.85
300.116	19.01
300.329	19.43
300.542	19.47
300.755	19.85
300.967	19.89
301.18	20.03
301.393	20.34
301.605	20.28
301.818	20.25
302.031	20.26
302.243	20.22
302.456	20.59
302.669	20.32
302.881	20.56
303.094	20.43
303.307	20.23
303.519	20.7
303.732	20.44
303.944	20.33
304.157	20.16
304.37	20.22
304.582	20.4
304.795	20.36
305.007	20.53
305.22	20.23
305.432	20.79
305.645	21.35
305.857	21.12
306.069	21.68
306.282	21.77
306.494	21.88
306.707	21.78
306.919	21.91
307.132	21.76
307.344	21.47
307.556	21.69
307.769	21.25
307.981	20.69
308.193	20.47
308.406	19.43
308.618	19.36
308.83	18.97
309.043	18.54
309.255	18.47
309.467	18.19
309.679	18.46
309.892	18.06
310.104	17.53
310.316	17.58
310.528	17.43
310.74	17.72
310.953	17.82
311.165	17.99
311.377	18.29
311.589	18.47
311.801	18.3
312.013	18.15
312.225	18.56
312.437	19.41
312.649	20.07
312.862	20.59
313.074	20.86
313.286	21.04
313.498	21.37
313.71	21.65
313.922	21.69
314.134	22.46
314.346	22.69
314.558	22.9
314.77	22.52
314.982	22.18
315.193	22.13
315.405	22.29
315.617	22.39
315.829	21.96
316.041	21.93
316.253	22.05
316.465	22.3
316.677	22.25
316.888	22.5
317.1	22.35
317.312	22.99
317.524	23.09
317.736	23.52
317.947	23.36
318.159	24.1
318.371	24.15
318.583	24.33
318.794	23.92
319.006	24.16
319.218	23.63
319.43	23.89
319.641	23.83
319.853	24.39
320.064	24.53
320.276	25.47
320.488	25.38
320.699	25.85
320.911	25.72
321.123	26.14
321.334	26.42
321.546	26.8
321.757	27.08
321.969	27.2
322.18	26.48
322.392	26.28
322.603	25.31
322.815	25.92
323.026	25.37
323.238	25.26
323.449	24.82
323.661	24.56
323.872	23.85
324.083	23.42
324.295	22.78
324.506	22.49
324.718	22
324.929	22.3
325.14	21.76
325.352	22.3
325.563	22.1
325.774	22.32
325.986	22.33
326.197	22.68
326.408	22.72
326.62	22.58
326.831	22.85
327.042	22.91
327.253	22.61
327.464	22.28
327.676	21.84
327.887	22.03
328.098	22.24
328.309	22.51
328.52	22.88
328.732	22.96
328.943	23.41
329.154	23.74
329.365	23.86
329.576	24.61
329.787	25.06
329.998	25.5
330.209	25.85
330.42	25.7
330.631	25.75
330.842	25.41
331.053	25.58
331.264	25.27
331.475	25.38
331.686	25.49
331.897	24.99
332.108	24.65
332.319	24.57
332.53	24.53
332.741	24.13
332.952	23.86
333.163	24.12
333.374	23.62
333.585	23.81
333.795	23.59
334.006	23.49
334.217	23.34
334.428	23.53
334.639	23.37
334.849	23.01
335.06	23.38
335.271	23.14
335.482	22.84
335.692	23.06
335.903	23.08
336.114	22.81
336.325	22.75
336.535	23.11
336.746	23.31
336.957	23.6
337.167	23.71
337.378	23.65
337.589	23.73
337.799	23.66
338.01	23.55
338.22	23.34
338.431	23.37
338.642	23.88
338.852	23.16
339.063	22.66
339.273	22.06
339.484	21.97
339.694	21.71
339.905	21.89
340.115	22.02
340.326	21.95
340.536	22.14
340.746	22.21
340.957	22.07
341.167	22.17
341.378	22.36
341.588	22.23
341.799	22.19
342.009	21.73
342.219	21.56
342.43	21.36
342.64	21.58
342.85	21.14
343.061	20.63
343.271	20.19
343.481	20.63
343.691	20.38
343.902	20.3
344.112	20.19
344.322	20.24
344.532	20.14
344.743	20.12
344.953	19.91
345.163	19.92
345.373	20.14
345.583	20.28
345.793	19.66
346.004	19.74
346.214	19.8
346.424	19.76
346.634	19.93
346.844	19.82
347.054	20.11
347.264	20.04
347.474	20.2
347.684	20.24
347.894	20.49
348.104	21.03
348.314	21.06
348.524	21.3
348.734	20.92
348.944	21.09
349.154	21.28
349.364	20.56
349.574	20.5
349.784	20.51
349.994	20.64
350.204	20.32
350.413	20.15
350.623	20.25
350.833	19.97
351.043	20.18
351.253	20.31
351.463	19.97
351.672	20.32
351.882	20.4
352.092	20.3
352.302	20.43
352.511	20.24
352.721	20.04
352.931	19.96
353.141	20.05
353.35	20.25
353.56	19.8
353.77	19.9
353.979	19.61
354.189	19.48
354.399	19.38
354.608	19.16
354.818	19.19
355.027	19.05
355.237	18.72
355.447	18.4
355.656	17.97
355.866	18.07
356.075	17.88
356.285	17.83
356.494	17.63
356.704	17.63
356.913	17.59
357.123	17.26
357.332	17.06
357.542	16.98
357.751	16.8
357.96	16.83
358.17	16.58
358.379	16.64
358.589	16.69
358.798	16.85
359.007	16.4
359.217	16.12
359.426	16.09
359.635	16.23
359.845	16.01
360.054	15.75
360.263	15.64
360.472	15.61
360.682	15.2
360.891	15.09
361.1	14.77
361.309	14.92
361.519	14.88
361.728	14.82
361.937	14.85
362.146	14.96
362.355	15.12
362.564	15.33
362.774	15.2
362.983	15.63
363.192	15.74
363.401	15.9
363.61	16.03
363.819	16.16
364.028	16.31
364.237	16.19
364.446	16.09
364.655	16.03
364.864	15.76
365.073	16.08
365.282	15.96
365.491	15.89
365.7	16.13
365.909	16.2
366.118	16.08
366.327	16.16
366.536	16.13
366.745	16.3
366.954	16.63
367.162	16.85
367.371	16.72
367.58	16.67
367.789	16.54
367.998	16.6
368.207	16.74
368.415	16.79
368.624	16.87
368.833	17.24
369.042	17.27
369.25	17.2
369.459	17.38
369.668	17.33
369.877	17.11
370.085	17.02
370.294	16.66
370.503	16.34
370.711	16.38
370.92	16.1
371.129	15.73
371.337	15.58
371.546	15.65
371.754	15.23
371.963	15.03
372.171	15.12
372.38	14.97
372.589	15.29
372.797	15.25
373.006	15.07
373.214	15.19
373.423	15.37
373.631	15.43
373.84	15.37
374.048	15.59
374.256	15.91
374.465	16.04
374.673	16.23
374.882	15.96
375.09	16.02
375.298	15.86
375.507	15.61
375.715	15.44
375.923	15.38
376.132	15.13
376.34	14.9
376.548	14.52
376.757	14.11
376.965	14.16
377.173	14.18
377.381	14.05
377.59	14.16
377.798	14.59
378.006	14.72
378.214	14.71
378.423	15
378.631	15.24
378.839	15.46
379.047	15.6
379.255	15.51
379.463	15.51
379.671	15.54
379.879	15.57
380.088	15.38
380.296	15.24
380.504	15.19
380.712	15.34
380.92	15.18
381.128	15.33
381.336	15.44
381.544	15.53
381.752	15.46
381.96	15.44
382.168	15.39
382.376	15.13
382.584	15.22
382.791	15.18
382.999	14.8
383.207	14.6
383.415	14.46
383.623	14.52
383.831	14.48
384.039	14.57
384.247	14.58
384.454	14.55
384.662	14.28
384.87	13.91
385.078	13.98
385.285	13.6
385.493	13.59
385.701	13.47
385.909	13.32
386.116	13.25
386.324	13.12
386.532	12.84
386.739	12.94
386.947	13.38
387.155	13.66
387.362	13.72
387.57	14.05
387.778	14.09
387.985	14.03
388.193	13.9
388.4	13.89
388.608	14.01
388.816	14.14
389.023	13.9
389.231	13.63
389.438	13.63
389.646	13.45
389.853	13.38
390.061	13.33
390.268	13.24
390.475	13.15
390.683	13.12
390.89	12.83
391.098	12.7
391.305	12.67
391.512	12.66
391.72	12.47
391.927	12.25
392.135	12.26
392.342	12.16
392.549	12.32
392.756	12.3
392.964	12.3
393.171	12.41
393.378	12.54
393.586	12.43
393.793	12.34
394	12.21
394.207	12.47
394.414	12.41
394.622	12.48
394.829	12.35
395.036	12.36
395.243	12.53
395.45	12.22
395.657	12.25
395.864	12.42
396.072	12.53
396.279	12.54
396.486	12.42
396.693	12.43
396.9	12.24
397.107	12.53
397.314	12.66
397.521	12.33
397.728	12.36
397.935	12.3
398.142	12.09
398.349	12.11
398.556	12.13
398.763	12.11
398.97	12.22
399.177	12.18
399.383	11.88
399.59	11.72
399.797	11.83
400.004	11.99
400.211	11.95
400.418	12.06
400.625	12.04
400.831	12.07
401.038	12.04
401.245	12.16
401.452	12.28
401.658	12.19
401.865	12.19
402.072	12.02
402.279	11.95
402.485	11.74
402.692	11.64
402.899	11.42
403.105	11.45
403.312	11.38
403.519	11.01
403.725	10.94
403.932	10.66
404.138	10.57
404.345	10.5
404.552	10.43
404.758	10.54
404.965	10.58
405.171	10.54
405.378	10.41
405.584	10.44
405.791	10.61
405.997	10.58
406.204	10.93
406.41	10.99
406.617	11.05
406.823	11.07
407.029	11.33
407.236	11.46
407.442	11.51
407.649	11.69
407.855	11.63
408.061	11.35
408.268	11.4
408.474	11.19
408.68	11.28
408.887	11.21
409.093	11.3
409.299	11.09
409.505	10.95
409.712	11.14
409.918	10.94
410.124	10.91
410.33	10.98
410.537	10.8
410.743	10.98
410.949	10.99
411.155	11.12
411.361	11.04
411.567	10.84
411.773	11.01
411.98	11
412.186	11.02
412.392	11.18
412.598	11.32
412.804	11.6
413.01	11.28
413.216	11.27
413.422	11.18
413.628	11.17
413.834	11.13
414.04	10.96
414.246	10.74
414.452	10.68
414.658	10.47
414.864	10.34
415.07	10.29
415.275	10.4
415.481	10.25
415.687	10.27
415.893	10.23
416.099	10.24
416.305	9.93
416.511	9.83
416.716	9.53
416.922	9.48
417.128	9.35
417.334	8.93
417.539	8.87
417.745	8.74
417.951	8.58
418.157	8.28
418.362	8.12
418.568	8.1
418.774	7.98
418.979	8.05
419.185	7.88
419.391	7.76
419.596	7.69
419.802	7.59
420.008	7.43
420.213	7.26
420.419	7.3
420.624	7.23
420.83	7.12
421.035	7.08
421.241	7.04
421.446	7.07
421.652	6.98
421.857	7.08
422.063	7.01
422.268	7
422.474	7.02
422.679	6.97
422.885	7.07
423.09	7.11
423.295	7.11
423.501	7.05
423.706	6.92
423.911	6.96
424.117	7
424.322	6.93
424.527	7.06
424.733	7.12
424.938	7.15
425.143	7.16
425.349	7.24
425.554	7.27
425.759	7.35
425.964	7.51
426.169	7.64
426.375	7.71
426.58	7.98
426.785	8.04
426.99	8.16
427.195	8.31
427.4	8.27
427.605	8.42
427.811	8.48
428.016	8.61
428.221	8.62
428.426	8.7
428.631	8.65
428.836	8.6
429.041	8.56
429.246	8.59
429.451	8.54
429.656	8.65
429.861	8.61
430.066	8.66
430.271	8.6
430.476	8.66
430.681	8.6
430.886	8.6
431.09	8.64
431.295	8.62
431.5	8.64
431.705	8.64
431.91	8.47
432.115	8.24
432.32	8.23
432.524	8.21
432.729	8.19
432.934	8.19
433.139	8.24
433.343	8.13
433.548	8.06
433.753	7.98
433.958	7.97
434.162	8.07
434.367	8.28
434.572	8.26
434.776	8.19
434.981	8.22
435.186	8.14
435.39	8.09
435.595	8.17
435.799	8.22
436.004	8.23
436.209	8.21
436.413	8.13
436.618	7.98
436.822	8.07
437.027	8.13
437.231	8.04
437.436	8
437.64	8
437.845	7.92
438.049	7.83
438.253	7.72
438.458	7.7
438.662	7.66
438.867	7.55
439.071	7.47
439.275	7.29
439.48	7.37
439.684	7.23
439.888	7.07
440.093	7
440.297	6.91
440.501	6.9
440.706	6.86
440.91	6.92
441.114	6.98
441.318	7
441.523	7.05
441.727	6.91
441.931	7.05
442.135	7.21
442.339	7.2
442.543	7.38
442.748	7.42
442.952	7.44
443.156	7.5
443.36	7.54
443.564	7.49
443.768	7.55
443.972	7.61
444.176	7.54
444.38	7.35
444.584	7.34
444.788	7.23
444.992	7.1
445.196	7.05
445.4	6.83
445.604	6.76
445.808	6.69
446.012	6.57
446.216	6.46
446.42	6.41
446.624	6.47
446.828	6.41
447.032	6.3
447.235	6.29
447.439	6.34
447.643	6.27
447.847	6.36
448.051	6.38
448.254	6.42
448.458	6.58
448.662	6.62
448.866	6.58
449.069	6.7
449.273	6.96
449.477	7.08
449.681	7.16
449.884	7.47
450.088	7.49
450.292	7.49
450.495	7.6
450.699	7.64
450.902	7.8
451.106	7.93
451.31	7.98
451.513	7.86
451.717	7.9
451.92	7.9
452.124	7.81
452.327	7.93
452.531	8
452.734	8.05
452.938	7.95
453.141	7.86
453.345	7.83
453.548	7.87
453.752	7.92
453.955	8.06
454.158	8.06
454.362	8.05
454.565	7.87
454.769	7.87
454.972	7.88
455.175	7.94
455.379	8
455.582	8
455.785	7.96
455.988	7.96
456.192	7.72
456.395	7.7
456.598	7.61
456.801	7.61
