Data from 2938736__Reflection_01.txt Node
Date: Sun Mar 15 18:15:45 EDT 2015
User: robert
Spectrometer: USB4E03002
Autoset integration time: false
Trigger mode: 4
Integration Time (sec): 1.000000E-1
Scans to average: 10
Electric dark correction enabled: false
Nonlinearity correction enabled: false
Boxcar width: 5
Stray light correction enabled: false
XAxis mode: Wavelengths
Stop averaging: false
Number of Pixels in Spectrum: 3648
>>>>>Begin Spectral Data<<<<<
177.575	240.91
177.794	228.29
178.014	164.05
178.233	200
178.452	209.91
178.672	232.55
178.891	204.59
179.11	229.35
179.33	-510.17
179.549	-566.67
179.768	-8360
179.987	-1109.68
180.207	-1520
180.426	-268.79
180.645	-475
180.864	2381.25
181.084	549.28
181.303	560.47
181.522	270
181.741	162.29
181.96	273.37
182.179	237.36
182.398	228.18
182.618	313.7
182.837	392.31
183.056	512.43
183.275	687.2
183.494	1570.21
183.713	2816.67
183.932	-663.92
184.151	-368.57
184.37	-273.53
184.589	-321.88
184.808	-74.4
185.027	-210.67
185.246	378.13
185.465	368.18
185.684	85.25
185.903	84.27
186.122	112.46
186.341	87.97
186.56	86.42
186.779	70.77
186.998	66.17
187.216	71.13
187.435	78.19
187.654	87.98
187.873	94.46
188.092	102.82
188.311	101.77
188.53	81.15
188.748	96.74
188.967	86.52
189.186	74.88
189.405	128.9
189.623	159.85
189.842	184.24
190.061	144.02
190.28	150.2
190.498	169.02
190.717	167.81
190.936	167.08
191.154	178.07
191.373	274.82
191.592	377.33
191.81	242.86
192.029	197.24
192.248	207.01
192.466	226.96
192.685	172.07
192.904	181.61
193.122	318.23
193.341	253.52
193.559	168.68
193.778	153.86
193.996	154.63
194.215	126.53
194.433	112.16
194.652	82.55
194.87	66.89
195.089	62.23
195.307	88.15
195.526	69.26
195.744	107.69
195.963	142.75
196.181	540
196.399	4214.29
196.618	-2075
196.836	-4900
197.055	-296.59
197.273	-183.33
197.491	-98.62
197.71	-23.28
197.928	-97.26
198.146	-133.79
198.365	-337.29
198.583	157.14
198.801	39.41
199.019	-12.33
199.238	-87.05
199.456	14.41
199.674	11.7
199.892	1.88
200.111	49.53
200.329	67.53
200.547	50.57
200.765	22.09
200.983	120.28
201.202	438.98
201.42	316.18
201.638	-10100
201.856	-296.05
202.074	-4533.33
202.292	526.47
202.51	241.3
202.728	200
202.946	-334.69
203.165	-630.95
203.383	586.05
203.601	-346.81
203.819	-226.32
204.037	-170.79
204.255	-43.92
204.473	-54.89
204.691	-47.8
204.909	-20.53
205.127	10.88
205.345	24.17
205.562	42.21
205.78	59.35
205.998	79.01
206.216	-61.4
206.434	-280.36
206.652	-132.69
206.87	5.36
207.088	-27.21
207.306	104.84
207.523	436.17
207.741	245.35
207.959	83.33
208.177	149.04
208.395	131.9
208.612	70.49
208.83	73.21
209.048	92.43
209.266	71.86
209.483	68.07
209.701	97.39
209.919	60.84
210.136	61.24
210.354	90.72
210.572	90.44
210.79	112.7
211.007	91.75
211.225	76.14
211.442	77.4
211.66	74.69
211.878	74.68
212.095	-14.25
212.313	-19.08
212.53	-13.04
212.748	-34.39
212.966	-49.76
213.183	-51.16
213.401	-14.04
213.618	-25.85
213.836	-32.38
214.053	-39.34
214.271	-68.38
214.488	88.83
214.705	120.24
214.923	76.84
215.14	88.96
215.358	121.15
215.575	76.57
215.793	103.85
216.01	104.38
216.227	107.82
216.445	96.23
216.662	105.98
216.879	70.77
217.097	21.89
217.314	31.59
217.531	31.27
217.749	35.51
217.966	38.85
218.183	7.31
218.4	-0.62
218.618	-37.79
218.835	-61.28
219.052	-48.16
219.269	-56.88
219.487	-32.88
219.704	-34.57
219.921	-46.8
220.138	-24.42
220.355	-7.69
220.572	-12.72
220.79	2.33
221.007	25.14
221.224	22
221.441	31.23
221.658	37.12
221.875	42.25
222.092	46.71
222.309	42.24
222.526	41.58
222.743	35.38
222.96	38.26
223.177	34.98
223.394	37.7
223.611	43.58
223.828	38.83
224.045	38.98
224.262	34.35
224.479	28.38
224.696	30.94
224.913	20.79
225.13	23.25
225.347	25.81
225.564	23.55
225.781	20
225.997	17.2
226.214	12.5
226.431	10.43
226.648	9.05
226.865	6.76
227.082	5.38
227.298	6.5
227.515	4.94
227.732	3.9
227.949	5.01
228.165	4.86
228.382	3.59
228.599	4.81
228.816	5.18
229.032	5.27
229.249	5.83
229.466	6.49
229.682	6.26
229.899	5.43
230.116	3.96
230.332	2.35
230.549	2.24
230.765	3.02
230.982	1.87
231.199	0.3
231.415	0.09
231.632	-0.79
231.848	-2.45
232.065	-4.03
232.281	-2.38
232.498	-0.08
232.714	3.07
232.931	2.71
233.147	3.32
233.364	4.31
233.58	5.58
233.797	4
234.013	4.27
234.23	6.76
234.446	7.36
234.662	7.83
234.879	7.02
235.095	5.65
235.312	3.63
235.528	2.7
235.744	2.52
235.961	3.16
236.177	5.85
236.393	6.54
236.61	5.62
236.826	5.39
237.042	5.56
237.258	8.16
237.475	8.33
237.691	9.79
237.907	9.48
238.123	6.57
238.339	2.86
238.556	2.06
238.772	2.48
238.988	2.32
239.204	4.65
239.42	6.1
239.636	3.73
239.853	2.78
240.069	2.19
240.285	2.51
240.501	3.31
240.717	5.61
240.933	4.36
241.149	3.99
241.365	3.56
241.581	2.85
241.797	3.2
242.013	3.18
242.229	3.74
242.445	3.92
242.661	3.53
242.877	3.84
243.093	3.33
243.309	4.07
243.525	4.02
243.741	4.01
243.957	4.43
244.173	2.67
244.388	3.09
244.604	3.2
244.82	3.76
245.036	4.03
245.252	4.75
245.468	5.16
245.683	5.33
245.899	4.83
246.115	4.64
246.331	4.61
246.547	5.1
246.762	4.9
246.978	4.74
247.194	4.42
247.409	4.53
247.625	4.44
247.841	4.15
248.057	3.99
248.272	4.05
248.488	4.08
248.703	4.05
248.919	4.33
249.135	4.47
249.35	4.31
249.566	5.02
249.782	4.98
249.997	4.28
250.213	4.66
250.428	4.69
250.644	4.34
250.859	4.7
251.075	4.58
251.29	3.94
251.506	4.24
251.721	4.56
251.937	3.84
252.152	3.87
252.368	3.64
252.583	3.64
252.798	3.53
253.014	4
253.229	4.25
253.445	4.34
253.66	4.39
253.875	4.13
254.091	3.48
254.306	4.06
254.521	4.23
254.737	5.46
254.952	4.9
255.167	4.58
255.383	5.52
255.598	5.66
255.813	5.39
256.028	4.7
256.244	4.26
256.459	5.22
256.674	5.28
256.889	5.56
257.104	5.26
257.32	5.44
257.535	5.11
257.75	4.83
257.965	4.72
258.18	4.19
258.395	4.4
258.61	4.45
258.826	3.83
259.041	3.61
259.256	3.67
259.471	3.55
259.686	3.11
259.901	3.36
260.116	3.31
260.331	3.18
260.546	3.51
260.761	3.33
260.976	3.19
261.191	3.56
261.406	3.51
261.621	3.09
261.836	2.59
262.05	2.63
262.265	2.3
262.48	2.23
262.695	1.77
262.91	0.87
263.125	0.54
263.34	0.94
263.555	1.54
263.769	0.9
263.984	0.82
264.199	1.46
264.414	1.59
264.629	1.42
264.843	1.63
265.058	2.23
265.273	2.73
265.488	3.31
265.702	2.43
265.917	0.83
266.132	1.77
266.346	1.81
266.561	2.29
266.776	3.12
266.99	3.57
267.205	3.19
267.42	2.95
267.634	2.53
267.849	2.21
268.063	3
268.278	3.78
268.492	3.02
268.707	3.59
268.922	3.34
269.136	2.89
269.351	2.58
269.565	2.8
269.78	3.05
269.994	3.16
270.209	2.96
270.423	2.73
270.637	2.49
270.852	3.16
271.066	3.22
271.281	3.11
271.495	3.17
271.709	2.99
271.924	3.12
272.138	3.01
272.353	3.3
272.567	3.53
272.781	3.45
272.996	3.25
273.21	3.1
273.424	2.65
273.638	2.83
273.853	3.08
274.067	3.06
274.281	2.59
274.495	2.38
274.71	2.79
274.924	3.06
275.138	3.11
275.352	3.65
275.566	3.08
275.781	2.97
275.995	2.57
276.209	2.07
276.423	2.18
276.637	2.41
276.851	2.64
277.065	2.39
277.279	1.87
277.493	1.91
277.707	1.35
277.921	1.71
278.135	1.9
278.349	1.94
278.563	2.35
278.777	2.32
278.991	2.09
279.205	2.23
279.419	1.64
279.633	2.16
279.847	1.39
280.061	1.47
280.275	1.6
280.489	1.81
280.703	1.88
280.917	1.83
281.131	1.96
281.344	2.59
281.558	2.5
281.772	2.94
281.986	2.81
282.2	3.01
282.414	3.35
282.627	3.6
282.841	3.34
283.055	3.24
283.269	3.27
283.482	3.6
283.696	3.03
283.91	2.95
284.123	2.48
284.337	2.3
284.551	2.73
284.764	2.5
284.978	2.54
285.192	2.84
285.405	2.97
285.619	2.45
285.833	2.35
286.046	2.37
286.26	2.5
286.473	2.83
286.687	2.97
286.9	3
287.114	3.01
287.327	2.97
287.541	2.7
287.754	2.45
287.968	3.06
288.181	3.06
288.395	3.18
288.608	2.63
288.822	2.35
289.035	2.53
289.248	2.15
289.462	2.2
289.675	2.23
289.889	2.46
290.102	2.66
290.315	2.46
290.529	2.32
290.742	2.66
290.955	3.33
291.169	3.66
291.382	3.56
291.595	3.69
291.808	3.6
292.022	3.28
292.235	2.98
292.448	3.52
292.661	3.46
292.875	3.69
293.088	3.4
293.301	3.27
293.514	3.09
293.727	2.95
293.94	3.25
294.153	3.18
294.367	3.03
294.58	3.12
294.793	2.67
295.006	2.72
295.219	2.48
295.432	2.87
295.645	2.89
295.858	2.91
296.071	2.81
296.284	2.87
296.497	3.07
296.71	3.23
296.923	3.5
297.136	3.36
297.349	3.54
297.562	3.64
297.775	3.45
297.988	3.58
298.201	3.45
298.414	3.86
298.626	3.68
298.839	3.63
299.052	3.86
299.265	3.63
299.478	3.83
299.691	3.51
299.903	3.2
300.116	2.91
300.329	3.04
300.542	3.14
300.755	2.88
300.967	3.2
301.18	3.52
301.393	3.22
301.605	3.23
301.818	3.08
302.031	3.1
302.243	3.57
302.456	4.07
302.669	3.91
302.881	4.04
303.094	4.09
303.307	3.59
303.519	3.47
303.732	3.92
303.944	3.92
304.157	4.12
304.37	4.28
304.582	4.15
304.795	3.73
305.007	3.43
305.22	3.12
305.432	2.9
305.645	3.09
305.857	3.19
306.069	3.03
306.282	2.88
306.494	3.15
306.707	3.24
306.919	3.24
307.132	3.13
307.344	3.15
307.556	3.62
307.769	3.97
307.981	3.93
308.193	3.53
308.406	3.51
308.618	3.83
308.83	3.76
309.043	4.02
309.255	4.08
309.467	4.08
309.679	4.12
309.892	3.98
310.104	3.77
310.316	4.04
310.528	4.27
310.74	4.03
310.953	3.82
311.165	3.85
311.377	3.59
311.589	3.56
311.801	3.98
312.013	4.06
312.225	4.33
312.437	4.31
312.649	4.15
312.862	4.32
313.074	4.55
313.286	4.79
313.498	4.76
313.71	5.1
313.922	5.51
314.134	4.94
314.346	4.78
314.558	4.67
314.77	5.23
314.982	5.13
315.193	4.83
315.405	5.1
315.617	5.1
315.829	4.63
316.041	4.19
316.253	4.16
316.465	4.83
316.677	5.23
316.888	5.06
317.1	4.74
317.312	4.86
317.524	4.75
317.736	4.69
317.947	4.71
318.159	5.45
318.371	6
318.583	5.64
318.794	5.55
319.006	5.54
319.218	5.97
319.43	5.94
319.641	6.26
319.853	6.39
320.064	6.18
320.276	6.31
320.488	6.28
320.699	5.86
320.911	6.34
321.123	6.19
321.334	6.07
321.546	5.71
321.757	5.96
321.969	5.82
322.18	6.12
322.392	6.33
322.603	6.48
322.815	6.38
323.026	6.38
323.238	6.1
323.449	6.03
323.661	6.19
323.872	6.09
324.083	6.33
324.295	6.12
324.506	6.11
324.718	6.17
324.929	6.18
325.14	6.21
325.352	6.23
325.563	6.71
325.774	6.76
325.986	7.13
326.197	7.5
326.408	7.16
326.62	7.46
326.831	7.53
327.042	7.96
327.253	8.16
327.464	8.31
327.676	8.69
327.887	8.55
328.098	8.56
328.309	8.28
328.52	7.99
328.732	7.97
328.943	7.98
329.154	8.36
329.365	7.86
329.576	7.42
329.787	7.63
329.998	8.02
330.209	7.86
330.42	8.05
330.631	8.05
330.842	8.47
331.053	8.69
331.264	9.13
331.475	8.79
331.686	9.24
331.897	9.42
332.108	9.36
332.319	8.84
332.53	8.64
332.741	8.75
332.952	9.45
333.163	9.68
333.374	9.7
333.585	9.38
333.795	9.24
334.006	9.14
334.217	9.4
334.428	9.53
334.639	9.61
334.849	9.59
335.06	9.7
335.271	8.93
335.482	8.64
335.692	8.98
335.903	9.07
336.114	9.31
336.325	9.36
336.535	9.17
336.746	8.95
336.957	8.92
337.167	9.36
337.378	9.42
337.589	9.56
337.799	9.48
338.01	9.16
338.22	9.57
338.431	9.42
338.642	9.21
338.852	9.5
339.063	9.68
339.273	9.62
339.484	9.29
339.694	9.23
339.905	9.07
340.115	9.09
340.326	9.21
340.536	8.81
340.746	8.86
340.957	8.74
341.167	8.35
341.378	7.95
341.588	7.85
341.799	8.08
342.009	7.98
342.219	8.17
342.43	8.03
342.64	7.67
342.85	7.85
343.061	7.92
343.271	8.05
343.481	8.41
343.691	8.78
343.902	9.13
344.112	9.08
344.322	8.83
344.532	8.53
344.743	8.63
344.953	8.66
345.163	8.64
345.373	8.51
345.583	8.59
345.793	8.22
346.004	7.92
346.214	7.74
346.424	7.7
346.634	7.97
346.844	8.07
347.054	7.95
347.264	8.13
347.474	7.79
347.684	7.99
347.894	7.88
348.104	8.09
348.314	8.07
348.524	8.25
348.734	8.01
348.944	7.72
349.154	7.99
349.364	7.89
349.574	7.73
349.784	7.78
349.994	7.4
350.204	7.16
350.413	6.98
350.623	7.17
350.833	6.97
351.043	7
351.253	7.21
351.463	7.14
351.672	7.59
351.882	7.99
352.092	8.09
352.302	8.32
352.511	8.36
352.721	8.36
352.931	8.08
353.141	8.03
353.35	8.1
353.56	7.92
353.77	7.77
353.979	7.65
354.189	7.45
354.399	7.07
354.608	7.28
354.818	7.56
355.027	7.57
355.237	7.71
355.447	7.86
355.656	7.87
355.866	7.93
356.075	8.46
356.285	8.28
356.494	7.94
356.704	8.16
356.913	7.87
357.123	7.84
357.332	7.89
357.542	8.02
357.751	8.19
357.96	8.22
358.17	8.26
358.379	7.9
358.589	8.13
358.798	8.24
359.007	8.35
359.217	8.23
359.426	7.98
359.635	8.02
359.845	7.81
360.054	7.53
360.263	7.56
360.472	7.58
360.682	7.7
360.891	7.42
361.1	7.46
361.309	7.37
361.519	7.6
361.728	7.53
361.937	7.56
362.146	7.54
362.355	7.7
362.564	7.66
362.774	7.64
362.983	7.54
363.192	7.61
363.401	7.85
363.61	7.87
363.819	8.03
364.028	8.28
364.237	8.21
364.446	8.25
364.655	7.94
364.864	8.09
365.073	8.17
365.282	8.04
365.491	8.19
365.7	8.08
365.909	8.09
366.118	7.92
366.327	7.81
366.536	7.79
366.745	7.8
366.954	7.9
367.162	7.5
367.371	7.38
367.58	7.52
367.789	7.46
367.998	7.59
368.207	7.74
368.415	7.48
368.624	7.6
368.833	7.76
369.042	7.78
369.25	7.72
369.459	7.93
369.668	7.99
369.877	7.69
370.085	7.55
370.294	7.28
370.503	7.02
370.711	7.16
370.92	7.18
371.129	7.16
371.337	6.93
371.546	6.93
371.754	6.88
371.963	7
372.171	6.87
372.38	6.9
372.589	6.89
372.797	7.13
373.006	7.25
373.214	7.17
373.423	6.91
373.631	7.08
373.84	7.16
374.048	7.15
374.256	6.86
374.465	7.25
374.673	7.31
374.882	7.24
375.09	7.09
375.298	7.12
375.507	6.86
375.715	6.92
375.923	7.02
376.132	7.07
376.34	6.9
376.548	6.91
376.757	6.75
376.965	6.76
377.173	6.78
377.381	6.92
377.59	6.71
377.798	6.92
378.006	6.98
378.214	6.89
378.423	6.55
378.631	6.53
378.839	6.49
379.047	6.62
379.255	6.58
379.463	6.53
379.671	6.56
379.879	6.51
380.088	6.53
380.296	6.63
380.504	6.65
380.712	6.83
380.92	6.98
381.128	6.96
381.336	6.64
381.544	6.24
381.752	6.14
381.96	5.78
382.168	5.82
382.376	5.64
382.584	5.38
382.791	5.47
382.999	5.66
383.207	5.62
383.415	5.54
383.623	5.67
383.831	6.08
384.039	6.32
384.247	6.58
384.454	6.61
384.662	6.57
384.87	6.41
385.078	6.37
385.285	6.14
385.493	6.42
385.701	6.43
385.909	6.31
386.116	6.27
386.324	6.32
386.532	6.2
386.739	6.14
386.947	6.25
387.155	6.32
387.362	6.16
387.57	6.12
387.778	6.19
387.985	6.13
388.193	6.2
388.4	6.12
388.608	5.87
388.816	5.96
389.023	5.76
389.231	5.52
389.438	5.44
389.646	5.55
389.853	5.56
390.061	5.12
390.268	5.17
390.475	5.23
390.683	5.39
390.89	5.52
391.098	5.27
391.305	5.27
391.512	5.47
391.72	5.53
391.927	5.44
392.135	5.4
392.342	5.39
392.549	5.37
392.756	5.27
392.964	4.94
393.171	4.88
393.378	5.02
393.586	4.95
393.793	4.77
394	4.79
394.207	4.73
394.414	4.76
394.622	4.74
394.829	4.73
395.036	4.67
395.243	4.61
395.45	4.63
395.657	4.46
395.864	4.71
396.072	4.99
396.279	5.04
396.486	5.14
396.693	5.22
396.9	5.38
397.107	5.06
397.314	5.12
397.521	5.28
397.728	5.24
397.935	5.2
398.142	5.21
398.349	4.85
398.556	4.77
398.763	4.72
398.97	4.83
399.177	4.81
399.383	5.07
399.59	4.98
399.797	4.95
400.004	4.98
400.211	5.01
400.418	4.75
400.625	4.92
400.831	4.93
401.038	4.87
401.245	4.7
401.452	4.52
401.658	4.58
401.865	4.7
402.072	4.73
402.279	4.64
402.485	4.59
402.692	4.78
402.899	4.57
403.105	4.55
403.312	4.63
403.519	4.55
403.725	4.49
403.932	4.46
404.138	4.38
404.345	4.3
404.552	4.37
404.758	4.43
404.965	4.28
405.171	4.29
405.378	4.25
405.584	4.21
405.791	4.31
405.997	4.48
406.204	4.41
406.41	4.48
406.617	4.67
406.823	4.63
407.029	4.6
407.236	4.59
407.442	4.73
407.649	4.71
407.855	4.76
408.061	4.72
408.268	4.5
408.474	4.5
408.68	4.47
408.887	4.52
409.093	4.45
409.299	4.37
409.505	4.35
409.712	4.38
409.918	4.54
410.124	4.41
410.33	4.37
410.537	4.62
410.743	4.7
410.949	4.8
411.155	4.63
411.361	4.54
411.567	4.65
411.773	4.66
411.98	4.64
412.186	4.54
412.392	4.65
412.598	4.62
412.804	4.71
413.01	4.62
413.216	4.45
413.422	4.42
413.628	4.39
413.834	4.24
414.04	4.28
414.246	4.35
414.452	4.29
414.658	4.26
414.864	4.42
415.07	4.15
415.275	4.23
415.481	4.26
415.687	4.18
415.893	4.2
416.099	4.25
416.305	4.23
416.511	4.12
416.716	4.14
416.922	4.06
417.128	3.94
417.334	3.91
417.539	3.88
417.745	3.86
417.951	3.94
418.157	3.87
418.362	3.91
418.568	3.88
418.774	3.93
418.979	3.92
419.185	3.9
419.391	3.87
419.596	3.93
419.802	3.85
420.008	3.77
420.213	3.81
420.419	3.86
420.624	3.78
420.83	3.77
421.035	3.69
421.241	3.67
421.446	3.62
421.652	3.56
421.857	3.52
422.063	3.5
422.268	3.54
422.474	3.5
422.679	3.56
422.885	3.62
423.09	3.62
423.295	3.62
423.501	3.54
423.706	3.58
423.911	3.59
424.117	3.63
424.322	3.68
424.527	3.74
424.733	3.75
424.938	3.66
425.143	3.65
425.349	3.59
425.554	3.56
425.759	3.74
425.964	3.77
426.169	3.81
426.375	3.78
426.58	3.75
426.785	3.65
426.99	3.57
427.195	3.61
427.4	3.66
427.605	3.76
427.811	3.88
428.016	3.72
428.221	3.69
428.426	3.71
428.631	3.69
428.836	3.84
429.041	3.93
429.246	4.06
429.451	4.1
429.656	3.92
429.861	3.84
430.066	3.89
430.271	3.92
430.476	3.85
430.681	3.86
430.886	3.93
431.09	3.87
431.295	3.84
431.5	3.79
431.705	3.74
431.91	3.84
432.115	3.84
432.32	3.67
432.524	3.66
432.729	3.73
432.934	3.8
433.139	3.77
433.343	3.77
433.548	3.79
433.753	3.71
433.958	3.73
434.162	3.82
434.367	3.84
434.572	3.92
434.776	3.96
434.981	3.94
435.186	3.81
435.39	3.71
435.595	3.7
435.799	3.72
436.004	3.71
436.209	3.68
436.413	3.66
436.618	3.66
436.822	3.69
437.027	3.67
437.231	3.68
437.436	3.65
437.64	3.79
437.845	3.73
438.049	3.62
438.253	3.65
438.458	3.61
438.662	3.48
438.867	3.57
439.071	3.52
439.275	3.46
439.48	3.47
439.684	3.59
439.888	3.47
440.093	3.42
440.297	3.46
440.501	3.55
440.706	3.59
440.91	3.6
441.114	3.62
441.318	3.63
441.523	3.74
441.727	3.64
441.931	3.57
442.135	3.69
442.339	3.83
442.543	3.83
442.748	3.77
442.952	3.73
443.156	3.69
443.36	3.56
443.564	3.54
443.768	3.49
443.972	3.5
444.176	3.52
444.38	3.42
444.584	3.32
444.788	3.27
444.992	3.3
445.196	3.33
445.4	3.4
445.604	3.46
445.808	3.38
446.012	3.32
446.216	3.34
446.42	3.29
446.624	3.35
446.828	3.43
447.032	3.48
447.235	3.42
447.439	3.35
447.643	3.32
447.847	3.33
448.051	3.43
448.254	3.43
448.458	3.5
448.662	3.47
448.866	3.43
449.069	3.33
449.273	3.29
449.477	3.36
449.681	3.44
449.884	3.54
450.088	3.5
450.292	3.45
450.495	3.44
450.699	3.44
450.902	3.47
451.106	3.41
451.31	3.43
451.513	3.53
451.717	3.38
451.92	3.47
452.124	3.4
452.327	3.4
452.531	3.5
452.734	3.54
452.938	3.53
453.141	3.51
453.345	3.6
453.548	3.71
453.752	3.69
453.955	3.88
454.158	3.76
454.362	3.81
454.565	3.82
454.769	3.82
454.972	3.81
455.175	3.75
455.379	3.8
455.582	3.84
455.785	3.72
455.988	3.62
456.192	3.42
456.395	3.48
456.598	3.46
456.801	3.29
457.005	3.3
457.208	3.24
457.411	3.24
457.614	3.25
457.817	3.23
458.021	3.27
458.224	3.29
458.427	3.31
458.63	3.28
458.833	3.18
459.036	3.27
459.239	3.24
459.442	3.25
459.645	3.29
459.848	3.31
460.051	3.27
460.254	3.27
460.457	3.25
460.66	3.31
460.863	3.29
461.066	3.36
461.269	3.35
461.472	3.37
461.675	3.38
461.878	3.4
462.081	3.43
462.284	3.39
462.486	3.42
462.689	3.43
462.892	3.39
463.095	3.42
463.298	3.45
463.5	3.5
463.703	3.37
463.906	3.41
464.109	3.4
464.311	3.46
464.514	3.59
464.717	3.51
464.92	3.56
465.122	3.67
465.325	3.7
465.528	3.6
465.73	3.59
465.933	3.58
466.135	3.66
466.338	3.66
466.541	3.61
466.743	3.58
466.946	3.65
467.148	3.65
467.351	3.59
467.553	3.57
467.756	3.69
467.958	3.75
468.161	3.91
468.363	3.86
468.566	3.86
468.768	3.87
468.971	3.88
469.173	3.92
469.375	3.83
469.578	3.78
469.78	3.74
469.983	3.61
470.185	3.64
470.387	3.52
470.59	3.51
