Data from 2938754__Reflection_03.txt Node
Date: Sat Mar 14 14:22:19 EDT 2015
User: robert
Spectrometer: USB4E03002
Autoset integration time: false
Trigger mode: 4
Integration Time (sec): 1.000000E-1
Scans to average: 10
Electric dark correction enabled: false
Nonlinearity correction enabled: false
Boxcar width: 5
Stray light correction enabled: false
XAxis mode: Wavelengths
Stop averaging: false
Number of Pixels in Spectrum: 3648
>>>>>Begin Spectral Data<<<<<
177.575	118.36
177.794	142.28
178.014	110.77
178.233	123.87
178.452	143.04
178.672	183.69
178.891	349.38
179.11	450.82
179.33	839.71
179.549	254.65
179.768	271.62
179.987	240.35
180.207	395.6
180.426	3223.08
180.645	1777.55
180.864	1777.78
181.084	460.71
181.303	306.96
181.522	821.79
181.741	841.27
181.96	-304.96
182.179	-391.88
182.398	-297.3
182.618	-428.66
182.837	1261.9
183.056	472.77
183.275	745.28
183.494	1937.5
183.713	597.54
183.932	352.22
184.151	420.1
184.37	227.57
184.589	174.03
184.808	155.99
185.027	98.65
185.246	84.13
185.465	102.66
185.684	125.11
185.903	235.74
186.122	1940
186.341	-2094.44
186.56	-511.57
186.779	-448.28
186.998	-555.91
187.216	-5387.5
187.435	-1119.59
187.654	-7725
187.873	1703.85
188.092	-581.86
188.311	1165.22
188.53	554.05
188.748	751.9
188.967	865.49
189.186	1083.5
189.405	661.54
189.623	830.65
189.842	577.19
190.061	3417.39
190.28	-3894.12
190.498	303.17
190.717	676.4
190.936	-19100
191.154	289.55
191.373	205.5
191.592	191.3
191.81	150.13
192.029	138.27
192.248	121.23
192.466	135.36
192.685	134.81
192.904	108.88
193.122	109.2
193.341	105.74
193.559	107.14
193.778	113.83
193.996	121.06
194.215	146.01
194.433	171.94
194.652	182.98
194.87	176.02
195.089	180.38
195.307	158.59
195.526	139.8
195.744	151.52
195.963	156.59
196.181	152.58
196.399	163.27
196.618	183.39
196.836	169.72
197.055	168.24
197.273	206.27
197.491	270.81
197.71	670.78
197.928	533.47
198.146	358.65
198.365	412.18
198.583	666.67
198.801	915.22
199.019	648.77
199.238	4243.48
199.456	1188.42
199.674	1433.8
199.892	529.17
200.111	950.86
200.329	-746.15
200.547	-1324.19
200.765	-396.96
200.983	-941.94
201.202	-700.94
201.42	-787.96
201.638	-10012.5
201.856	2571.43
202.074	404.37
202.292	505.79
202.51	613.98
202.728	331.3
202.946	231.88
203.165	128.27
203.383	138.72
203.601	118.18
203.819	66.21
204.037	82.8
204.255	123.66
204.473	141.8
204.691	138.19
204.909	132.09
205.127	169.75
205.345	285.15
205.562	210.15
205.78	196.21
205.998	406.25
206.216	726.89
206.434	1000
206.652	957.53
206.87	3480
207.088	607.84
207.306	271.09
207.523	196.63
207.741	206.56
207.959	196.25
208.177	254.01
208.395	248.4
208.612	209.3
208.83	234.11
209.048	246.18
209.266	261.34
209.483	212.89
209.701	175.53
209.919	216.59
210.136	151.16
210.354	138.96
210.572	120.38
210.79	101.73
211.007	100.81
211.225	86.72
211.442	102.74
211.66	110.57
211.878	123.14
212.095	228.72
212.313	209.88
212.53	310.57
212.748	402.33
212.966	614.12
213.183	661.27
213.401	1242.11
213.618	371.43
213.836	258.44
214.053	213.6
214.271	247.89
214.488	76.6
214.705	92.78
214.923	79.23
215.14	80.45
215.358	76.91
215.575	78.3
215.793	66.2
216.01	62.98
216.227	59.49
216.445	66.48
216.662	42.32
216.879	54.72
217.097	58.5
217.314	64.99
217.531	56.24
217.749	53.75
217.966	36.14
218.183	51.88
218.4	54.17
218.618	75.23
218.835	68.12
219.052	86.99
219.269	87.18
219.487	81.68
219.704	71.35
219.921	73.42
220.138	66.41
220.355	56.02
220.572	43.72
220.79	46.09
221.007	43.91
221.224	47.24
221.441	28.6
221.658	13.39
221.875	14.08
222.092	16.85
222.309	23.12
222.526	16.3
222.743	25.55
222.96	28.05
223.177	35.52
223.394	29.94
223.611	31.14
223.828	43.38
224.045	50.74
224.262	46.66
224.479	37.62
224.696	28.7
224.913	35.72
225.13	35.93
225.347	37.23
225.564	31.96
225.781	28.46
225.997	26.19
226.214	23.29
226.431	16.35
226.648	13.86
226.865	12.66
227.082	16.05
227.298	12.73
227.515	11.42
227.732	8.73
227.949	10.88
228.165	10.2
228.382	10.69
228.599	8.77
228.816	9.58
229.032	8.22
229.249	8.59
229.466	7.65
229.682	7.24
229.899	5.52
230.116	6.25
230.332	4.39
230.549	4.5
230.765	0.9
230.982	1.51
231.199	1.46
231.415	1.65
231.632	3.26
231.848	2.22
232.065	2.87
232.281	4.57
232.498	4.58
232.714	6.07
232.931	6.87
233.147	9.33
233.364	7.85
233.58	8.35
233.797	11.35
234.013	8.25
234.23	8.27
234.446	8.12
234.662	7.22
234.879	7.52
235.095	7.28
235.312	7.38
235.528	9.23
235.744	10.72
235.961	9.75
236.177	7.64
236.393	9.58
236.61	10.21
236.826	11.1
237.042	11.28
237.258	11.11
237.475	11.17
237.691	10.51
237.907	8.64
238.123	9.25
238.339	7.26
238.556	6.31
238.772	4.16
238.988	3.95
239.204	3.19
239.42	4.93
239.636	2.22
239.853	3.48
240.069	3.64
240.285	3.91
240.501	2.72
240.717	2.91
240.933	3.25
241.149	3.18
241.365	3.09
241.581	2.66
241.797	2.16
242.013	2.6
242.229	1.28
242.445	1.43
242.661	1.36
242.877	1.57
243.093	2.01
243.309	2.44
243.525	3.71
243.741	4.23
243.957	4.96
244.173	4.79
244.388	5.24
244.604	6.52
244.82	5.71
245.036	6.49
245.252	6.82
245.468	6.58
245.683	5.84
245.899	5.38
246.115	4.7
246.331	4.94
246.547	5.15
246.762	5.26
246.978	4.81
247.194	5.36
247.409	5.04
247.625	5
247.841	5.25
248.057	5.38
248.272	5.02
248.488	5.68
248.703	5.24
248.919	5.17
249.135	5.06
249.35	5.24
249.566	4.68
249.782	4.81
249.997	4.68
250.213	4.48
250.428	4.89
250.644	4.76
250.859	3.33
251.075	3.62
251.29	3.26
251.506	4.1
251.721	4.6
251.937	4.71
252.152	4.42
252.368	4.53
252.583	4.25
252.798	3.92
253.014	3.8
253.229	4.28
253.445	4.05
253.66	4.13
253.875	2.61
254.091	2.36
254.306	2.74
254.521	3.27
254.737	3.53
254.952	3
255.167	3.4
255.383	3.88
255.598	3.75
255.813	3.95
256.028	5.34
256.244	6.81
256.459	6.91
256.674	6.3
256.889	5.7
257.104	4.31
257.32	5.53
257.535	5.26
257.75	4.86
257.965	4.76
258.18	4.44
258.395	4.25
258.61	3.99
258.826	4.02
259.041	4.01
259.256	4.07
259.471	4.36
259.686	4.06
259.901	3.94
260.116	4.35
260.331	4.62
260.546	4.53
260.761	4.35
260.976	4.2
261.191	3.91
261.406	4.12
261.621	4.2
261.836	4.2
262.05	3.96
262.265	4.29
262.48	3.49
262.695	2.91
262.91	3.7
263.125	3.9
263.34	3.96
263.555	3.66
263.769	3.2
263.984	3.06
264.199	2.83
264.414	3.09
264.629	3.03
264.843	4.06
265.058	4.42
265.273	3.84
265.488	3.7
265.702	3.97
265.917	4.23
266.132	4.48
266.346	4.17
266.561	4.27
266.776	4.26
266.99	4.29
267.205	3.78
267.42	3.55
267.634	3.7
267.849	3.57
268.063	3.71
268.278	3.96
268.492	4.18
268.707	4.38
268.922	4.37
269.136	4.14
269.351	4.09
269.565	4.28
269.78	4.35
269.994	4.37
270.209	4.13
270.423	3.9
270.637	3.99
270.852	3.6
271.066	3.58
271.281	3.49
271.495	3.3
271.709	2.91
271.924	2.58
272.138	2.42
272.353	2.36
272.567	2.72
272.781	2.63
272.996	2.4
273.21	2.81
273.424	2.61
273.638	2.9
273.853	2.77
274.067	3.33
274.281	3.7
274.495	3.52
274.71	3.42
274.924	2.97
275.138	3.12
275.352	2.91
275.566	1.95
275.781	2.58
275.995	2.48
276.209	3.54
276.423	3.44
276.637	3.12
276.851	3.21
277.065	3.94
277.279	3.98
277.493	3.97
277.707	5.03
277.921	5.47
278.135	5.06
278.349	4.78
278.563	4.2
278.777	3.88
278.991	3.85
279.205	4.27
279.419	3.88
279.633	4.16
279.847	4.11
280.061	3.35
280.275	3.86
280.489	3.58
280.703	3.87
280.917	3.42
281.131	3.34
281.344	3.82
281.558	3.11
281.772	3.43
281.986	3.29
282.2	3.34
282.414	3.07
282.627	2.66
282.841	2.59
283.055	2.42
283.269	2.77
283.482	2.95
283.696	2.72
283.91	3.05
284.123	2.49
284.337	2.79
284.551	2.74
284.764	2.81
284.978	2.8
285.192	3.26
285.405	3.57
285.619	3.37
285.833	3.42
286.046	3.08
286.26	3.13
286.473	3.53
286.687	3.45
286.9	3.28
287.114	3.4
287.327	3.7
287.541	3.52
287.754	3.39
287.968	3.41
288.181	3.32
288.395	3.54
288.608	3.41
288.822	2.57
289.035	2.2
289.248	2.22
289.462	2.32
289.675	1.75
289.889	1.97
290.102	1.69
290.315	1.78
290.529	1.48
290.742	1.78
290.955	1.99
291.169	2.61
291.382	2.95
291.595	2.81
291.808	2.96
292.022	3.55
292.235	3.75
292.448	4.3
292.661	4.38
292.875	4.57
293.088	4.33
293.301	4.32
293.514	3.97
293.727	3.78
293.94	4.05
294.153	4.15
294.367	3.81
294.58	3.37
294.793	3.38
295.006	3.31
295.219	3.31
295.432	3.17
295.645	3.22
295.858	3.32
296.071	3.11
296.284	3.32
296.497	3.22
296.71	3.28
296.923	3.34
297.136	3.01
297.349	3.24
297.562	3.36
297.775	3.46
297.988	3.59
298.201	3.61
298.414	3.52
298.626	3.14
298.839	3.07
299.052	3.04
299.265	3.09
299.478	3.31
299.691	3.24
299.903	3
300.116	3
300.329	2.79
300.542	2.69
300.755	2.9
300.967	3.32
301.18	3.14
301.393	2.96
301.605	2.82
301.818	2.71
302.031	2.76
302.243	3.09
302.456	3.07
302.669	2.81
302.881	3.2
303.094	3.2
303.307	2.69
303.519	2.42
303.732	2.52
303.944	2.33
304.157	2.51
304.37	2.37
304.582	2.43
304.795	2.29
305.007	2.68
305.22	2.51
305.432	2.39
305.645	3.08
305.857	3.33
306.069	3.53
306.282	3.46
306.494	3.33
306.707	3.62
306.919	3.26
307.132	3.25
307.344	3.29
307.556	3.01
307.769	3.16
307.981	3.07
308.193	2.76
308.406	2.66
308.618	3.02
308.83	3.01
309.043	2.91
309.255	2.94
309.467	3.42
309.679	3.32
309.892	3.28
310.104	3.25
310.316	3.31
310.528	3.62
310.74	3.61
310.953	3.55
311.165	3.56
311.377	3.3
311.589	3.39
311.801	3.2
312.013	3.38
312.225	3.45
312.437	3.54
312.649	3.52
312.862	3.86
313.074	3.97
313.286	4.49
313.498	4.78
313.71	5.02
313.922	5.32
314.134	5.3
314.346	5.49
314.558	5.48
314.77	6.19
314.982	6.19
315.193	5.83
315.405	6.33
315.617	5.74
315.829	5.23
316.041	4.89
316.253	5.08
316.465	5.26
316.677	4.75
316.888	5.15
317.1	4.39
317.312	4.34
317.524	4.54
317.736	4.47
317.947	4.32
318.159	4.56
318.371	5.16
318.583	4.68
318.794	4.93
319.006	5.08
319.218	5.03
319.43	5.15
319.641	4.96
319.853	4.83
320.064	4.68
320.276	5.29
320.488	5.61
320.699	5.71
320.911	5.5
321.123	5.4
321.334	5.91
321.546	5.99
321.757	6.39
321.969	6.89
322.18	6.74
322.392	6.76
322.603	6.24
322.815	6.02
323.026	6.06
323.238	6.82
323.449	6.57
323.661	6.57
323.872	6.41
324.083	6.24
324.295	6.41
324.506	6.7
324.718	6.63
324.929	7.1
325.14	7.22
325.352	7.12
325.563	7.06
325.774	7.23
325.986	7.1
326.197	7.86
326.408	8.11
326.62	8.43
326.831	8.66
327.042	8.65
327.253	8.82
327.464	9.12
327.676	9.3
327.887	9.37
328.098	9.46
328.309	9.93
328.52	9.41
328.732	9.56
328.943	8.95
329.154	9.14
329.365	9.94
329.576	9.83
329.787	10.43
329.998	10.68
330.209	10.68
330.42	11.15
330.631	11.1
330.842	11.67
331.053	12.25
331.264	12.4
331.475	12.34
331.686	12.11
331.897	12.22
332.108	11.84
332.319	11.94
332.53	12.16
332.741	11.94
332.952	12.1
333.163	12.04
333.374	12.08
333.585	12.16
333.795	12.27
334.006	12.28
334.217	12.25
334.428	12.75
334.639	12.96
334.849	13.14
335.06	13.23
335.271	13.28
335.482	13.36
335.692	13.03
335.903	13.53
336.114	13.45
336.325	13.43
336.535	13.58
336.746	13.32
336.957	12.98
337.167	13.31
337.378	13.32
337.589	13.24
337.799	13.57
338.01	13.7
338.22	13.45
338.431	13.28
338.642	13.38
338.852	13.67
339.063	13.53
339.273	13.63
339.484	13.96
339.694	14.34
339.905	14.51
340.115	13.83
340.326	13.52
340.536	13.45
340.746	13.72
340.957	13.45
341.167	12.87
341.378	12.87
341.588	12.97
341.799	12.51
342.009	12.28
342.219	12.06
342.43	12.11
342.64	12.31
342.85	12.32
343.061	12.44
343.271	12.5
343.481	12.96
343.691	12.8
343.902	12.87
344.112	12.7
344.322	12.87
344.532	12.93
344.743	13.11
344.953	13.1
345.163	13.43
345.373	13.28
345.583	13.35
345.793	13.4
346.004	13.71
346.214	13.7
346.424	13.46
346.634	13.42
346.844	13.52
347.054	13.3
347.264	13.32
347.474	13.15
347.684	13.34
347.894	13.43
348.104	13.48
348.314	13.28
348.524	13.08
348.734	13.1
348.944	13.11
349.154	12.82
349.364	13.01
349.574	12.71
349.784	12.45
349.994	12.39
350.204	12.4
350.413	12.11
350.623	12.08
350.833	12.15
351.043	12.38
351.253	12.39
351.463	12.35
351.672	12.14
351.882	12.15
352.092	12.46
352.302	12.56
352.511	12.51
352.721	12.34
352.931	12.12
353.141	12.26
353.35	12.23
353.56	11.91
353.77	11.8
353.979	11.82
354.189	12.01
354.399	11.92
354.608	11.89
354.818	11.94
355.027	12.24
355.237	12.52
355.447	12.58
355.656	12.46
355.866	12.38
356.075	12.47
356.285	12.31
356.494	12.34
356.704	12.31
356.913	11.96
357.123	11.84
357.332	11.83
357.542	11.79
357.751	11.57
357.96	11.51
358.17	11.64
358.379	11.68
358.589	11.82
358.798	11.73
359.007	11.78
359.217	12.05
359.426	12.18
359.635	12.2
359.845	12.22
360.054	12.17
360.263	12.3
360.472	12.17
360.682	12.27
360.891	12.15
361.1	12.41
361.309	12.39
361.519	12.27
361.728	12.04
361.937	12.01
362.146	12.1
362.355	12.19
362.564	12.04
362.774	12.19
362.983	11.96
363.192	12.24
363.401	12.12
363.61	12.08
363.819	12.19
364.028	12.35
364.237	12.13
364.446	12.11
364.655	12.2
364.864	12.3
365.073	12.43
365.282	12.49
365.491	12.4
365.7	12.34
365.909	12.55
366.118	12.42
366.327	12.36
366.536	12.42
366.745	12.29
366.954	12.15
367.162	12.16
367.371	12.34
367.58	12.4
367.789	12.27
367.998	12.44
368.207	12.13
368.415	12.22
368.624	12.3
368.833	12.58
369.042	12.42
369.25	12.61
369.459	12.58
369.668	12.06
369.877	12.08
370.085	12.32
370.294	12.25
370.503	12.28
370.711	12.21
370.92	12.06
371.129	11.99
371.337	12.14
371.546	11.91
371.754	11.83
371.963	11.85
372.171	11.86
372.38	11.79
372.589	11.44
372.797	11.26
373.006	11.16
373.214	11.46
373.423	11.37
373.631	11.29
373.84	11.3
374.048	10.93
374.256	11.16
374.465	11.47
374.673	11.42
374.882	11.49
375.09	11.78
375.298	11.79
375.507	11.62
375.715	11.52
375.923	11.38
376.132	11.52
376.34	11.98
376.548	12.01
376.757	11.69
376.965	11.73
377.173	11.89
377.381	11.59
377.59	11.74
377.798	11.74
378.006	11.78
378.214	11.81
378.423	11.61
378.631	11.51
378.839	11.17
379.047	11.15
379.255	11.04
379.463	11.13
379.671	11.52
379.879	11.34
380.088	11.4
380.296	11.33
380.504	11.36
380.712	11.57
380.92	11.63
381.128	11.79
381.336	11.8
381.544	11.98
381.752	11.96
381.96	11.58
382.168	11.65
382.376	11.77
382.584	11.72
382.791	12.06
382.999	12
383.207	11.74
383.415	11.7
383.623	11.59
383.831	11.29
384.039	11.14
384.247	11.1
384.454	10.82
384.662	10.63
384.87	10.76
385.078	10.33
385.285	10.23
385.493	10.55
385.701	10.64
385.909	10.69
386.116	10.72
386.324	10.8
386.532	10.99
386.739	11.43
386.947	11.52
387.155	11.47
387.362	11.63
387.57	11.56
387.778	11.49
387.985	11.34
388.193	11.49
388.4	11.84
388.608	11.89
388.816	11.92
389.023	11.93
389.231	11.81
389.438	11.71
389.646	11.65
389.853	11.88
390.061	11.7
390.268	11.88
390.475	12.02
390.683	11.73
390.89	11.72
391.098	11.54
391.305	11.56
391.512	11.57
391.72	11.67
391.927	11.85
392.135	11.9
392.342	11.99
392.549	12.09
392.756	12.11
392.964	12.32
393.171	12.13
393.378	12.33
393.586	12.28
393.793	12.36
394	12.42
394.207	12.31
394.414	12.16
394.622	12.08
394.829	11.92
395.036	11.69
395.243	11.49
395.45	11.6
395.657	11.43
395.864	11.18
396.072	11.06
396.279	11.08
396.486	11.18
396.693	11.07
396.9	11.24
397.107	11.37
397.314	11.34
397.521	11.45
397.728	11.59
397.935	11.63
398.142	11.64
398.349	11.76
398.556	11.57
398.763	11.35
398.97	11.45
399.177	11.42
399.383	11.49
399.59	11.35
399.797	11.15
400.004	11.09
400.211	11.15
400.418	11.25
400.625	11.11
400.831	11.2
401.038	11.39
401.245	11.32
401.452	11.18
401.658	11.11
401.865	10.98
402.072	11.16
402.279	11.11
402.485	11.24
402.692	11.16
402.899	11.3
403.105	11.34
403.312	11.32
403.519	11.48
403.725	11.65
403.932	11.55
404.138	11.94
404.345	11.81
404.552	11.78
404.758	11.72
404.965	11.74
405.171	11.68
405.378	11.67
405.584	11.44
405.791	11.34
405.997	11.29
406.204	11.3
406.41	11.16
406.617	11.32
406.823	11.32
407.029	11.21
407.236	11.21
407.442	11.13
407.649	11.08
407.855	11.21
408.061	11.2
408.268	11.17
408.474	11.18
408.68	11.29
408.887	11.28
409.093	11.28
409.299	11.27
409.505	11.35
409.712	11.2
409.918	11.25
410.124	11.25
410.33	11.52
410.537	11.47
410.743	11.39
410.949	11.27
411.155	11.17
411.361	11.15
411.567	11.04
411.773	11.05
411.98	11.15
412.186	11.1
412.392	11.09
412.598	10.87
412.804	11.04
413.01	11.13
413.216	11.2
413.422	11.33
413.628	11.34
413.834	11.55
414.04	11.32
414.246	11.33
414.452	11.38
414.658	11.45
414.864	11.28
415.07	11.12
415.275	11.21
415.481	11.24
415.687	11.21
415.893	11.22
416.099	11.1
416.305	11.08
416.511	11.15
416.716	11.09
416.922	10.98
417.128	11.12
417.334	11.11
417.539	11
417.745	10.84
417.951	10.83
418.157	10.76
418.362	10.78
418.568	10.86
418.774	10.85
418.979	10.87
419.185	10.94
419.391	10.94
419.596	10.96
419.802	10.96
420.008	11.06
420.213	11.12
420.419	11.16
420.624	11.17
420.83	11.16
421.035	11.14
421.241	11.17
421.446	11.18
421.652	11.21
421.857	11.24
422.063	11.23
422.268	11.21
422.474	11.11
422.679	11.09
422.885	11.13
423.09	11.15
423.295	11.18
423.501	11.17
423.706	11.15
423.911	11.01
424.117	10.98
424.322	10.94
424.527	10.82
424.733	10.81
424.938	10.8
425.143	10.81
425.349	10.75
425.554	10.75
425.759	10.71
425.964	10.73
426.169	10.86
426.375	10.79
426.58	10.84
426.785	10.94
426.99	11
427.195	11.04
427.4	10.93
427.605	11.01
427.811	11.08
428.016	11.1
428.221	11.09
428.426	11.07
428.631	11.2
428.836	11.26
429.041	11.16
429.246	11.2
429.451	11.18
429.656	11.34
429.861	11.41
430.066	11.3
430.271	11.36
430.476	11.21
430.681	11.11
430.886	11.08
431.09	10.98
431.295	11.08
431.5	10.99
431.705	10.93
431.91	10.87
432.115	10.77
432.32	10.73
432.524	10.75
432.729	11.03
432.934	11.17
433.139	11.3
433.343	11.35
433.548	11.43
433.753	11.4
433.958	11.54
434.162	11.63
434.367	11.69
434.572	11.88
434.776	11.96
434.981	11.87
435.186	11.85
435.39	11.71
435.595	11.74
435.799	11.73
436.004	11.92
436.209	11.82
436.413	11.74
436.618	11.76
436.822	11.54
437.027	11.44
437.231	11.33
437.436	11.25
437.64	11.34
437.845	11.33
438.049	11.27
438.253	11.16
438.458	11.09
438.662	10.98
438.867	10.95
439.071	11.06
439.275	11.13
439.48	11.23
439.684	11.25
439.888	11.12
440.093	11.07
440.297	11.05
440.501	11.07
440.706	11.21
440.91	11.28
441.114	11.29
441.318	11.21
441.523	11.13
441.727	11.09
441.931	11.08
442.135	11.19
442.339	11.32
442.543	11.3
442.748	11.3
442.952	11.19
443.156	11.21
443.36	11.09
443.564	11.14
443.768	11.12
443.972	11.16
444.176	11.17
444.38	11.09
444.584	11
444.788	11.12
444.992	11.12
445.196	11.14
445.4	11.21
445.604	11.29
445.808	11.33
446.012	11.35
446.216	11.27
446.42	11.26
446.624	11.33
446.828	11.25
447.032	11.24
447.235	11.23
447.439	11.26
447.643	11.14
447.847	11.22
448.051	11.19
448.254	11.18
448.458	11.27
448.662	11.31
448.866	11.27
449.069	11.33
449.273	11.32
449.477	11.35
449.681	11.31
449.884	11.44
450.088	11.21
450.292	11.35
450.495	11.39
450.699	11.35
450.902	11.31
451.106	11.35
451.31	11.42
451.513	11.45
451.717	11.37
451.92	11.42
452.124	11.42
452.327	11.59
452.531	11.46
452.734	11.38
452.938	11.37
453.141	11.4
453.345	11.34
453.548	11.35
453.752	11.27
453.955	11.42
454.158	11.37
454.362	11.29
454.565	11.27
454.769	11.26
454.972	11.31
455.175	11.33
455.379	11.33
455.582	11.42
455.785	11.37
455.988	11.34
456.192	11.16
456.395	11.2
456.598	11.23
456.801	11.25
457.005	11.25
457.208	11.22
457.411	11.16
457.614	11.08
457.817	10.97
458.021	10.94
458.224	11.02
458.427	11.12
458.63	11.22
458.833	11.19
459.036	11.12
459.239	11.17
459.442	11.17
459.645	11.18
459.848	11.25
460.051	11.25
460.254	11.33
460.457	11.39
