Data from 2938718__Reflection_03.txt Node
Date: Tue Mar 17 18:42:41 EDT 2015
User: robert
Spectrometer: USB4E03002
Autoset integration time: false
Trigger mode: 4
Integration Time (sec): 1.000000E-1
Scans to average: 10
Electric dark correction enabled: false
Nonlinearity correction enabled: false
Boxcar width: 5
Stray light correction enabled: false
XAxis mode: Wavelengths
Stop averaging: false
Number of Pixels in Spectrum: 3648
>>>>>Begin Spectral Data<<<<<
177.575	381.03
177.794	-385.29
178.014	-136.13
178.233	-52.41
178.452	-124.53
178.672	-127.11
178.891	-93.06
179.11	-84.18
179.33	-67.95
179.549	-114.11
179.768	-142.95
179.987	-167.78
180.207	-299.15
180.426	-1480.25
180.645	-1898.44
180.864	-1007.29
181.084	-2414.71
181.303	635.94
181.522	341.52
181.741	185.88
181.96	201.87
182.179	183.67
182.398	226.7
182.618	117.23
182.837	187.64
183.056	76.67
183.275	118.24
183.494	98.15
183.713	104.1
183.932	196.97
184.151	366.67
184.37	470.91
184.589	296.83
184.808	265.94
185.027	1238.1
185.246	375.45
185.465	391.94
185.684	910.59
185.903	306.27
186.122	544.77
186.341	4880
186.56	17000
186.779	886.32
186.998	6315.38
187.216	-1413.04
187.435	-1321.57
187.654	-288.83
187.873	-1120.75
188.092	-2211.54
188.311	-209.36
188.53	-194.67
188.748	-7187.5
188.967	594.07
189.186	391.22
189.405	444.13
189.623	829.41
189.842	594.49
190.061	360.71
190.28	-2615.79
190.498	-4775
190.717	-734.78
190.936	226.53
191.154	177.7
191.373	277.42
191.592	13200
191.81	206.54
192.029	1.06
192.248	55.47
192.466	95.54
192.685	585.71
192.904	-197.67
193.122	-44
193.341	-77.27
193.559	39.05
193.778	53.06
193.996	-1.13
194.215	16.61
194.433	-133.53
194.652	-412.79
194.87	-232.31
195.089	-210.86
195.307	-915.79
195.526	408.05
195.744	408.54
195.963	357.28
196.181	514.01
196.399	-3629.41
196.618	-298.48
196.836	-224.38
197.055	-168.02
197.273	-6742.86
197.491	485.29
197.71	208.04
197.928	323.68
198.146	420
198.365	343.33
198.583	203.26
198.801	173.62
199.019	160.56
199.238	128.99
199.456	156.74
199.674	130.28
199.892	190.6
200.111	-265.63
200.329	62.63
200.547	20
200.765	-61.04
200.983	-117.73
201.202	-491.67
201.42	406.35
201.638	-335.94
201.856	225.66
202.074	156.51
202.292	158.14
202.51	175.57
202.728	182.64
202.946	130.58
203.165	82.56
203.383	104.71
203.601	124.85
203.819	107.78
204.037	114.24
204.255	138.64
204.473	151.62
204.691	152.83
204.909	146.05
205.127	131.47
205.345	145.22
205.562	171.14
205.78	150
205.998	132.09
206.216	130.45
206.434	144.49
206.652	145.48
206.87	157.69
207.088	178.71
207.306	209.05
207.523	514.94
207.741	326.29
207.959	241.74
208.177	487.36
208.395	-617.39
208.612	-144.3
208.83	-253.77
209.048	-21.07
209.266	-325.45
209.483	-539.13
209.701	-404.35
209.919	-554.55
210.136	25.44
210.354	-26.7
210.572	75.63
210.79	-48.15
211.007	162.5
211.225	254.95
211.442	1950
211.66	302.67
211.878	-700
212.095	485.95
212.313	2989.47
212.53	3000
212.748	229.51
212.966	494.17
213.183	372.11
213.401	218.22
213.618	224.85
213.836	148.36
214.053	207.02
214.271	243.34
214.488	22.16
214.705	53.18
214.923	68.15
215.14	82.81
215.358	74.42
215.575	116.31
215.793	107.17
216.01	51.98
216.227	54.23
216.445	64.5
216.662	61.45
216.879	57.78
217.097	33.71
217.314	44.12
217.531	32.62
217.749	31.67
217.966	28.77
218.183	27.67
218.4	31.41
218.618	43.42
218.835	32.88
219.052	29.89
219.269	33.43
219.487	39.16
219.704	38.45
219.921	41.75
220.138	39.77
220.355	37.92
220.572	48.74
220.79	48.83
221.007	42.78
221.224	42.19
221.441	39.15
221.658	34.13
221.875	33.5
222.092	24.42
222.309	24.04
222.526	19.11
222.743	21.92
222.96	15.9
223.177	19.88
223.394	21.6
223.611	27.86
223.828	28.45
224.045	27.26
224.262	18.31
224.479	22.79
224.696	25.32
224.913	26.65
225.13	22.12
225.347	19.58
225.564	17.51
225.781	16.03
225.997	13.13
226.214	11.92
226.431	13.65
226.648	14.15
226.865	12.02
227.082	7.38
227.298	7.32
227.515	7.65
227.732	7.33
227.949	7.43
228.165	6.68
228.382	5.67
228.599	5.54
228.816	4.7
229.032	5.5
229.249	5.27
229.466	5.37
229.682	5
229.899	5.78
230.116	5.16
230.332	4.93
230.549	5.61
230.765	7.24
230.982	7.61
231.199	8.04
231.415	8.41
231.632	8.68
231.848	10.14
232.065	10.26
232.281	8.48
232.498	8.92
232.714	10.33
232.931	10.48
233.147	10.27
233.364	9.22
233.58	10.75
233.797	10.39
234.013	9.61
234.23	8.14
234.446	9.68
234.662	9.69
234.879	10.05
235.095	9.06
235.312	9.02
235.528	8.36
235.744	9.28
235.961	8.46
236.177	8
236.393	8.3
236.61	9.26
236.826	8.17
237.042	7.14
237.258	7.14
237.475	7.09
237.691	6.61
237.907	5.37
238.123	5.67
238.339	5.33
238.556	5.4
238.772	4.08
238.988	4.25
239.204	3.25
239.42	5.08
239.636	4.26
239.853	3.62
240.069	3.5
240.285	4.51
240.501	3.77
240.717	4.16
240.933	3.61
241.149	4.21
241.365	3.77
241.581	4.48
241.797	4.51
242.013	5.25
242.229	5.27
242.445	4.88
242.661	4.71
242.877	4.76
243.093	4.5
243.309	4.4
243.525	4.28
243.741	4.43
243.957	4.55
244.173	4.09
244.388	4.15
244.604	4.31
244.82	5.2
245.036	5.3
245.252	5.49
245.468	5.06
245.683	4.9
245.899	5.22
246.115	4.97
246.331	4.67
246.547	4.46
246.762	3.91
246.978	3.8
247.194	3.36
247.409	3.22
247.625	3.1
247.841	3.02
248.057	3.13
248.272	2.75
248.488	3
248.703	3
248.919	2.93
249.135	3.01
249.35	3.37
249.566	3.49
249.782	3.76
249.997	4.03
250.213	4.18
250.428	4.95
250.644	5.33
250.859	4.61
251.075	4.02
251.29	4.84
251.506	4.96
251.721	4.92
251.937	4.94
252.152	4.69
252.368	4.44
252.583	4.19
252.798	3.06
253.014	3.33
253.229	3.66
253.445	4.3
253.66	3.97
253.875	4.33
254.091	4.39
254.306	4.52
254.521	3.65
254.737	3.65
254.952	3.87
255.167	4.45
255.383	4.07
255.598	3.85
255.813	2.86
256.028	3.14
256.244	2.39
256.459	1.17
256.674	0.7
256.889	1.2
257.104	1.46
257.32	1.91
257.535	2.5
257.75	2.72
257.965	2.77
258.18	3.04
258.395	2.12
258.61	2.64
258.826	2.93
259.041	3.11
259.256	3.11
259.471	2.92
259.686	2.83
259.901	2.67
260.116	2.43
260.331	2.26
260.546	2.42
260.761	2.78
260.976	2.5
261.191	2.18
261.406	2.31
261.621	2.36
261.836	2.61
262.05	2.71
262.265	2.61
262.48	2.67
262.695	2.81
262.91	2.42
263.125	2.15
263.34	2.18
263.555	2.77
263.769	2.3
263.984	1.94
264.199	1.2
264.414	0.7
264.629	1.07
264.843	1.38
265.058	2.23
265.273	2.06
265.488	1.97
265.702	1.83
265.917	1.93
266.132	2.13
266.346	2.4
266.561	2.95
266.776	3.22
266.99	2.69
267.205	2.73
267.42	1.99
267.634	1.93
267.849	2.23
268.063	2.47
268.278	2.6
268.492	2.7
268.707	2.87
268.922	2.97
269.136	3.04
269.351	3.17
269.565	3.24
269.78	3.38
269.994	3.8
270.209	3.55
270.423	3.87
270.637	3.66
270.852	3.46
271.066	3.12
271.281	2.76
271.495	2.44
271.709	2.71
271.924	2.62
272.138	2.85
272.353	2.72
272.567	2.82
272.781	2.57
272.996	2.98
273.21	3.12
273.424	3.25
273.638	3.31
273.853	3.53
274.067	3.59
274.281	3.68
274.495	3.91
274.71	4.08
274.924	4.03
275.138	3.82
275.352	3.33
275.566	3.07
275.781	3.42
275.995	3.32
276.209	3.57
276.423	3.45
276.637	3.35
276.851	2.61
277.065	2.6
277.279	2.49
277.493	2.8
277.707	2.84
277.921	3.04
278.135	2.81
278.349	2.59
278.563	2.4
278.777	2.33
278.991	2.13
279.205	2.43
279.419	2.56
279.633	2.91
279.847	2.34
280.061	2.16
280.275	1.72
280.489	1.53
280.703	2.07
280.917	1.82
281.131	1.75
281.344	1.96
281.558	1.67
281.772	1.76
281.986	1.69
282.2	1.81
282.414	2.07
282.627	2.49
282.841	2.48
283.055	2.04
283.269	2.13
283.482	1.99
283.696	1.9
283.91	2.02
284.123	1.49
284.337	1.21
284.551	1.36
284.764	1.19
284.978	0.93
285.192	0.99
285.405	1.04
285.619	1.32
285.833	1.09
286.046	1.33
286.26	1.39
286.473	1.5
286.687	1.71
286.9	1.59
287.114	1.63
287.327	1.86
287.541	1.61
287.754	1.7
287.968	1.65
288.181	1.93
288.395	1.61
288.608	1.72
288.822	1.96
289.035	2.11
289.248	2.46
289.462	2.45
289.675	2.3
289.889	2.85
290.102	2.81
290.315	2.71
290.529	2.9
290.742	3.09
290.955	3
291.169	2.86
291.382	2.84
291.595	2.68
291.808	2.46
292.022	2.49
292.235	1.97
292.448	2.27
292.661	2.38
292.875	2.2
293.088	1.93
293.301	2.07
293.514	2.31
293.727	2.17
293.94	2.35
294.153	2.72
294.367	2.67
294.58	2.88
294.793	2.57
295.006	2.53
295.219	2.84
295.432	2.9
295.645	2.93
295.858	3.05
296.071	3.08
296.284	2.82
296.497	2.68
296.71	2.57
296.923	2.65
297.136	2.7
297.349	2.75
297.562	2.5
297.775	2.72
297.988	2.69
298.201	2.42
298.414	2.29
298.626	2.55
298.839	2.65
299.052	3.02
299.265	2.85
299.478	2.96
299.691	3.03
299.903	2.95
300.116	2.58
300.329	2.6
300.542	2.72
300.755	2.66
300.967	2.67
301.18	2.77
301.393	2.43
301.605	2.81
301.818	2.78
302.031	2.78
302.243	3.23
302.456	3.56
302.669	3.86
302.881	3.96
303.094	4.2
303.307	3.94
303.519	3.85
303.732	3.91
303.944	3.83
304.157	4.03
304.37	4.22
304.582	4.3
304.795	4.24
305.007	4.04
305.22	3.94
305.432	3.95
305.645	4.41
305.857	4.57
306.069	4.62
306.282	4.63
306.494	4.57
306.707	4.53
306.919	4.21
307.132	4.35
307.344	4.08
307.556	3.97
307.769	3.97
307.981	3.65
308.193	3.71
308.406	3.71
308.618	3.99
308.83	4.02
309.043	3.85
309.255	3.83
309.467	3.52
309.679	3.56
309.892	3.72
310.104	3.71
310.316	3.64
310.528	3.58
310.74	3.96
310.953	3.6
311.165	3.54
311.377	3.48
311.589	3.91
311.801	4.46
312.013	4.85
312.225	5.01
312.437	4.9
312.649	4.84
312.862	4.72
313.074	4.36
313.286	4.75
313.498	4.61
313.71	4.49
313.922	4.05
314.134	3.47
314.346	3.18
314.558	2.82
314.77	3.16
314.982	3.47
315.193	3.53
315.405	3.41
315.617	3.17
315.829	3.7
316.041	4.03
316.253	3.86
316.465	4.24
316.677	4.19
316.888	4.54
317.1	4.46
317.312	4.45
317.524	4.26
317.736	4.44
317.947	4.36
318.159	3.95
318.371	3.77
318.583	4.21
318.794	3.85
319.006	3.91
319.218	3.83
319.43	4.1
319.641	3.95
319.853	4.48
320.064	4.37
320.276	4.51
320.488	4.46
320.699	4.64
320.911	4.76
321.123	5.21
321.334	5.51
321.546	5.62
321.757	5.69
321.969	6.03
322.18	5.58
322.392	5.96
322.603	6.18
322.815	6.36
323.026	6.33
323.238	6.05
323.449	5.98
323.661	5.75
323.872	5.86
324.083	5.78
324.295	5.72
324.506	6.05
324.718	5.91
324.929	5.57
325.14	5.47
325.352	5.61
325.563	5.65
325.774	5.55
325.986	5.36
326.197	5.05
326.408	4.98
326.62	5.12
326.831	5.06
327.042	5.39
327.253	5.14
327.464	5.45
327.676	5.53
327.887	5.77
328.098	5.68
328.309	5.92
328.52	6.14
328.732	6.22
328.943	5.85
329.154	6.06
329.365	5.7
329.576	6.93
329.787	7.15
329.998	7.28
330.209	7.02
330.42	7.67
330.631	7.65
330.842	7.77
331.053	7.54
331.264	8.05
331.475	7.8
331.686	7.66
331.897	6.96
332.108	6.63
332.319	6.39
332.53	6.61
332.741	6.25
332.952	6.32
333.163	6.29
333.374	6.55
333.585	6.14
333.795	6.14
334.006	5.98
334.217	6.06
334.428	5.86
334.639	6.05
334.849	5.85
335.06	5.79
335.271	5.55
335.482	5.45
335.692	5.2
335.903	5.22
336.114	5.13
336.325	5.47
336.535	5.56
336.746	5.76
336.957	5.64
337.167	5.72
337.378	5.87
337.589	6.1
337.799	5.98
338.01	6.32
338.22	6.45
338.431	6.73
338.642	6.99
338.852	6.81
339.063	6.9
339.273	6.88
339.484	6.93
339.694	6.68
339.905	7.02
340.115	7.12
340.326	6.85
340.536	7.13
340.746	7.02
340.957	6.55
341.167	6.7
341.378	6.69
341.588	6.89
341.799	6.75
342.009	6.86
342.219	6.48
342.43	6.57
342.64	6.82
342.85	6.76
343.061	6.7
343.271	7.04
343.481	7.08
343.691	7.06
343.902	6.83
344.112	6.84
344.322	6.89
344.532	6.83
344.743	6.85
344.953	6.58
345.163	6.46
345.373	6.46
345.583	6.33
345.793	6.05
346.004	5.98
346.214	6.15
346.424	6.17
346.634	6.41
346.844	6.42
347.054	6.19
347.264	6.28
347.474	6.3
347.684	6.59
347.894	6.74
348.104	6.73
348.314	6.68
348.524	6.4
348.734	6.71
348.944	6.2
349.154	6.25
349.364	6.34
349.574	6.31
349.784	6.47
349.994	6.15
350.204	5.97
350.413	6.09
350.623	6.44
350.833	6.69
351.043	6.37
351.253	6.53
351.463	6.75
351.672	6.63
351.882	6.65
352.092	6.65
352.302	6.64
352.511	6.82
352.721	6.74
352.931	6.43
353.141	6.08
353.35	6.24
353.56	6.1
353.77	6
353.979	6.27
354.189	6.4
354.399	6.06
354.608	6.09
354.818	6.2
355.027	6.08
355.237	6.13
355.447	6.19
355.656	6.06
355.866	6.1
356.075	5.84
356.285	5.65
356.494	5.67
356.704	5.83
356.913	5.77
357.123	5.66
357.332	6.04
357.542	6.17
357.751	6.22
357.96	6.28
358.17	6.23
358.379	6.45
358.589	6.59
358.798	6.54
359.007	6.41
359.217	6.6
359.426	6.76
359.635	6.68
359.845	6.44
360.054	6.37
360.263	6.45
360.472	6.58
360.682	6.66
360.891	6.59
361.1	6.63
361.309	6.78
361.519	6.67
361.728	6.56
361.937	6.48
362.146	6.62
362.355	6.78
362.564	6.6
362.774	6.57
362.983	6.37
363.192	6.31
363.401	6.36
363.61	6.32
363.819	6.36
364.028	6.17
364.237	6.2
364.446	6.15
364.655	5.96
364.864	6.05
365.073	6.09
365.282	6.08
365.491	6.12
365.7	5.98
365.909	5.86
366.118	5.82
366.327	5.92
366.536	5.87
366.745	5.58
366.954	5.65
367.162	5.68
367.371	5.44
367.58	5.73
367.789	5.43
367.998	5.49
368.207	5.52
368.415	5.53
368.624	5.43
368.833	5.39
369.042	5.58
369.25	5.48
369.459	5.39
369.668	5.55
369.877	5.69
370.085	5.93
370.294	5.75
370.503	5.82
370.711	5.89
370.92	5.93
371.129	5.91
371.337	5.86
371.546	5.87
371.754	5.87
371.963	5.83
372.171	5.74
372.38	5.7
372.589	5.77
372.797	5.66
373.006	5.44
373.214	5.56
373.423	5.43
373.631	5.61
373.84	5.6
374.048	5.54
374.256	5.41
374.465	5.06
374.673	5.15
374.882	5.3
375.09	5.15
375.298	5.08
375.507	4.83
375.715	4.9
375.923	4.77
376.132	4.55
376.34	4.69
376.548	4.74
376.757	4.65
376.965	4.43
377.173	4.36
377.381	4.34
377.59	4.39
377.798	4.57
378.006	4.47
378.214	4.45
378.423	4.51
378.631	4.45
378.839	4.59
379.047	4.79
379.255	4.89
379.463	4.76
379.671	4.71
379.879	4.78
380.088	4.54
380.296	4.71
380.504	4.49
380.712	4.59
380.92	4.71
381.128	4.56
381.336	4.42
381.544	4.39
381.752	4.33
381.96	4.43
382.168	4.21
382.376	4.29
382.584	4.13
382.791	4.24
382.999	4.18
383.207	3.83
383.415	3.77
383.623	3.96
383.831	3.92
384.039	3.8
384.247	3.76
384.454	3.88
384.662	3.82
384.87	3.88
385.078	3.89
385.285	4.06
385.493	4.07
385.701	3.94
385.909	3.9
386.116	3.99
386.324	4.17
386.532	4.25
386.739	4.27
386.947	4.27
387.155	4.09
387.362	4.23
387.57	3.78
387.778	3.79
387.985	3.84
388.193	3.57
388.4	3.44
388.608	3.31
388.816	3.26
389.023	3.07
389.231	2.99
389.438	3.13
389.646	2.88
389.853	3.23
390.061	3.21
390.268	3.38
390.475	3.37
390.683	3.42
390.89	3.32
391.098	3.27
391.305	3.5
391.512	3.38
391.72	3.27
391.927	3.39
392.135	3.28
392.342	3.27
392.549	3.21
392.756	3.29
392.964	3.26
393.171	3.29
393.378	3.17
393.586	3.04
393.793	3.21
394	3.34
394.207	3.31
394.414	3.39
394.622	3.43
394.829	3.3
395.036	3.35
395.243	3.34
395.45	3.34
395.657	3.4
395.864	3.52
396.072	3.71
396.279	3.61
396.486	3.46
396.693	3.48
396.9	3.48
397.107	3.59
397.314	3.7
397.521	3.69
397.728	3.65
397.935	3.72
398.142	3.55
398.349	3.32
398.556	3.32
398.763	3.24
398.97	3.1
399.177	3.1
399.383	2.86
399.59	2.69
399.797	2.68
400.004	2.79
400.211	2.61
400.418	2.54
400.625	2.58
400.831	2.4
401.038	2.36
401.245	2.23
401.452	2.36
401.658	2.54
401.865	2.42
402.072	2.4
402.279	2.38
402.485	2.38
402.692	2.33
402.899	2.3
403.105	2.47
403.312	2.55
403.519	2.54
403.725	2.53
403.932	2.57
404.138	2.51
404.345	2.55
404.552	2.51
404.758	2.6
404.965	2.83
405.171	2.79
405.378	2.71
405.584	2.7
405.791	2.82
405.997	2.71
406.204	2.61
406.41	2.77
406.617	2.71
406.823	2.7
407.029	2.7
407.236	2.51
407.442	2.46
407.649	2.57
407.855	2.63
408.061	2.47
408.268	2.27
408.474	2.19
408.68	2.12
408.887	2.16
409.093	2.11
409.299	2.03
409.505	2.13
409.712	2.13
409.918	2.11
410.124	2.03
410.33	2.13
410.537	2.18
410.743	2.17
410.949	2.16
411.155	2.24
411.361	2.19
411.567	2.26
411.773	2.2
411.98	2.14
412.186	1.98
412.392	1.9
412.598	2.03
412.804	2.08
413.01	2.08
413.216	2.07
413.422	2.1
413.628	2.25
413.834	2.15
414.04	2.13
414.246	2.15
414.452	2.18
414.658	2.31
414.864	2.33
415.07	2.29
415.275	2.42
415.481	2.46
415.687	2.32
415.893	2.17
416.099	2.29
416.305	2.33
416.511	2.31
416.716	2.3
416.922	2.21
417.128	2.09
417.334	2.24
417.539	2.22
417.745	2.17
417.951	2.18
418.157	2.3
418.362	2.21
418.568	2.2
418.774	2.18
418.979	2.16
419.185	2.24
419.391	2.3
419.596	2.27
419.802	2.24
420.008	2.19
420.213	2.18
420.419	2.12
420.624	2.15
420.83	2.11
421.035	2.17
421.241	2.24
421.446	2.27
421.652	2.2
421.857	2.1
422.063	2.07
422.268	2.08
422.474	2.07
422.679	2.07
422.885	2.09
423.09	2.12
423.295	2.09
423.501	2
423.706	1.96
423.911	1.94
424.117	1.94
424.322	1.93
424.527	1.91
424.733	1.91
424.938	1.88
425.143	1.79
425.349	1.78
425.554	1.77
425.759	1.82
425.964	1.8
426.169	1.92
426.375	1.98
426.58	2.02
426.785	2.14
426.99	2.23
427.195	2.2
427.4	2.29
427.605	2.31
427.811	2.39
428.016	2.35
428.221	2.39
428.426	2.32
428.631	2.3
428.836	2.19
429.041	1.94
429.246	1.85
429.451	1.93
429.656	1.88
429.861	1.92
430.066	1.83
430.271	1.85
430.476	1.81
430.681	1.85
430.886	1.85
431.09	1.9
431.295	2.01
431.5	2.02
431.705	1.92
431.91	1.9
432.115	1.8
432.32	1.81
432.524	1.85
432.729	1.77
432.934	1.74
433.139	1.76
433.343	1.76
433.548	1.84
433.753	1.89
433.958	1.96
434.162	2.02
434.367	2.01
434.572	2.02
434.776	1.99
434.981	2.06
435.186	2.08
435.39	2.16
435.595	2.22
435.799	2.18
436.004	2.12
436.209	2.12
436.413	2.14
436.618	2.18
436.822	2.21
437.027	2.15
437.231	2.13
437.436	2.07
437.64	2.05
437.845	1.97
438.049	1.99
438.253	2
438.458	2.06
438.662	2.05
438.867	2.02
439.071	2.03
439.275	2.07
439.48	2.05
439.684	2.1
439.888	2.02
440.093	1.99
440.297	1.99
440.501	1.93
440.706	1.89
440.91	1.89
441.114	1.88
441.318	1.85
441.523	1.88
441.727	1.88
441.931	1.76
442.135	1.72
442.339	1.82
442.543	1.79
442.748	1.78
442.952	1.76
443.156	1.77
443.36	1.8
443.564	1.84
443.768	1.79
443.972	1.73
444.176	1.76
444.38	1.76
444.584	1.75
444.788	1.74
444.992	1.83
445.196	1.81
445.4	1.72
445.604	1.69
445.808	1.7
446.012	1.68
446.216	1.74
446.42	1.76
446.624	1.79
446.828	1.79
447.032	1.78
447.235	1.67
447.439	1.7
447.643	1.73
447.847	1.8
448.051	1.72
448.254	1.77
448.458	1.72
448.662	1.76
448.866	1.72
449.069	1.68
449.273	1.65
449.477	1.78
449.681	1.76
449.884	1.74
450.088	1.71
450.292	1.74
450.495	1.72
450.699	1.78
450.902	1.82
451.106	1.84
451.31	1.95
451.513	1.9
451.717	1.8
451.92	1.81
452.124	1.86
452.327	1.84
452.531	1.88
452.734	1.96
452.938	1.93
453.141	1.89
453.345	1.93
453.548	1.82
453.752	1.94
453.955	2.01
454.158	1.99
454.362	1.93
454.565	1.97
454.769	1.93
454.972	1.85
455.175	1.98
455.379	1.83
455.582	1.83
455.785	1.72
455.988	1.74
456.192	1.65
456.395	1.58
456.598	1.61
456.801	1.5
457.005	1.56
457.208	1.59
457.411	1.48
457.614	1.62
457.817	1.5
458.021	1.55
458.224	1.57
458.427	1.62
458.63	1.71
458.833	1.69
459.036	1.72
459.239	1.73
459.442	1.67
459.645	1.64
459.848	1.68
460.051	1.74
460.254	1.79
460.457	1.74
460.66	1.72
460.863	1.7
461.066	1.67
461.269	1.69
461.472	1.62
461.675	1.64
461.878	1.72
462.081	1.6
462.284	1.57
462.486	1.55
462.689	1.56
462.892	1.64
463.095	1.67
463.298	1.73
463.5	1.64
463.703	1.73
463.906	1.73
464.109	1.73
464.311	1.78
464.514	1.8
464.717	1.83
464.92	1.88
465.122	1.9
465.325	1.91
465.528	1.86
465.73	1.98
465.933	1.91
466.135	1.93
466.338	1.96
466.541	2
466.743	2.13
466.946	2.09
467.148	2.09
467.351	2.05
467.553	1.97
467.756	2.09
467.958	1.93
468.161	1.94
468.363	1.96
468.566	1.93
468.768	1.89
468.971	1.85
469.173	1.95
469.375	1.89
469.578	1.87
469.78	1.87
