Data from 2938772__Reflection_03.txt Node
Date: Fri Mar 13 14:47:58 EDT 2015
User: robert
Spectrometer: USB4E03002
Autoset integration time: false
Trigger mode: 4
Integration Time (sec): 1.000000E-1
Scans to average: 10
Electric dark correction enabled: false
Nonlinearity correction enabled: false
Boxcar width: 5
Stray light correction enabled: false
XAxis mode: Wavelengths
Stop averaging: false
Number of Pixels in Spectrum: 3648
>>>>>Begin Spectral Data<<<<<
177.575	-231.94
177.794	-675.34
178.014	-2207.41
178.233	1350.75
178.452	2370.27
178.672	486.93
178.891	521.34
179.11	3517.39
179.33	-986.57
179.549	-506.35
179.768	-2180
179.987	1098.51
180.207	2918.52
180.426	1393.85
180.645	-1971.43
180.864	-1416.13
181.084	-334.65
181.303	-440.19
181.522	-2191.49
181.741	7620
181.96	454.29
182.179	409.28
182.398	291.51
182.618	238.03
182.837	359.04
183.056	283.91
183.275	237.24
183.494	203.68
183.713	249.13
183.932	246.13
184.151	219.44
184.37	285.44
184.589	403.93
184.808	843.33
185.027	401.4
185.246	284.97
185.465	250.13
185.684	240.92
185.903	259.36
186.122	198.18
186.341	167.58
186.56	182.58
186.779	222.07
186.998	171.11
187.216	228.77
187.435	543.22
187.654	308.55
187.873	240.43
188.092	260
188.311	440.46
188.53	310.1
188.748	1010.94
188.967	-2266.67
189.186	568.12
189.405	602.88
189.623	307.25
189.842	237.92
190.061	237.98
190.28	347.56
190.498	226.55
190.717	194.59
190.936	217.63
191.154	190.99
191.373	199.38
191.592	199.09
191.81	163.48
192.029	162.15
192.248	165.51
192.466	172.27
192.685	168.83
192.904	227.25
193.122	225.97
193.341	322.58
193.559	576.88
193.778	355.56
193.996	515.42
194.215	4316
194.433	1035.51
194.652	752.7
194.87	1250
195.089	22380
195.307	4253.85
195.526	-1104.67
195.744	2895.74
195.963	746.45
196.181	578.93
196.399	402.13
196.618	396.71
196.836	471.91
197.055	807.14
197.273	1298.9
197.491	3547.06
197.71	2431.48
197.928	720.11
198.146	1073.73
198.365	1566.67
198.583	1887.88
198.801	-441.48
199.019	-363.45
199.238	-270.87
199.456	-232.44
199.674	-292.38
199.892	-356.5
200.111	-220.15
200.329	-143.07
200.547	-115.87
200.765	-291
200.983	-241.15
201.202	-498.13
201.42	-1243.75
201.638	2326.09
201.856	743.3
202.074	1746.34
202.292	362.63
202.51	521.71
202.728	328.94
202.946	585.91
203.165	1360.32
203.383	69800
203.601	578.17
203.819	608.91
204.037	348.66
204.255	275.58
204.473	179.95
204.691	390.06
204.909	214.32
205.127	391.21
205.345	216.86
205.562	189.97
205.78	143.71
205.998	156.46
206.216	154.2
206.434	161.45
206.652	186.28
206.87	196.44
207.088	170.02
207.306	200.23
207.523	150.71
207.741	171.83
207.959	182.62
208.177	203.22
208.395	223.61
208.612	286.48
208.83	252.15
209.048	255.14
209.266	2146.67
209.483	-1750
209.701	-2368
209.919	1151.56
210.136	14340
210.354	-1769.44
210.572	-306.56
210.79	655.14
211.007	275.85
211.225	1094.92
211.442	265.53
211.66	141.8
211.878	97.48
212.095	273.59
212.313	272.54
212.53	225.28
212.748	190.26
212.966	151.72
213.183	190.08
213.401	214.5
213.618	166.27
213.836	156.6
214.053	199.51
214.271	222.8
214.488	86.19
214.705	103.05
214.923	107.71
215.14	111.42
215.358	103.51
215.575	102.16
215.793	92.34
216.01	114.56
216.227	125.99
216.445	108.92
216.662	113.49
216.879	116.92
217.097	110.65
217.314	131.04
217.531	131.6
217.749	144.75
217.966	139.75
218.183	134.55
218.4	100.51
218.618	107.43
218.835	100.82
219.052	87.08
219.269	86.06
219.487	82.56
219.704	55.08
219.921	52.27
220.138	49.16
220.355	42.7
220.572	48.2
220.79	41.7
221.007	28.96
221.224	27.66
221.441	26.33
221.658	29.79
221.875	37.79
222.092	41.43
222.309	45.54
222.526	35.73
222.743	36.99
222.96	35.06
223.177	48.61
223.394	53.58
223.611	55.26
223.828	51.92
224.045	47.39
224.262	48.71
224.479	40.08
224.696	37.59
224.913	44.18
225.13	44.99
225.347	44.44
225.564	38.19
225.781	36.71
225.997	33.26
226.214	33.66
226.431	32.23
226.648	22.99
226.865	21.83
227.082	18.31
227.298	14.88
227.515	12.53
227.732	10.51
227.949	9.81
228.165	8.47
228.382	7.91
228.599	6.57
228.816	6.4
229.032	6.41
229.249	7.02
229.466	7.44
229.682	7.82
229.899	7.79
230.116	7.34
230.332	7.31
230.549	7.44
230.765	7.49
230.982	8.26
231.199	8.59
231.415	9.64
231.632	9.75
231.848	12.4
232.065	10.75
232.281	12.19
232.498	13.45
232.714	15.3
232.931	16.55
233.147	17.45
233.364	17.33
233.58	16.5
233.797	15.57
234.013	14.83
234.23	12.26
234.446	13.47
234.662	12.81
234.879	13.42
235.095	14.38
235.312	15.24
235.528	13
235.744	11.4
235.961	13.79
236.177	13.33
236.393	12.96
236.61	12.01
236.826	11.85
237.042	11.27
237.258	10.4
237.475	7.84
237.691	6.91
237.907	8.94
238.123	9.6
238.339	7.78
238.556	7.97
238.772	8.34
238.988	9.03
239.204	8.76
239.42	10.19
239.636	9.93
239.853	9.87
240.069	10.01
240.285	9.87
240.501	10.44
240.717	10.72
240.933	10.07
241.149	9.85
241.365	9.82
241.581	9.48
241.797	8.65
242.013	8.81
242.229	8.99
242.445	8.46
242.661	8.54
242.877	8.18
243.093	8.15
243.309	8.42
243.525	8.54
243.741	8.35
243.957	8.82
244.173	9.04
244.388	9.52
244.604	8.81
244.82	8.68
245.036	8.31
245.252	7.88
245.468	7.33
245.683	7.39
245.899	6.62
246.115	7.04
246.331	6.71
246.547	6.45
246.762	6.12
246.978	6.4
247.194	6.51
247.409	6.56
247.625	6.59
247.841	6.44
248.057	6.16
248.272	6.59
248.488	6.58
248.703	6.7
248.919	6.94
249.135	6.92
249.35	7.04
249.566	6.93
249.782	7.01
249.997	7.53
250.213	7.95
250.428	8.6
250.644	8.56
250.859	8.31
251.075	8.54
251.29	7.85
251.506	8.38
251.721	8.1
251.937	7.99
252.152	7.9
252.368	7.94
252.583	7.72
252.798	7.22
253.014	7.21
253.229	7.87
253.445	7.42
253.66	8.27
253.875	8.77
254.091	8.54
254.306	8.07
254.521	8.17
254.737	8.61
254.952	9.25
255.167	9.36
255.383	9.03
255.598	7.66
255.813	7.33
256.028	7.29
256.244	6.39
256.459	6.42
256.674	6.72
256.889	6.73
257.104	5.45
257.32	5.38
257.535	5.28
257.75	5.69
257.965	5.15
258.18	5.11
258.395	4.74
258.61	5.11
258.826	5.41
259.041	5.46
259.256	5.39
259.471	5.09
259.686	4.86
259.901	4.87
260.116	4.83
260.331	5.06
260.546	5.16
260.761	5.21
260.976	5.04
261.191	5.17
261.406	4.99
261.621	4.77
261.836	5.15
262.05	4.9
262.265	5.23
262.48	4.66
262.695	4.25
262.91	3.88
263.125	4.03
263.34	4.04
263.555	3.24
263.769	3.84
263.984	3.84
264.199	3.63
264.414	4.25
264.629	4.09
264.843	4.89
265.058	5.14
265.273	5.37
265.488	5.82
265.702	6.29
265.917	6.46
266.132	6.07
266.346	5.96
266.561	6.11
266.776	6.38
266.99	6.28
267.205	5.89
267.42	6.03
267.634	6.49
267.849	5.8
268.063	5.51
268.278	5.53
268.492	5.41
268.707	5.64
268.922	5.55
269.136	5.65
269.351	5.6
269.565	5.56
269.78	5.97
269.994	5.62
270.209	5.51
270.423	5.44
270.637	5.21
270.852	5.06
271.066	4.87
271.281	4.55
271.495	4.19
271.709	4
271.924	4.24
272.138	4.12
272.353	4.15
272.567	4.62
272.781	4.32
272.996	4.5
273.21	5.19
273.424	5.51
273.638	5.65
273.853	5.82
274.067	6.02
274.281	6.25
274.495	5.93
274.71	6.13
274.924	6.01
275.138	6.13
275.352	5.92
275.566	5.37
275.781	4.41
275.995	4.83
276.209	4.57
276.423	4.34
276.637	3.85
276.851	4.16
277.065	4.34
277.279	4.18
277.493	4.41
277.707	4.89
277.921	4.77
278.135	5.55
278.349	5.22
278.563	5.45
278.777	5.75
278.991	5.88
279.205	5.87
279.419	5.25
279.633	5.1
279.847	4.74
280.061	4.02
280.275	3.92
280.489	3.65
280.703	3.89
280.917	3.86
281.131	3.79
281.344	3.56
281.558	3.3
281.772	3.4
281.986	3.45
282.2	3.75
282.414	3.79
282.627	3.9
282.841	4.19
283.055	4.23
283.269	3.68
283.482	3.47
283.696	3.65
283.91	3.49
284.123	3.43
284.337	3.56
284.551	3.47
284.764	3.54
284.978	3.78
285.192	3.78
285.405	3.7
285.619	3.85
285.833	4
286.046	3.99
286.26	4.17
286.473	4.43
286.687	4.31
286.9	4.24
287.114	4.31
287.327	4.09
287.541	3.78
287.754	4
287.968	4.17
288.181	4.53
288.395	4.41
288.608	4.54
288.822	4.15
289.035	4.36
289.248	4.29
289.462	4.68
289.675	4.73
289.889	5.14
290.102	5.05
290.315	5.17
290.529	5.24
290.742	5.36
290.955	5.12
291.169	5.57
291.382	5.52
291.595	5.72
291.808	5.58
292.022	5.42
292.235	5.12
292.448	4.94
292.661	5.15
292.875	4.71
293.088	5.42
293.301	5.68
293.514	5.83
293.727	6.09
293.94	6.13
294.153	6.11
294.367	6.08
294.58	6.18
294.793	6.13
295.006	6.19
295.219	6.17
295.432	5.27
295.645	5.23
295.858	4.61
296.071	4.56
296.284	4.34
296.497	4.35
296.71	4.39
296.923	4.69
297.136	4.65
297.349	4.41
297.562	4.63
297.775	4.95
297.988	5.08
298.201	5.41
298.414	5.35
298.626	5.73
298.839	5.6
299.052	5.98
299.265	5.66
299.478	5.9
299.691	6.08
299.903	5.79
300.116	5.81
300.329	5.69
300.542	5.82
300.755	5.83
300.967	5.74
301.18	5.75
301.393	5.76
301.605	5.78
301.818	5.87
302.031	6.13
302.243	6.14
302.456	6.28
302.669	6.18
302.881	6.13
303.094	5.86
303.307	5.63
303.519	5.73
303.732	5.6
303.944	5.42
304.157	5.4
304.37	5.28
304.582	5.3
304.795	5.13
305.007	5.63
305.22	5.69
305.432	5.97
305.645	6.13
305.857	6.39
306.069	6.48
306.282	6.94
306.494	6.78
306.707	6.38
306.919	6.3
307.132	6.46
307.344	6.12
307.556	6.26
307.769	6.39
307.981	6.58
308.193	6.28
308.406	6.25
308.618	6.3
308.83	6.38
309.043	6.56
309.255	6.85
309.467	6.93
309.679	6.67
309.892	6.13
310.104	6.19
310.316	5.92
310.528	5.79
310.74	5.83
310.953	5.86
311.165	5.87
311.377	5.77
311.589	5.77
311.801	5.62
312.013	5.8
312.225	6.1
312.437	5.99
312.649	5.87
312.862	6.22
313.074	5.89
313.286	5.94
313.498	6.02
313.71	6.27
313.922	6.38
314.134	6.68
314.346	6.61
314.558	7.03
314.77	7.09
314.982	7.33
315.193	7.3
315.405	7.67
315.617	7.43
315.829	7.5
316.041	7.55
316.253	7.4
316.465	7.63
316.677	7.76
316.888	7.65
317.1	7.7
317.312	7.94
317.524	7.84
317.736	8.21
317.947	8.51
318.159	8.79
318.371	8.82
318.583	9.03
318.794	8.55
319.006	8.8
319.218	8.51
319.43	8.31
319.641	8.49
319.853	8.72
320.064	8.39
320.276	8.22
320.488	7.51
320.699	7.49
320.911	7.23
321.123	7.1
321.334	6.47
321.546	6.92
321.757	6.86
321.969	6.14
322.18	6.39
322.392	6.81
322.603	6.89
322.815	7.35
323.026	7.6
323.238	7.43
323.449	7.43
323.661	7.87
323.872	7.77
324.083	8.05
324.295	8.87
324.506	8.47
324.718	7.96
324.929	7.82
325.14	7.88
325.352	8
325.563	8.2
325.774	8.08
325.986	8.11
326.197	8.38
326.408	8.81
326.62	8.69
326.831	8.88
327.042	9.18
327.253	9.14
327.464	9.44
327.676	9.41
327.887	9.62
328.098	10.28
328.309	10.1
328.52	10.08
328.732	10.01
328.943	10.15
329.154	10.15
329.365	10.22
329.576	10.24
329.787	10.01
329.998	9.9
330.209	9.78
330.42	9.65
330.631	10.5
330.842	10.38
331.053	10.31
331.264	10
331.475	9.87
331.686	10.01
331.897	10.48
332.108	10.65
332.319	10.96
332.53	10.99
332.741	11.39
332.952	10.79
333.163	10.63
333.374	10.1
333.585	10.32
333.795	10.66
334.006	10.42
334.217	10.33
334.428	10.54
334.639	10.48
334.849	10.48
335.06	9.75
335.271	9.95
335.482	10.15
335.692	10.67
335.903	10.78
336.114	11.05
336.325	11.17
336.535	11.14
336.746	11.07
336.957	10.97
337.167	11.11
337.378	11.34
337.589	11.43
337.799	11.24
338.01	11.07
338.22	10.88
338.431	10.51
338.642	10.59
338.852	10.51
339.063	10.43
339.273	10.47
339.484	10.66
339.694	10.5
339.905	10.45
340.115	10.49
340.326	10.64
340.536	10.51
340.746	10.52
340.957	10.66
341.167	10.64
341.378	10.25
341.588	10.31
341.799	10.36
342.009	10.27
342.219	10.13
342.43	10.24
342.64	10.44
342.85	10.53
343.061	10.43
343.271	10.15
343.481	10.09
343.691	10.02
343.902	9.87
344.112	9.7
344.322	9.76
344.532	9.81
344.743	9.96
344.953	9.78
345.163	9.77
345.373	9.71
345.583	9.71
345.793	9.72
346.004	9.81
346.214	9.75
346.424	9.72
346.634	9.91
346.844	10.02
347.054	9.54
347.264	9.66
347.474	9.67
347.684	9.66
347.894	9.75
348.104	9.74
348.314	10.17
348.524	10.11
348.734	9.96
348.944	9.89
349.154	9.83
349.364	9.93
349.574	9.63
349.784	9.78
349.994	10.12
350.204	10.22
350.413	10.17
350.623	9.9
350.833	9.68
351.043	9.64
351.253	9.67
351.463	9.65
351.672	9.37
351.882	9.73
352.092	9.37
352.302	9.41
352.511	9.69
352.721	9.74
352.931	10.02
353.141	9.87
353.35	9.81
353.56	9.56
353.77	9.53
353.979	9.9
354.189	9.49
354.399	9.66
354.608	9.51
354.818	9.14
355.027	9.22
355.237	8.82
355.447	9.1
355.656	9.13
355.866	9.33
356.075	9.04
356.285	9.09
356.494	9
356.704	9.02
356.913	8.92
357.123	8.86
357.332	8.62
357.542	8.71
357.751	8.76
357.96	8.75
358.17	8.64
358.379	8.87
358.589	8.89
358.798	9.06
359.007	8.77
359.217	8.94
359.426	9.24
359.635	9.46
359.845	9.33
360.054	9.19
360.263	9.14
360.472	9.02
360.682	8.89
360.891	8.75
361.1	8.59
361.309	8.83
361.519	8.64
361.728	8.49
361.937	8.6
362.146	8.73
362.355	8.84
362.564	9
362.774	9.15
362.983	9.19
363.192	9.2
363.401	9.3
363.61	9.13
363.819	9.22
364.028	9.03
364.237	8.76
364.446	8.71
364.655	8.72
364.864	8.62
365.073	8.38
365.282	8.49
365.491	8.45
365.7	8.58
365.909	8.91
366.118	8.95
366.327	9.04
366.536	8.96
366.745	8.89
366.954	8.72
367.162	8.67
367.371	8.94
367.58	8.92
367.789	8.79
367.998	8.55
368.207	7.97
368.415	7.69
368.624	7.6
368.833	7.86
369.042	7.99
369.25	8.4
369.459	8.12
369.668	7.95
369.877	7.8
370.085	8.07
370.294	8.33
370.503	8.78
370.711	9.04
370.92	9.12
371.129	8.84
371.337	8.69
371.546	8.34
371.754	8.76
371.963	8.8
372.171	8.91
372.38	8.81
372.589	8.57
372.797	8.2
373.006	7.83
373.214	7.56
373.423	7.75
373.631	7.86
373.84	7.73
374.048	7.61
374.256	7.64
374.465	7.79
374.673	7.76
374.882	7.8
375.09	7.96
375.298	8.43
375.507	8.63
375.715	8.22
375.923	8.09
376.132	8.25
376.34	8.07
376.548	7.98
376.757	7.81
376.965	7.84
377.173	7.82
377.381	7.88
377.59	7.74
377.798	7.73
378.006	7.89
378.214	7.75
378.423	7.69
378.631	7.76
378.839	7.67
379.047	7.75
379.255	7.8
379.463	7.67
379.671	7.56
379.879	7.52
380.088	7.42
380.296	7.44
380.504	7.33
380.712	7.42
380.92	7.4
381.128	7.63
381.336	7.32
381.544	7.1
381.752	7.02
381.96	7.23
382.168	7.19
382.376	7.33
382.584	7.49
382.791	7.62
382.999	7.58
383.207	7.51
383.415	7.36
383.623	7.4
383.831	7.49
384.039	7.8
384.247	7.71
384.454	7.64
384.662	7.46
384.87	7.2
385.078	7.15
385.285	6.87
385.493	6.87
385.701	6.73
385.909	6.82
386.116	6.98
386.324	6.78
386.532	6.68
386.739	6.67
386.947	6.71
387.155	6.88
387.362	7.01
387.57	7.25
387.778	7.48
387.985	7.64
388.193	7.55
388.4	7.55
388.608	7.59
388.816	7.5
389.023	7.53
389.231	7.36
389.438	7.28
389.646	7.17
389.853	7.06
390.061	6.82
390.268	6.74
390.475	6.56
390.683	6.2
390.89	5.92
391.098	5.99
391.305	5.81
391.512	5.89
391.72	5.85
391.927	5.86
392.135	5.84
392.342	5.77
392.549	5.86
392.756	5.87
392.964	5.88
393.171	5.93
393.378	5.78
393.586	6.06
393.793	6.05
394	6.04
394.207	6.08
394.414	6.04
394.622	5.96
394.829	5.78
395.036	5.79
395.243	5.74
395.45	5.63
395.657	5.71
395.864	5.34
396.072	5.32
396.279	5.34
396.486	5.04
396.693	5.25
396.9	5.32
397.107	5.36
397.314	5.56
397.521	5.59
397.728	5.8
397.935	5.9
398.142	6.06
398.349	5.96
398.556	5.75
398.763	5.79
398.97	5.54
399.177	5.4
399.383	5.35
399.59	5.27
399.797	5.37
400.004	5.33
400.211	5.17
400.418	5.05
400.625	5.14
400.831	5.25
401.038	5.33
401.245	5.52
401.452	5.74
401.658	5.71
401.865	5.48
402.072	5.51
402.279	5.43
402.485	5.38
402.692	5.44
402.899	5.36
403.105	5.4
403.312	5.24
403.519	5.01
403.725	5.02
403.932	5.01
404.138	5.22
404.345	4.99
404.552	5.08
404.758	5.07
404.965	4.94
405.171	4.94
405.378	4.86
405.584	4.94
405.791	4.99
405.997	4.86
406.204	4.84
406.41	4.82
406.617	5.08
406.823	5.15
407.029	5.19
407.236	5.21
407.442	5.15
407.649	5.09
407.855	5.08
408.061	5
408.268	4.88
408.474	4.87
408.68	4.75
408.887	4.64
409.093	4.44
409.299	4.4
409.505	4.41
409.712	4.33
409.918	4.35
410.124	4.51
410.33	4.69
410.537	4.84
410.743	4.84
410.949	4.85
411.155	4.84
411.361	4.9
411.567	5.01
411.773	5.04
411.98	5.08
412.186	4.94
412.392	4.93
412.598	4.83
412.804	4.81
413.01	4.75
413.216	4.87
413.422	4.69
413.628	4.67
413.834	4.59
414.04	4.61
414.246	4.74
414.452	4.91
414.658	4.87
414.864	4.78
415.07	4.64
415.275	4.49
415.481	4.47
415.687	4.5
415.893	4.55
416.099	4.3
416.305	4.2
416.511	3.96
416.716	3.93
416.922	3.86
417.128	3.89
417.334	3.84
417.539	3.87
417.745	3.74
417.951	3.79
418.157	3.74
418.362	3.92
418.568	3.91
418.774	3.89
418.979	3.9
419.185	3.91
419.391	3.91
419.596	3.98
419.802	3.96
420.008	3.95
420.213	3.95
420.419	3.89
420.624	3.74
420.83	3.81
421.035	3.85
421.241	3.75
421.446	3.75
421.652	3.69
421.857	3.64
422.063	3.71
422.268	3.72
422.474	3.71
422.679	3.78
422.885	3.83
423.09	3.79
423.295	3.76
423.501	3.86
423.706	3.77
423.911	3.77
424.117	3.79
424.322	3.76
424.527	3.74
424.733	3.7
424.938	3.58
425.143	3.56
425.349	3.52
425.554	3.49
425.759	3.39
425.964	3.4
426.169	3.46
426.375	3.43
426.58	3.45
426.785	3.42
426.99	3.38
427.195	3.54
427.4	3.67
427.605	3.72
427.811	3.82
428.016	3.83
428.221	3.85
428.426	3.79
428.631	3.81
428.836	3.76
429.041	3.72
429.246	3.63
429.451	3.55
429.656	3.44
429.861	3.45
430.066	3.49
430.271	3.45
430.476	3.38
430.681	3.33
430.886	3.26
431.09	3.28
431.295	3.41
431.5	3.57
431.705	3.57
431.91	3.52
432.115	3.43
432.32	3.38
432.524	3.4
432.729	3.52
432.934	3.54
433.139	3.61
433.343	3.63
433.548	3.59
433.753	3.57
433.958	3.53
434.162	3.59
434.367	3.65
434.572	3.57
434.776	3.55
434.981	3.55
435.186	3.65
435.39	3.68
435.595	3.62
435.799	3.58
436.004	3.57
436.209	3.69
436.413	3.74
436.618	3.67
436.822	3.7
437.027	3.72
437.231	3.6
437.436	3.48
437.64	3.35
437.845	3.33
438.049	3.36
438.253	3.31
438.458	3.18
438.662	3.03
438.867	3.17
439.071	3.18
439.275	3.21
439.48	3.19
439.684	3.25
439.888	3.28
440.093	3.32
440.297	3.24
440.501	3.27
440.706	3.27
440.91	3.33
441.114	3.22
441.318	3.24
441.523	3.16
441.727	3.2
441.931	3.14
442.135	3.18
442.339	3.22
442.543	3.27
442.748	3.23
442.952	3.21
443.156	3.21
443.36	3.23
443.564	3.15
443.768	3.22
443.972	3.2
444.176	3.21
444.38	3.18
444.584	3.19
444.788	3.26
444.992	3.24
445.196	3.2
445.4	3.31
445.604	3.27
445.808	3.31
446.012	3.28
446.216	3.33
446.42	3.29
446.624	3.21
446.828	3.15
447.032	3.06
447.235	3.08
447.439	3.04
447.643	2.93
447.847	2.98
448.051	2.94
448.254	2.95
448.458	2.9
448.662	2.96
448.866	3.05
449.069	3.07
449.273	3.05
449.477	3.09
449.681	3.15
449.884	3.2
450.088	3.22
450.292	3.39
450.495	3.41
450.699	3.45
450.902	3.42
451.106	3.35
451.31	3.43
451.513	3.49
451.717	3.48
451.92	3.5
452.124	3.41
452.327	3.34
452.531	3.27
452.734	3.16
452.938	3.08
453.141	2.99
453.345	3.1
453.548	3.01
453.752	3.01
453.955	3
454.158	3.04
454.362	3.18
454.565	3.23
454.769	3.18
454.972	3.27
455.175	3.36
455.379	3.48
455.582	3.47
455.785	3.49
455.988	3.44
456.192	3.43
456.395	3.39
456.598	3.36
456.801	3.34
457.005	3.44
457.208	3.45
457.411	3.41
457.614	3.28
457.817	3.12
458.021	3.05
458.224	3.12
458.427	3.16
458.63	3.14
458.833	3.05
459.036	2.97
459.239	2.93
459.442	2.92
459.645	2.93
459.848	2.89
460.051	2.94
460.254	2.96
460.457	2.92
460.66	2.88
460.863	2.9
461.066	2.9
461.269	2.98
461.472	3.02
461.675	3.08
461.878	3.16
462.081	3.26
462.284	3.33
462.486	3.36
462.689	3.43
462.892	3.45
463.095	3.46
463.298	3.58
463.5	3.56
463.703	3.57
463.906	3.48
464.109	3.43
464.311	3.36
464.514	3.31
464.717	3.29
464.92	3.27
465.122	3.35
465.325	3.28
465.528	3.31
465.73	3.32
465.933	3.3
466.135	3.4
466.338	3.41
466.541	3.54
466.743	3.55
466.946	3.62
467.148	3.59
467.351	3.51
467.553	3.64
467.756	3.53
