Data from 2938824__Reflection_01.txt Node
Date: Thu Mar 12 14:00:51 EDT 2015
User: robert
Spectrometer: USB4E03002
Autoset integration time: false
Trigger mode: 4
Integration Time (sec): 1.000000E-1
Scans to average: 10
Electric dark correction enabled: false
Nonlinearity correction enabled: false
Boxcar width: 5
Stray light correction enabled: false
XAxis mode: Wavelengths
Stop averaging: false
Number of Pixels in Spectrum: 3648
>>>>>Begin Spectral Data<<<<<
177.575	129.12
177.794	144.04
178.014	130.87
178.233	140.69
178.452	119.05
178.672	144.91
178.891	137.56
179.11	161.62
179.33	144.05
179.549	181.97
179.768	241.35
179.987	336.88
180.207	394.74
180.426	302.44
180.645	341.8
180.864	446.77
181.084	278.76
181.303	394.71
181.522	314.04
181.741	379.49
181.96	285.08
182.179	162.26
182.398	125.37
182.618	130.83
182.837	140.78
183.056	133.07
183.275	198.98
183.494	148.26
183.713	107.29
183.932	125.08
184.151	135.08
184.37	154.04
184.589	121.62
184.808	119.02
185.027	80.15
185.246	79.55
185.465	60.32
185.684	84.94
185.903	90.7
186.122	146.32
186.341	65.45
186.56	81.4
186.779	286.78
186.998	394.83
187.216	281.44
187.435	188.45
187.654	263.29
187.873	292.95
188.092	293.4
188.311	3526.32
188.53	-5978.57
188.748	-3203.23
188.967	-27425
189.186	704.13
189.405	482.18
189.623	984.54
189.842	-547.06
190.061	-692.44
190.28	-901.96
190.498	99300
190.717	725.87
190.936	14920
191.154	1158.06
191.373	695.15
191.592	-1514.58
191.81	572.11
192.029	905.33
192.248	403.01
192.466	338.81
192.685	229.3
192.904	321.43
193.122	218.18
193.341	153.05
193.559	101.02
193.778	97.58
193.996	77.66
194.215	75.14
194.433	67.74
194.652	72.18
194.87	79.56
195.089	91.28
195.307	48.27
195.526	52.7
195.744	83.19
195.963	196.6
196.181	-5440
196.399	276.83
196.618	207.73
196.836	213.07
197.055	3108.33
197.273	182.43
197.491	155.22
197.71	196.65
197.928	181.18
198.146	210.5
198.365	170.9
198.583	189.53
198.801	161.89
199.019	197.09
199.238	189.97
199.456	121.12
199.674	146.88
199.892	155.83
200.111	120.53
200.329	118.62
200.547	132.52
200.765	96.81
200.983	82.89
201.202	84.88
201.42	83.31
201.638	81.35
201.856	75.16
202.074	91.08
202.292	109.54
202.51	118
202.728	127.75
202.946	151.32
203.165	164.44
203.383	165.3
203.601	162.79
203.819	196.83
204.037	252.94
204.255	183.16
204.473	173.75
204.691	116.04
204.909	67.17
205.127	67.19
205.345	42.66
205.562	43.73
205.78	43.2
205.998	47.43
206.216	46.43
206.434	58.65
206.652	67.91
206.87	65.03
207.088	69.72
207.306	75.5
207.523	74.04
207.741	83.92
207.959	81.52
208.177	97.74
208.395	111.66
208.612	113.43
208.83	126.23
209.048	131.91
209.266	126.21
209.483	109.24
209.701	114.65
209.919	120.59
210.136	147.55
210.354	152.77
210.572	138.31
210.79	125.55
211.007	108.96
211.225	101.5
211.442	113.13
211.66	128.23
211.878	156.46
212.095	132.2
212.313	135.83
212.53	125.42
212.748	116.64
212.966	108.23
213.183	106.12
213.401	125.42
213.618	121.98
213.836	115.62
214.053	110.34
214.271	102.7
214.488	130.2
214.705	126.75
214.923	104.96
215.14	98.97
215.358	105.17
215.575	99.9
215.793	102.72
216.01	94.73
216.227	93.15
216.445	82.4
216.662	88.99
216.879	75.62
217.097	73.48
217.314	66.96
217.531	68.55
217.749	60.78
217.966	63.71
218.183	73.6
218.4	75.04
218.618	63.04
218.835	65.44
219.052	46.13
219.269	40.76
219.487	37.21
219.704	38.98
219.921	36.88
220.138	38.68
220.355	41.05
220.572	38.2
220.79	37.25
221.007	43.86
221.224	38.7
221.441	38.36
221.658	31.7
221.875	31.06
222.092	35.35
222.309	33.15
222.526	34.85
222.743	31.1
222.96	27.91
223.177	26.48
223.394	27.69
223.611	29.18
223.828	31.76
224.045	34.94
224.262	38.17
224.479	31.21
224.696	29.4
224.913	27.38
225.13	25.16
225.347	26.56
225.564	24.96
225.781	22.7
225.997	17.48
226.214	15.7
226.431	14.64
226.648	11.21
226.865	10.62
227.082	7.34
227.298	4.25
227.515	5.72
227.732	4.36
227.949	4.39
228.165	3.75
228.382	4.53
228.599	4.48
228.816	5.08
229.032	5.27
229.249	4.85
229.466	5.12
229.682	6.14
229.899	5.58
230.116	6.82
230.332	7.21
230.549	7.44
230.765	7.87
230.982	7.91
231.199	6.51
231.415	6.86
231.632	7.07
231.848	8.6
232.065	7.97
232.281	8.63
232.498	8.66
232.714	7.92
232.931	8.13
233.147	7.23
233.364	8.24
233.58	7.37
233.797	6.42
234.013	9
234.23	7.4
234.446	8.39
234.662	7.46
234.879	5.91
235.095	6.26
235.312	6.92
235.528	8.86
235.744	7.83
235.961	10.21
236.177	10.8
236.393	9.78
236.61	11.98
236.826	11.16
237.042	11.48
237.258	12.34
237.475	13.56
237.691	11.76
237.907	10.48
238.123	10.43
238.339	9.69
238.556	8.51
238.772	8.96
238.988	8.41
239.204	8.96
239.42	9.5
239.636	8.26
239.853	7.52
240.069	8.59
240.285	8.3
240.501	7.6
240.717	7.9
240.933	8.03
241.149	7.08
241.365	7.06
241.581	7.47
241.797	6.68
242.013	6.39
242.229	6.58
242.445	6.23
242.661	6.06
242.877	6.32
243.093	5.8
243.309	5.63
243.525	5.39
243.741	4.86
243.957	4.4
244.173	4.61
244.388	5.48
244.604	4.83
244.82	4.82
245.036	4.71
245.252	5.39
245.468	5.33
245.683	5.48
245.899	5.3
246.115	5.47
246.331	5.26
246.547	5.43
246.762	5.18
246.978	5.02
247.194	5.01
247.409	4.75
247.625	4.59
247.841	5.01
248.057	5.02
248.272	5.5
248.488	5.38
248.703	5.27
248.919	5.37
249.135	4.99
249.35	5.53
249.566	5.86
249.782	6.74
249.997	6.7
250.213	5.67
250.428	6.1
250.644	6.19
250.859	6.21
251.075	5.56
251.29	5.4
251.506	5.63
251.721	5.21
251.937	4.54
252.152	4.41
252.368	4.71
252.583	4.65
252.798	4.13
253.014	3.95
253.229	3.66
253.445	4.43
253.66	3.89
253.875	4.02
254.091	4.51
254.306	5.15
254.521	4.96
254.737	4.03
254.952	4.25
255.167	3.78
255.383	3.27
255.598	3.35
255.813	3.11
256.028	3.21
256.244	3.1
256.459	2.69
256.674	2.36
256.889	2.52
257.104	3.26
257.32	3.96
257.535	4.08
257.75	4.37
257.965	4.22
258.18	4
258.395	3.92
258.61	3.91
258.826	3.74
259.041	3.52
259.256	3.41
259.471	3.14
259.686	2.73
259.901	3.02
260.116	2.92
260.331	2.89
260.546	3.08
260.761	3.08
260.976	2.96
261.191	2.89
261.406	3.23
261.621	3.44
261.836	3.51
262.05	3.53
262.265	3.41
262.48	3.37
262.695	3.47
262.91	3.7
263.125	3.68
263.34	3.75
263.555	4.14
263.769	3.91
263.984	3.41
264.199	3.94
264.414	4.51
264.629	4.27
264.843	4.37
265.058	4.66
265.273	4.42
265.488	4.04
265.702	3.82
265.917	4.2
266.132	4.1
266.346	4.35
266.561	4.3
266.776	4.45
266.99	4.43
267.205	4.78
267.42	4.5
267.634	4.23
267.849	4.21
268.063	4.72
268.278	4.18
268.492	4.22
268.707	4.08
268.922	4.15
269.136	3.58
269.351	3.48
269.565	2.35
269.78	2.64
269.994	2.48
270.209	2.93
270.423	2.76
270.637	2.64
270.852	2.55
271.066	2.73
271.281	2.21
271.495	2.27
271.709	2.45
271.924	3.1
272.138	3.06
272.353	3.17
272.567	2.86
272.781	2.97
272.996	3.13
273.21	3.08
273.424	2.98
273.638	3.52
273.853	3.63
274.067	3.88
274.281	3.92
274.495	3.62
274.71	3.74
274.924	4.11
275.138	3.6
275.352	3.53
275.566	3.83
275.781	3.96
275.995	3.79
276.209	3.76
276.423	2.98
276.637	2.74
276.851	3.23
277.065	3.45
277.279	3.1
277.493	3.81
277.707	3.9
277.921	3.65
278.135	3.39
278.349	3.51
278.563	3.71
278.777	4.43
278.991	3.91
279.205	3.73
279.419	3.43
279.633	3.77
279.847	3.21
280.061	3.44
280.275	3.95
280.489	4.41
280.703	4.5
280.917	4.81
281.131	4.54
281.344	5.26
281.558	5.34
281.772	5.66
281.986	5.28
282.2	5.32
282.414	4.76
282.627	4.38
282.841	4.08
283.055	3.62
283.269	3.44
283.482	3.45
283.696	3.02
283.91	2.94
284.123	2.73
284.337	2.93
284.551	2.92
284.764	2.77
284.978	2.78
285.192	2.67
285.405	2.72
285.619	2.7
285.833	2.53
286.046	2.55
286.26	2.3
286.473	2.26
286.687	2.41
286.9	2.51
287.114	2.93
287.327	3.02
287.541	3.27
287.754	3.39
287.968	3.28
288.181	3.38
288.395	3.37
288.608	3.71
288.822	3.95
289.035	3.77
289.248	3.75
289.462	3.79
289.675	3.62
289.889	3.37
290.102	3.08
290.315	3.32
290.529	3.53
290.742	3.69
290.955	3.39
291.169	3.07
291.382	2.94
291.595	3.02
291.808	3.01
292.022	2.88
292.235	3.09
292.448	3.35
292.661	3.64
292.875	3.57
293.088	3.33
293.301	3.47
293.514	3.39
293.727	3.43
293.94	3.33
294.153	2.99
294.367	3.08
294.58	2.96
294.793	3.03
295.006	2.71
295.219	2.54
295.432	2.84
295.645	3.07
295.858	3.13
296.071	3.34
296.284	3.25
296.497	3.57
296.71	3.69
296.923	3.57
297.136	3.56
297.349	3.7
297.562	3.81
297.775	3.71
297.988	3.76
298.201	4.01
298.414	4.06
298.626	4.26
298.839	4.04
299.052	4.15
299.265	4.11
299.478	4.03
299.691	3.97
299.903	4.12
300.116	4.4
300.329	4.5
300.542	4.17
300.755	4.52
300.967	4.45
301.18	4.54
301.393	4.71
301.605	4.91
301.818	4.94
302.031	4.96
302.243	4.91
302.456	5.03
302.669	5.15
302.881	5.59
303.094	5.31
303.307	5.59
303.519	5.92
303.732	5.85
303.944	6.2
304.157	6.58
304.37	6.7
304.582	6.7
304.795	6.35
305.007	6.38
305.22	6.37
305.432	6.92
305.645	6.83
305.857	7.02
306.069	7.34
306.282	7.22
306.494	7.14
306.707	7.22
306.919	7.49
307.132	7.75
307.344	7.87
307.556	7.98
307.769	7.53
307.981	7.28
308.193	6.9
308.406	6.78
308.618	6.95
308.83	6.84
309.043	6.67
309.255	6.59
309.467	6.7
309.679	6.53
309.892	6.27
310.104	6.42
310.316	6.64
310.528	6.71
310.74	6.62
310.953	6.93
311.165	6.89
311.377	7.07
311.589	7.15
311.801	7.2
312.013	7.14
312.225	7.46
312.437	7.39
312.649	7.35
312.862	7.76
313.074	8.06
313.286	7.87
313.498	8.05
313.71	8.12
313.922	8.18
314.134	8.14
314.346	8.17
314.558	7.94
314.77	8.12
314.982	8.47
315.193	8.55
315.405	8.43
315.617	8.71
315.829	8.99
316.041	9.04
316.253	8.86
316.465	9.08
316.677	9.36
316.888	9.77
317.1	9.91
317.312	9.88
317.524	9.83
317.736	9.89
317.947	9.75
318.159	9.56
318.371	9.58
318.583	9.94
318.794	9.74
319.006	9.8
319.218	9.52
319.43	9.49
319.641	9.82
319.853	9.82
320.064	9.8
320.276	9.68
320.488	9.79
320.699	10.02
320.911	10.33
321.123	10.6
321.334	10.44
321.546	10.44
321.757	10.44
321.969	10.3
322.18	10.54
322.392	11.07
322.603	11.42
322.815	11.46
323.026	11.22
323.238	10.57
323.449	10.53
323.661	10.22
323.872	10.85
324.083	10.66
324.295	10.28
324.506	10.15
324.718	10.21
324.929	9.79
325.14	9.86
325.352	10.06
325.563	10.82
325.774	10.77
325.986	11.48
326.197	11.26
326.408	11.43
326.62	12
326.831	12.34
327.042	12.1
327.253	12.64
327.464	12.94
327.676	12.84
327.887	12.59
328.098	13.19
328.309	13.15
328.52	13.17
328.732	13.6
328.943	13.65
329.154	13.75
329.365	13.8
329.576	14.17
329.787	14.57
329.998	15.21
330.209	15.6
330.42	15.58
330.631	15.84
330.842	16.23
331.053	16.22
331.264	16.54
331.475	16.58
331.686	17.02
331.897	16.77
332.108	16.69
332.319	16.76
332.53	16.91
332.741	16.88
332.952	17.07
333.163	17.36
333.374	17.65
333.585	17.5
333.795	17.56
334.006	17.62
334.217	17.99
334.428	18.21
334.639	18.35
334.849	18.68
335.06	18.75
335.271	18.87
335.482	18.82
335.692	18.36
335.903	18.51
336.114	18.34
336.325	18.45
336.535	18.01
336.746	18.29
336.957	18.08
337.167	17.65
337.378	17.75
337.589	17.5
337.799	17.47
338.01	17.82
338.22	17.65
338.431	18.01
338.642	17.87
338.852	18
339.063	17.54
339.273	17.74
339.484	18.03
339.694	18
339.905	18.1
340.115	18.37
340.326	18.06
340.536	18.11
340.746	17.9
340.957	17.98
341.167	18.18
341.378	18.06
341.588	17.99
341.799	17.81
342.009	17.58
342.219	17.53
342.43	17.52
342.64	18.06
342.85	18.25
343.061	18.43
343.271	18.28
343.481	18.36
343.691	18.58
343.902	18.3
344.112	18.46
344.322	18.45
344.532	18.19
344.743	17.84
344.953	17.62
345.163	17.72
345.373	17.65
345.583	17.89
345.793	17.3
346.004	17.25
346.214	17.49
346.424	17.45
346.634	17.56
346.844	17.39
347.054	17.54
347.264	17.47
347.474	17.33
347.684	17.35
347.894	17.03
348.104	17.73
348.314	17.94
348.524	17.75
348.734	17.54
348.944	17.47
349.154	17.98
349.364	17.86
349.574	17.83
349.784	17.74
349.994	17.61
350.204	17.76
350.413	17.69
350.623	17.32
350.833	17.17
351.043	17.17
351.253	17.31
351.463	17.29
351.672	17.37
351.882	17.37
352.092	17.33
352.302	17.2
352.511	17.32
352.721	17.25
352.931	17.63
353.141	18.11
353.35	18.38
353.56	18.27
353.77	18.32
353.979	18.14
354.189	18.01
354.399	17.96
354.608	18.06
354.818	18.13
355.027	17.88
355.237	17.57
355.447	17.3
355.656	17.02
355.866	16.91
356.075	16.85
356.285	17.1
356.494	17.02
356.704	17.23
356.913	17.38
357.123	17.07
357.332	17.31
357.542	17.48
357.751	17.63
357.96	17.77
358.17	17.87
358.379	17.9
358.589	17.65
358.798	17.78
359.007	17.56
359.217	17.51
359.426	17.39
359.635	17.27
359.845	17.14
360.054	17.17
360.263	16.76
360.472	16.53
360.682	16.4
360.891	16.31
361.1	16.12
361.309	16.22
361.519	16.07
361.728	16.23
361.937	16.12
362.146	16.25
362.355	16
362.564	16.33
362.774	16.45
362.983	16.45
363.192	16.57
363.401	16.6
363.61	16.52
363.819	16.45
364.028	16.23
364.237	16.12
364.446	15.7
364.655	15.71
364.864	15.41
365.073	15.54
365.282	15.49
365.491	15.65
365.7	15.8
365.909	15.79
366.118	15.89
366.327	15.98
366.536	16.24
366.745	16.4
366.954	16.49
367.162	16.6
367.371	16.46
367.58	16.71
367.789	16.64
367.998	16.73
368.207	16.76
368.415	16.84
368.624	16.99
368.833	16.95
369.042	16.87
369.25	16.85
369.459	16.74
369.668	16.92
369.877	16.77
370.085	16.47
370.294	16.15
370.503	16.02
370.711	15.87
370.92	15.92
371.129	15.83
371.337	15.89
371.546	15.84
371.754	16
371.963	15.83
372.171	15.71
372.38	15.82
372.589	16.07
372.797	16.17
373.006	16.24
373.214	16
373.423	15.98
373.631	15.78
373.84	15.74
374.048	15.72
374.256	15.64
374.465	15.44
374.673	15.4
374.882	15.32
375.09	15.15
375.298	14.88
375.507	15.03
375.715	14.8
375.923	14.93
376.132	14.72
376.34	14.66
376.548	14.65
376.757	14.91
376.965	15.08
377.173	14.95
377.381	15.14
377.59	15.3
377.798	15.27
378.006	15.44
378.214	15.36
378.423	15.39
378.631	15.45
378.839	15.29
379.047	15.14
379.255	14.92
379.463	15.09
379.671	14.92
379.879	14.95
380.088	14.69
380.296	14.68
380.504	14.6
380.712	14.9
380.92	14.46
381.128	14.66
381.336	14.84
381.544	14.67
381.752	14.7
381.96	14.75
382.168	14.55
382.376	14.57
382.584	14.35
382.791	14.38
382.999	14.32
383.207	14.51
383.415	14.51
383.623	14.48
383.831	14.66
384.039	14.51
384.247	14.61
384.454	14.75
384.662	14.54
384.87	14.7
385.078	14.68
385.285	14.5
385.493	14.51
385.701	14.48
385.909	14.09
386.116	14.07
386.324	14.14
386.532	13.86
386.739	13.7
386.947	13.86
387.155	13.85
387.362	13.89
387.57	14.03
387.778	14.04
387.985	14.07
388.193	14.34
388.4	14.3
388.608	14.31
388.816	14.5
389.023	14.54
389.231	14.76
389.438	14.76
389.646	14.85
389.853	14.68
390.061	14.71
390.268	14.54
390.475	14.42
390.683	14.45
390.89	14.22
391.098	14.15
391.305	14.09
391.512	13.86
391.72	13.8
391.927	13.76
392.135	13.8
392.342	13.87
392.549	13.97
392.756	13.82
392.964	13.99
393.171	14.01
393.378	14.02
393.586	14.04
393.793	13.88
394	13.92
394.207	13.86
394.414	13.68
394.622	13.56
394.829	13.41
395.036	13.49
395.243	13.11
395.45	13.11
395.657	13.03
395.864	12.98
396.072	13.21
396.279	13.29
396.486	13.3
396.693	13.48
396.9	13.42
397.107	13.64
397.314	13.65
397.521	13.79
397.728	13.94
397.935	13.89
398.142	13.72
398.349	13.61
398.556	13.57
398.763	13.53
398.97	13.29
399.177	13.27
399.383	12.98
399.59	13.18
399.797	13.13
400.004	12.77
400.211	12.84
400.418	13.16
400.625	13.08
400.831	12.8
401.038	12.72
401.245	12.98
401.452	13.01
401.658	13.07
401.865	12.91
402.072	12.82
402.279	12.87
402.485	12.75
402.692	12.53
402.899	12.65
403.105	12.76
403.312	12.82
403.519	12.74
403.725	12.7
403.932	12.76
404.138	12.77
404.345	12.75
404.552	12.91
404.758	12.89
404.965	13.02
405.171	12.95
405.378	12.85
405.584	12.63
405.791	12.54
405.997	12.66
406.204	12.78
406.41	12.72
406.617	12.55
406.823	12.46
407.029	12.63
407.236	12.53
407.442	12.83
407.649	12.96
407.855	13.12
408.061	13.22
408.268	13.01
408.474	12.83
408.68	12.78
408.887	13.17
409.093	13.26
409.299	13.17
409.505	13.29
409.712	13.19
409.918	13.23
410.124	13.44
410.33	13.34
410.537	13.42
410.743	13.47
410.949	13.44
411.155	13.33
411.361	13.34
411.567	13.34
411.773	13.31
411.98	13.26
412.186	13.06
412.392	12.97
412.598	13.01
412.804	13.01
413.01	12.9
413.216	12.9
413.422	12.87
413.628	12.79
413.834	12.85
414.04	12.68
414.246	12.65
414.452	12.69
414.658	12.59
414.864	12.67
415.07	12.58
415.275	12.81
415.481	12.85
415.687	12.97
415.893	12.96
416.099	12.81
416.305	12.8
416.511	12.78
416.716	12.77
416.922	12.75
417.128	12.72
417.334	12.8
417.539	12.68
417.745	12.64
417.951	12.56
418.157	12.5
418.362	12.58
418.568	12.58
418.774	12.48
418.979	12.45
419.185	12.47
419.391	12.46
419.596	12.4
419.802	12.41
420.008	12.55
420.213	12.46
420.419	12.53
420.624	12.42
420.83	12.42
421.035	12.48
421.241	12.52
421.446	12.44
421.652	12.41
421.857	12.44
422.063	12.37
422.268	12.24
422.474	12.29
422.679	12.27
422.885	12.29
423.09	12.32
423.295	12.39
423.501	12.38
423.706	12.41
423.911	12.44
424.117	12.35
424.322	12.39
424.527	12.44
424.733	12.47
424.938	12.49
425.143	12.52
425.349	12.52
425.554	12.46
425.759	12.49
425.964	12.51
426.169	12.5
426.375	12.65
426.58	12.65
426.785	12.56
426.99	12.48
427.195	12.46
427.4	12.53
427.605	12.53
427.811	12.45
428.016	12.41
428.221	12.53
428.426	12.52
428.631	12.43
428.836	12.58
429.041	12.68
429.246	12.75
429.451	12.78
429.656	12.67
429.861	12.63
430.066	12.64
430.271	12.63
430.476	12.56
430.681	12.54
430.886	12.54
431.09	12.41
431.295	12.32
431.5	12.35
431.705	12.15
431.91	12.27
432.115	12.39
432.32	12.47
432.524	12.36
432.729	12.42
432.934	12.35
433.139	12.38
433.343	12.42
433.548	12.45
433.753	12.35
433.958	12.47
434.162	12.46
434.367	12.38
434.572	12.32
434.776	12.41
434.981	12.38
435.186	12.46
435.39	12.45
435.595	12.5
435.799	12.52
436.004	12.62
436.209	12.68
436.413	12.59
436.618	12.54
436.822	12.53
437.027	12.62
437.231	12.65
437.436	12.76
437.64	12.69
437.845	12.56
438.049	12.6
438.253	12.56
438.458	12.5
438.662	12.48
438.867	12.56
439.071	12.6
439.275	12.48
439.48	12.41
439.684	12.37
439.888	12.42
440.093	12.5
440.297	12.45
440.501	12.51
440.706	12.56
440.91	12.6
441.114	12.53
441.318	12.61
441.523	12.69
441.727	12.73
441.931	12.69
442.135	12.73
442.339	12.68
442.543	12.68
442.748	12.63
442.952	12.55
443.156	12.55
443.36	12.61
443.564	12.61
443.768	12.66
443.972	12.6
444.176	12.63
444.38	12.67
444.584	12.7
444.788	12.74
444.992	12.82
445.196	12.94
445.4	12.95
445.604	12.92
445.808	12.85
446.012	12.75
446.216	12.78
446.42	12.79
446.624	12.75
446.828	12.75
447.032	12.71
447.235	12.57
447.439	12.51
447.643	12.5
447.847	12.57
448.051	12.61
448.254	12.68
448.458	12.71
448.662	12.69
448.866	12.74
449.069	12.64
449.273	12.6
449.477	12.71
449.681	12.73
449.884	12.8
450.088	12.78
450.292	12.84
450.495	12.76
450.699	12.78
450.902	12.73
451.106	12.65
451.31	12.83
451.513	12.94
451.717	12.95
451.92	12.94
452.124	12.83
452.327	12.79
452.531	12.66
452.734	12.74
452.938	12.64
453.141	12.66
453.345	12.77
453.548	12.66
453.752	12.69
453.955	12.69
454.158	12.61
454.362	12.66
454.565	12.6
454.769	12.66
454.972	12.58
455.175	12.66
455.379	12.73
455.582	12.6
455.785	12.69
455.988	12.66
456.192	12.73
456.395	12.72
456.598	12.78
456.801	12.71
457.005	12.68
457.208	12.78
457.411	12.72
457.614	12.8
457.817	12.78
458.021	12.68
458.224	12.58
458.427	12.54
458.63	12.6
458.833	12.48
459.036	12.54
459.239	12.47
459.442	12.43
459.645	12.39
459.848	12.26
460.051	12.27
460.254	12.33
460.457	12.38
460.66	12.33
460.863	12.28
