Data from 2938806__Reflection_02.txt Node
Date: Thu Mar 12 22:10:05 EDT 2015
User: robert
Spectrometer: USB4E03002
Autoset integration time: false
Trigger mode: 4
Integration Time (sec): 1.000000E-1
Scans to average: 10
Electric dark correction enabled: false
Nonlinearity correction enabled: false
Boxcar width: 5
Stray light correction enabled: false
XAxis mode: Wavelengths
Stop averaging: false
Number of Pixels in Spectrum: 3648
>>>>>Begin Spectral Data<<<<<
177.575	195.34
177.794	238.46
178.014	225.54
178.233	320.94
178.452	377.37
178.672	478.95
178.891	738.18
179.11	1357.35
179.33	1034.04
179.549	2168.75
179.768	30142.86
179.987	-4382.61
180.207	-3327.42
180.426	-610.54
180.645	-610.09
180.864	-940.74
181.084	-2111.3
181.303	-2213.46
181.522	-4398.04
181.741	-1687.79
181.96	-1944.64
182.179	5945.71
182.398	-9523.81
182.618	11876.47
182.837	2390.24
183.056	1398.52
183.275	2647.76
183.494	3614.29
183.713	3638.46
183.932	-2212.5
184.151	-1218.95
184.37	-1726.17
184.589	-892.42
184.808	-2292.05
185.027	-1273.89
185.246	-5754.29
185.465	-19300
185.684	95950
185.903	-5887.5
186.122	-1101.25
186.341	-1114.55
186.56	-393.48
186.779	-460.5
186.998	-864.29
187.216	-838.86
187.435	-1428.28
187.654	-1433.11
187.873	-1124.19
188.092	-683.39
188.311	-691.18
188.53	-1114.12
188.748	2527.5
188.967	674.14
189.186	577.56
189.405	1337.04
189.623	1190.13
189.842	3016.67
190.061	7547.62
190.28	-3758.14
190.498	1224.36
190.717	-3458.49
190.936	-1906.67
191.154	-655.93
191.373	-1033.33
191.592	-515.22
191.81	-584.69
192.029	-494.84
192.248	-580.39
192.466	-401.82
192.685	-482.49
192.904	-290.7
193.122	-483.86
193.341	-469.91
193.559	-500.93
193.778	-406.8
193.996	-484.79
194.215	-616.38
194.433	-683.2
194.652	-848.72
194.87	-2866.13
195.089	1298.61
195.307	2934.38
195.526	2869.23
195.744	1186.16
195.963	1263.41
196.181	1620.8
196.399	924.23
196.618	827.99
196.836	847.57
197.055	1182.67
197.273	911.9
197.491	2980.82
197.71	953.72
197.928	1085.58
198.146	907.6
198.365	2160.4
198.583	3213.64
198.801	1142.08
199.019	1622.41
199.238	-31080
199.456	1835.16
199.674	5393.94
199.892	862.91
200.111	1046.59
200.329	802.06
200.547	902.83
200.765	656.88
200.983	440.31
201.202	793.9
201.42	793.42
201.638	622.54
201.856	637.3
202.074	704.96
202.292	1477.6
202.51	1130.67
202.728	824.42
202.946	1657.84
203.165	1275.48
203.383	1999.12
203.601	1002.15
203.819	2325
204.037	2124.27
204.255	2460.71
204.473	941.07
204.691	1010
204.909	1122.34
205.127	934.53
205.345	544.56
205.562	502.64
205.78	417.81
205.998	441.87
206.216	264.65
206.434	295.08
206.652	264.03
206.87	245.58
207.088	228.45
207.306	207.16
207.523	209.24
207.741	229.76
207.959	221.45
208.177	253.59
208.395	283.28
208.612	410.57
208.83	264.03
209.048	352.06
209.266	659.57
209.483	614.19
209.701	13590.91
209.919	2293.06
210.136	-4605.41
210.354	-1787.88
210.572	1208.38
210.79	1243.37
211.007	805.07
211.225	-3888.46
211.442	-3727.45
211.66	1300
211.878	2562.86
212.095	1505.38
212.313	2248.78
212.53	569.16
212.748	450
212.966	462.71
213.183	405.84
213.401	382.84
213.618	254.08
213.836	209.27
214.053	264.26
214.271	287.67
214.488	238.67
214.705	283.21
214.923	291.91
215.14	286.42
215.358	271.69
215.575	246.49
215.793	238.41
216.01	341.87
216.227	597.44
216.445	397.87
216.662	295.2
216.879	253.52
217.097	210.7
217.314	251.7
217.531	236.15
217.749	217.6
217.966	250.28
218.183	261.53
218.4	245.49
218.618	253.31
218.835	201.18
219.052	177.84
219.269	183.17
219.487	177.32
219.704	158.89
219.921	159.47
220.138	151.25
220.355	128.49
220.572	123.87
220.79	107.16
221.007	107.08
221.224	113.05
221.441	110.08
221.658	115.91
221.875	108.73
222.092	98.91
222.309	95.02
222.526	107.25
222.743	108.27
222.96	98.14
223.177	102.06
223.394	89.82
223.611	87.02
223.828	85.1
224.045	73.88
224.262	74.57
224.479	72.62
224.696	66.58
224.913	59.03
225.13	56.29
225.347	53.06
225.564	46.32
225.781	45.72
225.997	42.59
226.214	39.42
226.431	36.81
226.648	31.87
226.865	29.24
227.082	27.12
227.298	23.37
227.515	19.88
227.732	18.4
227.949	17.31
228.165	15.87
228.382	14.19
228.599	12.66
228.816	11.87
229.032	9.74
229.249	8.87
229.466	8.66
229.682	8.8
229.899	7.96
230.116	8.8
230.332	8.08
230.549	7.06
230.765	8.25
230.982	9.3
231.199	9.1
231.415	11.94
231.632	13.19
231.848	13.11
232.065	14.19
232.281	16.24
232.498	14.93
232.714	16.99
232.931	19.13
233.147	17.94
233.364	17.7
233.58	21.38
233.797	20.9
234.013	21.01
234.23	20.95
234.446	20.11
234.662	20.35
234.879	21.36
235.095	20.31
235.312	19.82
235.528	21.19
235.744	20.33
235.961	18.43
236.177	19.37
236.393	18.23
236.61	18.01
236.826	17.32
237.042	16.66
237.258	14.97
237.475	16.41
237.691	19.11
237.907	16.82
238.123	17.74
238.339	16.25
238.556	16.21
238.772	15.98
238.988	16.01
239.204	15.15
239.42	14.82
239.636	15.52
239.853	14.44
240.069	11.74
240.285	11.71
240.501	10.21
240.717	9.3
240.933	7.61
241.149	7.74
241.365	6.82
241.581	7.15
241.797	6.6
242.013	5.92
242.229	5.45
242.445	5.44
242.661	5.92
242.877	6.47
243.093	6.99
243.309	7.31
243.525	7.53
243.741	8.21
243.957	8.35
244.173	8.46
244.388	9.3
244.604	9.31
244.82	9.29
245.036	8.66
245.252	7.88
245.468	7.34
245.683	7.4
245.899	6.45
246.115	6.17
246.331	5.82
246.547	5.58
246.762	5.2
246.978	5.14
247.194	4.91
247.409	4.92
247.625	4.72
247.841	4.63
248.057	4.61
248.272	4.94
248.488	4.83
248.703	5.14
248.919	5.94
249.135	6.32
249.35	6.79
249.566	7.06
249.782	7.41
249.997	8.09
250.213	8.43
250.428	8.56
250.644	8.93
250.859	9.5
251.075	9.17
251.29	7.95
251.506	7.22
251.721	6.64
251.937	7.14
252.152	7.11
252.368	7.31
252.583	8.05
252.798	8.83
253.014	8.71
253.229	8.72
253.445	8.78
253.66	9.85
253.875	11.15
254.091	11.84
254.306	12.44
254.521	13.19
254.737	14
254.952	13.43
255.167	12.13
255.383	12.67
255.598	13
255.813	12.96
256.028	11.78
256.244	11.19
256.459	11.9
256.674	11.44
256.889	10.38
257.104	9.55
257.32	9.09
257.535	8.62
257.75	7.75
257.965	6.86
258.18	6.38
258.395	6.13
258.61	5.3
258.826	4.44
259.041	3.87
259.256	3.55
259.471	3.56
259.686	3.64
259.901	3.57
260.116	3.87
260.331	3.71
260.546	3.85
260.761	3.86
260.976	4.3
261.191	4.23
261.406	4.61
261.621	4.93
261.836	4.79
262.05	4.98
262.265	5.5
262.48	5.46
262.695	5.91
262.91	6.14
263.125	6.42
263.34	6.77
263.555	7.96
263.769	8.18
263.984	8.68
264.199	9.49
264.414	9.16
264.629	9.12
264.843	9.05
265.058	8.86
265.273	8.39
265.488	8.79
265.702	8.18
265.917	7.68
266.132	7.79
266.346	8.08
266.561	7.33
266.776	6.96
266.99	6.98
267.205	7.06
267.42	7.12
267.634	7.43
267.849	7.11
268.063	7.38
268.278	7.31
268.492	7.3
268.707	6.91
268.922	7.57
269.136	8.17
269.351	7.67
269.565	7.47
269.78	7.77
269.994	7.8
270.209	7.78
270.423	7.41
270.637	7.12
270.852	6.75
271.066	6.68
271.281	6.35
271.495	6.09
271.709	5.93
271.924	5.76
272.138	5.56
272.353	5.29
272.567	4.96
272.781	4.87
272.996	4.92
273.21	4.84
273.424	5.01
273.638	5.07
273.853	4.87
274.067	5.11
274.281	5.36
274.495	5.53
274.71	5.66
274.924	6.4
275.138	6.43
275.352	6.89
275.566	7.13
275.781	6.65
275.995	6.39
276.209	6.75
276.423	6.95
276.637	6.4
276.851	5.82
277.065	5.97
277.279	5.25
277.493	5.53
277.707	5.25
277.921	5.25
278.135	4.99
278.349	5.32
278.563	5.41
278.777	5.41
278.991	5.73
279.205	6.31
279.419	6.05
279.633	6.76
279.847	6.41
280.061	6.04
280.275	5.87
280.489	6.53
280.703	5.9
280.917	5.77
281.131	5.53
281.344	5.88
281.558	5.73
281.772	5.99
281.986	5.36
282.2	5.64
282.414	5.86
282.627	5.82
282.841	5.5
283.055	5.67
283.269	5.8
283.482	5.74
283.696	5.23
283.91	5.23
284.123	4.7
284.337	4.7
284.551	4.38
284.764	4.41
284.978	4.3
285.192	4.26
285.405	4.42
285.619	4.26
285.833	4.14
286.046	4.11
286.26	3.97
286.473	3.94
286.687	4.3
286.9	4.48
287.114	4.61
287.327	4.64
287.541	4.73
287.754	4.91
287.968	4.97
288.181	5.1
288.395	5.49
288.608	5.74
288.822	6.2
289.035	6.21
289.248	6.03
289.462	5.61
289.675	5.51
289.889	5.66
290.102	5.31
290.315	5.39
290.529	5.48
290.742	5.18
290.955	5.09
291.169	5.18
291.382	5.15
291.595	5.05
291.808	5.49
292.022	5.59
292.235	5.41
292.448	5.61
292.661	5.84
292.875	6.01
293.088	6.48
293.301	6.19
293.514	5.49
293.727	5.03
293.94	5.3
294.153	5.12
294.367	5.16
294.58	4.83
294.793	4.9
295.006	4.48
295.219	4.27
295.432	4.05
295.645	3.96
295.858	4.22
296.071	4.37
296.284	4.53
296.497	4.31
296.71	4.33
296.923	4.33
297.136	4.13
297.349	4.08
297.562	4.05
297.775	3.8
297.988	3.86
298.201	3.89
298.414	4.18
298.626	3.99
298.839	4.39
299.052	4.24
299.265	4.64
299.478	5.01
299.691	5.36
299.903	5.37
300.116	5.74
300.329	5.87
300.542	6.17
300.755	6.05
300.967	6.21
301.18	6.14
301.393	6.59
301.605	6.4
301.818	6.18
302.031	6.23
302.243	6.5
302.456	6.75
302.669	6.92
302.881	6.55
303.094	6.7
303.307	6.72
303.519	6.59
303.732	6.26
303.944	6.59
304.157	6.63
304.37	6.49
304.582	6.66
304.795	6.61
305.007	6.58
305.22	6.89
305.432	6.12
305.645	6.16
305.857	6.37
306.069	6.79
306.282	6.42
306.494	6.65
306.707	6.82
306.919	6.83
307.132	6.55
307.344	6.8
307.556	6.99
307.769	7.64
307.981	7.49
308.193	7.39
308.406	7.15
308.618	7.33
308.83	7.15
309.043	7.16
309.255	7.07
309.467	7.24
309.679	7.06
309.892	6.54
310.104	6.4
310.316	6.52
310.528	6.62
310.74	6.61
310.953	6.56
311.165	6.41
311.377	6.32
311.589	6.21
311.801	6
312.013	5.95
312.225	6.22
312.437	6.22
312.649	6.45
312.862	6.2
313.074	6.29
313.286	6.37
313.498	6.73
313.71	6.55
313.922	6.57
314.134	6.91
314.346	6.79
314.558	7.31
314.77	7.37
314.982	7.17
315.193	7.47
315.405	7.74
315.617	7.92
315.829	7.79
316.041	8.14
316.253	8.26
316.465	8.25
316.677	8.8
316.888	8.66
317.1	8.91
317.312	9
317.524	8.78
317.736	8.47
317.947	8.59
318.159	8.97
318.371	8.97
318.583	8.9
318.794	9.03
319.006	8.91
319.218	8.73
319.43	9.06
319.641	9.11
319.853	9.58
320.064	10.22
320.276	10.02
320.488	9.94
320.699	10.21
320.911	10.95
321.123	10.75
321.334	10.99
321.546	10.96
321.757	10.37
321.969	10.46
322.18	10.11
322.392	9.91
322.603	9.95
322.815	9.8
323.026	9.48
323.238	9.29
323.449	9.42
323.661	9.15
323.872	9.1
324.083	9.46
324.295	9.25
324.506	9.7
324.718	9.4
324.929	9.47
325.14	9.66
325.352	9.96
325.563	9.8
325.774	9.84
325.986	9.97
326.197	10.16
326.408	10.15
326.62	10.21
326.831	10.26
327.042	10.93
327.253	10.96
327.464	10.84
327.676	10.85
327.887	11.07
328.098	11.61
328.309	11.69
328.52	11.77
328.732	11.79
328.943	12.27
329.154	12.47
329.365	12.35
329.576	12.72
329.787	13.22
329.998	13.31
330.209	13.17
330.42	13.19
330.631	13.25
330.842	13.13
331.053	13.13
331.264	13.04
331.475	12.86
331.686	12.77
331.897	12.69
332.108	12.56
332.319	12.74
332.53	13.04
332.741	13.01
332.952	12.92
333.163	13.31
333.374	13.51
333.585	13.07
333.795	13.05
334.006	13.02
334.217	13.15
334.428	13.37
334.639	13.31
334.849	13.28
335.06	13.13
335.271	13.48
335.482	13.31
335.692	13.33
335.903	13.54
336.114	13.56
336.325	13.72
336.535	13.78
336.746	14
336.957	13.75
337.167	13.61
337.378	13.88
337.589	13.89
337.799	13.76
338.01	13.61
338.22	13.89
338.431	13.67
338.642	13.56
338.852	13.58
339.063	13.36
339.273	13.61
339.484	13.84
339.694	13.61
339.905	13.52
340.115	13.91
340.326	14.01
340.536	14.07
340.746	14.44
340.957	14.28
341.167	14.3
341.378	14.19
341.588	14.12
341.799	13.89
342.009	13.77
342.219	13.97
342.43	13.64
342.64	13.62
342.85	13.56
343.061	13.34
343.271	13.39
343.481	13.01
343.691	12.68
343.902	12.76
344.112	12.9
344.322	12.96
344.532	12.94
344.743	12.73
344.953	12.77
345.163	12.94
345.373	12.98
345.583	13.03
345.793	13.1
346.004	13.15
346.214	13.07
346.424	13.08
346.634	13.16
346.844	12.99
347.054	13.16
347.264	13.01
347.474	12.57
347.684	12.52
347.894	12.42
348.104	12.76
348.314	12.9
348.524	12.7
348.734	12.76
348.944	12.72
349.154	12.56
349.364	12.8
349.574	12.66
349.784	12.81
349.994	13.22
350.204	13.01
350.413	12.76
350.623	12.96
350.833	13.09
351.043	13.04
351.253	12.8
351.463	13.03
351.672	12.71
351.882	12.7
352.092	12.43
352.302	11.77
352.511	11.85
352.721	11.88
352.931	11.46
353.141	11.36
353.35	11.5
353.56	11.63
353.77	11.66
353.979	12.11
354.189	12.28
354.399	12.35
354.608	12.44
354.818	12.37
355.027	12.37
355.237	12.64
355.447	12.72
355.656	12.52
355.866	12.32
356.075	12.38
356.285	12.24
356.494	12.06
356.704	12.43
356.913	12.42
357.123	12.63
357.332	12.42
357.542	12.18
357.751	12.07
357.96	11.77
358.17	11.76
358.379	11.56
358.589	11.61
358.798	11.61
359.007	11.35
359.217	11.19
359.426	11.17
359.635	11.29
359.845	11.26
360.054	11.17
360.263	11.35
360.472	11.22
360.682	11.15
360.891	10.9
361.1	10.8
361.309	10.61
361.519	10.85
361.728	10.92
361.937	10.88
362.146	10.95
362.355	11.08
362.564	10.99
362.774	11.09
362.983	11.06
363.192	11.11
363.401	11.35
363.61	11.49
363.819	11.47
364.028	11.48
364.237	11.57
364.446	11.42
364.655	11.24
364.864	11.28
365.073	11.53
365.282	11.65
365.491	11.51
365.7	11.48
365.909	11.69
366.118	11.53
366.327	11.55
366.536	11.61
366.745	11.9
366.954	12.13
367.162	12.05
367.371	11.77
367.58	11.63
367.789	11.96
367.998	11.82
368.207	11.43
368.415	11.76
368.624	11.6
368.833	11.28
369.042	11.14
369.25	11.03
369.459	11.2
369.668	11.46
369.877	11.57
370.085	11.29
370.294	11.46
370.503	11.59
370.711	11.31
370.92	11.39
371.129	11.45
371.337	11.39
371.546	11.36
371.754	11.49
371.963	11.28
372.171	11.48
372.38	11.65
372.589	11.7
372.797	11.82
373.006	11.82
373.214	11.91
373.423	11.84
373.631	11.93
373.84	12.01
374.048	11.76
374.256	11.83
374.465	11.66
374.673	11.52
374.882	11.38
375.09	11.42
375.298	11.51
375.507	11.06
375.715	11.16
375.923	11.17
376.132	10.94
376.34	10.96
376.548	11.12
376.757	11.25
376.965	11.19
377.173	11.14
377.381	11.05
377.59	11.07
377.798	11.14
378.006	10.93
378.214	10.88
378.423	10.99
378.631	10.98
378.839	10.57
379.047	10.44
379.255	10.43
379.463	10.61
379.671	10.69
379.879	10.48
380.088	10.66
380.296	10.74
380.504	10.87
380.712	11
380.92	10.87
381.128	11.16
381.336	10.9
381.544	11.11
381.752	11
381.96	10.7
382.168	10.99
382.376	10.84
382.584	10.79
382.791	10.64
382.999	10.61
383.207	10.81
383.415	10.85
383.623	11.14
383.831	10.91
384.039	10.78
384.247	10.78
384.454	10.73
384.662	10.77
384.87	10.92
385.078	11.05
385.285	11.13
385.493	11.19
385.701	11.07
385.909	10.83
386.116	10.97
386.324	11.06
386.532	11.16
386.739	11.09
386.947	10.98
387.155	10.97
387.362	10.89
387.57	10.59
387.778	10.54
387.985	10.6
388.193	10.81
388.4	10.78
388.608	10.81
388.816	10.8
389.023	10.78
389.231	10.88
389.438	10.92
389.646	10.97
389.853	11.13
390.061	10.81
390.268	10.71
390.475	10.7
390.683	10.77
390.89	10.74
391.098	10.85
391.305	10.73
391.512	10.72
391.72	10.61
391.927	10.55
392.135	10.77
392.342	10.99
392.549	11.17
392.756	10.91
392.964	10.74
393.171	10.77
393.378	10.92
393.586	10.91
393.793	10.93
394	11.08
394.207	10.95
394.414	10.7
394.622	10.68
394.829	10.47
395.036	10.63
395.243	10.65
395.45	10.71
395.657	10.49
395.864	10.63
396.072	10.73
396.279	10.68
396.486	10.78
396.693	10.64
396.9	10.51
397.107	10.47
397.314	10.47
397.521	10.63
397.728	10.37
397.935	10.23
398.142	10.21
398.349	10.08
398.556	10.08
398.763	10.07
398.97	10.12
399.177	10.18
399.383	10.4
399.59	10.21
399.797	10.17
400.004	10.45
400.211	10.54
400.418	10.6
400.625	10.76
400.831	10.98
401.038	11.04
401.245	11
401.452	11.19
401.658	11.18
401.865	11.17
402.072	11.02
402.279	11.05
402.485	10.95
402.692	10.86
402.899	10.85
403.105	10.71
403.312	10.63
403.519	10.49
403.725	10.31
403.932	10.12
404.138	10.28
404.345	10.31
404.552	10.14
404.758	10.16
404.965	10.12
405.171	10.01
405.378	9.96
405.584	9.97
405.791	10.2
405.997	10.19
406.204	10.35
406.41	10.35
406.617	10.39
406.823	10.36
407.029	10.5
407.236	10.6
407.442	10.55
407.649	10.59
407.855	10.67
408.061	10.71
408.268	10.88
408.474	10.85
408.68	10.87
408.887	10.92
409.093	10.97
409.299	10.88
409.505	10.85
409.712	10.89
409.918	10.87
410.124	10.71
410.33	10.65
410.537	10.46
410.743	10.44
410.949	10.38
411.155	10.25
411.361	10.21
411.567	10.14
411.773	10.06
411.98	10.11
412.186	10.04
412.392	10.15
412.598	10.17
412.804	10.15
413.01	10.24
413.216	10.23
413.422	10.31
413.628	10.31
413.834	10.44
414.04	10.48
414.246	10.45
414.452	10.4
414.658	10.42
414.864	10.29
415.07	10.41
415.275	10.24
415.481	10.11
415.687	10.17
415.893	10.13
416.099	9.96
416.305	9.9
416.511	9.82
416.716	9.9
416.922	9.83
417.128	9.93
417.334	9.94
417.539	9.96
417.745	10.04
417.951	9.91
418.157	9.95
418.362	9.98
418.568	10
418.774	9.94
418.979	9.92
419.185	9.89
419.391	9.77
419.596	9.69
419.802	9.63
420.008	9.59
420.213	10.01
420.419	9.92
420.624	9.91
420.83	9.83
421.035	9.76
421.241	9.66
421.446	9.59
421.652	9.74
421.857	9.76
422.063	9.71
422.268	9.75
422.474	9.37
422.679	9.38
422.885	9.38
423.09	9.34
423.295	9.36
423.501	9.39
423.706	9.37
423.911	9.21
424.117	9.18
424.322	9.29
424.527	9.22
424.733	9.18
424.938	9.13
425.143	9.08
425.349	9.15
425.554	9.11
425.759	9.09
425.964	9.18
426.169	9.28
426.375	9.34
426.58	9.21
426.785	9.29
426.99	9.33
427.195	9.41
427.4	9.53
427.605	9.53
427.811	9.77
428.016	9.87
428.221	9.83
428.426	9.77
428.631	9.6
428.836	9.67
429.041	9.49
429.246	9.56
429.451	9.58
429.656	9.64
429.861	9.67
430.066	9.44
430.271	9.35
430.476	9.33
430.681	9.3
430.886	9.44
431.09	9.51
431.295	9.64
431.5	9.59
431.705	9.63
431.91	9.57
432.115	9.54
432.32	9.54
432.524	9.58
432.729	9.65
432.934	9.64
433.139	9.66
433.343	9.62
433.548	9.6
433.753	9.6
433.958	9.57
434.162	9.55
434.367	9.63
434.572	9.74
434.776	9.81
434.981	9.89
435.186	9.93
435.39	9.98
435.595	9.92
435.799	9.95
436.004	10.01
436.209	9.95
436.413	10.01
436.618	9.87
436.822	9.82
437.027	9.72
437.231	9.63
437.436	9.62
437.64	9.57
437.845	9.68
438.049	9.76
438.253	9.68
438.458	9.71
438.662	9.61
438.867	9.63
439.071	9.67
439.275	9.7
439.48	9.66
439.684	9.62
439.888	9.55
440.093	9.51
440.297	9.39
440.501	9.39
440.706	9.43
440.91	9.51
441.114	9.61
441.318	9.52
441.523	9.59
441.727	9.62
441.931	9.63
442.135	9.61
442.339	9.6
442.543	9.7
442.748	9.75
442.952	9.62
443.156	9.61
443.36	9.48
443.564	9.59
443.768	9.53
443.972	9.45
444.176	9.53
444.38	9.59
444.584	9.66
444.788	9.52
444.992	9.41
445.196	9.48
445.4	9.36
445.604	9.38
445.808	9.28
446.012	9.23
446.216	9.26
446.42	9.21
446.624	9.18
446.828	9.09
447.032	9.21
447.235	9.23
447.439	9.27
447.643	9.36
447.847	9.34
448.051	9.46
448.254	9.45
448.458	9.48
448.662	9.51
448.866	9.54
449.069	9.64
449.273	9.54
449.477	9.53
449.681	9.51
449.884	9.61
450.088	9.62
450.292	9.61
450.495	9.66
450.699	9.68
450.902	9.71
451.106	9.69
451.31	9.61
451.513	9.66
451.717	9.72
451.92	9.79
452.124	9.7
452.327	9.74
452.531	9.73
452.734	9.85
452.938	9.74
453.141	9.7
453.345	9.82
453.548	9.88
453.752	9.93
453.955	9.94
454.158	9.95
454.362	9.87
454.565	9.94
454.769	9.83
454.972	9.73
455.175	9.85
455.379	9.89
455.582	9.88
455.785	9.82
455.988	9.86
456.192	9.8
456.395	9.67
456.598	9.68
456.801	9.61
457.005	9.75
457.208	9.72
457.411	9.69
457.614	9.7
457.817	9.54
458.021	9.5
458.224	9.38
458.427	9.42
458.63	9.38
458.833	9.4
459.036	9.35
459.239	9.29
459.442	9.3
459.645	9.33
459.848	9.32
460.051	9.34
460.254	9.37
