Data from 2938714__Reflection_02.txt Node
Date: Tue Mar 17 19:11:08 EDT 2015
User: robert
Spectrometer: USB4E03002
Autoset integration time: false
Trigger mode: 4
Integration Time (sec): 1.000000E-1
Scans to average: 10
Electric dark correction enabled: false
Nonlinearity correction enabled: false
Boxcar width: 5
Stray light correction enabled: false
XAxis mode: Wavelengths
Stop averaging: false
Number of Pixels in Spectrum: 3648
>>>>>Begin Spectral Data<<<<<
177.575	244.44
177.794	260.57
178.014	289.53
178.233	538.77
178.452	565.27
178.672	879.87
178.891	1801.23
179.11	2345.9
179.33	2476.67
179.549	-1248.51
179.768	-1970.31
179.987	-377.14
180.207	-222
180.426	-210.26
180.645	-427.49
180.864	-409.49
181.084	-397.67
181.303	-511.63
181.522	-318.11
181.741	-189.42
181.96	-335.29
182.179	-307.27
182.398	-444.59
182.618	-517.65
182.837	-479.68
183.056	-376.8
183.275	-341.07
183.494	-1140.54
183.713	-880.75
183.932	-935.54
184.151	-943.95
184.37	-1372.48
184.589	-3029.09
184.808	2867.8
185.027	-1425.45
185.246	-1200
185.465	-1326.55
185.684	-1193.64
185.903	-329.4
186.122	-321.24
186.341	-279.9
186.56	-1345
186.779	-500.4
186.998	-342.69
187.216	-289.65
187.435	-538.12
187.654	-657.84
187.873	-502.9
188.092	-1141.35
188.311	1488.1
188.53	1264.58
188.748	2947.83
188.967	-485.22
189.186	-705.23
189.405	-1207.61
189.623	-901.53
189.842	-1026.02
190.061	-348.06
190.28	-635.68
190.498	-422.57
190.717	-333.85
190.936	-314.51
191.154	-828.06
191.373	-2436
191.592	-3205.13
191.81	2956.1
192.029	1405.68
192.248	-3302.94
192.466	1497.22
192.685	-5205
192.904	3616.67
193.122	538.43
193.341	986.36
193.559	452.56
193.778	670.51
193.996	430.61
194.215	419.67
194.433	340.18
194.652	225.58
194.87	226.43
195.089	228.88
195.307	200
195.526	331.74
195.744	300.35
195.963	358.2
196.181	297.84
196.399	371.67
196.618	583.64
196.836	928.25
197.055	18575
197.273	1902.86
197.491	22033.33
197.71	-327.8
197.928	-119800
198.146	898
198.365	-2954.05
198.583	18928.57
198.801	1800
199.019	2240
199.238	2953.13
199.456	634.08
199.674	535.11
199.892	548.62
200.111	285.32
200.329	725.35
200.547	1340.79
200.765	571.5
200.983	2570
201.202	-3746.87
201.42	6883.33
201.638	976.8
201.856	-4866.67
202.074	1092.92
202.292	513.95
202.51	1226.79
202.728	412.23
202.946	389.28
203.165	453.97
203.383	305.27
203.601	241.35
203.819	237.75
204.037	317.04
204.255	244.01
204.473	291.49
204.691	346.97
204.909	345.52
205.127	344.72
205.345	344.38
205.562	269.54
205.78	363.57
205.998	474.58
206.216	477.36
206.434	343.37
206.652	338.59
206.87	738.69
207.088	401.63
207.306	460.46
207.523	7381.25
207.741	1996.72
207.959	3489.19
208.177	663.05
208.395	513.13
208.612	448
208.83	1388.89
209.048	-3538.24
209.266	3619.35
209.483	-4342.86
209.701	1119.82
209.919	284.68
210.136	271.79
210.354	288.73
210.572	313.31
210.79	284.62
211.007	362.11
211.225	216.05
211.442	222.63
211.66	203.17
211.878	204.98
212.095	235.81
212.313	325.85
212.53	348.57
212.748	270.05
212.966	222.3
213.183	225.74
213.401	215.66
213.618	274.51
213.836	279.74
214.053	293.68
214.271	323.05
214.488	297.41
214.705	257.46
214.923	251.03
215.14	267.49
215.358	400
215.575	415.11
215.793	1654.84
216.01	761.18
216.227	338.51
216.445	296.36
216.662	243.07
216.879	253.05
217.097	266.9
217.314	293.84
217.531	261.1
217.749	234.17
217.966	200.25
218.183	161.87
218.4	155.32
218.618	145.31
218.835	138.58
219.052	133.17
219.269	125.42
219.487	116.61
219.704	104.52
219.921	101.88
220.138	94.57
220.355	103.76
220.572	88.78
220.79	74.2
221.007	83.33
221.224	77.99
221.441	81.81
221.658	74.15
221.875	78.22
222.092	78.19
222.309	67.52
222.526	69.77
222.743	68.85
222.96	70.4
223.177	71.03
223.394	67.46
223.611	68.89
223.828	60.29
224.045	58.83
224.262	53.22
224.479	50.38
224.696	51.82
224.913	50.43
225.13	47.38
225.347	37.13
225.564	34.72
225.781	31.24
225.997	24.5
226.214	24.37
226.431	23.05
226.648	19.65
226.865	17.74
227.082	14.62
227.298	12.13
227.515	11.71
227.732	13.2
227.949	12.04
228.165	11.22
228.382	10.52
228.599	9.8
228.816	10.44
229.032	10.44
229.249	10.57
229.466	10.36
229.682	10.43
229.899	10.08
230.116	9.17
230.332	9.62
230.549	10.35
230.765	12.38
230.982	12.81
231.199	13.12
231.415	14.65
231.632	14.82
231.848	16.33
232.065	16.96
232.281	17.82
232.498	17.75
232.714	17.4
232.931	18.8
233.147	17.23
233.364	18.59
233.58	16.88
233.797	16.67
234.013	16.04
234.23	14.53
234.446	14.51
234.662	14.03
234.879	16
235.095	16.45
235.312	14.62
235.528	13.96
235.744	14.18
235.961	15.38
236.177	14.01
236.393	16.68
236.61	17.62
236.826	18.34
237.042	18.77
237.258	19.03
237.475	18.74
237.691	19.9
237.907	20.74
238.123	17.89
238.339	18.59
238.556	20.28
238.772	16.98
238.988	16.94
239.204	16.03
239.42	15.62
239.636	14.25
239.853	14.11
240.069	13.85
240.285	13.4
240.501	12.91
240.717	11.19
240.933	10.49
241.149	10.33
241.365	9.91
241.581	9.53
241.797	9.06
242.013	8.77
242.229	8.63
242.445	7.94
242.661	6.97
242.877	7.38
243.093	7.46
243.309	7.19
243.525	7.11
243.741	7.57
243.957	7.51
244.173	7.66
244.388	8.37
244.604	8.33
244.82	8.7
245.036	9.41
245.252	9.51
245.468	9.32
245.683	8.76
245.899	8.64
246.115	7.64
246.331	7.65
246.547	7.31
246.762	6.72
246.978	6.29
247.194	6.28
247.409	6.02
247.625	5.67
247.841	5.46
248.057	5.53
248.272	5.49
248.488	5.71
248.703	5.49
248.919	5.61
249.135	5.87
249.35	6.36
249.566	6.82
249.782	7.57
249.997	8.02
250.213	8.31
250.428	8.4
250.644	8.11
250.859	8.15
251.075	8.27
251.29	7.94
251.506	8.1
251.721	7.47
251.937	6.84
252.152	6.25
252.368	5.86
252.583	5.84
252.798	4.91
253.014	5.45
253.229	5.58
253.445	5.6
253.66	6.22
253.875	5.06
254.091	5.28
254.306	4.88
254.521	4.88
254.737	4.69
254.952	4.68
255.167	6.09
255.383	5.91
255.598	5.74
255.813	6.2
256.028	5.3
256.244	6.82
256.459	6.98
256.674	5.77
256.889	6.01
257.104	6.18
257.32	6.35
257.535	6.26
257.75	6.32
257.965	5.91
258.18	5.91
258.395	5.76
258.61	5.48
258.826	5.31
259.041	5.69
259.256	5.5
259.471	5.5
259.686	5.38
259.901	5.34
260.116	5.04
260.331	5.22
260.546	4.82
260.761	5.16
260.976	5.14
261.191	5.29
261.406	5.59
261.621	6.15
261.836	6.29
262.05	6.38
262.265	6.61
262.48	7.02
262.695	6.74
262.91	7.32
263.125	6.94
263.34	7.03
263.555	6.97
263.769	6.95
263.984	5.86
264.199	5.76
264.414	5.3
264.629	5.25
264.843	5.45
265.058	5.7
265.273	5.3
265.488	5.13
265.702	4.84
265.917	4.55
266.132	4.32
266.346	4.22
266.561	4.42
266.776	4.94
266.99	4.76
267.205	4.77
267.42	4.73
267.634	5.17
267.849	5.36
268.063	5.62
268.278	5.72
268.492	5.46
268.707	5.61
268.922	5.56
269.136	5.38
269.351	5.94
269.565	5.35
269.78	5.45
269.994	4.96
270.209	4.88
270.423	4.66
270.637	5.01
270.852	4.77
271.066	4.87
271.281	5.05
271.495	4.95
271.709	4.62
271.924	4.73
272.138	4.88
272.353	4.83
272.567	4.67
272.781	4.58
272.996	4.43
273.21	4.93
273.424	4.88
273.638	4.43
273.853	4.44
274.067	4.44
274.281	4.66
274.495	4.6
274.71	4.55
274.924	5.09
275.138	4.91
275.352	5.06
275.566	4.81
275.781	5.18
275.995	5.42
276.209	5.93
276.423	5.87
276.637	6.08
276.851	5.54
277.065	5.92
277.279	5.26
277.493	5.96
277.707	6.39
277.921	6.61
278.135	6.01
278.349	5.96
278.563	5.23
278.777	5.13
278.991	5.1
279.205	5.41
279.419	5.12
279.633	5.48
279.847	5.28
280.061	4.33
280.275	4.46
280.489	4.87
280.703	4.93
280.917	5.34
281.131	5.5
281.344	5.2
281.558	4.94
281.772	4.89
281.986	5.01
282.2	4.63
282.414	5.28
282.627	4.87
282.841	4.86
283.055	4.58
283.269	4.63
283.482	4.72
283.696	4.97
283.91	5.11
284.123	5.19
284.337	4.97
284.551	5.01
284.764	4.68
284.978	4.6
285.192	4.71
285.405	4.84
285.619	4.48
285.833	4.37
286.046	4.04
286.26	4.11
286.473	4.2
286.687	4.37
286.9	4.47
287.114	4.45
287.327	4.54
287.541	4.41
287.754	4.54
287.968	4.63
288.181	4.63
288.395	5.02
288.608	5.2
288.822	5.14
289.035	5.16
289.248	4.96
289.462	4.8
289.675	4.89
289.889	4.82
290.102	4.69
290.315	4.78
290.529	4.53
290.742	4.26
290.955	4.31
291.169	4.42
291.382	4.12
291.595	4.27
291.808	4.51
292.022	4.86
292.235	5.21
292.448	5.16
292.661	5.27
292.875	5.33
293.088	5.55
293.301	5.62
293.514	5.36
293.727	5.47
293.94	5.26
294.153	5.04
294.367	4.42
294.58	4.37
294.793	4.63
295.006	4.4
295.219	4.55
295.432	4.29
295.645	4.11
295.858	4.19
296.071	4.18
296.284	4.55
296.497	4.56
296.71	4.78
296.923	4.58
297.136	4.52
297.349	4.66
297.562	4.57
297.775	4.82
297.988	4.84
298.201	4.93
298.414	5.2
298.626	5
298.839	5.3
299.052	5.73
299.265	5.99
299.478	6.23
299.691	6.18
299.903	6.61
300.116	6.59
300.329	6.73
300.542	6.63
300.755	6.65
300.967	6.93
301.18	6.62
301.393	6.3
301.605	6.18
301.818	5.89
302.031	6.29
302.243	6
302.456	6.07
302.669	5.82
302.881	6.05
303.094	5.87
303.307	5.66
303.519	5.85
303.732	5.64
303.944	5.81
304.157	6.08
304.37	6.08
304.582	6.38
304.795	6.53
305.007	6.72
305.22	6.89
305.432	6.68
305.645	6.97
305.857	7.11
306.069	7.57
306.282	7.74
306.494	7.73
306.707	7.65
306.919	7.7
307.132	7.47
307.344	7.38
307.556	7.54
307.769	7.91
307.981	7.89
308.193	7.72
308.406	7.57
308.618	7.22
308.83	7.21
309.043	7.04
309.255	7.12
309.467	7.08
309.679	7.11
309.892	6.86
310.104	7.02
310.316	7
310.528	7.22
310.74	7.2
310.953	7.17
311.165	7.18
311.377	7.23
311.589	7.03
311.801	7.11
312.013	7.68
312.225	7.67
312.437	7.61
312.649	7.73
312.862	7.76
313.074	7.76
313.286	8.01
313.498	7.8
313.71	7.84
313.922	7.62
314.134	7.54
314.346	6.88
314.558	7.3
314.77	7.36
314.982	7.78
315.193	7.63
315.405	7.45
315.617	7.38
315.829	7.48
316.041	7.67
316.253	7.9
316.465	8.47
316.677	8.59
316.888	8.32
317.1	8.22
317.312	7.57
317.524	7.65
317.736	8.11
317.947	8.2
318.159	8.84
318.371	8.94
318.583	9.32
318.794	8.94
319.006	9.03
319.218	9.11
319.43	8.81
319.641	9.34
319.853	9.31
320.064	9
320.276	9.41
320.488	9.33
320.699	9.38
320.911	9.03
321.123	9.27
321.334	9.34
321.546	9.54
321.757	10.14
321.969	9.93
322.18	10.18
322.392	10.17
322.603	9.67
322.815	9.48
323.026	9.33
323.238	9.4
323.449	9.41
323.661	9.28
323.872	9.12
324.083	8.57
324.295	8.63
324.506	8.57
324.718	8.73
324.929	9.02
325.14	9.07
325.352	8.91
325.563	8.98
325.774	8.84
325.986	9.07
326.197	9.29
326.408	9.62
326.62	9.55
326.831	9.8
327.042	9.81
327.253	10.02
327.464	10.12
327.676	10.53
327.887	10.77
328.098	10.98
328.309	11.13
328.52	10.93
328.732	11.02
328.943	11.29
329.154	11.04
329.365	11.22
329.576	11.32
329.787	11.52
329.998	11.38
330.209	11.26
330.42	11.57
330.631	11.32
330.842	11.9
331.053	12.03
331.264	11.65
331.475	12
331.686	12.29
331.897	11.86
332.108	12
332.319	12.46
332.53	12.53
332.741	12.17
332.952	12.5
333.163	12.15
333.374	12.06
333.585	12.43
333.795	12.27
334.006	12.07
334.217	12.01
334.428	11.78
334.639	11.76
334.849	11.72
335.06	11.8
335.271	11.78
335.482	12.11
335.692	12.1
335.903	11.87
336.114	11.73
336.325	11.7
336.535	11.77
336.746	11.85
336.957	11.64
337.167	11.69
337.378	11.53
337.589	11.37
337.799	11.06
338.01	11.19
338.22	11.3
338.431	11.38
338.642	11.43
338.852	11.58
339.063	11.59
339.273	11.77
339.484	12.02
339.694	12.27
339.905	12.09
340.115	12.11
340.326	12.04
340.536	12.28
340.746	12.39
340.957	12.56
341.167	12.22
341.378	12.18
341.588	11.92
341.799	11.57
342.009	11.55
342.219	11.65
342.43	11.67
342.64	11.61
342.85	11.28
343.061	11.48
343.271	11.02
343.481	11.44
343.691	11.14
343.902	11.27
344.112	11.31
344.322	11.36
344.532	11.24
344.743	11.11
344.953	11.08
345.163	11.46
345.373	11.15
345.583	11.14
345.793	11.18
346.004	11.66
346.214	11.46
346.424	11.29
346.634	10.9
346.844	10.94
347.054	10.9
347.264	11.11
347.474	10.68
347.684	10.62
347.894	10.93
348.104	10.71
348.314	10.43
348.524	10.2
348.734	10.4
348.944	10.69
349.154	10.72
349.364	10.99
349.574	10.88
349.784	10.81
349.994	10.98
350.204	10.99
350.413	11.15
350.623	10.84
350.833	11.13
351.043	10.92
351.253	10.82
351.463	10.91
351.672	10.67
351.882	10.68
352.092	10.96
352.302	10.99
352.511	11.02
352.721	10.79
352.931	11.11
353.141	11.3
353.35	11.19
353.56	11.25
353.77	11.17
353.979	11.52
354.189	11.55
354.399	11.32
354.608	11.2
354.818	11
355.027	11
355.237	10.95
355.447	10.73
355.656	10.85
355.866	10.82
356.075	10.69
356.285	10.51
356.494	10.58
356.704	10.61
356.913	10.53
357.123	10.38
357.332	10.28
357.542	10.05
357.751	10.02
357.96	10.17
358.17	10.12
358.379	10.29
358.589	10.26
358.798	10.17
359.007	10.18
359.217	10.22
359.426	10.22
359.635	10.26
359.845	10.39
360.054	10.57
360.263	10.38
360.472	10.3
360.682	10.27
360.891	10.32
361.1	9.95
361.309	9.87
361.519	9.85
361.728	9.87
361.937	9.84
362.146	9.86
362.355	9.71
362.564	9.8
362.774	9.86
362.983	9.76
363.192	9.73
363.401	9.87
363.61	9.97
363.819	10.12
364.028	10.15
364.237	10.12
364.446	10.08
364.655	10.03
364.864	10.04
365.073	10.12
365.282	10.03
365.491	9.76
365.7	9.89
365.909	9.81
366.118	9.49
366.327	9.58
366.536	9.71
366.745	9.71
366.954	9.65
367.162	9.49
367.371	9.3
367.58	9.35
367.789	9.58
367.998	9.68
368.207	9.92
368.415	9.96
368.624	9.9
368.833	9.69
369.042	9.65
369.25	9.63
369.459	9.69
369.668	9.64
369.877	9.84
370.085	9.47
370.294	9.28
370.503	9.07
370.711	9.13
370.92	8.99
371.129	9.12
371.337	8.96
371.546	8.79
371.754	8.76
371.963	8.99
372.171	8.68
372.38	8.78
372.589	8.58
372.797	8.44
373.006	8.18
373.214	8.32
373.423	8.13
373.631	8.19
373.84	8.14
374.048	7.98
374.256	7.64
374.465	7.74
374.673	7.41
374.882	7.44
375.09	7.32
375.298	7.16
375.507	7.12
375.715	7.19
375.923	7.11
376.132	7.25
376.34	7.18
376.548	7.38
376.757	7.3
376.965	7.56
377.173	7.76
377.381	7.76
377.59	8.09
377.798	7.77
378.006	7.84
378.214	7.8
378.423	7.87
378.631	8.09
378.839	8.08
379.047	8.08
379.255	8.15
379.463	7.86
379.671	7.96
379.879	7.61
380.088	7.87
380.296	7.86
380.504	8.06
380.712	7.88
380.92	8.09
381.128	8.03
381.336	8.05
381.544	7.77
381.752	7.9
381.96	7.75
382.168	7.91
382.376	7.85
382.584	7.74
382.791	7.47
382.999	7.34
383.207	6.85
383.415	6.7
383.623	6.59
383.831	6.51
384.039	6.31
384.247	6.38
384.454	6.33
384.662	6.47
384.87	6.4
385.078	6.44
385.285	6.47
385.493	6.65
385.701	6.58
385.909	6.37
386.116	6.47
386.324	6.74
386.532	6.59
386.739	6.52
386.947	6.52
387.155	6.42
387.362	6.46
387.57	6.49
387.778	6.23
387.985	6.45
388.193	6.65
388.4	6.59
388.608	6.49
388.816	6.34
389.023	6.15
389.231	5.89
389.438	5.88
389.646	5.68
389.853	5.44
390.061	5.55
390.268	5.14
390.475	5.03
390.683	5.1
390.89	4.9
391.098	5.2
391.305	5.48
391.512	5.43
391.72	5.45
391.927	5.41
392.135	5.61
392.342	5.64
392.549	5.71
392.756	5.51
392.964	5.34
393.171	5.27
393.378	5.11
393.586	4.98
393.793	5.09
394	5.04
394.207	5.08
394.414	5.01
394.622	4.97
394.829	4.97
395.036	5.21
395.243	5.4
395.45	5.43
395.657	5.49
395.864	5.58
396.072	5.48
396.279	5.39
396.486	5.39
396.693	5.42
396.9	5.3
397.107	5.34
397.314	5.38
397.521	5.27
397.728	5.29
397.935	5.28
398.142	5.13
398.349	5.08
398.556	5.19
398.763	5.19
398.97	5.1
399.177	5.15
399.383	5.06
399.59	5.09
399.797	5.09
400.004	5.16
400.211	5.06
400.418	5.2
400.625	5.18
400.831	5.03
401.038	5.1
401.245	5.04
401.452	5.12
401.658	5.11
401.865	5.02
402.072	5.11
402.279	5.13
402.485	5.06
402.692	4.93
402.899	4.95
403.105	5
403.312	4.77
403.519	4.84
403.725	4.71
403.932	4.86
404.138	4.85
404.345	4.61
404.552	4.46
404.758	4.55
404.965	4.58
405.171	4.43
405.378	4.57
405.584	4.82
405.791	4.81
405.997	4.83
406.204	4.72
406.41	4.55
406.617	4.65
406.823	4.66
407.029	4.53
407.236	4.42
407.442	4.61
407.649	4.61
407.855	4.44
408.061	4.51
408.268	4.38
408.474	4.38
408.68	4.44
408.887	4.48
409.093	4.43
409.299	4.55
409.505	4.43
409.712	4.26
409.918	4.12
410.124	4.11
410.33	4.09
410.537	4.15
410.743	4.13
410.949	4.21
411.155	4.13
411.361	4.22
411.567	4.09
411.773	4.21
411.98	4.31
412.186	4.24
412.392	4.21
412.598	4.07
412.804	4.09
413.01	4.2
413.216	4.18
413.422	4.22
413.628	4.26
413.834	4.47
414.04	4.58
414.246	4.43
414.452	4.39
414.658	4.45
414.864	4.5
415.07	4.43
415.275	4.28
415.481	4.06
415.687	4.01
415.893	3.93
416.099	3.79
416.305	3.69
416.511	3.72
416.716	3.77
416.922	3.67
417.128	3.68
417.334	3.69
417.539	3.7
417.745	3.8
417.951	3.7
418.157	3.68
418.362	3.7
418.568	3.66
418.774	3.7
418.979	3.69
419.185	3.73
419.391	3.7
419.596	3.69
419.802	3.7
420.008	3.66
420.213	3.12
420.419	3.16
420.624	3.09
420.83	3.16
421.035	3.13
421.241	3.16
421.446	3.12
421.652	3.08
421.857	3.03
422.063	2.98
422.268	3.06
422.474	3.6
422.679	3.59
422.885	3.65
423.09	3.64
423.295	3.7
423.501	3.61
423.706	3.64
423.911	3.66
424.117	3.79
424.322	3.83
424.527	3.77
424.733	3.82
424.938	3.77
425.143	3.73
425.349	3.72
425.554	3.74
425.759	3.8
425.964	3.75
426.169	3.77
426.375	3.73
426.58	3.65
426.785	3.63
426.99	3.59
427.195	3.65
427.4	3.58
427.605	3.59
427.811	3.59
428.016	3.56
428.221	3.63
428.426	3.64
428.631	3.62
428.836	3.78
429.041	3.83
429.246	3.91
429.451	3.86
429.656	3.96
429.861	3.97
430.066	3.81
430.271	3.8
430.476	3.86
430.681	3.8
430.886	3.8
431.09	3.72
431.295	3.83
431.5	3.7
431.705	3.62
431.91	3.57
432.115	3.54
432.32	3.58
432.524	3.54
432.729	3.42
432.934	3.4
433.139	3.39
433.343	3.4
433.548	3.31
433.753	3.34
433.958	3.42
434.162	3.38
434.367	3.36
434.572	3.33
434.776	3.41
434.981	3.5
435.186	3.7
435.39	3.76
435.595	3.67
435.799	3.67
436.004	3.69
436.209	3.72
436.413	3.82
436.618	3.83
436.822	3.91
437.027	3.8
437.231	3.67
437.436	3.54
437.64	3.45
437.845	3.54
438.049	3.49
438.253	3.51
438.458	3.51
438.662	3.51
438.867	3.62
439.071	3.57
439.275	3.65
439.48	3.74
439.684	3.71
439.888	3.76
440.093	3.76
440.297	3.75
440.501	3.73
440.706	3.73
440.91	3.75
441.114	3.68
441.318	3.67
441.523	3.7
441.727	3.73
441.931	3.68
442.135	3.67
442.339	3.66
442.543	3.62
442.748	3.55
442.952	3.53
443.156	3.44
443.36	3.39
443.564	3.49
443.768	3.39
443.972	3.31
444.176	3.45
444.38	3.41
444.584	3.37
444.788	3.56
444.992	3.63
445.196	3.59
445.4	3.59
445.604	3.56
445.808	3.53
446.012	3.56
446.216	3.57
446.42	3.52
446.624	3.51
446.828	3.55
447.032	3.4
447.235	3.41
447.439	3.47
447.643	3.5
447.847	3.55
448.051	3.52
448.254	3.52
448.458	3.48
448.662	3.51
448.866	3.54
449.069	3.48
449.273	3.55
449.477	3.56
449.681	3.55
449.884	3.55
450.088	3.51
450.292	3.6
450.495	3.55
450.699	3.59
450.902	3.55
451.106	3.6
451.31	3.58
451.513	3.55
451.717	3.49
451.92	3.42
452.124	3.46
452.327	3.41
452.531	3.28
452.734	3.37
452.938	3.35
453.141	3.37
453.345	3.37
453.548	3.4
453.752	3.46
453.955	3.58
454.158	3.71
454.362	3.68
454.565	3.69
454.769	3.66
454.972	3.68
455.175	3.74
455.379	3.71
455.582	3.75
455.785	3.76
455.988	3.74
456.192	3.64
456.395	3.6
456.598	3.63
456.801	3.76
457.005	3.83
457.208	3.77
457.411	3.78
457.614	3.84
457.817	3.73
458.021	3.75
458.224	3.71
458.427	3.57
458.63	3.58
458.833	3.52
459.036	3.4
459.239	3.37
459.442	3.38
459.645	3.27
459.848	3.18
460.051	3.15
460.254	3.16
460.457	3.13
460.66	3.2
460.863	3.19
461.066	3.17
461.269	3.23
461.472	3.29
461.675	3.31
461.878	3.43
462.081	3.54
462.284	3.66
462.486	3.65
462.689	3.74
462.892	3.92
463.095	3.88
463.298	4.05
463.5	4.04
463.703	4.09
463.906	4.12
464.109	4.14
464.311	4.16
464.514	4.05
464.717	4.15
464.92	4.06
465.122	4.06
465.325	4
