Data from 2938716__Reflection_02.txt Node
Date: Tue Mar 17 18:56:14 EDT 2015
User: robert
Spectrometer: USB4E03002
Autoset integration time: false
Trigger mode: 4
Integration Time (sec): 1.000000E-1
Scans to average: 10
Electric dark correction enabled: false
Nonlinearity correction enabled: false
Boxcar width: 5
Stray light correction enabled: false
XAxis mode: Wavelengths
Stop averaging: false
Number of Pixels in Spectrum: 3648
>>>>>Begin Spectral Data<<<<<
177.575	-38.33
177.794	-118.29
178.014	-59.22
178.233	28.08
178.452	21.63
178.672	-18.55
178.891	-19.43
179.11	-48.39
179.33	-286.79
179.549	-17.36
179.768	-42.53
179.987	-21.16
180.207	-43.37
180.426	-56.95
180.645	-23000
180.864	10460
181.084	865.38
181.303	414.17
181.522	381.44
181.741	1718.92
181.96	204.57
182.179	215.16
182.398	303.91
182.618	260.47
182.837	509.38
183.056	380.77
183.275	314.09
183.494	506
183.713	500
183.932	389.66
184.151	204.98
184.37	205.14
184.589	325.42
184.808	235.54
185.027	209.34
185.246	172.23
185.465	150.08
185.684	117.29
185.903	111.67
186.122	103.52
186.341	105.97
186.56	80.73
186.779	67.35
186.998	48.97
187.216	49.28
187.435	48.06
187.654	43.65
187.873	32.71
188.092	67.23
188.311	81.15
188.53	96.2
188.748	99.54
188.967	135.74
189.186	270.83
189.405	-34.45
189.623	18.94
189.842	8.96
190.061	-39.96
190.28	-186.64
190.498	-226.82
190.717	-136.45
190.936	-175.76
191.154	-7466.67
191.373	171.37
191.592	254.11
191.81	152.95
192.029	117.47
192.248	95.29
192.466	103.68
192.685	102.21
192.904	97.05
193.122	117.72
193.341	131.59
193.559	166.42
193.778	248.18
193.996	248.39
194.215	673.74
194.433	-470.63
194.652	3627.27
194.87	396
195.089	1892.86
195.307	550.83
195.526	297.59
195.744	232.54
195.963	219.46
196.181	183.53
196.399	206.12
196.618	168.24
196.836	178.42
197.055	263.06
197.273	240.75
197.491	200
197.71	184.33
197.928	212.95
198.146	289.66
198.365	588.82
198.583	2134.21
198.801	10675
199.019	-84400
199.238	637.84
199.456	1314
199.674	-848.39
199.892	-628.81
200.111	-239.55
200.329	-382.11
200.547	-418.18
200.765	966.67
200.983	523.56
201.202	243.64
201.42	271.47
201.638	258.94
201.856	208.52
202.074	144.07
202.292	197.83
202.51	251.63
202.728	202.19
202.946	273.55
203.165	543.3
203.383	3406.67
203.601	-284.54
203.819	-945.45
204.037	576.24
204.255	498.9
204.473	306.65
204.691	217.28
204.909	143.43
205.127	153.29
205.345	147.4
205.562	143.07
205.78	139.64
205.998	108.29
206.216	115.43
206.434	134.15
206.652	106.24
206.87	102.69
207.088	138.52
207.306	170.8
207.523	182.43
207.741	163.59
207.959	186.98
208.177	222.47
208.395	882.05
208.612	489.01
208.83	345.13
209.048	313.07
209.266	350.34
209.483	165.74
209.701	133.09
209.919	119.93
210.136	75.57
210.354	73.51
210.572	128.95
210.79	113.6
211.007	70.3
211.225	69.31
211.442	83.38
211.66	134.4
211.878	183.75
212.095	164.58
212.313	226.39
212.53	175
212.748	182.02
212.966	88.19
213.183	158.43
213.401	-145
213.618	150
213.836	-247.62
214.053	-68.97
214.271	-237.39
214.488	-70.21
214.705	-1.19
214.923	63.14
215.14	71.85
215.358	87.18
215.575	53.55
215.793	45.6
216.01	76.73
216.227	81.14
216.445	96.34
216.662	69.02
216.879	73.17
217.097	85.86
217.314	45.74
217.531	49.73
217.749	56.88
217.966	71.85
218.183	77.87
218.4	73.86
218.618	51.07
218.835	57.2
219.052	55.35
219.269	48.13
219.487	47.71
219.704	47.37
219.921	39.87
220.138	34.23
220.355	29.49
220.572	33.05
220.79	30.9
221.007	48.29
221.224	43.8
221.441	42.93
221.658	45.3
221.875	43.62
222.092	43.57
222.309	42.11
222.526	40.92
222.743	42.06
222.96	41.85
223.177	36.76
223.394	31.42
223.611	29.43
223.828	28.17
224.045	21.57
224.262	27.48
224.479	30.27
224.696	33.02
224.913	28.95
225.13	22.69
225.347	17.51
225.564	18.64
225.781	18.48
225.997	18.47
226.214	18.44
226.431	15.87
226.648	9.82
226.865	7.51
227.082	7.82
227.298	6.86
227.515	7.48
227.732	8.41
227.949	6.85
228.165	6.58
228.382	6.08
228.599	5.22
228.816	6.22
229.032	5.36
229.249	5
229.466	3.95
229.682	4.11
229.899	4.07
230.116	3.8
230.332	4.77
230.549	3.64
230.765	3.46
230.982	3.02
231.199	2.31
231.415	2.73
231.632	3.82
231.848	3.81
232.065	5.53
232.281	5.17
232.498	3.7
232.714	4.16
232.931	8.23
233.147	8.09
233.364	9.2
233.58	7.8
233.797	8.76
234.013	7.48
234.23	7.27
234.446	5.76
234.662	5.05
234.879	5.44
235.095	4.14
235.312	3.1
235.528	3.75
235.744	0.4
235.961	2.5
236.177	2.5
236.393	2.96
236.61	1.62
236.826	3.62
237.042	2.2
237.258	2.97
237.475	2.83
237.691	3.73
237.907	0.99
238.123	5.38
238.339	5.01
238.556	5.42
238.772	5.32
238.988	7.4
239.204	6.01
239.42	7.87
239.636	7.91
239.853	8.02
240.069	5.86
240.285	6.73
240.501	6.44
240.717	7.24
240.933	8.25
241.149	8.16
241.365	8.34
241.581	8.76
241.797	9.3
242.013	9.21
242.229	9.49
242.445	9.14
242.661	9.14
242.877	9.27
243.093	9.31
243.309	8.21
243.525	8.74
243.741	9.19
243.957	8.87
244.173	8.66
244.388	8.59
244.604	8.27
244.82	8.36
245.036	8.56
245.252	8.33
245.468	7.77
245.683	7.86
245.899	7.35
246.115	6.57
246.331	6.57
246.547	6.32
246.762	6.45
246.978	6.4
247.194	6.68
247.409	6.66
247.625	6.61
247.841	6.48
248.057	6.36
248.272	6.47
248.488	6.23
248.703	6.46
248.919	6.23
249.135	5.87
249.35	5.71
249.566	5.3
249.782	5.18
249.997	5.19
250.213	5.22
250.428	5.6
250.644	5.94
250.859	6.58
251.075	6.45
251.29	7.61
251.506	7.93
251.721	7.93
251.937	8.01
252.152	7.8
252.368	7.32
252.583	7.43
252.798	7.36
253.014	6.96
253.229	6.91
253.445	6.24
253.66	5.63
253.875	5.45
254.091	4.63
254.306	4.67
254.521	5.06
254.737	6.22
254.952	5.95
255.167	6.01
255.383	6.05
255.598	5.67
255.813	6.88
256.028	6.39
256.244	6.39
256.459	7.67
256.674	7.05
256.889	5.94
257.104	5.58
257.32	5.73
257.535	5.67
257.75	5.32
257.965	6.03
258.18	5.66
258.395	6.15
258.61	5.88
258.826	5.48
259.041	6.02
259.256	6.22
259.471	5.61
259.686	5.36
259.901	5.21
260.116	5.39
260.331	5.14
260.546	5.22
260.761	5.02
260.976	5.29
261.191	5.45
261.406	5.54
261.621	5.79
261.836	6.4
262.05	6.35
262.265	6.36
262.48	5.98
262.695	6.16
262.91	6.71
263.125	6.94
263.34	6.42
263.555	6.48
263.769	5.83
263.984	5.84
264.199	5.54
264.414	6.38
264.629	7.13
264.843	7.78
265.058	7.6
265.273	7.09
265.488	6.68
265.702	6.96
265.917	6.79
266.132	6.64
266.346	6.63
266.561	6.77
266.776	6.48
266.99	5.9
267.205	5.48
267.42	5.4
267.634	5.31
267.849	5.15
268.063	4.72
268.278	4.77
268.492	4.7
268.707	4.28
268.922	3.9
269.136	3.58
269.351	4.02
269.565	4.12
269.78	3.99
269.994	3.83
270.209	3.99
270.423	4.22
270.637	3.72
270.852	3.91
271.066	3.92
271.281	4.01
271.495	4.18
271.709	3.99
271.924	3.98
272.138	3.83
272.353	3.94
272.567	3.79
272.781	3.88
272.996	4.17
273.21	4.23
273.424	4.18
273.638	4.3
273.853	4.56
274.067	4.55
274.281	4.53
274.495	4.47
274.71	4.2
274.924	4.67
275.138	4.21
275.352	3.81
275.566	3.72
275.781	3.71
275.995	3.73
276.209	3.79
276.423	3.54
276.637	3.43
276.851	4.13
277.065	3.85
277.279	3.19
277.493	3.7
277.707	4.17
277.921	3.45
278.135	3.61
278.349	3.47
278.563	2.93
278.777	3.09
278.991	3.28
279.205	2.79
279.419	3.72
279.633	4.23
279.847	4.1
280.061	4.24
280.275	4.57
280.489	4.63
280.703	4.18
280.917	4.48
281.131	4.51
281.344	4.51
281.558	4.16
281.772	3.63
281.986	3.65
282.2	3.59
282.414	3.42
282.627	3.5
282.841	3.3
283.055	3.57
283.269	3.64
283.482	3.7
283.696	3.46
283.91	3.7
284.123	3.9
284.337	3.89
284.551	3.81
284.764	3.74
284.978	3.86
285.192	4.09
285.405	4.18
285.619	3.76
285.833	3.89
286.046	3.78
286.26	3.94
286.473	3.95
286.687	3.82
286.9	4
287.114	4
287.327	3.78
287.541	3.74
287.754	3.69
287.968	3.87
288.181	3.52
288.395	4.01
288.608	3.88
288.822	3.75
289.035	3.61
289.248	3.55
289.462	3.87
289.675	3.79
289.889	3.66
290.102	3.73
290.315	4.05
290.529	4.07
290.742	3.56
290.955	3.71
291.169	3.65
291.382	3.9
291.595	3.92
291.808	3.59
292.022	4
292.235	4.24
292.448	4.36
292.661	3.9
292.875	4.49
293.088	5.1
293.301	5.01
293.514	5.04
293.727	4.81
293.94	5.11
294.153	5.3
294.367	5.18
294.58	4.88
294.793	4.65
295.006	4.86
295.219	4.71
295.432	4.29
295.645	4.06
295.858	4.2
296.071	4.33
296.284	4.32
296.497	4.34
296.71	4.55
296.923	4.67
297.136	4.85
297.349	4.95
297.562	4.89
297.775	5.18
297.988	5.49
298.201	5.59
298.414	5.72
298.626	5.7
298.839	5.72
299.052	5.83
299.265	5.67
299.478	5.66
299.691	5.91
299.903	5.74
300.116	5.63
300.329	5.85
300.542	5.62
300.755	5.84
300.967	5.91
301.18	5.97
301.393	5.61
301.605	5.93
301.818	5.82
302.031	5.62
302.243	5.86
302.456	5.84
302.669	5.64
302.881	5.77
303.094	5.59
303.307	5.22
303.519	5.42
303.732	5.51
303.944	5.58
304.157	5.66
304.37	5.73
304.582	5.86
304.795	6.37
305.007	6.52
305.22	6.54
305.432	6.52
305.645	6.7
305.857	6.44
306.069	6.58
306.282	6.6
306.494	6.85
306.707	7.29
306.919	6.91
307.132	6.76
307.344	6.76
307.556	6.97
307.769	6.97
307.981	6.95
308.193	7.35
308.406	7.41
308.618	7.02
308.83	6.85
309.043	6.22
309.255	6.32
309.467	6.17
309.679	6.26
309.892	6.12
310.104	6.17
310.316	6.34
310.528	6.04
310.74	6.03
310.953	6.36
311.165	6.59
311.377	6.96
311.589	7.14
311.801	7.32
312.013	7.46
312.225	7.63
312.437	7.95
312.649	8.16
312.862	8.49
313.074	8.59
313.286	8.51
313.498	8.44
313.71	8.25
313.922	8.39
314.134	8.28
314.346	8.31
314.558	8.25
314.77	8.02
314.982	7.95
315.193	7.74
315.405	7.8
315.617	7.78
315.829	7.92
316.041	8.13
316.253	7.87
316.465	8.15
316.677	8.31
316.888	8.44
317.1	8.01
317.312	7.7
317.524	7.84
317.736	7.74
317.947	7.9
318.159	8
318.371	7.94
318.583	7.77
318.794	7.48
319.006	7.03
319.218	6.84
319.43	7.7
319.641	7.91
319.853	8.16
320.064	8.61
320.276	8.68
320.488	8.85
320.699	8.95
320.911	9.18
321.123	9.45
321.334	9.69
321.546	9.65
321.757	9.31
321.969	9.55
322.18	9.05
322.392	8.33
322.603	8.63
322.815	8.36
323.026	8.36
323.238	8.56
323.449	8.51
323.661	8.69
323.872	8.99
324.083	9.12
324.295	8.97
324.506	9.19
324.718	9.54
324.929	9.69
325.14	9.48
325.352	9.62
325.563	9.51
325.774	9.49
325.986	9.18
326.197	9.28
326.408	9.17
326.62	9
326.831	8.63
327.042	8.4
327.253	8.55
327.464	8.64
327.676	8.65
327.887	8.82
328.098	8.4
328.309	8.27
328.52	8.26
328.732	8.44
328.943	8.82
329.154	9.4
329.365	9.79
329.576	9.26
329.787	9.35
329.998	8.95
330.209	9.06
330.42	9.66
330.631	9.92
330.842	9.76
331.053	9.71
331.264	9.46
331.475	9.34
331.686	9.25
331.897	9.2
332.108	9.21
332.319	9.57
332.53	9.41
332.741	9.65
332.952	9.76
333.163	9.78
333.374	9.5
333.585	9.57
333.795	9.56
334.006	9.56
334.217	9.62
334.428	9.4
334.639	9.62
334.849	9.69
335.06	9.25
335.271	8.91
335.482	9.07
335.692	9.07
335.903	9.2
336.114	9.4
336.325	9.28
336.535	9.41
336.746	9.69
336.957	9.5
337.167	9.75
337.378	9.9
337.589	9.76
337.799	9.57
338.01	9.35
338.22	9.19
338.431	9.01
338.642	9.11
338.852	8.96
339.063	8.89
339.273	8.97
339.484	8.96
339.694	8.91
339.905	9.36
340.115	9.47
340.326	9.77
340.536	9.72
340.746	10.03
340.957	10.28
341.167	10.35
341.378	10.32
341.588	10.1
341.799	9.94
342.009	9.69
342.219	9.8
342.43	10.02
342.64	10.08
342.85	10.21
343.061	9.45
343.271	9.49
343.481	9.44
343.691	9.62
343.902	9.71
344.112	9.65
344.322	9.49
344.532	9.12
344.743	8.93
344.953	8.98
345.163	9.03
345.373	9.48
345.583	9.22
345.793	9.18
346.004	9.18
346.214	8.8
346.424	8.66
346.634	8.89
346.844	9.22
347.054	8.97
347.264	8.81
347.474	8.72
347.684	8.56
347.894	8.54
348.104	8.63
348.314	8.17
348.524	8.67
348.734	8.9
348.944	9.02
349.154	8.75
349.364	8.63
349.574	8.58
349.784	8.75
349.994	8.69
350.204	9.02
350.413	8.88
350.623	9.24
350.833	8.95
351.043	8.68
351.253	8.77
351.463	9.07
351.672	9.54
351.882	9.83
352.092	9.78
352.302	10.11
352.511	9.42
352.721	9.27
352.931	9.05
353.141	9.03
353.35	9.43
353.56	9.26
353.77	9.12
353.979	8.88
354.189	8.57
354.399	8.23
354.608	8.17
354.818	8.38
355.027	8.16
355.237	8.23
355.447	8.36
355.656	8.23
355.866	8.28
356.075	8.08
356.285	7.96
356.494	8.24
356.704	8.39
356.913	8.35
357.123	8.35
357.332	8.79
357.542	8.75
357.751	8.86
357.96	8.68
358.17	8.46
358.379	8.6
358.589	8.63
358.798	8.51
359.007	8.55
359.217	8.39
359.426	8.51
359.635	8.29
359.845	8.4
360.054	8.13
360.263	8.36
360.472	8.62
360.682	8.65
360.891	8.71
361.1	8.78
361.309	8.75
361.519	8.75
361.728	8.58
361.937	8.66
362.146	8.66
362.355	8.68
362.564	8.54
362.774	8.34
362.983	8.22
363.192	8.15
363.401	8.09
363.61	7.94
363.819	8.01
364.028	8.17
364.237	8.11
364.446	7.87
364.655	8.06
364.864	7.94
365.073	7.93
365.282	7.98
365.491	7.99
365.7	7.96
365.909	7.97
366.118	8.02
366.327	7.74
366.536	7.8
366.745	7.76
366.954	7.57
367.162	7.64
367.371	7.75
367.58	7.7
367.789	7.72
367.998	7.58
368.207	7.61
368.415	7.41
368.624	7.67
368.833	7.57
369.042	7.69
369.25	7.71
369.459	7.61
369.668	7.59
369.877	7.52
370.085	7.43
370.294	7.21
370.503	7.33
370.711	7.38
370.92	7.12
371.129	7.19
371.337	6.96
371.546	6.6
371.754	6.5
371.963	6.36
372.171	6.33
372.38	6.28
372.589	6.41
372.797	6.29
373.006	6.08
373.214	6.49
373.423	6.48
373.631	6.78
373.84	7.14
374.048	7.2
374.256	7.3
374.465	7.5
374.673	7.36
374.882	7.33
375.09	7.16
375.298	7.27
375.507	6.91
375.715	6.74
375.923	6.65
376.132	6.8
376.34	6.68
376.548	6.53
376.757	6.23
376.965	6.35
377.173	6.24
377.381	6.33
377.59	6.34
377.798	6.29
378.006	6.37
378.214	6.16
378.423	6
378.631	6.15
378.839	6.26
379.047	6.46
379.255	6.5
379.463	6.75
379.671	6.63
379.879	6.48
380.088	6.44
380.296	6.33
380.504	6.49
380.712	6.33
380.92	6.31
381.128	6.22
381.336	6.04
381.544	5.99
381.752	5.79
381.96	5.78
382.168	5.86
382.376	5.9
382.584	5.92
382.791	6.08
382.999	6.21
383.207	6.17
383.415	6.25
383.623	6.31
383.831	6.25
384.039	6.13
384.247	6.09
384.454	6.35
384.662	6.56
384.87	6.37
385.078	6.18
385.285	6.05
385.493	6.03
385.701	6
385.909	5.93
386.116	5.96
386.324	6.07
386.532	5.94
386.739	5.62
386.947	5.44
387.155	5.48
387.362	5.46
387.57	5.44
387.778	5.39
387.985	5.26
388.193	5.28
388.4	5.26
388.608	5.15
388.816	5.34
389.023	5.32
389.231	5.32
389.438	5.65
389.646	5.72
389.853	5.59
390.061	5.48
390.268	5.51
390.475	5.44
390.683	5.36
390.89	5.62
391.098	5.5
391.305	5.45
391.512	5.3
391.72	4.97
391.927	4.94
392.135	5.12
392.342	5.37
392.549	5.4
392.756	5.37
392.964	5.42
393.171	5.25
393.378	5.35
393.586	5.29
393.793	5.3
394	5.59
394.207	5.64
394.414	5.53
394.622	5.3
394.829	5.32
395.036	5.4
395.243	5.27
395.45	5.36
395.657	5.3
395.864	5.4
396.072	5.49
396.279	5.2
396.486	5.16
396.693	5.13
396.9	5.19
397.107	5.09
397.314	5.02
397.521	5.03
397.728	4.82
397.935	4.96
398.142	4.98
398.349	4.95
398.556	5.01
398.763	4.95
398.97	5.01
399.177	5.09
399.383	5.1
399.59	5.13
399.797	5.31
400.004	5.48
400.211	5.35
400.418	5.22
400.625	5.12
400.831	5.09
401.038	5.04
401.245	5.17
401.452	5.05
401.658	5.17
401.865	4.99
402.072	4.91
402.279	4.84
402.485	4.79
402.692	4.91
402.899	5.07
403.105	5.07
403.312	5.1
403.519	4.93
403.725	4.91
403.932	4.71
404.138	4.84
404.345	4.87
404.552	4.89
404.758	4.91
404.965	4.79
405.171	4.79
405.378	4.88
405.584	4.83
405.791	4.82
405.997	4.81
406.204	4.9
406.41	5.01
406.617	5
406.823	4.93
407.029	5.16
407.236	5.34
407.442	5.27
407.649	5.42
407.855	5.59
408.061	5.59
408.268	5.71
408.474	5.8
408.68	5.68
408.887	5.6
409.093	5.59
409.299	5.42
409.505	5.41
409.712	5.28
409.918	5.1
410.124	4.99
410.33	4.99
410.537	4.73
410.743	4.77
410.949	4.79
411.155	4.7
411.361	4.75
411.567	4.67
411.773	4.61
411.98	4.64
412.186	4.51
412.392	4.51
412.598	4.54
412.804	4.73
413.01	4.65
413.216	4.63
413.422	4.72
413.628	4.69
413.834	4.73
414.04	4.79
414.246	4.76
414.452	4.8
414.658	4.84
414.864	4.78
415.07	4.67
415.275	4.66
415.481	4.64
415.687	4.7
415.893	4.71
416.099	4.7
416.305	4.68
416.511	4.89
416.716	4.93
416.922	4.83
417.128	4.89
417.334	5
417.539	4.99
417.745	5.04
417.951	4.94
418.157	4.89
418.362	4.92
418.568	4.87
418.774	4.76
418.979	4.84
419.185	4.79
419.391	4.74
419.596	4.64
419.802	4.61
420.008	4.56
420.213	5.27
420.419	5.25
420.624	5.22
420.83	5.23
421.035	5.23
421.241	5.14
421.446	5.16
421.652	5.19
421.857	5.25
422.063	5.28
422.268	5.26
422.474	4.68
422.679	4.68
422.885	4.74
423.09	4.75
423.295	4.77
423.501	4.73
423.706	4.77
423.911	4.72
424.117	4.69
424.322	4.66
424.527	4.72
424.733	4.71
424.938	4.74
425.143	4.67
425.349	4.64
425.554	4.58
425.759	4.62
425.964	4.62
426.169	4.66
426.375	4.75
426.58	4.72
426.785	4.63
426.99	4.67
427.195	4.59
427.4	4.59
427.605	4.67
427.811	4.67
428.016	4.69
428.221	4.7
428.426	4.7
428.631	4.57
428.836	4.59
429.041	4.74
429.246	4.57
429.451	4.7
429.656	4.76
429.861	4.69
430.066	4.79
430.271	4.87
430.476	4.78
430.681	4.78
430.886	4.79
431.09	4.79
431.295	4.66
431.5	4.76
431.705	4.77
431.91	4.61
432.115	4.56
432.32	4.52
432.524	4.42
432.729	4.51
432.934	4.56
433.139	4.53
433.343	4.55
433.548	4.49
433.753	4.43
433.958	4.39
434.162	4.45
434.367	4.49
434.572	4.47
434.776	4.53
434.981	4.48
435.186	4.4
435.39	4.41
435.595	4.33
435.799	4.45
436.004	4.39
436.209	4.32
436.413	4.37
436.618	4.4
436.822	4.39
437.027	4.4
437.231	4.45
437.436	4.48
437.64	4.5
437.845	4.55
438.049	4.58
438.253	4.68
438.458	4.75
438.662	4.72
438.867	4.76
439.071	4.75
439.275	4.76
439.48	4.77
439.684	4.73
439.888	4.79
440.093	4.74
440.297	4.68
440.501	4.7
440.706	4.7
440.91	4.71
441.114	4.59
441.318	4.6
441.523	4.51
441.727	4.43
441.931	4.49
442.135	4.39
442.339	4.39
442.543	4.42
442.748	4.33
442.952	4.4
443.156	4.31
443.36	4.39
443.564	4.41
443.768	4.42
443.972	4.45
444.176	4.4
444.38	4.54
444.584	4.57
444.788	4.61
444.992	4.66
445.196	4.61
445.4	4.66
445.604	4.63
445.808	4.59
446.012	4.63
446.216	4.67
446.42	4.68
446.624	4.63
446.828	4.59
447.032	4.58
447.235	4.53
447.439	4.48
447.643	4.49
447.847	4.53
448.051	4.62
448.254	4.62
448.458	4.54
448.662	4.57
448.866	4.61
449.069	4.67
449.273	4.68
449.477	4.79
449.681	4.85
449.884	4.9
450.088	4.94
450.292	4.88
450.495	4.95
450.699	5.06
450.902	4.96
451.106	4.95
451.31	4.98
451.513	4.95
451.717	4.85
451.92	4.84
452.124	4.75
452.327	4.68
452.531	4.69
452.734	4.64
452.938	4.57
453.141	4.51
453.345	4.51
453.548	4.4
453.752	4.39
453.955	4.48
454.158	4.5
454.362	4.48
454.565	4.51
454.769	4.39
454.972	4.47
455.175	4.48
455.379	4.53
455.582	4.54
455.785	4.51
455.988	4.58
456.192	4.64
456.395	4.63
456.598	4.61
456.801	4.59
457.005	4.73
457.208	4.68
457.411	4.59
457.614	4.58
457.817	4.54
458.021	4.62
458.224	4.53
458.427	4.48
458.63	4.44
458.833	4.41
459.036	4.35
459.239	4.32
459.442	4.32
459.645	4.41
459.848	4.46
460.051	4.45
460.254	4.47
460.457	4.47
460.66	4.51
460.863	4.58
461.066	4.57
461.269	4.6
461.472	4.51
461.675	4.43
461.878	4.33
462.081	4.27
462.284	4.34
462.486	4.22
462.689	4.19
462.892	3.99
463.095	4.03
463.298	4.12
463.5	4.09
463.703	4.23
463.906	4.19
464.109	4.31
464.311	4.27
464.514	4.25
464.717	4.33
464.92	4.41
465.122	4.56
465.325	4.41
465.528	4.5
465.73	4.64
465.933	4.55
466.135	4.61
466.338	4.58
466.541	4.66
466.743	4.69
466.946	4.68
467.148	4.65
467.351	4.6
467.553	4.56
467.756	4.41
467.958	4.32
468.161	4.4
468.363	4.41
468.566	4.46
468.768	4.42
468.971	4.38
469.173	4.27
469.375	4.27
469.578	4.25
469.78	4.32
469.983	4.45
470.185	4.46
470.387	4.42
470.59	4.43
