Data from 2938821__Reflection_02.txt Node
Date: Thu Mar 12 14:27:17 EDT 2015
User: robert
Spectrometer: USB4E03002
Autoset integration time: false
Trigger mode: 4
Integration Time (sec): 1.000000E-1
Scans to average: 10
Electric dark correction enabled: false
Nonlinearity correction enabled: false
Boxcar width: 5
Stray light correction enabled: false
XAxis mode: Wavelengths
Stop averaging: false
Number of Pixels in Spectrum: 3648
>>>>>Begin Spectral Data<<<<<
177.575	364.96
177.794	332.54
178.014	204.82
178.233	149.07
178.452	122.76
178.672	95.85
178.891	62.52
179.11	39.18
179.33	16.22
179.549	17.21
179.768	-4.14
179.987	4.02
180.207	-17.59
180.426	-89.1
180.645	-231.58
180.864	-286.41
181.084	-131.71
181.303	55.65
181.522	745.45
181.741	-210.53
181.96	-102.56
182.179	-89.86
182.398	0
182.618	375
182.837	-347.5
183.056	-119.13
183.275	-16.67
183.494	27.16
183.713	87.92
183.932	39.29
184.151	42.34
184.37	52.49
184.589	80.54
184.808	88.38
185.027	129.41
185.246	143.43
185.465	213.87
185.684	237.56
185.903	184.2
186.122	134.01
186.341	160.2
186.56	141.74
186.779	180.84
186.998	124.93
187.216	115.78
187.435	137.92
187.654	140.16
187.873	126.44
188.092	140.69
188.311	141.82
188.53	159.06
188.748	133.89
188.967	184.29
189.186	68.54
189.405	83.48
189.623	60.38
189.842	-6.5
190.061	-46.12
190.28	-31.28
190.498	23.45
190.717	74.61
190.936	45.66
191.154	120.52
191.373	81.85
191.592	106.22
191.81	118.87
192.029	142.28
192.248	128.41
192.466	113.46
192.685	118.76
192.904	100
193.122	59.8
193.341	86.35
193.559	48.01
193.778	-68.82
193.996	39.82
194.215	86.78
194.433	1288.24
194.652	-31.88
194.87	-145.98
195.089	-64.24
195.307	-133.03
195.526	-34.48
195.744	25.56
195.963	58.42
196.181	116.75
196.399	140.08
196.618	208.26
196.836	409.09
197.055	-204.44
197.273	820.83
197.491	931.03
197.71	1796.67
197.928	1139.02
198.146	485.25
198.365	142.38
198.583	110.4
198.801	68.52
199.019	79.68
199.238	138.35
199.456	116.09
199.674	142.57
199.892	159.59
200.111	171.01
200.329	153.96
200.547	146.77
200.765	-5450
200.983	618.42
201.202	-1627.78
201.42	1671.43
201.638	329.25
201.856	2691.67
202.074	-2860
202.292	489.71
202.51	822.45
202.728	285.48
202.946	435.42
203.165	241.22
203.383	238.87
203.601	136.18
203.819	146.11
204.037	157.19
204.255	151.67
204.473	160.74
204.691	428.42
204.909	232.62
205.127	249
205.345	179.17
205.562	-3675
205.78	315.63
205.998	221.65
206.216	204.24
206.434	139.84
206.652	108.31
206.87	107.22
207.088	87.85
207.306	83.22
207.523	85.76
207.741	78.25
207.959	76.46
208.177	76.62
208.395	87.82
208.612	76.63
208.83	72.95
209.048	83.99
209.266	66.75
209.483	66.14
209.701	76.97
209.919	87.25
210.136	89.85
210.354	83.76
210.572	74.13
210.79	69.13
211.007	63.22
211.225	77.61
211.442	95.04
211.66	96.13
211.878	99.52
212.095	79.21
212.313	57.31
212.53	57.88
212.748	46.88
212.966	47.25
213.183	53.16
213.401	50.05
213.618	51.46
213.836	40.98
214.053	33.22
214.271	24.67
214.488	31.53
214.705	42.95
214.923	56.78
215.14	62.57
215.358	65.08
215.575	43.88
215.793	43.5
216.01	34.54
216.227	6.98
216.445	43.82
216.662	59.01
216.879	44.95
217.097	36.19
217.314	25.1
217.531	28.26
217.749	25.43
217.966	22.24
218.183	39.61
218.4	45.63
218.618	51.57
218.835	52.66
219.052	40.57
219.269	54.17
219.487	58.9
219.704	58.57
219.921	65.85
220.138	62.18
220.355	70.06
220.572	63.97
220.79	57.71
221.007	46.78
221.224	46.54
221.441	46.08
221.658	36.67
221.875	33.09
222.092	24.66
222.309	22.35
222.526	16.2
222.743	15.96
222.96	7.97
223.177	6.26
223.394	15.79
223.611	13.68
223.828	7.04
224.045	10.56
224.262	7.34
224.479	18.33
224.696	16.65
224.913	15.77
225.13	15.93
225.347	15.67
225.564	8.87
225.781	4.39
225.997	6.54
226.214	9.33
226.431	9.14
226.648	10.4
226.865	7.38
227.082	7.52
227.298	8.39
227.515	6.91
227.732	7.46
227.949	7.62
228.165	6.73
228.382	5.72
228.599	4.42
228.816	4.2
229.032	3.98
229.249	2.64
229.466	1.84
229.682	1.49
229.899	1.23
230.116	0.44
230.332	0.24
230.549	1.51
230.765	1.07
230.982	1.75
231.199	1.05
231.415	0.77
231.632	3.13
231.848	3.56
232.065	3.39
232.281	2.85
232.498	3.46
232.714	4.54
232.931	3.35
233.147	2.93
233.364	1.77
233.58	3.59
233.797	2.67
234.013	1.84
234.23	1.34
234.446	-0.19
234.662	0.27
234.879	0.95
235.095	0.29
235.312	0.13
235.528	0.84
235.744	2.41
235.961	2.5
236.177	2.77
236.393	1.66
236.61	3.33
236.826	4.42
237.042	4.25
237.258	4.46
237.475	6.24
237.691	6.02
237.907	6.13
238.123	5.11
238.339	5.32
238.556	4.41
238.772	5.13
238.988	3.8
239.204	4.64
239.42	5.44
239.636	5.37
239.853	4.19
240.069	3.82
240.285	3.49
240.501	3.82
240.717	3.43
240.933	4.02
241.149	3.99
241.365	4.08
241.581	3.39
241.797	3.73
242.013	3.88
242.229	3.21
242.445	3.37
242.661	3.54
242.877	3.15
243.093	2.79
243.309	3.4
243.525	2.77
243.741	2.59
243.957	3.27
244.173	2.72
244.388	2.91
244.604	3.74
244.82	3.43
245.036	3.14
245.252	3.89
245.468	3.8
245.683	3.09
245.899	3.82
246.115	3.64
246.331	3.5
246.547	3.25
246.762	2.81
246.978	3
247.194	3.26
247.409	3.11
247.625	3.24
247.841	3.47
248.057	3.59
248.272	3.42
248.488	3.62
248.703	3.64
248.919	4.06
249.135	4.46
249.35	4.54
249.566	4.45
249.782	4.92
249.997	4.93
250.213	5.31
250.428	5.18
250.644	5.1
250.859	4.67
251.075	4.82
251.29	4.83
251.506	4.22
251.721	3.42
251.937	3.62
252.152	3.64
252.368	3.17
252.583	2.14
252.798	2.23
253.014	2.18
253.229	2.49
253.445	2.16
253.66	1.68
253.875	3.12
254.091	3.89
254.306	4.26
254.521	4.56
254.737	5.34
254.952	5.31
255.167	5.47
255.383	5.75
255.598	6.54
255.813	6.24
256.028	6.59
256.244	5.34
256.459	5.2
256.674	3.96
256.889	4.44
257.104	4.04
257.32	4.77
257.535	4.09
257.75	4.15
257.965	3.95
258.18	3.78
258.395	3.38
258.61	3.3
258.826	2.96
259.041	2.82
259.256	2.36
259.471	2.26
259.686	2.1
259.901	2.19
260.116	2.13
260.331	2.18
260.546	2.24
260.761	2.46
260.976	2.27
261.191	2.45
261.406	2.96
261.621	3.26
261.836	3.12
262.05	3.37
262.265	3.88
262.48	3.7
262.695	3.43
262.91	3.28
263.125	3.06
263.34	3.27
263.555	2.71
263.769	2.25
263.984	1.84
264.199	2.16
264.414	2.04
264.629	1.69
264.843	1.75
265.058	1.32
265.273	1.83
265.488	2.14
265.702	1.81
265.917	2.16
266.132	2.3
266.346	2.77
266.561	3.07
266.776	3.48
266.99	2.96
267.205	2.89
267.42	3.48
267.634	3.38
267.849	2.8
268.063	2.83
268.278	3.05
268.492	3.02
268.707	2.59
268.922	2.53
269.136	2.14
269.351	2.38
269.565	2.64
269.78	2.11
269.994	2.47
270.209	2.57
270.423	2.59
270.637	2.69
270.852	2.76
271.066	2.86
271.281	2.49
271.495	2.1
271.709	2.28
271.924	2.19
272.138	2.46
272.353	2.31
272.567	2.58
272.781	2.83
272.996	2.79
273.21	2.94
273.424	3.07
273.638	3.32
273.853	3.65
274.067	3.53
274.281	3.82
274.495	3.88
274.71	3.84
274.924	3.65
275.138	3.19
275.352	2.72
275.566	2.4
275.781	2.47
275.995	2.66
276.209	2.68
276.423	2.55
276.637	2.37
276.851	2.33
277.065	2.21
277.279	1.58
277.493	1.68
277.707	1.97
277.921	1.83
278.135	1.81
278.349	1.55
278.563	1.44
278.777	1.49
278.991	1
279.205	1.01
279.419	1.19
279.633	2.17
279.847	2.76
280.061	2.6
280.275	2.43
280.489	2.47
280.703	2.45
280.917	2.47
281.131	2.09
281.344	2.21
281.558	1.85
281.772	1.78
281.986	1.34
282.2	0.36
282.414	0.34
282.627	0.47
282.841	0.49
283.055	0.42
283.269	0.45
283.482	0.82
283.696	1.23
283.91	1.39
284.123	1.29
284.337	1.38
284.551	1.58
284.764	1.27
284.978	1.61
285.192	1.62
285.405	1.69
285.619	1.78
285.833	2.05
286.046	1.73
286.26	1.56
286.473	1.59
286.687	1.58
286.9	2.03
287.114	2.38
287.327	2.24
287.541	1.95
287.754	2.52
287.968	2.56
288.181	2.13
288.395	2.24
288.608	2.54
288.822	2.54
289.035	2.65
289.248	2.81
289.462	2.77
289.675	2.51
289.889	2.49
290.102	1.9
290.315	1.85
290.529	1.8
290.742	1.97
290.955	2
291.169	2.14
291.382	2.06
291.595	1.96
291.808	2.19
292.022	2.75
292.235	3.11
292.448	3.19
292.661	3.36
292.875	3.69
293.088	3.63
293.301	3.75
293.514	3.89
293.727	4.22
293.94	4.02
294.153	4.22
294.367	4.21
294.58	4.24
294.793	4.19
295.006	4.15
295.219	4.29
295.432	4.49
295.645	4.35
295.858	4.52
296.071	4.53
296.284	4.6
296.497	4.39
296.71	3.99
296.923	3.95
297.136	4.14
297.349	4.34
297.562	4.27
297.775	4.27
297.988	4.26
298.201	4.01
298.414	4.14
298.626	4.08
298.839	4.04
299.052	4.28
299.265	4.2
299.478	3.86
299.691	3.8
299.903	3.89
300.116	3.89
300.329	3.98
300.542	4.14
300.755	4.04
300.967	4.21
301.18	4.19
301.393	4.18
301.605	4.33
301.818	4.6
302.031	4.65
302.243	4.78
302.456	4.8
302.669	4.89
302.881	4.3
303.094	4.26
303.307	4.13
303.519	4.15
303.732	4.39
303.944	4.59
304.157	4.45
304.37	4.1
304.582	4
304.795	3.81
305.007	4.23
305.22	4.97
305.432	4.93
305.645	5.14
305.857	5.3
306.069	5.45
306.282	5.15
306.494	5.33
306.707	5.53
306.919	5.54
307.132	5.81
307.344	5.73
307.556	5.63
307.769	5.42
307.981	5.73
308.193	5.44
308.406	5.37
308.618	5.4
308.83	5.53
309.043	5.71
309.255	5.62
309.467	5.53
309.679	5.27
309.892	4.98
310.104	5.14
310.316	5.09
310.528	5.79
310.74	5.8
310.953	6.14
311.165	6.13
311.377	5.96
311.589	6.04
311.801	6.14
312.013	5.99
312.225	6.3
312.437	6.33
312.649	6.12
312.862	5.71
313.074	5.62
313.286	5.32
313.498	5.54
313.71	5.69
313.922	5.64
314.134	5.32
314.346	5.46
314.558	5.63
314.77	5.49
314.982	5.82
315.193	6.12
315.405	5.91
315.617	5.88
315.829	5.75
316.041	5.81
316.253	6.11
316.465	6.61
316.677	7.27
316.888	7.25
317.1	7.44
317.312	7.05
317.524	7.03
317.736	7.87
317.947	8.45
318.159	8.66
318.371	8.98
318.583	8.89
318.794	8.98
319.006	8.68
319.218	8.51
319.43	8.66
319.641	9.18
319.853	9.44
320.064	8.85
320.276	8.71
320.488	8.75
320.699	8.4
320.911	8.61
321.123	8.88
321.334	9.22
321.546	9.79
321.757	9.65
321.969	9.48
322.18	9.48
322.392	9.86
322.603	9.74
322.815	10.01
323.026	10.74
323.238	10.88
323.449	10.66
323.661	10.75
323.872	10.62
324.083	11.04
324.295	11.05
324.506	10.78
324.718	11.22
324.929	11.73
325.14	12
325.352	11.94
325.563	12.15
325.774	12.65
325.986	13.08
326.197	13.56
326.408	14.2
326.62	14.79
326.831	15.28
327.042	15.58
327.253	15.67
327.464	16.26
327.676	16.63
327.887	17.09
328.098	17.01
328.309	17.14
328.52	17.51
328.732	17.75
328.943	18.2
329.154	18.79
329.365	19.59
329.576	19.97
329.787	20.17
329.998	20.86
330.209	21.2
330.42	22.09
330.631	22.59
330.842	22.95
331.053	23.54
331.264	23.62
331.475	24.08
331.686	23.84
331.897	24.09
332.108	24.61
332.319	24.83
332.53	25.23
332.741	25.31
332.952	25.58
333.163	26.08
333.374	26.23
333.585	26.47
333.795	26.83
334.006	26.98
334.217	27.53
334.428	27.4
334.639	27.51
334.849	27.34
335.06	27.89
335.271	28.21
335.482	28.05
335.692	28.27
335.903	28.74
336.114	28.79
336.325	29.14
336.535	29.38
336.746	29.55
336.957	29.43
337.167	29.81
337.378	29.69
337.589	29.73
337.799	29.72
338.01	29.85
338.22	29.81
338.431	29.82
338.642	29.74
338.852	29.63
339.063	29.54
339.273	30.03
339.484	29.92
339.694	29.84
339.905	29.5
340.115	29.76
340.326	29.63
340.536	29.93
340.746	29.76
340.957	29.66
341.167	29.76
341.378	29.82
341.588	29.8
341.799	29.98
342.009	30.23
342.219	30.45
342.43	30.31
342.64	30.24
342.85	29.68
343.061	29.69
343.271	29.66
343.481	29.31
343.691	29.2
343.902	29.1
344.112	29.17
344.322	29.1
344.532	28.82
344.743	29.07
344.953	28.81
345.163	29.1
345.373	28.95
345.583	28.76
345.793	29
346.004	29.19
346.214	28.91
346.424	28.92
346.634	28.85
346.844	29.11
347.054	29.01
347.264	28.93
347.474	28.56
347.684	28.94
347.894	28.8
348.104	28.69
348.314	28.41
348.524	28.51
348.734	28.55
348.944	28.17
349.154	28.33
349.364	27.92
349.574	28.07
349.784	28.56
349.994	28.41
350.204	28.78
350.413	28.66
350.623	28.69
350.833	28.53
351.043	28.19
351.253	28.17
351.463	27.86
351.672	28.11
351.882	28.11
352.092	27.59
352.302	27.53
352.511	27.22
352.721	27.42
352.931	27.45
353.141	27.37
353.35	27.12
353.56	27.57
353.77	27.5
353.979	27.25
354.189	27.16
354.399	27.31
354.608	27.21
354.818	27.38
355.027	27.33
355.237	27.44
355.447	27.57
355.656	27.58
355.866	27.14
356.075	27.17
356.285	27.17
356.494	27.05
356.704	26.87
356.913	26.76
357.123	26.66
357.332	26.51
357.542	26.34
357.751	26.15
357.96	26.2
358.17	26.26
358.379	26.09
358.589	26.29
358.798	26.34
359.007	26.39
359.217	26.41
359.426	26.42
359.635	26.2
359.845	26.05
360.054	26.06
360.263	26.34
360.472	26.35
360.682	26.27
360.891	26.11
361.1	26.14
361.309	26.15
361.519	26.3
361.728	26.18
361.937	26.32
362.146	26.43
362.355	26.36
362.564	26.04
362.774	26.07
362.983	26.08
363.192	26.01
363.401	26.01
363.61	25.96
363.819	25.77
364.028	26
364.237	25.88
364.446	25.88
364.655	25.99
364.864	26.11
365.073	26.18
365.282	26.06
365.491	25.97
365.7	25.7
365.909	25.68
366.118	25.77
366.327	25.61
366.536	25.53
366.745	25.3
366.954	25.59
367.162	25.47
367.371	25.5
367.58	25.96
367.789	25.81
367.998	25.96
368.207	26.06
368.415	25.9
368.624	25.89
368.833	26.04
369.042	26.28
369.25	26.02
369.459	26.01
369.668	25.78
369.877	25.84
370.085	26.07
370.294	26.16
370.503	25.9
370.711	26.08
370.92	25.86
371.129	25.96
371.337	25.76
371.546	25.68
371.754	25.76
371.963	25.66
372.171	25.32
372.38	25.23
372.589	25.43
372.797	25.74
373.006	25.49
373.214	25.41
373.423	25.34
373.631	25.49
373.84	25.44
374.048	25.27
374.256	25.21
374.465	24.94
374.673	25.04
374.882	24.78
375.09	24.34
375.298	24.45
375.507	24.78
375.715	24.89
375.923	24.73
376.132	24.54
376.34	24.63
376.548	24.52
376.757	24.82
376.965	24.8
377.173	24.75
377.381	24.91
377.59	24.76
377.798	24.76
378.006	24.46
378.214	24.56
378.423	24.75
378.631	24.7
378.839	24.79
379.047	24.78
379.255	24.72
379.463	24.88
379.671	24.72
379.879	24.86
380.088	24.88
380.296	25
380.504	24.93
380.712	24.95
380.92	24.76
381.128	24.84
381.336	24.69
381.544	24.62
381.752	24.42
381.96	24.44
382.168	24.53
382.376	24.5
382.584	24.62
382.791	24.78
382.999	24.75
383.207	24.74
383.415	24.9
383.623	24.85
383.831	24.71
384.039	24.85
384.247	25.03
384.454	24.87
384.662	24.54
384.87	24.31
385.078	24.09
385.285	24
385.493	24.18
385.701	24.13
385.909	24.04
386.116	24.09
386.324	23.98
386.532	23.68
386.739	23.92
386.947	23.98
387.155	23.75
387.362	23.83
387.57	23.75
387.778	23.65
387.985	23.38
388.193	23.5
388.4	23.7
388.608	23.69
388.816	23.93
389.023	23.57
389.231	23.5
389.438	23.81
389.646	23.72
389.853	23.91
390.061	23.95
390.268	24.05
390.475	24.22
390.683	24.15
390.89	23.98
391.098	24.09
391.305	24.17
391.512	24.35
391.72	24.3
391.927	24.11
392.135	23.97
392.342	23.97
392.549	24
392.756	23.78
392.964	23.7
393.171	23.9
393.378	23.69
393.586	23.75
393.793	23.66
394	23.81
394.207	24.08
394.414	24.07
394.622	24.06
394.829	24.05
395.036	23.99
395.243	24.02
395.45	23.85
395.657	23.93
395.864	23.86
396.072	23.83
396.279	23.74
396.486	23.68
396.693	23.75
396.9	23.67
397.107	23.6
397.314	23.74
397.521	23.69
397.728	23.82
397.935	23.77
398.142	23.85
398.349	23.86
398.556	23.86
398.763	23.89
398.97	24.14
399.177	24.23
399.383	24.37
399.59	24.21
399.797	24.26
400.004	24.27
400.211	24.54
400.418	24.53
400.625	24.53
400.831	24.48
401.038	24.37
401.245	24.14
401.452	24.13
401.658	23.98
401.865	24.09
402.072	24.23
402.279	24.07
402.485	24
402.692	23.93
402.899	24.02
403.105	23.94
403.312	24.15
403.519	24.02
403.725	24.05
403.932	24.11
404.138	24.26
404.345	24.13
404.552	24.11
404.758	24.17
404.965	24.15
405.171	23.99
405.378	24.18
405.584	24.13
405.791	24.32
405.997	24.22
406.204	24.24
406.41	24.17
406.617	24.23
406.823	24.19
407.029	24.05
407.236	24.17
407.442	24.48
407.649	24.47
407.855	24.48
408.061	24.44
408.268	24.48
408.474	24.41
408.68	24.37
408.887	24.37
409.093	24.56
409.299	24.47
409.505	24.3
409.712	24.22
409.918	24.13
410.124	24.01
410.33	24.07
410.537	24.12
410.743	24.29
410.949	24.34
411.155	24.36
411.361	24.4
411.567	24.31
411.773	24.3
411.98	24.16
412.186	24.2
412.392	24.14
412.598	24.14
412.804	24.09
413.01	23.88
413.216	23.82
413.422	23.64
413.628	23.68
413.834	23.94
414.04	23.98
414.246	24.11
414.452	24
414.658	24
414.864	23.91
415.07	24.08
415.275	24.14
415.481	24.17
415.687	24.22
415.893	24.19
416.099	24.09
416.305	24.14
416.511	24
416.716	23.89
416.922	23.91
417.128	23.95
417.334	23.82
417.539	23.84
417.745	23.81
417.951	23.81
418.157	23.83
418.362	23.85
418.568	23.86
418.774	23.88
418.979	23.97
419.185	23.97
419.391	23.95
419.596	23.96
419.802	24.04
420.008	24.01
420.213	24.01
420.419	23.92
420.624	23.91
420.83	24.01
421.035	24.06
421.241	24.01
421.446	24.03
421.652	23.98
421.857	23.97
422.063	23.82
422.268	23.92
422.474	23.89
422.679	23.93
422.885	23.93
423.09	23.76
423.295	23.68
423.501	23.76
423.706	23.83
423.911	23.8
424.117	23.74
424.322	23.85
424.527	23.79
424.733	23.85
424.938	23.84
425.143	23.76
425.349	23.81
425.554	23.85
425.759	23.87
425.964	23.77
426.169	23.78
426.375	23.83
426.58	23.8
426.785	23.79
426.99	23.72
427.195	23.73
427.4	23.75
427.605	23.81
427.811	23.8
428.016	23.75
428.221	23.77
428.426	23.94
428.631	24
428.836	24
429.041	24.06
429.246	24.12
429.451	24.09
429.656	24.15
429.861	24.13
430.066	24.17
430.271	24.14
430.476	24.33
430.681	24.24
430.886	24.29
431.09	24.2
431.295	24.2
431.5	24.11
431.705	24.13
431.91	24.07
432.115	24.08
432.32	23.97
432.524	24
432.729	23.84
432.934	23.89
433.139	23.82
433.343	23.95
433.548	23.85
433.753	24.02
433.958	23.96
434.162	24.13
434.367	24.17
434.572	24.32
434.776	24.32
434.981	24.3
435.186	24.21
435.39	24.12
435.595	24.06
435.799	24.17
436.004	24.01
436.209	24.09
436.413	23.96
436.618	23.93
436.822	23.87
437.027	23.81
437.231	23.85
437.436	23.92
437.64	24.02
437.845	24.06
438.049	24.01
438.253	24.07
438.458	24.07
438.662	24.1
438.867	24.19
439.071	24.12
439.275	24.23
439.48	24.22
439.684	24.21
439.888	24.26
440.093	24.22
440.297	24.26
440.501	24.3
440.706	24.29
440.91	24.24
441.114	24.08
441.318	24.11
441.523	24.05
441.727	24.06
441.931	24.09
442.135	24.02
442.339	23.97
442.543	23.95
442.748	23.9
442.952	23.83
443.156	23.94
443.36	24.01
443.564	24.09
443.768	24.11
443.972	24.17
444.176	24.16
444.38	24.25
444.584	24.3
444.788	24.31
444.992	24.38
445.196	24.45
445.4	24.43
445.604	24.48
445.808	24.49
446.012	24.51
446.216	24.42
446.42	24.41
446.624	24.34
446.828	24.35
447.032	24.37
447.235	24.38
447.439	24.37
447.643	24.36
447.847	24.3
448.051	24.27
448.254	24.2
448.458	24.26
448.662	24.31
448.866	24.4
449.069	24.29
449.273	24.26
449.477	24.09
449.681	24.17
449.884	24.14
450.088	24.14
450.292	24.18
450.495	24.14
450.699	24.18
450.902	24.06
451.106	23.99
451.31	24.02
451.513	24.06
451.717	24.26
451.92	24.18
452.124	24.16
452.327	24.29
452.531	24.31
452.734	24.37
452.938	24.39
453.141	24.48
453.345	24.49
453.548	24.66
453.752	24.69
453.955	24.64
454.158	24.65
454.362	24.77
454.565	24.65
454.769	24.65
454.972	24.77
455.175	24.88
455.379	24.91
455.582	24.9
455.785	24.83
455.988	24.88
456.192	24.86
456.395	24.87
456.598	24.82
456.801	24.88
457.005	24.85
457.208	24.68
457.411	24.64
457.614	24.65
457.817	24.73
458.021	24.71
458.224	24.71
458.427	24.68
458.63	24.73
458.833	24.71
459.036	24.69
459.239	24.74
459.442	24.83
459.645	24.81
459.848	24.8
460.051	24.78
460.254	24.82
460.457	24.73
460.66	24.73
460.863	24.72
461.066	24.78
461.269	24.81
461.472	24.79
461.675	24.79
