Data from 2938777__Reflection_02.txt Node
Date: Fri Mar 13 13:42:25 EDT 2015
User: robert
Spectrometer: USB4E03002
Autoset integration time: false
Trigger mode: 4
Integration Time (sec): 1.000000E-1
Scans to average: 10
Electric dark correction enabled: false
Nonlinearity correction enabled: false
Boxcar width: 5
Stray light correction enabled: false
XAxis mode: Wavelengths
Stop averaging: false
Number of Pixels in Spectrum: 3648
>>>>>Begin Spectral Data<<<<<
177.575	-260.42
177.794	-524.66
178.014	-1611.11
178.233	828.36
178.452	1481.08
178.672	326.14
178.891	192.68
179.11	630.43
179.33	149.25
179.549	138.1
179.768	396.67
179.987	-159.7
180.207	51.85
180.426	132.31
180.645	42.86
180.864	58.06
181.084	21.26
181.303	-106.07
181.522	-612.77
181.741	3173.33
181.96	173.97
182.179	168.7
182.398	142.46
182.618	99.4
182.837	127.31
183.056	100
183.275	108.42
183.494	80.46
183.713	36.99
183.932	40.25
184.151	24.3
184.37	-3.45
184.589	-28.65
184.808	-35.56
185.027	63.51
185.246	17.21
185.465	22.19
185.684	-19.6
185.903	-16.08
186.122	30.42
186.341	25.23
186.56	18.43
186.779	-1.6
186.998	3.64
187.216	33.96
187.435	22.88
187.654	51.3
187.873	34.84
188.092	59.18
188.311	116.76
188.53	132.69
188.748	404.69
188.967	-712.5
189.186	199.28
189.405	268.35
189.623	78.99
189.842	52.66
190.061	72.36
190.28	146.91
190.498	120.53
190.717	92.09
190.936	68.49
191.154	63.8
191.373	74.15
191.592	88.47
191.81	56.94
192.029	74.53
192.248	104.37
192.466	106.34
192.685	83.43
192.904	92.83
193.122	73.58
193.341	82.8
193.559	60.63
193.778	30.11
193.996	-55.72
194.215	-136
194.433	-41.12
194.652	-92.57
194.87	-154.26
195.089	-4160
195.307	-961.54
195.526	182.24
195.744	12.77
195.963	87.98
196.181	148.76
196.399	166.93
196.618	155.99
196.836	211.37
197.055	288.31
197.273	451.65
197.491	1500
197.71	774.07
197.928	296.65
198.146	417.8
198.365	568
198.583	462.12
198.801	-67.25
199.019	-38.97
199.238	21
199.456	17.32
199.674	9.93
199.892	71.95
200.111	67.77
200.329	103.01
200.547	117.37
200.765	125.12
200.983	133.33
201.202	331.78
201.42	533.33
201.638	-691.3
201.856	-246.39
202.074	-551.22
202.292	-9.47
202.51	4.65
202.728	42.98
202.946	91.95
203.165	39.68
203.383	-4600
203.601	24.65
203.819	-65.35
204.037	-23.53
204.255	76.04
204.473	42.05
204.691	20.44
204.909	20.1
205.127	5.02
205.345	-13.31
205.562	-0.33
205.78	82.68
205.998	75.12
206.216	80.29
206.434	78.05
206.652	108.68
206.87	144.1
207.088	104.16
207.306	144.42
207.523	126.79
207.741	124.67
207.959	98.18
208.177	59.47
208.395	50.46
208.612	22.96
208.83	25.54
209.048	-88.89
209.266	-1433.33
209.483	1405.88
209.701	1760
209.919	-646.88
210.136	-6160
210.354	636.11
210.572	213.66
210.79	-113.08
211.007	38.49
211.225	193.22
211.442	65.91
211.66	52.54
211.878	78.6
212.095	220
212.313	284.9
212.53	243.05
212.748	216.84
212.966	167.4
213.183	215.54
213.401	190.67
213.618	138.82
213.836	124.12
214.053	147.39
214.271	141.04
214.488	22.2
214.705	2.03
214.923	6.02
215.14	21.88
215.358	26.41
215.575	18.31
215.793	23.08
216.01	39.28
216.227	51.29
216.445	50.21
216.662	44.37
216.879	44.83
217.097	44.59
217.314	50.44
217.531	37.66
217.749	41.91
217.966	34.2
218.183	29.38
218.4	-5.66
218.618	-9.59
218.835	-14.05
219.052	-17.7
219.269	-17.84
219.487	-2.67
219.704	-1.63
219.921	-1.85
220.138	-1.43
220.355	1.6
220.572	3.82
220.79	12.93
221.007	3.96
221.224	12.1
221.441	16.99
221.658	18.36
221.875	13.43
222.092	18.29
222.309	20.64
222.526	16.72
222.743	8.28
222.96	7.68
223.177	7.36
223.394	16.35
223.611	9.79
223.828	10.52
224.045	11.53
224.262	17.48
224.479	16.82
224.696	16.58
224.913	15.67
225.13	18.36
225.347	22.74
225.564	20.77
225.781	17.78
225.997	16
226.214	15.72
226.431	12.31
226.648	7.33
226.865	6.5
227.082	5.48
227.298	5.35
227.515	5.01
227.732	2.51
227.949	2.51
228.165	2.86
228.382	3.36
228.599	2.22
228.816	2.58
229.032	2.31
229.249	1.85
229.466	2.3
229.682	2.53
229.899	2.17
230.116	2.38
230.332	2.87
230.549	2.57
230.765	2.79
230.982	3.86
231.199	3.41
231.415	4.26
231.632	4.67
231.848	6.05
232.065	3.95
232.281	4.85
232.498	3.92
232.714	4.29
232.931	5.44
233.147	5.47
233.364	4.69
233.58	4.42
233.797	4.32
234.013	4.66
234.23	2.73
234.446	3.42
234.662	2.83
234.879	4
235.095	3.04
235.312	3.43
235.528	2.58
235.744	1.87
235.961	3.61
236.177	2.65
236.393	2.14
236.61	1.88
236.826	3.62
237.042	3.31
237.258	2.22
237.475	2.13
237.691	0.48
237.907	-0.05
238.123	2.75
238.339	1.22
238.556	0.38
238.772	1.43
238.988	0.09
239.204	-0.52
239.42	0.72
239.636	2.36
239.853	2.82
240.069	3.59
240.285	3.82
240.501	3.08
240.717	3.57
240.933	4.68
241.149	4.05
241.365	4.05
241.581	4.36
241.797	4.42
242.013	4.31
242.229	4.12
242.445	4.05
242.661	4.37
242.877	4.39
243.093	4.3
243.309	4.02
243.525	3.89
243.741	3.96
243.957	3.8
244.173	3.43
244.388	2.99
244.604	2.42
244.82	2.22
245.036	1.79
245.252	1.32
245.468	1.51
245.683	2.14
245.899	2.35
246.115	2.65
246.331	2.48
246.547	2.39
246.762	2.62
246.978	2.79
247.194	3.06
247.409	3.26
247.625	3.53
247.841	3.44
248.057	2.96
248.272	2.99
248.488	3.43
248.703	3.82
248.919	3.72
249.135	3.73
249.35	4.11
249.566	3.9
249.782	3.66
249.997	3.6
250.213	4.24
250.428	4.67
250.644	4.77
250.859	3.7
251.075	3.5
251.29	3.49
251.506	4.07
251.721	3.44
251.937	2.93
252.152	3.17
252.368	3.35
252.583	2.29
252.798	1.94
253.014	2
253.229	2.63
253.445	1.94
253.66	1.86
253.875	1.65
254.091	1.86
254.306	2.48
254.521	2.15
254.737	2.44
254.952	3.31
255.167	3.41
255.383	3.2
255.598	2.33
255.813	2.65
256.028	3.26
256.244	2.34
256.459	2.05
256.674	1.76
256.889	2.08
257.104	0.84
257.32	1.59
257.535	1.77
257.75	2.03
257.965	1.87
258.18	1.54
258.395	1.5
258.61	1.93
258.826	2.16
259.041	2.29
259.256	2.21
259.471	2.13
259.686	1.86
259.901	2.18
260.116	2.11
260.331	2.46
260.546	2.58
260.761	2.49
260.976	2.14
261.191	2.32
261.406	2.05
261.621	1.87
261.836	2.23
262.05	1.7
262.265	1.22
262.48	0.83
262.695	0.71
262.91	0.32
263.125	0.05
263.34	0.51
263.555	-0.07
263.769	0.37
263.984	0.28
264.199	-0.37
264.414	0.02
264.629	0.07
264.843	0.31
265.058	-0.13
265.273	1.01
265.488	1.35
265.702	1.67
265.917	1.34
266.132	1.65
266.346	2
266.561	2.89
266.776	3.13
266.99	2.89
267.205	3.05
267.42	2.87
267.634	2.54
267.849	2.45
268.063	2.21
268.278	3.01
268.492	2.51
268.707	2.36
268.922	1.34
269.136	1.86
269.351	1.72
269.565	1.78
269.78	1.98
269.994	1.98
270.209	1.7
270.423	1.61
270.637	1.01
270.852	1.1
271.066	1.5
271.281	1.88
271.495	1.21
271.709	1.3
271.924	1.45
272.138	1.35
272.353	1.5
272.567	1.96
272.781	1.74
272.996	1.77
273.21	1.79
273.424	1.82
273.638	1.8
273.853	2.09
274.067	2.17
274.281	1.88
274.495	1.8
274.71	1.76
274.924	1.99
275.138	1.86
275.352	2.32
275.566	2.18
275.781	1.74
275.995	2.3
276.209	2.28
276.423	2.04
276.637	1.82
276.851	2.2
277.065	2.16
277.279	1.96
277.493	2.27
277.707	2.13
277.921	2.13
278.135	2.23
278.349	1.57
278.563	2.03
278.777	2.43
278.991	2.65
279.205	2.5
279.419	1.99
279.633	1.91
279.847	1.42
280.061	1.04
280.275	1.01
280.489	1.18
280.703	1.2
280.917	1.09
281.131	0.91
281.344	0.91
281.558	0.78
281.772	1.33
281.986	1.27
282.2	1.7
282.414	1.49
282.627	1.62
282.841	1.22
283.055	1.15
283.269	0.84
283.482	0.54
283.696	0.34
283.91	0.38
284.123	0.23
284.337	0.35
284.551	0.43
284.764	0.72
284.978	0.6
285.192	1
285.405	1.26
285.619	1.18
285.833	1.43
286.046	1.29
286.26	1.26
286.473	1.29
286.687	1.04
286.9	0.63
287.114	0.53
287.327	0.43
287.541	0.18
287.754	0.04
287.968	-0.01
288.181	0.18
288.395	0.57
288.608	0.8
288.822	0.59
289.035	0.61
289.248	0.95
289.462	1.17
289.675	1.54
289.889	1.68
290.102	1.57
290.315	1.98
290.529	1.72
290.742	1.84
290.955	1.51
291.169	1.84
291.382	1.88
291.595	1.93
291.808	2.25
292.022	1.72
292.235	1.73
292.448	1.81
292.661	1.64
292.875	1.69
293.088	1.75
293.301	1.69
293.514	1.56
293.727	1.96
293.94	1.89
294.153	1.68
294.367	1.8
294.58	1.54
294.793	1.48
295.006	1.49
295.219	1.24
295.432	0.77
295.645	1.32
295.858	1.03
296.071	0.88
296.284	0.78
296.497	0.74
296.71	0.94
296.923	1.31
297.136	1.42
297.349	1.52
297.562	1.84
297.775	2.09
297.988	2.07
298.201	2.51
298.414	2.49
298.626	2.8
298.839	2.78
299.052	2.96
299.265	2.64
299.478	2.68
299.691	2.35
299.903	2.24
300.116	2.44
300.329	2.13
300.542	2.03
300.755	1.82
300.967	1.48
301.18	1.21
301.393	1.32
301.605	1.58
301.818	1.72
302.031	1.92
302.243	1.92
302.456	1.67
302.669	1.6
302.881	1.58
303.094	1.57
303.307	1.71
303.519	1.63
303.732	1.3
303.944	0.94
304.157	0.85
304.37	0.8
304.582	0.71
304.795	0.84
305.007	1.15
305.22	0.86
305.432	1.02
305.645	1.1
305.857	1.96
306.069	1.84
306.282	2.01
306.494	1.7
306.707	1.65
306.919	1.44
307.132	1.22
307.344	1.31
307.556	1.78
307.769	2.07
307.981	2.08
308.193	1.23
308.406	1.48
308.618	1.52
308.83	1.63
309.043	1.73
309.255	1.9
309.467	1.97
309.679	1.5
309.892	1.19
310.104	1.25
310.316	0.97
310.528	1.03
310.74	1.27
310.953	1
311.165	1.14
311.377	1.19
311.589	1.41
311.801	1.21
312.013	1.27
312.225	1.25
312.437	1.06
312.649	1.3
312.862	1.58
313.074	1.31
313.286	1.8
313.498	1.56
313.71	1.69
313.922	1.73
314.134	2.29
314.346	2.39
314.558	2.7
314.77	2.89
314.982	2.83
315.193	2.98
315.405	3.3
315.617	3.15
315.829	3.39
316.041	3.15
316.253	2.75
316.465	2.75
316.677	2.98
316.888	3.09
317.1	2.34
317.312	2.75
317.524	2.84
317.736	2.44
317.947	2.33
318.159	2.71
318.371	3.06
318.583	3.63
318.794	3.61
319.006	3.61
319.218	3.44
319.43	3.77
319.641	3.92
319.853	4.24
320.064	4.46
320.276	4.92
320.488	4.78
320.699	4.88
320.911	4.87
321.123	4.73
321.334	4.38
321.546	4.64
321.757	4.91
321.969	4.12
322.18	4.27
322.392	4.52
322.603	4.08
322.815	3.94
323.026	3.84
323.238	3.61
323.449	3.8
323.661	4.11
323.872	4.04
324.083	4.38
324.295	5.35
324.506	4.79
324.718	4.8
324.929	5.16
325.14	5.47
325.352	5.56
325.563	5.97
325.774	5.8
325.986	6.27
326.197	6.33
326.408	6.73
326.62	6.72
326.831	7.02
327.042	7.19
327.253	7.34
327.464	7.67
327.676	8.21
327.887	8.69
328.098	9.37
328.309	9.35
328.52	10.18
328.732	10.36
328.943	10.82
329.154	11.12
329.365	11.17
329.576	11.64
329.787	11.69
329.998	11.38
330.209	11.49
330.42	11.56
330.631	12.13
330.842	11.94
331.053	12.15
331.264	12.1
331.475	12.42
331.686	13.06
331.897	13.47
332.108	14.02
332.319	14.82
332.53	15.05
332.741	15.68
332.952	15.62
333.163	15.7
333.374	15.48
333.585	15.81
333.795	16.14
334.006	16.18
334.217	16.23
334.428	16.14
334.639	16.22
334.849	16
335.06	15.78
335.271	16.34
335.482	16.6
335.692	17.02
335.903	16.8
336.114	17.14
336.325	16.99
336.535	16.78
336.746	17.14
336.957	17.06
337.167	17.32
337.378	17.44
337.589	17.26
337.799	17.1
338.01	17.58
338.22	17.73
338.431	17.06
338.642	17.05
338.852	17.35
339.063	17.39
339.273	17.11
339.484	17.15
339.694	16.9
339.905	16.72
340.115	16.97
340.326	16.46
340.536	16.68
340.746	17.04
340.957	17.63
341.167	17.46
341.378	17.04
341.588	17.15
341.799	17.17
342.009	17.4
342.219	17.52
342.43	17.41
342.64	17.58
342.85	17.46
343.061	17.54
343.271	17.13
343.481	16.93
343.691	16.81
343.902	17.06
344.112	17.12
344.322	16.95
344.532	17.13
344.743	17.32
344.953	17.11
345.163	16.87
345.373	16.61
345.583	16.59
345.793	16.77
346.004	16.88
346.214	16.72
346.424	16.6
346.634	16.83
346.844	16.52
347.054	16.07
347.264	16.33
347.474	16.71
347.684	16.97
347.894	17.2
348.104	17.35
348.314	17.42
348.524	17.59
348.734	17.45
348.944	17.49
349.154	17.55
349.364	17.9
349.574	17.65
349.784	17.68
349.994	17.85
350.204	17.74
350.413	17.88
350.623	18.08
350.833	17.87
351.043	17.86
351.253	17.86
351.463	18.08
351.672	17.98
351.882	18.38
352.092	18.13
352.302	18.1
352.511	18.16
352.721	17.89
352.931	17.95
353.141	17.78
353.35	17.97
353.56	17.77
353.77	17.55
353.979	17.68
354.189	17.2
354.399	17.25
354.608	16.97
354.818	16.87
355.027	17.06
355.237	16.87
355.447	16.98
355.656	16.86
355.866	16.8
356.075	16.65
356.285	16.44
356.494	16.37
356.704	16.33
356.913	16.42
357.123	16.52
357.332	16.28
357.542	16.28
357.751	16.28
357.96	16.45
358.17	16.24
358.379	16.24
358.589	16.26
358.798	16.58
359.007	16.5
359.217	16.51
359.426	16.53
359.635	16.5
359.845	16.38
360.054	16.28
360.263	16.06
360.472	16.18
360.682	16.3
360.891	16.32
361.1	16.05
361.309	16.09
361.519	16.04
361.728	15.94
361.937	16.05
362.146	16.07
362.355	16.09
362.564	16.26
362.774	16.34
362.983	16.23
363.192	16.16
363.401	16.24
363.61	16.2
363.819	15.97
364.028	15.77
364.237	15.75
364.446	15.67
364.655	15.72
364.864	15.62
365.073	15.41
365.282	15.45
365.491	15.31
365.7	15.15
365.909	15.12
366.118	15.29
366.327	15.4
366.536	15.41
366.745	15.53
366.954	15.36
367.162	15.3
367.371	15.37
367.58	15.4
367.789	15.58
367.998	15.69
368.207	15.54
368.415	15.47
368.624	15.65
368.833	15.57
369.042	15.56
369.25	15.82
369.459	15.87
369.668	15.93
369.877	15.71
370.085	15.67
370.294	15.76
370.503	16.17
370.711	16.36
370.92	16.13
371.129	15.83
371.337	15.73
371.546	15.6
371.754	15.77
371.963	15.6
372.171	15.91
372.38	15.91
372.589	15.97
372.797	15.63
373.006	15.43
373.214	15.42
373.423	15.54
373.631	15.6
373.84	15.58
374.048	15.12
374.256	15.38
374.465	15.49
374.673	15.55
374.882	15.38
375.09	15.57
375.298	15.92
375.507	15.84
375.715	15.96
375.923	15.82
376.132	15.93
376.34	16.22
376.548	16.4
376.757	16
376.965	15.82
377.173	15.79
377.381	15.73
377.59	15.63
377.798	15.83
378.006	15.63
378.214	15.87
378.423	15.79
378.631	15.77
378.839	15.57
379.047	15.83
379.255	16.03
379.463	16.07
379.671	15.83
379.879	15.86
380.088	15.72
380.296	15.85
380.504	15.46
380.712	15.55
380.92	15.41
381.128	15.25
381.336	14.98
381.544	14.84
381.752	14.65
381.96	14.82
382.168	14.63
382.376	14.86
382.584	14.85
382.791	15
382.999	14.91
383.207	14.99
383.415	15.15
383.623	15.05
383.831	15.19
384.039	15.49
384.247	15.39
384.454	15.48
384.662	15.42
384.87	15.33
385.078	15.25
385.285	15.22
385.493	15.06
385.701	15.02
385.909	15.14
386.116	15.37
386.324	15.15
386.532	15.29
386.739	15.2
386.947	15.01
387.155	15.24
387.362	15.4
387.57	15.34
387.778	15.48
387.985	15.48
388.193	15.6
388.4	15.21
388.608	15.36
388.816	15.32
389.023	15.4
389.231	15.4
389.438	15.24
389.646	15.18
389.853	15.26
390.061	15.23
390.268	15.04
390.475	14.9
390.683	14.87
390.89	14.67
391.098	14.65
391.305	14.56
391.512	14.49
391.72	14.48
391.927	14.37
392.135	14.31
392.342	14.27
392.549	14.46
392.756	14.45
392.964	14.54
393.171	14.72
393.378	14.62
393.586	14.59
393.793	14.74
394	14.7
394.207	14.77
394.414	14.78
394.622	14.64
394.829	14.37
395.036	14.4
395.243	14.31
395.45	14.13
395.657	14.16
395.864	14.04
396.072	13.91
396.279	14.02
396.486	13.89
396.693	13.97
396.9	14.28
397.107	14.35
397.314	14.42
397.521	14.38
397.728	14.49
397.935	14.65
398.142	14.88
398.349	14.94
398.556	14.86
398.763	14.83
398.97	14.77
399.177	14.6
399.383	14.64
399.59	14.69
399.797	14.72
400.004	14.65
400.211	14.49
400.418	14.22
400.625	14.14
400.831	14.25
401.038	14.52
401.245	14.54
401.452	14.63
401.658	14.61
401.865	14.46
402.072	14.52
402.279	14.43
402.485	14.5
402.692	14.82
402.899	14.87
403.105	14.79
403.312	14.55
403.519	14.55
403.725	14.58
403.932	14.64
404.138	14.86
404.345	14.96
404.552	14.95
404.758	14.91
404.965	14.69
405.171	14.77
405.378	14.88
405.584	14.89
405.791	14.81
405.997	14.64
406.204	14.62
406.41	14.61
406.617	14.62
406.823	14.79
407.029	14.73
407.236	14.75
407.442	14.63
407.649	14.52
407.855	14.57
408.061	14.65
408.268	14.71
408.474	14.75
408.68	14.55
408.887	14.57
409.093	14.57
409.299	14.65
409.505	14.62
409.712	14.61
409.918	14.73
410.124	14.86
410.33	15
410.537	15.16
410.743	15.15
410.949	15.15
411.155	15.05
411.361	15.05
411.567	15.16
411.773	15.34
411.98	15.48
412.186	15.34
412.392	15.26
412.598	15.13
412.804	14.99
413.01	15.03
413.216	15.2
413.422	15.08
413.628	15.05
413.834	14.93
414.04	14.89
414.246	14.74
414.452	14.74
414.658	14.73
414.864	14.63
415.07	14.82
415.275	14.72
415.481	14.61
415.687	14.72
415.893	14.6
416.099	14.57
416.305	14.49
416.511	14.62
416.716	14.6
416.922	14.66
417.128	14.68
417.334	14.55
417.539	14.57
417.745	14.58
417.951	14.48
418.157	14.5
418.362	14.48
418.568	14.42
418.774	14.25
418.979	14.36
419.185	14.41
419.391	14.4
419.596	14.45
419.802	14.41
420.008	14.36
420.213	13.83
420.419	13.83
420.624	13.84
420.83	13.91
421.035	13.96
421.241	13.84
421.446	13.76
421.652	13.79
421.857	13.8
422.063	13.83
422.268	13.93
422.474	14.5
422.679	14.55
422.885	14.54
423.09	14.51
423.295	14.55
423.501	14.6
423.706	14.61
423.911	14.56
424.117	14.5
424.322	14.49
424.527	14.41
424.733	14.35
424.938	14.28
425.143	14.34
425.349	14.35
425.554	14.36
425.759	14.28
425.964	14.3
426.169	14.31
426.375	14.31
426.58	14.27
426.785	14.23
426.99	14.24
427.195	14.35
427.4	14.34
427.605	14.45
427.811	14.44
428.016	14.42
428.221	14.35
428.426	14.42
428.631	14.45
428.836	14.5
429.041	14.53
429.246	14.51
429.451	14.49
429.656	14.42
429.861	14.29
430.066	14.36
430.271	14.48
430.476	14.55
430.681	14.56
430.886	14.5
431.09	14.54
431.295	14.73
431.5	14.86
431.705	14.8
431.91	14.85
432.115	14.85
432.32	14.91
432.524	14.9
432.729	14.85
432.934	14.79
433.139	14.81
433.343	14.84
433.548	14.76
433.753	14.74
433.958	14.75
434.162	14.76
434.367	14.84
434.572	14.71
434.776	14.69
434.981	14.79
435.186	14.86
435.39	14.86
435.595	14.77
435.799	14.77
436.004	14.76
436.209	14.8
436.413	14.92
436.618	14.82
436.822	14.87
437.027	14.87
437.231	14.8
437.436	14.74
437.64	14.74
437.845	14.79
438.049	14.78
438.253	14.78
438.458	14.74
438.662	14.59
438.867	14.72
439.071	14.68
439.275	14.78
439.48	14.67
439.684	14.7
439.888	14.7
440.093	14.66
440.297	14.57
440.501	14.53
440.706	14.61
440.91	14.72
441.114	14.69
441.318	14.68
441.523	14.62
441.727	14.72
441.931	14.71
442.135	14.72
442.339	14.79
442.543	14.82
442.748	14.84
442.952	14.71
443.156	14.64
443.36	14.68
443.564	14.68
443.768	14.68
443.972	14.61
444.176	14.55
444.38	14.56
444.584	14.55
444.788	14.62
444.992	14.62
445.196	14.62
445.4	14.71
445.604	14.65
445.808	14.66
446.012	14.61
446.216	14.68
446.42	14.65
446.624	14.59
446.828	14.55
447.032	14.47
447.235	14.47
447.439	14.47
447.643	14.39
447.847	14.34
448.051	14.29
448.254	14.3
448.458	14.22
448.662	14.38
448.866	14.48
449.069	14.56
449.273	14.67
449.477	14.73
449.681	14.69
449.884	14.7
450.088	14.8
450.292	14.94
450.495	15.03
450.699	15.03
450.902	14.96
451.106	14.84
451.31	14.86
451.513	14.9
451.717	14.79
451.92	14.85
452.124	14.77
452.327	14.72
452.531	14.71
452.734	14.61
452.938	14.63
453.141	14.56
453.345	14.55
453.548	14.41
453.752	14.23
453.955	14.3
454.158	14.37
454.362	14.5
454.565	14.53
454.769	14.47
454.972	14.55
455.175	14.66
455.379	14.78
455.582	14.98
455.785	15.07
455.988	15.12
456.192	15.21
456.395	15.26
456.598	15.22
456.801	15.25
457.005	15.31
457.208	15.24
457.411	15.28
457.614	15.16
457.817	15.03
458.021	14.91
458.224	15
458.427	14.93
458.63	14.76
458.833	14.75
459.036	14.64
459.239	14.57
459.442	14.55
459.645	14.44
459.848	14.47
460.051	14.47
460.254	14.51
460.457	14.44
460.66	14.45
460.863	14.56
461.066	14.6
461.269	14.66
461.472	14.76
461.675	14.8
461.878	14.82
462.081	14.84
