Data from 2938761__Reflection_03.txt Node
Date: Fri Mar 13 17:07:02 EDT 2015
User: robert
Spectrometer: USB4E03002
Autoset integration time: false
Trigger mode: 4
Integration Time (sec): 1.000000E-1
Scans to average: 10
Electric dark correction enabled: false
Nonlinearity correction enabled: false
Boxcar width: 5
Stray light correction enabled: false
XAxis mode: Wavelengths
Stop averaging: false
Number of Pixels in Spectrum: 3648
>>>>>Begin Spectral Data<<<<<
177.575	-1110.42
177.794	-6115.38
178.014	-1089.74
178.233	-581.17
178.452	-458.26
178.672	-395.32
178.891	-244.73
179.11	-204.45
179.33	-299.4
179.549	-542.22
179.768	-387.07
179.987	-448.09
180.207	-318.27
180.426	-374.6
180.645	-1415.56
180.864	-6014.29
181.084	1522.47
181.303	1488.51
181.522	535.4
181.741	759.59
181.96	1046.81
182.179	477.43
182.398	490.08
182.618	445.99
182.837	283.03
183.056	349.03
183.275	351.23
183.494	252.1
183.713	236.85
183.932	163.62
184.151	162.45
184.37	170.44
184.589	151.62
184.808	160.51
185.027	150.83
185.246	138.99
185.465	139.56
185.684	160.3
185.903	256.26
186.122	289.78
186.341	533.49
186.56	2131.91
186.779	775.68
186.998	-408.42
187.216	-1193.94
187.435	746.03
187.654	-5786.67
187.873	-593.33
188.092	16816.67
188.311	965.69
188.53	381.67
188.748	414.38
188.967	410.73
189.186	441.62
189.405	291.04
189.623	384.69
189.842	516.86
190.061	832.68
190.28	478.44
190.498	619.58
190.717	480.99
190.936	580.54
191.154	485.59
191.373	485.84
191.592	443.56
191.81	471.01
192.029	689.33
192.248	815.38
192.466	266.76
192.685	258.82
192.904	304.13
193.122	292.71
193.341	390.65
193.559	719.59
193.778	868.57
193.996	2318.52
194.215	-1512.2
194.433	2100
194.652	-905.63
194.87	-369.02
195.089	-2968.42
195.307	1110.71
195.526	-3288.24
195.744	722.77
195.963	394.26
196.181	288.66
196.399	276.59
196.618	292.72
196.836	279.1
197.055	215.76
197.273	215.16
197.491	289.61
197.71	237.08
197.928	203.1
198.146	207.47
198.365	204.96
198.583	221.79
198.801	194.37
199.019	186.88
199.238	202.42
199.456	194.23
199.674	206.04
199.892	211
200.111	236.71
200.329	247.4
200.547	276.09
200.765	309.73
200.983	320.73
201.202	373.56
201.42	355.03
201.638	282.92
201.856	390.17
202.074	264.75
202.292	289.4
202.51	231.83
202.728	245.38
202.946	169.97
203.165	175.34
203.383	187.6
203.601	171.45
203.819	220
204.037	245.48
204.255	258.59
204.473	302.74
204.691	236.42
204.909	191.76
205.127	197.73
205.345	248.95
205.562	265.05
205.78	215.62
205.998	260.71
206.216	326.99
206.434	250.36
206.652	211.91
206.87	372.12
207.088	392.51
207.306	1663.49
207.523	908.7
207.741	841.67
207.959	687.43
208.177	996.69
208.395	363.82
208.612	188.35
208.83	216.7
209.048	262.27
209.266	253.5
209.483	245.6
209.701	220.41
209.919	235.86
210.136	202.04
210.354	234.98
210.572	248.9
210.79	265.71
211.007	287.43
211.225	265.3
211.442	283.22
211.66	251.48
211.878	200.69
212.095	207.46
212.313	178.16
212.53	195.9
212.748	160.44
212.966	160.07
213.183	187.83
213.401	232.15
213.618	195.87
213.836	154.16
214.053	146.52
214.271	200
214.488	199.09
214.705	245.55
214.923	230.53
215.14	289.38
215.358	271.1
215.575	176.77
215.793	136.72
216.01	155.54
216.227	181.29
216.445	161.17
216.662	129.44
216.879	125
217.097	125.14
217.314	127.82
217.531	114.31
217.749	112.33
217.966	123.46
218.183	130.4
218.4	118.21
218.618	110.75
218.835	105.95
219.052	120.49
219.269	116.02
219.487	115.25
219.704	105.75
219.921	110.03
220.138	106.27
220.355	101.15
220.572	83.65
220.79	95.65
221.007	101.38
221.224	106.62
221.441	92.16
221.658	90.65
221.875	87.26
222.092	79.04
222.309	82.78
222.526	85.03
222.743	79.99
222.96	78.98
223.177	72.15
223.394	62.13
223.611	57.07
223.828	57.51
224.045	55.48
224.262	51.09
224.479	55.61
224.696	48.92
224.913	42.19
225.13	39.13
225.347	41.64
225.564	39.18
225.781	39.55
225.997	34.37
226.214	31.35
226.431	31.1
226.648	28.17
226.865	22.01
227.082	20.47
227.298	17.36
227.515	15.55
227.732	13.9
227.949	11.77
228.165	10.03
228.382	9.74
228.599	9.06
228.816	8.46
229.032	8.42
229.249	8.32
229.466	8.26
229.682	8.99
229.899	9.67
230.116	8.58
230.332	9.93
230.549	10.73
230.765	10.59
230.982	11.35
231.199	11.99
231.415	12.97
231.632	14.16
231.848	13.72
232.065	14.12
232.281	14.62
232.498	15.63
232.714	15.16
232.931	16.38
233.147	18.58
233.364	16.63
233.58	15.49
233.797	13.6
234.013	14.03
234.23	13.33
234.446	11.63
234.662	11.46
234.879	12.54
235.095	11.17
235.312	10.57
235.528	8.66
235.744	9.43
235.961	10.09
236.177	10.78
236.393	11.17
236.61	11.53
236.826	13.36
237.042	13.54
237.258	11.83
237.475	12.73
237.691	12.25
237.907	11.99
238.123	13.06
238.339	13.8
238.556	13.76
238.772	13.11
238.988	13.37
239.204	13.43
239.42	12.55
239.636	13.23
239.853	12.45
240.069	11.43
240.285	10.96
240.501	9.44
240.717	8.67
240.933	9.39
241.149	8.07
241.365	7.03
241.581	6.45
241.797	5.92
242.013	5.5
242.229	4.97
242.445	4.88
242.661	4.85
242.877	5.24
243.093	4.61
243.309	3.79
243.525	4.35
243.741	5.33
243.957	5.21
244.173	5.41
244.388	6.09
244.604	7
244.82	7.36
245.036	8.03
245.252	7.59
245.468	8.2
245.683	7.81
245.899	6.99
246.115	6.4
246.331	6.26
246.547	6.01
246.762	5.32
246.978	5.44
247.194	5.02
247.409	4.98
247.625	5.18
247.841	5.3
248.057	5.39
248.272	5.4
248.488	5.15
248.703	5.58
248.919	5.68
249.135	6.12
249.35	5.9
249.566	6.58
249.782	5.7
249.997	5.33
250.213	4.98
250.428	5.1
250.644	5.81
250.859	6.53
251.075	5.57
251.29	5.34
251.506	4.79
251.721	4.48
251.937	4.33
252.152	5.02
252.368	5.01
252.583	4.97
252.798	5.14
253.014	5.39
253.229	5.97
253.445	6.44
253.66	7.76
253.875	8.69
254.091	8.87
254.306	9.54
254.521	10.33
254.737	10.72
254.952	9.53
255.167	10.03
255.383	8.64
255.598	7.54
255.813	7.27
256.028	7.74
256.244	6.98
256.459	7.42
256.674	6.44
256.889	5.7
257.104	5.92
257.32	6.6
257.535	5.29
257.75	5.09
257.965	5.1
258.18	5.03
258.395	4.26
258.61	4.19
258.826	4.29
259.041	4.08
259.256	4.08
259.471	3.79
259.686	3.56
259.901	3.7
260.116	4.15
260.331	4.08
260.546	4.03
260.761	4.11
260.976	4.14
261.191	4.03
261.406	4.63
261.621	4.56
261.836	4.87
262.05	5.29
262.265	5.59
262.48	5.41
262.695	5.87
262.91	6.53
263.125	6.23
263.34	6.75
263.555	6.61
263.769	6.44
263.984	6.71
264.199	6.65
264.414	7
264.629	7.19
264.843	7.61
265.058	7.58
265.273	6.77
265.488	7.17
265.702	6.69
265.917	7.22
266.132	7.12
266.346	6.81
266.561	6.59
266.776	6.27
266.99	5.46
267.205	5.27
267.42	4.67
267.634	4.72
267.849	4.58
268.063	4.83
268.278	4.47
268.492	4.23
268.707	4.19
268.922	4.27
269.136	4.29
269.351	4.93
269.565	4.82
269.78	5.12
269.994	5.23
270.209	5.16
270.423	5.34
270.637	5.4
270.852	5.37
271.066	4.98
271.281	4.7
271.495	4.84
271.709	4.54
271.924	4.5
272.138	4.4
272.353	4.35
272.567	4.15
272.781	4.07
272.996	3.68
273.21	3.56
273.424	3.71
273.638	3.85
273.853	3.53
274.067	4.11
274.281	4.25
274.495	4.18
274.71	3.64
274.924	3.69
275.138	3.05
275.352	3.44
275.566	3.36
275.781	3.48
275.995	3.32
276.209	3.48
276.423	2.86
276.637	2.95
276.851	2.99
277.065	3.28
277.279	3.16
277.493	3.1
277.707	3.22
277.921	3.26
278.135	3.69
278.349	3.51
278.563	3.77
278.777	4.26
278.991	3.84
279.205	4.1
279.419	4.13
279.633	4.51
279.847	4.8
280.061	4.51
280.275	4.52
280.489	4.03
280.703	4.48
280.917	4.29
281.131	3.97
281.344	3.84
281.558	3.79
281.772	3.73
281.986	3.48
282.2	3.53
282.414	3.59
282.627	3.64
282.841	3.98
283.055	3.85
283.269	3.55
283.482	3.4
283.696	3.37
283.91	2.94
284.123	2.88
284.337	2.78
284.551	2.68
284.764	2.57
284.978	2.83
285.192	2.57
285.405	2.77
285.619	2.84
285.833	2.81
286.046	2.92
286.26	2.93
286.473	2.99
286.687	3.1
286.9	3.34
287.114	3.55
287.327	3.05
287.541	2.88
287.754	2.69
287.968	2.62
288.181	2.71
288.395	2.47
288.608	2.96
288.822	3.23
289.035	3.3
289.248	2.99
289.462	2.85
289.675	2.84
289.889	3.18
290.102	3.03
290.315	3.06
290.529	3.02
290.742	3.49
290.955	3.27
291.169	2.91
291.382	2.88
291.595	2.77
291.808	2.82
292.022	2.92
292.235	2.84
292.448	3.17
292.661	2.95
292.875	3.22
293.088	3.03
293.301	3.23
293.514	3.64
293.727	3.3
293.94	3.36
294.153	3.51
294.367	3.37
294.58	3.34
294.793	3.1
295.006	3.21
295.219	2.85
295.432	2.91
295.645	2.69
295.858	2.51
296.071	2.48
296.284	2.79
296.497	2.66
296.71	2.82
296.923	2.86
297.136	3.05
297.349	3.31
297.562	3.5
297.775	3.24
297.988	3.44
298.201	3.49
298.414	3.81
298.626	3.62
298.839	3.78
299.052	3.65
299.265	3.87
299.478	3.72
299.691	3.78
299.903	3.67
300.116	3.65
300.329	3.48
300.542	3.28
300.755	3.26
300.967	3.22
301.18	3.04
301.393	3.4
301.605	3.11
301.818	2.72
302.031	2.5
302.243	2.51
302.456	2.97
302.669	2.77
302.881	3.11
303.094	2.91
303.307	3.13
303.519	3.02
303.732	3.06
303.944	2.94
304.157	3.62
304.37	3.4
304.582	3.77
304.795	3.69
305.007	4.2
305.22	4.33
305.432	4.15
305.645	4.21
305.857	4.52
306.069	4.4
306.282	4.48
306.494	4.4
306.707	4.83
306.919	4.47
307.132	4.15
307.344	3.85
307.556	4.03
307.769	4.63
307.981	4.42
308.193	4.03
308.406	4.07
308.618	3.95
308.83	3.96
309.043	3.67
309.255	3.76
309.467	3.68
309.679	3.67
309.892	3.49
310.104	3.03
310.316	3.39
310.528	3.59
310.74	3.47
310.953	3.75
311.165	3.59
311.377	3.66
311.589	3.57
311.801	3.67
312.013	3.67
312.225	3.64
312.437	3.97
312.649	3.8
312.862	3.77
313.074	3.98
313.286	4.04
313.498	4.2
313.71	4.11
313.922	4.44
314.134	4.44
314.346	4.37
314.558	4.44
314.77	4.62
314.982	4.34
315.193	4.48
315.405	4.17
315.617	4.09
315.829	4.05
316.041	4.3
316.253	3.83
316.465	3.96
316.677	4.31
316.888	4.25
317.1	4.15
317.312	4.41
317.524	4.34
317.736	4.44
317.947	4.36
318.159	4.54
318.371	4.67
318.583	5.01
318.794	5.28
319.006	5.49
319.218	5.1
319.43	4.84
319.641	4.61
319.853	4.3
320.064	4.73
320.276	5.04
320.488	4.49
320.699	4.44
320.911	4.33
321.123	4.03
321.334	3.71
321.546	4.17
321.757	4.75
321.969	5.18
322.18	5.55
322.392	5.15
322.603	4.63
322.815	5.33
323.026	5.1
323.238	5.03
323.449	5.43
323.661	5.3
323.872	5.07
324.083	4.82
324.295	4.52
324.506	4.6
324.718	4.56
324.929	4.84
325.14	4.65
325.352	4.89
325.563	4.77
325.774	4.69
325.986	4.75
326.197	4.98
326.408	5.05
326.62	5.14
326.831	5.1
327.042	5.31
327.253	5.1
327.464	4.99
327.676	5.15
327.887	5.59
328.098	5.62
328.309	6.1
328.52	6.13
328.732	6.09
328.943	6.2
329.154	6.02
329.365	6.24
329.576	6.8
329.787	6.81
329.998	6.68
330.209	6.41
330.42	6.34
330.631	5.99
330.842	5.66
331.053	5.73
331.264	5.75
331.475	5.61
331.686	5.25
331.897	5.17
332.108	5.08
332.319	5.07
332.53	5.15
332.741	5.17
332.952	5.53
333.163	5.93
333.374	6.01
333.585	5.88
333.795	6.34
334.006	6.54
334.217	6.66
334.428	7.2
334.639	7.01
334.849	6.95
335.06	7.01
335.271	6.33
335.482	6.55
335.692	6.64
335.903	6.83
336.114	6.58
336.325	6.65
336.535	6.45
336.746	6.01
336.957	6.31
337.167	6.43
337.378	6.56
337.589	6.74
337.799	6.31
338.01	6.13
338.22	5.98
338.431	5.84
338.642	5.72
338.852	5.65
339.063	5.67
339.273	5.62
339.484	5.45
339.694	5.22
339.905	5.54
340.115	5.63
340.326	5.32
340.536	5.47
340.746	5.69
340.957	5.71
341.167	6.08
341.378	6.19
341.588	6.08
341.799	6.08
342.009	5.67
342.219	5.68
342.43	5.57
342.64	5.96
342.85	6.02
343.061	6.18
343.271	6.22
343.481	5.76
343.691	5.76
343.902	5.52
344.112	5.58
344.322	5.88
344.532	5.69
344.743	5.93
344.953	5.85
345.163	5.47
345.373	5.39
345.583	5.33
345.793	5.36
346.004	5.39
346.214	5.38
346.424	5.42
346.634	5.47
346.844	5.55
347.054	5.44
347.264	5.27
347.474	5.52
347.684	5.38
347.894	5.46
348.104	5.61
348.314	5.56
348.524	5.63
348.734	5.44
348.944	5.52
349.154	5.31
349.364	5.37
349.574	5.29
349.784	5.52
349.994	5.33
350.204	5.41
350.413	5.35
350.623	5.29
350.833	5.3
351.043	5.45
351.253	5.18
351.463	4.96
351.672	4.95
351.882	5.03
352.092	4.83
352.302	5.2
352.511	5.04
352.721	4.92
352.931	4.93
353.141	4.9
353.35	4.79
353.56	4.93
353.77	5.01
353.979	4.84
354.189	5.11
354.399	5.24
354.608	5.3
354.818	5.22
355.027	5.37
355.237	5.33
355.447	5.7
355.656	5.91
355.866	6.14
356.075	6.09
356.285	6.16
356.494	5.98
356.704	5.89
356.913	5.65
357.123	5.49
357.332	5.35
357.542	5.24
357.751	5.02
357.96	4.88
358.17	4.58
358.379	4.93
358.589	4.88
358.798	4.84
359.007	4.64
359.217	4.72
359.426	4.91
359.635	4.86
359.845	5.03
360.054	4.96
360.263	4.9
360.472	4.92
360.682	4.62
360.891	4.42
361.1	4.29
361.309	4.39
361.519	4.42
361.728	4.35
361.937	4.21
362.146	4.16
362.355	4.09
362.564	4.14
362.774	4.12
362.983	4.17
363.192	4.3
363.401	4.26
363.61	4.2
363.819	4.23
364.028	4.14
364.237	4.52
364.446	4.57
364.655	4.58
364.864	4.66
365.073	4.65
365.282	4.7
365.491	4.66
365.7	4.89
365.909	5.16
366.118	4.93
366.327	5
366.536	5
366.745	4.86
366.954	5.02
367.162	4.82
367.371	4.81
367.58	5.01
367.789	5.08
367.998	4.93
368.207	4.79
368.415	4.66
368.624	4.7
368.833	4.34
369.042	4.4
369.25	4.22
369.459	4.23
369.668	4.28
369.877	3.9
370.085	3.77
370.294	4.04
370.503	3.99
370.711	4.36
370.92	4.19
371.129	4.6
371.337	4.59
371.546	4.61
371.754	4.56
371.963	4.71
372.171	4.71
372.38	4.64
372.589	4.5
372.797	4.49
373.006	4.23
373.214	4.27
373.423	4.03
373.631	4.08
373.84	3.82
374.048	4.05
374.256	3.84
374.465	3.99
374.673	4.21
374.882	4.38
375.09	4.26
375.298	4.36
375.507	4.38
375.715	4.47
375.923	4.45
376.132	4.81
376.34	4.62
376.548	4.62
376.757	4.56
376.965	4.32
377.173	4.04
377.381	4.26
377.59	4.25
377.798	4.42
378.006	4.32
378.214	4.24
378.423	4.08
378.631	4.21
378.839	4.22
379.047	4.33
379.255	4.73
379.463	4.91
379.671	4.57
379.879	4.52
380.088	4.54
380.296	4.63
380.504	4.57
380.712	4.86
380.92	4.98
381.128	4.93
381.336	4.94
381.544	4.85
381.752	4.7
381.96	4.84
382.168	4.87
382.376	4.76
382.584	4.69
382.791	4.76
382.999	4.58
383.207	4.51
383.415	4.39
383.623	4.39
383.831	4.06
384.039	4.21
384.247	4.13
384.454	4.14
384.662	4.11
384.87	3.98
385.078	4.03
385.285	3.82
385.493	3.67
385.701	3.64
385.909	3.33
386.116	3.38
386.324	3.14
386.532	3.11
386.739	3.19
386.947	3.1
387.155	3.07
387.362	3.06
387.57	3.15
387.778	3.16
387.985	3.38
388.193	3.52
388.4	3.42
388.608	3.47
388.816	3.52
389.023	3.45
389.231	3.74
389.438	3.75
389.646	3.58
389.853	3.51
390.061	3.61
390.268	3.55
390.475	3.57
390.683	3.8
390.89	3.54
391.098	3.7
391.305	3.5
391.512	3.37
391.72	3.4
391.927	3.38
392.135	3.18
392.342	3.04
392.549	3
392.756	2.98
392.964	2.85
393.171	3.03
393.378	2.75
393.586	2.9
393.793	2.84
394	2.99
394.207	3.15
394.414	3.41
394.622	3.34
394.829	3.38
395.036	3.37
395.243	3.31
395.45	3.36
395.657	3.54
395.864	3.63
396.072	3.64
396.279	3.46
396.486	3.43
396.693	3.29
396.9	3.32
397.107	3.56
397.314	3.66
397.521	3.56
397.728	3.61
397.935	3.66
398.142	3.74
398.349	3.72
398.556	3.5
398.763	3.55
398.97	3.62
399.177	3.9
399.383	3.66
399.59	3.69
399.797	3.8
400.004	3.71
400.211	3.53
400.418	3.2
400.625	3.14
400.831	3.42
401.038	3.17
401.245	3.21
401.452	2.93
401.658	2.87
401.865	2.66
402.072	2.81
402.279	2.89
402.485	2.84
402.692	3.06
402.899	3.11
403.105	3.01
403.312	3.18
403.519	3.16
403.725	3.2
403.932	3.27
404.138	3.25
404.345	3.2
404.552	3.24
404.758	3.35
404.965	3.14
405.171	3
405.378	2.97
405.584	3.06
405.791	3.03
405.997	2.99
406.204	2.92
406.41	3.05
406.617	3.02
406.823	2.95
407.029	2.95
407.236	3.06
407.442	3.12
407.649	3.29
407.855	3.07
408.061	3.14
408.268	3.12
408.474	3.1
408.68	3.08
408.887	3.03
409.093	2.99
409.299	3.11
409.505	3.08
409.712	3.06
409.918	2.98
410.124	2.95
410.33	2.9
410.537	2.72
410.743	2.77
410.949	2.66
411.155	2.65
411.361	2.65
411.567	2.38
411.773	2.4
411.98	2.43
412.186	2.41
412.392	2.58
412.598	2.46
412.804	2.85
413.01	2.87
413.216	3.01
413.422	3.05
413.628	3.07
413.834	3.2
414.04	3.15
414.246	3.17
414.452	3.09
414.658	2.94
414.864	3.02
415.07	2.81
415.275	2.72
415.481	2.62
415.687	2.6
415.893	2.41
416.099	2.31
416.305	2.27
416.511	2.22
416.716	2.13
416.922	2.1
417.128	2.02
417.334	1.98
417.539	1.96
417.745	2.07
417.951	2.02
418.157	2.1
418.362	2.07
418.568	2.14
418.774	2.11
418.979	2.18
419.185	2.17
419.391	2.15
419.596	2.13
419.802	2.18
420.008	2
420.213	2.65
420.419	2.62
420.624	2.59
420.83	2.56
421.035	2.59
421.241	2.54
421.446	2.53
421.652	2.6
421.857	2.65
422.063	2.62
422.268	2.7
422.474	2.07
422.679	2.05
422.885	2.06
423.09	2.05
423.295	1.96
423.501	1.91
423.706	1.97
423.911	1.93
424.117	1.93
424.322	1.9
424.527	1.92
424.733	1.86
424.938	1.89
425.143	1.85
425.349	1.91
425.554	2
425.759	2.05
425.964	2.02
426.169	2.09
426.375	2.04
426.58	2.1
426.785	2.09
426.99	2.2
427.195	2.22
427.4	2.35
427.605	2.16
427.811	2.08
428.016	2.16
428.221	2.12
428.426	2.07
428.631	2.15
428.836	2.1
429.041	2.12
429.246	2.13
429.451	2.12
429.656	2.15
429.861	2.26
430.066	2.33
430.271	2.21
430.476	2.2
430.681	2.23
430.886	2.22
431.09	2.28
431.295	2.28
431.5	2.34
431.705	2.29
431.91	2.25
432.115	2.18
432.32	2.17
432.524	2.17
432.729	2.16
432.934	2.16
433.139	2.18
433.343	2.04
433.548	2.05
433.753	1.95
433.958	2.12
434.162	2.22
434.367	2.36
434.572	2.39
434.776	2.55
434.981	2.65
435.186	2.59
435.39	2.64
435.595	2.79
435.799	2.63
436.004	2.73
436.209	2.61
436.413	2.47
436.618	2.36
436.822	2.33
437.027	2.37
437.231	2.25
437.436	2.24
437.64	2.08
437.845	2.01
438.049	2
438.253	2.02
438.458	1.96
438.662	1.93
438.867	1.94
439.071	1.85
439.275	1.73
439.48	1.75
439.684	1.79
439.888	1.85
440.093	1.83
440.297	1.94
440.501	1.9
440.706	1.84
440.91	1.85
441.114	1.8
441.318	1.88
441.523	1.86
441.727	1.92
441.931	1.88
442.135	1.86
442.339	1.89
442.543	1.78
442.748	1.76
442.952	1.9
443.156	1.96
443.36	2.07
443.564	2.17
443.768	2.21
443.972	2.18
444.176	2.18
444.38	2.23
444.584	2.23
444.788	2.21
444.992	2.16
445.196	2.09
445.4	2.04
445.604	1.99
445.808	1.88
446.012	1.84
446.216	1.74
446.42	1.77
446.624	1.73
446.828	1.72
447.032	1.81
447.235	1.77
447.439	1.76
447.643	1.76
447.847	1.77
448.051	1.79
448.254	1.81
448.458	1.9
448.662	1.89
448.866	1.86
449.069	1.93
449.273	1.85
449.477	2.02
449.681	2.12
449.884	2.18
450.088	2.15
450.292	2.16
450.495	2.1
450.699	2.04
450.902	2.06
451.106	2.07
451.31	1.93
451.513	2.02
451.717	1.85
451.92	1.78
452.124	1.75
452.327	1.73
452.531	1.78
452.734	1.83
452.938	1.91
453.141	1.91
453.345	1.82
453.548	1.86
453.752	1.88
453.955	2.02
454.158	1.97
454.362	2
454.565	1.96
454.769	1.86
454.972	1.91
455.175	1.93
455.379	1.88
455.582	1.97
455.785	2.02
455.988	2.04
456.192	1.96
456.395	2.05
456.598	2.03
456.801	2.04
457.005	2.2
457.208	2.18
457.411	2.15
457.614	2.16
457.817	2.14
458.021	2.11
458.224	2.08
458.427	2
458.63	1.93
458.833	1.95
459.036	1.99
459.239	1.92
459.442	1.82
459.645	1.81
459.848	1.75
460.051	1.74
460.254	1.74
460.457	1.71
460.66	1.73
460.863	1.81
461.066	1.82
461.269	1.81
461.472	1.86
461.675	1.97
461.878	2.01
462.081	2.02
462.284	2.08
462.486	2.1
462.689	2.15
462.892	2.16
463.095	2.02
463.298	2.04
463.5	2.02
463.703	1.98
463.906	2.01
464.109	1.92
464.311	2.01
464.514	1.95
464.717	1.97
464.92	1.83
465.122	1.95
465.325	2.03
465.528	1.99
465.73	2.07
465.933	2.01
466.135	1.98
466.338	1.97
466.541	1.96
466.743	1.98
466.946	2.02
467.148	2.09
467.351	2.01
467.553	1.94
467.756	2.04
467.958	1.97
468.161	2.03
468.363	2.05
468.566	2.12
468.768	2.1
