Data from 2938743__Reflection_03.txt Node
Date: Sun Mar 15 11:58:41 EDT 2015
User: robert
Spectrometer: USB4E03002
Autoset integration time: false
Trigger mode: 4
Integration Time (sec): 1.000000E-1
Scans to average: 10
Electric dark correction enabled: false
Nonlinearity correction enabled: false
Boxcar width: 5
Stray light correction enabled: false
XAxis mode: Wavelengths
Stop averaging: false
Number of Pixels in Spectrum: 3648
>>>>>Begin Spectral Data<<<<<
177.575	525.6
177.794	431.22
178.014	769.46
178.233	961.37
178.452	1203.86
178.672	1831.76
178.891	1998.5
179.11	-6123.26
179.33	-1559.04
179.549	-1383.08
179.768	-2017.48
179.987	-4014.29
180.207	-1124.01
180.426	-6050
180.645	-4501.49
180.864	-41471.43
181.084	2646.43
181.303	-14633.33
181.522	1693.26
181.741	1516.82
181.96	2661.79
182.179	770.31
182.398	686.9
182.618	460.61
182.837	479.82
183.056	445.23
183.275	500.3
183.494	567.36
183.713	457.52
183.932	399.23
184.151	360.13
184.37	340.29
184.589	514.67
184.808	524.29
185.027	581.12
185.246	596.83
185.465	511.85
185.684	582.64
185.903	536.71
186.122	498.71
186.341	783.89
186.56	1265.18
186.779	1018.06
186.998	944.54
187.216	1105.67
187.435	2151.59
187.654	2073.81
187.873	6886
188.092	2113.58
188.311	1463.64
188.53	2107.05
188.748	1934.97
188.967	1499.14
189.186	1672.12
189.405	1332.56
189.623	1838.74
189.842	1185.52
190.061	1146.9
190.28	1119.53
190.498	1961.04
190.717	1580
190.936	2541.27
191.154	1720.11
191.373	1483.18
191.592	669.4
191.81	589.37
192.029	485.69
192.248	514.72
192.466	727.67
192.685	633.93
192.904	509.76
193.122	699.54
193.341	742.33
193.559	574.95
193.778	638.58
193.996	1361.27
194.215	2006.82
194.433	-9396.3
194.652	3105.68
194.87	2251.54
195.089	3236.05
195.307	5169.81
195.526	1879.11
195.744	3855.84
195.963	-3247.37
196.181	-7474.42
196.399	-6792
196.618	-2787.2
196.836	-3025
197.055	-1373.41
197.273	-1588.83
197.491	-1938.42
197.71	-6548.21
197.928	-3601.02
198.146	-2922.88
198.365	-3060.55
198.583	-5820.69
198.801	9858.82
199.019	2069.75
199.238	1112.94
199.456	770.29
199.674	1145.1
199.892	1457.02
200.111	1745.6
200.329	2052.63
200.547	792.87
200.765	579.27
200.983	542.31
201.202	523.48
201.42	603.17
201.638	546.12
201.856	633.88
202.074	452.97
202.292	365.27
202.51	428.13
202.728	373.71
202.946	469.53
203.165	597.94
203.383	616.11
203.601	612.41
203.819	565.69
204.037	631.38
204.255	509.28
204.473	417.05
204.691	458.29
204.909	422.88
205.127	458.86
205.345	364.11
205.562	338.46
205.78	454.87
205.998	567.63
206.216	700.87
206.434	658.13
206.652	950.15
206.87	2474.22
207.088	8847.06
207.306	1484.47
207.523	2067.09
207.741	2344.44
207.959	2888.43
208.177	1117.38
208.395	821.57
208.612	700.95
208.83	784.6
209.048	822.92
209.266	593.02
209.483	595.17
209.701	692.65
209.919	788.99
210.136	590.23
210.354	505.4
210.572	708.76
210.79	641.67
211.007	509.76
211.225	449.39
211.442	400.96
211.66	416.93
211.878	479.17
212.095	309.74
212.313	281.15
212.53	312.37
212.748	343.34
212.966	299.86
213.183	288.1
213.401	299.11
213.618	297.26
213.836	280.17
214.053	294.07
214.271	256.16
214.488	401.41
214.705	346.55
214.923	378.26
215.14	332.8
215.358	335.17
215.575	375.42
215.793	309.97
216.01	313.7
216.227	293.75
216.445	286.95
216.662	327.02
216.879	303.31
217.097	302.6
217.314	281.13
217.531	261.66
217.749	245.77
217.966	243.67
218.183	293.17
218.4	292.62
218.618	319.44
218.835	332
219.052	267.61
219.269	270.31
219.487	274.94
219.704	272.53
219.921	289.68
220.138	278.49
220.355	217.99
220.572	185.73
220.79	177.88
221.007	171.74
221.224	155.01
221.441	154.47
221.658	148.89
221.875	137.4
222.092	130.99
222.309	125.87
222.526	128.1
222.743	130.68
222.96	134.22
223.177	134
223.394	135.05
223.611	135.24
223.828	136.51
224.045	129.56
224.262	133.69
224.479	126.75
224.696	118.87
224.913	115.75
225.13	107.98
225.347	99.97
225.564	91.46
225.781	84.57
225.997	83.78
226.214	78.73
226.431	74.65
226.648	67.63
226.865	62.32
227.082	58.57
227.298	52.49
227.515	47.8
227.732	42.7
227.949	39.41
228.165	35.57
228.382	31.81
228.599	28.91
228.816	26.57
229.032	25.01
229.249	24.56
229.466	23.85
229.682	22.79
229.899	23.19
230.116	23.75
230.332	24.72
230.549	26.27
230.765	27.53
230.982	29.53
231.199	30.94
231.415	32.76
231.632	33.92
231.848	35.73
232.065	37.31
232.281	38.01
232.498	40.22
232.714	40.99
232.931	40.38
233.147	40.57
233.364	40.49
233.58	39.3
233.797	40.24
234.013	40.83
234.23	39.34
234.446	39.69
234.662	39.57
234.879	39.76
235.095	39.31
235.312	37.91
235.528	39.36
235.744	38.92
235.961	40.31
236.177	39.62
236.393	40.09
236.61	42.12
236.826	42.33
237.042	44.59
237.258	43.82
237.475	43.86
237.691	45.66
237.907	44.31
238.123	44.07
238.339	43.39
238.556	44.52
238.772	41.8
238.988	39.52
239.204	39.31
239.42	36.76
239.636	35.47
239.853	34.39
240.069	32.05
240.285	30.74
240.501	29.64
240.717	28.34
240.933	25.5
241.149	24.73
241.365	22.9
241.581	21.26
241.797	20.2
242.013	19.14
242.229	18.34
242.445	17.56
242.661	16.9
242.877	16.65
243.093	16.77
243.309	16.85
243.525	17.56
243.741	18.12
243.957	19.07
244.173	19.2
244.388	19.53
244.604	19.61
244.82	20.47
245.036	19.67
245.252	18.11
245.468	16.98
245.683	16.62
245.899	15.18
246.115	14.2
246.331	12.81
246.547	12.53
246.762	11.92
246.978	11.51
247.194	11.17
247.409	11.37
247.625	11.79
247.841	11.63
248.057	11.43
248.272	11.58
248.488	11.71
248.703	12.12
248.919	11.97
249.135	12.81
249.35	13.58
249.566	14.08
249.782	14.4
249.997	14.83
250.213	15.66
250.428	16.45
250.644	16.57
250.859	17.36
251.075	17.67
251.29	18.22
251.506	17.64
251.721	17.11
251.937	17.14
252.152	16.68
252.368	15.7
252.583	16.19
252.798	16.13
253.014	16.4
253.229	16.07
253.445	16.09
253.66	16.88
253.875	18.46
254.091	20.57
254.306	21.43
254.521	22.93
254.737	24.24
254.952	24.72
255.167	25.85
255.383	25.23
255.598	26.63
255.813	26.2
256.028	25.39
256.244	24.7
256.459	22.68
256.674	21.25
256.889	19.93
257.104	20.43
257.32	18.86
257.535	16.96
257.75	16.56
257.965	15.3
258.18	14.15
258.395	12.83
258.61	11.07
258.826	10.78
259.041	10.18
259.256	9.76
259.471	8.95
259.686	8.65
259.901	8.73
260.116	8.41
260.331	8.19
260.546	8.36
260.761	8.59
260.976	8.83
261.191	8.86
261.406	9.71
261.621	10.18
261.836	10.34
262.05	10.94
262.265	11.7
262.48	12.53
262.695	12.8
262.91	13.63
263.125	14.26
263.34	15.53
263.555	16.48
263.769	16.03
263.984	17.05
264.199	17.94
264.414	17.94
264.629	17.71
264.843	17.22
265.058	18.06
265.273	17.92
265.488	17.87
265.702	16.75
265.917	15.96
266.132	15.89
266.346	15.14
266.561	14.86
266.776	14.2
266.99	13.6
267.205	13.61
267.42	12.7
267.634	12.2
267.849	11.52
268.063	11.82
268.278	11.75
268.492	11.72
268.707	11.73
268.922	11.15
269.136	11.41
269.351	11.89
269.565	12.35
269.78	12.46
269.994	13.04
270.209	13.45
270.423	13.13
270.637	13.28
270.852	12.31
271.066	11.8
271.281	12.31
271.495	11.75
271.709	11.28
271.924	10.89
272.138	10.87
272.353	10.63
272.567	10.88
272.781	11.03
272.996	10.51
273.21	11.15
273.424	11.82
273.638	11.58
273.853	12.23
274.067	12.52
274.281	13.19
274.495	13.46
274.71	13.58
274.924	13.46
275.138	13.67
275.352	14.09
275.566	14.38
275.781	13.99
275.995	14.14
276.209	14.07
276.423	14.18
276.637	13.63
276.851	13.46
277.065	13.2
277.279	12.85
277.493	12.95
277.707	13.17
277.921	12.77
278.135	12.62
278.349	12.29
278.563	11.82
278.777	11.73
278.991	11.91
279.205	11.89
279.419	12.08
279.633	12.28
279.847	11.66
280.061	11.37
280.275	11.44
280.489	11.43
280.703	11.56
280.917	11.84
281.131	11.83
281.344	11.8
281.558	11.81
281.772	11.56
281.986	11.34
282.2	11.8
282.414	12.1
282.627	11.69
282.841	11.39
283.055	11.63
283.269	11.72
283.482	11.58
283.696	11.3
283.91	11.2
284.123	10.94
284.337	10.67
284.551	10.15
284.764	9.19
284.978	9.03
285.192	9.22
285.405	9.04
285.619	9.16
285.833	8.91
286.046	8.51
286.26	8.44
286.473	8.56
286.687	8.62
286.9	8.81
287.114	8.93
287.327	9.16
287.541	9.19
287.754	8.99
287.968	8.14
288.181	8.09
288.395	8.16
288.608	8.18
288.822	8.03
289.035	8.28
289.248	8.17
289.462	8.59
289.675	8.51
289.889	8.33
290.102	7.8
290.315	8.32
290.529	8.73
290.742	8.97
290.955	9.32
291.169	9.45
291.382	9.48
291.595	9.65
291.808	9.36
292.022	10.24
292.235	10.65
292.448	11.21
292.661	11.07
292.875	10.77
293.088	11.1
293.301	10.78
293.514	10.97
293.727	10.89
293.94	10.9
294.153	10.99
294.367	10.08
294.58	9.97
294.793	9.95
295.006	9.83
295.219	9.96
295.432	9.56
295.645	9.23
295.858	9
296.071	8.62
296.284	8.27
296.497	8.23
296.71	8.34
296.923	7.84
297.136	7.86
297.349	7.89
297.562	7.64
297.775	7.52
297.988	7.74
298.201	8.02
298.414	8.37
298.626	8.52
298.839	8.67
299.052	8.73
299.265	9.32
299.478	9.2
299.691	9.78
299.903	10.31
300.116	10.43
300.329	10.39
300.542	9.91
300.755	9.69
300.967	10.06
301.18	10.23
301.393	10.22
301.605	10.12
301.818	10.36
302.031	10.35
302.243	10.12
302.456	10.56
302.669	10.61
302.881	10.99
303.094	11.16
303.307	11.06
303.519	11.2
303.732	11.43
303.944	11.54
304.157	11.68
304.37	11.55
304.582	11.8
304.795	11.61
305.007	11.61
305.22	11.88
305.432	11.89
305.645	11.72
305.857	11.53
306.069	11.6
306.282	11.61
306.494	11.39
306.707	11.4
306.919	11.56
307.132	11.54
307.344	11.5
307.556	11.12
307.769	11.14
307.981	11.09
308.193	10.74
308.406	10.26
308.618	9.89
308.83	10.03
309.043	10.1
309.255	9.54
309.467	9.61
309.679	9.75
309.892	9.68
310.104	9.68
310.316	9.41
310.528	9.66
310.74	9.79
310.953	10.03
311.165	10.04
311.377	9.65
311.589	9.78
311.801	9.47
312.013	9.57
312.225	9.43
312.437	9.7
312.649	10.15
312.862	10.12
313.074	10.06
313.286	10.31
313.498	10.25
313.71	10.35
313.922	10.61
314.134	11.16
314.346	11.1
314.558	11.29
314.77	10.83
314.982	10.79
315.193	11.41
315.405	11.43
315.617	11.56
315.829	12.04
316.041	12.59
316.253	12.36
316.465	12.54
316.677	12.66
316.888	13.07
317.1	13.31
317.312	13.72
317.524	13.22
317.736	13.8
317.947	13.79
318.159	13.49
318.371	13.6
318.583	13.67
318.794	13.68
319.006	13.92
319.218	13.64
319.43	13.95
319.641	13.88
319.853	14.24
320.064	14.72
320.276	15.29
320.488	15.43
320.699	15.57
320.911	15.69
321.123	15.49
321.334	15.37
321.546	15.71
321.757	15.35
321.969	15.55
322.18	15.58
322.392	15.11
322.603	14.54
322.815	14.73
323.026	14.17
323.238	14.28
323.449	14.47
323.661	14.29
323.872	14.08
324.083	14.04
324.295	14.02
324.506	14.1
324.718	13.81
324.929	13.58
325.14	13.51
325.352	14.21
325.563	14.05
325.774	13.83
325.986	13.73
326.197	13.76
326.408	14.04
326.62	13.93
326.831	13.64
327.042	14.16
327.253	14.64
327.464	14.76
327.676	14.33
327.887	14.67
328.098	14.96
328.309	15.75
328.52	15.97
328.732	16.22
328.943	16.39
329.154	16.63
329.365	16.4
329.576	16.69
329.787	17.04
329.998	17.29
330.209	17.5
330.42	17.53
330.631	17.22
330.842	17.56
331.053	17.66
331.264	17.76
331.475	18.08
331.686	18.3
331.897	18.16
332.108	17.65
332.319	17.58
332.53	17.52
332.741	17.42
332.952	17.83
333.163	17.56
333.374	17.17
333.585	16.95
333.795	16.84
334.006	16.9
334.217	16.55
334.428	16.56
334.639	16.34
334.849	16.05
335.06	15.93
335.271	15.68
335.482	16.17
335.692	16.45
335.903	16.65
336.114	16.59
336.325	16.27
336.535	16.55
336.746	16.73
336.957	17.06
337.167	17.47
337.378	17.8
337.589	18.09
337.799	17.78
338.01	17.72
338.22	17.78
338.431	17.75
338.642	17.4
338.852	17.34
339.063	17.4
339.273	16.98
339.484	16.39
339.694	16.61
339.905	16.03
340.115	15.93
340.326	15.93
340.536	15.51
340.746	15.22
340.957	15.76
341.167	15.42
341.378	15.35
341.588	15.26
341.799	15.63
342.009	15.26
342.219	15.12
342.43	14.96
342.64	14.7
342.85	14.88
343.061	15.02
343.271	14.64
343.481	14.51
343.691	14.55
343.902	14.65
344.112	14.44
344.322	14.51
344.532	14.71
344.743	14.73
344.953	14.81
345.163	14.63
345.373	14.55
345.583	14.67
345.793	14.91
346.004	14.81
346.214	14.97
346.424	14.8
346.634	14.86
346.844	14.79
347.054	14.88
347.264	14.89
347.474	14.97
347.684	15.31
347.894	15.12
348.104	15.12
348.314	15
348.524	15.17
348.734	15.04
348.944	15.07
349.154	14.88
349.364	14.59
349.574	14.32
349.784	14.53
349.994	14.16
350.204	14.43
350.413	14.38
350.623	14.44
350.833	14.21
351.043	14.23
351.253	13.85
351.463	14.01
351.672	14.04
351.882	14.15
352.092	13.82
352.302	13.79
352.511	13.86
352.721	13.77
352.931	13.77
353.141	13.59
353.35	13.67
353.56	13.99
353.77	13.78
353.979	13.77
354.189	13.71
354.399	13.49
354.608	13.41
354.818	13.26
355.027	13.48
355.237	13.6
355.447	13.49
355.656	13.64
355.866	13.55
356.075	13.32
356.285	13.23
356.494	13.13
356.704	13.44
356.913	13.28
357.123	13.17
357.332	12.77
357.542	12.34
357.751	12.25
357.96	12.16
358.17	12.01
358.379	12.08
358.589	12.02
358.798	12.11
359.007	12.17
359.217	12.17
359.426	12.19
359.635	12.17
359.845	12.29
360.054	12.31
360.263	12.28
360.472	11.89
360.682	12.08
360.891	11.99
361.1	11.85
361.309	11.51
361.519	11.34
361.728	11.37
361.937	11.52
362.146	11.72
362.355	11.63
362.564	11.86
362.774	11.95
362.983	11.59
363.192	11.62
363.401	11.69
363.61	11.59
363.819	11.83
364.028	11.94
364.237	11.86
364.446	11.68
364.655	11.89
364.864	11.71
365.073	12.34
365.282	12.73
365.491	12.73
365.7	12.44
365.909	12.71
366.118	12.86
366.327	12.81
366.536	13.04
366.745	13.11
366.954	13.2
367.162	13.01
367.371	12.52
367.58	12.58
367.789	12.68
367.998	13.13
368.207	13.24
368.415	12.92
368.624	12.63
368.833	12.47
369.042	12.39
369.25	12.75
369.459	13.36
369.668	13.54
369.877	13.27
370.085	13.41
370.294	13.23
370.503	12.94
370.711	13.34
370.92	13.34
371.129	13.38
371.337	13.19
371.546	12.88
371.754	12.47
371.963	12.24
372.171	11.97
372.38	11.99
372.589	11.99
372.797	12.07
373.006	11.77
373.214	11.65
373.423	11.45
373.631	11.48
373.84	11.19
374.048	11.4
374.256	11.39
374.465	11.61
374.673	11.39
374.882	11.39
375.09	11.19
375.298	11.29
375.507	11.6
375.715	11.6
375.923	11.77
376.132	11.86
376.34	11.59
376.548	11.81
376.757	11.83
376.965	12.13
377.173	12.08
377.381	12.28
377.59	12.23
377.798	12.06
378.006	11.87
378.214	11.78
378.423	11.91
378.631	11.81
378.839	11.47
379.047	11.51
379.255	11.31
379.463	11.45
379.671	11.54
379.879	11.51
380.088	11.42
380.296	11.64
380.504	11.69
380.712	11.67
380.92	11.54
381.128	11.84
381.336	11.75
381.544	11.5
381.752	11.45
381.96	11.23
382.168	11.1
382.376	11.53
382.584	11.4
382.791	11.28
382.999	11.32
383.207	11.3
383.415	11.24
383.623	11.19
383.831	11.29
384.039	11.12
384.247	11.23
384.454	11.28
384.662	11.15
384.87	11.35
385.078	11.08
385.285	10.76
385.493	10.72
385.701	10.58
385.909	10.53
386.116	10.42
386.324	10.62
386.532	10.67
386.739	10.63
386.947	10.37
387.155	10.23
387.362	10.31
387.57	10.49
387.778	10.52
387.985	10.53
388.193	10.86
388.4	11.09
388.608	10.97
388.816	10.93
389.023	10.86
389.231	11.07
389.438	11.19
389.646	11.36
389.853	11.23
390.061	11.44
390.268	11.22
390.475	11.06
390.683	10.97
390.89	11.02
391.098	11.01
391.305	11.07
391.512	10.91
391.72	10.71
391.927	10.55
392.135	10.43
392.342	10.32
392.549	10.52
392.756	10.22
392.964	10.31
393.171	10.27
393.378	10.02
393.586	9.89
393.793	9.83
394	9.95
394.207	10.02
394.414	10.25
394.622	10.03
394.829	10.08
395.036	10.09
395.243	10.05
395.45	9.91
395.657	9.99
395.864	10.02
396.072	10.06
396.279	9.99
396.486	10.11
396.693	10.03
396.9	10.26
397.107	10.19
397.314	10.7
397.521	10.32
397.728	10.25
397.935	10.22
398.142	10.37
398.349	10.37
398.556	10.48
398.763	10.22
398.97	10.19
399.177	10.09
399.383	10.08
399.59	9.68
399.797	9.69
400.004	9.62
400.211	9.49
400.418	9.47
400.625	9.38
400.831	9.18
401.038	9.33
401.245	9.17
401.452	9.36
401.658	9.38
401.865	9.39
402.072	9.72
402.279	9.92
402.485	10.28
402.692	10.12
402.899	10.15
403.105	10.13
403.312	10.08
403.519	10.04
403.725	9.7
403.932	9.59
404.138	9.62
404.345	9.43
404.552	9.18
404.758	8.88
404.965	8.92
405.171	8.74
405.378	8.83
405.584	8.95
405.791	9.07
405.997	9.09
406.204	9.2
406.41	9.15
406.617	9.23
406.823	9.48
407.029	9.61
407.236	9.56
407.442	9.76
407.649	9.86
407.855	9.59
408.061	9.6
408.268	9.7
408.474	9.77
408.68	9.77
408.887	9.74
409.093	9.62
409.299	9.47
409.505	9.45
409.712	9.3
409.918	9.15
410.124	9.33
410.33	9.28
410.537	9.38
410.743	9.21
410.949	9.22
411.155	9.31
411.361	9.44
411.567	9.6
411.773	9.68
411.98	9.62
412.186	9.54
412.392	9.32
412.598	9.38
412.804	9.33
413.01	9.36
413.216	9.26
413.422	9.19
413.628	8.92
413.834	8.83
414.04	8.67
414.246	8.73
414.452	8.81
414.658	8.95
414.864	8.89
415.07	8.78
415.275	8.84
415.481	8.89
415.687	8.68
415.893	8.75
416.099	8.74
416.305	8.81
416.511	8.67
416.716	8.52
416.922	8.38
417.128	8.31
417.334	8.24
417.539	8.02
417.745	7.85
417.951	7.85
418.157	7.88
418.362	7.83
418.568	7.72
418.774	7.77
418.979	7.69
419.185	7.71
419.391	7.55
419.596	7.5
419.802	7.49
420.008	7.55
420.213	6.87
420.419	6.78
420.624	6.67
420.83	6.74
421.035	6.72
421.241	6.74
421.446	6.6
421.652	6.66
421.857	6.62
422.063	6.57
422.268	6.49
422.474	7
422.679	7
422.885	7.08
423.09	6.96
423.295	6.9
423.501	6.96
423.706	7
423.911	6.97
424.117	6.91
424.322	6.99
424.527	6.97
424.733	7.05
424.938	7.05
425.143	7.03
425.349	7
425.554	7.08
425.759	7.05
425.964	7.16
426.169	7.25
426.375	7.36
426.58	7.43
426.785	7.68
426.99	7.64
427.195	7.71
427.4	7.78
427.605	7.99
427.811	8.1
428.016	8.09
428.221	7.92
428.426	7.93
428.631	8.02
428.836	7.88
429.041	7.79
429.246	8.1
429.451	8.23
429.656	8.22
429.861	8.29
430.066	8.18
430.271	8.24
430.476	8.28
430.681	8.25
430.886	8.36
431.09	8.38
431.295	8.32
431.5	8.19
431.705	7.93
431.91	7.76
432.115	7.64
432.32	7.67
432.524	7.49
432.729	7.66
432.934	7.75
433.139	7.67
433.343	7.7
433.548	7.71
433.753	7.68
433.958	7.82
434.162	7.94
434.367	7.98
434.572	7.95
434.776	8.14
434.981	8.03
435.186	7.98
435.39	7.99
435.595	8.05
435.799	8.11
436.004	8.15
436.209	8.19
436.413	8.14
436.618	8.08
436.822	8.09
437.027	8.03
437.231	7.99
437.436	7.92
437.64	7.89
437.845	7.88
438.049	7.7
438.253	7.58
438.458	7.52
438.662	7.53
438.867	7.49
439.071	7.46
439.275	7.38
439.48	7.41
439.684	7.43
439.888	7.34
440.093	7.32
440.297	7.34
440.501	7.27
440.706	7.25
440.91	7.22
441.114	7.22
441.318	7.21
441.523	7.3
441.727	7.4
441.931	7.39
442.135	7.42
442.339	7.32
442.543	7.42
442.748	7.6
442.952	7.51
443.156	7.61
443.36	7.63
443.564	7.65
443.768	7.46
443.972	7.29
444.176	7.23
444.38	7.27
444.584	7.2
444.788	7.17
444.992	7.16
445.196	7.21
445.4	7.09
445.604	7.04
445.808	6.99
446.012	7.06
446.216	7.08
446.42	7.09
446.624	7.12
446.828	7.27
447.032	7.29
447.235	7.28
447.439	7.34
447.643	7.4
447.847	7.46
448.051	7.53
448.254	7.54
448.458	7.56
448.662	7.68
448.866	7.64
449.069	7.58
449.273	7.59
449.477	7.56
449.681	7.6
449.884	7.64
450.088	7.63
450.292	7.59
450.495	7.65
450.699	7.71
450.902	7.68
451.106	7.62
451.31	7.63
451.513	7.5
451.717	7.61
451.92	7.59
452.124	7.66
452.327	7.62
452.531	7.61
452.734	7.62
452.938	7.56
453.141	7.58
453.345	7.68
453.548	7.7
453.752	7.81
453.955	7.88
454.158	7.87
454.362	7.81
454.565	7.99
454.769	8.03
454.972	7.98
455.175	8.14
455.379	8.09
455.582	8.08
455.785	8.16
455.988	8.2
456.192	8.2
456.395	8.12
456.598	8.08
456.801	7.91
457.005	8.08
457.208	8.12
457.411	8.03
