Data from 2938850__Reflection_03.txt Node
Date: Wed Mar 11 13:10:10 EDT 2015
User: robert
Spectrometer: USB4E03002
Autoset integration time: false
Trigger mode: 4
Integration Time (sec): 1.000000E-1
Scans to average: 10
Electric dark correction enabled: false
Nonlinearity correction enabled: false
Boxcar width: 5
Stray light correction enabled: false
XAxis mode: Wavelengths
Stop averaging: false
Number of Pixels in Spectrum: 3648
>>>>>Begin Spectral Data<<<<<
177.575	1188.89
177.794	-1129.17
178.014	-377.4
178.233	-910.29
178.452	-413.87
178.672	-151.52
178.891	-154.3
179.11	-128.32
179.33	-183.8
179.549	-167.5
179.768	-224.04
179.987	-205.02
180.207	-120.47
180.426	-109.42
180.645	-77.54
180.864	-65.19
181.084	-139.36
181.303	-390.48
181.522	-40.71
181.741	-51.48
181.96	-116.31
182.179	-343.1
182.398	-285.88
182.618	165.93
182.837	604.62
183.056	942.55
183.275	167.86
183.494	176.83
183.713	345.45
183.932	258.69
184.151	268.56
184.37	285.03
184.589	593.38
184.808	689.78
185.027	-2464.29
185.246	-845.56
185.465	-239.11
185.684	-128.63
185.903	-208.18
186.122	-159.96
186.341	-165.9
186.56	-128.19
186.779	-126.81
186.998	-89.7
187.216	-62.92
187.435	-61.63
187.654	-59.55
187.873	-71
188.092	-102.3
188.311	-57.94
188.53	-29.78
188.748	-5.25
188.967	0.15
189.186	4.83
189.405	-7.25
189.623	1.41
189.842	-1.23
190.061	-8.37
190.28	-15.36
190.498	5.99
190.717	-6.94
190.936	-31.91
191.154	-51.06
191.373	-64.89
191.592	-75.03
191.81	-66.75
192.029	-112.84
192.248	-171.98
192.466	-204.5
192.685	-259.67
192.904	-312.5
193.122	-244.99
193.341	-591.61
193.559	-541.33
193.778	-1033.33
193.996	-572.39
194.215	-474.39
194.433	-254.69
194.652	-202.24
194.87	-219.86
195.089	-152.44
195.307	-172.53
195.526	-276.54
195.744	-128.16
195.963	-124.73
196.181	-109.65
196.399	-116.1
196.618	-103.59
196.836	-100.36
197.055	-68.23
197.273	-37.13
197.491	-107.87
197.71	-143.59
197.928	-84.1
198.146	-118.59
198.365	-129.47
198.583	-93.92
198.801	-83.61
199.019	-77.6
199.238	-85.85
199.456	-104.41
199.674	-144.12
199.892	-57.33
200.111	-26.96
200.329	-36.71
200.547	-28.57
200.765	-47.7
200.983	-97.79
201.202	-78.76
201.42	-65
201.638	-54.16
201.856	-64.05
202.074	-83.84
202.292	-104.83
202.51	-114.4
202.728	-111.65
202.946	-70.15
203.165	-76.23
203.383	-31.36
203.601	-90.84
203.819	-162.72
204.037	-198.56
204.255	-104.51
204.473	-94.5
204.691	-101.61
204.909	-114.02
205.127	-140.58
205.345	-175.22
205.562	-84.53
205.78	-104.14
205.998	-162.4
206.216	-123.41
206.434	-36.67
206.652	-26.17
206.87	-26.4
207.088	0.47
207.306	-13.71
207.523	5.59
207.741	1.98
207.959	-22.73
208.177	-13.04
208.395	-10.5
208.612	-31.32
208.83	-55.91
209.048	-77.59
209.266	-36.57
209.483	-98.29
209.701	-101.49
209.919	-103.03
210.136	-130.84
210.354	-104.04
210.572	-109.89
210.79	-95.84
211.007	-101.12
211.225	-110.99
211.442	-104.1
211.66	-185.01
211.878	-124.92
212.095	-75.2
212.313	-67.59
212.53	-46.55
212.748	-21.81
212.966	-19.42
213.183	-10.9
213.401	-12.58
213.618	-10.04
213.836	2.47
214.053	2.4
214.271	-5.26
214.488	-18.48
214.705	-27.07
214.923	-42.67
215.14	-68.25
215.358	-69.6
215.575	-66.72
215.793	-70.27
216.01	-91.63
216.227	-84.7
216.445	-51.37
216.662	-45.9
216.879	-41.34
217.097	-39.13
217.314	-23.75
217.531	-16.04
217.749	-7.88
217.966	-7.3
218.183	-0.34
218.4	-2.7
218.618	-9.53
218.835	-13.51
219.052	-15.73
219.269	-17.08
219.487	-8.8
219.704	-16.05
219.921	-15.02
220.138	-22.02
220.355	-22.96
220.572	-26.76
220.79	-17.17
221.007	-18.6
221.224	-27.17
221.441	-30.67
221.658	-21.6
221.875	-26.9
222.092	-23.95
222.309	-27.92
222.526	-22.23
222.743	-23.9
222.96	-24.3
223.177	-26.98
223.394	-29.71
223.611	-23.35
223.828	-16.2
224.045	-14.12
224.262	-10.16
224.479	-5.81
224.696	-1.27
224.913	-1.59
225.13	0.78
225.347	-0.31
225.564	1.38
225.781	1.66
225.997	1.36
226.214	0.53
226.431	-0.83
226.648	-1.97
226.865	-2.58
227.082	-1.76
227.298	-1.3
227.515	-0.15
227.732	0.17
227.949	0.39
228.165	1.08
228.382	0.95
228.599	1.19
228.816	1.14
229.032	2
229.249	1.65
229.466	1.28
229.682	1.32
229.899	1.58
230.116	1.75
230.332	1.85
230.549	1.34
230.765	1.01
230.982	0.36
231.199	0.1
231.415	-0.77
231.632	-1.26
231.848	-1.91
232.065	-2.13
232.281	-2.6
232.498	-2.92
232.714	-3.89
232.931	-2.43
233.147	-3.33
233.364	-2.83
233.58	-1.48
233.797	0.08
234.013	1.99
234.23	3.55
234.446	3.57
234.662	2.84
234.879	2.89
235.095	3.55
235.312	3.53
235.528	3.49
235.744	3.92
235.961	3.45
236.177	1.58
236.393	0.49
236.61	-1.48
236.826	0.36
237.042	-0.67
237.258	-1.05
237.475	-1.68
237.691	-2.36
237.907	-0.76
238.123	-0.36
238.339	-0.02
238.556	-0.28
238.772	0.05
238.988	1.18
239.204	0.3
239.42	1.7
239.636	2.54
239.853	2.7
240.069	1.71
240.285	2.1
240.501	1.75
240.717	1.32
240.933	1.69
241.149	1.99
241.365	1.78
241.581	1.15
241.797	0.88
242.013	1.43
242.229	2.29
242.445	2.98
242.661	2.57
242.877	3.05
243.093	3.11
243.309	2.97
243.525	3
243.741	3.83
243.957	4.35
244.173	4.32
244.388	3.94
244.604	3.27
244.82	2.89
245.036	3.38
245.252	3.04
245.468	3.91
245.683	5.01
245.899	4.93
246.115	4.79
246.331	4.93
246.547	4.94
246.762	4.97
246.978	4.89
247.194	5.16
247.409	5.36
247.625	5.6
247.841	4.94
248.057	4.65
248.272	4.6
248.488	4.32
248.703	4.3
248.919	4.43
249.135	4.19
249.35	3.96
249.566	3.56
249.782	3.13
249.997	2.48
250.213	2.83
250.428	2.63
250.644	2.67
250.859	2.39
251.075	2.58
251.29	2.57
251.506	2.54
251.721	3.07
251.937	3.27
252.152	3.45
252.368	4.16
252.583	4.31
252.798	3.63
253.014	4.07
253.229	4.76
253.445	4.47
253.66	4.14
253.875	4.34
254.091	3.97
254.306	3.78
254.521	3.49
254.737	3.08
254.952	3.38
255.167	4.09
255.383	2.85
255.598	2.28
255.813	2.55
256.028	3.16
256.244	3.55
256.459	3.43
256.674	3.06
256.889	3.08
257.104	2.62
257.32	2.4
257.535	1.64
257.75	2.13
257.965	1.83
258.18	1.8
258.395	2.11
258.61	2.4
258.826	2.58
259.041	2.83
259.256	3.11
259.471	3.11
259.686	3.45
259.901	4.01
260.116	3.84
260.331	4
260.546	4.07
260.761	3.87
260.976	3.65
261.191	3.48
261.406	3.22
261.621	2.78
261.836	2.78
262.05	1.77
262.265	1.08
262.48	1.03
262.695	0.78
262.91	0.48
263.125	0.81
263.34	0.83
263.555	0.91
263.769	1.26
263.984	0.99
264.199	0.76
264.414	1.77
264.629	1.97
264.843	2.06
265.058	2.35
265.273	1.98
265.488	1.3
265.702	1.46
265.917	2.52
266.132	2.01
266.346	2.73
266.561	2.92
266.776	2.69
266.99	2.63
267.205	2.3
267.42	2.56
267.634	2.76
267.849	3.25
268.063	2.87
268.278	2.05
268.492	2.88
268.707	2.52
268.922	2.59
269.136	2.67
269.351	2.9
269.565	3.34
269.78	2.86
269.994	2.73
270.209	2.58
270.423	2.73
270.637	2.89
270.852	2.59
271.066	3.01
271.281	2.74
271.495	2.73
271.709	2.48
271.924	2.51
272.138	2.26
272.353	2.27
272.567	2.11
272.781	2.29
272.996	2.12
273.21	1.88
273.424	1.93
273.638	1.74
273.853	1.7
274.067	2.06
274.281	2.33
274.495	2.9
274.71	2.85
274.924	2.94
275.138	3.36
275.352	3.62
275.566	4.08
275.781	3.79
275.995	4.14
276.209	3.96
276.423	3.76
276.637	3.12
276.851	3.09
277.065	3.01
277.279	3.1
277.493	2.44
277.707	2.64
277.921	2.45
278.135	2.05
278.349	1.97
278.563	1.93
278.777	2.14
278.991	2.36
279.205	1.97
279.419	2.52
279.633	2.76
279.847	3.15
280.061	2.89
280.275	3.09
280.489	2.98
280.703	3.35
280.917	3.77
281.131	3.73
281.344	3.95
281.558	4.09
281.772	3.68
281.986	3.37
282.2	3.28
282.414	3.1
282.627	2.78
282.841	3.22
283.055	2.89
283.269	2.95
283.482	2.94
283.696	2.61
283.91	2.46
284.123	2.7
284.337	2.78
284.551	2.75
284.764	3.01
284.978	3.01
285.192	2.97
285.405	2.99
285.619	2.88
285.833	2.91
286.046	3.07
286.26	3.37
286.473	3.26
286.687	3.19
286.9	3.49
287.114	3.39
287.327	3.53
287.541	3.59
287.754	3.6
287.968	3.55
288.181	3.61
288.395	3.54
288.608	3.36
288.822	3.29
289.035	3.31
289.248	2.97
289.462	3.4
289.675	3.57
289.889	3.34
290.102	3.38
290.315	3.21
290.529	3.27
290.742	3.42
290.955	3.15
291.169	3.42
291.382	3.6
291.595	3.76
291.808	3.46
292.022	3.34
292.235	3.07
292.448	3.07
292.661	3.34
292.875	3.03
293.088	3.39
293.301	3.86
293.514	3.93
293.727	4.08
293.94	4.05
294.153	3.98
294.367	4
294.58	4.55
294.793	4.62
295.006	4.61
295.219	4.76
295.432	4.33
295.645	4.36
295.858	4.52
296.071	4.45
296.284	4.55
296.497	4.78
296.71	4.92
296.923	5.01
297.136	5.13
297.349	5.26
297.562	5.4
297.775	5.58
297.988	5.69
298.201	5.6
298.414	5.74
298.626	5.54
298.839	5.49
299.052	5.64
299.265	5.48
299.478	5.45
299.691	5.41
299.903	5.36
300.116	5.25
300.329	5.2
300.542	5.16
300.755	5.23
300.967	5.64
301.18	6.09
301.393	5.95
301.605	6.55
301.818	6.23
302.031	6.57
302.243	6.66
302.456	6.98
302.669	6.85
302.881	7.06
303.094	7
303.307	7.04
303.519	6.85
303.732	6.9
303.944	6.66
304.157	7.01
304.37	6.94
304.582	6.95
304.795	7.03
305.007	7.17
305.22	7.36
305.432	7.46
305.645	7.38
305.857	7.14
306.069	7.27
306.282	7.31
306.494	7.39
306.707	7.13
306.919	7.27
307.132	7.03
307.344	7.33
307.556	7.18
307.769	7.13
307.981	7.1
308.193	7.3
308.406	7.27
308.618	7.36
308.83	7.39
309.043	7.61
309.255	7.59
309.467	7.68
309.679	7.63
309.892	7.51
310.104	7.7
310.316	7.84
310.528	7.76
310.74	7.73
310.953	7.56
311.165	7.51
311.377	7.42
311.589	7.37
311.801	7.37
312.013	7.43
312.225	7.66
312.437	7.74
312.649	7.83
312.862	7.81
313.074	8.17
313.286	7.92
313.498	8.17
313.71	8.21
313.922	8.15
314.134	8.15
314.346	7.92
314.558	7.93
314.77	7.58
314.982	7.34
315.193	7.57
315.405	7.1
315.617	7.53
315.829	7.29
316.041	7.28
316.253	7.25
316.465	7.07
316.677	7.22
316.888	7.01
317.1	7.32
317.312	7.38
317.524	7.42
317.736	7.09
317.947	7.13
318.159	7.39
318.371	7.26
318.583	7.63
318.794	7.97
319.006	8
319.218	8.15
319.43	7.73
319.641	7.92
319.853	7.57
320.064	7.9
320.276	7.65
320.488	7.2
320.699	7.58
320.911	7.72
321.123	7.9
321.334	7.79
321.546	7.61
321.757	7.76
321.969	7.6
322.18	7.93
322.392	8.94
322.603	9.09
322.815	9.34
323.026	9.45
323.238	9.07
323.449	8.77
323.661	8.96
323.872	9.03
324.083	9.28
324.295	9.4
324.506	9.17
324.718	8.51
324.929	8.81
325.14	9.06
325.352	8.94
325.563	9.09
325.774	9.34
325.986	8.99
326.197	9.02
326.408	8.82
326.62	8.61
326.831	8.86
327.042	8.84
327.253	8.65
327.464	8.33
327.676	8.4
327.887	8.49
328.098	8.5
328.309	8.92
328.52	8.48
328.732	8.35
328.943	8.73
329.154	8.94
329.365	8.95
329.576	8.97
329.787	8.98
329.998	9.01
330.209	9.02
330.42	9.21
330.631	9.01
330.842	9.13
331.053	9.26
331.264	8.84
331.475	8.77
331.686	8.65
331.897	8.76
332.108	8.86
332.319	8.78
332.53	8.65
332.741	8.21
332.952	7.98
333.163	8.07
333.374	8.44
333.585	8.46
333.795	8.59
334.006	8.79
334.217	8.62
334.428	8.82
334.639	8.91
334.849	8.7
335.06	8.67
335.271	8.64
335.482	9.05
335.692	8.72
335.903	8.66
336.114	8.32
336.325	8.12
336.535	7.97
336.746	7.97
336.957	8
337.167	8.17
337.378	8.34
337.589	8.83
337.799	8.67
338.01	8.74
338.22	8.71
338.431	8.7
338.642	8.47
338.852	8.64
339.063	8.48
339.273	8.3
339.484	8.43
339.694	8.15
339.905	7.71
340.115	7.7
340.326	7.82
340.536	7.63
340.746	7.78
340.957	8.08
341.167	8.09
341.378	8.29
341.588	8.21
341.799	8.44
342.009	8.79
342.219	8.99
342.43	9.1
342.64	8.95
342.85	9.06
343.061	8.95
343.271	8.86
343.481	8.88
343.691	8.52
343.902	8.77
344.112	8.47
344.322	8.19
344.532	8.31
344.743	8.09
344.953	7.84
345.163	8.17
345.373	8.34
345.583	8.4
345.793	8.4
346.004	8.77
346.214	8.36
346.424	8.44
346.634	8.78
346.844	8.67
347.054	8.72
347.264	8.92
347.474	8.69
347.684	8.74
347.894	8.9
348.104	8.82
348.314	8.45
348.524	8.4
348.734	8.28
348.944	7.94
349.154	7.96
349.364	7.82
349.574	7.9
349.784	8.06
349.994	7.74
350.204	7.77
350.413	7.79
350.623	7.97
350.833	8.05
351.043	7.59
351.253	7.54
351.463	7.57
351.672	7.73
351.882	7.81
352.092	7.65
352.302	7.92
352.511	7.75
352.721	7.38
352.931	7.36
353.141	7.4
353.35	7.73
353.56	7.8
353.77	7.69
353.979	7.55
354.189	7.47
354.399	7.32
354.608	7.3
354.818	7.11
355.027	7.58
355.237	7.41
355.447	7.35
355.656	7.57
355.866	7.29
356.075	7.19
356.285	7.23
356.494	7.41
356.704	7.61
356.913	7.57
357.123	7.7
357.332	7.65
357.542	7.74
357.751	7.94
357.96	7.74
358.17	8.14
358.379	8.46
358.589	8.5
358.798	8.32
359.007	8.22
359.217	8.2
359.426	8.29
359.635	8.23
359.845	8.36
360.054	8.34
360.263	8.49
360.472	8.33
360.682	7.89
360.891	7.98
361.1	8.11
361.309	8.16
361.519	8.15
361.728	7.99
361.937	7.95
362.146	7.79
362.355	7.81
362.564	7.82
362.774	7.98
362.983	8.24
363.192	8.06
363.401	7.85
363.61	7.91
363.819	7.78
364.028	7.78
364.237	7.75
364.446	8
364.655	7.95
364.864	7.78
365.073	7.49
365.282	7.42
365.491	7.51
365.7	7.45
365.909	7.34
366.118	7.43
366.327	7.65
366.536	7.53
366.745	7.19
366.954	7.32
367.162	7.47
367.371	7.31
367.58	7.37
367.789	7.38
367.998	7.36
368.207	7.26
368.415	7.1
368.624	6.98
368.833	7.09
369.042	7.34
369.25	6.97
369.459	6.82
369.668	7.14
369.877	6.88
370.085	6.73
370.294	7.1
370.503	6.98
370.711	6.95
370.92	6.67
371.129	6.67
371.337	6.37
371.546	6.55
371.754	6.65
371.963	6.61
372.171	6.83
372.38	6.84
372.589	6.26
372.797	6.35
373.006	6.62
373.214	6.99
373.423	6.95
373.631	7.08
373.84	7.03
374.048	6.95
374.256	6.86
374.465	6.73
374.673	6.75
374.882	7.07
375.09	7.09
375.298	6.79
375.507	6.58
375.715	6.56
375.923	6.43
376.132	6.45
376.34	6.43
376.548	6.27
376.757	6.2
376.965	6.18
377.173	6.26
377.381	6.25
377.59	6.34
377.798	6.56
378.006	6.58
378.214	6.67
378.423	6.68
378.631	6.66
378.839	6.72
379.047	6.61
379.255	6.71
379.463	6.68
379.671	6.54
379.879	6.62
380.088	6.44
380.296	6.28
380.504	6.42
380.712	6.52
380.92	6.37
381.128	6.25
381.336	6.4
381.544	6.36
381.752	6.1
381.96	6.07
382.168	6.03
382.376	5.83
382.584	5.87
382.791	5.6
382.999	5.15
383.207	5.34
383.415	5.29
383.623	5.14
383.831	5.15
384.039	5.26
384.247	5.23
384.454	5.37
384.662	5.43
384.87	5.47
385.078	5.53
385.285	5.77
385.493	5.59
385.701	5.63
385.909	5.8
386.116	5.56
386.324	5.57
386.532	5.72
386.739	5.38
386.947	5.42
387.155	5.6
387.362	5.58
387.57	5.47
387.778	5.5
387.985	5.53
388.193	5.54
388.4	5.5
388.608	5.49
388.816	5.51
389.023	5.43
389.231	5.36
389.438	5.17
389.646	5.14
389.853	5.13
390.061	5.24
390.268	5.24
390.475	5.13
390.683	5.28
390.89	5.3
391.098	5.12
391.305	5.27
391.512	5.31
391.72	5.38
391.927	5.3
392.135	5.39
392.342	5.35
392.549	5.28
392.756	5.16
392.964	5.16
393.171	5.26
393.378	5.27
393.586	5.23
393.793	5.21
394	5
394.207	5.2
394.414	5.11
394.622	5.01
394.829	4.98
395.036	4.91
395.243	4.87
395.45	4.76
395.657	4.86
395.864	4.95
396.072	4.92
396.279	5.08
396.486	4.94
396.693	4.89
396.9	4.82
397.107	4.86
397.314	4.95
397.521	4.73
397.728	4.61
397.935	4.64
398.142	4.41
398.349	4.41
398.556	4.26
398.763	4.11
398.97	4.06
399.177	4.1
399.383	4.2
399.59	4.35
399.797	4.54
400.004	4.64
400.211	4.7
400.418	4.72
400.625	4.85
400.831	4.95
401.038	4.99
401.245	5.04
401.452	4.96
401.658	4.93
401.865	4.72
402.072	4.79
402.279	4.69
402.485	4.47
402.692	4.44
402.899	4.27
403.105	4.28
403.312	4.38
403.519	4.47
403.725	4.61
403.932	4.52
404.138	4.62
404.345	4.57
404.552	4.52
404.758	4.59
404.965	4.68
405.171	4.71
405.378	4.77
405.584	4.67
405.791	4.64
405.997	4.54
406.204	4.51
406.41	4.53
406.617	4.55
406.823	4.6
407.029	4.69
407.236	4.78
407.442	4.67
407.649	4.5
407.855	4.54
408.061	4.53
408.268	4.53
408.474	4.49
408.68	4.52
408.887	4.38
409.093	4.35
409.299	4.21
409.505	4.1
409.712	4.08
409.918	4.1
410.124	4.19
410.33	4.15
410.537	4.21
410.743	4.4
410.949	4.42
411.155	4.51
411.361	4.49
411.567	4.46
411.773	4.46
411.98	4.58
412.186	4.64
412.392	4.6
412.598	4.85
412.804	4.79
413.01	4.8
413.216	4.75
413.422	4.65
413.628	4.63
413.834	4.56
414.04	4.64
414.246	4.64
414.452	4.59
414.658	4.48
414.864	4.22
415.07	4.31
415.275	4.26
415.481	4.14
415.687	4.2
415.893	4.2
416.099	4.27
416.305	4.2
416.511	4.18
416.716	4.14
416.922	4.22
417.128	4.22
417.334	4.26
417.539	4.3
417.745	4.43
417.951	4.48
418.157	4.42
418.362	4.46
418.568	4.41
418.774	4.43
418.979	4.45
419.185	4.45
419.391	4.47
419.596	4.45
419.802	4.5
420.008	4.47
420.213	4.43
420.419	4.47
420.624	4.44
420.83	4.44
421.035	4.39
421.241	4.38
421.446	4.39
421.652	4.4
421.857	4.35
422.063	4.27
422.268	4.24
422.474	4.29
422.679	4.31
422.885	4.31
423.09	4.34
423.295	4.37
423.501	4.38
423.706	4.35
423.911	4.38
424.117	4.38
424.322	4.4
424.527	4.47
424.733	4.52
424.938	4.51
425.143	4.49
425.349	4.5
425.554	4.52
425.759	4.56
425.964	4.56
426.169	4.55
426.375	4.51
426.58	4.47
426.785	4.37
426.99	4.29
427.195	4.33
427.4	4.35
427.605	4.35
427.811	4.27
428.016	4.28
428.221	4.36
428.426	4.34
428.631	4.42
428.836	4.5
429.041	4.5
429.246	4.42
429.451	4.38
429.656	4.4
429.861	4.38
430.066	4.34
430.271	4.28
430.476	4.23
430.681	4.09
430.886	4.14
431.09	4.05
431.295	4.04
431.5	4
431.705	3.94
431.91	3.88
432.115	3.99
432.32	4.11
432.524	4.13
432.729	4.12
432.934	4.19
433.139	4.06
433.343	4.19
433.548	4.15
433.753	4.27
433.958	4.32
434.162	4.35
434.367	4.22
434.572	4.16
434.776	4.18
434.981	4.2
435.186	4.27
435.39	4.39
435.595	4.35
435.799	4.39
436.004	4.32
436.209	4.33
436.413	4.34
436.618	4.39
436.822	4.43
437.027	4.44
437.231	4.41
437.436	4.39
437.64	4.24
437.845	4.2
438.049	4.2
438.253	4.18
438.458	4.1
438.662	4.13
438.867	4.11
439.071	4.08
439.275	4.07
439.48	4.07
439.684	4.08
439.888	4.02
440.093	4
440.297	4.03
440.501	4.05
440.706	4.05
440.91	4.06
441.114	4.01
441.318	3.96
441.523	3.95
441.727	4
441.931	3.98
442.135	4.07
442.339	4.1
442.543	4.01
442.748	3.94
442.952	3.94
443.156	3.83
443.36	3.86
443.564	3.91
443.768	3.89
443.972	3.85
444.176	3.97
444.38	3.98
444.584	3.94
444.788	3.97
444.992	4.05
445.196	4.15
445.4	4.17
445.604	4.26
445.808	4.28
446.012	4.28
446.216	4.2
446.42	4.1
446.624	4.05
446.828	4
447.032	3.99
447.235	3.94
447.439	3.96
447.643	3.99
447.847	3.96
448.051	3.94
448.254	3.91
448.458	3.94
448.662	3.94
448.866	4.05
449.069	4.09
449.273	4.16
449.477	4.17
449.681	4.13
449.884	4.11
450.088	4.06
450.292	4.1
450.495	4.11
450.699	4.17
450.902	4.23
451.106	4.19
451.31	4.25
451.513	4.3
451.717	4.27
451.92	4.22
452.124	4.26
452.327	4.17
452.531	4.17
452.734	4.08
452.938	4.06
453.141	3.95
453.345	3.89
453.548	3.91
453.752	3.77
453.955	3.72
454.158	3.75
454.362	3.72
454.565	3.82
454.769	3.76
454.972	3.89
455.175	3.91
455.379	3.95
455.582	3.96
455.785	3.8
455.988	3.93
456.192	4.03
456.395	4.03
456.598	4.08
456.801	4.02
457.005	4.13
457.208	4.14
457.411	4.07
457.614	4.12
457.817	4.21
458.021	4.31
458.224	4.27
458.427	4.2
458.63	4.14
458.833	4.07
459.036	4.06
459.239	3.96
459.442	3.94
459.645	3.9
459.848	3.87
460.051	3.86
460.254	3.86
460.457	3.82
460.66	3.8
460.863	3.86
461.066	3.94
461.269	3.97
461.472	4.04
461.675	4.02
461.878	4.05
462.081	3.97
462.284	4
462.486	4.01
462.689	4.13
462.892	4.1
463.095	4.09
463.298	4.05
463.5	3.97
463.703	4.03
463.906	4.02
464.109	4.08
464.311	4.06
464.514	3.9
464.717	3.82
464.92	3.72
465.122	3.8
465.325	3.82
465.528	3.72
465.73	3.83
465.933	3.6
466.135	3.59
466.338	3.65
466.541	3.73
466.743	3.77
466.946	3.81
467.148	3.92
467.351	3.96
467.553	3.95
467.756	4.01
467.958	4.04
468.161	4.18
468.363	4.14
468.566	4.01
468.768	4
468.971	4.05
469.173	4.1
