Data from 2938728__Reflection_01.txt Node
Date: Sun Mar 15 19:17:38 EDT 2015
User: robert
Spectrometer: USB4E03002
Autoset integration time: false
Trigger mode: 4
Integration Time (sec): 1.000000E-1
Scans to average: 10
Electric dark correction enabled: false
Nonlinearity correction enabled: false
Boxcar width: 5
Stray light correction enabled: false
XAxis mode: Wavelengths
Stop averaging: false
Number of Pixels in Spectrum: 3648
>>>>>Begin Spectral Data<<<<<
177.575	99.1
177.794	107.84
178.014	121.27
178.233	143.79
178.452	120.61
178.672	137.28
178.891	145.78
179.11	-4.9
179.33	4.69
179.549	-170.18
179.768	404.17
179.987	303.57
180.207	292.41
180.426	-1096.77
180.645	-145.21
180.864	-178.05
181.084	-116.15
181.303	-65.17
181.522	-34.67
181.741	-90.5
181.96	-103.66
182.179	156.45
182.398	-25.78
182.618	-52.08
182.837	26.9
183.056	47.31
183.275	43.97
183.494	7.87
183.713	19.76
183.932	8.52
184.151	25.14
184.37	28.33
184.589	60.32
184.808	93.71
185.027	94.65
185.246	90.46
185.465	161.87
185.684	255.86
185.903	-98.88
186.122	28.9
186.341	21.15
186.56	57.87
186.779	53.78
186.998	114.89
187.216	178.28
187.435	175.4
187.654	258.33
187.873	405.61
188.092	991.49
188.311	-8733.33
188.53	-294.68
188.748	-166.32
188.967	-74.18
189.186	-72.26
189.405	-99.28
189.623	-89.58
189.842	-77.78
190.061	-91.3
190.28	-39.94
190.498	-28.13
190.717	-28.2
190.936	-6.49
191.154	5.69
191.373	-16.7
191.592	-17.69
191.81	-18.66
192.029	-7.74
192.248	-18.3
192.466	-19.77
192.685	-46.17
192.904	-44.63
193.122	-49.37
193.341	-36.8
193.559	-67.81
193.778	-91.77
193.996	-98.49
194.215	-60.31
194.433	-35
194.652	-19.62
194.87	-126.97
195.089	-109.61
195.307	-24.73
195.526	3.55
195.744	-17.56
195.963	56.88
196.181	-38.66
196.399	5.33
196.618	19.73
196.836	-55.17
197.055	-7.73
197.273	19.5
197.491	-8.33
197.71	3285.71
197.928	6440
198.146	-1300
198.365	-569.88
198.583	-53.01
198.801	-96.75
199.019	-116.67
199.238	-49.65
199.456	-92.4
199.674	-66.67
199.892	19.17
200.111	-12.44
200.329	13.37
200.547	-42.58
200.765	30.26
200.983	49.02
201.202	79.7
201.42	66
201.638	60.71
201.856	90.5
202.074	159.66
202.292	123.13
202.51	196.71
202.728	308.27
202.946	183.2
203.165	398.55
203.383	-1178.79
203.601	-600
203.819	-258.46
204.037	-212.59
204.255	-294.67
204.473	-595.24
204.691	-1900
204.909	488.1
205.127	64
205.345	120.57
205.562	107.69
205.78	15.3
205.998	7.37
206.216	-15.62
206.434	-35.33
206.652	-17.45
206.87	-2.94
207.088	-30.97
207.306	11.49
207.523	5.29
207.741	0.48
207.959	-25.83
208.177	-110.39
208.395	-106.11
208.612	-62.73
208.83	-45.43
209.048	-36.39
209.266	-31.81
209.483	-10.31
209.701	-24.36
209.919	-4.7
210.136	15.03
210.354	55.08
210.572	86.47
210.79	57.85
211.007	62.66
211.225	91.27
211.442	77.62
211.66	64.71
211.878	66.57
212.095	75.05
212.313	52.01
212.53	45.16
212.748	41.37
212.966	47.77
213.183	32.4
213.401	39.79
213.618	30.35
213.836	18.07
214.053	23.12
214.271	8.06
214.488	12.88
214.705	21.24
214.923	11.63
215.14	-5.67
215.358	-7.25
215.575	-3.83
215.793	-5.05
216.01	-5.15
216.227	-5.42
216.445	-5.97
216.662	9.66
216.879	17.26
217.097	7.52
217.314	5.51
217.531	5.3
217.749	-2.72
217.966	-0.65
218.183	-1
218.4	-28.7
218.618	-12.49
218.835	-2.03
219.052	-28.57
219.269	-37.44
219.487	-26.34
219.704	-40.49
219.921	-28.98
220.138	-7.54
220.355	-20.41
220.572	-26.32
220.79	-12.31
221.007	-40.17
221.224	-59.25
221.441	-29.63
221.658	-20.17
221.875	-21.54
222.092	-5.81
222.309	-5.55
222.526	-15.29
222.743	-4.97
222.96	-13.49
223.177	-10.63
223.394	4.32
223.611	5.17
223.828	-2.94
224.045	-10.46
224.262	-12.82
224.479	-11.64
224.696	-20.38
224.913	-19.46
225.13	-17.67
225.347	-10.53
225.564	-10.21
225.781	-11.39
225.997	-8.2
226.214	-7.25
226.431	-2.77
226.648	-4.3
226.865	-4.47
227.082	-2.51
227.298	-1
227.515	0.02
227.732	-1.63
227.949	-0.86
228.165	-1.39
228.382	-1.47
228.599	-1.71
228.816	-1.57
229.032	-0.8
229.249	-0.76
229.466	-0.13
229.682	-0.47
229.899	-1.16
230.116	0.43
230.332	-0.12
230.549	0.11
230.765	0.61
230.982	1.53
231.199	0.78
231.415	-0.53
231.632	0.25
231.848	0.52
232.065	1.23
232.281	0.15
232.498	-2.11
232.714	-0.6
232.931	-1.54
233.147	-3.44
233.364	-4.34
233.58	-5.84
233.797	-4.4
234.013	-8.41
234.23	-8.28
234.446	-6.68
234.662	-5.05
234.879	-4.43
235.095	-5.23
235.312	-3.98
235.528	-3.71
235.744	-3.14
235.961	-2.62
236.177	-2.11
236.393	0.76
236.61	-0.11
236.826	-1.95
237.042	-2.72
237.258	-2.23
237.475	-0.07
237.691	-0.38
237.907	0.48
238.123	0.18
238.339	2.37
238.556	2.04
238.772	1.17
238.988	0.44
239.204	1.19
239.42	1.41
239.636	1.82
239.853	0.08
240.069	0.23
240.285	-0.32
240.501	-0.36
240.717	-0.86
240.933	-0.96
241.149	-1.02
241.365	-0.11
241.581	0.11
241.797	0.39
242.013	-0.19
242.229	-0.24
242.445	-0.13
242.661	0.34
242.877	0.81
243.093	1.04
243.309	0.98
243.525	0.49
243.741	0.1
243.957	-0.37
244.173	-0.71
244.388	-0.84
244.604	-0.81
244.82	-1.38
245.036	-1.58
245.252	-2.2
245.468	-2.37
245.683	-1.92
245.899	-0.72
246.115	-0.34
246.331	-0.18
246.547	0.01
246.762	0.24
246.978	0.68
247.194	1.23
247.409	1.39
247.625	1.48
247.841	1.72
248.057	1.66
248.272	1.57
248.488	1.54
248.703	1.46
248.919	1.6
249.135	1.59
249.35	1.59
249.566	1.24
249.782	0.63
249.997	0.65
250.213	-0.3
250.428	0.37
250.644	-0.13
250.859	0.36
251.075	-0.34
251.29	-0.7
251.506	-1.07
251.721	-1.18
251.937	-1.74
252.152	-1.09
252.368	-1.09
252.583	-0.37
252.798	-0.82
253.014	-0.76
253.229	-1.45
253.445	-0.96
253.66	-0.96
253.875	-0.59
254.091	-1.62
254.306	-1.53
254.521	-1.82
254.737	-2.15
254.952	-2.44
255.167	-3.08
255.383	-2.57
255.598	-1.73
255.813	-1.28
256.028	-1.39
256.244	-0.54
256.459	-1.06
256.674	-0.97
256.889	-1.68
257.104	-1.45
257.32	-0.95
257.535	-0.74
257.75	-0.8
257.965	-1.02
258.18	-0.87
258.395	-0.51
258.61	-0.74
258.826	-0.44
259.041	-0.03
259.256	0.36
259.471	0.4
259.686	0.38
259.901	0.41
260.116	0.45
260.331	0.42
260.546	0.34
260.761	0.42
260.976	0.41
261.191	0.46
261.406	0.44
261.621	-0.02
261.836	0.17
262.05	-0.02
262.265	0.01
262.48	0.02
262.695	0.69
262.91	1.13
263.125	0.78
263.34	0.52
263.555	0.12
263.769	-0.45
263.984	-0.6
264.199	-0.87
264.414	-1.28
264.629	-1.18
264.843	-1.71
265.058	-2.48
265.273	-3.14
265.488	-3.48
265.702	-3.04
265.917	-2.6
266.132	-2.66
266.346	-2.27
266.561	-2.48
266.776	-2.09
266.99	-2.3
267.205	-2.02
267.42	-2.62
267.634	-2.41
267.849	-2.44
268.063	-2.06
268.278	-2.14
268.492	-1.86
268.707	-1.51
268.922	-1.06
269.136	-1.3
269.351	-1.47
269.565	-1.6
269.78	-1.1
269.994	-0.66
270.209	-0.43
270.423	-1.09
270.637	-1.16
270.852	-1.15
271.066	-1.36
271.281	-1.42
271.495	-1.48
271.709	-0.84
271.924	-0.74
272.138	-0.68
272.353	-1.12
272.567	-0.87
272.781	-0.61
272.996	-0.16
273.21	0.18
273.424	0.68
273.638	1.17
273.853	1.57
274.067	1.52
274.281	1.27
274.495	1.3
274.71	1.42
274.924	1.44
275.138	1.32
275.352	0.77
275.566	0.62
275.781	0.58
275.995	0.18
276.209	0.47
276.423	0.01
276.637	0.7
276.851	0.35
277.065	0.59
277.279	0.26
277.493	0.4
277.707	0.4
277.921	0.22
278.135	0.02
278.349	-0.68
278.563	-1.28
278.777	-0.95
278.991	-1.38
279.205	-1.61
279.419	-1.72
279.633	-1.58
279.847	-1.77
280.061	-1.32
280.275	-1.74
280.489	-1.83
280.703	-1.5
280.917	-1.32
281.131	-1.09
281.344	-1.26
281.558	-0.62
281.772	-0.44
281.986	-0.15
282.2	0.03
282.414	0.01
282.627	0.15
282.841	0.33
283.055	0.37
283.269	0.33
283.482	0.25
283.696	0.51
283.91	0.65
284.123	0.69
284.337	0.48
284.551	0.36
284.764	-0.22
284.978	0.12
285.192	-0.07
285.405	-0
285.619	-0.03
285.833	-0.27
286.046	-0.57
286.26	-0.96
286.473	-1.3
286.687	-1.43
286.9	-1.22
287.114	-0.98
287.327	-1.07
287.541	-0.65
287.754	-0.65
287.968	-0.48
288.181	-0.48
288.395	0.09
288.608	0.55
288.822	0.47
289.035	0.82
289.248	0.65
289.462	1.15
289.675	1.13
289.889	0.79
290.102	0.69
290.315	0.95
290.529	0.84
290.742	0.62
290.955	0.55
291.169	1.03
291.382	0.46
291.595	0.56
291.808	0.17
292.022	-0.18
292.235	-0.18
292.448	-0.37
292.661	-0.57
292.875	-0.67
293.088	-0.53
293.301	-0.59
293.514	-0.74
293.727	-0.33
293.94	-0.41
294.153	-0.45
294.367	0.13
294.58	0.23
294.793	0.37
295.006	0.16
295.219	0.59
295.432	0.47
295.645	0.38
295.858	0.2
296.071	0.27
296.284	0.18
296.497	0.56
296.71	0.15
296.923	0.11
297.136	0.46
297.349	0.6
297.562	0.34
297.775	0.26
297.988	0.35
298.201	0.35
298.414	0.17
298.626	0.48
298.839	0.21
299.052	0.44
299.265	0.4
299.478	0.15
299.691	-0.17
299.903	-0.2
300.116	-0.04
300.329	0.04
300.542	0.15
300.755	0.04
300.967	0.21
301.18	0.03
301.393	-0.09
301.605	-0.01
301.818	0.13
302.031	0.4
302.243	0.85
302.456	0.93
302.669	0.92
302.881	0.9
303.094	1.13
303.307	0.49
303.519	0.68
303.732	1
303.944	1.21
304.157	1.06
304.37	1.1
304.582	0.96
304.795	0.69
305.007	0.79
305.22	0.82
305.432	0.84
305.645	1.2
305.857	1.74
306.069	1.32
306.282	1.07
306.494	0.98
306.707	0.78
306.919	0.59
307.132	0.88
307.344	0.43
307.556	0.56
307.769	0.45
307.981	0.6
308.193	0.2
308.406	0.55
308.618	0.52
308.83	1
309.043	0.98
309.255	1.55
309.467	1.35
309.679	1.81
309.892	1.75
310.104	1.9
310.316	1.71
310.528	1.97
310.74	2.03
310.953	2.19
311.165	1.7
311.377	1.96
311.589	1.85
311.801	1.82
312.013	1.65
312.225	1.95
312.437	2.23
312.649	2.33
312.862	2.07
313.074	1.64
313.286	1.92
313.498	2.31
313.71	2.5
313.922	2.61
314.134	3.07
314.346	3.2
314.558	2.96
314.77	2.63
314.982	2.53
315.193	2.28
315.405	2.44
315.617	2.22
315.829	2.17
316.041	1.89
316.253	1.39
316.465	1.54
316.677	1.46
316.888	1.52
317.1	2.05
317.312	2.36
317.524	2.61
317.736	2.76
317.947	2.52
318.159	2.47
318.371	2.99
318.583	3.56
318.794	3.01
319.006	2.87
319.218	3.08
319.43	2.46
319.641	2.41
319.853	2.7
320.064	2.63
320.276	2.99
320.488	3.07
320.699	2.56
320.911	2.59
321.123	3.36
321.334	3.09
321.546	3.2
321.757	3.57
321.969	3.72
322.18	3.53
322.392	3.91
322.603	4.07
322.815	4.13
323.026	4.61
323.238	4.43
323.449	3.99
323.661	3.68
323.872	4.02
324.083	3.62
324.295	3.72
324.506	4.15
324.718	4.63
324.929	4.42
325.14	4.58
325.352	4.67
325.563	4.68
325.774	5.57
325.986	6.6
326.197	6.55
326.408	7.17
326.62	7.81
326.831	7.91
327.042	8.1
327.253	8.49
327.464	8.68
327.676	8.61
327.887	9
328.098	8.99
328.309	8.92
328.52	9.14
328.732	9.21
328.943	8.88
329.154	8.89
329.365	8.66
329.576	8.52
329.787	8.59
329.998	8.86
330.209	9.45
330.42	9.82
330.631	10.43
330.842	10.23
331.053	10.43
331.264	10.77
331.475	11.05
331.686	11.67
331.897	12.37
332.108	12.8
332.319	13.64
332.53	13.23
332.741	12.87
332.952	13.02
333.163	13.32
333.374	13.26
333.585	13.71
333.795	14.04
334.006	14.13
334.217	13.94
334.428	13.99
334.639	13.77
334.849	14.12
335.06	14.43
335.271	14.21
335.482	14.75
335.692	14.95
335.903	14.94
336.114	15.05
336.325	15.05
336.535	15.12
336.746	15.02
336.957	14.89
337.167	14.73
337.378	14.81
337.589	15.21
337.799	14.92
338.01	15.09
338.22	15.07
338.431	15.17
338.642	14.79
338.852	15.18
339.063	15.32
339.273	15.21
339.484	15.74
339.694	15.79
339.905	15.5
340.115	14.99
340.326	15
340.536	15.18
340.746	15.07
340.957	15.42
341.167	14.97
341.378	14.93
341.588	15.08
341.799	14.92
342.009	14.68
342.219	14.65
342.43	15.43
342.64	15.56
342.85	15.38
343.061	15.44
343.271	15.47
343.481	15.43
343.691	15.5
343.902	15.43
344.112	15.22
344.322	15.3
344.532	15.47
344.743	15.27
344.953	15.63
345.163	15.47
345.373	15.64
345.583	15.51
345.793	15.9
346.004	16.16
346.214	16.2
346.424	16.16
346.634	16.02
346.844	15.87
347.054	15.62
347.264	15.01
347.474	15.32
347.684	14.93
347.894	15.29
348.104	15.3
348.314	15.14
348.524	14.91
348.734	15.02
348.944	15.2
349.154	15.68
349.364	16.22
349.574	16.4
349.784	16.39
349.994	16.47
350.204	16.22
350.413	16.15
350.623	16.02
350.833	15.99
351.043	15.64
351.253	15.67
351.463	15.33
351.672	15.03
351.882	15.22
352.092	15.1
352.302	15.11
352.511	15.07
352.721	15
352.931	15.08
353.141	15.56
353.35	15.97
353.56	16.18
353.77	16.04
353.979	16.07
354.189	15.98
354.399	15.79
354.608	15.77
354.818	16.21
355.027	15.97
355.237	16.13
355.447	16.28
355.656	16.17
355.866	15.9
356.075	16.03
356.285	16.01
356.494	15.83
356.704	15.83
356.913	16.03
357.123	15.89
357.332	15.92
357.542	15.71
357.751	15.26
357.96	15.47
358.17	15.48
358.379	15.52
358.589	15.44
358.798	15.42
359.007	15.69
359.217	15.21
359.426	15.1
359.635	15.14
359.845	15.26
360.054	15.3
360.263	15.08
360.472	15.44
360.682	15.58
360.891	15.59
361.1	15.69
361.309	15.51
361.519	15.7
361.728	15.58
361.937	15.53
362.146	15.51
362.355	15.78
362.564	15.55
362.774	15.27
362.983	15.01
363.192	15.06
363.401	15.1
363.61	15.15
363.819	15.15
364.028	15.11
364.237	15.36
364.446	15.29
364.655	14.98
364.864	15.21
365.073	15.09
365.282	15.01
365.491	14.9
365.7	15.03
365.909	15.28
366.118	15.22
366.327	15.34
366.536	15.25
366.745	15.28
366.954	15.35
367.162	15.36
367.371	15.33
367.58	15.55
367.789	15.71
367.998	15.33
368.207	15.14
368.415	15.37
368.624	15.51
368.833	15.59
369.042	15.46
369.25	15.25
369.459	14.95
369.668	15.16
369.877	15.16
370.085	15.26
370.294	15.4
370.503	15.39
370.711	15.29
370.92	15
371.129	14.99
371.337	15.05
371.546	15.32
371.754	16.06
371.963	16.05
372.171	16.22
372.38	15.98
372.589	15.95
372.797	15.9
373.006	15.82
373.214	15.87
373.423	15.88
373.631	15.99
373.84	15.73
374.048	15.4
374.256	15.12
374.465	15.06
374.673	15.14
374.882	15.18
375.09	15.27
375.298	15.28
375.507	15.38
375.715	15.6
375.923	15.41
376.132	15.65
376.34	15.38
376.548	15.71
376.757	15.68
376.965	15.57
377.173	15.71
377.381	15.6
377.59	15.52
377.798	15.43
378.006	15
378.214	15.15
378.423	15.09
378.631	15.22
378.839	14.97
379.047	14.71
379.255	14.7
379.463	14.51
379.671	14.35
379.879	14.66
380.088	14.74
380.296	14.73
380.504	14.79
380.712	15.01
380.92	15.03
381.128	15.07
381.336	14.92
381.544	15.04
381.752	15.03
381.96	15.04
382.168	14.77
382.376	14.7
382.584	14.87
382.791	14.94
382.999	14.7
383.207	14.62
383.415	14.68
383.623	15.03
383.831	14.95
384.039	15.27
384.247	15.55
384.454	15.78
384.662	15.95
384.87	15.96
385.078	15.85
385.285	15.67
385.493	15.93
385.701	15.95
385.909	15.88
386.116	15.94
386.324	15.94
386.532	15.72
386.739	15.7
386.947	15.53
387.155	15.15
387.362	14.86
387.57	15.18
387.778	15.01
387.985	15.01
388.193	14.88
388.4	15.11
388.608	14.71
388.816	14.89
389.023	15
389.231	15.03
389.438	15.3
389.646	15.61
389.853	15.4
390.061	15.33
390.268	15.18
390.475	15.28
390.683	15.07
390.89	15.29
391.098	15.14
391.305	14.83
391.512	14.91
391.72	15.02
391.927	14.92
392.135	14.95
392.342	15.18
392.549	15.32
392.756	15.33
392.964	15.21
393.171	15.32
393.378	15.41
393.586	15.59
393.793	15.57
394	15.61
394.207	15.65
394.414	15.8
394.622	15.76
394.829	15.63
395.036	15.53
395.243	15.68
395.45	15.6
395.657	15.54
395.864	15.71
396.072	15.81
396.279	15.81
396.486	15.91
396.693	15.68
396.9	15.66
397.107	15.78
397.314	16.04
397.521	16.05
397.728	15.89
397.935	15.95
398.142	15.7
398.349	15.52
398.556	15.47
398.763	15.55
398.97	15.74
399.177	15.75
399.383	15.79
399.59	15.76
399.797	15.89
400.004	16.07
400.211	15.99
400.418	16.1
400.625	16.19
400.831	16.15
401.038	16.21
401.245	16.31
401.452	16.33
401.658	16.32
401.865	16.3
402.072	16.26
402.279	16.39
402.485	16.46
402.692	16.39
402.899	16.37
403.105	16.48
403.312	16.36
403.519	16.33
403.725	16.43
403.932	16.52
404.138	16.55
404.345	16.45
404.552	16.27
404.758	16.27
404.965	16.27
405.171	16.4
405.378	16.38
405.584	16.3
405.791	16.21
405.997	16.11
406.204	16.2
406.41	16.31
406.617	16.26
406.823	16.36
407.029	16.3
407.236	16.15
407.442	16.13
407.649	16.09
407.855	16.2
408.061	16.16
408.268	16.03
408.474	15.75
408.68	15.72
408.887	15.98
409.093	15.76
409.299	16
409.505	16.18
409.712	16.2
409.918	16.23
410.124	16.29
410.33	16.49
410.537	16.48
410.743	16.61
410.949	16.43
411.155	16.38
411.361	16.62
411.567	16.61
411.773	16.59
411.98	16.63
412.186	16.67
412.392	16.73
412.598	16.51
412.804	16.72
413.01	16.94
413.216	17
413.422	16.97
413.628	17.05
413.834	17.03
414.04	17.15
414.246	17.17
414.452	17.32
414.658	17.13
414.864	17.36
415.07	17.36
415.275	17.34
415.481	17.42
415.687	17.33
415.893	17.18
416.099	17.21
416.305	17.28
416.511	17.31
416.716	17.25
416.922	17.37
417.128	17.42
417.334	17.38
417.539	17.28
417.745	17.25
417.951	17.34
418.157	17.53
418.362	17.52
418.568	17.61
418.774	17.54
418.979	17.64
419.185	17.61
419.391	17.57
419.596	17.69
419.802	17.72
420.008	17.79
420.213	17.82
420.419	17.81
420.624	17.85
420.83	17.76
421.035	17.82
421.241	17.75
421.446	17.76
421.652	17.8
421.857	17.79
422.063	17.88
422.268	17.89
422.474	17.93
422.679	17.84
422.885	17.85
423.09	17.85
423.295	17.87
423.501	17.98
423.706	18.12
423.911	18.03
424.117	18.1
424.322	17.99
424.527	17.91
424.733	17.98
424.938	18.05
425.143	18.05
425.349	18.05
425.554	18.06
425.759	17.97
425.964	17.91
426.169	17.98
426.375	17.91
426.58	18.04
426.785	18.16
426.99	17.99
427.195	18.02
427.4	18.04
427.605	18.08
427.811	18.15
428.016	18.28
428.221	18.31
428.426	18.42
428.631	18.65
428.836	18.61
429.041	18.54
429.246	18.59
429.451	18.66
429.656	18.63
429.861	18.62
430.066	18.57
430.271	18.62
430.476	18.6
430.681	18.53
430.886	18.47
431.09	18.47
431.295	18.6
431.5	18.68
431.705	18.61
431.91	18.64
432.115	18.72
432.32	18.79
432.524	18.59
432.729	18.54
432.934	18.59
433.139	18.59
433.343	18.76
433.548	18.79
433.753	18.85
433.958	18.94
434.162	19.08
434.367	19.2
434.572	19.24
434.776	19.49
434.981	19.68
435.186	19.78
435.39	19.89
435.595	20
435.799	20.08
436.004	20.22
436.209	20.25
436.413	20.2
436.618	20.13
436.822	20.1
437.027	20.03
437.231	19.97
437.436	20
437.64	19.74
437.845	19.59
438.049	19.56
438.253	19.4
438.458	19.38
438.662	19.42
438.867	19.38
439.071	19.44
439.275	19.49
439.48	19.48
439.684	19.4
439.888	19.54
440.093	19.57
440.297	19.6
440.501	19.69
440.706	19.6
440.91	19.56
441.114	19.71
441.318	19.78
441.523	19.75
441.727	19.71
441.931	19.73
442.135	19.64
442.339	19.64
442.543	19.58
442.748	19.58
442.952	19.65
443.156	19.75
443.36	19.67
443.564	19.59
443.768	19.58
443.972	19.72
444.176	19.68
444.38	19.83
444.584	19.89
444.788	19.87
444.992	19.79
445.196	19.87
445.4	19.81
445.604	19.79
445.808	19.8
446.012	19.81
446.216	19.79
446.42	19.8
446.624	19.76
446.828	19.71
447.032	19.74
447.235	19.77
447.439	19.77
447.643	19.78
447.847	19.72
448.051	19.71
448.254	19.73
448.458	19.65
448.662	19.65
448.866	19.58
449.069	19.53
449.273	19.53
449.477	19.56
449.681	19.43
449.884	19.45
450.088	19.57
450.292	19.5
450.495	19.48
450.699	19.67
450.902	19.69
451.106	19.83
451.31	19.88
451.513	19.82
451.717	19.77
451.92	19.88
452.124	19.87
452.327	19.88
452.531	20.03
452.734	19.97
452.938	19.94
453.141	20
453.345	19.91
453.548	19.9
453.752	20.09
453.955	20.11
454.158	20.08
454.362	20.02
454.565	19.99
454.769	19.82
454.972	19.92
455.175	19.94
455.379	19.95
455.582	20.05
455.785	20.08
455.988	20.01
456.192	20.14
456.395	20.23
456.598	20.29
456.801	20.23
457.005	20.38
457.208	20.27
457.411	20.24
457.614	20.31
457.817	20.22
458.021	20.24
458.224	20.23
458.427	20.07
458.63	20.03
458.833	20.06
459.036	20.11
459.239	20
