Data from 2938734__Reflection_02.txt Node
Date: Sun Mar 15 18:28:21 EDT 2015
User: robert
Spectrometer: USB4E03002
Autoset integration time: false
Trigger mode: 4
Integration Time (sec): 1.000000E-1
Scans to average: 10
Electric dark correction enabled: false
Nonlinearity correction enabled: false
Boxcar width: 5
Stray light correction enabled: false
XAxis mode: Wavelengths
Stop averaging: false
Number of Pixels in Spectrum: 3648
>>>>>Begin Spectral Data<<<<<
177.575	306.81
177.794	315.63
178.014	277.63
178.233	389.55
178.452	421.17
178.672	262
178.891	325.95
179.11	430.08
179.33	418.55
179.549	-6883.33
179.768	1282.61
179.987	331.16
180.207	177.61
180.426	171.3
180.645	188.18
180.864	263.49
181.084	316.22
181.303	462.2
181.522	-1577.27
181.741	-367.44
181.96	-1929.41
182.179	-1276.92
182.398	-303.97
182.618	-208.02
182.837	-127.3
183.056	-289.87
183.275	-2155.56
183.494	-215.03
183.713	815.38
183.932	201.62
184.151	138.66
184.37	169.66
184.589	143.75
184.808	155.88
185.027	215.16
185.246	97.26
185.465	192.79
185.684	230.5
185.903	181.19
186.122	316
186.341	1392.86
186.56	1041.54
186.779	5428.57
186.998	1303.45
187.216	-4700
187.435	-4928.57
187.654	-244.31
187.873	-1248.65
188.092	468.75
188.311	626.42
188.53	317.97
188.748	186.51
188.967	280
189.186	-2918.18
189.405	1203.57
189.623	256.46
189.842	154.44
190.061	116.92
190.28	138.99
190.498	181.02
190.717	241.03
190.936	241.18
191.154	262.12
191.373	312.44
191.592	230.66
191.81	206.41
192.029	273.68
192.248	294.76
192.466	277.27
192.685	253.33
192.904	230.37
193.122	214.96
193.341	273.67
193.559	258.58
193.778	274.16
193.996	217.7
194.215	261.89
194.433	210.69
194.652	236.67
194.87	297.9
195.089	330.91
195.307	362.15
195.526	382.81
195.744	544.25
195.963	493.44
196.181	630.85
196.399	-1040
196.618	-1330.95
196.836	13220
197.055	-1126.47
197.273	-182.45
197.491	-300
197.71	-246.31
197.928	-217.81
198.146	3972.22
198.365	-511.11
198.583	-141.51
198.801	-391.58
199.019	-636.84
199.238	7425
199.456	201.9
199.674	101.34
199.892	185.91
200.111	207.54
200.329	232.84
200.547	333.66
200.765	310.65
200.983	370.78
201.202	359.76
201.42	560
201.638	367.63
201.856	1632.56
202.074	-624.21
202.292	-2519.05
202.51	-4658.33
202.728	372.44
202.946	275.36
203.165	551.72
203.383	519.42
203.601	345.67
203.819	268.46
204.037	246.3
204.255	186.03
204.473	164.72
204.691	158.62
204.909	135.04
205.127	226.24
205.345	230.38
205.562	142.43
205.78	111.73
205.998	115.46
206.216	139.24
206.434	164.07
206.652	152.96
206.87	159.6
207.088	169.94
207.306	173.22
207.523	128.4
207.741	128.03
207.959	127.84
208.177	132.21
208.395	139.17
208.612	126.29
208.83	120.91
209.048	130.43
209.266	124.27
209.483	127.66
209.701	160.53
209.919	147.02
210.136	158.79
210.354	152.48
210.572	154.5
210.79	131.29
211.007	159.63
211.225	162.33
211.442	130.78
211.66	135.7
211.878	110.26
212.095	-19.7
212.313	-23.12
212.53	-22.43
212.748	-13.09
212.966	-33.42
213.183	-35.9
213.401	-43.1
213.618	-36.72
213.836	-41.29
214.053	-28.88
214.271	-23.7
214.488	93.2
214.705	86.96
214.923	104.23
215.14	90.46
215.358	98.42
215.575	116.41
215.793	94.26
216.01	89.64
216.227	100.92
216.445	127.29
216.662	151.03
216.879	120.23
217.097	116.38
217.314	133.25
217.531	154.58
217.749	126.75
217.966	111.75
218.183	135.37
218.4	111.32
218.618	90.53
218.835	84
219.052	77.09
219.269	69.4
219.487	72.48
219.704	58.99
219.921	57.69
220.138	54.44
220.355	49.64
220.572	35.98
220.79	31.68
221.007	40.36
221.224	40.11
221.441	36.33
221.658	24.39
221.875	30.88
222.092	30.49
222.309	19.16
222.526	27.31
222.743	36.2
222.96	41.6
223.177	43.35
223.394	33
223.611	32.51
223.828	23.1
224.045	25.51
224.262	21.1
224.479	20.53
224.696	27.98
224.913	22.86
225.13	20.67
225.347	20.48
225.564	20.46
225.781	23.64
225.997	23.46
226.214	25.12
226.431	24.42
226.648	24.29
226.865	20.81
227.082	14.62
227.298	13.84
227.515	11.83
227.732	10.31
227.949	9.54
228.165	8.24
228.382	8.19
228.599	7.56
228.816	7.82
229.032	7.39
229.249	7.2
229.466	8.79
229.682	8.64
229.899	8.27
230.116	8.79
230.332	9.14
230.549	9.63
230.765	9.56
230.982	10.62
231.199	9.26
231.415	9.72
231.632	10.53
231.848	8.8
232.065	9.32
232.281	10.08
232.498	8.13
232.714	8.3
232.931	7.41
233.147	8.37
233.364	7.42
233.58	10.03
233.797	8.3
234.013	9.36
234.23	11.55
234.446	11.5
234.662	13.56
234.879	14.4
235.095	12.75
235.312	13.41
235.528	12.84
235.744	12.34
235.961	12.15
236.177	13.78
236.393	13.18
236.61	13.19
236.826	14.26
237.042	11.48
237.258	10.88
237.475	12.84
237.691	12.97
237.907	14.02
238.123	12.9
238.339	12.46
238.556	12.42
238.772	11.93
238.988	9.47
239.204	7.27
239.42	8.32
239.636	9.79
239.853	9.16
240.069	8.8
240.285	8.23
240.501	8.64
240.717	8.22
240.933	6.51
241.149	6.03
241.365	5.75
241.581	5.93
241.797	5.91
242.013	5.42
242.229	4.92
242.445	4.94
242.661	4.54
242.877	4.73
243.093	4.33
243.309	4.84
243.525	5.17
243.741	5.38
243.957	5.94
244.173	5.92
244.388	6.1
244.604	6.14
244.82	5.29
245.036	5.51
245.252	5.17
245.468	5.55
245.683	5.12
245.899	5.12
246.115	5.09
246.331	4.96
246.547	4.41
246.762	3.83
246.978	4.01
247.194	4.22
247.409	3.97
247.625	4.15
247.841	4.36
248.057	4.47
248.272	4.67
248.488	4.83
248.703	4.52
248.919	5.23
249.135	5.88
249.35	5.58
249.566	5.84
249.782	6.71
249.997	7.31
250.213	6.91
250.428	6.52
250.644	5.84
250.859	5.83
251.075	6.29
251.29	5.94
251.506	5.58
251.721	6.1
251.937	5.65
252.152	5.32
252.368	4.9
252.583	5.63
252.798	6.16
253.014	6.53
253.229	6.52
253.445	7.3
253.66	7.2
253.875	7.67
254.091	7.59
254.306	8.06
254.521	8.24
254.737	8.53
254.952	7.76
255.167	7.54
255.383	6.85
255.598	7.59
255.813	6.3
256.028	6.63
256.244	6.23
256.459	6.54
256.674	6.13
256.889	5.34
257.104	4.68
257.32	5.53
257.535	5.24
257.75	5.24
257.965	4.83
258.18	4.39
258.395	3.7
258.61	3.69
258.826	3.34
259.041	3.24
259.256	3.62
259.471	3.44
259.686	2.93
259.901	3.02
260.116	2.92
260.331	2.73
260.546	2.9
260.761	3.11
260.976	3.05
261.191	3.47
261.406	3.57
261.621	3.48
261.836	3.8
262.05	4.27
262.265	4.49
262.48	4.57
262.695	4.95
262.91	4.78
263.125	4.97
263.34	5.16
263.555	5.34
263.769	5.51
263.984	5.07
264.199	4.8
264.414	3.94
264.629	3.56
264.843	4.03
265.058	4.24
265.273	4.24
265.488	4
265.702	3.57
265.917	3.43
266.132	3.55
266.346	3.75
266.561	3.59
266.776	3.02
266.99	3.17
267.205	3.12
267.42	2.73
267.634	2.85
267.849	3.1
268.063	3.47
268.278	3.24
268.492	2.88
268.707	2.81
268.922	3.09
269.136	4.1
269.351	3.79
269.565	3.73
269.78	3.85
269.994	3.62
270.209	2.89
270.423	2.55
270.637	2.33
270.852	2.36
271.066	2.79
271.281	2.6
271.495	2.52
271.709	2.46
271.924	2.49
272.138	2.3
272.353	2.8
272.567	2.67
272.781	2.99
272.996	3.26
273.21	3.44
273.424	2.99
273.638	3.32
273.853	3.44
274.067	3.29
274.281	3.76
274.495	3.94
274.71	3.44
274.924	4.12
275.138	3.75
275.352	3.55
275.566	3.58
275.781	4.19
275.995	3.89
276.209	3.46
276.423	4.04
276.637	3.2
276.851	3.35
277.065	3.48
277.279	3.18
277.493	3.43
277.707	3.63
277.921	3.91
278.135	3.35
278.349	3.22
278.563	3.56
278.777	3.41
278.991	4.06
279.205	3.53
279.419	3.81
279.633	4.33
279.847	4.21
280.061	4.68
280.275	4.37
280.489	4.32
280.703	4.38
280.917	4.74
281.131	4.92
281.344	4.31
281.558	4.63
281.772	4.61
281.986	4.24
282.2	4.4
282.414	4.26
282.627	3.91
282.841	4.13
283.055	4.76
283.269	4.34
283.482	4
283.696	4.11
283.91	4.14
284.123	3.98
284.337	3.94
284.551	3.65
284.764	3.46
284.978	4.04
285.192	4.07
285.405	3.75
285.619	3.79
285.833	4.16
286.046	4.26
286.26	4.34
286.473	3.89
286.687	4.08
286.9	4.29
287.114	4.23
287.327	3.99
287.541	3.83
287.754	3.56
287.968	3.59
288.181	3.13
288.395	3.29
288.608	3.21
288.822	3.92
289.035	3.7
289.248	3.91
289.462	4.12
289.675	4.18
289.889	4.45
290.102	4.36
290.315	4.2
290.529	4.44
290.742	4.48
290.955	4.51
291.169	4.24
291.382	4.38
291.595	4.54
291.808	4.19
292.022	4.21
292.235	4.19
292.448	4.48
292.661	4.62
292.875	4.48
293.088	4.34
293.301	4.42
293.514	4.85
293.727	4.77
293.94	4.45
294.153	4.41
294.367	4.3
294.58	4.05
294.793	4.01
295.006	4.28
295.219	4.09
295.432	3.93
295.645	3.82
295.858	3.68
296.071	3.8
296.284	3.56
296.497	3.7
296.71	3.79
296.923	3.99
297.136	4.1
297.349	3.84
297.562	4.17
297.775	4.48
297.988	4.52
298.201	4.51
298.414	4.34
298.626	4.64
298.839	4.75
299.052	4.98
299.265	4.89
299.478	4.97
299.691	5.06
299.903	4.84
300.116	4.82
300.329	4.7
300.542	5.01
300.755	5.26
300.967	5.13
301.18	5.21
301.393	5.13
301.605	5.05
301.818	5.04
302.031	5.32
302.243	5.18
302.456	4.96
302.669	4.96
302.881	4.58
303.094	4.81
303.307	5.09
303.519	5.11
303.732	5.05
303.944	5.29
304.157	5.28
304.37	4.85
304.582	5.17
304.795	5.29
305.007	5.33
305.22	5.29
305.432	4.75
305.645	5.02
305.857	5.12
306.069	5.28
306.282	4.95
306.494	5.09
306.707	5.58
306.919	5.23
307.132	5.25
307.344	5.84
307.556	5.89
307.769	6.43
307.981	5.9
308.193	5.72
308.406	5.52
308.618	5.89
308.83	5.92
309.043	5.58
309.255	5.79
309.467	5.44
309.679	5.01
309.892	5.1
310.104	4.96
310.316	4.8
310.528	4.83
310.74	4.9
310.953	4.81
311.165	4.78
311.377	5.05
311.589	5.11
311.801	5.48
312.013	5.66
312.225	5.48
312.437	5.42
312.649	6.18
312.862	6.11
313.074	6.13
313.286	6.15
313.498	5.91
313.71	5.8
313.922	5.56
314.134	5.49
314.346	5.44
314.558	5.63
314.77	5.75
314.982	4.61
315.193	4.57
315.405	4.96
315.617	4.54
315.829	4.85
316.041	4.99
316.253	5.43
316.465	5.7
316.677	5.49
316.888	5.59
317.1	5.62
317.312	6.53
317.524	6.42
317.736	6.63
317.947	7.25
318.159	7.18
318.371	7.1
318.583	7.1
318.794	6.88
319.006	7.28
319.218	7.31
319.43	6.82
319.641	6.41
319.853	6.76
320.064	6.47
320.276	6.66
320.488	6.98
320.699	7.73
320.911	8.18
321.123	8.04
321.334	7.5
321.546	7.58
321.757	7.92
321.969	7.84
322.18	7.88
322.392	7.72
322.603	7.08
322.815	6.6
323.026	5.98
323.238	5.59
323.449	6.11
323.661	6.34
323.872	6.24
324.083	6.31
324.295	6.55
324.506	6.25
324.718	6.08
324.929	6.07
325.14	5.98
325.352	6.19
325.563	6.35
325.774	6.04
325.986	6.42
326.197	6.83
326.408	6.8
326.62	6.77
326.831	7
327.042	7.21
327.253	7.81
327.464	8.03
327.676	7.81
327.887	7.78
328.098	7.59
328.309	7.72
328.52	7.66
328.732	8.04
328.943	7.88
329.154	8.29
329.365	8.41
329.576	8.26
329.787	8.4
329.998	8.64
330.209	8.46
330.42	8.81
330.631	8.96
330.842	8.65
331.053	8.37
331.264	8.94
331.475	8.71
331.686	8.66
331.897	8.86
332.108	8.86
332.319	8.56
332.53	8.71
332.741	8.85
332.952	8.73
333.163	8.62
333.374	8.83
333.585	8.53
333.795	8.25
334.006	8.22
334.217	8.01
334.428	8.1
334.639	8.26
334.849	8.44
335.06	8.38
335.271	8.26
335.482	8.83
335.692	8.98
335.903	8.95
336.114	8.89
336.325	9.15
336.535	8.89
336.746	8.65
336.957	8.27
337.167	8.28
337.378	8.08
337.589	8.2
337.799	7.95
338.01	7.54
338.22	7.63
338.431	7.98
338.642	7.67
338.852	7.4
339.063	7.78
339.273	8.3
339.484	8.1
339.694	8.42
339.905	8.1
340.115	7.9
340.326	8.18
340.536	8.46
340.746	8.29
340.957	8.24
341.167	8.67
341.378	8.55
341.588	8.48
341.799	8.3
342.009	8.42
342.219	7.97
342.43	8.07
342.64	8
342.85	7.88
343.061	7.84
343.271	8.03
343.481	8.23
343.691	7.81
343.902	7.81
344.112	8.26
344.322	7.85
344.532	8.4
344.743	8.4
344.953	8.33
345.163	7.97
345.373	8.31
345.583	8.22
345.793	7.96
346.004	8.34
346.214	8.25
346.424	8.1
346.634	7.92
346.844	7.98
347.054	7.79
347.264	7.98
347.474	8.1
347.684	7.85
347.894	7.37
348.104	7.01
348.314	7.15
348.524	7.04
348.734	6.7
348.944	6.69
349.154	6.75
349.364	6.66
349.574	6.19
349.784	6.17
349.994	6.22
350.204	6.86
350.413	7.35
350.623	6.8
350.833	7.05
351.043	7.23
351.253	7.56
351.463	7.35
351.672	7.56
351.882	7.85
352.092	8.01
352.302	7.89
352.511	7.62
352.721	7.44
352.931	7.49
353.141	7.19
353.35	7.17
353.56	7
353.77	6.84
353.979	6.68
354.189	6.38
354.399	6.11
354.608	6.35
354.818	6.29
355.027	6.21
355.237	6.38
355.447	6.67
355.656	6.62
355.866	6.39
356.075	6.3
356.285	6.46
356.494	6.74
356.704	6.73
356.913	6.62
357.123	6.65
357.332	6.7
357.542	6.54
357.751	6.48
357.96	6.53
358.17	6.81
358.379	7.29
358.589	7.16
358.798	7.23
359.007	7.37
359.217	7.26
359.426	7.32
359.635	7.3
359.845	7.49
360.054	7.32
360.263	7.21
360.472	7.1
360.682	6.78
360.891	6.85
361.1	6.76
361.309	6.7
361.519	6.76
361.728	6.48
361.937	6.56
362.146	6.3
362.355	6.27
362.564	6.35
362.774	6.37
362.983	6.47
363.192	6.33
363.401	6.21
363.61	6.24
363.819	6.26
364.028	6.36
364.237	6.22
364.446	6.61
364.655	6.95
364.864	6.89
365.073	6.85
365.282	6.71
365.491	6.91
365.7	6.85
365.909	7.09
366.118	6.83
366.327	7.19
366.536	7.33
366.745	7.31
366.954	6.8
367.162	6.69
367.371	6.6
367.58	6.73
367.789	6.68
367.998	6.54
368.207	6.41
368.415	6.77
368.624	6.52
368.833	6.46
369.042	6.45
369.25	6.35
369.459	6.43
369.668	6.48
369.877	6.43
370.085	6.47
370.294	6.64
370.503	6.4
370.711	6.34
370.92	6.45
371.129	6.59
371.337	6.38
371.546	6.58
371.754	6.57
371.963	6.7
372.171	6.51
372.38	6.67
372.589	6.71
372.797	6.84
373.006	6.66
373.214	6.51
373.423	6.45
373.631	6.47
373.84	6.31
374.048	6.13
374.256	6.12
374.465	6.16
374.673	5.61
374.882	5.96
375.09	5.84
375.298	5.82
375.507	5.89
375.715	5.68
375.923	5.74
376.132	5.69
376.34	5.95
376.548	5.93
376.757	5.93
376.965	6.14
377.173	5.53
377.381	5.46
377.59	5.44
377.798	5.33
378.006	5.15
378.214	4.97
378.423	5.29
378.631	5.07
378.839	5.11
379.047	4.94
379.255	4.97
379.463	5.26
379.671	5.31
379.879	5.36
380.088	5.55
380.296	5.79
380.504	5.75
380.712	5.56
380.92	5.94
381.128	5.72
381.336	6.01
381.544	5.99
381.752	6.03
381.96	5.83
382.168	5.74
382.376	5.58
382.584	5.46
382.791	5.61
382.999	5.6
383.207	5.37
383.415	5.32
383.623	5.15
383.831	5.19
384.039	5.01
384.247	5.37
384.454	5.5
384.662	5.41
384.87	5.48
385.078	5.38
385.285	5.52
385.493	5.27
385.701	5.21
385.909	5.21
386.116	5.13
386.324	5.3
386.532	5.07
386.739	4.92
386.947	4.88
387.155	4.94
387.362	5
387.57	4.76
387.778	4.86
387.985	4.94
388.193	4.63
388.4	4.8
388.608	4.55
388.816	4.47
389.023	4.54
389.231	4.73
389.438	4.39
389.646	4.28
389.853	4.28
390.061	4.31
390.268	4.22
390.475	4.43
390.683	4.11
390.89	4.42
391.098	4.38
391.305	4.23
391.512	4.04
391.72	4.05
391.927	4.1
392.135	4.21
392.342	4.21
392.549	4.22
392.756	4.3
392.964	4.42
393.171	4.28
393.378	4.23
393.586	4.24
393.793	4.19
394	4.41
394.207	4.17
394.414	4.15
394.622	4.07
394.829	4.23
395.036	4.24
395.243	4.12
395.45	4.12
395.657	4.19
395.864	4.18
396.072	4.34
396.279	4.15
396.486	4.26
396.693	4.24
396.9	4.22
397.107	4.12
397.314	4
397.521	4.02
397.728	3.91
397.935	3.92
398.142	3.95
398.349	3.94
398.556	4.05
398.763	4.17
398.97	4.24
399.177	4.06
399.383	4.09
399.59	4.12
399.797	4.33
400.004	4.48
400.211	4.65
400.418	4.63
400.625	4.61
400.831	4.43
401.038	4.35
401.245	4.04
401.452	4.31
401.658	4.28
401.865	4.25
402.072	4.01
402.279	3.98
402.485	3.86
402.692	3.96
402.899	3.83
403.105	3.91
403.312	3.88
403.519	3.97
403.725	3.79
403.932	3.75
404.138	3.7
404.345	3.58
404.552	3.39
404.758	3.3
404.965	3.3
405.171	3.3
405.378	3.39
405.584	3.44
405.791	3.37
405.997	3.44
406.204	3.48
406.41	3.43
406.617	3.57
406.823	3.74
407.029	3.86
407.236	3.94
407.442	4.05
407.649	3.95
407.855	3.84
408.061	3.92
408.268	3.76
408.474	3.46
408.68	3.57
408.887	3.56
409.093	3.43
409.299	3.46
409.505	3.32
409.712	3.28
409.918	3.37
410.124	3.4
410.33	3.45
410.537	3.57
410.743	3.77
410.949	3.95
411.155	4.12
411.361	4.22
411.567	4.12
411.773	4.07
411.98	4
412.186	4.04
412.392	4.26
412.598	4.24
412.804	4.32
413.01	4.32
413.216	4.16
413.422	3.93
413.628	3.85
413.834	3.75
414.04	3.98
414.246	4.01
414.452	3.86
414.658	3.78
414.864	3.73
415.07	3.72
415.275	3.77
415.481	3.61
415.687	3.65
415.893	3.59
416.099	3.69
416.305	3.53
416.511	3.66
416.716	3.75
416.922	3.79
417.128	3.84
417.334	3.73
417.539	3.6
417.745	3.7
417.951	3.67
418.157	3.63
418.362	3.65
418.568	3.59
418.774	3.56
418.979	3.5
419.185	3.38
419.391	3.41
419.596	3.51
419.802	3.59
420.008	3.62
420.213	3.68
420.419	3.79
420.624	3.72
420.83	3.75
421.035	3.68
421.241	3.68
421.446	3.72
421.652	3.6
421.857	3.57
422.063	3.57
422.268	3.48
422.474	3.43
422.679	3.3
422.885	3.33
423.09	3.29
423.295	3.33
423.501	3.39
423.706	3.33
423.911	3.38
424.117	3.3
424.322	3.31
424.527	3.35
424.733	3.34
424.938	3.38
425.143	3.33
425.349	3.31
425.554	3.26
425.759	3.18
425.964	3.17
426.169	3.19
426.375	3.24
426.58	3.2
426.785	3.18
426.99	3.17
427.195	3.2
427.4	3.2
427.605	3.29
427.811	3.36
428.016	3.34
428.221	3.44
428.426	3.42
428.631	3.43
428.836	3.38
429.041	3.44
429.246	3.4
429.451	3.49
429.656	3.51
429.861	3.58
430.066	3.56
430.271	3.55
430.476	3.52
430.681	3.55
430.886	3.56
431.09	3.57
431.295	3.5
431.5	3.6
431.705	3.44
431.91	3.51
432.115	3.37
432.32	3.41
432.524	3.3
432.729	3.32
432.934	3.19
433.139	3.15
433.343	3.27
433.548	3.28
433.753	3.34
433.958	3.42
434.162	3.39
434.367	3.31
434.572	3.15
434.776	3.27
434.981	3.19
435.186	3.4
435.39	3.43
435.595	3.3
435.799	3.18
436.004	3.03
436.209	3.04
436.413	3.04
436.618	3.17
436.822	3.22
437.027	3.3
437.231	3.46
437.436	3.37
437.64	3.37
437.845	3.37
438.049	3.51
438.253	3.58
438.458	3.68
438.662	3.73
438.867	3.69
439.071	3.74
439.275	3.6
439.48	3.58
439.684	3.66
439.888	3.56
440.093	3.61
440.297	3.62
440.501	3.57
440.706	3.45
440.91	3.4
441.114	3.36
441.318	3.37
441.523	3.45
441.727	3.37
441.931	3.29
442.135	3.43
442.339	3.38
442.543	3.41
442.748	3.52
442.952	3.49
443.156	3.5
443.36	3.54
443.564	3.52
443.768	3.55
443.972	3.55
444.176	3.54
444.38	3.4
444.584	3.39
444.788	3.33
444.992	3.26
445.196	3.26
445.4	3.22
445.604	3.21
445.808	3.2
446.012	3.14
446.216	3.1
446.42	3.06
446.624	3.15
446.828	3.18
447.032	3.21
447.235	3.24
447.439	3.24
447.643	3.25
447.847	3.22
448.051	3.21
448.254	3.21
448.458	3.19
448.662	3.23
448.866	3.1
449.069	3.09
449.273	2.98
449.477	2.91
449.681	2.97
449.884	3.06
450.088	3.13
450.292	3.07
450.495	3.1
450.699	3.09
450.902	2.97
451.106	3.17
451.31	3.3
451.513	3.44
451.717	3.39
451.92	3.39
452.124	3.26
452.327	3.23
452.531	3.13
452.734	3.14
452.938	3.27
453.141	3.38
453.345	3.25
453.548	3.08
453.752	3.07
453.955	3.08
454.158	3.06
454.362	3.16
454.565	3.22
454.769	3.36
454.972	3.39
455.175	3.36
455.379	3.33
455.582	3.35
455.785	3.44
455.988	3.34
456.192	3.35
456.395	3.27
456.598	3.29
456.801	3.19
457.005	3.28
457.208	3.26
457.411	3.25
457.614	3.26
457.817	3.26
458.021	3.24
458.224	3.22
458.427	3.23
458.63	3.21
458.833	3.22
459.036	3.26
459.239	3.2
459.442	3.16
459.645	3.12
459.848	3.19
460.051	3.21
460.254	3.23
460.457	3.24
460.66	3.24
460.863	3.35
461.066	3.3
461.269	3.31
461.472	3.38
461.675	3.39
461.878	3.44
462.081	3.42
462.284	3.42
462.486	3.53
462.689	3.5
462.892	3.47
463.095	3.38
463.298	3.46
463.5	3.48
463.703	3.51
463.906	3.55
464.109	3.57
464.311	3.53
464.514	3.54
464.717	3.47
464.92	3.51
465.122	3.55
465.325	3.58
465.528	3.48
465.73	3.46
465.933	3.4
466.135	3.48
466.338	3.39
466.541	3.3
466.743	3.29
466.946	3.25
467.148	3.31
467.351	3.34
467.553	3.38
467.756	3.44
467.958	3.4
468.161	3.46
468.363	3.4
468.566	3.54
468.768	3.44
468.971	3.46
469.173	3.43
469.375	3.46
469.578	3.42
