Data from 2938785__Reflection_02.txt Node
Date: Fri Mar 13 12:03:04 EDT 2015
User: robert
Spectrometer: USB4E03002
Autoset integration time: false
Trigger mode: 4
Integration Time (sec): 1.000000E-1
Scans to average: 10
Electric dark correction enabled: false
Nonlinearity correction enabled: false
Boxcar width: 5
Stray light correction enabled: false
XAxis mode: Wavelengths
Stop averaging: false
Number of Pixels in Spectrum: 3648
>>>>>Begin Spectral Data<<<<<
177.575	-779.17
177.794	-8935.71
178.014	-1246.09
178.233	-875.27
178.452	-606.82
178.672	-451.99
178.891	-505.84
179.11	-523.01
179.33	-520.77
179.549	-603.43
179.768	-657.83
179.987	-1023.16
180.207	-624.83
180.426	-1033.09
180.645	-1885.26
180.864	-7002.44
181.084	2208.96
181.303	3304.49
181.522	1626.55
181.741	3481.08
181.96	1433.52
182.179	655.96
182.398	561.28
182.618	490.22
182.837	524.07
183.056	386.58
183.275	384.89
183.494	420.89
183.713	372.93
183.932	370.5
184.151	379.92
184.37	413.67
184.589	514.21
184.808	644.11
185.027	592.19
185.246	600.71
185.465	2092.31
185.684	1077.97
185.903	1246.8
186.122	1454.19
186.341	5168.63
186.56	2169.83
186.779	3318.07
186.998	1608.62
187.216	-4006.25
187.435	-1046.72
187.654	-1173.71
187.873	-1737.5
188.092	-4372.46
188.311	23269.23
188.53	-3690.12
188.748	9434.38
188.967	-1560.51
189.186	-1726.74
189.405	-868.98
189.623	-2919.61
189.842	6493.62
190.061	2323.85
190.28	3285.87
190.498	-1762.94
190.717	-1360.09
190.936	-1047.78
191.154	-661.35
191.373	-1864.43
191.592	-1580.23
191.81	-1281.9
192.029	-1070.4
192.248	-1022.09
192.466	-3816.9
192.685	-18335.71
192.904	-935.66
193.122	-4447.27
193.341	1090
193.559	618.22
193.778	729.64
193.996	581.98
194.215	637.26
194.433	648.55
194.652	583.95
194.87	1119.78
195.089	896.49
195.307	481.02
195.526	544.08
195.744	609.8
195.963	526.06
196.181	450.12
196.399	490.26
196.618	417.39
196.836	466.58
197.055	527.58
197.273	556.54
197.491	650
197.71	591.29
197.928	840
198.146	911.58
198.365	8109.38
198.583	-4981.13
198.801	-2054.55
199.019	-2097.66
199.238	-5494
199.456	1922.15
199.674	993.1
199.892	783.73
200.111	1259.23
200.329	1227
200.547	1081.27
200.765	780.2
200.983	699.77
201.202	698.61
201.42	855.13
201.638	864.94
201.856	1431.12
202.074	1772.61
202.292	-4295.16
202.51	17293.75
202.728	9389.66
202.946	-3262.34
203.165	-3290
203.383	5353.85
203.601	2079.26
203.819	5190.91
204.037	1093.88
204.255	1114
204.473	1280.65
204.691	704
204.909	605.51
205.127	605.1
205.345	699.76
205.562	859.68
205.78	1085.43
205.998	1091.06
206.216	666.34
206.434	1044.87
206.652	684.13
206.87	705.78
207.088	669.81
207.306	946.38
207.523	734.75
207.741	571.25
207.959	532.2
208.177	746.75
208.395	775.73
208.612	1055.77
208.83	738.65
209.048	817.98
209.266	1072.18
209.483	950.88
209.701	1041.18
209.919	1726.67
210.136	1301.79
210.354	1070.79
210.572	736.24
210.79	544.83
211.007	537.9
211.225	630.05
211.442	679.75
211.66	484.87
211.878	525.83
212.095	-1284.43
212.313	-3306.38
212.53	-2092.67
212.748	-1484.88
212.966	-2693.16
213.183	-1895.18
213.401	-2925
213.618	6140
213.836	-18558.82
214.053	-10077.42
214.271	12884.62
214.488	317.31
214.705	324.01
214.923	279.58
215.14	287.16
215.358	323.41
215.575	363.03
215.793	340.73
216.01	514.76
216.227	481.05
216.445	523.7
216.662	542.68
216.879	717.09
217.097	611.59
217.314	539.33
217.531	376.99
217.749	305.72
217.966	267.38
218.183	248.06
218.4	226.27
218.618	238.1
218.835	217.27
219.052	210.09
219.269	179.61
219.487	180.56
219.704	195.2
219.921	193.27
220.138	197.17
220.355	197.93
220.572	186.18
220.79	160.62
221.007	159.59
221.224	159.9
221.441	155.05
221.658	155.62
221.875	148.5
222.092	140.75
222.309	134.66
222.526	129.24
222.743	128.7
222.96	124.24
223.177	130.58
223.394	122.74
223.611	114
223.828	116.27
224.045	114.43
224.262	110.86
224.479	106.26
224.696	105.39
224.913	102.62
225.13	88.76
225.347	81.66
225.564	78.99
225.781	74.8
225.997	73.16
226.214	62.87
226.431	57.74
226.648	51.19
226.865	45.98
227.082	39.95
227.298	34.21
227.515	31.2
227.732	27.62
227.949	22.98
228.165	20.36
228.382	18.35
228.599	18.98
228.816	18.66
229.032	17.94
229.249	17.39
229.466	17.25
229.682	17.76
229.899	18.58
230.116	19.06
230.332	19.88
230.549	20.02
230.765	21.23
230.982	21.2
231.199	22.06
231.415	24.63
231.632	26.83
231.848	26.96
232.065	28.53
232.281	30.06
232.498	30.09
232.714	31.45
232.931	32.97
233.147	33.79
233.364	33.64
233.58	33.36
233.797	34.11
234.013	33.77
234.23	34.88
234.446	34.6
234.662	33.09
234.879	33.96
235.095	33.18
235.312	33.3
235.528	32.19
235.744	32.58
235.961	32.15
236.177	30.69
236.393	30.29
236.61	28.69
236.826	26.8
237.042	27.25
237.258	26.96
237.475	27.15
237.691	27.99
237.907	28.48
238.123	28.83
238.339	29.89
238.556	28.66
238.772	28.42
238.988	28.86
239.204	29.48
239.42	28.76
239.636	28.47
239.853	27.54
240.069	24.62
240.285	23.11
240.501	20.88
240.717	19.6
240.933	19
241.149	17.78
241.365	17.35
241.581	16.61
241.797	15.47
242.013	13.87
242.229	13.45
242.445	13.7
242.661	13.54
242.877	13.68
243.093	13.55
243.309	13.19
243.525	13.13
243.741	12.47
243.957	12.24
244.173	12.76
244.388	13.52
244.604	13.55
244.82	14.08
245.036	13.84
245.252	13.05
245.468	12.37
245.683	12.47
245.899	11.35
246.115	11.1
246.331	10.11
246.547	9.78
246.762	9.17
246.978	9.07
247.194	8.24
247.409	7.83
247.625	7.66
247.841	7.2
248.057	7.02
248.272	7.39
248.488	7.38
248.703	7.7
248.919	7.66
249.135	8.33
249.35	8.55
249.566	9.55
249.782	10.07
249.997	10.78
250.213	11.71
250.428	12.28
250.644	12.68
250.859	12.66
251.075	12.45
251.29	13.52
251.506	12.46
251.721	11.94
251.937	11.67
252.152	11.83
252.368	11.98
252.583	11.99
252.798	12.45
253.014	12.71
253.229	13.23
253.445	14.09
253.66	13.49
253.875	15.16
254.091	16.81
254.306	16.82
254.521	18.35
254.737	19.49
254.952	20.17
255.167	19.65
255.383	19.43
255.598	18.96
255.813	18.61
256.028	18.43
256.244	17.15
256.459	16.36
256.674	16.27
256.889	14.91
257.104	13.64
257.32	13.09
257.535	12.19
257.75	11.1
257.965	11.22
258.18	10.87
258.395	9.95
258.61	9.45
258.826	8.48
259.041	8.28
259.256	7.78
259.471	7.46
259.686	7.18
259.901	6.91
260.116	6.73
260.331	6.23
260.546	6.13
260.761	6.27
260.976	6.2
261.191	6.19
261.406	5.85
261.621	6.18
261.836	6.28
262.05	6.56
262.265	7.13
262.48	7.89
262.695	8.68
262.91	9.24
263.125	9.7
263.34	10.09
263.555	11.11
263.769	11.96
263.984	12.12
264.199	12.53
264.414	12.44
264.629	11.7
264.843	11.89
265.058	11.3
265.273	11.13
265.488	10.3
265.702	10.2
265.917	9.86
266.132	9.67
266.346	9.21
266.561	8.89
266.776	9.12
266.99	9.28
267.205	8.62
267.42	9.03
267.634	8.22
267.849	8.49
268.063	8.57
268.278	8.2
268.492	7.94
268.707	8.04
268.922	8.09
269.136	8.28
269.351	8.1
269.565	8.76
269.78	8.04
269.994	8.36
270.209	8.19
270.423	8.21
270.637	7.89
270.852	7.8
271.066	7.68
271.281	7.78
271.495	7.19
271.709	7.38
271.924	7.13
272.138	7.41
272.353	7.41
272.567	7.5
272.781	7.66
272.996	7.87
273.21	8.2
273.424	8.13
273.638	7.9
273.853	8.01
274.067	8.26
274.281	8.7
274.495	9.18
274.71	9.62
274.924	9.98
275.138	9.54
275.352	9.52
275.566	9.6
275.781	9.92
275.995	10.46
276.209	10.98
276.423	10.64
276.637	10.38
276.851	10.38
277.065	10.2
277.279	10.41
277.493	10.5
277.707	10.9
277.921	10.65
278.135	10.52
278.349	9.89
278.563	9.67
278.777	9.57
278.991	9.4
279.205	9.05
279.419	8.91
279.633	8.28
279.847	8.61
280.061	8.75
280.275	8.05
280.489	8.19
280.703	8.43
280.917	8.06
281.131	8.41
281.344	8.09
281.558	7.61
281.772	7.78
281.986	7.89
282.2	7.49
282.414	7.25
282.627	7.71
282.841	7.61
283.055	7.87
283.269	7.94
283.482	7.39
283.696	7.38
283.91	7.64
284.123	7.15
284.337	6.6
284.551	6.59
284.764	6.48
284.978	6.09
285.192	6.06
285.405	5.87
285.619	5.76
285.833	5.76
286.046	5.75
286.26	5.66
286.473	6.01
286.687	6.15
286.9	6.34
287.114	6.11
287.327	6.56
287.541	6.63
287.754	6.68
287.968	6.88
288.181	7.04
288.395	7.21
288.608	7.37
288.822	7.1
289.035	6.96
289.248	6.6
289.462	6.85
289.675	6.59
289.889	6.55
290.102	6.07
290.315	5.9
290.529	6.11
290.742	6.04
290.955	6.1
291.169	6.4
291.382	6.98
291.595	7.18
291.808	7.38
292.022	7.7
292.235	7.9
292.448	8.36
292.661	8.46
292.875	8.45
293.088	8.32
293.301	8.05
293.514	7.73
293.727	7.35
293.94	7.53
294.153	7.3
294.367	7.05
294.58	6.59
294.793	6.6
295.006	6.38
295.219	6.06
295.432	6.25
295.645	6.14
295.858	5.86
296.071	5.69
296.284	5.41
296.497	5.28
296.71	5.18
296.923	5.29
297.136	5.5
297.349	5.47
297.562	5.59
297.775	5.35
297.988	5.42
298.201	5.7
298.414	5.8
298.626	5.83
298.839	5.68
299.052	5.74
299.265	6.06
299.478	5.85
299.691	6.45
299.903	6.89
300.116	7.29
300.329	7.61
300.542	7.52
300.755	7.49
300.967	8.03
301.18	8.27
301.393	8.62
301.605	8.45
301.818	8.2
302.031	7.9
302.243	7.52
302.456	7.59
302.669	7.68
302.881	7.71
303.094	8.07
303.307	7.61
303.519	7.76
303.732	7.69
303.944	7.55
304.157	7.74
304.37	7.52
304.582	7.6
304.795	7.53
305.007	7.44
305.22	7.81
305.432	7.88
305.645	8.17
305.857	8.31
306.069	8.58
306.282	8.61
306.494	8.89
306.707	9.42
306.919	9.18
307.132	9.24
307.344	9.01
307.556	8.63
307.769	8.53
307.981	8.16
308.193	8.03
308.406	7.39
308.618	7.24
308.83	6.95
309.043	6.47
309.255	6.2
309.467	6.28
309.679	6.18
309.892	6.51
310.104	6.2
310.316	6.3
310.528	6.03
310.74	6.41
310.953	6.28
311.165	6.29
311.377	6.54
311.589	7.17
311.801	6.98
312.013	6.98
312.225	6.51
312.437	6.64
312.649	6.86
312.862	7.18
313.074	7.07
313.286	7.49
313.498	7.77
313.71	7.83
313.922	7.58
314.134	7.87
314.346	8.14
314.558	8.42
314.77	8.85
314.982	9.09
315.193	9.21
315.405	9.6
315.617	9.59
315.829	9.71
316.041	10.38
316.253	10.32
316.465	10.09
316.677	9.93
316.888	9.87
317.1	10.26
317.312	9.85
317.524	9.95
317.736	10.07
317.947	10.59
318.159	10.28
318.371	9.81
318.583	10.04
318.794	10.57
319.006	10.84
319.218	11.24
319.43	10.62
319.641	11.06
319.853	11.16
320.064	10.94
320.276	10.32
320.488	10.93
320.699	10.57
320.911	11.01
321.123	10.58
321.334	10.39
321.546	10.53
321.757	10.88
321.969	10.9
322.18	10.88
322.392	10.57
322.603	11.03
322.815	10.79
323.026	11.07
323.238	11.04
323.449	10.99
323.661	11.34
323.872	11.31
324.083	11.3
324.295	10.9
324.506	10.52
324.718	10.5
324.929	10.4
325.14	10.35
325.352	10.28
325.563	10.37
325.774	10.64
325.986	10.61
326.197	10.75
326.408	10.86
326.62	11.02
326.831	11.33
327.042	11.91
327.253	12.17
327.464	12.38
327.676	12.26
327.887	12.2
328.098	12.31
328.309	12.26
328.52	12.29
328.732	12.34
328.943	12.48
329.154	13.02
329.365	12.76
329.576	13.01
329.787	13.34
329.998	14.27
330.209	14.2
330.42	13.98
330.631	14.34
330.842	14.4
331.053	14.64
331.264	14.56
331.475	14.34
331.686	14.59
331.897	14.45
332.108	13.98
332.319	13.76
332.53	13.59
332.741	13.69
332.952	13.69
333.163	13.38
333.374	13.33
333.585	13.73
333.795	13.98
334.006	13.89
334.217	13.71
334.428	13.83
334.639	13.79
334.849	13.74
335.06	14.02
335.271	14.07
335.482	14.49
335.692	14.35
335.903	14.2
336.114	13.57
336.325	13.59
336.535	13.59
336.746	13.48
336.957	13.38
337.167	13.67
337.378	13.56
337.589	13.51
337.799	13.08
338.01	13.16
338.22	12.96
338.431	13.09
338.642	13.23
338.852	13.12
339.063	13.22
339.273	13.13
339.484	12.72
339.694	12.71
339.905	12.47
340.115	12.72
340.326	12.67
340.536	12.93
340.746	13.1
340.957	13.01
341.167	13.22
341.378	13.38
341.588	13.3
341.799	13.58
342.009	13.37
342.219	13.5
342.43	13.37
342.64	13.46
342.85	13.41
343.061	13.08
343.271	13.12
343.481	12.94
343.691	12.6
343.902	12.83
344.112	12.64
344.322	12.7
344.532	12.81
344.743	12.67
344.953	12.22
345.163	11.81
345.373	11.85
345.583	11.68
345.793	11.86
346.004	11.93
346.214	11.64
346.424	11.96
346.634	12.32
346.844	12.39
347.054	12.78
347.264	13.01
347.474	13.3
347.684	13.76
347.894	13.65
348.104	13.52
348.314	13.55
348.524	13.4
348.734	13.43
348.944	13.32
349.154	12.94
349.364	12.69
349.574	12.62
349.784	12.9
349.994	12.71
350.204	12.81
350.413	12.44
350.623	12.55
350.833	12.61
351.043	12.22
351.253	11.95
351.463	11.95
351.672	12.05
351.882	12.23
352.092	11.58
352.302	11.34
352.511	11.45
352.721	11.94
352.931	11.74
353.141	11.94
353.35	11.98
353.56	11.82
353.77	11.81
353.979	11.56
354.189	11.57
354.399	11.72
354.608	11.81
354.818	11.6
355.027	11.38
355.237	11.41
355.447	11.51
355.656	11.49
355.866	11.46
356.075	11.59
356.285	11.72
356.494	11.56
356.704	11.46
356.913	11.37
357.123	11.31
357.332	11.18
357.542	11.01
357.751	10.62
357.96	10.74
358.17	10.7
358.379	10.4
358.589	10.32
358.798	10.33
359.007	10.42
359.217	10.42
359.426	10.27
359.635	10.36
359.845	10.4
360.054	10.39
360.263	10.08
360.472	10.17
360.682	10.2
360.891	10.14
361.1	9.85
361.309	9.86
361.519	9.91
361.728	9.85
361.937	9.77
362.146	9.84
362.355	9.88
362.564	10.13
362.774	10.13
362.983	10.08
363.192	10.26
363.401	10.46
363.61	10.33
363.819	10.47
364.028	10.71
364.237	10.71
364.446	10.46
364.655	10.57
364.864	10.37
365.073	10.34
365.282	10.32
365.491	10.11
365.7	10.04
365.909	10.03
366.118	9.8
366.327	9.78
366.536	9.83
366.745	10.07
366.954	10.1
367.162	10.09
367.371	9.82
367.58	10.23
367.789	10.17
367.998	10.17
368.207	10.41
368.415	10.35
368.624	10.6
368.833	10.6
369.042	10.58
369.25	10.49
369.459	10.85
369.668	11.09
369.877	10.77
370.085	10.64
370.294	10.71
370.503	10.55
370.711	10.51
370.92	10.08
371.129	10.05
371.337	9.92
371.546	9.94
371.754	9.71
371.963	9.54
372.171	9.46
372.38	9.83
372.589	9.67
372.797	9.59
373.006	9.87
373.214	9.88
373.423	9.79
373.631	9.87
373.84	9.86
374.048	9.92
374.256	9.98
374.465	10.08
374.673	9.79
374.882	9.86
375.09	9.96
375.298	9.8
375.507	9.86
375.715	9.84
375.923	9.84
376.132	9.49
376.34	9.3
376.548	9.28
376.757	9.24
376.965	9.38
377.173	9.36
377.381	9.31
377.59	9.47
377.798	9.36
378.006	9.33
378.214	9.04
378.423	9.43
378.631	9.39
378.839	9.41
379.047	9.38
379.255	9.32
379.463	9.46
379.671	9.54
379.879	9.17
380.088	9.18
380.296	9.09
380.504	9.31
380.712	9.12
380.92	9.19
381.128	9.22
381.336	9.09
381.544	8.86
381.752	8.7
381.96	8.43
382.168	8.47
382.376	8.64
382.584	8.76
382.791	9.01
382.999	8.91
383.207	9.02
383.415	9.2
383.623	9.25
383.831	9.38
384.039	9.21
384.247	9.4
384.454	9.47
384.662	9.52
384.87	9.46
385.078	9.3
385.285	9.32
385.493	9.2
385.701	8.87
385.909	8.67
386.116	8.71
386.324	8.79
386.532	8.74
386.739	8.61
386.947	8.48
387.155	8.71
387.362	8.51
387.57	8.45
387.778	8.49
387.985	8.64
388.193	8.71
388.4	8.65
388.608	8.83
388.816	8.72
389.023	8.95
389.231	8.87
389.438	8.61
389.646	8.85
389.853	8.81
390.061	8.62
390.268	8.68
390.475	8.6
390.683	8.57
390.89	8.32
391.098	8.48
391.305	8.26
391.512	8.27
391.72	8.11
391.927	7.96
392.135	8.06
392.342	8.09
392.549	7.96
392.756	8
392.964	7.98
393.171	8.22
393.378	8.05
393.586	7.95
393.793	7.87
394	7.94
394.207	7.96
394.414	7.91
394.622	7.87
394.829	8
395.036	8.15
395.243	8.19
395.45	7.95
395.657	8.09
395.864	8.21
396.072	8.29
396.279	8.45
396.486	8.36
396.693	8.31
396.9	8.36
397.107	8.27
397.314	8.42
397.521	8.31
397.728	8.47
397.935	8.42
398.142	8.48
398.349	8.65
398.556	8.6
398.763	8.61
398.97	8.56
399.177	8.45
399.383	8.32
399.59	8.31
399.797	8.43
400.004	8.41
400.211	8.49
400.418	8.52
400.625	8.43
400.831	8.42
401.038	8.71
401.245	8.64
401.452	8.81
401.658	8.96
401.865	9.02
402.072	8.86
402.279	8.77
402.485	8.59
402.692	8.42
402.899	8.31
403.105	8.26
403.312	7.97
403.519	7.96
403.725	7.93
403.932	7.69
404.138	7.44
404.345	7.5
404.552	7.53
404.758	7.54
404.965	7.46
405.171	7.46
405.378	7.35
405.584	7.42
405.791	7.56
405.997	7.66
406.204	7.85
406.41	7.88
406.617	8.08
406.823	8.1
407.029	8.11
407.236	8.51
407.442	8.5
407.649	8.8
407.855	8.92
408.061	8.96
408.268	8.97
408.474	8.92
408.68	8.93
408.887	8.83
409.093	8.84
409.299	9
409.505	8.88
409.712	8.91
409.918	8.81
410.124	8.75
410.33	8.71
410.537	8.54
410.743	8.6
410.949	8.69
411.155	8.59
411.361	8.53
411.567	8.44
411.773	8.24
411.98	8.34
412.186	8.31
412.392	8.49
412.598	8.52
412.804	8.55
413.01	8.57
413.216	8.55
413.422	8.52
413.628	8.59
413.834	8.66
414.04	8.78
414.246	8.76
414.452	8.66
414.658	8.38
414.864	8.36
415.07	8.47
415.275	8.42
415.481	8.38
415.687	8.37
415.893	8.28
416.099	8.16
416.305	8.1
416.511	7.94
416.716	7.92
416.922	7.9
417.128	7.85
417.334	7.71
417.539	7.72
417.745	7.62
417.951	7.58
418.157	7.57
418.362	7.53
418.568	7.39
418.774	7.37
418.979	7.4
419.185	7.32
419.391	7.29
419.596	7.22
419.802	7.1
420.008	7.1
420.213	7.77
420.419	7.76
420.624	7.78
420.83	7.87
421.035	7.83
421.241	7.76
421.446	7.78
421.652	7.73
421.857	7.71
422.063	7.75
422.268	7.71
422.474	7.06
422.679	7.06
422.885	7.02
423.09	7
423.295	7
423.501	7.02
423.706	7.1
423.911	7.1
424.117	7.15
424.322	7.15
424.527	7.18
424.733	7.12
424.938	7.16
425.143	7.08
425.349	7.07
425.554	7.13
425.759	7.14
425.964	7.09
426.169	7.19
426.375	7.22
426.58	7.27
426.785	7.29
426.99	7.45
427.195	7.45
427.4	7.64
427.605	7.67
427.811	7.81
428.016	7.88
428.221	8.06
428.426	8.03
428.631	8.06
428.836	8.08
429.041	8.23
429.246	8.23
429.451	8.28
429.656	8.3
429.861	8.41
430.066	8.28
430.271	8.35
430.476	8.33
430.681	8.46
430.886	8.43
431.09	8.45
431.295	8.38
431.5	8.46
431.705	8.44
431.91	8.42
432.115	8.39
432.32	8.52
432.524	8.44
432.729	8.42
432.934	8.32
433.139	8.3
433.343	8.3
433.548	8.25
433.753	8.3
433.958	8.33
434.162	8.41
434.367	8.47
434.572	8.45
434.776	8.51
434.981	8.5
435.186	8.57
435.39	8.79
435.595	8.75
435.799	8.77
436.004	8.7
436.209	8.73
436.413	8.64
436.618	8.66
436.822	8.62
437.027	8.58
437.231	8.5
437.436	8.5
437.64	8.39
437.845	8.47
438.049	8.59
438.253	8.55
438.458	8.5
438.662	8.44
438.867	8.31
439.071	8.27
439.275	8.3
439.48	8.34
439.684	8.24
439.888	8.18
440.093	8.13
440.297	8.07
440.501	8.07
440.706	8.05
440.91	8.07
441.114	8.11
441.318	8.2
441.523	8.19
441.727	8.18
441.931	8.29
442.135	8.42
442.339	8.44
442.543	8.54
442.748	8.52
442.952	8.57
443.156	8.62
443.36	8.61
443.564	8.56
443.768	8.58
443.972	8.52
444.176	8.49
444.38	8.4
444.584	8.41
444.788	8.29
444.992	8.34
445.196	8.3
445.4	8.2
445.604	8.27
445.808	8.32
446.012	8.29
446.216	8.26
446.42	8.22
446.624	8.19
446.828	8.09
447.032	8.03
447.235	8.04
447.439	8.01
447.643	8.11
447.847	8.05
448.051	8.1
448.254	8.07
448.458	8.21
448.662	8.26
448.866	8.24
449.069	8.39
449.273	8.53
449.477	8.47
449.681	8.59
449.884	8.63
450.088	8.76
450.292	8.69
450.495	8.7
450.699	8.57
450.902	8.53
451.106	8.66
451.31	8.63
451.513	8.65
451.717	8.66
451.92	8.57
452.124	8.52
452.327	8.4
452.531	8.39
452.734	8.41
452.938	8.52
453.141	8.63
453.345	8.68
453.548	8.74
453.752	8.7
453.955	8.92
454.158	8.94
454.362	8.92
454.565	9.01
454.769	9.1
454.972	9.14
455.175	9.06
455.379	9.05
455.582	9.06
455.785	9.06
455.988	9.06
456.192	8.91
456.395	8.94
456.598	9.03
456.801	9.06
457.005	8.9
457.208	8.97
457.411	9.02
457.614	8.88
457.817	8.73
458.021	8.58
458.224	8.57
458.427	8.36
458.63	8.35
458.833	8.25
459.036	8.14
459.239	8.09
459.442	7.99
459.645	8
459.848	8.04
460.051	8.11
460.254	8.18
460.457	8.15
460.66	8.32
460.863	8.27
461.066	8.28
461.269	8.29
461.472	8.49
461.675	8.51
461.878	8.55
462.081	8.64
462.284	8.67
