Data from 2938759__Reflection_06.txt Node
Date: Fri Mar 13 18:28:37 EDT 2015
User: robert
Spectrometer: USB4E03002
Autoset integration time: false
Trigger mode: 4
Integration Time (sec): 1.000000E-1
Scans to average: 10
Electric dark correction enabled: false
Nonlinearity correction enabled: false
Boxcar width: 5
Stray light correction enabled: false
XAxis mode: Wavelengths
Stop averaging: false
Number of Pixels in Spectrum: 3648
>>>>>Begin Spectral Data<<<<<
177.575	-459.09
177.794	-3278.57
178.014	-300.86
178.233	-335.14
178.452	37500
178.672	233.53
178.891	188.17
179.11	-40.45
179.33	-78.05
179.549	-67.47
179.768	58.94
179.987	57.53
180.207	-15.91
180.426	34.97
180.645	358.33
180.864	101.9
181.084	50
181.303	52.34
181.522	19
181.741	34.28
181.96	75.59
182.179	84.89
182.398	111.83
182.618	107.08
182.837	73.63
183.056	126.27
183.275	52.17
183.494	59.62
183.713	-30.16
183.932	-265
184.151	3300
184.37	76.71
184.589	86.69
184.808	95.51
185.027	119.42
185.246	86.75
185.465	116.94
185.684	93.08
185.903	115.02
186.122	255.86
186.341	86.82
186.56	-2415.38
186.779	-49.73
186.998	-38.59
187.216	5.07
187.435	11.67
187.654	-1.38
187.873	2.73
188.092	21.58
188.311	36.33
188.53	50.94
188.748	21.65
188.967	34.11
189.186	47.13
189.405	60.78
189.623	95.44
189.842	24.18
190.061	-19.47
190.28	9.54
190.498	24.35
190.717	30.63
190.936	59.26
191.154	79.75
191.373	77.58
191.592	132.92
191.81	-850
192.029	-300
192.248	-160.51
192.466	-35.25
192.685	-34.48
192.904	-148.52
193.122	-736.17
193.341	-752.63
193.559	-815.38
193.778	3009.09
193.996	242.11
194.215	197.8
194.433	421.5
194.652	487.5
194.87	8700
195.089	341.46
195.307	-522.58
195.526	-27.08
195.744	12.83
195.963	11.64
196.181	52.11
196.399	59.61
196.618	38.14
196.836	81.31
197.055	93.44
197.273	62.3
197.491	41.81
197.71	27.13
197.928	11.39
198.146	-39.74
198.365	-28.28
198.583	-97.92
198.801	-10.2
199.019	74.45
199.238	2.19
199.456	-26.96
199.674	4.2
199.892	3.56
200.111	6.62
200.329	48.86
200.547	36.04
200.765	75.33
200.983	64.82
201.202	33.7
201.42	24.21
201.638	20.74
201.856	66.67
202.074	59.64
202.292	13.4
202.51	35.64
202.728	-6.01
202.946	16.47
203.165	1.13
203.383	-116.49
203.601	-265.22
203.819	-32.74
204.037	-21.43
204.255	-11.97
204.473	-30.85
204.691	27.7
204.909	10.44
205.127	10.14
205.345	4.8
205.562	0.17
205.78	-25.85
205.998	18.1
206.216	10.94
206.434	16.69
206.652	0.92
206.87	-8.75
207.088	-16.49
207.306	-10.89
207.523	-18.69
207.741	-4.65
207.959	2.25
208.177	15.42
208.395	25.82
208.612	-14.47
208.83	-12.23
209.048	7.4
209.266	29.54
209.483	37.61
209.701	18.23
209.919	35.57
210.136	11.95
210.354	-5.68
210.572	12.3
210.79	4.47
211.007	27.76
211.225	9.43
211.442	-19.16
211.66	-6.11
211.878	-11.44
212.095	-119.14
212.313	-282.97
212.53	-175.1
212.748	-165.91
212.966	-143.72
213.183	-204.18
213.401	-130.13
213.618	-119.24
213.836	-198.88
214.053	-425.12
214.271	-253.26
214.488	62.15
214.705	39.46
214.923	34.09
215.14	8.22
215.358	-3.23
215.575	14.59
215.793	-3.46
216.01	18.16
216.227	23.02
216.445	29.44
216.662	17.88
216.879	17.5
217.097	23.05
217.314	11.13
217.531	3.85
217.749	-13.68
217.966	-28.18
218.183	-19.57
218.4	-36.96
218.618	-26.26
218.835	-27.61
219.052	-27.79
219.269	-52.69
219.487	-43.54
219.704	-22.6
219.921	-10.17
220.138	0.52
220.355	1.64
220.572	13.33
220.79	17.14
221.007	11.86
221.224	2.11
221.441	8.56
221.658	21.39
221.875	25.77
222.092	27.64
222.309	29.4
222.526	24.42
222.743	28.76
222.96	18.84
223.177	15.58
223.394	16.64
223.611	17.01
223.828	17.11
224.045	7.32
224.262	5.14
224.479	5.28
224.696	0.65
224.913	2.9
225.13	3.19
225.347	-0.86
225.564	1.31
225.781	-0.54
225.997	0.03
226.214	-2.06
226.431	-1.08
226.648	-2.4
226.865	-3.73
227.082	-4.06
227.298	-2.72
227.515	-2.31
227.732	-1.38
227.949	-2.26
228.165	-0.57
228.382	0.6
228.599	1.32
228.816	1.73
229.032	1.95
229.249	1.42
229.466	2.64
229.682	2.86
229.899	3.17
230.116	3.04
230.332	2.87
230.549	2.72
230.765	1.34
230.982	0.23
231.199	0.17
231.415	0.23
231.632	1.28
231.848	0.64
232.065	-0.56
232.281	-1.91
232.498	-0.02
232.714	2.43
232.931	3.44
233.147	4.9
233.364	6.39
233.58	6.02
233.797	3.69
234.013	2.55
234.23	1.16
234.446	-0.04
234.662	0.25
234.879	-1.23
235.095	-1.23
235.312	-2.2
235.528	-3.21
235.744	-4.16
235.961	-2.77
236.177	-0.83
236.393	0.61
236.61	1.58
236.826	4.52
237.042	4.42
237.258	6.89
237.475	7.3
237.691	6.47
237.907	5.61
238.123	5.3
238.339	2.4
238.556	1.37
238.772	-0.93
238.988	-1.02
239.204	-1.48
239.42	-1.07
239.636	-1.76
239.853	-2.19
240.069	-0.84
240.285	-0.37
240.501	-0.04
240.717	0.51
240.933	0.31
241.149	1.47
241.365	1.75
241.581	1.76
241.797	1.95
242.013	1.47
242.229	1.18
242.445	0.58
242.661	0.83
242.877	0.89
243.093	1
243.309	1.23
243.525	0.86
243.741	0.49
243.957	0.91
244.173	1.51
244.388	2.75
244.604	2.44
244.82	3.03
245.036	3.08
245.252	2.87
245.468	3.38
245.683	3.1
245.899	3.31
246.115	3.04
246.331	2.03
246.547	1.65
246.762	1.17
246.978	1.34
247.194	0.92
247.409	0.91
247.625	0.71
247.841	0.42
248.057	0.77
248.272	0.54
248.488	0.57
248.703	0.91
248.919	0.66
249.135	0.56
249.35	0.66
249.566	1.08
249.782	1.23
249.997	2.09
250.213	2.74
250.428	2
250.644	2.14
250.859	2.27
251.075	1.94
251.29	2.1
251.506	2.07
251.721	2.05
251.937	2.32
252.152	1.92
252.368	1.39
252.583	1.21
252.798	1.68
253.014	1.66
253.229	1.19
253.445	1.35
253.66	0.98
253.875	1.04
254.091	1.93
254.306	1.96
254.521	1.72
254.737	1.98
254.952	1.59
255.167	2.63
255.383	1.99
255.598	2.45
255.813	2.5
256.028	2.14
256.244	1.65
256.459	1.04
256.674	0.64
256.889	1.65
257.104	1.02
257.32	0.8
257.535	-0.48
257.75	0.12
257.965	-0.16
258.18	-0.34
258.395	0.3
258.61	0.29
258.826	0.06
259.041	-0.03
259.256	-0.34
259.471	-0.15
259.686	-0.22
259.901	0.09
260.116	0.14
260.331	0.24
260.546	0.6
260.761	0.47
260.976	0.73
261.191	0.81
261.406	0.83
261.621	1.03
261.836	1.05
262.05	1.4
262.265	1.34
262.48	1.3
262.695	1.71
262.91	1.65
263.125	1.81
263.34	1.58
263.555	1.88
263.769	1.53
263.984	1.53
264.199	1.36
264.414	1.5
264.629	1.13
264.843	1.28
265.058	1.35
265.273	1.01
265.488	0.91
265.702	0.86
265.917	0.22
266.132	0.59
266.346	0.04
266.561	0.37
266.776	0.53
266.99	0.73
267.205	0.23
267.42	-0.22
267.634	0.26
267.849	0.44
268.063	0.76
268.278	1.24
268.492	1.04
268.707	1.91
268.922	1.55
269.136	1.14
269.351	1.63
269.565	1.79
269.78	2.02
269.994	1.82
270.209	1.7
270.423	1.18
270.637	0.61
270.852	0.97
271.066	0.48
271.281	0.75
271.495	0.28
271.709	-0.21
271.924	-0.07
272.138	-0.26
272.353	-0.3
272.567	-0.43
272.781	-0.3
272.996	-0.17
273.21	-0.17
273.424	0.26
273.638	0.3
273.853	0.74
274.067	1.11
274.281	0.77
274.495	0.93
274.71	1.05
274.924	1.68
275.138	2.03
275.352	2.14
275.566	2.03
275.781	1.82
275.995	1.36
276.209	1.43
276.423	0.74
276.637	1.08
276.851	1.68
277.065	1.5
277.279	0.62
277.493	0.51
277.707	0.32
277.921	0.49
278.135	0.4
278.349	1.03
278.563	1.22
278.777	1.76
278.991	1.65
279.205	1.29
279.419	0.99
279.633	1.9
279.847	1.67
280.061	1.83
280.275	1.93
280.489	2.12
280.703	2.02
280.917	1.85
281.131	1.45
281.344	1.21
281.558	1.03
281.772	0.83
281.986	0.64
282.2	0.69
282.414	0.84
282.627	0.83
282.841	0.6
283.055	0.42
283.269	0.55
283.482	0.69
283.696	1.01
283.91	0.62
284.123	0.89
284.337	0.59
284.551	0.69
284.764	0.71
284.978	0.81
285.192	0.65
285.405	0.8
285.619	0.88
285.833	1.08
286.046	1.26
286.26	1.53
286.473	1.56
286.687	1.56
286.9	1.69
287.114	1.8
287.327	1.63
287.541	2.05
287.754	1.82
287.968	2.02
288.181	1.96
288.395	1.71
288.608	1.81
288.822	1.96
289.035	2.04
289.248	1.75
289.462	1.47
289.675	1.21
289.889	0.97
290.102	1.03
290.315	0.63
290.529	0.47
290.742	0.68
290.955	0.88
291.169	0.86
291.382	0.93
291.595	1.27
291.808	1.35
292.022	1.25
292.235	1.35
292.448	1.21
292.661	1.2
292.875	1.87
293.088	1.78
293.301	1.78
293.514	1.63
293.727	1.34
293.94	1.37
294.153	1.49
294.367	1.69
294.58	1.68
294.793	1.84
295.006	1.82
295.219	1.26
295.432	1.04
295.645	0.81
295.858	0.99
296.071	1.28
296.284	1.34
296.497	1.34
296.71	1.61
296.923	1.76
297.136	2.08
297.349	2.15
297.562	2.25
297.775	2.44
297.988	2.77
298.201	2.9
298.414	2.85
298.626	2.72
298.839	2.66
299.052	2.55
299.265	2.33
299.478	2.08
299.691	1.96
299.903	1.78
300.116	1.63
300.329	1.18
300.542	1.02
300.755	0.91
300.967	1.24
301.18	1.27
301.393	0.96
301.605	1.08
301.818	0.96
302.031	0.95
302.243	1.28
302.456	1.48
302.669	1.42
302.881	1.11
303.094	1.17
303.307	0.72
303.519	0.72
303.732	1.07
303.944	1.11
304.157	1.26
304.37	1.88
304.582	1.78
304.795	1.45
305.007	1.6
305.22	1.79
305.432	2
305.645	1.84
305.857	2.17
306.069	2.34
306.282	2.23
306.494	2.48
306.707	1.99
306.919	2.6
307.132	2.78
307.344	2.92
307.556	2.88
307.769	2.74
307.981	2.92
308.193	2.8
308.406	2.67
308.618	2.69
308.83	2.32
309.043	2.38
309.255	1.99
309.467	2.08
309.679	2.03
309.892	2.41
310.104	2.38
310.316	2.4
310.528	2.45
310.74	2.38
310.953	2.22
311.165	2.54
311.377	2.79
311.589	2.95
311.801	3.11
312.013	3.04
312.225	2.85
312.437	3
312.649	2.98
312.862	3.06
313.074	3.31
313.286	3.74
313.498	4.06
313.71	3.92
313.922	3.91
314.134	3.95
314.346	4.3
314.558	4.68
314.77	5.18
314.982	5.36
315.193	5.23
315.405	4.98
315.617	4.9
315.829	4.15
316.041	4.4
316.253	4.4
316.465	4.28
316.677	3.84
316.888	3.15
317.1	2.69
317.312	2.93
317.524	2.55
317.736	2.79
317.947	2.84
318.159	3.11
318.371	3.01
318.583	2.81
318.794	3.15
319.006	3.83
319.218	4.1
319.43	4.36
319.641	4.5
319.853	4.28
320.064	4.35
320.276	4.48
320.488	4.91
320.699	4.73
320.911	4.55
321.123	4.63
321.334	4.51
321.546	4.44
321.757	4.15
321.969	3.85
322.18	4.45
322.392	4.26
322.603	4.15
322.815	4.1
323.026	4.23
323.238	4.85
323.449	4.57
323.661	4.3
323.872	4.27
324.083	4.22
324.295	4.16
324.506	4.74
324.718	4.94
324.929	5.19
325.14	5.18
325.352	5.65
325.563	5.49
325.774	5.56
325.986	6.15
326.197	6.6
326.408	7.05
326.62	7.71
326.831	7.58
327.042	7.7
327.253	7.74
327.464	8.44
327.676	8.39
327.887	9.01
328.098	9.21
328.309	9.12
328.52	9.57
328.732	9.6
328.943	9.05
329.154	8.95
329.365	8.76
329.576	9.1
329.787	8.39
329.998	8.52
330.209	8.04
330.42	8.27
330.631	7.91
330.842	8.02
331.053	7.94
331.264	8.48
331.475	8.68
331.686	9.34
331.897	9.48
332.108	9.72
332.319	9.87
332.53	9.9
332.741	9.95
332.952	10.32
333.163	9.79
333.374	10.32
333.585	10.14
333.795	10.35
334.006	9.78
334.217	9.58
334.428	9.4
334.639	9.56
334.849	9.99
335.06	10.24
335.271	9.98
335.482	10.17
335.692	9.94
335.903	9.95
336.114	10.08
336.325	10.58
336.535	10.59
336.746	11.15
336.957	10.66
337.167	10.67
337.378	10.57
337.589	10.99
337.799	10.82
338.01	10.92
338.22	11
338.431	10.83
338.642	10.81
338.852	10.69
339.063	10.39
339.273	11.15
339.484	11.05
339.694	11.07
339.905	10.64
340.115	10.92
340.326	10.67
340.536	10.71
340.746	11
340.957	11.28
341.167	11.22
341.378	11.41
341.588	10.62
341.799	10.52
342.009	10.31
342.219	10.78
342.43	10.86
342.64	10.9
342.85	10.95
343.061	10.93
343.271	10.37
343.481	10.56
343.691	10.65
343.902	11.23
344.112	11.42
344.322	11.55
344.532	11.55
344.743	11.54
344.953	11.62
345.163	11.53
345.373	11.23
345.583	11.59
345.793	11.85
346.004	11.47
346.214	11.04
346.424	10.72
346.634	10.76
346.844	10.64
347.054	10.32
347.264	10.25
347.474	10.75
347.684	10.94
347.894	10.94
348.104	10.84
348.314	10.9
348.524	11.22
348.734	11.53
348.944	11.51
349.154	11.69
349.364	11.71
349.574	11.86
349.784	11.53
349.994	11.52
350.204	11.35
350.413	11.2
350.623	11.13
350.833	10.86
351.043	11.04
351.253	11
351.463	10.8
351.672	10.72
351.882	10.44
352.092	10.53
352.302	10.51
352.511	10.64
352.721	10.63
352.931	10.7
353.141	10.63
353.35	10.55
353.56	10.53
353.77	10.35
353.979	10.62
354.189	10.37
354.399	10.08
354.608	9.73
354.818	9.68
355.027	9.55
355.237	9.63
355.447	9.78
355.656	9.58
355.866	9.49
356.075	9.58
356.285	9.73
356.494	10.05
356.704	10.23
356.913	10.63
357.123	10.58
357.332	10.64
357.542	10.53
357.751	10.75
357.96	10.87
358.17	11.09
358.379	11.11
358.589	10.93
358.798	11.21
359.007	11.27
359.217	11.26
359.426	11.27
359.635	11.34
359.845	11.61
360.054	11.4
360.263	11.34
360.472	11.03
360.682	11.05
360.891	11.02
361.1	10.89
361.309	10.82
361.519	10.66
361.728	10.81
361.937	10.68
362.146	10.44
362.355	10.44
362.564	10.22
362.774	10.44
362.983	10.42
363.192	10.42
363.401	10.33
363.61	10.38
363.819	10.41
364.028	10.46
364.237	10.75
364.446	10.64
364.655	10.59
364.864	10.68
365.073	10.77
365.282	10.69
365.491	10.6
365.7	10.51
365.909	10.27
366.118	10.38
366.327	10.19
366.536	10.03
366.745	10.38
366.954	10.33
367.162	10.33
367.371	10.13
367.58	10.05
367.789	10.07
367.998	10.19
368.207	10.39
368.415	10.14
368.624	10.15
368.833	10.17
369.042	9.91
369.25	9.92
369.459	10.03
369.668	9.9
369.877	10.11
370.085	10.16
370.294	10.35
370.503	10.32
370.711	10.6
370.92	10.53
371.129	10.43
371.337	10.5
371.546	10.6
371.754	10.31
371.963	10.62
372.171	10.53
372.38	10.68
372.589	10.36
372.797	10.31
373.006	10.27
373.214	10.24
373.423	10.26
373.631	10.5
373.84	10.5
374.048	10.73
374.256	10.81
374.465	10.71
374.673	10.39
374.882	10.41
375.09	10.44
375.298	10.32
375.507	10.51
375.715	10.46
375.923	10.19
376.132	10.06
376.34	10.04
376.548	9.83
376.757	9.87
376.965	10.08
377.173	10.14
377.381	10.09
377.59	9.84
377.798	9.87
378.006	9.93
378.214	9.84
378.423	9.85
378.631	9.91
378.839	9.84
379.047	9.81
379.255	9.6
379.463	9.75
379.671	9.73
379.879	9.9
380.088	9.58
380.296	9.47
380.504	9.44
380.712	9.41
380.92	9.3
381.128	9.26
381.336	9.31
381.544	9.62
381.752	9.3
381.96	9.22
382.168	9.31
382.376	9.53
382.584	9.73
382.791	9.76
382.999	9.91
383.207	10.04
383.415	9.73
383.623	9.73
383.831	9.54
384.039	9.8
384.247	9.97
384.454	9.97
384.662	9.83
384.87	9.6
385.078	9.52
385.285	9.42
385.493	9.41
385.701	9.63
385.909	9.56
386.116	9.57
386.324	9.52
386.532	9.38
386.739	9.38
386.947	9.38
387.155	9.39
387.362	9.61
387.57	9.53
387.778	9.41
387.985	9.58
388.193	9.58
388.4	9.58
388.608	9.6
388.816	9.61
389.023	9.68
389.231	9.58
389.438	9.56
389.646	9.49
389.853	9.57
390.061	9.54
390.268	9.59
390.475	9.52
390.683	9.51
390.89	9.39
391.098	9.41
391.305	9.17
391.512	9.2
391.72	9.27
391.927	9.2
392.135	8.97
392.342	8.97
392.549	8.79
392.756	8.87
392.964	8.92
393.171	8.89
393.378	8.92
393.586	8.95
393.793	9.21
394	9.23
394.207	9.3
394.414	9.33
394.622	9.28
394.829	9.31
395.036	9.09
395.243	9.11
395.45	9.14
395.657	9.02
395.864	9
396.072	8.57
396.279	8.47
396.486	8.4
396.693	8.49
396.9	8.47
397.107	8.42
397.314	8.69
397.521	8.54
397.728	8.5
397.935	8.44
398.142	8.48
398.349	8.73
398.556	8.78
398.763	8.78
398.97	8.86
399.177	8.88
399.383	8.96
399.59	8.87
399.797	9.02
400.004	9.06
400.211	9.09
400.418	9.16
400.625	9.14
400.831	9.07
401.038	8.99
401.245	9.01
401.452	9.06
401.658	8.95
401.865	8.98
402.072	8.66
402.279	8.57
402.485	8.58
402.692	8.45
402.899	8.51
403.105	8.6
403.312	8.72
403.519	8.61
403.725	8.57
403.932	8.58
404.138	8.56
404.345	8.73
404.552	8.65
404.758	8.8
404.965	8.96
405.171	8.8
405.378	8.76
405.584	8.76
405.791	8.95
405.997	8.91
406.204	9
406.41	9.01
406.617	9.13
406.823	9.15
407.029	9.22
407.236	9.22
407.442	9.14
407.649	9.24
407.855	9.24
408.061	9.16
408.268	9.24
408.474	9.28
408.68	9.36
408.887	9.27
409.093	9.44
409.299	9.42
409.505	9.21
409.712	9.43
409.918	9.31
410.124	9.14
410.33	9.13
410.537	9.2
410.743	9.22
410.949	9.1
411.155	9.1
411.361	9.05
411.567	8.92
411.773	8.98
411.98	8.92
412.186	9.1
412.392	9.16
412.598	9.17
412.804	9
413.01	8.99
413.216	9.04
413.422	9.19
413.628	9.19
413.834	9.31
414.04	9.38
414.246	9.29
414.452	9.16
414.658	9.27
414.864	9.15
415.07	9.22
415.275	9.21
415.481	9.25
415.687	9.1
415.893	9.03
416.099	8.98
416.305	8.93
416.511	9.06
416.716	9.05
416.922	8.98
417.128	9.11
417.334	9.18
417.539	9.14
417.745	9.06
417.951	9.03
418.157	9.05
418.362	9.07
418.568	9.12
418.774	9.1
418.979	9.17
419.185	9.23
419.391	9.18
419.596	9.18
419.802	9.15
420.008	9.19
420.213	9.25
420.419	9.27
420.624	9.26
420.83	9.22
421.035	9.23
421.241	9.13
421.446	9.06
421.652	9.09
421.857	9.09
422.063	9.01
422.268	9.07
422.474	8.97
422.679	8.99
422.885	8.93
423.09	9.01
423.295	9.01
423.501	9.05
423.706	9.05
423.911	9
424.117	9.02
424.322	9.12
424.527	9.03
424.733	9.15
424.938	9.2
425.143	9.25
425.349	9.18
425.554	9.18
425.759	9.13
425.964	9.13
426.169	9.13
426.375	9.08
426.58	9.1
426.785	9.19
426.99	9.15
427.195	9.05
427.4	9.08
427.605	9.07
427.811	9.12
428.016	9.31
428.221	9.39
428.426	9.48
428.631	9.56
428.836	9.58
429.041	9.52
429.246	9.42
429.451	9.52
429.656	9.44
429.861	9.54
430.066	9.51
430.271	9.35
430.476	9.26
430.681	9.2
430.886	9.2
431.09	9.18
431.295	9.11
431.5	9.21
431.705	9.15
431.91	9.22
432.115	9.22
432.32	9.15
432.524	9.2
432.729	9.23
432.934	9.28
433.139	9.27
433.343	9.25
433.548	9.33
433.753	9.39
433.958	9.38
434.162	9.32
434.367	9.25
434.572	9.35
434.776	9.31
434.981	9.37
435.186	9.36
435.39	9.28
435.595	9.31
435.799	9.34
436.004	9.25
436.209	9.3
436.413	9.38
436.618	9.45
436.822	9.47
437.027	9.54
437.231	9.55
437.436	9.63
437.64	9.72
437.845	9.72
438.049	9.6
438.253	9.69
438.458	9.63
438.662	9.67
438.867	9.65
439.071	9.62
439.275	9.6
439.48	9.54
439.684	9.49
439.888	9.46
440.093	9.54
440.297	9.57
440.501	9.6
440.706	9.74
440.91	9.75
441.114	9.76
441.318	9.77
441.523	9.77
441.727	9.82
441.931	9.81
442.135	9.8
442.339	9.75
442.543	9.83
442.748	9.76
442.952	9.67
443.156	9.58
443.36	9.67
443.564	9.65
443.768	9.68
443.972	9.62
444.176	9.57
444.38	9.54
444.584	9.51
444.788	9.47
444.992	9.48
445.196	9.48
445.4	9.51
445.604	9.46
445.808	9.43
446.012	9.42
446.216	9.47
446.42	9.51
446.624	9.52
446.828	9.51
447.032	9.49
447.235	9.5
447.439	9.48
447.643	9.45
447.847	9.41
448.051	9.5
448.254	9.52
448.458	9.47
448.662	9.47
448.866	9.59
449.069	9.62
449.273	9.63
449.477	9.59
449.681	9.59
449.884	9.65
450.088	9.71
450.292	9.7
450.495	9.7
450.699	9.85
450.902	9.81
451.106	9.68
451.31	9.53
451.513	9.59
451.717	9.56
451.92	9.6
452.124	9.53
452.327	9.48
452.531	9.34
452.734	9.24
452.938	9.19
453.141	9.36
453.345	9.44
453.548	9.53
453.752	9.46
453.955	9.43
454.158	9.39
454.362	9.42
454.565	9.48
454.769	9.67
454.972	9.77
455.175	9.69
455.379	9.61
455.582	9.65
455.785	9.66
455.988	9.7
456.192	9.81
456.395	9.82
456.598	9.78
456.801	9.64
457.005	9.58
457.208	9.56
457.411	9.56
457.614	9.47
457.817	9.29
458.021	9.31
458.224	9.3
458.427	9.21
458.63	9.24
458.833	9.27
459.036	9.3
459.239	9.3
459.442	9.39
459.645	9.41
459.848	9.5
460.051	9.61
460.254	9.63
460.457	9.68
460.66	9.76
460.863	9.77
461.066	9.81
461.269	9.87
461.472	9.86
461.675	9.78
461.878	9.76
462.081	9.77
462.284	9.83
462.486	9.85
462.689	9.78
462.892	9.76
463.095	9.67
463.298	9.74
463.5	9.76
463.703	9.79
463.906	9.81
464.109	9.76
464.311	9.71
464.514	9.53
464.717	9.51
464.92	9.55
465.122	9.68
465.325	9.82
465.528	9.74
465.73	9.72
465.933	9.56
466.135	9.57
466.338	9.63
466.541	9.68
466.743	9.77
466.946	9.73
467.148	9.72
467.351	9.58
467.553	9.54
467.756	9.56
467.958	9.55
468.161	9.74
468.363	9.76
468.566	9.9
