Data from 2938764__Reflection_02.txt Node
Date: Fri Mar 13 16:27:48 EDT 2015
User: robert
Spectrometer: USB4E03002
Autoset integration time: false
Trigger mode: 4
Integration Time (sec): 1.000000E-1
Scans to average: 10
Electric dark correction enabled: false
Nonlinearity correction enabled: false
Boxcar width: 5
Stray light correction enabled: false
XAxis mode: Wavelengths
Stop averaging: false
Number of Pixels in Spectrum: 3648
>>>>>Begin Spectral Data<<<<<
177.575	-331.25
177.794	-2169.23
178.014	-366.67
178.233	-154.55
178.452	-129.36
178.672	-75.18
178.891	-14.65
179.11	-21.66
179.33	-24.47
179.549	-104.89
179.768	-97.62
179.987	-85.5
180.207	-45.51
180.426	-67.52
180.645	-392.22
180.864	-1457.14
181.084	548.31
181.303	594.25
181.522	160.18
181.741	185.62
181.96	157.45
182.179	123.01
182.398	126.86
182.618	48.54
182.837	61.24
183.056	39
183.275	2.16
183.494	16.39
183.713	-8.64
183.932	19.59
184.151	25.6
184.37	25.55
184.589	22.06
184.808	19.13
185.027	40.66
185.246	26.51
185.465	16.5
185.684	31.67
185.903	4.1
186.122	24.82
186.341	-45.41
186.56	-348.94
186.779	-144.14
186.998	135.79
187.216	478.79
187.435	-223.81
187.654	1760
187.873	164
188.092	-3350
188.311	-169.61
188.53	-18.67
188.748	1.31
188.967	38.7
189.186	26.65
189.405	37.07
189.623	46.68
189.842	-1.53
190.061	-54.9
190.28	0.37
190.498	-48.15
190.717	-21.07
190.936	-25.41
191.154	62.01
191.373	36.73
191.592	41.67
191.81	34.87
192.029	82.67
192.248	285.47
192.466	78.03
192.685	95.91
192.904	109.73
193.122	134.65
193.341	133.64
193.559	117.53
193.778	132.86
193.996	122.22
194.215	-268.29
194.433	465.52
194.652	18.31
194.87	-7.07
195.089	-89.47
195.307	228.57
195.526	-476.47
195.744	292.08
195.963	153.11
196.181	125.43
196.399	155.49
196.618	117.09
196.836	105.07
197.055	76.6
197.273	104.1
197.491	138.34
197.71	127.52
197.928	104.58
198.146	103.89
198.365	85.4
198.583	87.89
198.801	66.9
199.019	81.79
199.238	101.62
199.456	114.9
199.674	102.31
199.892	93.2
200.111	93.66
200.329	99.53
200.547	105.11
200.765	120
200.983	139.63
201.202	152.3
201.42	141.27
201.638	95.06
201.856	57.63
202.074	60.43
202.292	84.24
202.51	71.18
202.728	69.02
202.946	55.38
203.165	66.52
203.383	70.59
203.601	76.57
203.819	65.42
204.037	80.15
204.255	93.88
204.473	93.92
204.691	62.53
204.909	58.48
205.127	54.85
205.345	60.42
205.562	78.47
205.78	52.38
205.998	70.2
206.216	106.57
206.434	80.34
206.652	65.76
206.87	129.2
207.088	109.74
207.306	404.76
207.523	189.57
207.741	173.48
207.959	143.46
208.177	162.81
208.395	94.41
208.612	66.91
208.83	95.13
209.048	114.13
209.266	76.59
209.483	94.69
209.701	86.56
209.919	120.52
210.136	123.62
210.354	143.02
210.572	145.08
210.79	128.04
211.007	152.72
211.225	135.96
211.442	156.82
211.66	158.01
211.878	124.34
212.095	122.86
212.313	103.14
212.53	93.03
212.748	79.01
212.966	88.73
213.183	108.07
213.401	101.29
213.618	87.48
213.836	69.7
214.053	64.96
214.271	71.18
214.488	93.17
214.705	81.94
214.923	108.65
215.14	95.55
215.358	69.16
215.575	63.23
215.793	52.1
216.01	53.21
216.227	42.41
216.445	72.65
216.662	52.03
216.879	37.28
217.097	51.96
217.314	50.18
217.531	49.3
217.749	39.83
217.966	36.23
218.183	34.12
218.4	24.37
218.618	19.34
218.835	7.77
219.052	19.98
219.269	24.25
219.487	17.58
219.704	19.21
219.921	16.72
220.138	23.43
220.355	18.06
220.572	21.88
220.79	34.14
221.007	46.06
221.224	45.49
221.441	38.67
221.658	30.01
221.875	29.38
222.092	27.36
222.309	34.13
222.526	32.91
222.743	23.9
222.96	25.1
223.177	21.26
223.394	18.67
223.611	16.37
223.828	16.37
224.045	16.22
224.262	8
224.479	6.21
224.696	4.6
224.913	5.62
225.13	10.63
225.347	14.68
225.564	10.81
225.781	9.23
225.997	7.81
226.214	7.18
226.431	11.29
226.648	11.45
226.865	11.4
227.082	9.25
227.298	7.43
227.515	6.84
227.732	5.16
227.949	4.91
228.165	4.37
228.382	4.48
228.599	4.92
228.816	4.57
229.032	4.7
229.249	4.28
229.466	4.84
229.682	4.95
229.899	5.8
230.116	4.8
230.332	5.44
230.549	5.72
230.765	5.88
230.982	6.4
231.199	7.04
231.415	7.91
231.632	8.47
231.848	8.05
232.065	8.47
232.281	8.36
232.498	9.07
232.714	8.04
232.931	7.73
233.147	8.82
233.364	6.07
233.58	3.94
233.797	1.78
234.013	2.12
234.23	2.92
234.446	3.03
234.662	2.15
234.879	2.5
235.095	2.49
235.312	2.47
235.528	1.17
235.744	2.01
235.961	2.9
236.177	4.8
236.393	4.57
236.61	4.22
236.826	5.17
237.042	6.05
237.258	6.91
237.475	9.03
237.691	10.08
237.907	9.99
238.123	10
238.339	9.81
238.556	10.3
238.772	9.73
238.988	9.05
239.204	8.98
239.42	7.96
239.636	7.16
239.853	5.4
240.069	5.43
240.285	5.05
240.501	5.38
240.717	5.1
240.933	5.22
241.149	4.9
241.365	4.73
241.581	4.66
241.797	4.62
242.013	4.84
242.229	4.62
242.445	4.08
242.661	4.41
242.877	4.83
243.093	4.56
243.309	4.03
243.525	3.92
243.741	4.7
243.957	4.6
244.173	4.78
244.388	5.13
244.604	5.97
244.82	6.2
245.036	6.43
245.252	5.5
245.468	6.09
245.683	6.45
245.899	6.32
246.115	5.38
246.331	5.35
246.547	5.06
246.762	4.38
246.978	4.72
247.194	4.69
247.409	4.69
247.625	4.77
247.841	4.68
248.057	4.28
248.272	4.15
248.488	4.14
248.703	4.08
248.919	3.99
249.135	4.15
249.35	3.52
249.566	3.78
249.782	3.02
249.997	2.68
250.213	2.72
250.428	3.38
250.644	4.57
250.859	4.74
251.075	4.08
251.29	3.93
251.506	4.24
251.721	4.1
251.937	3.44
252.152	3.89
252.368	4.09
252.583	3.89
252.798	4.15
253.014	3.29
253.229	4.13
253.445	4.75
253.66	5.7
253.875	6.13
254.091	5.91
254.306	6.62
254.521	7.17
254.737	8.13
254.952	6.69
255.167	5.59
255.383	5.84
255.598	5.58
255.813	5.15
256.028	4.86
256.244	3.89
256.459	3.81
256.674	3.17
256.889	2.75
257.104	2.83
257.32	3.82
257.535	3.59
257.75	2.87
257.965	2.18
258.18	2.2
258.395	2.6
258.61	2.51
258.826	2.93
259.041	2.8
259.256	2.98
259.471	2.72
259.686	2.85
259.901	2.75
260.116	3.16
260.331	3.41
260.546	3.29
260.761	2.86
260.976	3.05
261.191	2.67
261.406	3.25
261.621	3.14
261.836	2.99
262.05	3.27
262.265	3.34
262.48	3.04
262.695	2.73
262.91	3.3
263.125	3.35
263.34	3.56
263.555	3.79
263.769	3.16
263.984	2.78
264.199	3.37
264.414	3.19
264.629	3.6
264.843	3.54
265.058	3.7
265.273	3.45
265.488	3.52
265.702	3.46
265.917	3.8
266.132	4.31
266.346	5.09
266.561	4.79
266.776	4.31
266.99	4.1
267.205	3.96
267.42	3.62
267.634	4.01
267.849	4.48
268.063	4.65
268.278	4.27
268.492	3.57
268.707	3.16
268.922	2.92
269.136	2.81
269.351	3.07
269.565	2.82
269.78	2.92
269.994	2.55
270.209	2.5
270.423	2.01
270.637	2.14
270.852	2.55
271.066	2.23
271.281	2.17
271.495	2.32
271.709	1.8
271.924	1.89
272.138	2.07
272.353	1.76
272.567	1.34
272.781	1.88
272.996	1.81
273.21	1.8
273.424	1.84
273.638	1.84
273.853	1.43
274.067	2.16
274.281	2.51
274.495	2.3
274.71	1.99
274.924	1.96
275.138	1.39
275.352	1.46
275.566	0.96
275.781	1.01
275.995	0.83
276.209	1.47
276.423	1.36
276.637	1.29
276.851	1.47
277.065	1.79
277.279	1.91
277.493	1.87
277.707	1.82
277.921	1.69
278.135	1.61
278.349	1.74
278.563	1.92
278.777	1.84
278.991	2.03
279.205	2.15
279.419	2.1
279.633	2.72
279.847	3.02
280.061	3.39
280.275	3.69
280.489	3.9
280.703	4.27
280.917	3.87
281.131	3.69
281.344	3.42
281.558	3.24
281.772	3.66
281.986	3.01
282.2	3.13
282.414	3.06
282.627	3.17
282.841	3.04
283.055	3.12
283.269	3
283.482	2.89
283.696	3.04
283.91	2.89
284.123	2.56
284.337	2.51
284.551	2.37
284.764	2.43
284.978	2.38
285.192	2.08
285.405	1.84
285.619	1.75
285.833	1.91
286.046	1.97
286.26	1.75
286.473	1.94
286.687	2.34
286.9	2.26
287.114	2.19
287.327	2.12
287.541	2.22
287.754	2.44
287.968	2.66
288.181	2.7
288.395	2.14
288.608	2.6
288.822	2.59
289.035	2.4
289.248	2.25
289.462	2.34
289.675	2.19
289.889	2.47
290.102	2.14
290.315	2.24
290.529	2.21
290.742	2.53
290.955	2.47
291.169	2.24
291.382	1.85
291.595	1.62
291.808	1.62
292.022	1.75
292.235	1.44
292.448	1.82
292.661	1.23
292.875	1.17
293.088	1.55
293.301	1.22
293.514	1.51
293.727	1.79
293.94	2.29
294.153	2.25
294.367	1.94
294.58	2.06
294.793	1.79
295.006	2.3
295.219	2.04
295.432	1.69
295.645	1.83
295.858	1.71
296.071	1.58
296.284	1.72
296.497	1.79
296.71	2.17
296.923	2.36
297.136	2.59
297.349	2.69
297.562	2.95
297.775	3.14
297.988	3.36
298.201	3.35
298.414	3.68
298.626	3.62
298.839	3.49
299.052	3.25
299.265	3.34
299.478	3.01
299.691	2.94
299.903	2.68
300.116	2.66
300.329	2.47
300.542	2.38
300.755	2.14
300.967	1.99
301.18	2.08
301.393	2.59
301.605	2.19
301.818	2.24
302.031	2.16
302.243	2.4
302.456	2.34
302.669	2.4
302.881	2.9
303.094	2.75
303.307	2.99
303.519	2.75
303.732	2.62
303.944	3
304.157	3.16
304.37	3.04
304.582	2.86
304.795	2.93
305.007	3.15
305.22	3.06
305.432	3.19
305.645	3.2
305.857	3.59
306.069	3.53
306.282	3.24
306.494	3.23
306.707	3.67
306.919	4.05
307.132	3.91
307.344	3.57
307.556	3.63
307.769	4.32
307.981	3.93
308.193	3.55
308.406	3.33
308.618	3.71
308.83	3.77
309.043	3.47
309.255	3.53
309.467	3.54
309.679	3.56
309.892	3.6
310.104	3.08
310.316	3.61
310.528	3.77
310.74	3.8
310.953	3.59
311.165	3.94
311.377	3.91
311.589	3.58
311.801	3.76
312.013	3.74
312.225	3.91
312.437	4.37
312.649	4.03
312.862	4.09
313.074	4.24
313.286	4.59
313.498	4.57
313.71	4.69
313.922	5.25
314.134	4.88
314.346	5.01
314.558	4.64
314.77	4.57
314.982	4.55
315.193	4.36
315.405	4.28
315.617	3.76
315.829	3.61
316.041	3.97
316.253	3.34
316.465	3.81
316.677	4.18
316.888	4.5
317.1	4.49
317.312	4.68
317.524	5.18
317.736	5.41
317.947	5.76
318.159	5.93
318.371	5.72
318.583	6.22
318.794	6
319.006	6.23
319.218	5.92
319.43	5.58
319.641	5.66
319.853	5.6
320.064	5.72
320.276	5.75
320.488	5.42
320.699	5.46
320.911	5.77
321.123	6.04
321.334	5.65
321.546	6.11
321.757	6.64
321.969	6.65
322.18	6.81
322.392	6.93
322.603	6.91
322.815	7.68
323.026	7.43
323.238	7.24
323.449	7.22
323.661	7.33
323.872	7.35
324.083	7.51
324.295	7.9
324.506	8.09
324.718	8.06
324.929	8.39
325.14	8.42
325.352	9.09
325.563	9.29
325.774	9.86
325.986	10.31
326.197	10.64
326.408	10.63
326.62	10.83
326.831	10.82
327.042	11.32
327.253	11.76
327.464	11.65
327.676	11.75
327.887	12.06
328.098	12.14
328.309	12.39
328.52	12.64
328.732	12.87
328.943	12.97
329.154	13.01
329.365	13.16
329.576	13.51
329.787	13.84
329.998	13.94
330.209	14.13
330.42	14.32
330.631	14.54
330.842	14.68
331.053	15.47
331.264	15.77
331.475	16.2
331.686	16.8
331.897	17.06
332.108	17.1
332.319	17.66
332.53	17.76
332.741	17.92
332.952	18.06
333.163	18.07
333.374	18.14
333.585	18.63
333.795	19.08
334.006	18.79
334.217	18.75
334.428	19.2
334.639	19.48
334.849	19.33
335.06	19.43
335.271	19.48
335.482	20.07
335.692	19.93
335.903	19.87
336.114	19.93
336.325	20.47
336.535	20.47
336.746	20.54
336.957	20.28
337.167	20.54
337.378	20.92
337.589	21.24
337.799	21.2
338.01	21.52
338.22	21.19
338.431	21.13
338.642	20.96
338.852	20.98
339.063	21.07
339.273	21.22
339.484	21.61
339.694	21.42
339.905	21.52
340.115	21.37
340.326	21.18
340.536	21.61
340.746	21.58
340.957	21.78
341.167	21.99
341.378	21.92
341.588	21.9
341.799	21.59
342.009	21.52
342.219	21.52
342.43	21.17
342.64	21.23
342.85	21.07
343.061	21.05
343.271	20.67
343.481	20.41
343.691	20.51
343.902	20.51
344.112	20.69
344.322	20.73
344.532	20.43
344.743	20.65
344.953	20.69
345.163	20.44
345.373	20.54
345.583	20.66
345.793	20.7
346.004	20.63
346.214	20.67
346.424	20.66
346.634	20.63
346.844	21.01
347.054	21.2
347.264	20.99
347.474	21.43
347.684	21.32
347.894	21.61
348.104	21.71
348.314	21.9
348.524	21.76
348.734	21.72
348.944	21.58
349.154	21.37
349.364	21.1
349.574	21.11
349.784	21.35
349.994	21.24
350.204	20.99
350.413	20.96
350.623	20.73
350.833	20.68
351.043	20.81
351.253	21.05
351.463	20.87
351.672	21.02
351.882	21.1
352.092	20.53
352.302	20.88
352.511	20.84
352.721	20.85
352.931	20.84
353.141	21.06
353.35	21.07
353.56	21.07
353.77	20.96
353.979	20.92
354.189	21.01
354.399	21.23
354.608	21.1
354.818	21.3
355.027	21.31
355.237	21.19
355.447	20.93
355.656	20.8
355.866	20.74
356.075	20.84
356.285	20.81
356.494	20.73
356.704	20.62
356.913	20.82
357.123	20.5
357.332	20.31
357.542	20.44
357.751	20.56
357.96	20.54
358.17	20.26
358.379	20.25
358.589	20.36
358.798	20.39
359.007	20.32
359.217	20.11
359.426	20.21
359.635	20.17
359.845	20.15
360.054	20.04
360.263	20.13
360.472	20.47
360.682	20.5
360.891	20.35
361.1	20.19
361.309	20.47
361.519	20.53
361.728	20.47
361.937	20.55
362.146	20.4
362.355	20.43
362.564	20.44
362.774	20.3
362.983	20.16
363.192	20.16
363.401	20.1
363.61	19.9
363.819	20.03
364.028	20.06
364.237	19.88
364.446	20.19
364.655	20
364.864	19.82
365.073	19.85
365.282	20.08
365.491	20.18
365.7	20.34
365.909	20.37
366.118	19.86
366.327	19.82
366.536	20.01
366.745	19.69
366.954	20.09
367.162	19.98
367.371	19.85
367.58	19.81
367.789	19.69
367.998	19.44
368.207	19.38
368.415	19.48
368.624	19.68
368.833	19.45
369.042	19.28
369.25	19.19
369.459	19.36
369.668	19.17
369.877	18.94
370.085	18.86
370.294	18.95
370.503	18.72
370.711	18.53
370.92	18.05
371.129	18.24
371.337	18.39
371.546	18.24
371.754	18.01
371.963	18.19
372.171	18.25
372.38	18.16
372.589	18.29
372.797	18.35
373.006	18.42
373.214	18.77
373.423	18.9
373.631	18.85
373.84	18.73
374.048	18.76
374.256	18.77
374.465	18.7
374.673	18.72
374.882	18.87
375.09	19.01
375.298	18.9
375.507	18.96
375.715	18.84
375.923	18.88
376.132	18.78
376.34	18.69
376.548	18.67
376.757	18.47
376.965	18.47
377.173	18.26
377.381	17.99
377.59	18.14
377.798	18.16
378.006	17.98
378.214	17.69
378.423	17.76
378.631	17.74
378.839	17.61
379.047	17.71
379.255	17.87
379.463	17.87
379.671	17.94
379.879	17.84
380.088	17.64
380.296	17.64
380.504	17.9
380.712	17.95
380.92	17.98
381.128	17.9
381.336	17.91
381.544	17.77
381.752	17.74
381.96	17.81
382.168	17.81
382.376	17.57
382.584	17.68
382.791	17.51
382.999	17.38
383.207	17.6
383.415	17.8
383.623	17.94
383.831	17.7
384.039	17.81
384.247	17.74
384.454	17.8
384.662	17.85
384.87	17.63
385.078	17.57
385.285	17.52
385.493	17.5
385.701	17.29
385.909	17.11
386.116	17.14
386.324	16.95
386.532	17.03
386.739	17.1
386.947	17.06
387.155	16.97
387.362	17.16
387.57	17.18
387.778	16.93
387.985	17.05
388.193	17.09
388.4	17.01
388.608	16.92
388.816	16.49
389.023	16.37
389.231	16.51
389.438	16.63
389.646	16.46
389.853	16.26
390.061	16.33
390.268	16.36
390.475	16.42
390.683	16.6
390.89	16.64
391.098	16.97
391.305	16.83
391.512	16.77
391.72	16.74
391.927	16.7
392.135	16.77
392.342	16.54
392.549	16.44
392.756	16.28
392.964	16.17
393.171	16.14
393.378	16.01
393.586	15.98
393.793	15.8
394	15.92
394.207	16.14
394.414	16.25
394.622	16.29
394.829	16.29
395.036	16.27
395.243	16.23
395.45	16.19
395.657	16.27
395.864	16.4
396.072	16.38
396.279	16.17
396.486	15.99
396.693	15.91
396.9	16
397.107	16.23
397.314	16.25
397.521	16.06
397.728	16.19
397.935	16.07
398.142	16.09
398.349	16.22
398.556	16.15
398.763	16.18
398.97	16.14
399.177	16.23
399.383	15.9
399.59	15.9
399.797	16.08
400.004	16
400.211	16.01
400.418	15.89
400.625	15.81
400.831	15.93
401.038	15.68
401.245	15.73
401.452	15.52
401.658	15.68
401.865	15.63
402.072	15.53
402.279	15.56
402.485	15.45
402.692	15.58
402.899	15.65
403.105	15.51
403.312	15.66
403.519	15.72
403.725	15.74
403.932	15.67
404.138	15.79
404.345	15.85
404.552	15.69
404.758	15.67
404.965	15.56
405.171	15.45
405.378	15.59
405.584	15.66
405.791	15.55
405.997	15.68
406.204	15.56
406.41	15.55
406.617	15.59
406.823	15.7
407.029	15.72
407.236	15.52
407.442	15.45
407.649	15.45
407.855	15.31
408.061	15.39
408.268	15.21
408.474	15.33
408.68	15.33
408.887	15.28
409.093	15.26
409.299	15.47
409.505	15.54
409.712	15.71
409.918	15.67
410.124	15.78
410.33	15.88
410.537	15.93
410.743	15.77
410.949	15.55
411.155	15.53
411.361	15.47
411.567	15.21
411.773	15.36
411.98	15.33
412.186	15.4
412.392	15.39
412.598	15.07
412.804	15.15
413.01	15.29
413.216	15.51
413.422	15.5
413.628	15.66
413.834	15.76
414.04	15.61
414.246	15.55
414.452	15.37
414.658	15.23
414.864	15.39
415.07	15.32
415.275	15.29
415.481	15.4
415.687	15.53
415.893	15.38
416.099	15.42
416.305	15.37
416.511	15.47
416.716	15.52
416.922	15.52
417.128	15.46
417.334	15.45
417.539	15.53
417.745	15.55
417.951	15.44
418.157	15.46
418.362	15.45
418.568	15.6
418.774	15.64
418.979	15.58
419.185	15.67
419.391	15.73
419.596	15.68
419.802	15.65
420.008	15.52
420.213	16.15
420.419	16.18
420.624	16.13
420.83	16.11
421.035	16.02
421.241	16
421.446	15.96
421.652	15.89
421.857	15.95
422.063	15.91
422.268	15.95
422.474	15.37
422.679	15.35
422.885	15.13
423.09	15.1
423.295	15.12
423.501	15.18
423.706	15.22
423.911	15.17
424.117	15.15
424.322	15.14
424.527	15.06
424.733	15.05
424.938	15.09
425.143	15.22
425.349	15.31
425.554	15.29
425.759	15.3
425.964	15.25
426.169	15.43
426.375	15.45
426.58	15.39
426.785	15.43
426.99	15.49
427.195	15.39
427.4	15.52
427.605	15.34
427.811	15.31
428.016	15.35
428.221	15.31
428.426	15.19
428.631	15.11
428.836	15.25
429.041	15.23
429.246	15.25
429.451	15.22
429.656	15.2
429.861	15.2
430.066	15.26
430.271	15.21
430.476	15.24
430.681	15.24
430.886	15.2
431.09	15.15
431.295	15.2
431.5	15.07
431.705	15.13
431.91	15.2
432.115	15.16
432.32	15.2
432.524	15.16
432.729	15.23
432.934	15.32
433.139	15.47
433.343	15.44
433.548	15.45
433.753	15.44
433.958	15.51
434.162	15.6
434.367	15.81
434.572	15.73
434.776	15.79
434.981	15.71
435.186	15.7
435.39	15.64
435.595	15.83
435.799	15.78
436.004	15.85
436.209	15.78
436.413	15.67
436.618	15.58
436.822	15.63
437.027	15.7
437.231	15.78
437.436	15.78
437.64	15.81
437.845	15.75
438.049	15.8
438.253	15.83
438.458	15.9
438.662	15.88
438.867	15.9
439.071	15.92
439.275	15.94
439.48	15.89
439.684	15.93
439.888	15.91
440.093	15.9
440.297	15.88
440.501	15.93
440.706	15.88
440.91	15.87
441.114	15.89
441.318	15.82
441.523	15.75
441.727	15.83
441.931	15.84
442.135	15.86
442.339	15.86
442.543	15.88
442.748	15.84
442.952	15.85
443.156	15.89
443.36	15.85
443.564	15.98
443.768	16.05
443.972	15.99
444.176	15.99
444.38	15.91
444.584	15.9
444.788	15.89
444.992	15.97
445.196	15.97
445.4	15.94
445.604	15.96
445.808	15.94
446.012	15.85
446.216	15.92
446.42	15.86
446.624	15.94
446.828	15.93
447.032	15.97
447.235	15.86
447.439	15.88
447.643	15.89
447.847	15.91
448.051	15.9
448.254	15.92
448.458	15.87
448.662	15.84
448.866	15.78
449.069	15.81
449.273	15.69
449.477	15.78
449.681	15.79
449.884	15.79
450.088	15.74
450.292	15.61
450.495	15.58
450.699	15.54
450.902	15.64
451.106	15.63
451.31	15.51
451.513	15.66
451.717	15.66
451.92	15.6
452.124	15.55
452.327	15.51
452.531	15.63
452.734	15.7
452.938	15.72
453.141	15.68
453.345	15.66
453.548	15.73
453.752	15.66
453.955	15.66
454.158	15.65
454.362	15.69
454.565	15.71
454.769	15.72
454.972	15.63
455.175	15.65
455.379	15.59
455.582	15.68
455.785	15.72
455.988	15.78
456.192	15.76
456.395	15.85
456.598	15.9
456.801	15.84
457.005	15.79
457.208	15.93
457.411	15.86
457.614	15.86
457.817	15.81
458.021	15.74
458.224	15.67
458.427	15.65
458.63	15.56
458.833	15.59
459.036	15.68
459.239	15.7
459.442	15.55
459.645	15.54
459.848	15.55
460.051	15.58
460.254	15.59
460.457	15.59
460.66	15.63
460.863	15.64
461.066	15.55
461.269	15.49
461.472	15.55
461.675	15.72
461.878	15.76
462.081	15.76
