Data from 2938764__Reflection_01.txt Node
Date: Fri Mar 13 16:27:28 EDT 2015
User: robert
Spectrometer: USB4E03002
Autoset integration time: false
Trigger mode: 4
Integration Time (sec): 1.000000E-1
Scans to average: 10
Electric dark correction enabled: false
Nonlinearity correction enabled: false
Boxcar width: 5
Stray light correction enabled: false
XAxis mode: Wavelengths
Stop averaging: false
Number of Pixels in Spectrum: 3648
>>>>>Begin Spectral Data<<<<<
177.575	-108.33
177.794	-1000
178.014	-119.23
178.233	-20.13
178.452	-74.77
178.672	-57.91
178.891	0.51
179.11	13.77
179.33	2.42
179.549	-46.67
179.768	-19.39
179.987	-54.2
180.207	-32.2
180.426	-59.16
180.645	-380
180.864	-1176.19
181.084	315.73
181.303	318.39
181.522	105.31
181.741	77.4
181.96	158.51
182.179	84.07
182.398	107.85
182.618	66.79
182.837	66.28
183.056	73.54
183.275	21.91
183.494	25
183.713	19.19
183.932	27.39
184.151	21.62
184.37	30.66
184.589	46.76
184.808	49.17
185.027	52.04
185.246	33.3
185.465	10.32
185.684	23.24
185.903	-1.59
186.122	15.33
186.341	3.21
186.56	106.38
186.779	104.5
186.998	10.53
187.216	166.67
187.435	-56.35
187.654	420
187.873	32
188.092	2000
188.311	210.78
188.53	115.67
188.748	136.27
188.967	118.08
189.186	61.38
189.405	58.25
189.623	78.83
189.842	72.03
190.061	132.03
190.28	115.61
190.498	92.06
190.717	95.45
190.936	125.41
191.154	53.71
191.373	45.13
191.592	70.45
191.81	38.24
192.029	111.33
192.248	111.97
192.466	23.94
192.685	31.71
192.904	49.85
193.122	84.8
193.341	77.1
193.559	198.97
193.778	330
193.996	522.22
194.215	-297.56
194.433	103.45
194.652	-249.3
194.87	-134.24
195.089	-1221.05
195.307	394.64
195.526	-876.47
195.744	275.25
195.963	201.44
196.181	135.74
196.399	161.56
196.618	146.78
196.836	166.57
197.055	97.54
197.273	96.52
197.491	158.2
197.71	145.3
197.928	114.82
198.146	118.04
198.365	97.52
198.583	109.26
198.801	77.75
199.019	77.91
199.238	79.95
199.456	90.03
199.674	97.15
199.892	84.55
200.111	76.28
200.329	72.13
200.547	57.85
200.765	25.14
200.983	6.71
201.202	79.31
201.42	143.12
201.638	100.62
201.856	121.02
202.074	60.19
202.292	96.28
202.51	79.78
202.728	74.18
202.946	73.09
203.165	94.02
203.383	79.65
203.601	42.74
203.819	-8.54
204.037	-26.63
204.255	-10.35
204.473	-6.69
204.691	-32.63
204.909	-6.59
205.127	21.36
205.345	6.5
205.562	-20.6
205.78	29.71
205.998	57.4
206.216	72.66
206.434	97.84
206.652	107.69
206.87	163.27
207.088	223.22
207.306	934.92
207.523	466.96
207.741	429.55
207.959	278.53
208.177	269.42
208.395	117.65
208.612	73.09
208.83	66.43
209.048	66.73
209.266	46.67
209.483	10.81
209.701	-3.91
209.919	16.72
210.136	18.8
210.354	49.26
210.572	42.88
210.79	50.34
211.007	75.23
211.225	84.54
211.442	95.28
211.66	111.66
211.878	92.16
212.095	83.37
212.313	44.23
212.53	43.41
212.748	29.85
212.966	46.04
213.183	44.97
213.401	30.71
213.618	18.49
213.836	16.54
214.053	6.47
214.271	24.56
214.488	32.12
214.705	78.98
214.923	74.05
215.14	89.73
215.358	56.17
215.575	37.85
215.793	31.49
216.01	14.29
216.227	9.77
216.445	5.66
216.662	-4.7
216.879	-10.02
217.097	-3.08
217.314	-1.94
217.531	1.63
217.749	4.74
217.966	5.79
218.183	7.03
218.4	11.13
218.618	8.27
218.835	12.93
219.052	16.33
219.269	32.9
219.487	33.09
219.704	24.72
219.921	19.73
220.138	17.71
220.355	0.67
220.572	2.24
220.79	16.02
221.007	14.15
221.224	6.02
221.441	-3.89
221.658	-11.55
221.875	-13.68
222.092	-11.78
222.309	-6.37
222.526	-3.67
222.743	-0.34
222.96	0.72
223.177	-2.25
223.394	-4.14
223.611	2.45
223.828	2.54
224.045	4.86
224.262	4.04
224.479	9.82
224.696	10.53
224.913	9.71
225.13	10.26
225.347	16.11
225.564	11.87
225.781	12.46
225.997	12.24
226.214	14.98
226.431	12.23
226.648	10.14
226.865	11.32
227.082	10.99
227.298	11.16
227.515	11.33
227.732	8.23
227.949	8.78
228.165	8.78
228.382	7.54
228.599	7.35
228.816	8.69
229.032	8.79
229.249	7.4
229.466	7.05
229.682	7.37
229.899	7.15
230.116	6.48
230.332	6.98
230.549	6.78
230.765	6.68
230.982	6.71
231.199	6.73
231.415	7.66
231.632	8.82
231.848	9.65
232.065	10.3
232.281	10.61
232.498	13.28
232.714	12.37
232.931	13.04
233.147	15.23
233.364	13.58
233.58	9.46
233.797	8.13
234.013	7.76
234.23	5.88
234.446	4.4
234.662	4.24
234.879	2.86
235.095	2.87
235.312	3.51
235.528	0.95
235.744	1.85
235.961	3.39
236.177	3.24
236.393	4.56
236.61	5.83
236.826	6.75
237.042	8.22
237.258	9.27
237.475	9.88
237.691	8.22
237.907	7.76
238.123	8.83
238.339	10.38
238.556	11.48
238.772	10.07
238.988	9.61
239.204	8.36
239.42	6.77
239.636	6.37
239.853	5.14
240.069	6.16
240.285	7.24
240.501	7.71
240.717	7.16
240.933	7.08
241.149	6.02
241.365	5.96
241.581	5.67
241.797	5.64
242.013	5.8
242.229	5.91
242.445	5.66
242.661	5.94
242.877	5.77
243.093	5.2
243.309	4.91
243.525	5.65
243.741	6.06
243.957	6.58
244.173	6.74
244.388	6.72
244.604	6.77
244.82	7.35
245.036	7.25
245.252	6.91
245.468	7.36
245.683	7.29
245.899	7.11
246.115	6.77
246.331	6.53
246.547	6.55
246.762	6.24
246.978	6.73
247.194	6.37
247.409	6.49
247.625	6.58
247.841	6.61
248.057	6.38
248.272	6.29
248.488	5.89
248.703	5.94
248.919	5.75
249.135	5.3
249.35	4.6
249.566	4.78
249.782	4.01
249.997	3.21
250.213	3.15
250.428	3.06
250.644	4
250.859	4.76
251.075	4.72
251.29	4.47
251.506	5.35
251.721	5.18
251.937	5.2
252.152	5.01
252.368	5.07
252.583	5.02
252.798	5.81
253.014	5.62
253.229	6.06
253.445	6.06
253.66	6.29
253.875	6.42
254.091	6.37
254.306	6.35
254.521	6.85
254.737	7.87
254.952	6.88
255.167	6.16
255.383	5.06
255.598	4.51
255.813	3.86
256.028	4.96
256.244	4.66
256.459	4.83
256.674	4.13
256.889	4.23
257.104	4.3
257.32	5.62
257.535	4.89
257.75	4.88
257.965	4.39
258.18	4.78
258.395	4.34
258.61	4.15
258.826	4.34
259.041	4.14
259.256	4.17
259.471	3.71
259.686	3.65
259.901	4.02
260.116	4.13
260.331	4.11
260.546	3.88
260.761	3.96
260.976	4.07
261.191	3.83
261.406	4.42
261.621	4.51
261.836	4.75
262.05	4.42
262.265	4.14
262.48	3.99
262.695	4.26
262.91	4.38
263.125	4.11
263.34	4.55
263.555	4.68
263.769	4.31
263.984	3.73
264.199	3.71
264.414	3.9
264.629	3.76
264.843	3.59
265.058	4.21
265.273	4.35
265.488	4.39
265.702	3.99
265.917	4.1
266.132	4.19
266.346	4.71
266.561	4.17
266.776	4.35
266.99	4.3
267.205	4
267.42	3.48
267.634	3.39
267.849	3.39
268.063	3.69
268.278	3.82
268.492	3.04
268.707	2.47
268.922	3.04
269.136	3.12
269.351	3.22
269.565	3.51
269.78	3.78
269.994	3.9
270.209	3.98
270.423	3.75
270.637	3.52
270.852	4.15
271.066	4.43
271.281	4.21
271.495	4.18
271.709	4.19
271.924	3.99
272.138	3.98
272.353	3.85
272.567	3.75
272.781	4.04
272.996	3.8
273.21	3.8
273.424	3.68
273.638	3.64
273.853	3.36
274.067	3.84
274.281	4.12
274.495	3.8
274.71	3.74
274.924	3.59
275.138	3.13
275.352	3.32
275.566	2.96
275.781	3.12
275.995	2.99
276.209	3.11
276.423	2.85
276.637	2.78
276.851	2.7
277.065	2.95
277.279	2.61
277.493	2.29
277.707	2.33
277.921	2.4
278.135	2.27
278.349	2.32
278.563	2.94
278.777	2.82
278.991	3.06
279.205	3.15
279.419	2.64
279.633	3.44
279.847	3.79
280.061	3.72
280.275	3.64
280.489	3.58
280.703	4
280.917	3.34
281.131	3.01
281.344	2.61
281.558	2.64
281.772	2.92
281.986	2.66
282.2	2.65
282.414	2.65
282.627	3.07
282.841	3.22
283.055	3.24
283.269	3.41
283.482	3.31
283.696	3.6
283.91	3.82
284.123	3.65
284.337	3.5
284.551	3.53
284.764	3.64
284.978	3.44
285.192	3.26
285.405	3.3
285.619	3.2
285.833	3.52
286.046	3.52
286.26	3.16
286.473	3.34
286.687	3.53
286.9	3.58
287.114	3.57
287.327	3.5
287.541	3.38
287.754	3.24
287.968	3.48
288.181	3.37
288.395	3.15
288.608	3.65
288.822	3.57
289.035	3.53
289.248	3.02
289.462	3.09
289.675	3.26
289.889	3.7
290.102	3.31
290.315	3.14
290.529	3.18
290.742	3.3
290.955	3.08
291.169	2.97
291.382	2.78
291.595	2.87
291.808	2.84
292.022	2.3
292.235	1.85
292.448	2.31
292.661	2.23
292.875	2.35
293.088	2.14
293.301	2.11
293.514	2.29
293.727	2.31
293.94	2.6
294.153	2.62
294.367	2.85
294.58	3.15
294.793	3.06
295.006	3.19
295.219	2.88
295.432	2.91
295.645	2.65
295.858	2.76
296.071	2.77
296.284	2.89
296.497	3.03
296.71	3.06
296.923	3.05
297.136	3.24
297.349	3.27
297.562	3.42
297.775	3.49
297.988	3.85
298.201	3.87
298.414	4.22
298.626	4.15
298.839	4.1
299.052	4.03
299.265	4.13
299.478	3.82
299.691	3.71
299.903	3.97
300.116	3.78
300.329	3.69
300.542	3.47
300.755	3.18
300.967	2.83
301.18	2.76
301.393	3.18
301.605	2.86
301.818	2.62
302.031	2.5
302.243	2.27
302.456	2.5
302.669	2.46
302.881	2.82
303.094	2.81
303.307	3.15
303.519	2.97
303.732	2.67
303.944	3.04
304.157	3.65
304.37	3.64
304.582	3.75
304.795	3.81
305.007	4.22
305.22	4.25
305.432	4.08
305.645	4.23
305.857	4.39
306.069	4.87
306.282	4.74
306.494	4.61
306.707	4.84
306.919	4.58
307.132	4.51
307.344	3.95
307.556	3.84
307.769	4.25
307.981	3.96
308.193	4.21
308.406	3.98
308.618	4.11
308.83	3.88
309.043	3.66
309.255	3.81
309.467	3.8
309.679	3.76
309.892	3.78
310.104	3.68
310.316	3.91
310.528	3.82
310.74	3.83
310.953	3.91
311.165	4.17
311.377	4.29
311.589	4.32
311.801	4.44
312.013	4.5
312.225	4.88
312.437	5.15
312.649	5.15
312.862	5.01
313.074	5.09
313.286	4.84
313.498	4.87
313.71	5.02
313.922	5.15
314.134	5.27
314.346	5.4
314.558	4.91
314.77	4.94
314.982	4.83
315.193	4.73
315.405	4.6
315.617	4.66
315.829	4.57
316.041	4.93
316.253	4.63
316.465	4.61
316.677	4.73
316.888	4.97
317.1	4.61
317.312	4.7
317.524	4.89
317.736	5.21
317.947	5.04
318.159	5.27
318.371	5
318.583	5.6
318.794	5.51
319.006	5.77
319.218	5.42
319.43	5.59
319.641	5.97
319.853	6.64
320.064	6.68
320.276	7.29
320.488	6.8
320.699	6.86
320.911	6.5
321.123	6.77
321.334	6.54
321.546	7
321.757	7.45
321.969	7.2
322.18	7.07
322.392	6.54
322.603	6.42
322.815	7.05
323.026	6.82
323.238	6.6
323.449	6.61
323.661	6.54
323.872	6.32
324.083	6.2
324.295	6.48
324.506	6.37
324.718	6.57
324.929	6.63
325.14	6.75
325.352	7.1
325.563	7.36
325.774	7.65
325.986	7.91
326.197	8.09
326.408	8
326.62	8.11
326.831	7.96
327.042	8.49
327.253	8.61
327.464	8.69
327.676	8.93
327.887	9.07
328.098	9.29
328.309	9.78
328.52	10.07
328.732	10.19
328.943	10.31
329.154	10.37
329.365	10.5
329.576	10.88
329.787	10.86
329.998	10.98
330.209	10.91
330.42	10.88
330.631	10.96
330.842	10.76
331.053	10.94
331.264	10.83
331.475	11.28
331.686	11.53
331.897	11.23
332.108	11.29
332.319	11.23
332.53	11.27
332.741	11.2
332.952	10.99
333.163	10.98
333.374	11.22
333.585	11.63
333.795	11.33
334.006	10.94
334.217	11.24
334.428	11.4
334.639	11.18
334.849	11.54
335.06	11.58
335.271	11.6
335.482	12.08
335.692	11.59
335.903	11.48
336.114	12.12
336.325	12.29
336.535	12.05
336.746	12.06
336.957	12.05
337.167	12.07
337.378	12.35
337.589	12.47
337.799	12.23
338.01	12.76
338.22	12.49
338.431	12.27
338.642	12.22
338.852	12.46
339.063	12.34
339.273	12.83
339.484	12.55
339.694	12.25
339.905	12.18
340.115	12.53
340.326	12.29
340.536	12.66
340.746	12.72
340.957	12.93
341.167	12.92
341.378	12.81
341.588	12.51
341.799	12.74
342.009	12.68
342.219	12.91
342.43	12.45
342.64	12.57
342.85	12.33
343.061	12.44
343.271	12.14
343.481	12.11
343.691	12.26
343.902	12.38
344.112	12.45
344.322	12.49
344.532	12.18
344.743	12.48
344.953	12.29
345.163	12.21
345.373	12.13
345.583	12.33
345.793	12.21
346.004	12.15
346.214	12.25
346.424	12.15
346.634	12.29
346.844	12.42
347.054	12.18
347.264	12.5
347.474	12.43
347.684	12.23
347.894	12.31
348.104	12.54
348.314	12.41
348.524	11.89
348.734	11.65
348.944	11.37
349.154	11.12
349.364	11.15
349.574	10.83
349.784	11.1
349.994	10.87
350.204	10.75
350.413	10.63
350.623	10.65
350.833	10.89
351.043	11.31
351.253	11.22
351.463	11.25
351.672	11.31
351.882	11.37
352.092	11.36
352.302	11.74
352.511	11.8
352.721	11.78
352.931	12.1
353.141	12.09
353.35	11.84
353.56	12.14
353.77	12.12
353.979	12.17
354.189	12.34
354.399	12.43
354.608	12.78
354.818	12.51
355.027	12.5
355.237	12.32
355.447	12.51
355.656	12.68
355.866	12.63
356.075	12.68
356.285	12.55
356.494	12.33
356.704	12.17
356.913	11.95
357.123	12.08
357.332	11.97
357.542	11.87
357.751	11.79
357.96	11.72
358.17	11.58
358.379	11.74
358.589	11.7
358.798	11.73
359.007	11.68
359.217	11.41
359.426	11.34
359.635	11.27
359.845	11.28
360.054	11.3
360.263	11.13
360.472	11.17
360.682	10.97
360.891	10.82
361.1	10.75
361.309	10.82
361.519	10.92
361.728	10.67
361.937	10.63
362.146	10.53
362.355	10.5
362.564	10.5
362.774	10.68
362.983	10.62
363.192	10.74
363.401	10.8
363.61	10.63
363.819	10.56
364.028	10.57
364.237	10.55
364.446	10.72
364.655	10.5
364.864	10.52
365.073	10.18
365.282	10.42
365.491	10.26
365.7	10.44
365.909	10.6
366.118	10.48
366.327	10.6
366.536	10.71
366.745	10.6
366.954	10.84
367.162	10.93
367.371	11.02
367.58	11.02
367.789	11.32
367.998	10.95
368.207	10.92
368.415	10.9
368.624	10.97
368.833	10.54
369.042	10.42
369.25	10.28
369.459	10.23
369.668	10.1
369.877	9.93
370.085	9.62
370.294	9.85
370.503	9.7
370.711	9.63
370.92	9.54
371.129	10.21
371.337	10.31
371.546	10.45
371.754	10.13
371.963	10.18
372.171	10.14
372.38	10.21
372.589	10.15
372.797	10.4
373.006	10.62
373.214	10.87
373.423	10.65
373.631	10.67
373.84	10.47
374.048	10.73
374.256	10.58
374.465	10.5
374.673	10.56
374.882	10.47
375.09	10.37
375.298	10.06
375.507	9.95
375.715	9.95
375.923	9.83
376.132	9.73
376.34	9.72
376.548	9.87
376.757	10.01
376.965	10
377.173	10.01
377.381	9.96
377.59	10
377.798	10.03
378.006	9.8
378.214	9.72
378.423	9.66
378.631	9.57
378.839	9.49
379.047	9.26
379.255	9.37
379.463	9.42
379.671	9.17
379.879	9.23
380.088	9.12
380.296	9.37
380.504	9.52
380.712	9.72
380.92	9.69
381.128	9.62
381.336	9.62
381.544	9.37
381.752	9.15
381.96	9.2
382.168	9.09
382.376	8.98
382.584	8.87
382.791	8.77
382.999	8.78
383.207	9.02
383.415	8.98
383.623	9.05
383.831	9.01
384.039	9.24
384.247	9.35
384.454	9.41
384.662	9.43
384.87	9.37
385.078	9.31
385.285	9.07
385.493	8.92
385.701	8.8
385.909	8.56
386.116	8.67
386.324	8.36
386.532	8.24
386.739	8.29
386.947	8.39
387.155	8.23
387.362	8.43
387.57	8.5
387.778	8.38
387.985	8.56
388.193	8.73
388.4	8.42
388.608	8.52
388.816	8.39
389.023	8.29
389.231	8.38
389.438	8.53
389.646	8.25
389.853	8
390.061	8.13
390.268	7.94
390.475	8.04
390.683	8.28
390.89	8.13
391.098	8.26
391.305	8.14
391.512	7.99
391.72	7.84
391.927	7.94
392.135	7.9
392.342	7.81
392.549	7.93
392.756	7.67
392.964	7.51
393.171	7.62
393.378	7.58
393.586	7.68
393.793	7.62
394	7.78
394.207	7.78
394.414	8.02
394.622	7.98
394.829	7.95
395.036	8.04
395.243	8.02
395.45	7.98
395.657	8.06
395.864	8.01
396.072	7.91
396.279	7.82
396.486	7.74
396.693	7.57
396.9	7.46
397.107	7.54
397.314	7.59
397.521	7.64
397.728	7.75
397.935	7.59
398.142	7.67
398.349	7.76
398.556	7.52
398.763	7.74
398.97	7.79
399.177	7.88
399.383	7.72
399.59	7.62
399.797	7.59
400.004	7.5
400.211	7.51
400.418	7.42
400.625	7.31
400.831	7.63
401.038	7.46
401.245	7.44
401.452	7.33
401.658	7.26
401.865	7.32
402.072	7.49
402.279	7.44
402.485	7.33
402.692	7.53
402.899	7.55
403.105	7.26
403.312	7.16
403.519	7.19
403.725	7.29
403.932	7.42
404.138	7.33
404.345	7.15
404.552	7.17
404.758	7.26
404.965	7.08
405.171	7
405.378	7.05
405.584	7.11
405.791	7.08
405.997	7.04
406.204	7.05
406.41	7.14
406.617	7.23
406.823	7.23
407.029	7.18
407.236	7.07
407.442	7
407.649	7.12
407.855	7.16
408.061	7.13
408.268	7.15
408.474	7.08
408.68	7.15
408.887	7.19
409.093	7.18
409.299	7.32
409.505	7.23
409.712	7.27
409.918	7.2
410.124	7.06
410.33	7.04
410.537	6.89
410.743	6.87
410.949	6.59
411.155	6.38
411.361	6.45
411.567	6.18
411.773	6.51
411.98	6.7
412.186	6.72
412.392	6.7
412.598	6.57
412.804	6.76
413.01	6.78
413.216	7.01
413.422	7.07
413.628	7.08
413.834	7.41
414.04	7.17
414.246	7
414.452	6.96
414.658	6.97
414.864	7.1
415.07	7.1
415.275	7.13
415.481	7.17
415.687	7.22
415.893	7.05
416.099	6.85
416.305	6.79
416.511	6.79
416.716	6.71
416.922	6.71
417.128	6.71
417.334	6.66
417.539	6.64
417.745	6.67
417.951	6.67
418.157	6.62
418.362	6.76
418.568	6.88
418.774	6.95
418.979	7.02
419.185	7.01
419.391	6.98
419.596	6.98
419.802	6.93
420.008	6.84
420.213	7.49
420.419	7.53
420.624	7.37
420.83	7.34
421.035	7.33
421.241	7.26
421.446	7.26
421.652	7.24
421.857	7.21
422.063	7.23
422.268	7.25
422.474	6.63
422.679	6.62
422.885	6.52
423.09	6.48
423.295	6.49
423.501	6.52
423.706	6.59
423.911	6.62
424.117	6.6
424.322	6.54
424.527	6.48
424.733	6.46
424.938	6.47
425.143	6.58
425.349	6.61
425.554	6.5
425.759	6.47
425.964	6.41
426.169	6.41
426.375	6.41
426.58	6.45
426.785	6.48
426.99	6.52
427.195	6.49
427.4	6.65
427.605	6.6
427.811	6.61
428.016	6.72
428.221	6.71
428.426	6.72
428.631	6.75
428.836	6.73
429.041	6.7
429.246	6.65
429.451	6.66
429.656	6.55
429.861	6.62
430.066	6.71
430.271	6.64
430.476	6.59
430.681	6.61
430.886	6.54
431.09	6.57
431.295	6.56
431.5	6.59
431.705	6.62
431.91	6.59
432.115	6.56
432.32	6.49
432.524	6.48
432.729	6.52
432.934	6.49
433.139	6.54
433.343	6.43
433.548	6.47
433.753	6.45
433.958	6.49
434.162	6.63
434.367	6.68
434.572	6.65
434.776	6.74
434.981	6.81
435.186	6.77
435.39	6.86
435.595	7.02
435.799	6.91
436.004	6.99
436.209	6.95
436.413	6.81
436.618	6.76
436.822	6.86
437.027	6.88
437.231	6.83
437.436	6.85
437.64	6.8
437.845	6.81
438.049	6.96
438.253	6.96
438.458	7.02
438.662	7.03
438.867	7.02
439.071	6.96
439.275	6.88
439.48	6.89
439.684	6.93
439.888	6.9
440.093	6.84
440.297	6.82
440.501	6.77
440.706	6.66
440.91	6.67
441.114	6.75
441.318	6.8
441.523	6.8
441.727	6.86
441.931	6.83
442.135	6.84
442.339	6.88
442.543	6.8
442.748	6.83
442.952	6.95
443.156	7.06
443.36	7.03
443.564	7.06
443.768	7.12
443.972	7.12
444.176	7.07
444.38	7.09
444.584	7.13
444.788	7.11
444.992	7.13
445.196	7.1
445.4	7.02
445.604	7
445.808	6.98
446.012	6.96
446.216	6.92
446.42	6.93
446.624	6.99
446.828	6.92
447.032	6.99
447.235	6.96
447.439	6.96
447.643	6.96
447.847	6.97
448.051	7
448.254	7.05
448.458	7.02
448.662	7.02
448.866	6.92
449.069	6.96
449.273	6.92
449.477	6.98
449.681	6.97
449.884	7
450.088	6.95
450.292	6.86
450.495	6.78
450.699	6.78
450.902	6.84
451.106	6.91
451.31	6.93
451.513	7.06
451.717	7.13
451.92	7.11
452.124	7.04
452.327	7.09
452.531	7.16
452.734	7.12
452.938	7.05
453.141	7.04
453.345	7.02
453.548	7
453.752	6.81
453.955	6.67
454.158	6.72
454.362	6.77
454.565	6.75
454.769	6.75
454.972	6.69
455.175	6.77
455.379	6.72
455.582	6.74
455.785	6.73
455.988	6.87
456.192	6.8
456.395	6.77
456.598	6.75
456.801	6.73
457.005	6.76
457.208	6.91
457.411	6.99
457.614	7.06
457.817	7.04
458.021	7.05
458.224	7.04
458.427	7.05
458.63	7.02
458.833	7.08
459.036	7.15
459.239	7.12
459.442	6.99
459.645	7
459.848	6.96
460.051	6.99
460.254	7
460.457	7.02
460.66	7.08
460.863	7.16
461.066	7.11
461.269	7.04
461.472	7.08
461.675	7.17
461.878	7.15
462.081	7.1
462.284	7.03
462.486	6.95
462.689	6.99
462.892	6.99
463.095	6.88
463.298	6.81
463.5	6.83
463.703	6.84
463.906	6.86
464.109	6.86
464.311	6.98
464.514	6.96
464.717	7.05
464.92	6.95
465.122	7.06
465.325	7.06
465.528	7.15
465.73	7.16
465.933	7.12
466.135	7.15
466.338	7.09
466.541	7.02
466.743	7.04
466.946	7.02
467.148	7.12
467.351	7.06
467.553	6.98
467.756	6.97
467.958	7.08
468.161	7.05
468.363	7.06
468.566	7.06
468.768	7.18
