Data from 2938771__Reflection_10.txt Node
Date: Fri Mar 13 15:28:46 EDT 2015
User: robert
Spectrometer: USB4E03002
Autoset integration time: false
Trigger mode: 4
Integration Time (sec): 1.000000E-1
Scans to average: 10
Electric dark correction enabled: false
Nonlinearity correction enabled: false
Boxcar width: 5
Stray light correction enabled: false
XAxis mode: Wavelengths
Stop averaging: false
Number of Pixels in Spectrum: 3648
>>>>>Begin Spectral Data<<<<<
177.575	17.36
177.794	39.73
178.014	188.89
178.233	228.36
178.452	635.14
178.672	198.86
178.891	236.59
179.11	1604.35
179.33	-597.01
179.549	-279.37
179.768	-1810
179.987	891.04
180.207	2822.22
180.426	1469.23
180.645	-2271.43
180.864	-1154.84
181.084	-239.37
181.303	-357.48
181.522	-1872.34
181.741	6053.33
181.96	325.4
182.179	288.86
182.398	213.8
182.618	178.27
182.837	257.93
183.056	238.51
183.275	235.71
183.494	184.53
183.713	212.14
183.932	178.02
184.151	167.26
184.37	196.55
184.589	192.7
184.808	415.56
185.027	205.26
185.246	145.08
185.465	97.13
185.684	62.25
185.903	47.08
186.122	59.38
186.341	70.95
186.56	67
186.779	120.74
186.998	151.72
187.216	199.53
187.435	558.47
187.654	329.37
187.873	274.2
188.092	283.01
188.311	563.01
188.53	441.35
188.748	1445.31
188.967	-3625
189.186	607.97
189.405	527.34
189.623	278.26
189.842	199.28
190.061	198.56
190.28	286.97
190.498	204.33
190.717	185.99
190.936	200.78
191.154	167.04
191.373	167.08
191.592	169.65
191.81	137.04
192.029	132.61
192.248	129.97
192.466	116.22
192.685	87.2
192.904	83.2
193.122	49.89
193.341	46.24
193.559	39.38
193.778	22.58
193.996	-57.21
194.215	-236
194.433	21.5
194.652	45.27
194.87	214.89
195.089	3680
195.307	773.08
195.526	-208.41
195.744	874.47
195.963	289.62
196.181	250
196.399	182.93
196.618	172.75
196.836	205.35
197.055	256.49
197.273	271.43
197.491	858.82
197.71	711.11
197.928	267.6
198.146	291.53
198.365	370.67
198.583	434.85
198.801	-139.74
199.019	-70
199.238	-55.64
199.456	-50.98
199.674	-78.81
199.892	-28.46
200.111	-24.18
200.329	17.47
200.547	12.57
200.765	-67.77
200.983	-80.25
201.202	-201.87
201.42	-764.58
201.638	1382.61
201.856	446.39
202.074	1156.1
202.292	436.84
202.51	540.31
202.728	331.06
202.946	534.23
203.165	1168.25
203.383	69400
203.601	519.72
203.819	590.1
204.037	350.27
204.255	323.96
204.473	166.01
204.691	300.55
204.909	156.53
205.127	235.56
205.345	175.15
205.562	161.2
205.78	138.35
205.998	137.32
206.216	135.77
206.434	137.79
206.652	159.03
206.87	216.26
207.088	156.33
207.306	198.18
207.523	181.25
207.741	157.33
207.959	173.01
208.177	172.73
208.395	186.81
208.612	258.49
208.83	243.82
209.048	297.12
209.266	1920
209.483	-1576.47
209.701	-2616
209.919	896.88
210.136	11560
210.354	-1180.56
210.572	-226.23
210.79	567.29
211.007	220
211.225	591.53
211.442	154.17
211.66	91.21
211.878	76.62
212.095	216.12
212.313	247.14
212.53	223.69
212.748	221.3
212.966	145.12
213.183	192.73
213.401	200.83
213.618	168.76
213.836	167.92
214.053	188.4
214.271	210.53
214.488	75.56
214.705	79.19
214.923	77.09
215.14	77.54
215.358	84.45
215.575	74.79
215.793	74.19
216.01	79.26
216.227	85.71
216.445	84.96
216.662	76.08
216.879	76.5
217.097	66.49
217.314	72.74
217.531	68.18
217.749	62.08
217.966	59.68
218.183	51.83
218.4	38.05
218.618	29.98
218.835	27.87
219.052	21.39
219.269	24.86
219.487	31.28
219.704	31.5
219.921	19.8
220.138	20.49
220.355	17.94
220.572	18.83
220.79	19.67
221.007	12.39
221.224	6.63
221.441	10.14
221.658	23.47
221.875	24.42
222.092	32.83
222.309	30.17
222.526	34.53
222.743	32.36
222.96	33.06
223.177	37.14
223.394	33.42
223.611	35.13
223.828	37.02
224.045	31.63
224.262	35.77
224.479	31.96
224.696	39.78
224.913	36.83
225.13	39.13
225.347	38.9
225.564	33.74
225.781	32.57
225.997	26.22
226.214	25.01
226.431	20.25
226.648	12.37
226.865	10.81
227.082	7.34
227.298	6.82
227.515	5.56
227.732	3.7
227.949	3.95
228.165	5.48
228.382	6.22
228.599	5.87
228.816	5.88
229.032	6.11
229.249	5.5
229.466	5.83
229.682	5.29
229.899	4.56
230.116	4.51
230.332	4.49
230.549	3.87
230.765	3.78
230.982	3.16
231.199	2.76
231.415	4.26
231.632	4.05
231.848	5.25
232.065	5.86
232.281	7.2
232.498	8.48
232.714	8.66
232.931	8.61
233.147	9.04
233.364	10.42
233.58	9.72
233.797	7.19
234.013	7.33
234.23	5.33
234.446	5.65
234.662	4.43
234.879	4.17
235.095	4.09
235.312	5.45
235.528	4.52
235.744	2.92
235.961	5.18
236.177	7.35
236.393	8.78
236.61	8.82
236.826	8.39
237.042	11.21
237.258	10.05
237.475	10.03
237.691	7.87
237.907	7.58
238.123	9.06
238.339	7.98
238.556	5.84
238.772	4.96
238.988	6.09
239.204	5.82
239.42	5.35
239.636	5.99
239.853	6.74
240.069	7.98
240.285	8.83
240.501	7.36
240.717	7.54
240.933	7.51
241.149	6.76
241.365	6.5
241.581	6.2
241.797	5.56
242.013	5.57
242.229	5.26
242.445	4.66
242.661	4.5
242.877	4.21
243.093	4.46
243.309	4.76
243.525	4.37
243.741	3.77
243.957	4.38
244.173	4.73
244.388	4.62
244.604	4.26
244.82	3.99
245.036	3.69
245.252	3.89
245.468	3.73
245.683	3.65
245.899	3.36
246.115	3.45
246.331	3.11
246.547	2.65
246.762	2.65
246.978	3.03
247.194	3.08
247.409	3.28
247.625	3.34
247.841	2.95
248.057	2.87
248.272	3.19
248.488	3.32
248.703	3.49
248.919	3.63
249.135	3.41
249.35	3.09
249.566	2.99
249.782	2.74
249.997	2.5
250.213	3.51
250.428	3.88
250.644	4.51
250.859	4.26
251.075	4.54
251.29	4.59
251.506	6.16
251.721	6.05
251.937	5.94
252.152	5.97
252.368	6.27
252.583	5.81
252.798	5.57
253.014	5.63
253.229	6.1
253.445	5.65
253.66	5.46
253.875	5.02
254.091	4.65
254.306	5.1
254.521	4.61
254.737	5.07
254.952	4.87
255.167	4.13
255.383	3.42
255.598	2.72
255.813	3.06
256.028	3.5
256.244	2.54
256.459	3.54
256.674	2.35
256.889	2.94
257.104	2.24
257.32	2.58
257.535	3.07
257.75	2.95
257.965	2.58
258.18	1.9
258.395	1.81
258.61	2.02
258.826	1.77
259.041	2.39
259.256	2.32
259.471	2.37
259.686	2.15
259.901	2.21
260.116	2.26
260.331	2.61
260.546	2.57
260.761	2.71
260.976	2.61
261.191	2.81
261.406	2.67
261.621	2.79
261.836	2.74
262.05	2.41
262.265	2.29
262.48	2.2
262.695	2.04
262.91	2.06
263.125	2
263.34	1.28
263.555	0.85
263.769	0.66
263.984	-0.11
264.199	-0.68
264.414	0.21
264.629	0.29
264.843	0.84
265.058	0.93
265.273	1.33
265.488	1.37
265.702	2.12
265.917	2.44
266.132	2.36
266.346	2.24
266.561	3.19
266.776	2.49
266.99	2.5
267.205	2.27
267.42	2.22
267.634	2.54
267.849	2.47
268.063	2.82
268.278	2.62
268.492	2.82
268.707	3.02
268.922	2.52
269.136	3.62
269.351	3.27
269.565	3.46
269.78	3.36
269.994	3.31
270.209	3.01
270.423	2.68
270.637	2.51
270.852	2.28
271.066	2.4
271.281	2.39
271.495	1.8
271.709	1.8
271.924	1.51
272.138	1.6
272.353	1.67
272.567	1.99
272.781	2.17
272.996	2.55
273.21	3.11
273.424	3.34
273.638	3.19
273.853	3.27
274.067	3.65
274.281	3.94
274.495	3.68
274.71	3.56
274.924	3.36
275.138	3.11
275.352	2.98
275.566	2.91
275.781	2.48
275.995	2.99
276.209	3.03
276.423	2.31
276.637	1.86
276.851	2.15
277.065	2.44
277.279	2.49
277.493	2.68
277.707	2.93
277.921	2.23
278.135	2.43
278.349	2.06
278.563	2.22
278.777	3.05
278.991	3.45
279.205	3.74
279.419	3.06
279.633	2.93
279.847	2.78
280.061	1.92
280.275	2
280.489	1.98
280.703	2.06
280.917	2.19
281.131	1.84
281.344	1.72
281.558	1.12
281.772	1.63
281.986	1.97
282.2	2.05
282.414	2.38
282.627	2.36
282.841	2.21
283.055	2.2
283.269	1.6
283.482	1.67
283.696	1.61
283.91	1.66
284.123	1.4
284.337	1.41
284.551	1.2
284.764	1.38
284.978	1.43
285.192	1.44
285.405	1.3
285.619	1.43
285.833	1.19
286.046	1.07
286.26	1.31
286.473	1.19
286.687	1.21
286.9	1.3
287.114	0.8
287.327	0.77
287.541	0.71
287.754	0.9
287.968	1.16
288.181	1.57
288.395	1.85
288.608	2.05
288.822	2.05
289.035	1.56
289.248	1.26
289.462	1.65
289.675	1.58
289.889	2.05
290.102	2
290.315	1.89
290.529	1.72
290.742	1.69
290.955	1.16
291.169	1.65
291.382	1.8
291.595	1.83
291.808	1.95
292.022	2.19
292.235	1.64
292.448	1.82
292.661	1.94
292.875	2
293.088	2.21
293.301	2.45
293.514	1.86
293.727	2.13
293.94	2.15
294.153	2.21
294.367	2.04
294.58	2.22
294.793	1.78
295.006	1.88
295.219	1.84
295.432	1.62
295.645	1.94
295.858	1.92
296.071	1.96
296.284	1.95
296.497	1.92
296.71	2.19
296.923	2.47
297.136	2.65
297.349	2.55
297.562	2.84
297.775	2.76
297.988	2.85
298.201	3.04
298.414	2.99
298.626	3.36
298.839	3.31
299.052	3.15
299.265	3.01
299.478	3.17
299.691	3.37
299.903	3.18
300.116	3.49
300.329	3.23
300.542	3.51
300.755	3.22
300.967	2.97
301.18	3.05
301.393	3.24
301.605	3.21
301.818	3.09
302.031	2.82
302.243	2.68
302.456	2.61
302.669	2.52
302.881	2.4
303.094	2.58
303.307	2.72
303.519	2.31
303.732	2.18
303.944	1.92
304.157	2.12
304.37	2.24
304.582	2.12
304.795	1.87
305.007	2.01
305.22	1.75
305.432	1.94
305.645	1.86
305.857	2.48
306.069	2.43
306.282	2.83
306.494	2.5
306.707	2.45
306.919	2.5
307.132	2.74
307.344	2.9
307.556	3.3
307.769	3.15
307.981	3.4
308.193	2.97
308.406	2.85
308.618	2.69
308.83	2.73
309.043	2.85
309.255	2.96
309.467	2.87
309.679	2.47
309.892	2.24
310.104	2.3
310.316	2.05
310.528	2.08
310.74	2.31
310.953	2.45
311.165	2.34
311.377	2.3
311.589	2.49
311.801	2.36
312.013	2.54
312.225	2.76
312.437	2.79
312.649	2.96
312.862	2.87
313.074	2.73
313.286	2.89
313.498	3.06
313.71	3.43
313.922	3.43
314.134	3.75
314.346	3.56
314.558	3.65
314.77	3.75
314.982	3.73
315.193	4.04
315.405	4.25
315.617	4.18
315.829	4.26
316.041	3.99
316.253	3.53
316.465	4.12
316.677	4.45
316.888	4.33
317.1	4.04
317.312	4.17
317.524	4.29
317.736	4.53
317.947	4.6
318.159	5.15
318.371	4.99
318.583	5.34
318.794	5.09
319.006	5.51
319.218	5.4
319.43	5.52
319.641	5.84
319.853	6.22
320.064	5.95
320.276	6.06
320.488	5.68
320.699	6.27
320.911	6.37
321.123	5.9
321.334	5.2
321.546	5.18
321.757	5.27
321.969	4.91
322.18	5.12
322.392	5.36
322.603	5.2
322.815	5.61
323.026	5.57
323.238	5.53
323.449	5.69
323.661	6.06
323.872	6.23
324.083	6.59
324.295	7.03
324.506	6.79
324.718	6.64
324.929	6.79
325.14	6.77
325.352	6.79
325.563	7.15
325.774	7.28
325.986	7.59
326.197	8.16
326.408	8.63
326.62	8.51
326.831	8.66
327.042	8.95
327.253	9.21
327.464	9.48
327.676	9.78
327.887	9.85
328.098	10.37
328.309	10.43
328.52	10.49
328.732	10.49
328.943	11.09
329.154	11.47
329.365	11.84
329.576	11.8
329.787	12
329.998	11.88
330.209	12.19
330.42	12.56
330.631	13.12
330.842	13.03
331.053	13.28
331.264	12.95
331.475	12.84
331.686	12.94
331.897	13.09
332.108	13.31
332.319	13.91
332.53	14.03
332.741	14.26
332.952	13.94
333.163	13.9
333.374	13.63
333.585	13.98
333.795	14.08
334.006	14.08
334.217	14.4
334.428	14.49
334.639	14.35
334.849	13.99
335.06	13.63
335.271	13.78
335.482	13.88
335.692	14.03
335.903	13.87
336.114	14.05
336.325	14.18
336.535	13.9
336.746	13.77
336.957	13.63
337.167	13.87
337.378	13.9
337.589	14.12
337.799	14.23
338.01	14.34
338.22	14.55
338.431	14.53
338.642	14.51
338.852	14.72
339.063	14.84
339.273	15.12
339.484	15.42
339.694	15.28
339.905	15.29
340.115	15.56
340.326	15.51
340.536	15.51
340.746	15.56
340.957	15.93
341.167	15.69
341.378	15.58
341.588	15.36
341.799	15.1
342.009	15.23
342.219	15.13
342.43	14.91
342.64	15.06
342.85	15.13
343.061	14.96
343.271	14.29
343.481	14.4
343.691	14.04
343.902	13.98
344.112	14.18
344.322	14.1
344.532	14.01
344.743	14.29
344.953	13.99
345.163	13.92
345.373	13.95
345.583	14.12
345.793	14.25
346.004	14.7
346.214	14.68
346.424	14.67
346.634	14.9
346.844	14.82
347.054	14.51
347.264	14.76
347.474	14.58
347.684	14.33
347.894	14.56
348.104	14.53
348.314	14.44
348.524	14.4
348.734	14.07
348.944	13.97
349.154	14.43
349.364	14.33
349.574	14.17
349.784	14.38
349.994	15.07
350.204	15.11
350.413	15.23
350.623	15.23
350.833	15.12
351.043	15.18
351.253	15.12
351.463	14.92
351.672	15.05
351.882	15.45
352.092	15.44
352.302	15.18
352.511	15.19
352.721	15.05
352.931	15.03
353.141	15
353.35	15.09
353.56	14.94
353.77	14.89
353.979	14.68
354.189	14.38
354.399	14.25
354.608	14.1
354.818	14.32
355.027	14.18
355.237	14.27
355.447	14.44
355.656	14.24
355.866	14.07
356.075	13.78
356.285	13.82
356.494	13.4
356.704	13.48
356.913	13.45
357.123	12.94
357.332	12.98
357.542	12.93
357.751	12.78
357.96	12.81
358.17	13.12
358.379	13.14
358.589	13.11
358.798	13.72
359.007	13.57
359.217	13.62
359.426	13.87
359.635	13.83
359.845	13.66
360.054	13.79
360.263	13.75
360.472	13.54
360.682	13.59
360.891	13.56
361.1	13.29
361.309	13.21
361.519	12.88
361.728	12.82
361.937	13.06
362.146	12.99
362.355	12.94
362.564	13.01
362.774	13.09
362.983	13.01
363.192	13.05
363.401	13.03
363.61	13.12
363.819	13.28
364.028	13.18
364.237	12.88
364.446	12.81
364.655	12.83
364.864	12.87
365.073	12.82
365.282	13.08
365.491	12.8
365.7	12.89
365.909	12.99
366.118	13.16
366.327	13
366.536	13.06
366.745	13.21
366.954	13.21
367.162	12.96
367.371	13.01
367.58	12.81
367.789	12.93
367.998	12.73
368.207	12.55
368.415	12.29
368.624	12.48
368.833	12.3
369.042	12.25
369.25	12.27
369.459	12.73
369.668	12.59
369.877	12.63
370.085	12.66
370.294	12.97
370.503	13.19
370.711	13.3
370.92	13.21
371.129	13.18
371.337	13.25
371.546	13.09
371.754	13
371.963	13.05
372.171	13.26
372.38	13.39
372.589	13.15
372.797	13.01
373.006	12.89
373.214	13.06
373.423	13.12
373.631	13.14
373.84	13.2
374.048	13.14
374.256	13.27
374.465	13.16
374.673	13.2
374.882	13.14
375.09	13.21
375.298	13.58
375.507	13.45
375.715	13.31
375.923	13.13
376.132	13.03
376.34	12.77
376.548	12.77
376.757	12.75
376.965	12.59
377.173	12.54
377.381	12.52
377.59	12.28
377.798	12.21
378.006	12.2
378.214	12.3
378.423	12.33
378.631	12.51
378.839	12.21
379.047	12.17
379.255	12.19
379.463	12.35
379.671	12.24
379.879	12.37
380.088	12.5
380.296	12.69
380.504	12.67
380.712	12.7
380.92	12.74
381.128	12.98
381.336	12.78
381.544	12.96
381.752	12.9
381.96	12.92
382.168	12.89
382.376	13.2
382.584	13.45
382.791	13.46
382.999	13.38
383.207	13.42
383.415	13.51
383.623	13.55
383.831	13.28
384.039	13.41
384.247	13.36
384.454	13.19
384.662	12.94
384.87	12.58
385.078	12.53
385.285	12.65
385.493	12.55
385.701	12.38
385.909	12.34
386.116	12.66
386.324	12.62
386.532	12.57
386.739	12.72
386.947	12.69
387.155	12.85
387.362	13
387.57	12.94
387.778	13.1
387.985	13.31
388.193	13.41
388.4	13.25
388.608	13.23
388.816	13.3
389.023	13.59
389.231	13.49
389.438	13.49
389.646	13.37
389.853	13.47
390.061	13.5
390.268	13.17
390.475	13.21
390.683	13.07
390.89	12.97
391.098	13.01
391.305	12.62
391.512	12.59
391.72	12.54
391.927	12.59
392.135	12.52
392.342	12.46
392.549	12.72
392.756	12.64
392.964	12.63
393.171	12.61
393.378	12.47
393.586	12.52
393.793	12.62
394	12.6
394.207	12.63
394.414	12.61
394.622	12.54
394.829	12.46
395.036	12.55
395.243	12.73
395.45	12.81
395.657	12.81
395.864	12.91
396.072	12.87
396.279	13.02
396.486	12.83
396.693	13.07
396.9	13.2
397.107	13.18
397.314	13.16
397.521	13.09
397.728	13.1
397.935	13.33
398.142	13.37
398.349	13.54
398.556	13.51
398.763	13.67
398.97	13.48
399.177	13.25
399.383	13.3
399.59	13.42
399.797	13.48
400.004	13.63
400.211	13.65
400.418	13.62
400.625	13.67
400.831	13.64
401.038	13.75
401.245	13.92
401.452	14.26
401.658	14.26
401.865	14.12
402.072	14.16
402.279	14.11
402.485	14.17
402.692	14.12
402.899	13.98
403.105	14.1
403.312	14.04
403.519	13.98
403.725	13.82
403.932	13.9
404.138	14.08
404.345	14.04
404.552	13.97
404.758	13.82
404.965	13.86
405.171	13.87
405.378	13.73
405.584	13.75
405.791	13.74
405.997	13.78
406.204	13.6
406.41	13.67
406.617	13.88
406.823	14.03
407.029	14.18
407.236	14.28
407.442	14.51
407.649	14.62
407.855	14.67
408.061	14.76
408.268	14.77
408.474	14.9
408.68	14.7
408.887	14.68
409.093	14.61
409.299	14.56
409.505	14.44
409.712	14.24
409.918	14.13
410.124	14.21
410.33	14.3
410.537	14.48
410.743	14.57
410.949	14.6
411.155	14.59
411.361	14.66
411.567	14.71
411.773	14.78
411.98	14.77
412.186	14.81
412.392	14.84
412.598	14.61
412.804	14.41
413.01	14.44
413.216	14.54
413.422	14.3
413.628	14.29
413.834	14.36
414.04	14.31
414.246	14.39
414.452	14.44
414.658	14.38
414.864	14.55
415.07	14.75
415.275	14.62
415.481	14.59
415.687	14.83
415.893	14.79
416.099	14.67
416.305	14.81
416.511	14.87
416.716	14.87
416.922	14.88
417.128	14.78
417.334	14.65
417.539	14.61
417.745	14.51
417.951	14.42
418.157	14.38
418.362	14.38
418.568	14.36
418.774	14.39
418.979	14.51
419.185	14.45
419.391	14.4
419.596	14.45
419.802	14.5
420.008	14.59
420.213	14.68
420.419	14.73
420.624	14.79
420.83	14.85
421.035	14.77
421.241	14.7
421.446	14.73
421.652	14.86
421.857	14.86
422.063	14.93
422.268	15
422.474	15.06
422.679	15.09
422.885	15.14
423.09	15.1
423.295	15.2
423.501	15.2
423.706	15.21
423.911	15.19
424.117	15.24
424.322	15.21
424.527	15.09
424.733	15.07
424.938	15.13
425.143	15.15
425.349	15.17
425.554	15.16
425.759	15.17
425.964	15.21
426.169	15.24
426.375	15.28
426.58	15.32
426.785	15.42
426.99	15.4
427.195	15.38
427.4	15.42
427.605	15.5
427.811	15.52
428.016	15.59
428.221	15.57
428.426	15.68
428.631	15.59
428.836	15.65
429.041	15.62
429.246	15.6
429.451	15.66
429.656	15.58
429.861	15.59
430.066	15.66
430.271	15.7
430.476	15.76
430.681	15.76
430.886	15.68
431.09	15.7
431.295	15.96
431.5	16.07
431.705	15.99
431.91	16.03
432.115	16.01
432.32	16
432.524	16.02
432.729	16.04
432.934	16.04
433.139	16.05
433.343	16.04
433.548	15.93
433.753	16.01
433.958	16.13
434.162	16.19
434.367	16.26
434.572	16.31
434.776	16.32
434.981	16.45
435.186	16.52
435.39	16.71
435.595	16.75
435.799	16.78
436.004	16.72
436.209	16.65
436.413	16.79
436.618	16.71
436.822	16.65
437.027	16.67
437.231	16.63
437.436	16.59
437.64	16.49
437.845	16.48
438.049	16.54
438.253	16.59
438.458	16.57
438.662	16.32
438.867	16.44
439.071	16.44
439.275	16.45
439.48	16.42
439.684	16.46
439.888	16.48
440.093	16.51
440.297	16.52
440.501	16.49
440.706	16.53
440.91	16.66
441.114	16.62
441.318	16.64
441.523	16.62
441.727	16.67
441.931	16.61
442.135	16.7
442.339	16.72
442.543	16.69
442.748	16.74
442.952	16.69
443.156	16.69
443.36	16.78
443.564	16.84
443.768	16.9
443.972	16.88
444.176	16.82
444.38	16.8
444.584	16.85
444.788	16.84
444.992	16.81
445.196	16.88
445.4	16.92
445.604	16.91
445.808	16.87
446.012	16.74
446.216	16.81
446.42	16.85
446.624	16.81
446.828	16.83
447.032	16.76
447.235	16.74
447.439	16.7
447.643	16.67
447.847	16.7
448.051	16.67
448.254	16.81
448.458	16.79
448.662	16.83
448.866	16.93
449.069	16.88
449.273	16.96
449.477	17
449.681	17.05
449.884	17.05
450.088	16.99
450.292	17.06
450.495	17.05
450.699	16.95
450.902	17.05
451.106	16.89
451.31	16.96
451.513	17.01
451.717	16.96
451.92	16.91
452.124	16.95
452.327	16.97
452.531	16.94
452.734	16.96
452.938	17.09
453.141	17.01
453.345	17.12
453.548	17
453.752	17
453.955	17.07
454.158	17.12
454.362	17.21
454.565	17.25
454.769	17.26
454.972	17.22
455.175	17.24
455.379	17.35
455.582	17.41
455.785	17.44
455.988	17.38
456.192	17.46
456.395	17.44
456.598	17.27
456.801	17.26
457.005	17.35
457.208	17.3
457.411	17.27
457.614	17.06
457.817	16.89
458.021	16.87
458.224	16.93
458.427	16.92
458.63	16.81
458.833	16.83
459.036	16.74
459.239	16.69
459.442	16.72
459.645	16.67
459.848	16.71
460.051	16.7
460.254	16.72
460.457	16.72
460.66	16.67
460.863	16.79
461.066	16.84
461.269	16.98
