Data from 2938782__Reflection_03.txt Node
Date: Fri Mar 13 12:36:11 EDT 2015
User: robert
Spectrometer: USB4E03002
Autoset integration time: false
Trigger mode: 4
Integration Time (sec): 1.000000E-1
Scans to average: 10
Electric dark correction enabled: false
Nonlinearity correction enabled: false
Boxcar width: 5
Stray light correction enabled: false
XAxis mode: Wavelengths
Stop averaging: false
Number of Pixels in Spectrum: 3648
>>>>>Begin Spectral Data<<<<<
177.575	85.32
177.794	75.46
178.014	75.65
178.233	81.64
178.452	86.06
178.672	79.75
178.891	76.99
179.11	74.53
179.33	76.82
179.549	73.22
179.768	75.09
179.987	77.31
180.207	81.16
180.426	78.31
180.645	77.1
180.864	72.82
181.084	72.39
181.303	74.47
181.522	77.93
181.741	77.78
181.96	82.36
182.179	84.46
182.398	80.74
182.618	81.83
182.837	82.07
183.056	82.59
183.275	81.16
183.494	82.42
183.713	84.39
183.932	84.8
184.151	82.07
184.37	82.12
184.589	83.09
184.808	84.51
185.027	81.26
185.246	86.86
185.465	85.27
185.684	91.7
185.903	93.51
186.122	89.27
186.341	84.85
186.56	83.13
186.779	81.93
186.998	78.72
187.216	77.94
187.435	79.8
187.654	74.59
187.873	75.57
188.092	74.97
188.311	73.74
188.53	74.87
188.748	75.97
188.967	80.01
189.186	75.51
189.405	77.6
189.623	78.42
189.842	81.31
190.061	85.8
190.28	84.58
190.498	87.92
190.717	87.99
190.936	89.35
191.154	89.71
191.373	87.08
191.592	88.21
191.81	85.1
192.029	85.1
192.248	83.56
192.466	84.57
192.685	79.81
192.904	75.53
193.122	78.86
193.341	81.14
193.559	81.32
193.778	80.5
193.996	86.78
194.215	82.52
194.433	84.35
194.652	82.73
194.87	76.04
195.089	81.64
195.307	81.27
195.526	83.56
195.744	82.63
195.963	83.15
196.181	84.49
196.399	79.99
196.618	84.55
196.836	84.27
197.055	85.14
197.273	92.14
197.491	93.03
197.71	93.88
197.928	92.21
198.146	86.39
198.365	87.58
198.583	91.11
198.801	92.73
199.019	95.06
199.238	90.97
199.456	93.57
199.674	89.34
199.892	82.54
200.111	83.08
200.329	83.03
200.547	84.59
200.765	83.72
200.983	81.06
201.202	78.24
201.42	77.05
201.638	77.92
201.856	75.11
202.074	73.99
202.292	75.77
202.51	72.01
202.728	73.23
202.946	73.35
203.165	73.02
203.383	74.55
203.601	75.01
203.819	70.53
204.037	70.14
204.255	69.29
204.473	68.81
204.691	69.9
204.909	69.15
205.127	67.77
205.345	70.11
205.562	67.69
205.78	66.25
205.998	67.3
206.216	69.98
206.434	73.11
206.652	74.84
206.87	79.59
207.088	78.92
207.306	78.29
207.523	76.47
207.741	77.07
207.959	78.33
208.177	76.22
208.395	77.02
208.612	78.32
208.83	78.65
209.048	76.14
209.266	74.91
209.483	74.69
209.701	79.01
209.919	79.38
210.136	81.63
210.354	82.77
210.572	84.35
210.79	81.79
211.007	83.27
211.225	82.79
211.442	85.24
211.66	83.47
211.878	88.69
212.095	88.49
212.313	89.41
212.53	85.27
212.748	82.26
212.966	82.63
213.183	82.92
213.401	79.05
213.618	75.44
213.836	73.6
214.053	72.73
214.271	69.39
214.488	65.44
214.705	64.21
214.923	63.31
215.14	64.17
215.358	61.3
215.575	60.3
215.793	65.05
216.01	67.71
216.227	67.29
216.445	67.08
216.662	66.12
216.879	70.32
217.097	68.62
217.314	67.17
217.531	65.77
217.749	68.12
217.966	65.36
218.183	64.22
218.4	61.09
218.618	62.62
218.835	61.03
219.052	59.96
219.269	57.62
219.487	58.55
219.704	61.08
219.921	61.88
220.138	58.6
220.355	59.66
220.572	56.4
220.79	59.15
221.007	59.53
221.224	59.85
221.441	58.77
221.658	60.36
221.875	61.15
222.092	58.8
222.309	56.92
222.526	56.83
222.743	56.15
222.96	56.29
223.177	55.13
223.394	50.64
223.611	49.48
223.828	51.86
224.045	48.91
224.262	46.77
224.479	44.64
224.696	45.24
224.913	44.32
225.13	42.73
225.347	42.2
225.564	41.08
225.781	42.28
225.997	40.72
226.214	37.15
226.431	34.1
226.648	32.44
226.865	31.6
227.082	30.17
227.298	28.75
227.515	27.36
227.732	25.15
227.949	23.42
228.165	21.71
228.382	20.77
228.599	20.46
228.816	20.48
229.032	19.74
229.249	18.87
229.466	17.48
229.682	17.37
229.899	18.05
230.116	17.98
230.332	18.17
230.549	18.68
230.765	19.73
230.982	19.72
231.199	20.79
231.415	21.97
231.632	23.4
231.848	26.04
232.065	27.13
232.281	27.32
232.498	27.4
232.714	26.49
232.931	26.68
233.147	25.05
233.364	25.48
233.58	25.05
233.797	24.76
234.013	24.8
234.23	24.33
234.446	24.08
234.662	23.19
234.879	23.14
235.095	24.41
235.312	23.88
235.528	27.28
235.744	27.43
235.961	27.72
236.177	28.2
236.393	28.06
236.61	28
236.826	27.05
237.042	26.67
237.258	27.35
237.475	26.16
237.691	26.43
237.907	24.74
238.123	23.99
238.339	23.88
238.556	23.89
238.772	24.28
238.988	23.92
239.204	23.88
239.42	23.62
239.636	22.71
239.853	22.88
240.069	21.52
240.285	20.24
240.501	19.47
240.717	18.38
240.933	17.09
241.149	16.08
241.365	15.65
241.581	15.27
241.797	14.83
242.013	14.4
242.229	13.83
242.445	13.69
242.661	13.87
242.877	13.74
243.093	13.61
243.309	13.73
243.525	14.14
243.741	13.81
243.957	14.13
244.173	14.94
244.388	15.29
244.604	15.88
244.82	15.98
245.036	15.41
245.252	15.08
245.468	14.83
245.683	14.77
245.899	13.87
246.115	13.72
246.331	13.11
246.547	12.72
246.762	12.03
246.978	11.71
247.194	11.78
247.409	11.66
247.625	11.78
247.841	11.67
248.057	11.28
248.272	11.47
248.488	11.42
248.703	11.34
248.919	11.24
249.135	11.95
249.35	12.57
249.566	13.07
249.782	13.29
249.997	14.15
250.213	14.31
250.428	14.78
250.644	15
250.859	14.91
251.075	14.95
251.29	15.45
251.506	14.86
251.721	14.16
251.937	13.59
252.152	13.97
252.368	12.73
252.583	12.9
252.798	13.09
253.014	13.37
253.229	13.6
253.445	14.16
253.66	13.65
253.875	13.99
254.091	14.83
254.306	14.84
254.521	15.26
254.737	16.84
254.952	16.74
255.167	17.07
255.383	16.32
255.598	16.53
255.813	16.36
256.028	16.59
256.244	16.92
256.459	16.44
256.674	16.29
256.889	15.39
257.104	14.8
257.32	15.07
257.535	13.79
257.75	13.15
257.965	12.98
258.18	12.27
258.395	11.4
258.61	10.69
258.826	9.99
259.041	9.99
259.256	9.49
259.471	8.93
259.686	8.64
259.901	8.59
260.116	8.58
260.331	8.08
260.546	8.25
260.761	8.46
260.976	8.52
261.191	8.46
261.406	8.13
261.621	8.48
261.836	8.56
262.05	8.73
262.265	9.18
262.48	9.66
262.695	10.37
262.91	10.66
263.125	10.69
263.34	11.03
263.555	12.02
263.769	13.23
263.984	13.39
264.199	14.2
264.414	13.86
264.629	13.92
264.843	13.92
265.058	13.76
265.273	13.47
265.488	13.34
265.702	13.03
265.917	12.53
266.132	11.69
266.346	11.25
266.561	10.78
266.776	10.96
266.99	10.76
267.205	10.61
267.42	10.65
267.634	9.93
267.849	9.9
268.063	9.83
268.278	9.71
268.492	9.83
268.707	9.66
268.922	9.84
269.136	10.38
269.351	9.87
269.565	9.76
269.78	9.68
269.994	9.96
270.209	9.89
270.423	9.58
270.637	9.7
270.852	9.51
271.066	9.56
271.281	9.53
271.495	9.01
271.709	9.46
271.924	9.21
272.138	9.08
272.353	9.33
272.567	9.61
272.781	10.02
272.996	9.71
273.21	9.88
273.424	10.11
273.638	9.73
273.853	9.65
274.067	9.55
274.281	9.9
274.495	10.28
274.71	10.36
274.924	10.35
275.138	10.5
275.352	10.62
275.566	10.73
275.781	10.53
275.995	10.93
276.209	11.22
276.423	11.18
276.637	11.16
276.851	11.26
277.065	10.82
277.279	10.44
277.493	10.01
277.707	10.32
277.921	10.12
278.135	10.13
278.349	10.01
278.563	9.76
278.777	9.66
278.991	9.2
279.205	8.96
279.419	8.96
279.633	8.92
279.847	9.23
280.061	9.45
280.275	8.9
280.489	9.06
280.703	9.48
280.917	9.6
281.131	9.74
281.344	9.52
281.558	9.15
281.772	9.65
281.986	9.82
282.2	9.9
282.414	9.59
282.627	9.81
282.841	9.6
283.055	9.12
283.269	8.82
283.482	8.67
283.696	8.92
283.91	8.96
284.123	8.45
284.337	8.42
284.551	8.16
284.764	7.82
284.978	7.56
285.192	7.67
285.405	7.84
285.619	7.79
285.833	7.79
286.046	7.86
286.26	8.09
286.473	8.23
286.687	8.15
286.9	8.15
287.114	8.3
287.327	8.6
287.541	8.75
287.754	8.7
287.968	9.03
288.181	9.2
288.395	9.16
288.608	8.99
288.822	9.1
289.035	8.99
289.248	8.82
289.462	9.06
289.675	8.9
289.889	8.92
290.102	8.72
290.315	8.49
290.529	8.36
290.742	8.36
290.955	8.32
291.169	8.4
291.382	8.5
291.595	8.87
291.808	8.9
292.022	9.32
292.235	9.13
292.448	9.27
292.661	9.5
292.875	9.57
293.088	9.48
293.301	9.33
293.514	9.11
293.727	8.97
293.94	8.72
294.153	8.79
294.367	8.26
294.58	8.22
294.793	8.45
295.006	8.01
295.219	7.69
295.432	7.83
295.645	7.89
295.858	7.85
296.071	7.6
296.284	7.5
296.497	7.18
296.71	7.3
296.923	7.41
297.136	7.35
297.349	7.52
297.562	7.72
297.775	7.54
297.988	7.52
298.201	7.74
298.414	8.05
298.626	8.17
298.839	8.21
299.052	8.21
299.265	8.4
299.478	8.43
299.691	8.77
299.903	9.18
300.116	9.54
300.329	9.82
300.542	9.62
300.755	9.76
300.967	9.93
301.18	10.1
301.393	10.36
301.605	10.07
301.818	9.75
302.031	9.55
302.243	9.1
302.456	8.97
302.669	8.96
302.881	8.6
303.094	8.8
303.307	8.94
303.519	9.01
303.732	8.96
303.944	8.87
304.157	9.41
304.37	9.3
304.582	9.55
304.795	9.53
305.007	9.6
305.22	10.15
305.432	9.85
305.645	9.83
305.857	10.02
306.069	10.23
306.282	10.47
306.494	10.11
306.707	10.37
306.919	10.34
307.132	10.35
307.344	10.19
307.556	10.02
307.769	10.29
307.981	10.03
308.193	9.92
308.406	9.66
308.618	9.69
308.83	9.76
309.043	9.41
309.255	9.33
309.467	9.41
309.679	9.28
309.892	9.16
310.104	9.08
310.316	9.02
310.528	8.83
310.74	9.1
310.953	8.77
311.165	8.84
311.377	9.2
311.589	9.42
311.801	9.28
312.013	9.34
312.225	9.37
312.437	9.15
312.649	9.41
312.862	9.58
313.074	9.52
313.286	9.79
313.498	10.03
313.71	10.03
313.922	9.88
314.134	10.07
314.346	10.29
314.558	10.63
314.77	11.43
314.982	11.57
315.193	11.61
315.405	11.82
315.617	12.07
315.829	12.33
316.041	12.38
316.253	12.43
316.465	12.7
316.677	12.52
316.888	12.51
317.1	12.02
317.312	12.07
317.524	12.46
317.736	12.54
317.947	12.76
318.159	12.57
318.371	12.7
318.583	12.87
318.794	13.01
319.006	13.46
319.218	13.21
319.43	13.37
319.641	13.15
319.853	12.93
320.064	13.07
320.276	12.79
320.488	12.96
320.699	12.71
320.911	13.21
321.123	13.12
321.334	12.81
321.546	13.38
321.757	13.6
321.969	13.94
322.18	14.24
322.392	14.04
322.603	14.33
322.815	14.07
323.026	14.18
323.238	13.82
323.449	13.22
323.661	13.47
323.872	13.35
324.083	13.07
324.295	12.82
324.506	12.6
324.718	12.17
324.929	12.09
325.14	12.1
325.352	12.3
325.563	12.42
325.774	12.86
325.986	13.05
326.197	13.36
326.408	13.62
326.62	13.84
326.831	13.98
327.042	14.55
327.253	14.74
327.464	15.11
327.676	15.05
327.887	15.31
328.098	15.66
328.309	15.66
328.52	15.54
328.732	15.48
328.943	15.83
329.154	16.29
329.365	16.24
329.576	16.33
329.787	16.3
329.998	16.96
330.209	16.57
330.42	16.43
330.631	16.61
330.842	16.67
331.053	16.93
331.264	16.38
331.475	16.39
331.686	16.38
331.897	16.44
332.108	16.72
332.319	16.51
332.53	16.56
332.741	16.54
332.952	16.42
333.163	16.33
333.374	16.65
333.585	16.76
333.795	16.6
334.006	16.83
334.217	16.62
334.428	16.25
334.639	16.35
334.849	16.4
335.06	16.45
335.271	16.21
335.482	16.66
335.692	16.08
335.903	16.19
336.114	16.18
336.325	16.19
336.535	16.45
336.746	16.43
336.957	16.42
337.167	16.7
337.378	16.87
337.589	17.14
337.799	16.56
338.01	16.79
338.22	16.54
338.431	16.44
338.642	16.17
338.852	16.07
339.063	16.12
339.273	15.83
339.484	15.51
339.694	15.32
339.905	15.48
340.115	15.66
340.326	15.55
340.536	15.53
340.746	15.62
340.957	15.65
341.167	15.67
341.378	15.48
341.588	15.48
341.799	15.52
342.009	15.52
342.219	15.33
342.43	15.39
342.64	15.65
342.85	15.95
343.061	15.8
343.271	15.87
343.481	15.81
343.691	15.99
343.902	16.08
344.112	16.09
344.322	16
344.532	15.95
344.743	15.61
344.953	15.26
345.163	15.08
345.373	14.91
345.583	14.76
345.793	15
346.004	15.02
346.214	14.87
346.424	15.07
346.634	15.1
346.844	15.18
347.054	15.43
347.264	15.54
347.474	15.6
347.684	15.55
347.894	15.51
348.104	15.39
348.314	14.89
348.524	14.71
348.734	14.46
348.944	14.69
349.154	14.8
349.364	14.8
349.574	14.9
349.784	15.01
349.994	15.32
350.204	15.64
350.413	15.55
350.623	15.82
350.833	15.99
351.043	15.86
351.253	15.7
351.463	15.44
351.672	15.43
351.882	15.2
352.092	15.12
352.302	14.95
352.511	14.65
352.721	14.59
352.931	14.55
353.141	14.49
353.35	14.65
353.56	14.43
353.77	14.36
353.979	14.28
354.189	14.51
354.399	14.39
354.608	14.55
354.818	14.46
355.027	14.51
355.237	14.47
355.447	14.5
355.656	14.27
355.866	14.34
356.075	14.42
356.285	14.47
356.494	14.39
356.704	14.36
356.913	14.25
357.123	14.21
357.332	13.87
357.542	13.91
357.751	13.69
357.96	13.77
358.17	13.6
358.379	13.42
358.589	13.38
358.798	13.23
359.007	13.4
359.217	13.35
359.426	13.24
359.635	13.34
359.845	13.32
360.054	13.3
360.263	13.11
360.472	13.3
360.682	13.31
360.891	13.23
361.1	13.07
361.309	12.8
361.519	12.83
361.728	12.89
361.937	12.88
362.146	12.9
362.355	12.98
362.564	13.38
362.774	13.4
362.983	13.41
363.192	13.43
363.401	13.54
363.61	13.59
363.819	13.42
364.028	13.49
364.237	13.68
364.446	13.56
364.655	13.6
364.864	13.13
365.073	12.9
365.282	12.86
365.491	12.95
365.7	12.82
365.909	12.92
366.118	13.04
366.327	13.16
366.536	13.08
366.745	13.22
366.954	13.25
367.162	13.37
367.371	13.46
367.58	13.67
367.789	13.45
367.998	13.56
368.207	13.69
368.415	13.87
368.624	13.95
368.833	13.91
369.042	13.87
369.25	13.81
369.459	13.97
369.668	13.97
369.877	13.81
370.085	13.69
370.294	13.88
370.503	13.79
370.711	13.63
370.92	13.44
371.129	13.55
371.337	13.49
371.546	13.44
371.754	13.51
371.963	13.36
372.171	13.32
372.38	13.65
372.589	13.45
372.797	13.31
373.006	13.36
373.214	13.26
373.423	13.09
373.631	12.88
373.84	12.95
374.048	12.57
374.256	12.79
374.465	12.86
374.673	12.76
374.882	12.87
375.09	13.02
375.298	12.95
375.507	12.89
375.715	12.87
375.923	13.1
376.132	12.9
376.34	13.05
376.548	12.95
376.757	12.78
376.965	12.73
377.173	12.73
377.381	12.59
377.59	12.89
377.798	12.92
378.006	12.87
378.214	12.73
378.423	12.92
378.631	12.84
378.839	12.79
379.047	12.74
379.255	12.79
379.463	12.73
379.671	12.64
379.879	12.38
380.088	12.33
380.296	12.36
380.504	12.44
380.712	12.15
380.92	12.24
381.128	12.32
381.336	12.33
381.544	12.06
381.752	11.97
381.96	11.91
382.168	11.63
382.376	11.68
382.584	11.54
382.791	11.4
382.999	11.41
383.207	11.29
383.415	11.31
383.623	11.34
383.831	11.34
384.039	11.2
384.247	11.38
384.454	11.61
384.662	11.66
384.87	11.68
385.078	11.81
385.285	11.95
385.493	12.06
385.701	11.84
385.909	11.8
386.116	11.93
386.324	12.03
386.532	11.74
386.739	11.51
386.947	11.35
387.155	11.47
387.362	11.43
387.57	11.29
387.778	11.13
387.985	11.22
388.193	11.17
388.4	10.96
388.608	11.13
388.816	11.35
389.023	11.49
389.231	11.34
389.438	11.14
389.646	11.01
389.853	10.99
390.061	11
390.268	10.92
390.475	10.82
390.683	10.93
390.89	10.62
391.098	10.59
391.305	10.5
391.512	10.56
391.72	10.49
391.927	10.51
392.135	10.53
392.342	10.45
392.549	10.51
392.756	10.46
392.964	10.31
393.171	10.5
393.378	10.42
393.586	10.26
393.793	10.17
394	10.11
394.207	10.14
394.414	10.14
394.622	10.17
394.829	10.09
395.036	10.28
395.243	10.4
395.45	10.3
395.657	10.39
395.864	10.58
396.072	10.66
396.279	10.86
396.486	10.82
396.693	10.72
396.9	10.72
397.107	10.77
397.314	10.87
397.521	10.85
397.728	10.8
397.935	10.77
398.142	10.68
398.349	10.77
398.556	10.68
398.763	10.6
398.97	10.56
399.177	10.4
399.383	10.29
399.59	10.22
399.797	10.22
400.004	10.29
400.211	10.32
400.418	10.31
400.625	10.19
400.831	10.17
401.038	10.25
401.245	10.28
401.452	10.3
401.658	10.24
401.865	10.29
402.072	10.36
402.279	10.25
402.485	9.95
402.692	9.84
402.899	9.83
403.105	9.74
403.312	9.61
403.519	9.43
403.725	9.43
403.932	9.38
404.138	9.24
404.345	9.1
404.552	9.08
404.758	9.19
404.965	9.14
405.171	9.23
405.378	9.19
405.584	9.22
405.791	9.37
405.997	9.51
406.204	9.59
406.41	9.58
406.617	9.67
406.823	9.78
407.029	9.83
407.236	10.03
407.442	9.93
407.649	10.15
407.855	10.15
408.061	10.29
408.268	10.19
408.474	10.25
408.68	10.22
408.887	10.09
409.093	9.98
409.299	10.01
409.505	9.88
409.712	9.77
409.918	9.63
410.124	9.43
410.33	9.23
410.537	9.27
410.743	9.12
410.949	9.2
411.155	9.16
411.361	9.13
411.567	9.02
411.773	8.97
411.98	9.11
412.186	8.99
412.392	9.24
412.598	9.15
412.804	8.96
413.01	8.97
413.216	8.97
413.422	9.02
413.628	9.02
413.834	8.85
414.04	8.92
414.246	8.78
414.452	8.79
414.658	8.84
414.864	8.77
415.07	8.94
415.275	8.79
415.481	8.72
415.687	8.72
415.893	8.55
416.099	8.58
416.305	8.45
416.511	8.55
416.716	8.43
416.922	8.28
417.128	8.28
417.334	8
417.539	8.01
417.745	7.82
417.951	7.71
418.157	7.72
418.362	7.67
418.568	7.67
418.774	7.42
418.979	7.47
419.185	7.41
419.391	7.33
419.596	7.38
419.802	7.3
420.008	7.28
420.213	7.95
420.419	7.99
420.624	7.98
420.83	7.98
421.035	8.07
421.241	7.96
421.446	7.87
421.652	7.87
421.857	7.81
422.063	7.8
422.268	7.78
422.474	7.11
422.679	7.06
422.885	7.08
423.09	7.02
423.295	6.94
423.501	7
423.706	7.09
423.911	7.06
424.117	7.11
424.322	7.1
424.527	7.12
424.733	7.08
424.938	7.09
425.143	7.01
425.349	7.04
425.554	7.06
425.759	7.08
425.964	7.06
426.169	7.16
426.375	7.19
426.58	7.28
426.785	7.32
426.99	7.4
427.195	7.4
427.4	7.51
427.605	7.51
427.811	7.67
428.016	7.67
428.221	7.78
428.426	7.72
428.631	7.69
428.836	7.72
429.041	7.74
429.246	7.76
429.451	7.79
429.656	7.85
429.861	7.91
430.066	7.75
430.271	7.74
430.476	7.62
430.681	7.65
430.886	7.65
431.09	7.63
431.295	7.61
431.5	7.73
431.705	7.7
431.91	7.71
432.115	7.63
432.32	7.73
432.524	7.65
432.729	7.72
432.934	7.71
433.139	7.66
433.343	7.61
433.548	7.55
433.753	7.54
433.958	7.47
434.162	7.42
434.367	7.48
434.572	7.43
434.776	7.49
434.981	7.47
435.186	7.48
435.39	7.63
435.595	7.63
435.799	7.64
436.004	7.48
436.209	7.56
436.413	7.54
436.618	7.51
436.822	7.51
437.027	7.51
437.231	7.49
437.436	7.5
437.64	7.37
437.845	7.36
438.049	7.46
438.253	7.49
438.458	7.42
438.662	7.36
438.867	7.32
439.071	7.29
439.275	7.23
439.48	7.19
439.684	7.12
439.888	7.11
440.093	7.13
440.297	7.03
440.501	7.01
440.706	7.02
440.91	7.01
441.114	7.04
441.318	7.11
441.523	7.16
441.727	7.11
441.931	7.18
442.135	7.22
442.339	7.27
442.543	7.4
442.748	7.38
442.952	7.43
443.156	7.5
443.36	7.41
443.564	7.36
443.768	7.4
443.972	7.45
444.176	7.38
444.38	7.31
444.584	7.27
444.788	7.13
444.992	7.14
445.196	7.1
445.4	6.96
445.604	7.07
445.808	7.09
446.012	6.97
446.216	6.94
446.42	6.96
446.624	6.95
446.828	6.84
447.032	6.87
447.235	6.83
447.439	6.84
447.643	6.92
447.847	6.76
448.051	6.72
448.254	6.74
448.458	6.73
448.662	6.71
448.866	6.68
449.069	6.86
449.273	6.88
449.477	6.92
449.681	6.93
449.884	7.01
450.088	7.22
450.292	7.21
450.495	7.29
450.699	7.33
450.902	7.22
451.106	7.24
451.31	7.17
451.513	7.19
451.717	7.2
451.92	7.18
452.124	7.09
452.327	6.97
452.531	7.01
452.734	6.96
452.938	7.04
453.141	7.24
453.345	7.35
453.548	7.3
453.752	7.25
453.955	7.33
454.158	7.3
454.362	7.27
454.565	7.26
454.769	7.25
454.972	7.24
455.175	7.2
455.379	7.14
455.582	7.13
455.785	7.22
455.988	7.21
456.192	7.18
456.395	7.21
456.598	7.32
456.801	7.36
457.005	7.31
457.208	7.42
457.411	7.38
457.614	7.27
457.817	7.18
458.021	7.05
458.224	7.02
458.427	6.88
458.63	6.82
458.833	6.71
459.036	6.65
459.239	6.59
459.442	6.47
459.645	6.41
459.848	6.44
460.051	6.45
460.254	6.49
460.457	6.47
460.66	6.55
460.863	6.58
461.066	6.62
461.269	6.59
461.472	6.72
461.675	6.74
461.878	6.81
462.081	6.84
462.284	6.89
462.486	6.94
462.689	6.97
462.892	7
463.095	7.01
463.298	7.13
463.5	7.24
