Data from 2938746__Reflection_04.txt Node
Date: Sun Mar 15 11:44:46 EDT 2015
User: robert
Spectrometer: USB4E03002
Autoset integration time: false
Trigger mode: 4
Integration Time (sec): 1.000000E-1
Scans to average: 10
Electric dark correction enabled: false
Nonlinearity correction enabled: false
Boxcar width: 5
Stray light correction enabled: false
XAxis mode: Wavelengths
Stop averaging: false
Number of Pixels in Spectrum: 3648
>>>>>Begin Spectral Data<<<<<
177.575	330
177.794	252.91
178.014	431.38
178.233	497.42
178.452	587.44
178.672	847.97
178.891	1008.27
179.11	-2944.19
179.33	-763.25
179.549	-635.38
179.768	-955.24
179.987	-1733.77
180.207	-499.64
180.426	-3053.85
180.645	-2501.49
180.864	-24642.86
181.084	1660.71
181.303	-8871.43
181.522	1048.7
181.741	920.56
181.96	1656.1
182.179	460.04
182.398	427.44
182.618	288.89
182.837	292.72
183.056	262.45
183.275	285.41
183.494	322.4
183.713	263.15
183.932	246.29
184.151	213.36
184.37	214.17
184.589	315.83
184.808	313.98
185.027	355.33
185.246	358.02
185.465	315.8
185.684	349.13
185.903	319.78
186.122	302.58
186.341	474.76
186.56	821.46
186.779	591.94
186.998	554.87
187.216	663.48
187.435	1210.83
187.654	1113.69
187.873	3718
188.092	1224.69
188.311	874.03
188.53	1222.44
188.748	1055.74
188.967	815.52
189.186	895.67
189.405	721.32
189.623	959.69
189.842	625.86
190.061	624.48
190.28	578.45
190.498	1044.81
190.717	848
190.936	1299.21
191.154	843.02
191.373	731.31
191.592	367.76
191.81	324.91
192.029	270.53
192.248	296.16
192.466	415.35
192.685	371.06
192.904	267.53
193.122	317.16
193.341	350.25
193.559	283.87
193.778	291.38
193.996	559.31
194.215	791.67
194.433	-3988.89
194.652	1314.77
194.87	927.69
195.089	1341.86
195.307	2252.83
195.526	1006.33
195.744	1905.19
195.963	-1604.21
196.181	-3746.51
196.399	-3216
196.618	-1380
196.836	-1456.03
197.055	-653.97
197.273	-803.4
197.491	-883.62
197.71	-3225
197.928	-1606.12
198.146	-1454.24
198.365	-1558.72
198.583	-3034.48
198.801	5523.53
199.019	1148.15
199.238	604.53
199.456	440.36
199.674	593.79
199.892	789.36
200.111	859.59
200.329	934.5
200.547	348.81
200.765	262.18
200.983	251.54
201.202	246.52
201.42	277.33
201.638	259.36
201.856	273.55
202.074	213.49
202.292	198.15
202.51	224.94
202.728	212.14
202.946	265.57
203.165	321.13
203.383	337.52
203.601	348.36
203.819	335.52
204.037	373.16
204.255	335.33
204.473	291.92
204.691	284.37
204.909	286.38
205.127	317.02
205.345	247.43
205.562	236.34
205.78	297.71
205.998	337.23
206.216	399.78
206.434	382.72
206.652	511.5
206.87	1167.97
207.088	4326.47
207.306	694.52
207.523	912.03
207.741	1031.94
207.959	1240.5
208.177	498.17
208.395	379.78
208.612	296.39
208.83	327.55
209.048	318.75
209.266	256.81
209.483	253.08
209.701	281.02
209.919	309.6
210.136	237.66
210.354	195.08
210.572	290.55
210.79	283.94
211.007	245.92
211.225	218.91
211.442	191.4
211.66	194.03
211.878	209.72
212.095	168.21
212.313	157.25
212.53	174.89
212.748	178.17
212.966	151.24
213.183	141.82
213.401	150.22
213.618	153.47
213.836	150.68
214.053	155.22
214.271	137.95
214.488	187.29
214.705	157.88
214.923	164.58
215.14	163.67
215.358	154.58
215.575	178.69
215.793	148.3
216.01	134.9
216.227	128.22
216.445	130.34
216.662	147.39
216.879	131.53
217.097	135.58
217.314	127.45
217.531	139.14
217.749	131.16
217.966	132.47
218.183	152.61
218.4	154.89
218.618	174.4
218.835	164.43
219.052	140.34
219.269	143.67
219.487	158.64
219.704	154.05
219.921	150
220.138	156.89
220.355	129.96
220.572	126.56
220.79	122.69
221.007	111.25
221.224	107.89
221.441	104.56
221.658	97.77
221.875	84.31
222.092	80.06
222.309	77.86
222.526	77.69
222.743	74.4
222.96	68.2
223.177	69.63
223.394	73.38
223.611	66.1
223.828	62
224.045	57.72
224.262	53.65
224.479	52.68
224.696	46.78
224.913	47.14
225.13	45.83
225.347	46.3
225.564	38.49
225.781	37.46
225.997	40.97
226.214	40.12
226.431	38.53
226.648	39.28
226.865	35.46
227.082	33.7
227.298	29.24
227.515	25.38
227.732	22.46
227.949	22.63
228.165	19.34
228.382	17.89
228.599	16.6
228.816	15.55
229.032	14.26
229.249	14.05
229.466	13.49
229.682	12.49
229.899	12.83
230.116	12.78
230.332	11.94
230.549	12.6
230.765	12.36
230.982	13.29
231.199	13.42
231.415	13.86
231.632	16.25
231.848	17.36
232.065	18.52
232.281	17.69
232.498	19.27
232.714	19.76
232.931	19.79
233.147	22.24
233.364	21.68
233.58	21.28
233.797	20.81
234.013	19.89
234.23	19.08
234.446	21.2
234.662	23.1
234.879	22.17
235.095	22.69
235.312	24.16
235.528	22.74
235.744	25.29
235.961	24.25
236.177	25
236.393	24.93
236.61	24.85
236.826	22.29
237.042	19.93
237.258	19.12
237.475	20.11
237.691	19.9
237.907	18.63
238.123	15.75
238.339	15.61
238.556	15.78
238.772	15.64
238.988	16.55
239.204	19.32
239.42	20.05
239.636	19.45
239.853	17.71
240.069	16.23
240.285	16.26
240.501	16.33
240.717	16.11
240.933	14.8
241.149	13.15
241.365	11.63
241.581	10.32
241.797	10
242.013	10.07
242.229	9.67
242.445	9.38
242.661	9.43
242.877	9.24
243.093	9.55
243.309	9.31
243.525	9.65
243.741	10.14
243.957	10.7
244.173	11.01
244.388	10.69
244.604	11.17
244.82	11.61
245.036	10.76
245.252	10.4
245.468	9.05
245.683	9.18
245.899	8.64
246.115	8.31
246.331	7.23
246.547	6.69
246.762	6.53
246.978	6.24
247.194	6.23
247.409	6.27
247.625	6.22
247.841	6.69
248.057	6.58
248.272	6.93
248.488	6.35
248.703	6.51
248.919	6.52
249.135	7.1
249.35	8.13
249.566	8.33
249.782	8.58
249.997	8.83
250.213	8.82
250.428	9.61
250.644	8.84
250.859	9.83
251.075	10.37
251.29	10.89
251.506	10.51
251.721	9.89
251.937	9.82
252.152	10.07
252.368	9.55
252.583	9.94
252.798	9.75
253.014	10.15
253.229	10.48
253.445	11.27
253.66	12.06
253.875	13.03
254.091	13.09
254.306	13.03
254.521	13.21
254.737	14.19
254.952	14.01
255.167	14.68
255.383	14.26
255.598	14.18
255.813	13.21
256.028	12.4
256.244	11.33
256.459	10.71
256.674	10.02
256.889	9.21
257.104	9.49
257.32	8.84
257.535	8.11
257.75	8.34
257.965	7.7
258.18	6.89
258.395	6.36
258.61	5.8
258.826	5.42
259.041	5.35
259.256	5.24
259.471	5.16
259.686	4.91
259.901	4.64
260.116	4.43
260.331	4.6
260.546	4.69
260.761	4.87
260.976	4.96
261.191	5.26
261.406	5.54
261.621	5.74
261.836	5.57
262.05	6.21
262.265	6.89
262.48	7.1
262.695	7.26
262.91	7.89
263.125	7.68
263.34	8.93
263.555	9.83
263.769	9.64
263.984	10.26
264.199	10.43
264.414	10.35
264.629	10.63
264.843	10.93
265.058	11.04
265.273	10.57
265.488	10.69
265.702	9.5
265.917	8.42
266.132	8.65
266.346	8.92
266.561	8.82
266.776	8.63
266.99	8.43
267.205	8.17
267.42	7.83
267.634	8.29
267.849	7.94
268.063	8.55
268.278	8.65
268.492	8.55
268.707	7.78
268.922	7.84
269.136	7.53
269.351	7.17
269.565	7.08
269.78	6.77
269.994	6.3
270.209	6.81
270.423	6.25
270.637	6.33
270.852	5.92
271.066	5.71
271.281	5.58
271.495	5.08
271.709	5.04
271.924	5.43
272.138	5.62
272.353	5.78
272.567	5.7
272.781	5.84
272.996	5.59
273.21	5.86
273.424	6.37
273.638	6.48
273.853	7.24
274.067	7.75
274.281	7.91
274.495	7.88
274.71	7.92
274.924	7.86
275.138	7.9
275.352	8.24
275.566	8.22
275.781	7.98
275.995	8
276.209	8.12
276.423	8.02
276.637	7.83
276.851	8.01
277.065	7.46
277.279	7.3
277.493	7.21
277.707	7.24
277.921	6.98
278.135	6.94
278.349	6.95
278.563	6.67
278.777	6.21
278.991	6.15
279.205	6.17
279.419	6.64
279.633	6.51
279.847	6.29
280.061	5.84
280.275	5.96
280.489	5.92
280.703	5.92
280.917	5.86
281.131	5.92
281.344	5.91
281.558	5.52
281.772	5.73
281.986	5.76
282.2	6.14
282.414	6.64
282.627	6.52
282.841	6.46
283.055	6.72
283.269	6.9
283.482	6.6
283.696	6.52
283.91	6.93
284.123	6.62
284.337	6.37
284.551	5.98
284.764	5.53
284.978	5.58
285.192	5.49
285.405	5.28
285.619	5.3
285.833	5.52
286.046	5.57
286.26	5.37
286.473	5.14
286.687	5.32
286.9	5.4
287.114	5.38
287.327	5.17
287.541	5.27
287.754	5.33
287.968	5.15
288.181	4.85
288.395	4.25
288.608	4.26
288.822	4.25
289.035	4.17
289.248	4.14
289.462	3.95
289.675	4.22
289.889	4.2
290.102	3.7
290.315	3.77
290.529	4.03
290.742	4.49
290.955	4.97
291.169	5.07
291.382	5.32
291.595	5.33
291.808	5.56
292.022	6.22
292.235	6.6
292.448	6.89
292.661	6.94
292.875	7.3
293.088	7.32
293.301	6.92
293.514	7.01
293.727	7.11
293.94	7.2
294.153	7.52
294.367	6.73
294.58	6.6
294.793	6.51
295.006	6.48
295.219	6.37
295.432	6.12
295.645	5.94
295.858	5.92
296.071	5.77
296.284	5.43
296.497	5.37
296.71	5.46
296.923	5.04
297.136	5.24
297.349	5.2
297.562	4.89
297.775	4.68
297.988	4.83
298.201	5.17
298.414	5.29
298.626	5.55
298.839	5.41
299.052	5.2
299.265	5.59
299.478	5.36
299.691	5.45
299.903	5.8
300.116	6.01
300.329	6.14
300.542	5.54
300.755	5.32
300.967	5.39
301.18	5.63
301.393	6.1
301.605	6.26
301.818	6.56
302.031	6.81
302.243	6.94
302.456	7.28
302.669	7.2
302.881	7.58
303.094	7.63
303.307	7.75
303.519	7.72
303.732	7.6
303.944	7.29
304.157	7.31
304.37	6.95
304.582	6.93
304.795	7.03
305.007	6.68
305.22	6.97
305.432	7.41
305.645	7.31
305.857	7.35
306.069	7.65
306.282	7.6
306.494	6.96
306.707	7.02
306.919	6.58
307.132	6.37
307.344	6.62
307.556	6.34
307.769	6.17
307.981	6
308.193	5.72
308.406	5.72
308.618	5.9
308.83	6.44
309.043	6.77
309.255	7.03
309.467	6.8
309.679	6.75
309.892	6.56
310.104	6.51
310.316	6.52
310.528	6.74
310.74	6.45
310.953	6.35
311.165	6.5
311.377	6.19
311.589	5.98
311.801	6.24
312.013	6.21
312.225	6.3
312.437	6.1
312.649	6.03
312.862	5.8
313.074	5.8
313.286	5.95
313.498	5.71
313.71	5.7
313.922	5.73
314.134	6.41
314.346	6.81
314.558	6.67
314.77	6.54
314.982	7.05
315.193	7.83
315.405	7.94
315.617	7.74
315.829	7.74
316.041	8.09
316.253	8.02
316.465	7.4
316.677	7.36
316.888	8.09
317.1	8.42
317.312	8.91
317.524	8.61
317.736	8.77
317.947	9.27
318.159	9.14
318.371	9.21
318.583	9.3
318.794	9.34
319.006	8.89
319.218	8.57
319.43	8.55
319.641	8.37
319.853	8.65
320.064	9.07
320.276	9.24
320.488	9.4
320.699	9.78
320.911	10.28
321.123	10.38
321.334	10.55
321.546	10.69
321.757	10.31
321.969	9.86
322.18	9.52
322.392	9.21
322.603	9.17
322.815	9.55
323.026	9.27
323.238	9.38
323.449	9.18
323.661	9.57
323.872	9.68
324.083	10.24
324.295	10.62
324.506	11.25
324.718	11.33
324.929	11.16
325.14	11.28
325.352	11.36
325.563	11.47
325.774	11.75
325.986	11.85
326.197	11.8
326.408	12.44
326.62	12.74
326.831	12.26
327.042	12.78
327.253	13.42
327.464	13.57
327.676	14.16
327.887	14.49
328.098	14.92
328.309	15.6
328.52	16.33
328.732	16.26
328.943	16.56
329.154	17.13
329.365	17.38
329.576	17.84
329.787	18.25
329.998	18.12
330.209	18.33
330.42	18.62
330.631	18.53
330.842	18.43
331.053	18.91
331.264	18.95
331.475	19.07
331.686	19.2
331.897	19.03
332.108	19.23
332.319	19.61
332.53	19.8
332.741	20.08
332.952	20.43
333.163	20.65
333.374	20.34
333.585	20.47
333.795	20.74
334.006	20.76
334.217	20.84
334.428	20.43
334.639	20.18
334.849	20.13
335.06	20.01
335.271	20
335.482	20.31
335.692	20.36
335.903	20.51
336.114	20.53
336.325	20.8
336.535	21.13
336.746	21.47
336.957	21.35
337.167	21.57
337.378	21.66
337.589	21.62
337.799	21.3
338.01	21.88
338.22	21.79
338.431	22.03
338.642	21.63
338.852	21.61
339.063	21.75
339.273	21.58
339.484	21.27
339.694	21.52
339.905	21.39
340.115	21.59
340.326	21.38
340.536	21.28
340.746	20.81
340.957	21.28
341.167	21.09
341.378	20.99
341.588	21.43
341.799	21.7
342.009	21.27
342.219	21.41
342.43	21.06
342.64	21.08
342.85	21.11
343.061	21.29
343.271	21.03
343.481	21.15
343.691	21.49
343.902	21.32
344.112	21.45
344.322	21.86
344.532	21.79
344.743	22.3
344.953	22.41
345.163	22.43
345.373	22.55
345.583	22.33
345.793	22.23
346.004	22.09
346.214	22.11
346.424	21.58
346.634	21.19
346.844	20.92
347.054	20.57
347.264	20.28
347.474	20.15
347.684	19.94
347.894	19.85
348.104	19.83
348.314	19.77
348.524	20.11
348.734	20.28
348.944	20.82
349.154	21.22
349.364	21.21
349.574	20.71
349.784	20.9
349.994	20.8
350.204	21
350.413	21.1
350.623	20.99
350.833	21.14
351.043	20.98
351.253	20.61
351.463	20.56
351.672	20.63
351.882	20.71
352.092	20.44
352.302	20.59
352.511	20.79
352.721	20.43
352.931	20.32
353.141	19.85
353.35	19.87
353.56	19.7
353.77	20.03
353.979	19.81
354.189	19.9
354.399	19.54
354.608	19.6
354.818	19.16
355.027	19.3
355.237	19.22
355.447	19.19
355.656	19.35
355.866	19.53
356.075	19.04
356.285	19.18
356.494	19.11
356.704	19.72
356.913	19.45
357.123	19.58
357.332	19.51
357.542	19.74
357.751	19.64
357.96	19.56
358.17	19.61
358.379	19.51
358.589	19.48
358.798	19.66
359.007	19.47
359.217	19.48
359.426	19.52
359.635	19.52
359.845	19.34
360.054	19.43
360.263	19.23
360.472	18.9
360.682	18.99
360.891	18.95
361.1	18.93
361.309	18.7
361.519	18.47
361.728	18.41
361.937	18.29
362.146	18.25
362.355	18.09
362.564	18.25
362.774	18.21
362.983	17.99
363.192	17.8
363.401	17.63
363.61	17.54
363.819	17.96
364.028	18.02
364.237	18.14
364.446	18.25
364.655	18.31
364.864	18.32
365.073	18.56
365.282	18.81
365.491	18.85
365.7	18.85
365.909	19.11
366.118	18.98
366.327	18.99
366.536	19.06
366.745	18.81
366.954	18.91
367.162	18.78
367.371	18.45
367.58	18.45
367.789	18.44
367.998	18.32
368.207	18.19
368.415	18.24
368.624	17.85
368.833	17.54
369.042	17.63
369.25	17.78
369.459	18.08
369.668	18.14
369.877	17.95
370.085	18.02
370.294	18.2
370.503	18.15
370.711	18.11
370.92	18.49
371.129	18.69
371.337	18.87
371.546	18.73
371.754	18.66
371.963	18.74
372.171	18.72
372.38	18.8
372.589	18.88
372.797	19
373.006	19.07
373.214	18.8
373.423	18.75
373.631	18.33
373.84	18.23
374.048	18.19
374.256	18.21
374.465	18.09
374.673	17.8
374.882	17.84
375.09	17.73
375.298	17.8
375.507	17.77
375.715	17.83
375.923	17.88
376.132	17.97
376.34	17.92
376.548	17.87
376.757	18.05
376.965	18.3
377.173	18.39
377.381	18.28
377.59	17.75
377.798	17.8
378.006	17.5
378.214	17.58
378.423	17.64
378.631	17.48
378.839	17.26
379.047	17.32
379.255	17.28
379.463	16.98
379.671	17.22
379.879	17.3
380.088	17.32
380.296	17.21
380.504	17.24
380.712	17.36
380.92	17.48
381.128	17.91
381.336	17.86
381.544	17.58
381.752	17.76
381.96	17.62
382.168	17.6
382.376	17.76
382.584	18.05
382.791	18.03
382.999	17.69
383.207	17.52
383.415	17.39
383.623	17.29
383.831	17.49
384.039	17.34
384.247	17.22
384.454	17.16
384.662	17.07
384.87	16.93
385.078	17.01
385.285	17.13
385.493	17.13
385.701	17.08
385.909	17.08
386.116	16.92
386.324	16.97
386.532	17.23
386.739	17.44
386.947	17.46
387.155	17.57
387.362	17.36
387.57	17.34
387.778	17.32
387.985	17.23
388.193	17.43
388.4	17.52
388.608	17.61
388.816	17.53
389.023	17.39
389.231	17.47
389.438	17.62
389.646	17.73
389.853	17.62
390.061	17.71
390.268	17.76
390.475	17.65
390.683	17.57
390.89	17.37
391.098	17.13
391.305	17.24
391.512	17.01
391.72	16.74
391.927	16.61
392.135	16.63
392.342	16.6
392.549	16.57
392.756	16.46
392.964	16.45
393.171	16.55
393.378	16.51
393.586	16.45
393.793	16.55
394	16.69
394.207	16.76
394.414	16.82
394.622	16.78
394.829	16.92
395.036	16.82
395.243	16.91
395.45	16.86
395.657	17.03
395.864	17.12
396.072	17.04
396.279	17.15
396.486	17.31
396.693	17.4
396.9	17.49
397.107	17.36
397.314	17.65
397.521	17.65
397.728	17.49
397.935	17.36
398.142	17.03
398.349	16.93
398.556	16.94
398.763	16.92
398.97	16.89
399.177	16.74
399.383	16.68
399.59	16.54
399.797	16.66
400.004	16.72
400.211	16.6
400.418	16.98
400.625	17.16
400.831	16.97
401.038	16.77
401.245	16.71
401.452	17.01
401.658	17.03
401.865	17.19
402.072	17.04
402.279	17.15
402.485	17.34
402.692	17.08
402.899	16.95
403.105	17.02
403.312	17
403.519	16.94
403.725	16.76
403.932	16.81
404.138	16.77
404.345	16.79
404.552	16.64
404.758	16.63
404.965	16.79
405.171	16.88
405.378	16.91
405.584	17.08
405.791	17.23
405.997	17.16
406.204	17.18
406.41	17.08
406.617	17.24
406.823	17.43
407.029	17.47
407.236	17.57
407.442	17.72
407.649	17.75
407.855	17.73
408.061	17.75
408.268	17.78
408.474	17.89
408.68	18.02
408.887	17.83
409.093	17.74
409.299	17.81
409.505	17.56
409.712	17.48
409.918	17.55
410.124	17.61
410.33	17.5
410.537	17.62
410.743	17.41
410.949	17.45
411.155	17.59
411.361	17.71
411.567	17.83
411.773	17.86
411.98	17.68
412.186	17.71
412.392	17.64
412.598	17.59
412.804	17.58
413.01	17.73
413.216	17.36
413.422	17.4
413.628	17.38
413.834	17.21
414.04	17.34
414.246	17.45
414.452	17.4
414.658	17.45
414.864	17.56
415.07	17.59
415.275	17.53
415.481	17.82
415.687	17.71
415.893	17.62
416.099	17.53
416.305	17.62
416.511	17.52
416.716	17.38
416.922	17.22
417.128	17.15
417.334	17.01
417.539	16.93
417.745	16.77
417.951	16.7
418.157	16.67
418.362	16.81
418.568	16.75
418.774	16.89
418.979	16.97
419.185	16.97
419.391	16.89
419.596	16.91
419.802	17.04
420.008	17.13
420.213	16.56
420.419	16.67
420.624	16.57
420.83	16.64
421.035	16.56
421.241	16.46
421.446	16.45
421.652	16.5
421.857	16.52
422.063	16.49
422.268	16.46
422.474	16.93
422.679	16.85
422.885	16.9
423.09	16.82
423.295	16.73
423.501	16.76
423.706	16.81
423.911	16.82
424.117	16.79
424.322	16.82
424.527	16.76
424.733	16.79
424.938	16.88
425.143	16.89
425.349	16.81
425.554	16.84
425.759	16.89
425.964	16.96
426.169	17.03
426.375	17.03
426.58	17.05
426.785	17.21
426.99	17.27
427.195	17.25
427.4	17.31
427.605	17.51
427.811	17.72
428.016	17.76
428.221	17.68
428.426	17.65
428.631	17.81
428.836	17.61
429.041	17.71
429.246	17.81
429.451	17.85
429.656	17.81
429.861	17.71
430.066	17.65
430.271	17.59
430.476	17.57
430.681	17.54
430.886	17.52
431.09	17.69
431.295	17.58
431.5	17.55
431.705	17.59
431.91	17.52
432.115	17.53
432.32	17.47
432.524	17.55
432.729	17.65
432.934	17.66
433.139	17.67
433.343	17.66
433.548	17.67
433.753	17.63
433.958	17.49
434.162	17.52
434.367	17.63
434.572	17.77
434.776	17.68
434.981	17.64
435.186	17.66
435.39	17.64
435.595	17.59
435.799	17.58
436.004	17.74
436.209	17.84
436.413	17.9
436.618	17.83
436.822	17.75
437.027	17.9
437.231	17.88
437.436	17.81
437.64	17.85
437.845	17.9
438.049	17.94
438.253	17.86
438.458	17.89
438.662	17.84
438.867	17.85
439.071	17.86
439.275	17.74
439.48	17.72
439.684	17.82
439.888	17.74
440.093	17.75
440.297	17.73
440.501	17.64
440.706	17.68
440.91	17.66
441.114	17.65
441.318	17.57
441.523	17.58
441.727	17.65
441.931	17.61
442.135	17.69
442.339	17.69
442.543	17.71
442.748	17.75
442.952	17.68
443.156	17.9
443.36	17.93
443.564	18.01
443.768	17.98
443.972	17.96
444.176	18.04
444.38	18.01
444.584	18.04
444.788	18.01
444.992	18.15
445.196	18.08
445.4	17.93
445.604	17.86
445.808	17.94
446.012	18.02
446.216	18.09
446.42	17.99
446.624	17.98
446.828	17.97
447.032	17.99
447.235	17.9
447.439	17.98
447.643	18
447.847	18.03
448.051	17.91
448.254	17.85
448.458	17.7
448.662	17.78
448.866	17.72
449.069	17.67
449.273	17.73
449.477	17.78
449.681	17.69
449.884	17.74
450.088	17.77
450.292	17.76
450.495	17.83
450.699	17.89
450.902	17.81
451.106	17.85
451.31	17.83
451.513	17.73
451.717	17.75
451.92	17.81
452.124	17.79
452.327	17.8
452.531	17.9
452.734	17.81
452.938	17.86
453.141	17.96
453.345	17.95
453.548	17.99
453.752	18.03
453.955	18.1
454.158	18.05
454.362	18.03
454.565	18.07
454.769	18.13
454.972	18.29
455.175	18.35
455.379	18.28
455.582	18.27
455.785	18.35
455.988	18.28
456.192	18.24
456.395	18.29
456.598	18.33
456.801	18.26
457.005	18.26
457.208	18.3
457.411	18.29
457.614	18.27
457.817	18.35
458.021	18.3
